##NAMES=Enstatite
##RRUFFID=R060630
##IDEAL CHEMISTRY=MgSiO_3_
##LOCALITY=unknown
##OWNER=RRUFF
##SOURCE=Gemological Institute of America
##DESCRIPTION=Tan colored fragment
##STATUS=The identification of this mineral has been confirmed by X-ray diffraction and chemical analysis
##URL=rruff.info/R060630
##MEASURED CHEMISTRY=(Mg_0.89_Fe_0.07_Al_0.04_)_Σ=1_(Si_0.96_Al_0.04_)_Σ=1_O_3_
##PIN_ID=L00984
##ORIENTATION=Laser parallel to a* (1 0 0). Fiducial mark perpendicular to laser is parallel to -b [0 -1 0]
118.1340, 17378.00
119.3650, 15925.00
120.5960, 16061.00
121.8270, 16353.00
123.0580, 16426.00
124.2880, 16842.00
125.5190, 16545.00
126.7490, 16774.00
127.9790, 17156.00
129.2090, 17747.00
130.4390, 18070.00
131.6680, 18806.00
132.8980, 19254.00
134.1270, 19693.00
135.3560, 20345.00
136.5850, 20929.00
137.8140, 21565.00
139.0430, 22166.00
140.2710, 22384.00
141.5000, 22456.00
142.7280, 22017.00
143.9560, 21770.00
145.1840, 21378.00
146.4120, 20653.00
147.6390, 20321.00
148.8670, 20035.00
150.0940, 19775.00
151.3210, 19881.00
152.5490, 19770.00
153.7750, 19499.00
155.0020, 19351.00
156.2290, 19143.00
157.4550, 18887.00
158.6810, 18704.00
159.9080, 18547.00
161.1340, 18625.00
162.3590, 18694.00
163.5850, 18640.00
164.8110, 18652.00
166.0360, 18585.00
167.2610, 18407.00
168.4860, 18535.00
169.7110, 18474.00
170.9360, 18565.00
172.1610, 18310.00
173.3850, 18365.00
174.6100, 18260.00
175.8340, 18110.00
177.0580, 18115.00
178.2820, 18028.00
179.5050, 18073.00
180.7290, 18061.00
181.9520, 18155.00
183.1760, 18290.76
184.3990, 18529.00
185.6220, 18643.00
186.8450, 18910.00
188.0670, 19100.00
189.2900, 19418.00
190.5120, 19394.00
191.7340, 19820.00
192.9560, 19909.00
194.1780, 20308.00
195.4000, 20549.00
196.6220, 20595.00
197.8430, 20758.00
199.0640, 20931.00
200.2860, 20998.00
201.5070, 20840.00
202.7270, 20887.00
203.9480, 20524.00
205.1690, 20335.00
206.3890, 20158.00
207.6090, 19952.00
208.8290, 19859.91
210.0490, 19795.00
211.2690, 19737.00
212.4890, 19706.17
213.7080, 19672.72
214.9280, 19715.00
216.1470, 19711.00
217.3660, 19799.00
218.5850, 19986.00
219.8030, 20043.00
221.0220, 20173.00
222.2400, 20515.00
223.4590, 21031.00
224.6770, 21297.00
225.8950, 22151.00
227.1120, 22630.00
228.3300, 23508.00
229.5480, 24187.00
230.7650, 24955.00
231.9820, 26067.00
233.1990, 26625.00
234.4160, 28059.00
235.6330, 28535.00
236.8490, 28568.00
238.0660, 28082.00
239.2820, 27192.00
240.4980, 26310.00
241.7140, 25363.00
242.9300, 24131.00
244.1460, 23126.00
245.3610, 22353.00
246.5770, 21616.00
247.7920, 21174.00
249.0070, 20697.00
250.2220, 20379.00
251.4370, 20245.00
252.6510, 20176.00
253.8660, 19960.00
255.0800, 19894.00
256.2940, 19727.00
257.5080, 20151.00
258.7220, 20000.24
259.9360, 19945.98
261.1490, 20110.00
262.3630, 19752.00
263.5760, 19853.00
264.7890, 19919.00
266.0020, 19792.00
267.2150, 19756.00
268.4270, 19962.00
269.6400, 19849.00
270.8520, 19805.00
272.0640, 19952.00
273.2760, 19978.00
274.4880, 20051.09
275.7000, 20196.00
276.9120, 20238.00
278.1230, 20453.00
279.3340, 20604.00
280.5450, 20583.00
281.7560, 20808.00
282.9670, 20814.00
284.1780, 20949.00
285.3880, 20981.00
286.5980, 21127.00
287.8090, 21382.00
289.0190, 21463.00
290.2290, 21683.00
291.4380, 21800.00
292.6480, 22022.00
293.8570, 22274.00
295.0670, 22368.00
296.2760, 22535.00
297.4850, 22589.30
298.6930, 22493.00
299.9020, 22579.00
301.1110, 22572.00
302.3190, 22441.00
303.5270, 22414.00
304.7350, 22327.00
305.9430, 22298.00
307.1510, 22311.00
308.3580, 22523.00
309.5660, 22507.00
310.7730, 22753.00
311.9800, 22987.00
313.1870, 23180.00
314.3940, 23256.00
315.6010, 23597.00
316.8070, 23761.00
318.0130, 24253.00
319.2200, 24496.00
320.4260, 24498.00
321.6310, 24972.00
322.8370, 25306.00
324.0430, 25450.00
325.2480, 26180.00
326.4540, 26544.00
327.6590, 26944.00
328.8640, 27534.00
330.0680, 28412.00
331.2730, 29017.00
332.4780, 30006.00
333.6820, 30792.00
334.8860, 31649.00
336.0900, 32978.00
337.2940, 33624.00
338.4980, 35360.00
339.7010, 36651.00
340.9050, 38376.00
342.1080, 39547.89
343.3110, 40785.00
344.5140, 41539.00
345.7170, 42373.00
346.9200, 42597.00
348.1220, 42997.00
349.3240, 43161.00
350.5270, 42552.00
351.7290, 41515.00
352.9310, 40632.00
354.1320, 39525.00
355.3340, 38231.00
356.5350, 37227.00
357.7370, 35873.00
358.9380, 34807.00
360.1390, 34023.00
361.3400, 33030.00
362.5400, 32548.00
363.7410, 31568.00
364.9410, 30668.00
366.1410, 30263.00
367.3410, 29561.00
368.5410, 29049.00
369.7410, 28991.00
370.9400, 28518.00
372.1400, 28357.00
373.3390, 28173.00
374.5380, 28358.00
375.7370, 28072.00
376.9360, 28133.00
378.1350, 28118.00
379.3330, 28191.00
380.5310, 28422.00
381.7300, 28576.00
382.9280, 28463.00
384.1260, 28563.00
385.3230, 28872.00
386.5210, 28714.00
387.7180, 29001.00
388.9160, 28957.00
390.1130, 29012.00
391.3100, 29228.00
392.5060, 29573.00
393.7030, 29801.00
394.9000, 30148.00
396.0960, 30260.00
397.2920, 30436.00
398.4880, 30943.00
399.6840, 30981.00
400.8800, 31153.00
402.0750, 30782.00
403.2710, 30824.00
404.4660, 30961.00
405.6610, 30783.00
406.8560, 30903.00
408.0510, 30830.00
409.2450, 30652.00
410.4400, 31058.00
411.6340, 31241.00
412.8280, 31160.00
414.0220, 31510.00
415.2160, 31672.00
416.4100, 31752.00
417.6030, 31755.00
418.7970, 31262.00
419.9900, 30897.00
421.1830, 30472.00
422.3760, 29892.00
423.5690, 29102.00
424.7610, 28526.00
425.9540, 27515.00
427.1460, 27132.00
428.3380, 26335.00
429.5300, 25959.00
430.7220, 25632.00
431.9140, 25292.00
433.1050, 25148.00
434.2970, 25082.00
435.4880, 25239.00
436.6790, 25339.00
437.8700, 25428.00
439.0610, 25885.00
440.2510, 26094.00
441.4420, 26316.00
442.6320, 26360.00
443.8220, 26641.00
445.0120, 26476.00
446.2020, 26538.00
447.3910, 26292.00
448.5810, 26258.00
449.7700, 26020.00
450.9600, 26194.00
452.1490, 25804.29
453.3370, 25628.74
454.5260, 25243.00
455.7150, 25003.00
456.9030, 24917.00
458.0910, 24528.00
459.2800, 24671.00
460.4670, 24410.00
461.6550, 24714.00
462.8430, 24510.00
464.0300, 24810.00
465.2180, 24528.00
466.4050, 24470.00
467.5920, 24557.00
468.7790, 24450.00
469.9650, 24463.00
471.1520, 24355.00
472.3380, 24472.00
473.5250, 24336.00
474.7110, 24500.00
475.8970, 24308.00
477.0820, 24555.00
478.2680, 24314.00
479.4540, 24520.00
480.6390, 24419.00
481.8240, 24449.00
483.0090, 24658.00
484.1940, 24572.00
485.3780, 24649.00
486.5630, 24435.00
487.7470, 24497.00
488.9320, 24399.00
490.1160, 24291.00
491.3000, 24706.00
492.4830, 24541.00
493.6670, 24684.00
494.8500, 24574.00
496.0340, 24525.00
497.2170, 24527.00
498.4000, 24723.00
499.5820, 24765.00
500.7650, 25103.00
501.9480, 24788.00
503.1300, 24794.00
504.3120, 25036.00
505.4940, 24937.53
506.6760, 25064.73
507.8580, 25245.00
509.0390, 25290.00
510.2210, 25745.00
511.4020, 26093.00
512.5830, 26188.00
513.7640, 27115.00
514.9450, 27261.00
516.1250, 27277.00
517.3060, 27487.00
518.4860, 27000.00
519.6660, 27093.00
520.8460, 26870.00
522.0260, 26991.00
523.2060, 26829.00
524.3850, 27094.00
525.5650, 27017.00
526.7440, 27052.00
527.9230, 27105.00
529.1020, 27072.00
530.2810, 27138.00
531.4590, 27352.00
532.6380, 27534.00
533.8160, 27442.00
534.9940, 27639.00
536.1720, 27494.00
537.3500, 27583.00
538.5270, 27373.00
539.7050, 27506.00
540.8820, 27148.00
542.0590, 27006.00
543.2360, 26902.00
544.4130, 26860.00
545.5900, 26742.00
546.7660, 26995.00
547.9430, 26896.00
549.1190, 26934.00
550.2950, 26770.00
551.4710, 26715.00
552.6470, 26608.00
553.8220, 26495.84
554.9980, 26581.00
556.1730, 26294.00
557.3480, 26346.00
558.5230, 26264.00
559.6980, 26533.00
560.8730, 26198.00
562.0470, 26345.00
563.2220, 26350.00
564.3960, 26408.00
565.5700, 26287.00
566.7440, 26453.68
567.9170, 26399.00
569.0910, 26745.00
570.2640, 26952.00
571.4380, 27163.00
572.6110, 27335.00
573.7840, 27581.00
574.9570, 27540.00
576.1290, 27608.00
577.3020, 27505.00
578.4740, 27615.00
579.6460, 27345.00
580.8180, 26965.00
581.9900, 27086.00
583.1620, 26892.00
584.3330, 26747.00
585.5040, 26344.00
586.6760, 26739.00
587.8470, 26360.00
589.0180, 26262.00
590.1880, 26308.00
591.3590, 26228.00
592.5290, 26421.00
593.7000, 26256.00
594.8700, 26375.00
596.0400, 26243.00
597.2090, 26015.00
598.3790, 26148.00
599.5490, 26281.00
600.7180, 26355.00
601.8870, 26130.00
603.0560, 26099.00
604.2250, 26161.00
605.3940, 26244.00
606.5620, 26238.00
607.7300, 26117.00
608.8990, 26236.00
610.0670, 26440.00
611.2350, 26158.00
612.4020, 26192.00
613.5700, 26469.00
614.7370, 26592.00
615.9050, 26670.00
617.0720, 26641.00
618.2390, 26770.00
619.4060, 26845.00
620.5720, 26811.00
621.7390, 26885.00
622.9050, 27003.06
624.0710, 27023.00
625.2370, 27211.00
626.4030, 27475.00
627.5690, 27431.00
628.7340, 27800.00
629.9000, 27888.00
631.0650, 28008.00
632.2300, 28445.00
633.3950, 28626.00
634.5600, 28795.00
635.7240, 29328.00
636.8890, 29439.00
638.0530, 29767.00
639.2170, 29820.00
640.3810, 30125.00
641.5450, 30280.00
642.7080, 30666.00
643.8720, 31099.00
645.0350, 31275.00
646.1980, 31898.00
647.3610, 32532.00
648.5240, 33501.00
649.6870, 34582.00
650.8490, 35463.68
652.0120, 36335.00
653.1740, 37556.00
654.3360, 38496.00
655.4980, 39631.00
656.6600, 40933.00
657.8210, 41519.00
658.9830, 42285.00
660.1440, 42756.00
661.3050, 42860.00
662.4660, 42437.00
663.6270, 41669.00
664.7870, 41017.00
665.9480, 40348.00
667.1080, 39773.00
668.2680, 39443.00
669.4280, 39589.00
670.5880, 39282.00
671.7480, 40048.00
672.9070, 40637.00
674.0670, 41766.00
675.2260, 43470.00
676.3850, 45492.00
677.5440, 47667.00
678.7030, 50324.00
679.8610, 52784.00
681.0200, 55165.00
682.1780, 57929.00
683.3360, 59664.00
684.4940, 60737.00
685.6520, 60765.00
686.8090, 60258.00
687.9670, 58329.00
689.1240, 55679.00
690.2810, 53298.00
691.4380, 50103.00
692.5950, 47085.00
693.7520, 44460.00
694.9080, 42121.00
696.0650, 39914.00
697.2210, 38399.00
698.3770, 36935.00
699.5330, 35750.00
700.6880, 35176.00
701.8440, 33722.00
702.9990, 33465.00
704.1550, 32980.00
705.3100, 32121.00
706.4650, 31877.00
707.6190, 31495.00
708.7740, 31183.00
709.9290, 31124.00
711.0830, 30829.00
712.2370, 30540.00
713.3910, 30530.00
714.5450, 30156.00
715.6980, 30067.00
716.8520, 29983.00
718.0050, 29817.00
719.1580, 29883.00
720.3110, 29706.00
721.4640, 29742.00
722.6170, 29586.00
723.7700, 29570.00
724.9220, 29434.00
726.0740, 29408.12
727.2260, 29421.00
728.3780, 29403.00
729.5300, 29355.00
730.6810, 29446.00
731.8330, 29590.00
732.9840, 29231.00
734.1350, 29283.00
735.2860, 29431.00
736.4370, 29113.00
737.5880, 29480.00
738.7380, 29506.00
739.8880, 29310.00
741.0390, 29542.00
742.1890, 29456.00
743.3380, 29417.00
744.4880, 29434.00
745.6380, 29452.98
746.7870, 29526.37
747.9360, 29597.00
749.0850, 29674.00
750.2340, 29666.86
751.3830, 29750.00
752.5310, 29622.00
753.6800, 29606.00
754.8280, 29554.00
755.9760, 29403.00
757.1240, 29399.00
758.2720, 29262.00
759.4190, 29314.00
760.5670, 29071.00
761.7140, 29179.00
762.8610, 29113.00
764.0080, 28933.00
765.1550, 29109.00
766.3020, 29117.00
767.4480, 28977.00
768.5950, 28912.00
769.7410, 28961.00
770.8870, 28820.00
772.0330, 28695.00
773.1780, 28771.00
774.3240, 28971.00
775.4690, 28998.00
776.6140, 28983.00
777.7590, 28985.00
778.9040, 28962.08
780.0490, 28947.16
781.1940, 28907.00
782.3380, 28959.00
783.4820, 28956.00
784.6260, 29077.00
785.7700, 28999.00
786.9140, 29013.00
788.0580, 28923.00
789.2010, 28808.00
790.3450, 29074.00
791.4880, 29126.00
792.6310, 29165.00
793.7730, 29028.00
794.9160, 29114.00
796.0590, 29037.00
797.2010, 29108.00
798.3430, 29077.00
799.4850, 29045.00
800.6270, 29276.00
801.7690, 29043.00
802.9100, 29020.00
804.0520, 29197.00
805.1930, 29231.00
806.3340, 29336.00
807.4750, 29335.00
808.6160, 29482.00
809.7560, 29421.00
810.8970, 29354.00
812.0370, 29333.00
813.1770, 29595.00
814.3170, 29526.00
815.4570, 29675.00
816.5960, 29513.00
817.7360, 29668.24
818.8750, 29586.00
820.0140, 29962.00
821.1530, 29669.00
822.2920, 29924.00
823.4310, 29988.00
824.5690, 30055.00
825.7070, 29924.00
826.8460, 30083.00
827.9840, 30330.00
829.1220, 30212.00
830.2590, 30480.00
831.3970, 30572.00
832.5340, 30810.00
833.6710, 30774.00
834.8080, 30959.41
835.9450, 31039.00
837.0820, 31219.00
838.2190, 31394.00
839.3550, 31544.00
840.4910, 31830.00
841.6270, 31643.00
842.7630, 32071.00
843.8990, 32152.00
845.0350, 32057.00
846.1700, 32334.00
847.3060, 32153.00
848.4410, 32247.00
849.5760, 32187.00
850.7100, 32130.00
851.8450, 32107.00
852.9800, 32057.00
854.1140, 32038.00
855.2480, 32006.00
856.3820, 31759.00
857.5160, 31730.00
858.6500, 31984.00
859.7830, 31592.00
860.9170, 31763.00
862.0500, 31612.00
863.1830, 31246.00
864.3160, 31397.00
865.4480, 31562.00
866.5810, 31332.00
867.7130, 31484.00
868.8460, 31590.00
869.9780, 31579.00
871.1100, 31619.00
872.2410, 31682.18
873.3730, 31425.00
874.5050, 31738.00
875.6360, 31532.00
876.7670, 31433.00
877.8980, 31513.00
879.0290, 31434.00
880.1590, 31425.00
881.2900, 31382.00
882.4200, 31417.00
883.5500, 31432.00
884.6800, 31548.00
885.8100, 31570.00
886.9400, 31613.00
888.0690, 31468.00
889.1990, 31592.00
890.3280, 31808.00
891.4570, 31631.00
892.5860, 31681.00
893.7140, 31540.00
894.8430, 31831.00
895.9710, 31803.00
897.1000, 31913.00
898.2280, 32153.00
899.3560, 32739.00
900.4830, 32777.00
901.6110, 32893.00
902.7380, 32185.00
903.8660, 32403.00
904.9930, 32106.00
906.1200, 32457.00
907.2460, 32196.00
908.3730, 32507.00
909.5000, 32390.00
910.6260, 32480.00
911.7520, 32734.00
912.8780, 32967.00
914.0040, 33030.00
915.1290, 32965.00
916.2550, 33105.00
917.3800, 33485.00
918.5050, 33601.00
919.6300, 33849.00
920.7550, 33875.00
921.8800, 34011.00
923.0040, 34443.00
924.1290, 34571.00
925.2530, 35156.00
926.3770, 35126.00
927.5010, 35660.00
928.6250, 35767.00
929.7480, 36168.00
930.8720, 36376.00
931.9950, 36487.00
933.1180, 36552.00
934.2410, 36573.36
935.3640, 36539.43
936.4860, 36466.00
937.6090, 36346.00
938.7310, 36224.00
939.8530, 36043.00
940.9750, 36325.00
942.0970, 35903.00
943.2180, 35864.00
944.3400, 35883.00
945.4610, 35616.00
946.5820, 35787.00
947.7030, 35873.00
948.8240, 35456.00
949.9450, 35521.00
951.0650, 35607.00
952.1860, 35372.00
953.3060, 35444.00
954.4260, 35119.00
955.5460, 35001.00
956.6650, 34953.00
957.7850, 34679.00
958.9040, 34675.00
960.0230, 34353.00
961.1420, 34252.00
962.2610, 34103.00
963.3800, 33781.00
964.4990, 33614.00
965.6170, 33627.00
966.7350, 33478.00
967.8530, 33435.17
968.9710, 33560.00
970.0890, 33358.00
971.2070, 33225.00
972.3240, 33227.55
973.4410, 33568.00
974.5580, 33362.00
975.6750, 33472.00
976.7920, 33768.00
977.9090, 33624.00
979.0250, 34200.00
980.1410, 34165.00
981.2580, 34390.00
982.3740, 34630.00
983.4890, 34937.00
984.6050, 35272.00
985.7200, 35555.00
986.8360, 35897.00
987.9510, 36593.00
989.0660, 37296.00
990.1810, 37732.00
991.2950, 38478.00
992.4100, 39473.00
993.5240, 40354.00
994.6390, 41406.00
995.7530, 42513.00
996.8660, 43766.00
997.9800, 45302.00
999.0940, 46512.00
1000.207, 48321.00
1001.320, 49836.00
1002.433, 51455.00
1003.546, 53444.00
1004.659, 54752.55
1005.772, 56226.00
1006.884, 57336.00
1007.996, 58267.00
1009.108, 58877.00
1010.220, 58674.00
1011.332, 58521.00
1012.444, 58049.00
1013.555, 57078.00
1014.666, 56323.00
1015.777, 55627.00
1016.888, 54866.95
1017.999, 54151.00
1019.110, 53569.00
1020.220, 53074.00
1021.331, 52516.00
1022.441, 52165.00
1023.551, 52576.00
1024.661, 51999.14
1025.770, 52352.00
1026.880, 51709.00
1027.989, 51154.00
1029.098, 51452.00
1030.207, 51118.00
1031.316, 51232.00
1032.425, 51169.00
1033.533, 51016.00
1034.642, 50083.00
1035.750, 49200.00
1036.858, 48824.00
1037.966, 47392.00
1039.073, 46621.00
1040.181, 45702.00
1041.288, 44539.00
1042.396, 43953.00
1043.503, 43036.00
1044.610, 42159.00
1045.716, 41510.00
1046.823, 40861.00
1047.929, 40258.00
1049.036, 39773.00
1050.142, 39253.00
1051.248, 38947.00
1052.353, 38379.00
1053.459, 38137.00
1054.564, 37808.00
1055.670, 37337.00
1056.775, 37217.00
1057.880, 37107.00
1058.985, 36732.00
1060.089, 36495.00
1061.194, 36366.00
1062.298, 35882.00
1063.402, 35978.00
1064.506, 35690.00
1065.610, 35455.00
1066.713, 35103.00
1067.817, 35109.00
1068.920, 35100.00
1070.023, 35030.00
1071.126, 34897.00
1072.229, 34943.00
1073.332, 34645.00
1074.435, 34644.00
1075.537, 34539.00
1076.639, 34655.00
1077.741, 34765.00
1078.843, 34842.00
1079.945, 34339.00
1081.046, 34509.00
1082.148, 34382.00
1083.249, 34443.00
1084.350, 34541.00
1085.451, 34227.00
1086.551, 34484.00
1087.652, 34377.00
1088.752, 34405.00
1089.853, 34432.00
1090.953, 34410.79
1092.053, 34406.00
1093.152, 34438.00
1094.252, 34418.00
1095.351, 34413.00
1096.451, 34283.00
1097.550, 34575.00
1098.649, 34254.00
1099.748, 34459.00
1100.846, 34405.00
1101.945, 34353.42
1103.043, 34434.00
1104.141, 34415.00
1105.239, 34385.00
1106.337, 34565.00
1107.434, 34614.00
1108.532, 34364.00
1109.629, 34626.00
1110.726, 34457.00
1111.823, 34498.00
1112.920, 34471.00
1114.017, 34559.00
1115.113, 34694.00
1116.210, 34957.00
1117.306, 34837.00
1118.402, 35018.00
1119.498, 34862.00
1120.593, 34926.00
1121.689, 35034.00
1122.784, 35092.00
1123.879, 35135.00
1124.974, 34861.00
1126.069, 35144.00
1127.164, 34908.00
1128.259, 34636.00
1129.353, 34743.00
1130.447, 34673.00
1131.541, 34817.00
1132.635, 35037.00
1133.729, 34905.00
1134.822, 35016.00
1135.916, 34973.00
1137.009, 34916.00
1138.102, 34814.00
1139.195, 35059.00
1140.288, 34863.00
1141.380, 35076.00
1142.473, 35057.00
1143.565, 35009.00
1144.657, 34972.00
1145.749, 34966.01
1146.841, 35111.00
1147.932, 35018.00
1149.024, 34999.00
1150.115, 35162.00
1151.206, 34927.00
1152.297, 35046.00
1153.388, 35030.00
1154.479, 34929.00
1155.569, 35222.00
1156.659, 35374.00
1157.750, 35164.00
1158.839, 35178.00
1159.929, 35147.00
1161.019, 35313.00
1162.108, 35260.00
1163.198, 35354.43
1164.287, 35106.00
1165.376, 35513.00
1166.465, 35216.00
1167.553, 35304.00
1168.642, 35436.00
1169.730, 35320.00
1170.818, 35403.00
1171.906, 35621.00
1172.994, 35233.00
1174.082, 35527.00
1175.170, 35555.00
1176.257, 35495.00
1177.344, 35439.00
1178.431, 35402.00
1179.518, 35402.00
1180.605, 35660.00
1181.691, 35759.00
1182.778, 35736.00
1183.864, 35859.98
1184.950, 35840.72
1186.036, 35890.00
1187.122, 35788.00
1188.207, 35732.00
1189.292, 35610.00
1190.378, 35886.00
1191.463, 35822.00
1192.548, 35846.00
1193.632, 36044.00
1194.717, 35704.00
1195.801, 35897.00
1196.886, 35893.00
1197.970, 35801.00
1199.054, 36063.00
1200.137, 36138.00
1201.221, 36078.00
1202.305, 36198.00
1203.388, 36182.27
1204.471, 36216.75
1205.554, 36169.00
1206.637, 36279.00
1207.719, 36203.00
1208.802, 36215.00
1209.884, 36097.00
1210.966, 36136.00
1212.048, 35929.00
1213.130, 36449.00
1214.212, 36526.00
1215.293, 36209.00
1216.374, 36548.00
1217.456, 36303.00
1218.536, 36250.00
1219.617, 36375.00
1220.698, 36344.00
1221.778, 36300.00
1222.859, 36455.00
1223.939, 36582.00
1225.019, 36394.00
1226.099, 36577.00
1227.178, 36459.00
1228.258, 36532.25
1229.337, 36706.00
1230.417, 36647.00
1231.496, 36681.00
1232.574, 36674.00
1233.653, 36757.00
1234.732, 36963.00
1235.810, 36911.00
1236.888, 36754.00
1237.966, 36970.00
1239.044, 36715.00
1240.122, 36972.00
1241.199, 37016.00
1242.277, 36819.00
1243.354, 36843.00
1244.431, 36902.00
1245.508, 36841.52
1246.585, 36877.96
1247.661, 36852.00
1248.738, 37004.00
1249.814, 36977.00
1250.890, 37303.00
1251.966, 37228.00
1253.042, 37015.00
1254.117, 37398.00
1255.193, 37415.00
1256.268, 37324.00
1257.343, 37273.00
1258.418, 37307.00
1259.493, 37179.00
1260.567, 37349.00
1261.642, 37294.00
1262.716, 37418.00
1263.790, 37516.00
1264.864, 37459.00
1265.938, 37274.00
1267.011, 37796.00
1268.085, 37516.00
1269.158, 37749.00
1270.231, 37684.00
1271.304, 37642.00
1272.377, 37585.00
1273.450, 37612.00
1274.522, 37626.00
1275.594, 37778.00
1276.666, 38006.00
1277.738, 37702.00
1278.810, 38007.00
1279.882, 37775.00
1280.953, 37761.00
1282.025, 37859.00
1283.096, 37710.00
1284.167, 38061.00
1285.238, 37709.00
1286.308, 38015.00
1287.379, 37910.00
1288.449, 38044.00
1289.519, 37997.00
1290.589, 38228.00
1291.659, 37833.00
1292.729, 38217.00
1293.798, 38082.00
1294.868, 38262.00
1295.937, 38107.00
1297.006, 38253.00
