##NAMES=Enstatite
##RRUFFID=R060630
##IDEAL CHEMISTRY=MgSiO_3_
##LOCALITY=unknown
##OWNER=RRUFF
##SOURCE=Gemological Institute of America
##DESCRIPTION=Tan colored fragment
##STATUS=The identification of this mineral has been confirmed by X-ray diffraction and chemical analysis
##URL=rruff.info/R060630
##MEASURED CHEMISTRY=(Mg_0.89_Fe_0.07_Al_0.04_)_Σ=1_(Si_0.96_Al_0.04_)_Σ=1_O_3_
##PIN_ID=L01005
##ORIENTATION=Laser parallel to c* (0 0 1). Fiducial mark perpendicular to laser is parallel to a [1 0 0]
118.1340, 19021.00
119.3650, 19082.68
120.5960, 19171.79
121.8270, 19193.00
123.0580, 19296.00
124.2880, 19348.00
125.5190, 19343.00
126.7490, 19459.00
127.9790, 19556.00
129.2090, 19739.00
130.4390, 19673.00
131.6680, 19691.00
132.8980, 19760.00
134.1270, 20045.00
135.3560, 20068.00
136.5850, 20208.00
137.8140, 20363.00
139.0430, 20426.00
140.2710, 20513.00
141.5000, 20398.00
142.7280, 20339.00
143.9560, 20629.00
145.1840, 20730.00
146.4120, 20948.00
147.6390, 21108.00
148.8670, 21112.00
150.0940, 21251.88
151.3210, 21209.00
152.5490, 21355.00
153.7750, 21401.00
155.0020, 21414.00
156.2290, 21068.00
157.4550, 21231.00
158.6810, 21066.00
159.9080, 21443.00
161.1340, 21431.00
162.3590, 21238.00
163.5850, 21507.00
164.8110, 21388.00
166.0360, 21444.00
167.2610, 21738.00
168.4860, 21610.00
169.7110, 21567.00
170.9360, 21571.00
172.1610, 21662.00
173.3850, 21545.00
174.6100, 21839.00
175.8340, 21832.00
177.0580, 21735.00
178.2820, 21878.00
179.5050, 21796.00
180.7290, 21946.00
181.9520, 21972.00
183.1760, 22087.00
184.3990, 22315.00
185.6220, 22198.00
186.8450, 22432.00
188.0670, 22390.00
189.2900, 22694.00
190.5120, 22745.00
191.7340, 22857.00
192.9560, 23053.00
194.1780, 23241.00
195.4000, 23100.00
196.6220, 23249.00
197.8430, 23335.00
199.0640, 23509.00
200.2860, 23466.00
201.5070, 23478.68
202.7270, 23470.00
203.9480, 23311.00
205.1690, 23318.00
206.3890, 23132.00
207.6090, 23036.00
208.8290, 23041.00
210.0490, 23097.00
211.2690, 22996.00
212.4890, 22961.00
213.7080, 23160.00
214.9280, 22959.00
216.1470, 23255.00
217.3660, 23060.00
218.5850, 23261.00
219.8030, 23331.00
221.0220, 23357.00
222.2400, 23538.00
223.4590, 23832.00
224.6770, 24009.00
225.8950, 24296.00
227.1120, 24696.00
228.3300, 25266.00
229.5480, 25263.00
230.7650, 25647.00
231.9820, 25779.00
233.1990, 26231.00
234.4160, 26277.00
235.6330, 26624.00
236.8490, 26616.00
238.0660, 26791.00
239.2820, 26623.00
240.4980, 26563.00
241.7140, 26130.00
242.9300, 25805.00
244.1460, 25072.00
245.3610, 24938.00
246.5770, 24458.00
247.7920, 24206.00
249.0070, 24332.00
250.2220, 23898.00
251.4370, 23775.00
252.6510, 23935.00
253.8660, 23626.00
255.0800, 23732.00
256.2940, 23721.00
257.5080, 23946.00
258.7220, 23929.00
259.9360, 24045.00
261.1490, 23834.00
262.3630, 23652.00
263.5760, 23578.00
264.7890, 23810.00
266.0020, 23662.00
267.2150, 23871.00
268.4270, 23879.00
269.6400, 23780.00
270.8520, 23851.00
272.0640, 23859.00
273.2760, 24037.00
274.4880, 24130.00
275.7000, 24178.00
276.9120, 24195.00
278.1230, 24370.00
279.3340, 24542.00
280.5450, 24696.00
281.7560, 24731.00
282.9670, 24520.00
284.1780, 24649.00
285.3880, 24495.00
286.5980, 24685.00
287.8090, 24874.00
289.0190, 24902.00
290.2290, 24583.00
291.4380, 24999.00
292.6480, 24898.00
293.8570, 25165.00
295.0670, 25021.00
296.2760, 25197.00
297.4850, 25148.00
298.6930, 25311.00
299.9020, 25204.00
301.1110, 25378.00
302.3190, 25218.00
303.5270, 25336.00
304.7350, 25273.00
305.9430, 25332.00
307.1510, 25399.00
308.3580, 25191.00
309.5660, 25545.00
310.7730, 25466.00
311.9800, 25777.00
313.1870, 25846.00
314.3940, 26049.00
315.6010, 26461.00
316.8070, 26699.00
318.0130, 26979.00
319.2200, 27091.00
320.4260, 27238.00
321.6310, 27595.00
322.8370, 27727.00
324.0430, 27887.00
325.2480, 28000.00
326.4540, 28148.94
327.6590, 28369.00
328.8640, 28390.00
330.0680, 28561.00
331.2730, 28603.00
332.4780, 28818.47
333.6820, 29067.00
334.8860, 29283.00
336.0900, 29633.00
337.2940, 29914.00
338.4980, 30142.00
339.7010, 30662.00
340.9050, 30977.00
342.1080, 31424.00
343.3110, 31517.00
344.5140, 31787.00
345.7170, 32270.00
346.9200, 32237.00
348.1220, 32277.00
349.3240, 32543.00
350.5270, 32384.00
351.7290, 32094.00
352.9310, 31841.00
354.1320, 31367.00
355.3340, 31207.00
356.5350, 30683.00
357.7370, 30394.00
358.9380, 30147.00
360.1390, 29497.00
361.3400, 29413.00
362.5400, 29112.00
363.7410, 28898.00
364.9410, 28788.00
366.1410, 28744.00
367.3410, 28674.00
368.5410, 28300.00
369.7410, 28107.00
370.9400, 28127.00
372.1400, 28137.00
373.3390, 28229.00
374.5380, 28116.00
375.7370, 28230.00
376.9360, 28265.00
378.1350, 28224.00
379.3330, 28486.00
380.5310, 28694.00
381.7300, 28814.00
382.9280, 28699.00
384.1260, 29002.00
385.3230, 28760.00
386.5210, 29182.00
387.7180, 29013.00
388.9160, 29253.00
390.1130, 29323.00
391.3100, 29253.00
392.5060, 29331.00
393.7030, 29400.00
394.9000, 29452.00
396.0960, 29429.00
397.2920, 29581.00
398.4880, 29534.00
399.6840, 29519.00
400.8800, 29680.00
402.0750, 29762.00
403.2710, 29685.00
404.4660, 29545.00
405.6610, 29589.00
406.8560, 29780.00
408.0510, 29676.00
409.2450, 29736.00
410.4400, 29804.00
411.6340, 29583.00
412.8280, 29789.00
414.0220, 29945.00
415.2160, 29879.00
416.4100, 29974.00
417.6030, 29992.00
418.7970, 29494.00
419.9900, 29589.00
421.1830, 29486.00
422.3760, 29119.00
423.5690, 29045.00
424.7610, 29107.00
425.9540, 28365.00
427.1460, 28134.00
428.3380, 28067.00
429.5300, 28012.00
430.7220, 27726.00
431.9140, 27717.00
433.1050, 27368.00
434.2970, 27215.00
435.4880, 27386.00
436.6790, 27433.00
437.8700, 27228.00
439.0610, 27256.00
440.2510, 27338.00
441.4420, 27418.00
442.6320, 27396.00
443.8220, 27470.00
445.0120, 27482.00
446.2020, 27578.00
447.3910, 27573.27
448.5810, 27589.00
449.7700, 27583.00
450.9600, 27630.00
452.1490, 27644.00
453.3370, 27671.00
454.5260, 27703.00
455.7150, 27580.00
456.9030, 27639.00
458.0910, 27619.00
459.2800, 27682.00
460.4670, 27910.00
461.6550, 27635.00
462.8430, 27624.00
464.0300, 27954.00
465.2180, 27582.00
466.4050, 27863.00
467.5920, 27672.00
468.7790, 27644.00
469.9650, 27863.00
471.1520, 27763.00
472.3380, 27781.00
473.5250, 27711.00
474.7110, 27695.98
475.8970, 27706.68
477.0820, 27696.00
478.2680, 27799.00
479.4540, 27862.00
480.6390, 28059.00
481.8240, 27876.00
483.0090, 27948.00
484.1940, 27766.00
485.3780, 27804.00
486.5630, 28009.00
487.7470, 28001.00
488.9320, 28011.92
490.1160, 27816.00
491.3000, 27930.00
492.4830, 28045.00
493.6670, 27999.00
494.8500, 28182.00
496.0340, 28214.00
497.2170, 27981.00
498.4000, 28126.00
499.5820, 28127.00
500.7650, 28213.00
501.9480, 28233.00
503.1300, 28256.69
504.3120, 28370.00
505.4940, 28352.00
506.6760, 28380.00
507.8580, 28548.00
509.0390, 28701.00
510.2210, 29011.00
511.4020, 28816.00
512.5830, 28686.00
513.7640, 29238.00
514.9450, 29133.00
516.1250, 29335.00
517.3060, 29204.00
518.4860, 29436.00
519.6660, 29254.00
520.8460, 29414.00
522.0260, 29536.00
523.2060, 29485.00
524.3850, 29737.00
525.5650, 29494.00
526.7440, 29500.00
527.9230, 29772.00
529.1020, 29690.00
530.2810, 29640.00
531.4590, 29993.00
532.6380, 29460.00
533.8160, 29952.00
534.9940, 29878.00
536.1720, 29914.00
537.3500, 29845.00
538.5270, 29783.00
539.7050, 29875.00
540.8820, 29738.73
542.0590, 29679.00
543.2360, 29598.00
544.4130, 29606.00
545.5900, 29612.00
546.7660, 29565.00
547.9430, 29538.00
549.1190, 29667.00
550.2950, 29630.13
551.4710, 29630.00
552.6470, 29686.00
553.8220, 29630.00
554.9980, 29658.00
556.1730, 29576.00
557.3480, 29667.00
558.5230, 29700.00
559.6980, 29555.00
560.8730, 29771.00
562.0470, 29525.00
563.2220, 29520.00
564.3960, 29736.00
565.5700, 29881.00
566.7440, 29779.00
567.9170, 29926.00
569.0910, 30149.00
570.2640, 30068.00
571.4380, 30141.00
572.6110, 30217.00
573.7840, 30104.00
574.9570, 30388.00
576.1290, 30393.00
577.3020, 30274.00
578.4740, 30271.00
579.6460, 30400.00
580.8180, 30337.00
581.9900, 30364.00
583.1620, 29960.00
584.3330, 30146.00
585.5040, 29811.00
586.6760, 29914.00
587.8470, 29870.00
589.0180, 29974.00
590.1880, 29913.00
591.3590, 29771.00
592.5290, 29828.00
593.7000, 30053.00
594.8700, 29849.00
596.0400, 29756.00
597.2090, 29853.00
598.3790, 29679.00
599.5490, 29899.00
600.7180, 29793.00
601.8870, 29779.00
603.0560, 29977.00
604.2250, 29862.00
605.3940, 29824.00
606.5620, 30007.00
607.7300, 29954.00
608.8990, 30076.00
610.0670, 30064.00
611.2350, 30146.00
612.4020, 29976.00
613.5700, 30304.00
614.7370, 30118.00
615.9050, 30390.00
617.0720, 30230.00
618.2390, 30108.00
619.4060, 30490.00
620.5720, 30433.00
621.7390, 30370.00
622.9050, 30691.00
624.0710, 30423.00
625.2370, 30492.00
626.4030, 31016.00
627.5690, 30603.00
628.7340, 30850.00
629.9000, 31118.00
631.0650, 31072.00
632.2300, 31485.00
633.3950, 31591.00
634.5600, 31410.00
635.7240, 31924.00
636.8890, 31697.00
638.0530, 31925.00
639.2170, 32105.00
640.3810, 32118.00
641.5450, 32361.00
642.7080, 32509.00
643.8720, 32679.00
645.0350, 32857.54
646.1980, 33092.00
647.3610, 33169.00
648.5240, 33634.00
649.6870, 33802.00
650.8490, 33990.00
652.0120, 34631.00
653.1740, 34891.00
654.3360, 35298.00
655.4980, 35992.00
656.6600, 36002.00
657.8210, 36580.00
658.9830, 36805.00
660.1440, 37150.00
661.3050, 37108.00
662.4660, 37185.00
663.6270, 36701.00
664.7870, 36936.00
665.9480, 36754.00
667.1080, 36441.00
668.2680, 36359.00
669.4280, 36506.00
670.5880, 36662.00
671.7480, 36849.00
672.9070, 37326.00
674.0670, 37801.91
675.2260, 38419.00
676.3850, 39284.00
677.5440, 40080.00
678.7030, 41310.00
679.8610, 42433.00
681.0200, 43191.00
682.1780, 44253.00
683.3360, 45223.00
684.4940, 45556.00
685.6520, 45906.00
686.8090, 45644.00
687.9670, 45056.00
689.1240, 44084.00
690.2810, 42955.00
691.4380, 41814.00
692.5950, 40656.00
693.7520, 39564.00
694.9080, 38247.00
696.0650, 37392.00
697.2210, 36351.00
698.3770, 35835.00
699.5330, 35392.00
700.6880, 34566.00
701.8440, 34490.00
702.9990, 34199.00
704.1550, 33843.00
705.3100, 33664.00
706.4650, 33454.00
707.6190, 33329.00
708.7740, 33063.00
709.9290, 33167.00
711.0830, 33129.00
712.2370, 32901.00
713.3910, 32806.00
714.5450, 32891.00
715.6980, 32906.00
716.8520, 32857.00
718.0050, 32580.00
719.1580, 32825.00
720.3110, 32876.00
721.4640, 32707.00
722.6170, 32863.00
723.7700, 32793.00
724.9220, 32621.00
726.0740, 32485.00
727.2260, 32582.00
728.3780, 32613.00
729.5300, 32709.00
730.6810, 32664.00
731.8330, 32644.00
732.9840, 32704.00
734.1350, 32571.00
735.2860, 32482.00
736.4370, 32540.29
737.5880, 32783.00
738.7380, 32648.00
739.8880, 32672.00
741.0390, 32808.00
742.1890, 32551.00
743.3380, 32609.00
744.4880, 32740.00
745.6380, 32872.00
746.7870, 32861.00
747.9360, 33054.00
749.0850, 32784.00
750.2340, 32661.00
751.3830, 32520.00
752.5310, 32521.49
753.6800, 32882.00
754.8280, 32635.00
755.9760, 32937.00
757.1240, 33002.00
758.2720, 32606.00
759.4190, 32778.00
760.5670, 33021.00
761.7140, 32841.00
762.8610, 32877.00
764.0080, 32932.00
765.1550, 32659.00
766.3020, 32883.00
767.4480, 32778.00
768.5950, 32864.00
769.7410, 33026.00
770.8870, 32934.00
772.0330, 32913.00
773.1780, 33091.00
774.3240, 32945.00
775.4690, 33177.00
776.6140, 32890.00
777.7590, 32950.00
778.9040, 32911.00
780.0490, 33186.00
781.1940, 33226.00
782.3380, 33170.00
783.4820, 33281.20
784.6260, 33199.00
785.7700, 33323.00
786.9140, 33186.00
788.0580, 33257.00
789.2010, 33180.00
790.3450, 33152.00
791.4880, 33402.00
792.6310, 33173.00
793.7730, 33456.00
794.9160, 33387.00
796.0590, 33188.00
797.2010, 33218.00
798.3430, 33266.00
799.4850, 33242.00
800.6270, 33523.00
801.7690, 33502.00
802.9100, 33462.00
804.0520, 33776.00
805.1930, 33605.00
806.3340, 33644.00
807.4750, 33563.00
808.6160, 33667.00
809.7560, 33481.00
810.8970, 33523.00
812.0370, 33856.00
813.1770, 33744.00
814.3170, 33955.00
815.4570, 33879.00
816.5960, 33856.00
817.7360, 33856.00
818.8750, 33882.00
820.0140, 33812.00
821.1530, 34080.00
822.2920, 33975.00
823.4310, 34053.00
824.5690, 34338.00
825.7070, 34406.00
826.8460, 34259.00
827.9840, 34342.00
829.1220, 34396.00
830.2590, 34364.14
831.3970, 34572.00
832.5340, 34415.00
833.6710, 34368.00
834.8080, 34413.00
835.9450, 34662.00
837.0820, 34684.00
838.2190, 34919.00
839.3550, 34915.00
840.4910, 35017.00
841.6270, 34885.00
842.7630, 35107.00
843.8990, 35178.00
845.0350, 35289.00
846.1700, 34926.00
847.3060, 35467.00
848.4410, 35114.00
849.5760, 35194.00
850.7100, 35317.00
851.8450, 35274.00
852.9800, 35264.00
854.1140, 35231.00
855.2480, 35378.00
856.3820, 35412.00
857.5160, 35306.00
858.6500, 35360.00
859.7830, 35120.00
860.9170, 35155.00
862.0500, 35324.00
863.1830, 35540.00
864.3160, 35510.97
865.4480, 35254.00
866.5810, 35409.00
867.7130, 35542.00
868.8460, 35249.00
869.9780, 35522.00
871.1100, 35520.00
872.2410, 35355.00
873.3730, 35639.00
874.5050, 35522.00
875.6360, 35217.00
876.7670, 35680.00
877.8980, 35436.00
879.0290, 35564.00
880.1590, 35634.00
881.2900, 35795.00
882.4200, 35599.00
883.5500, 35744.00
884.6800, 35492.00
885.8100, 35773.00
886.9400, 35795.00
888.0690, 35716.00
889.1990, 35649.00
890.3280, 35770.00
891.4570, 35983.00
892.5860, 35861.00
893.7140, 36087.00
894.8430, 35820.00
895.9710, 36284.00
897.1000, 36357.00
898.2280, 36242.00
899.3560, 36345.00
900.4830, 36435.00
901.6110, 36255.00
902.7380, 36364.00
903.8660, 36536.00
904.9930, 36597.00
906.1200, 36524.00
907.2460, 36480.00
908.3730, 36977.00
909.5000, 36670.00
910.6260, 36908.00
911.7520, 36581.00
912.8780, 36762.00
914.0040, 37006.00
915.1290, 36716.00
916.2550, 37246.00
917.3800, 37083.00
918.5050, 37515.00
919.6300, 37255.00
920.7550, 37647.00
921.8800, 37711.00
923.0040, 37932.00
924.1290, 37979.00
925.2530, 38354.00
926.3770, 38408.00
927.5010, 38374.00
928.6250, 38882.00
929.7480, 38986.00
930.8720, 38992.00
931.9950, 39115.00
933.1180, 39306.00
934.2410, 39067.00
935.3640, 39630.00
936.4860, 39247.00
937.6090, 38928.00
938.7310, 39178.00
939.8530, 39180.00
940.9750, 39148.00
942.0970, 39028.00
943.2180, 39084.00
944.3400, 38904.00
945.4610, 39055.00
946.5820, 39097.00
947.7030, 38950.00
948.8240, 39233.00
949.9450, 39031.00
951.0650, 38758.00
952.1860, 39091.00
953.3060, 38787.00
954.4260, 38913.00
955.5460, 38619.00
956.6650, 38750.00
957.7850, 38650.00
958.9040, 38541.00
960.0230, 38432.00
961.1420, 38339.00
962.2610, 38389.00
963.3800, 38365.00
964.4990, 38368.00
965.6170, 38323.00
966.7350, 38430.00
967.8530, 38525.00
968.9710, 38621.00
970.0890, 38417.00
971.2070, 38450.00
972.3240, 38409.00
973.4410, 38638.00
974.5580, 38933.00
975.6750, 38688.00
976.7920, 39001.00
977.9090, 39208.00
979.0250, 39071.00
980.1410, 39304.00
981.2580, 39643.00
982.3740, 39911.00
983.4890, 40160.01
984.6050, 40262.00
985.7200, 40678.00
986.8360, 41142.00
987.9510, 41472.00
989.0660, 42234.00
990.1810, 42686.00
991.2950, 43248.00
992.4100, 44090.00
993.5240, 45115.00
994.6390, 46226.00
995.7530, 47209.00
996.8660, 48338.00
997.9800, 49391.00
999.0940, 50871.00
1000.207, 51934.00
1001.320, 53379.00
1002.433, 54627.00
1003.546, 55656.00
1004.659, 56717.34
1005.772, 57623.00
1006.884, 58394.00
1007.996, 58768.00
1009.108, 59337.00
1010.220, 59070.00
1011.332, 58782.00
1012.444, 57584.00
1013.555, 57012.00
1014.666, 55991.00
1015.777, 54755.00
1016.888, 53907.00
1017.999, 52634.00
1019.110, 52259.00
1020.220, 51354.00
1021.331, 50583.00
1022.441, 50512.00
1023.551, 49939.00
1024.661, 49336.00
1025.770, 49322.00
1026.880, 49136.00
1027.989, 49111.00
1029.098, 48799.00
1030.207, 48745.00
1031.316, 48826.00
1032.425, 48578.00
1033.533, 48239.00
1034.642, 48003.00
1035.750, 47614.19
1036.858, 47406.00
1037.966, 46771.00
1039.073, 46282.00
1040.181, 45705.00
1041.288, 45424.00
1042.396, 44846.00
1043.503, 44666.00
1044.610, 44264.00
1045.716, 43923.00
1046.823, 43347.00
1047.929, 43441.00
1049.036, 42979.00
1050.142, 42609.00
1051.248, 42531.00
1052.353, 42532.00
1053.459, 42135.00
1054.564, 42312.00
1055.670, 42145.00
1056.775, 41848.00
1057.880, 41673.00
1058.985, 41522.00
1060.089, 41268.00
1061.194, 41137.00
1062.298, 41414.00
1063.402, 41092.00
1064.506, 41138.00
1065.610, 40912.00
1066.713, 40837.30
1067.817, 40793.00
1068.920, 40811.00
1070.023, 40820.00
1071.126, 41048.00
1072.229, 41128.00
1073.332, 40947.00
1074.435, 40947.00
1075.537, 40827.00
1076.639, 40787.00
1077.741, 40759.00
1078.843, 40873.00
1079.945, 40678.00
1081.046, 40874.00
1082.148, 40738.00
1083.249, 40866.00
1084.350, 41039.00
1085.451, 40757.00
1086.551, 40933.00
1087.652, 40828.00
1088.752, 41072.00
1089.853, 40892.00
1090.953, 40908.00
1092.053, 41085.00
1093.152, 41074.00
1094.252, 40971.00
1095.351, 41234.00
1096.451, 41256.00
1097.550, 41098.00
1098.649, 41340.00
1099.748, 41366.00
1100.846, 41152.00
1101.945, 41297.00
1103.043, 41223.00
1104.141, 41329.00
1105.239, 41295.00
1106.337, 41212.00
1107.434, 41252.00
1108.532, 41266.35
1109.629, 41465.00
1110.726, 41379.00
1111.823, 41598.00
1112.920, 41670.00
1114.017, 41257.00
1115.113, 41476.00
1116.210, 42023.00
1117.306, 41736.00
1118.402, 41937.00
1119.498, 42117.00
1120.593, 42200.00
1121.689, 42207.00
1122.784, 42106.00
1123.879, 42325.00
1124.974, 42208.00
1126.069, 42444.00
1127.164, 42315.00
1128.259, 42209.00
1129.353, 41965.00
1130.447, 41985.00
1131.541, 42134.00
1132.635, 42044.00
1133.729, 42012.00
1134.822, 42031.00
1135.916, 41992.00
1137.009, 42202.00
1138.102, 42257.00
1139.195, 41957.00
1140.288, 41953.00
1141.380, 42265.00
1142.473, 41980.00
1143.565, 42218.00
1144.657, 42395.00
1145.749, 42235.00
1146.841, 42314.00
1147.932, 42240.00
1149.024, 42077.00
1150.115, 42379.00
1151.206, 42574.00
1152.297, 42180.00
1153.388, 42398.00
1154.479, 42503.00
1155.569, 42356.00
1156.659, 42898.00
1157.750, 42346.00
1158.839, 42369.00
1159.929, 42368.00
1161.019, 42674.00
1162.108, 42482.00
1163.198, 42549.00
1164.287, 42553.00
1165.376, 42977.00
1166.465, 42866.00
1167.553, 42753.00
1168.642, 43109.00
1169.730, 42854.00
1170.818, 42856.00
1171.906, 42698.00
1172.994, 43029.00
1174.082, 42876.00
1175.170, 43136.00
1176.257, 43020.00
1177.344, 43062.00
1178.431, 43228.00
1179.518, 43328.00
1180.605, 43177.00
1181.691, 43203.00
1182.778, 43087.00
1183.864, 43183.00
1184.950, 43086.00
1186.036, 43242.00
1187.122, 43216.00
1188.207, 43243.00
1189.292, 43259.00
1190.378, 43482.00
1191.463, 43630.00
1192.548, 43665.00
1193.632, 43469.00
1194.717, 43632.00
1195.801, 43769.00
1196.886, 43984.00
1197.970, 43621.00
1199.054, 43763.00
1200.137, 43940.00
1201.221, 43536.00
1202.305, 43571.00
1203.388, 43890.00
1204.471, 43789.00
1205.554, 43882.00
1206.637, 44011.00
1207.719, 44013.00
1208.802, 44029.00
1209.884, 44247.00
1210.966, 43699.00
1212.048, 44047.00
1213.130, 44138.00
1214.212, 44052.00
1215.293, 44281.00
1216.374, 44276.00
1217.456, 44230.00
1218.536, 44376.00
1219.617, 44325.00
1220.698, 44352.00
1221.778, 44409.00
1222.859, 44641.00
1223.939, 44571.00
1225.019, 44163.00
1226.099, 44596.00
1227.178, 44581.00
1228.258, 44307.00
1229.337, 44884.00
1230.417, 44914.00
1231.496, 44900.00
1232.574, 45004.00
1233.653, 44998.00
1234.732, 44941.00
1235.810, 44768.00
1236.888, 45021.00
1237.966, 45068.00
1239.044, 44797.00
1240.122, 44923.00
1241.199, 45225.00
1242.277, 45166.00
1243.354, 45048.00
1244.431, 45006.00
1245.508, 45196.00
1246.585, 45070.00
1247.661, 45304.00
1248.738, 45193.00
1249.814, 45262.00
1250.890, 45235.00
1251.966, 45146.00
1253.042, 45244.00
1254.117, 44789.00
1255.193, 44840.00
1256.268, 44888.00
1257.343, 44825.50
1258.418, 45054.00
1259.493, 45041.00
1260.567, 45017.00
1261.642, 45188.00
1262.716, 45539.00
1263.790, 45651.00
1264.864, 45604.00
1265.938, 45752.00
1267.011, 45722.00
1268.085, 46073.00
1269.158, 45712.00
1270.231, 45731.00
1271.304, 45601.00
1272.377, 45935.00
1273.450, 45769.00
1274.522, 45805.00
1275.594, 45924.00
1276.666, 45743.00
1277.738, 45939.00
1278.810, 46309.00
1279.882, 45823.00
1280.953, 46284.00
1282.025, 46375.00
1283.096, 45875.00
1284.167, 46593.00
1285.238, 46276.00
1286.308, 46404.00
1287.379, 46509.00
1288.449, 46386.00
1289.519, 46574.00
1290.589, 46749.00
1291.659, 46807.00
1292.729, 46969.00
1293.798, 46997.80
1294.868, 47079.00
1295.937, 46962.00
1297.006, 46927.00
1298.075, 46722.00
