##NAMES=Enstatite
##RRUFFID=R060630
##IDEAL CHEMISTRY=MgSiO_3_
##LOCALITY=unknown
##OWNER=RRUFF
##SOURCE=Gemological Institute of America
##DESCRIPTION=Tan colored fragment
##STATUS=The identification of this mineral has been confirmed by X-ray diffraction and chemical analysis
##URL=rruff.info/R060630
##MEASURED CHEMISTRY=(Mg_0.89_Fe_0.07_Al_0.04_)_Σ=1_(Si_0.96_Al_0.04_)_Σ=1_O_3_
##PIN_ID=L01005
##ORIENTATION=Laser parallel to c* (0 0 1). Fiducial mark perpendicular to laser is parallel to a [1 0 0]
118.1340, 11604.00
119.3650, 11531.00
120.5960, 11541.00
121.8270, 11781.00
123.0580, 11959.00
124.2880, 11840.00
125.5190, 11655.00
126.7490, 11776.00
127.9790, 11711.00
129.2090, 11991.00
130.4390, 12135.00
131.6680, 12203.00
132.8980, 12171.00
134.1270, 12343.00
135.3560, 12249.00
136.5850, 12539.00
137.8140, 12645.00
139.0430, 13033.00
140.2710, 12930.00
141.5000, 12903.00
142.7280, 12844.00
143.9560, 12867.00
145.1840, 13062.00
146.4120, 13243.00
147.6390, 13353.00
148.8670, 13478.00
150.0940, 13559.00
151.3210, 14080.00
152.5490, 14053.00
153.7750, 14010.00
155.0020, 14058.00
156.2290, 13919.00
157.4550, 13817.00
158.6810, 13941.00
159.9080, 13781.00
161.1340, 13836.00
162.3590, 13986.00
163.5850, 14075.00
164.8110, 14181.00
166.0360, 14257.00
167.2610, 14040.00
168.4860, 14100.00
169.7110, 13949.00
170.9360, 13927.00
172.1610, 13695.00
173.3850, 13632.00
174.6100, 13551.00
175.8340, 13540.00
177.0580, 13521.00
178.2820, 13558.00
179.5050, 13609.00
180.7290, 13619.00
181.9520, 13759.00
183.1760, 13854.00
184.3990, 13949.00
185.6220, 14242.00
186.8450, 14501.00
188.0670, 14658.00
189.2900, 14990.00
190.5120, 15522.00
191.7340, 15570.00
192.9560, 16047.00
194.1780, 16495.00
195.4000, 16731.91
196.6220, 17112.00
197.8430, 17417.00
199.0640, 17417.00
200.2860, 17747.00
201.5070, 17849.00
202.7270, 17699.00
203.9480, 17087.00
205.1690, 16739.00
206.3890, 16315.00
207.6090, 16107.00
208.8290, 15663.00
210.0490, 15597.00
211.2690, 15270.00
212.4890, 15139.00
213.7080, 15080.00
214.9280, 14924.00
216.1470, 14822.00
217.3660, 14833.00
218.5850, 14776.00
219.8030, 14924.00
221.0220, 15063.00
222.2400, 15259.00
223.4590, 15375.00
224.6770, 15560.00
225.8950, 15906.00
227.1120, 16203.00
228.3300, 16549.00
229.5480, 17197.00
230.7650, 17552.00
231.9820, 18204.00
233.1990, 18735.00
234.4160, 19381.00
235.6330, 19804.00
236.8490, 20703.00
238.0660, 21009.00
239.2820, 21308.00
240.4980, 21200.00
241.7140, 20816.00
242.9300, 20098.00
244.1460, 19103.00
245.3610, 18095.00
246.5770, 17372.00
247.7920, 16619.00
249.0070, 16059.00
250.2220, 15553.00
251.4370, 15187.00
252.6510, 15030.00
253.8660, 14880.00
255.0800, 14708.00
256.2940, 14550.00
257.5080, 15013.00
258.7220, 14682.04
259.9360, 15376.00
261.1490, 14517.00
262.3630, 14244.00
263.5760, 14302.00
264.7890, 14296.00
266.0020, 14167.00
267.2150, 14173.00
268.4270, 14193.00
269.6400, 14196.09
270.8520, 14252.00
272.0640, 14361.00
273.2760, 14453.65
274.4880, 14666.00
275.7000, 14657.00
276.9120, 14824.00
278.1230, 14890.00
279.3340, 14828.00
280.5450, 14956.00
281.7560, 15063.00
282.9670, 15208.00
284.1780, 15292.00
285.3880, 15547.00
286.5980, 15566.00
287.8090, 15794.00
289.0190, 15877.00
290.2290, 15860.00
291.4380, 15874.00
292.6480, 16003.00
293.8570, 16175.00
295.0670, 16065.00
296.2760, 16299.00
297.4850, 16405.00
298.6930, 16458.00
299.9020, 16660.00
301.1110, 16800.00
302.3190, 16452.00
303.5270, 16482.00
304.7350, 16457.00
305.9430, 16345.00
307.1510, 16507.00
308.3580, 16548.00
309.5660, 16674.45
310.7730, 16861.69
311.9800, 17013.00
313.1870, 17282.00
314.3940, 17463.00
315.6010, 17728.00
316.8070, 18092.00
318.0130, 18509.00
319.2200, 18874.96
320.4260, 19277.00
321.6310, 19723.00
322.8370, 20151.00
324.0430, 20598.00
325.2480, 20823.00
326.4540, 20909.00
327.6590, 20954.00
328.8640, 21201.00
330.0680, 21398.00
331.2730, 21376.00
332.4780, 21783.00
333.6820, 21931.00
334.8860, 22447.00
336.0900, 22826.00
337.2940, 23485.00
338.4980, 23920.00
339.7010, 24600.00
340.9050, 25131.00
342.1080, 25808.00
343.3110, 26491.00
344.5140, 27280.00
345.7170, 27853.00
346.9200, 28272.00
348.1220, 28865.00
349.3240, 28808.00
350.5270, 28994.00
351.7290, 28890.00
352.9310, 28320.00
354.1320, 27766.00
355.3340, 27237.00
356.5350, 26397.00
357.7370, 25724.00
358.9380, 24955.00
360.1390, 24225.00
361.3400, 23491.00
362.5400, 22960.00
363.7410, 22385.00
364.9410, 21971.00
366.1410, 21571.00
367.3410, 21132.00
368.5410, 21044.00
369.7410, 20561.00
370.9400, 20422.00
372.1400, 20151.00
373.3390, 20206.00
374.5380, 20179.00
375.7370, 20227.00
376.9360, 20304.00
378.1350, 20450.00
379.3330, 20683.00
380.5310, 21100.00
381.7300, 21320.00
382.9280, 21777.00
384.1260, 22168.00
385.3230, 22381.00
386.5210, 22711.00
387.7180, 22857.00
388.9160, 22857.00
390.1130, 22909.00
391.3100, 22826.00
392.5060, 22710.00
393.7030, 22941.00
394.9000, 22996.00
396.0960, 23184.00
397.2920, 23242.00
398.4880, 23558.00
399.6840, 23749.00
400.8800, 23756.00
402.0750, 23792.00
403.2710, 23887.00
404.4660, 23912.00
405.6610, 24066.00
406.8560, 23739.00
408.0510, 23780.00
409.2450, 23694.00
410.4400, 23326.00
411.6340, 23673.00
412.8280, 23424.00
414.0220, 23713.00
415.2160, 23850.00
416.4100, 23762.00
417.6030, 23807.00
418.7970, 23744.00
419.9900, 23748.00
421.1830, 23154.00
422.3760, 22880.00
423.5690, 22332.00
424.7610, 22062.00
425.9540, 21168.00
427.1460, 20428.00
428.3380, 19708.00
429.5300, 19108.00
430.7220, 18456.00
431.9140, 18045.00
433.1050, 17739.00
434.2970, 17320.00
435.4880, 17235.00
436.6790, 17177.00
437.8700, 17127.00
439.0610, 17008.00
440.2510, 16965.00
441.4420, 16919.59
442.6320, 16903.00
443.8220, 16871.00
445.0120, 16778.00
446.2020, 16777.00
447.3910, 16891.00
448.5810, 16922.00
449.7700, 17045.00
450.9600, 17179.00
452.1490, 17081.00
453.3370, 16964.00
454.5260, 17208.00
455.7150, 17136.00
456.9030, 17227.00
458.0910, 17221.00
459.2800, 17199.00
460.4670, 17198.00
461.6550, 17212.00
462.8430, 16932.00
464.0300, 17022.00
465.2180, 16892.00
466.4050, 16877.00
467.5920, 17049.00
468.7790, 16808.00
469.9650, 16946.00
471.1520, 16815.00
472.3380, 16781.00
473.5250, 16867.00
474.7110, 16926.00
475.8970, 16846.00
477.0820, 16785.00
478.2680, 16796.00
479.4540, 16840.00
480.6390, 17015.00
481.8240, 16955.00
483.0090, 17022.00
484.1940, 16996.00
485.3780, 17068.00
486.5630, 17145.00
487.7470, 17214.00
488.9320, 17181.15
490.1160, 17170.00
491.3000, 17065.00
492.4830, 17101.00
493.6670, 17007.00
494.8500, 17123.00
496.0340, 17122.00
497.2170, 17074.00
498.4000, 17032.00
499.5820, 17066.00
500.7650, 17082.00
501.9480, 17054.00
503.1300, 17029.00
504.3120, 17262.00
505.4940, 17257.00
506.6760, 17469.00
507.8580, 17651.00
509.0390, 17800.00
510.2210, 17995.00
511.4020, 18059.00
512.5830, 18243.00
513.7640, 18324.00
514.9450, 18537.00
516.1250, 18618.00
517.3060, 18963.00
518.4860, 19271.00
519.6660, 19286.00
520.8460, 19372.00
522.0260, 19441.00
523.2060, 19463.00
524.3850, 19419.00
525.5650, 19518.00
526.7440, 19339.00
527.9230, 19425.00
529.1020, 19379.00
530.2810, 19211.00
531.4590, 19634.00
532.6380, 19614.00
533.8160, 19570.00
534.9940, 19607.00
536.1720, 19425.00
537.3500, 19583.00
538.5270, 19537.00
539.7050, 19386.00
540.8820, 19155.00
542.0590, 19060.00
543.2360, 18868.00
544.4130, 18781.68
545.5900, 18761.46
546.7660, 18677.00
547.9430, 18672.00
549.1190, 18726.00
550.2950, 18458.00
551.4710, 18574.00
552.6470, 18729.00
553.8220, 18476.00
554.9980, 18568.00
556.1730, 18445.00
557.3480, 18674.00
558.5230, 18603.00
559.6980, 18418.00
560.8730, 18445.00
562.0470, 18506.00
563.2220, 18312.00
564.3960, 18596.00
565.5700, 18676.00
566.7440, 18609.00
567.9170, 18930.00
569.0910, 19231.00
570.2640, 19306.00
571.4380, 19601.00
572.6110, 20159.00
573.7840, 20186.00
574.9570, 20554.00
576.1290, 20968.00
577.3020, 20979.00
578.4740, 21042.00
579.6460, 20906.00
580.8180, 20545.00
581.9900, 20308.00
583.1620, 19800.00
584.3330, 19511.00
585.5040, 19036.00
586.6760, 18644.00
587.8470, 18601.00
589.0180, 18325.00
590.1880, 18235.00
591.3590, 18099.00
592.5290, 18186.00
593.7000, 17996.00
594.8700, 18084.00
596.0400, 17976.00
597.2090, 17604.00
598.3790, 17754.00
599.5490, 17689.00
600.7180, 17676.00
601.8870, 17679.00
603.0560, 17456.00
604.2250, 17573.00
605.3940, 17441.00
606.5620, 17529.00
607.7300, 17417.00
608.8990, 17376.00
610.0670, 17501.00
611.2350, 17449.00
612.4020, 17625.00
613.5700, 17491.00
614.7370, 17562.00
615.9050, 17660.00
617.0720, 17673.00
618.2390, 17722.00
619.4060, 17677.00
620.5720, 17616.00
621.7390, 17685.00
622.9050, 17855.00
624.0710, 17921.00
625.2370, 17900.00
626.4030, 18118.00
627.5690, 18025.00
628.7340, 18274.00
629.9000, 18245.00
631.0650, 18619.00
632.2300, 18723.00
633.3950, 18837.00
634.5600, 19103.00
635.7240, 19256.00
636.8890, 19483.00
638.0530, 19638.00
639.2170, 19718.00
640.3810, 19838.00
641.5450, 20092.00
642.7080, 20120.00
643.8720, 20308.00
645.0350, 20396.00
646.1980, 20739.00
647.3610, 20986.00
648.5240, 21356.00
649.6870, 21733.00
650.8490, 22285.00
652.0120, 23061.00
653.1740, 23514.00
654.3360, 24363.00
655.4980, 24932.00
656.6600, 25443.00
657.8210, 26102.00
658.9830, 26814.00
660.1440, 27367.00
661.3050, 27431.00
662.4660, 27560.00
663.6270, 27435.00
664.7870, 27313.00
665.9480, 26925.00
667.1080, 26527.00
668.2680, 26114.00
669.4280, 26003.00
670.5880, 25824.00
671.7480, 26178.00
672.9070, 26327.00
674.0670, 26768.00
675.2260, 27634.00
676.3850, 28743.00
677.5440, 29914.00
678.7030, 31057.00
679.8610, 32432.00
681.0200, 33977.00
682.1780, 35831.00
683.3360, 37158.00
684.4940, 38450.00
685.6520, 39624.00
686.8090, 39806.00
687.9670, 39369.00
689.1240, 38745.00
690.2810, 37341.00
691.4380, 35449.00
692.5950, 33652.00
693.7520, 31494.00
694.9080, 29895.00
696.0650, 28133.00
697.2210, 26551.00
698.3770, 25250.00
699.5330, 24270.00
700.6880, 23307.00
701.8440, 22696.00
702.9990, 22341.00
704.1550, 21892.00
705.3100, 21429.00
706.4650, 21254.00
707.6190, 20790.00
708.7740, 20624.00
709.9290, 20504.00
711.0830, 20122.00
712.2370, 20138.00
713.3910, 20148.00
714.5450, 19805.00
715.6980, 20147.00
716.8520, 19933.00
718.0050, 19786.00
719.1580, 19632.00
720.3110, 19507.00
721.4640, 19701.00
722.6170, 19469.00
723.7700, 19419.00
724.9220, 19550.00
726.0740, 19219.00
727.2260, 19427.00
728.3780, 19447.00
729.5300, 19408.00
730.6810, 19297.00
731.8330, 19402.00
732.9840, 19374.00
734.1350, 19214.00
735.2860, 19376.00
736.4370, 19163.00
737.5880, 19261.00
738.7380, 19248.00
739.8880, 19184.00
741.0390, 18955.00
742.1890, 19128.00
743.3380, 19035.77
744.4880, 19061.00
745.6380, 19121.00
746.7870, 18993.00
747.9360, 19125.00
749.0850, 19168.00
750.2340, 19262.00
751.3830, 19233.00
752.5310, 19272.00
753.6800, 19147.00
754.8280, 19246.00
755.9760, 19152.00
757.1240, 19063.00
758.2720, 19155.00
759.4190, 19143.00
760.5670, 19061.00
761.7140, 19068.00
762.8610, 19031.85
764.0080, 19060.00
765.1550, 18955.00
766.3020, 18913.00
767.4480, 18546.11
768.5950, 18857.54
769.7410, 19035.40
770.8870, 19086.89
772.0330, 18633.46
773.1780, 18832.01
774.3240, 18769.29
775.4690, 18695.84
776.6140, 18986.16
777.7590, 18606.16
778.9040, 18890.71
780.0490, 18909.98
781.1940, 19050.67
782.3380, 18928.45
783.4820, 18971.00
784.6260, 18823.00
785.7700, 19029.00
786.9140, 18962.00
788.0580, 18883.00
789.2010, 18787.00
790.3450, 18878.00
791.4880, 18893.00
792.6310, 18780.00
793.7730, 19008.00
794.9160, 18885.00
796.0590, 19001.00
797.2010, 18875.00
798.3430, 19087.00
799.4850, 18915.00
800.6270, 19021.00
801.7690, 19080.00
802.9100, 19149.00
804.0520, 19088.00
805.1930, 19290.00
806.3340, 18948.00
807.4750, 19141.00
808.6160, 19116.00
809.7560, 19392.00
810.8970, 19245.00
812.0370, 19410.00
813.1770, 19424.00
814.3170, 19408.00
815.4570, 19488.00
816.5960, 19491.56
817.7360, 19437.00
818.8750, 19537.00
820.0140, 19606.00
821.1530, 19594.00
822.2920, 19660.00
823.4310, 19685.00
824.5690, 19772.00
825.7070, 19815.00
826.8460, 19992.00
827.9840, 20087.00
829.1220, 20144.55
830.2590, 20030.00
831.3970, 20224.00
832.5340, 20307.00
833.6710, 20276.00
834.8080, 20399.00
835.9450, 20586.00
837.0820, 20627.00
838.2190, 20540.00
839.3550, 20647.00
840.4910, 20828.00
841.6270, 20999.00
842.7630, 21065.49
843.8990, 21164.22
845.0350, 21194.00
846.1700, 21244.00
847.3060, 21269.00
848.4410, 21273.99
849.5760, 21276.00
850.7100, 21182.00
851.8450, 21179.00
852.9800, 21100.00
854.1140, 21229.00
855.2480, 20829.00
856.3820, 21007.00
857.5160, 20837.00
858.6500, 20789.00
859.7830, 20648.00
860.9170, 20744.00
862.0500, 20746.00
863.1830, 20817.00
864.3160, 20776.33
865.4480, 20598.00
866.5810, 20694.00
867.7130, 20552.00
868.8460, 20549.00
869.9780, 20658.00
871.1100, 20739.00
872.2410, 20747.00
873.3730, 20656.00
874.5050, 20578.00
875.6360, 20711.00
876.7670, 20788.00
877.8980, 20728.00
879.0290, 20696.00
880.1590, 20741.35
881.2900, 20747.00
882.4200, 20774.00
883.5500, 20891.00
884.6800, 20885.00
885.8100, 20947.46
886.9400, 21022.66
888.0690, 21074.00
889.1990, 21117.00
890.3280, 21202.60
891.4570, 21238.00
892.5860, 21342.00
893.7140, 21418.00
894.8430, 21448.00
895.9710, 21472.00
897.1000, 21489.00
898.2280, 21467.00
899.3560, 21415.00
900.4830, 21465.92
901.6110, 21528.58
902.7380, 21591.00
903.8660, 21687.00
904.9930, 21868.00
906.1200, 21842.00
907.2460, 21848.00
908.3730, 22023.00
909.5000, 21945.00
910.6260, 22058.00
911.7520, 22111.96
912.8780, 22341.00
914.0040, 22490.09
915.1290, 22644.00
916.2550, 22890.00
917.3800, 23025.00
918.5050, 23192.00
919.6300, 23370.00
920.7550, 23597.00
921.8800, 23898.00
923.0040, 23980.00
924.1290, 24260.00
925.2530, 24587.00
926.3770, 25098.00
927.5010, 25418.00
928.6250, 25695.00
929.7480, 26131.00
930.8720, 26463.00
931.9950, 26687.00
933.1180, 26688.00
934.2410, 26817.00
935.3640, 26682.00
936.4860, 26788.00
937.6090, 26396.00
938.7310, 26342.00
939.8530, 26141.00
940.9750, 25915.00
942.0970, 26111.00
943.2180, 25804.00
944.3400, 25417.00
945.4610, 25490.00
946.5820, 25266.00
947.7030, 25214.00
948.8240, 25246.00
949.9450, 25199.00
951.0650, 24945.00
952.1860, 24845.00
953.3060, 24882.00
954.4260, 24796.00
955.5460, 24471.00
956.6650, 24399.00
957.7850, 24170.00
958.9040, 24089.00
960.0230, 23964.00
961.1420, 23696.00
962.2610, 23744.00
963.3800, 23441.00
964.4990, 23349.00
965.6170, 23040.00
966.7350, 23096.00
967.8530, 23212.00
968.9710, 23046.00
970.0890, 22992.00
971.2070, 23085.00
972.3240, 23164.00
973.4410, 23250.00
974.5580, 23035.00
975.6750, 23376.00
976.7920, 23402.00
977.9090, 23580.00
979.0250, 23820.00
980.1410, 23984.00
981.2580, 24224.00
982.3740, 24459.00
983.4890, 24848.00
984.6050, 25175.00
985.7200, 25722.00
986.8360, 26317.00
987.9510, 26797.00
989.0660, 27550.00
990.1810, 28314.00
991.2950, 29525.00
992.4100, 30457.00
993.5240, 31689.00
994.6390, 33205.00
995.7530, 34509.00
996.8660, 36264.00
997.9800, 37986.00
999.0940, 40049.00
1000.207, 41818.00
1001.320, 43757.00
1002.433, 46058.00
1003.546, 47996.00
1004.659, 49746.00
1005.772, 51734.00
1006.884, 53523.00
1007.996, 54434.00
1009.108, 55376.00
1010.220, 55663.00
1011.332, 55713.40
1012.444, 55625.00
1013.555, 54768.00
1014.666, 53348.00
1015.777, 52017.00
1016.888, 50559.00
1017.999, 49243.00
1019.110, 48084.72
1020.220, 46722.00
1021.331, 45968.00
1022.441, 45009.00
1023.551, 44185.00
1024.661, 43720.00
1025.770, 43762.00
1026.880, 43649.00
1027.989, 43668.00
1029.098, 43378.00
1030.207, 43786.00
1031.316, 43485.00
1032.425, 43068.00
1033.533, 42938.00
1034.642, 42464.00
1035.750, 41980.00
1036.858, 41484.00
1037.966, 40356.00
1039.073, 39335.00
1040.181, 38264.00
1041.288, 37262.00
1042.396, 36159.00
1043.503, 35194.00
1044.610, 34160.00
1045.716, 33398.51
1046.823, 32607.58
1047.929, 32035.00
1049.036, 31264.00
1050.142, 30721.00
1051.248, 30106.00
1052.353, 29360.00
1053.459, 28921.00
1054.564, 28545.00
1055.670, 28015.00
1056.775, 27660.00
1057.880, 27360.00
1058.985, 26866.00
1060.089, 26526.00
1061.194, 26180.93
1062.298, 25878.19
1063.402, 25594.00
1064.506, 25395.00
1065.610, 25286.00
1066.713, 25086.00
1067.817, 25131.00
1068.920, 24968.00
1070.023, 24835.53
1071.126, 24604.00
1072.229, 24571.00
1073.332, 24354.00
1074.435, 24293.00
1075.537, 24314.00
1076.639, 24297.00
1077.741, 23785.00
1078.843, 23829.00
1079.945, 23729.00
1081.046, 23916.00
1082.148, 23611.00
1083.249, 23902.00
1084.350, 23674.00
1085.451, 23823.00
1086.551, 23653.00
1087.652, 23638.00
1088.752, 23707.00
1089.853, 23665.00
1090.953, 23771.00
1092.053, 23613.00
1093.152, 23623.00
1094.252, 23737.00
1095.351, 23591.00
1096.451, 23529.00
1097.550, 23640.00
1098.649, 23680.00
1099.748, 23568.00
1100.846, 23574.00
1101.945, 23597.00
1103.043, 23588.00
1104.141, 23531.00
1105.239, 23681.00
1106.337, 23612.00
1107.434, 23587.00
1108.532, 23509.00
1109.629, 23716.00
1110.726, 23799.00
1111.823, 23745.60
1112.920, 23769.00
1114.017, 23671.00
1115.113, 23842.00
1116.210, 23822.00
1117.306, 23841.00
1118.402, 23900.00
1119.498, 24007.00
1120.593, 24282.00
1121.689, 24087.00
1122.784, 24197.00
1123.879, 24271.00
1124.974, 24134.00
1126.069, 24086.00
1127.164, 23908.00
1128.259, 23868.86
1129.353, 23880.00
1130.447, 23812.00
1131.541, 23642.00
1132.635, 23724.00
1133.729, 23864.00
1134.822, 23610.00
1135.916, 23659.00
1137.009, 23853.00
1138.102, 23889.00
1139.195, 23702.00
1140.288, 23770.00
1141.380, 23776.00
1142.473, 23665.00
1143.565, 23726.00
1144.657, 23624.00
1145.749, 23685.00
1146.841, 23886.00
1147.932, 23712.00
1149.024, 23653.00
1150.115, 23858.00
1151.206, 23892.00
1152.297, 23995.00
1153.388, 24064.00
1154.479, 23837.00
1155.569, 23876.00
1156.659, 23744.00
1157.750, 23799.00
1158.839, 23682.00
1159.929, 23853.00
1161.019, 23896.00
1162.108, 23652.00
1163.198, 23741.00
1164.287, 23712.00
1165.376, 23956.00
1166.465, 23880.00
1167.553, 23884.00
1168.642, 23991.00
1169.730, 23854.00
1170.818, 23809.00
1171.906, 24065.00
1172.994, 23889.00
1174.082, 23765.00
1175.170, 23967.00
1176.257, 24070.00
1177.344, 24112.00
1178.431, 24027.00
1179.518, 23974.00
1180.605, 24173.00
1181.691, 24019.00
1182.778, 23990.00
1183.864, 24155.00
1184.950, 23862.00
1186.036, 24199.00
1187.122, 24092.00
1188.207, 24216.00
1189.292, 24165.00
1190.378, 24272.00
1191.463, 24185.00
1192.548, 24152.00
1193.632, 24207.00
1194.717, 24112.00
1195.801, 24158.00
1196.886, 24038.00
1197.970, 24209.00
1199.054, 24124.00
1200.137, 24227.00
1201.221, 24079.00
1202.305, 24199.00
1203.388, 24282.00
1204.471, 24173.99
1205.554, 24338.00
1206.637, 24208.00
1207.719, 24230.00
1208.802, 24589.00
1209.884, 24357.00
1210.966, 24466.00
1212.048, 24404.00
1213.130, 24374.00
1214.212, 24436.00
1215.293, 24388.00
1216.374, 24416.00
1217.456, 24461.00
1218.536, 24406.00
1219.617, 24485.23
1220.698, 24469.00
1221.778, 24560.00
1222.859, 24650.00
1223.939, 24627.00
1225.019, 24578.00
1226.099, 24713.00
1227.178, 24663.00
1228.258, 24431.00
1229.337, 24627.00
1230.417, 24503.00
1231.496, 24647.00
1232.574, 24495.00
1233.653, 24889.00
1234.732, 24630.00
1235.810, 24942.00
1236.888, 24864.00
1237.966, 24709.00
1239.044, 24834.00
1240.122, 24848.00
1241.199, 24803.00
1242.277, 25010.00
1243.354, 24780.00
1244.431, 24934.00
1245.508, 24819.00
1246.585, 25109.00
1247.661, 25114.00
1248.738, 24945.00
1249.814, 24846.00
1250.890, 25059.00
1251.966, 24879.00
1253.042, 25105.00
1254.117, 24893.00
1255.193, 25082.00
1256.268, 25063.00
1257.343, 25201.00
1258.418, 25000.00
1259.493, 25275.00
1260.567, 24901.00
1261.642, 25071.00
1262.716, 25344.00
1263.790, 25144.00
1264.864, 25179.00
1265.938, 25202.00
1267.011, 25463.00
1268.085, 25238.00
1269.158, 25149.00
1270.231, 25248.00
1271.304, 25109.00
1272.377, 25283.00
1273.450, 25336.00
1274.522, 25288.00
1275.594, 25259.00
1276.666, 25208.00
1277.738, 25611.00
1278.810, 25258.00
1279.882, 25585.00
1280.953, 25303.00
1282.025, 25456.00
1283.096, 25440.00
1284.167, 25693.00
1285.238, 25615.00
1286.308, 25584.00
1287.379, 25593.00
1288.449, 25603.00
1289.519, 25647.00
1290.589, 25549.00
1291.659, 25720.00
1292.729, 25442.00
1293.798, 25624.00
1294.868, 25728.00
1295.937, 25620.00
1297.006, 25646.00
1298.075, 25725.00
