##NAMES=Enstatite
##RRUFFID=R040093
##IDEAL CHEMISTRY=MgSiO_3_
##LOCALITY=Castle Rock, Pennsylvania, USA
##OWNER=RRUFF
##SOURCE=University of Arizona Mineral Museum
##DESCRIPTION=Dark green massive
##STATUS=The identification of this mineral has been confirmed by X-ray diffraction and chemical analysis
##URL=rruff.info/R040093
##MEASURED CHEMISTRY=(Mg_0.84_Fe_0.15_Al_0.01_)Si_1.00_O_3_
##PIN_ID=L00094
##ORIENTATION=Laser parallel to -b* (0 -1 0). Fiducial mark perpendicular to laser is parallel to c [0 0 1]
103.0850, 16023.00
104.3220, 17337.00
105.5590, 17887.00
106.7950, 18222.00
108.0320, 17926.00
109.2680, 17391.00
110.5040, 17718.00
111.7400, 17793.51
112.9760, 18265.00
114.2120, 18648.00
115.4470, 19885.00
116.6820, 20534.00
117.9170, 21365.00
119.1520, 22799.00
120.3870, 24915.00
121.6220, 27799.00
122.8560, 29962.00
124.0900, 33029.00
125.3240, 36880.00
126.5580, 41544.00
127.7920, 46653.00
129.0260, 50885.00
130.2590, 54540.00
131.4920, 57182.00
132.7250, 56578.00
133.9580, 53240.00
135.1910, 48184.00
136.4230, 41715.00
137.6560, 35390.00
138.8880, 30890.00
140.1200, 27587.00
141.3520, 25293.00
142.5830, 23784.00
143.8150, 22268.00
145.0460, 21397.00
146.2770, 20816.00
147.5080, 20154.00
148.7390, 19596.00
149.9700, 18979.00
151.2000, 18600.00
152.4310, 18379.00
153.6610, 18063.00
154.8910, 18128.00
156.1210, 18051.00
157.3500, 17774.00
158.5800, 17861.00
159.8090, 17644.00
161.0380, 17588.00
162.2670, 17772.00
163.4960, 17867.00
164.7240, 17514.00
165.9530, 17600.00
167.1810, 17528.00
168.4090, 17514.00
169.6370, 17484.00
170.8650, 17440.00
172.0920, 17712.00
173.3200, 17633.00
174.5470, 17952.00
175.7740, 18092.00
177.0010, 18185.39
178.2280, 18544.00
179.4540, 18399.00
180.6810, 18601.00
181.9070, 18609.00
183.1330, 18450.00
184.3590, 18648.00
185.5850, 18538.00
186.8100, 18633.00
188.0350, 18778.00
189.2610, 18656.00
190.4860, 18683.00
191.7110, 18626.00
192.9350, 18620.00
194.1600, 18436.00
195.3840, 18343.00
196.6080, 18151.00
197.8320, 18178.00
199.0560, 17971.00
200.2800, 18013.00
201.5030, 17923.00
202.7270, 17732.00
203.9500, 17861.00
205.1730, 17506.00
206.3950, 17173.00
207.6180, 17286.00
208.8410, 17175.00
210.0630, 16899.00
211.2850, 16804.00
212.5070, 16804.00
213.7290, 16856.00
214.9500, 16841.00
216.1720, 17088.00
217.3930, 17216.00
218.6140, 17503.00
219.8350, 17737.00
221.0560, 18002.00
222.2770, 18115.00
223.4970, 18674.00
224.7170, 18787.00
225.9370, 19149.00
227.1570, 19622.00
228.3770, 20104.00
229.5970, 20578.00
230.8160, 21158.00
232.0350, 21623.00
233.2540, 22455.00
234.4730, 22841.00
235.6920, 22974.00
236.9110, 22923.00
238.1290, 22528.00
239.3470, 21662.00
240.5650, 20666.00
241.7830, 19248.00
243.0010, 18569.00
244.2180, 17498.00
245.4360, 17256.00
246.6530, 16786.00
247.8700, 16784.00
249.0870, 16576.00
250.3040, 16476.00
251.5200, 16320.00
252.7370, 16458.00
253.9530, 16659.00
255.1690, 16853.00
256.3850, 16830.84
257.6000, 17359.00
258.8160, 16748.00
260.0310, 16370.00
261.2460, 16259.00
262.4610, 16423.00
263.6760, 16607.00
264.8910, 16334.00
266.1050, 16593.00
267.3200, 16402.00
268.5340, 16506.00
269.7480, 16628.00
270.9620, 16628.00
272.1750, 16694.00
273.3890, 16691.63
274.6020, 16650.00
275.8150, 16609.00
277.0280, 16546.00
278.2410, 16405.00
279.4540, 16207.00
280.6660, 16402.00
281.8790, 16667.00
283.0910, 16459.00
284.3030, 16525.00
285.5140, 16524.00
286.7260, 16825.00
287.9380, 16856.00
289.1490, 17107.00
290.3600, 17261.00
291.5710, 17455.44
292.7820, 17631.00
293.9920, 17902.00
295.2030, 18126.00
296.4130, 18343.00
297.6230, 18478.00
298.8330, 18284.00
300.0430, 18369.00
301.2520, 18282.00
302.4620, 18318.00
303.6710, 18306.00
304.8800, 18078.00
306.0890, 18128.00
307.2980, 18225.00
308.5070, 18347.00
309.7150, 18387.00
310.9230, 18358.00
312.1310, 18888.00
313.3390, 18737.00
314.5470, 19397.00
315.7550, 19864.00
316.9620, 20135.00
318.1690, 20597.00
319.3760, 21049.00
320.5830, 21955.00
321.7900, 22880.00
322.9960, 24085.00
324.2030, 25382.00
325.4090, 26921.00
326.6150, 29189.00
327.8210, 31485.00
329.0270, 34463.00
330.2320, 38101.00
331.4380, 42593.00
332.6430, 47514.00
333.8480, 52927.00
335.0530, 58920.00
336.2580, 64916.00
337.4620, 71111.00
338.6670, 75463.00
339.8710, 79160.00
341.0750, 80438.00
342.2790, 79033.00
343.4820, 75582.00
344.6860, 70027.00
345.8890, 63305.00
347.0920, 56063.00
348.2960, 49792.00
349.4980, 44206.00
350.7010, 39607.00
351.9040, 36204.00
353.1060, 33569.00
354.3080, 31318.00
355.5100, 29779.00
356.7120, 28390.00
357.9140, 27433.00
359.1150, 26457.00
360.3170, 25742.00
361.5180, 24800.00
362.7190, 24386.00
363.9200, 23891.00
365.1200, 23609.00
366.3210, 23204.00
367.5210, 23149.00
368.7210, 22829.00
369.9210, 22423.00
371.1210, 22546.00
372.3210, 22486.00
373.5200, 22215.00
374.7200, 22184.00
375.9190, 22175.00
377.1180, 22196.00
378.3170, 22015.00
379.5150, 22077.00
380.7140, 22091.00
381.9120, 21958.00
383.1110, 22315.00
384.3090, 22245.00
385.5060, 22683.00
386.7040, 22970.00
387.9020, 23279.00
389.0990, 24017.00
390.2960, 24897.00
391.4930, 25699.00
392.6900, 26633.00
393.8860, 27425.00
395.0830, 28437.00
396.2790, 29462.00
397.4750, 30186.00
398.6710, 30705.00
399.8670, 31049.00
401.0630, 30851.00
402.2580, 30747.00
403.4540, 30818.00
404.6490, 30667.00
405.8440, 30100.00
407.0390, 29673.00
408.2330, 29586.00
409.4280, 29262.00
410.6220, 28905.00
411.8160, 28504.00
413.0100, 28229.00
414.2040, 27557.00
415.3980, 27439.00
416.5910, 26593.00
417.7850, 26188.00
418.9780, 25764.00
420.1710, 25267.00
421.3640, 24797.00
422.5560, 24265.00
423.7490, 23871.00
424.9410, 23387.00
426.1330, 23253.00
427.3250, 23037.00
428.5170, 23215.00
429.7090, 23117.00
430.9000, 23667.00
432.0910, 24295.00
433.2820, 25031.00
434.4730, 25588.00
435.6640, 26634.00
436.8550, 27481.00
438.0450, 28305.00
439.2360, 28807.00
440.4260, 28830.00
441.6160, 28666.00
442.8060, 27648.00
443.9950, 26440.00
445.1850, 25138.00
446.3740, 23611.00
447.5630, 22273.00
448.7520, 21495.00
449.9410, 20806.00
451.1300, 20197.00
452.3180, 20218.00
453.5060, 19766.00
454.6950, 19697.00
455.8830, 19558.00
457.0700, 19578.00
458.2580, 19363.00
459.4450, 19501.00
460.6330, 19330.00
461.8200, 19322.00
463.0070, 19215.00
464.1940, 19307.00
465.3800, 19211.00
466.5670, 18976.00
467.7530, 18870.00
468.9390, 18956.00
470.1250, 18920.00
471.3110, 18783.00
472.4970, 18654.00
473.6820, 18794.00
474.8680, 18594.00
476.0530, 18488.00
477.2380, 18317.00
478.4230, 18346.00
479.6070, 18213.00
480.7920, 18373.00
481.9760, 18270.00
483.1600, 18318.00
484.3440, 18253.00
485.5280, 18193.00
486.7120, 18212.00
487.8950, 18239.19
489.0780, 18270.00
490.2620, 18357.00
491.4450, 18366.00
492.6270, 18376.00
493.8100, 18277.00
494.9920, 18273.00
496.1750, 18255.00
497.3570, 18293.00
498.5390, 18332.00
499.7210, 18431.00
500.9020, 18411.58
502.0840, 18521.00
503.2650, 18436.00
504.4460, 18482.00
505.6270, 18569.00
506.8080, 18479.00
507.9890, 18705.00
509.1690, 18646.00
510.3500, 18721.00
511.5300, 18861.00
512.7100, 19118.00
513.8900, 19186.00
515.0690, 19224.00
516.2490, 19338.00
517.4280, 19421.00
518.6070, 19885.00
519.7860, 19804.00
520.9650, 20011.00
522.1440, 20011.00
523.3220, 20143.00
524.5010, 20330.00
525.6790, 20271.00
526.8570, 20402.00
528.0350, 20525.00
529.2130, 20584.00
530.3900, 20692.00
531.5670, 20919.00
532.7450, 20858.00
533.9220, 21230.00
535.0980, 21531.00
536.2750, 21633.00
537.4520, 21953.00
538.6280, 22007.00
539.8040, 21959.00
540.9800, 21596.00
542.1560, 21289.00
543.3320, 21233.00
544.5070, 20850.00
545.6830, 20794.00
546.8580, 20519.00
548.0330, 20664.00
549.2080, 20729.00
550.3830, 20589.00
551.5570, 20445.00
552.7310, 20348.00
553.9060, 20280.00
555.0800, 20093.00
556.2540, 19928.00
557.4270, 19813.65
558.6010, 19950.00
559.7740, 19645.00
560.9470, 19569.00
562.1210, 19714.00
563.2930, 19602.00
564.4660, 19584.00
565.6390, 19574.00
566.8110, 19481.00
567.9830, 19635.00
569.1550, 19530.00
570.3270, 19739.00
571.4990, 19839.00
572.6710, 19817.74
573.8420, 19717.00
575.0130, 19807.00
576.1840, 19810.00
577.3550, 19721.00
578.5260, 19739.00
579.6970, 19665.00
580.8670, 19769.00
582.0370, 19555.00
583.2070, 19744.00
584.3770, 19701.00
585.5470, 19485.00
586.7170, 19578.00
587.8860, 19625.00
589.0550, 19629.00
590.2240, 19699.00
591.3930, 19464.00
592.5620, 19535.00
593.7310, 19615.00
594.8990, 19577.00
596.0670, 19723.00
597.2350, 19606.00
598.4030, 19472.00
599.5710, 19531.00
600.7390, 19624.00
601.9060, 19448.00
603.0740, 19478.00
604.2410, 19466.72
605.4080, 19429.00
606.5740, 19480.00
607.7410, 19540.00
608.9080, 19597.00
610.0740, 19782.00
611.2400, 19787.00
612.4060, 19461.00
613.5720, 19766.00
614.7370, 19550.00
615.9030, 19685.00
617.0680, 19681.00
618.2330, 19767.00
619.3980, 19819.00
620.5630, 19934.00
621.7280, 20115.00
622.8920, 19909.00
624.0570, 20308.00
625.2210, 20286.00
626.3850, 20278.00
627.5490, 20653.00
628.7120, 20680.00
629.8760, 20624.00
631.0390, 20927.00
632.2020, 21136.00
633.3650, 21355.00
634.5280, 21513.00
635.6910, 21773.00
636.8530, 22009.61
638.0160, 22267.00
639.1780, 22602.00
640.3400, 23077.00
641.5020, 23529.00
642.6640, 24143.00
643.8250, 24897.00
644.9870, 25711.00
646.1480, 26461.00
647.3090, 27646.00
648.4700, 28831.00
649.6300, 30984.00
650.7910, 33098.17
651.9510, 35768.00
653.1120, 38637.00
654.2720, 42509.00
655.4320, 46155.00
656.5910, 50784.00
657.7510, 55685.00
658.9100, 60241.00
660.0690, 63964.00
661.2290, 67023.00
662.3880, 67891.00
663.5460, 67480.00
664.7050, 65190.00
665.8630, 62123.00
667.0220, 58995.00
668.1800, 56416.00
669.3380, 54847.00
670.4950, 54134.00
671.6530, 54764.00
672.8100, 56050.00
673.9680, 58227.00
675.1250, 61016.00
676.2820, 64559.00
677.4390, 68439.00
678.5950, 72560.00
679.7520, 76628.00
680.9080, 80523.00
682.0640, 82936.00
683.2200, 83743.00
684.3760, 82048.00
685.5320, 78341.00
686.6870, 72962.00
687.8420, 65976.00
688.9980, 58875.00
690.1530, 52057.00
691.3070, 46657.00
692.4620, 41729.00
693.6170, 38232.00
694.7710, 35197.00
695.9250, 32644.00
697.0790, 30933.00
698.2330, 29457.00
699.3870, 28060.00
700.5400, 26990.00
701.6940, 26318.00
702.8470, 25533.00
704.0000, 24902.05
705.1530, 24436.84
706.3050, 23867.00
707.4580, 23701.00
708.6100, 23289.00
709.7630, 23081.00
710.9150, 22730.00
712.0660, 22591.00
713.2180, 22282.00
714.3700, 22293.00
715.5210, 22029.00
716.6720, 21800.00
717.8240, 21835.00
718.9740, 21532.00
720.1250, 21471.72
721.2760, 21314.00
722.4260, 21270.00
723.5770, 21199.00
724.7270, 21138.00
725.8770, 21159.88
727.0260, 21077.00
728.1760, 21060.14
729.3250, 21019.29
730.4750, 20999.00
731.6240, 20914.00
732.7730, 20889.00
733.9220, 21050.00
735.0700, 20960.00
736.2190, 20849.00
737.3670, 21034.00
738.5150, 20638.00
739.6630, 20674.00
740.8110, 20800.00
741.9590, 20782.00
743.1060, 20759.36
744.2540, 20817.40
745.4010, 20623.00
746.5480, 20818.00
747.6950, 20757.00
748.8410, 20675.00
749.9880, 20948.00
751.1340, 20701.00
752.2800, 20868.00
753.4260, 20676.00
754.5720, 20627.00
755.7180, 20622.00
756.8640, 20575.00
758.0090, 20632.00
759.1540, 20600.00
760.2990, 20586.96
761.4440, 20415.00
762.5890, 20520.00
763.7340, 20482.00
764.8780, 20390.00
766.0220, 20470.00
767.1660, 20368.00
768.3100, 20527.00
769.4540, 20426.00
770.5980, 20323.00
771.7410, 20367.00
772.8840, 20297.00
774.0280, 20230.00
775.1700, 20317.00
776.3130, 20503.00
777.4560, 20320.00
778.5980, 20326.00
779.7410, 20454.00
780.8830, 20406.00
782.0250, 20192.00
783.1670, 20397.00
784.3080, 20382.00
785.4500, 20551.00
786.5910, 20466.00
787.7320, 20250.00
788.8730, 20389.00
790.0140, 20502.00
791.1550, 20571.00
792.2950, 20296.00
793.4360, 20546.00
794.5760, 20463.00
795.7160, 20381.00
796.8560, 20462.00
797.9960, 20467.00
799.1350, 20484.00
800.2750, 20623.00
801.4140, 20451.00
802.5530, 20702.00
803.6920, 20538.00
804.8310, 20563.00
805.9690, 20474.00
807.1080, 20453.58
808.2460, 20623.00
809.3840, 20519.00
810.5220, 20529.00
811.6600, 20726.00
812.7970, 20663.00
813.9350, 20682.00
815.0720, 20605.00
816.2090, 20664.00
817.3460, 20615.00
818.4830, 20734.00
819.6200, 20734.00
820.7560, 20702.00
821.8930, 20717.00
823.0290, 20844.00
824.1650, 20842.00
825.3010, 20867.37
826.4360, 20725.00
827.5720, 20880.00
828.7070, 20807.00
829.8420, 20825.00
830.9770, 20878.00
832.1120, 20900.00
833.2470, 20815.00
834.3820, 20907.00
835.5160, 20873.00
836.6500, 20940.00
837.7840, 21056.00
838.9180, 21069.00
840.0520, 21276.00
841.1860, 21035.00
842.3190, 21347.00
843.4520, 21403.00
844.5850, 21640.00
845.7180, 21856.00
846.8510, 22036.85
847.9840, 21944.00
849.1160, 22442.00
850.2490, 22788.00
851.3810, 22899.00
852.5130, 23670.00
853.6450, 24062.00
854.7760, 24625.00
855.9080, 24847.00
857.0390, 25155.00
858.1700, 25573.00
859.3010, 25752.00
860.4320, 25469.00
861.5630, 25309.00
862.6930, 24841.00
863.8240, 24722.00
864.9540, 24521.00
866.0840, 24191.00
867.2140, 23767.00
868.3440, 23532.00
869.4730, 23373.00
870.6030, 23018.00
871.7320, 22870.00
872.8610, 22647.00
873.9900, 22499.00
875.1190, 22086.00
876.2470, 22252.00
877.3760, 22187.00
878.5040, 21913.00
879.6320, 22156.00
880.7600, 21857.00
881.8880, 21859.00
883.0150, 21908.00
884.1430, 21971.00
885.2700, 21852.00
886.3970, 21809.00
887.5240, 21771.00
888.6510, 21896.00
889.7780, 21755.00
890.9040, 21876.00
892.0310, 21962.00
893.1570, 21747.00
894.2830, 21753.00
895.4090, 21743.00
896.5350, 21824.00
897.6600, 21874.00
898.7860, 21898.00
899.9110, 21946.65
901.0360, 21838.00
902.1610, 21951.00
903.2860, 21822.00
904.4100, 21698.00
905.5350, 21804.00
906.6590, 21924.00
907.7830, 21842.00
908.9070, 22015.00
910.0310, 21994.00
911.1540, 21976.00
912.2780, 21774.00
913.4010, 22074.00
914.5240, 22190.00
915.6470, 22235.00
916.7700, 22481.00
917.8930, 22373.00
919.0150, 22539.00
920.1380, 22511.00
921.2600, 22606.00
922.3820, 22705.00
923.5040, 22963.00
924.6260, 22955.00
925.7470, 23222.00
926.8690, 23167.00
927.9900, 23438.00
929.1110, 23523.00
930.2320, 23699.00
931.3530, 23843.00
932.4730, 23948.00
933.5940, 24063.00
934.7140, 24134.60
935.8340, 24223.54
936.9540, 24234.00
938.0740, 24232.00
939.1930, 24240.79
940.3130, 24336.00
941.4320, 24244.00
942.5510, 24270.00
943.6700, 24259.00
944.7890, 23879.00
945.9080, 23852.00
947.0260, 23863.00
948.1450, 23617.00
949.2630, 23559.00
950.3810, 23456.00
951.4990, 23642.00
952.6170, 23534.00
953.7340, 23469.00
954.8520, 23379.00
955.9690, 23394.00
957.0860, 23326.00
958.2030, 23241.00
959.3200, 23244.00
960.4360, 23050.00
961.5530, 23180.00
962.6690, 23189.00
963.7850, 23218.00
964.9010, 23078.00
966.0170, 23129.00
967.1330, 23049.00
968.2480, 23123.00
969.3630, 23069.00
970.4790, 23102.03
971.5940, 23131.98
972.7080, 23170.00
973.8230, 23151.00
974.9380, 23190.00
976.0520, 23112.00
977.1660, 23363.00
978.2800, 23121.00
979.3940, 23253.00
980.5080, 23517.00
981.6220, 23599.00
982.7350, 23827.00
983.8480, 23800.00
984.9610, 24015.00
986.0740, 24292.00
987.1870, 24601.00
988.3000, 24704.00
989.4120, 24901.00
990.5250, 25314.00
991.6370, 25922.00
992.7490, 26320.00
993.8610, 27245.00
994.9720, 28032.00
996.0840, 28743.00
997.1950, 29941.00
998.3060, 31362.00
999.4170, 32413.00
1000.528, 34268.00
1001.639, 35584.00
1002.750, 37271.00
1003.860, 39119.00
1004.970, 40884.00
1006.080, 42800.00
1007.190, 44329.00
1008.300, 45715.00
1009.410, 46218.00
1010.519, 46646.00
1011.628, 46275.00
1012.738, 45525.00
1013.846, 44917.00
1014.955, 43860.00
1016.064, 43376.00
1017.172, 43253.00
1018.281, 42957.00
1019.389, 42971.00
1020.497, 42338.00
1021.605, 42033.00
1022.713, 41557.00
1023.820, 41021.00
1024.928, 40766.00
1026.035, 40256.00
1027.142, 39771.00
1028.249, 38936.00
1029.356, 38168.00
1030.462, 37504.00
1031.569, 36768.00
1032.675, 35830.00
1033.781, 34782.00
1034.887, 33592.00
1035.993, 32800.00
1037.098, 31726.00
1038.204, 30721.00
1039.309, 29710.00
1040.415, 29260.00
1041.520, 28539.00
1042.624, 27894.00
1043.729, 27394.00
1044.834, 27067.00
1045.938, 26687.00
1047.042, 26383.00
1048.146, 26133.00
1049.250, 25934.00
1050.354, 25626.00
1051.458, 25516.00
1052.561, 25318.00
1053.664, 25239.00
1054.767, 25018.00
1055.870, 24990.00
1056.973, 24965.00
1058.076, 25017.00
1059.178, 24684.00
1060.281, 24744.00
1061.383, 24666.00
1062.485, 24703.00
1063.587, 24415.00
1064.688, 24499.00
1065.790, 24488.00
1066.891, 24237.00
1067.993, 24386.00
1069.094, 24288.00
1070.195, 24154.00
1071.295, 24044.00
1072.396, 24060.00
1073.496, 23988.00
1074.597, 23848.00
1075.697, 23909.00
1076.797, 23775.00
1077.897, 23826.00
1078.996, 23731.00
1080.096, 23798.00
1081.195, 23650.00
1082.294, 23751.00
1083.393, 23771.00
1084.492, 23890.00
1085.591, 23810.00
1086.689, 23897.00
1087.788, 23867.00
1088.886, 23789.00
1089.984, 23973.00
1091.082, 23763.00
1092.180, 24033.00
1093.277, 23995.00
1094.375, 24007.00
1095.472, 24054.00
1096.569, 23978.00
1097.666, 24002.00
1098.763, 24021.00
1099.860, 23881.00
1100.956, 23900.00
1102.053, 23750.00
1103.149, 23741.07
1104.245, 23814.65
1105.341, 23687.00
1106.436, 23886.00
1107.532, 23856.00
1108.627, 23615.00
1109.723, 23666.00
1110.818, 23575.00
1111.913, 23848.00
1113.007, 23533.00
1114.102, 23770.00
1115.197, 23747.00
1116.291, 23690.00
1117.385, 23806.00
1118.479, 23581.00
1119.573, 23581.00
1120.666, 23797.00
1121.760, 23739.00
1122.853, 23561.00
1123.947, 23808.00
1125.040, 23563.00
1126.132, 23756.00
1127.225, 23564.00
1128.318, 23698.00
1129.410, 23814.00
1130.502, 23717.00
1131.595, 23922.00
1132.687, 23734.00
1133.778, 23777.00
1134.870, 23893.00
1135.961, 23862.00
1137.053, 23817.92
1138.144, 23783.40
1139.235, 23617.00
1140.326, 23646.00
1141.416, 23530.00
1142.507, 23545.00
1143.597, 23659.00
1144.688, 23700.00
1145.778, 23486.00
1146.868, 23539.00
1147.957, 23440.00
1149.047, 23545.00
1150.136, 23616.00
1151.226, 23781.00
1152.315, 23677.00
1153.404, 23666.00
1154.493, 23635.00
1155.581, 23703.00
1156.670, 23785.00
1157.758, 23718.00
1158.846, 23605.00
1159.934, 23722.00
1161.022, 23719.00
1162.110, 23461.00
1163.198, 23633.00
1164.285, 23847.00
1165.372, 23563.00
1166.459, 23843.00
1167.546, 23708.00
1168.633, 23618.00
1169.720, 23913.00
1170.806, 23740.00
1171.892, 23490.00
1172.979, 23800.00
1174.065, 23657.00
1175.150, 23839.00
1176.236, 23636.00
1177.322, 23722.00
1178.407, 23761.00
1179.492, 23654.00
1180.577, 23643.00
1181.662, 23878.00
1182.747, 23749.87
1183.832, 23682.00
1184.916, 23743.00
1186.000, 23615.00
1187.084, 23673.00
1188.168, 23550.00
1189.252, 23751.00
1190.336, 23628.00
1191.419, 23629.00
1192.503, 23681.00
1193.586, 23636.00
1194.669, 23757.00
1195.752, 23789.00
1196.835, 23680.00
1197.917, 23550.00
1199.000, 23761.00
1200.082, 23874.00
1201.164, 23737.00
1202.246, 23724.00
1203.328, 23897.00
1204.409, 23765.00
1205.491, 23674.00
1206.572, 23761.00
1207.653, 23654.00
1208.734, 23844.00
1209.815, 23980.00
1210.896, 23976.00
1211.976, 23961.00
1213.057, 24002.00
1214.137, 23929.00
1215.217, 23844.00
1216.297, 23849.00
1217.377, 23824.00
1218.456, 23907.00
1219.536, 23945.00
1220.615, 24070.00
1221.694, 24016.00
1222.773, 24019.00
1223.852, 24098.00
1224.931, 24122.00
1226.009, 24117.75
1227.088, 24112.73
1228.166, 24141.00
1229.244, 24056.00
1230.322, 24153.00
1231.400, 24175.00
1232.477, 23937.00
1233.555, 24050.00
1234.632, 24060.00
1235.709, 24315.00
1236.786, 24147.00
1237.863, 24117.00
1238.939, 24301.00
1240.016, 24028.00
1241.092, 24307.00
1242.168, 24150.00
1243.245, 24148.00
1244.320, 24313.00
1245.396, 24385.00
1246.472, 24235.00
1247.547, 24204.00
1248.622, 24450.00
1249.697, 24312.00
1250.772, 24421.00
1251.847, 24600.00
1252.922, 24472.00
1253.996, 24547.00
1255.071, 24424.00
1256.145, 24597.00
1257.219, 24624.00
1258.293, 24415.00
1259.366, 24593.00
1260.440, 24452.00
1261.513, 24626.00
1262.587, 24417.00
1263.660, 24697.00
1264.733, 24853.00
1265.805, 24683.00
1266.878, 24855.00
1267.951, 25055.00
1269.023, 24915.00
1270.095, 24913.00
1271.167, 24869.00
1272.239, 24843.36
1273.311, 24938.00
1274.382, 24868.00
1275.454, 24855.00
1276.525, 24911.00
1277.596, 24723.00
1278.667, 24911.00
1279.738, 25016.00
1280.808, 24793.00
1281.879, 24845.00
1282.949, 25079.00
