##NAMES=Enstatite
##RRUFFID=R060630
##IDEAL CHEMISTRY=MgSiO_3_
##LOCALITY=unknown
##OWNER=RRUFF
##SOURCE=Gemological Institute of America
##DESCRIPTION=Tan colored fragment
##STATUS=The identification of this mineral has been confirmed by X-ray diffraction and chemical analysis
##URL=rruff.info/R060630
##MEASURED CHEMISTRY=(Mg_0.89_Fe_0.07_Al_0.04_)_Σ=1_(Si_0.96_Al_0.04_)_Σ=1_O_3_
##PIN_ID=L01844
##ORIENTATION=Laser parallel to -b* (0 -1 0). Fiducial mark perpendicular to laser is parallel to c [0 0 1]
118.1340, 6830.000
119.3650, 6871.000
120.5960, 6910.000
121.8270, 6911.000
123.0580, 7160.000
124.2880, 7123.000
125.5190, 7261.000
126.7490, 7412.000
127.9790, 7774.000
129.2090, 8150.000
130.4390, 8621.000
131.6680, 9254.000
132.8980, 9808.000
134.1270, 10496.00
135.3560, 11206.00
136.5850, 12063.00
137.8140, 12975.00
139.0430, 13635.00
140.2710, 14166.00
141.5000, 14295.00
142.7280, 13959.00
143.9560, 13498.00
145.1840, 12554.00
146.4120, 11770.00
147.6390, 11121.00
148.8670, 10412.00
150.0940, 9957.000
151.3210, 9625.000
152.5490, 9354.000
153.7750, 9286.000
155.0020, 9120.000
156.2290, 8796.000
157.4550, 8479.000
158.6810, 8316.000
159.9080, 7905.000
161.1340, 7847.000
162.3590, 7683.000
163.5850, 7521.000
164.8110, 7465.000
166.0360, 7327.000
167.2610, 7237.000
168.4860, 7295.000
169.7110, 7157.000
170.9360, 7106.000
172.1610, 7085.000
173.3850, 6935.000
174.6100, 6911.000
175.8340, 6940.000
177.0580, 6969.000
178.2820, 6826.000
179.5050, 6827.000
180.7290, 6816.000
181.9520, 6916.000
183.1760, 6956.000
184.3990, 6939.000
185.6220, 7028.000
186.8450, 7155.000
188.0670, 7186.000
189.2900, 7161.000
190.5120, 7340.000
191.7340, 7315.000
192.9560, 7406.000
194.1780, 7470.000
195.4000, 7600.753
196.6220, 7893.000
197.8430, 7944.000
199.0640, 8188.000
200.2860, 8397.000
201.5070, 8438.000
202.7270, 8748.000
203.9480, 8882.000
205.1690, 9008.000
206.3890, 9091.000
207.6090, 9203.000
208.8290, 9133.000
210.0490, 9083.000
211.2690, 9084.000
212.4890, 8810.000
213.7080, 8777.000
214.9280, 8592.000
216.1470, 8471.000
217.3660, 8601.000
218.5850, 8595.000
219.8030, 8610.000
221.0220, 8699.000
222.2400, 8904.000
223.4590, 9007.000
224.6770, 9445.000
225.8950, 9729.000
227.1120, 10280.00
228.3300, 10669.00
229.5480, 11323.00
230.7650, 11831.00
231.9820, 12770.00
233.1990, 13714.00
234.4160, 14641.00
235.6330, 15734.00
236.8490, 16343.00
238.0660, 16527.00
239.2820, 16249.00
240.4980, 15503.00
241.7140, 14378.00
242.9300, 12827.00
244.1460, 11692.00
245.3610, 10675.00
246.5770, 9824.000
247.7920, 9351.000
249.0070, 8926.000
250.2220, 8533.000
251.4370, 8274.000
252.6510, 8106.000
253.8660, 8057.000
255.0800, 8034.000
256.2940, 7857.000
257.5080, 7873.000
258.7220, 8093.000
259.9360, 8056.000
261.1490, 7924.000
262.3630, 7827.000
263.5760, 7740.000
264.7890, 7776.000
266.0020, 7799.000
267.2150, 7866.000
268.4270, 7918.000
269.6400, 7967.000
270.8520, 7919.000
272.0640, 8051.000
273.2760, 8113.000
274.4880, 8199.000
275.7000, 8316.000
276.9120, 8425.000
278.1230, 8511.000
279.3340, 8571.000
280.5450, 8581.000
281.7560, 8693.000
282.9670, 8666.000
284.1780, 8752.000
285.3880, 8692.000
286.5980, 8694.000
287.8090, 8656.000
289.0190, 8719.000
290.2290, 8732.000
291.4380, 8773.000
292.6480, 8897.000
293.8570, 9018.000
295.0670, 9200.000
296.2760, 9319.000
297.4850, 9449.000
298.6930, 9252.000
299.9020, 9400.000
301.1110, 9301.000
302.3190, 9220.000
303.5270, 9143.000
304.7350, 9031.000
305.9430, 8996.000
307.1510, 9159.000
308.3580, 9049.000
309.5660, 9198.000
310.7730, 9243.000
311.9800, 9565.000
313.1870, 9838.000
314.3940, 9898.000
315.6010, 10237.00
316.8070, 10473.00
318.0130, 10803.00
319.2200, 11136.00
320.4260, 11532.00
321.6310, 11899.00
322.8370, 12338.00
324.0430, 12663.00
325.2480, 13314.00
326.4540, 13562.00
327.6590, 14265.00
328.8640, 14750.00
330.0680, 15303.00
331.2730, 15944.00
332.4780, 16414.00
333.6820, 17099.00
334.8860, 17888.00
336.0900, 18723.00
337.2940, 19621.00
338.4980, 20740.00
339.7010, 21963.00
340.9050, 23386.00
342.1080, 24698.00
343.3110, 25903.00
344.5140, 26988.00
345.7170, 28016.00
346.9200, 28676.00
348.1220, 29342.00
349.3240, 29046.00
350.5270, 28865.00
351.7290, 27875.00
352.9310, 27053.00
354.1320, 25751.00
355.3340, 24355.00
356.5350, 23244.00
357.7370, 21897.00
358.9380, 20703.00
360.1390, 19604.00
361.3400, 18756.00
362.5400, 17717.00
363.7410, 16940.00
364.9410, 16213.00
366.1410, 15540.00
367.3410, 14864.00
368.5410, 14493.00
369.7410, 14114.00
370.9400, 13591.00
372.1400, 13359.62
373.3390, 13300.00
374.5380, 12802.00
375.7370, 12822.00
376.9360, 12524.00
378.1350, 12555.00
379.3330, 12589.00
380.5310, 12431.00
381.7300, 12315.00
382.9280, 12420.00
384.1260, 12352.00
385.3230, 12308.00
386.5210, 12274.00
387.7180, 12220.70
388.9160, 12156.00
390.1130, 12164.00
391.3100, 12128.00
392.5060, 12162.00
393.7030, 12188.00
394.9000, 12424.00
396.0960, 12497.00
397.2920, 12720.00
398.4880, 12977.00
399.6840, 13105.00
400.8800, 13230.73
402.0750, 13221.00
403.2710, 13305.00
404.4660, 13239.00
405.6610, 13112.00
406.8560, 13061.00
408.0510, 12998.00
409.2450, 12849.00
410.4400, 12880.00
411.6340, 12930.00
412.8280, 13143.00
414.0220, 13220.00
415.2160, 13458.00
416.4100, 13495.00
417.6030, 13718.00
418.7970, 13440.00
419.9900, 13498.00
421.1830, 13370.00
422.3760, 12860.00
423.5690, 12594.00
424.7610, 12235.00
425.9540, 11578.00
427.1460, 11315.00
428.3380, 10966.00
429.5300, 10661.00
430.7220, 10422.00
431.9140, 10225.00
433.1050, 10157.00
434.2970, 10181.00
435.4880, 10267.34
436.6790, 10467.00
437.8700, 10737.00
439.0610, 10978.00
440.2510, 11440.00
441.4420, 11783.00
442.6320, 12245.00
443.8220, 12366.00
445.0120, 12582.00
446.2020, 12555.00
447.3910, 12257.00
448.5810, 12223.00
449.7700, 11840.00
450.9600, 11449.00
452.1490, 11121.00
453.3370, 10581.00
454.5260, 10464.00
455.7150, 10264.00
456.9030, 10024.00
458.0910, 10211.00
459.2800, 10260.00
460.4670, 9850.000
461.6550, 9800.000
462.8430, 9557.000
464.0300, 9564.000
465.2180, 9470.000
466.4050, 9588.000
467.5920, 9363.000
468.7790, 9195.000
469.9650, 9309.000
471.1520, 9168.000
472.3380, 9141.000
473.5250, 9061.000
474.7110, 8993.000
475.8970, 9069.000
477.0820, 9083.000
478.2680, 9046.000
479.4540, 8986.000
480.6390, 9015.000
481.8240, 8930.000
483.0090, 8913.000
484.1940, 9034.000
485.3780, 8993.000
486.5630, 9066.000
487.7470, 9052.000
488.9320, 8997.000
490.1160, 9032.000
491.3000, 8908.000
492.4830, 9026.000
493.6670, 9022.000
494.8500, 8948.000
496.0340, 9083.000
497.2170, 8967.000
498.4000, 8937.000
499.5820, 9064.000
500.7650, 9107.000
501.9480, 8980.000
503.1300, 8981.000
504.3120, 8990.000
505.4940, 9077.000
506.6760, 9117.000
507.8580, 9147.000
509.0390, 9164.000
510.2210, 9200.305
511.4020, 9286.000
512.5830, 9263.000
513.7640, 9309.000
514.9450, 9352.000
516.1250, 9534.000
517.3060, 9529.000
518.4860, 9571.000
519.6660, 9682.000
520.8460, 9639.000
522.0260, 9710.640
523.2060, 9719.000
524.3850, 9796.000
525.5650, 9775.000
526.7440, 9856.000
527.9230, 9933.000
529.1020, 10011.00
530.2810, 10156.00
531.4590, 10325.00
532.6380, 10456.00
533.8160, 10640.00
534.9940, 10900.00
536.1720, 11008.00
537.3500, 11052.00
538.5270, 11031.00
539.7050, 10860.00
540.8820, 10874.00
542.0590, 10643.00
543.2360, 10553.00
544.4130, 10496.00
545.5900, 10307.00
546.7660, 10170.00
547.9430, 10092.00
549.1190, 10032.00
550.2950, 10050.00
551.4710, 9888.000
552.6470, 9955.000
553.8220, 9826.000
554.9980, 9831.000
556.1730, 9773.000
557.3480, 9760.000
558.5230, 9609.000
559.6980, 9794.000
560.8730, 9733.000
562.0470, 9805.000
563.2220, 9624.000
564.3960, 9592.000
565.5700, 9717.000
566.7440, 9640.000
567.9170, 9735.000
569.0910, 9881.000
570.2640, 9729.000
571.4380, 9859.000
572.6110, 9901.000
573.7840, 10153.00
574.9570, 10027.00
576.1290, 10002.00
577.3020, 10122.00
578.4740, 10003.00
579.6460, 10103.00
580.8180, 9991.000
581.9900, 9884.000
583.1620, 10001.00
584.3330, 9854.000
585.5040, 9952.000
586.6760, 9917.000
587.8470, 9850.000
589.0180, 9965.000
590.1880, 9658.000
591.3590, 9734.000
592.5290, 9761.000
593.7000, 9792.000
594.8700, 9813.000
596.0400, 9812.000
597.2090, 9718.000
598.3790, 9698.000
599.5490, 9747.000
600.7180, 9794.000
601.8870, 9756.000
603.0560, 9820.000
604.2250, 9854.000
605.3940, 9875.612
606.5620, 9944.000
607.7300, 9918.000
608.8990, 9930.000
610.0670, 9872.000
611.2350, 9955.000
612.4020, 10017.00
613.5700, 10108.00
614.7370, 10152.00
615.9050, 10201.00
617.0720, 10310.00
618.2390, 10245.00
619.4060, 10337.00
620.5720, 10557.00
621.7390, 10659.00
622.9050, 10577.00
624.0710, 10697.00
625.2370, 10817.00
626.4030, 11148.00
627.5690, 11268.00
628.7340, 11446.00
629.9000, 11649.00
631.0650, 11882.00
632.2300, 12233.00
633.3950, 12627.00
634.5600, 12880.00
635.7240, 13366.00
636.8890, 13549.00
638.0530, 13799.00
639.2170, 13900.00
640.3810, 14240.00
641.5450, 14432.00
642.7080, 14718.00
643.8720, 15085.00
645.0350, 15279.00
646.1980, 16045.00
647.3610, 16642.00
648.5240, 17445.00
649.6870, 18439.00
650.8490, 19647.00
652.0120, 20805.00
653.1740, 22433.00
654.3360, 23895.00
655.4980, 25614.00
656.6600, 26880.00
657.8210, 28496.00
658.9830, 29681.00
660.1440, 30470.00
661.3050, 31089.00
662.4660, 30947.00
663.6270, 30633.00
664.7870, 29790.00
665.9480, 29076.00
667.1080, 27919.00
668.2680, 27187.00
669.4280, 26681.00
670.5880, 26678.00
671.7480, 27056.00
672.9070, 27781.00
674.0670, 28917.00
675.2260, 30930.00
676.3850, 33385.00
677.5440, 36041.00
678.7030, 39498.00
679.8610, 43347.00
681.0200, 47028.00
682.1780, 51266.00
683.3360, 55125.00
684.4940, 57695.00
685.6520, 58817.00
686.8090, 59068.00
687.9670, 57441.00
689.1240, 54910.00
690.2810, 50986.00
691.4380, 46147.00
692.5950, 41268.00
693.7520, 37097.00
694.9080, 33090.00
696.0650, 29708.00
697.2210, 26783.00
698.3770, 24670.00
699.5330, 22455.00
700.6880, 20713.00
701.8440, 19640.00
702.9990, 18449.00
704.1550, 17445.00
705.3100, 16559.00
706.4650, 15909.00
707.6190, 15473.00
708.7740, 14984.00
709.9290, 14642.00
711.0830, 14366.00
712.2370, 13847.00
713.3910, 13633.00
714.5450, 13490.00
715.6980, 13189.00
716.8520, 12798.00
718.0050, 12819.00
719.1580, 12490.00
720.3110, 12490.00
721.4640, 12296.00
722.6170, 12291.00
723.7700, 12075.00
724.9220, 11950.00
726.0740, 11972.00
727.2260, 11757.00
728.3780, 11864.00
729.5300, 11727.00
730.6810, 11621.00
731.8330, 11720.00
732.9840, 11558.00
734.1350, 11541.00
735.2860, 11512.00
736.4370, 11377.00
737.5880, 11332.47
738.7380, 11335.00
739.8880, 11176.00
741.0390, 11324.00
742.1890, 11315.00
743.3380, 11220.00
744.4880, 11239.00
745.6380, 11178.00
746.7870, 11245.00
747.9360, 11066.00
749.0850, 10898.00
750.2340, 11009.00
751.3830, 11008.00
752.5310, 10849.00
753.6800, 10931.00
754.8280, 10821.00
755.9760, 10868.00
757.1240, 10749.00
758.2720, 10799.00
759.4190, 10769.00
760.5670, 10666.00
761.7140, 10693.00
762.8610, 10713.00
764.0080, 10730.00
765.1550, 10458.00
766.3020, 10599.00
767.4480, 10522.00
768.5950, 10589.00
769.7410, 10572.00
770.8870, 10550.00
772.0330, 10409.00
773.1780, 10330.00
774.3240, 10376.00
775.4690, 10381.00
776.6140, 10403.00
777.7590, 10410.00
778.9040, 10309.00
780.0490, 10358.00
781.1940, 10233.00
782.3380, 10478.00
783.4820, 10282.00
784.6260, 10323.00
785.7700, 10428.00
786.9140, 10418.00
788.0580, 10336.00
789.2010, 10334.00
790.3450, 10340.00
791.4880, 10400.00
792.6310, 10309.00
793.7730, 10522.00
794.9160, 10359.00
796.0590, 10388.00
797.2010, 10294.00
798.3430, 10405.00
799.4850, 10476.00
800.6270, 10390.00
801.7690, 10440.00
802.9100, 10342.00
804.0520, 10443.00
805.1930, 10437.00
806.3340, 10405.00
807.4750, 10360.00
808.6160, 10350.84
809.7560, 10424.00
810.8970, 10400.00
812.0370, 10352.00
813.1770, 10564.00
814.3170, 10540.00
815.4570, 10623.00
816.5960, 10623.00
817.7360, 10643.00
818.8750, 10532.00
820.0140, 10564.00
821.1530, 10593.54
822.2920, 10775.00
823.4310, 10761.00
824.5690, 10830.00
825.7070, 11031.00
826.8460, 10943.00
827.9840, 11090.00
829.1220, 11130.00
830.2590, 11099.00
831.3970, 11189.00
832.5340, 11271.00
833.6710, 11310.00
834.8080, 11458.00
835.9450, 11514.00
837.0820, 11734.00
838.2190, 11747.00
839.3550, 11959.00
840.4910, 12150.00
841.6270, 12343.00
842.7630, 12432.00
843.8990, 12440.00
845.0350, 12659.00
846.1700, 12817.00
847.3060, 12758.00
848.4410, 12942.00
849.5760, 12981.00
850.7100, 12989.00
851.8450, 12869.00
852.9800, 12884.00
854.1140, 12896.00
855.2480, 12809.00
856.3820, 12799.00
857.5160, 12672.00
858.6500, 12559.00
859.7830, 12472.00
860.9170, 12402.19
862.0500, 12389.00
863.1830, 12362.00
864.3160, 12262.00
865.4480, 12366.00
866.5810, 12266.00
867.7130, 12238.00
868.8460, 12107.00
869.9780, 12135.00
871.1100, 12163.00
872.2410, 12171.00
873.3730, 12145.03
874.5050, 12099.00
875.6360, 12046.00
876.7670, 12023.00
877.8980, 11935.00
879.0290, 11913.00
880.1590, 12046.00
881.2900, 11961.00
882.4200, 11843.00
883.5500, 11915.00
884.6800, 11781.00
885.8100, 11827.00
886.9400, 11828.00
888.0690, 11796.00
889.1990, 11720.00
890.3280, 11721.00
891.4570, 11724.00
892.5860, 11747.00
893.7140, 11790.52
894.8430, 11946.00
895.9710, 11879.00
897.1000, 11938.00
898.2280, 11929.00
899.3560, 11928.00
900.4830, 12096.00
901.6110, 12137.00
902.7380, 12169.00
903.8660, 12239.08
904.9930, 12305.00
906.1200, 12291.00
907.2460, 12322.00
908.3730, 12339.00
909.5000, 12381.94
910.6260, 12431.00
911.7520, 12494.00
912.8780, 12566.00
914.0040, 12631.00
915.1290, 12662.00
916.2550, 12745.95
917.3800, 12869.00
918.5050, 12905.00
919.6300, 13022.00
920.7550, 13140.00
921.8800, 13202.00
923.0040, 13405.00
924.1290, 13460.00
925.2530, 13537.00
926.3770, 13726.00
927.5010, 13966.00
928.6250, 14052.00
929.7480, 14290.00
930.8720, 14443.00
931.9950, 14681.00
933.1180, 14918.00
934.2410, 14891.00
935.3640, 14967.00
936.4860, 15126.00
937.6090, 15191.00
938.7310, 15071.00
939.8530, 15224.00
940.9750, 15161.00
942.0970, 15251.00
943.2180, 15318.00
944.3400, 15254.00
945.4610, 15156.00
946.5820, 15302.00
947.7030, 15195.00
948.8240, 15347.00
949.9450, 15274.00
951.0650, 14930.00
952.1860, 14989.00
953.3060, 15030.00
954.4260, 15011.00
955.5460, 14670.00
956.6650, 14650.00
957.7850, 14458.00
958.9040, 14313.00
960.0230, 14086.00
961.1420, 13818.00
962.2610, 13701.00
963.3800, 13646.00
964.4990, 13370.00
965.6170, 13312.00
966.7350, 13280.00
967.8530, 13121.00
968.9710, 13273.00
970.0890, 13174.00
971.2070, 13301.00
972.3240, 13339.00
973.4410, 13430.00
974.5580, 13465.00
975.6750, 13429.00
976.7920, 13694.00
977.9090, 13807.00
979.0250, 14176.00
980.1410, 14360.00
981.2580, 14453.00
982.3740, 15029.00
983.4890, 15439.00
984.6050, 15825.00
985.7200, 16491.00
986.8360, 17195.00
987.9510, 18190.00
989.0660, 19065.00
990.1810, 20157.00
991.2950, 21507.00
992.4100, 23015.58
993.5240, 24768.36
994.6390, 26710.00
995.7530, 28914.00
996.8660, 31307.00
997.9800, 33950.00
999.0940, 36476.00
1000.207, 39347.00
1001.320, 42303.00
1002.433, 45070.00
1003.546, 47875.00
1004.659, 50869.00
1005.772, 52946.00
1006.884, 55296.00
1007.996, 57098.00
1009.108, 57700.00
1010.220, 57635.00
1011.332, 56629.00
1012.444, 54852.00
1013.555, 52545.00
1014.666, 49352.00
1015.777, 46094.00
1016.888, 43075.00
1017.999, 39801.00
1019.110, 37320.00
1020.220, 35170.00
1021.331, 33141.00
1022.441, 31373.00
1023.551, 30351.00
1024.661, 29032.00
1025.770, 27912.00
1026.880, 27393.00
1027.989, 26735.00
1029.098, 26224.00
1030.207, 25865.00
1031.316, 25378.00
1032.425, 24871.00
1033.533, 24571.00
1034.642, 23845.00
1035.750, 23304.00
1036.858, 22574.00
1037.966, 21894.00
1039.073, 20976.00
1040.181, 20171.00
1041.288, 19468.00
1042.396, 18845.00
1043.503, 18262.00
1044.610, 17677.00
1045.716, 17154.00
1046.823, 16569.00
1047.929, 16223.00
1049.036, 15810.00
1050.142, 15475.67
1051.248, 15334.00
1052.353, 14965.00
1053.459, 14822.00
1054.564, 14675.00
1055.670, 14379.00
1056.775, 14001.00
1057.880, 13920.00
1058.985, 13801.00
1060.089, 13537.00
1061.194, 13531.00
1062.298, 13411.00
1063.402, 13287.00
1064.506, 13213.52
1065.610, 12964.00
1066.713, 12978.00
1067.817, 12854.00
1068.920, 12689.00
1070.023, 12674.00
1071.126, 12623.00
1072.229, 12692.00
1073.332, 12539.00
1074.435, 12469.00
1075.537, 12400.00
1076.639, 12351.50
1077.741, 12430.00
1078.843, 12338.00
1079.945, 12352.00
1081.046, 12395.00
1082.148, 12286.00
1083.249, 12328.00
1084.350, 12405.00
1085.451, 12232.00
1086.551, 12236.00
1087.652, 12135.00
1088.752, 12250.00
1089.853, 12227.00
1090.953, 12210.00
1092.053, 12146.00
1093.152, 12138.00
1094.252, 12164.00
1095.351, 12218.00
1096.451, 12190.00
1097.550, 12237.00
1098.649, 12125.00
1099.748, 12160.00
1100.846, 12153.00
1101.945, 12159.00
1103.043, 12231.00
1104.141, 12263.00
1105.239, 12142.00
1106.337, 12170.00
1107.434, 12031.00
1108.532, 12205.00
1109.629, 12202.00
1110.726, 12097.00
1111.823, 12191.00
1112.920, 12187.00
1114.017, 12147.00
1115.113, 12307.00
1116.210, 12344.00
1117.306, 12339.00
1118.402, 12489.00
1119.498, 12483.00
1120.593, 12495.00
1121.689, 12556.00
1122.784, 12582.00
1123.879, 12579.43
1124.974, 12428.00
1126.069, 12526.00
1127.164, 12414.00
1128.259, 12295.00
1129.353, 12410.00
1130.447, 12259.00
1131.541, 12352.00
1132.635, 12280.00
1133.729, 12114.00
1134.822, 12177.00
1135.916, 12244.00
1137.009, 12224.00
1138.102, 12095.00
1139.195, 12209.00
1140.288, 12304.00
1141.380, 12186.00
1142.473, 12369.00
1143.565, 12215.00
1144.657, 12322.00
1145.749, 12122.00
1146.841, 12222.00
1147.932, 12074.00
1149.024, 12166.00
1150.115, 12223.00
1151.206, 12213.00
1152.297, 12247.00
1153.388, 12280.00
1154.479, 12168.00
1155.569, 12251.00
1156.659, 12075.00
1157.750, 12077.12
1158.839, 12128.00
1159.929, 12032.00
1161.019, 12128.00
1162.108, 12187.00
1163.198, 12197.00
1164.287, 12257.79
1165.376, 12270.00
1166.465, 12284.00
1167.553, 12298.00
1168.642, 12235.00
1169.730, 12201.00
1170.818, 12250.00
1171.906, 12305.00
1172.994, 12302.00
1174.082, 12305.00
1175.170, 12284.00
1176.257, 12225.00
1177.344, 12237.00
1178.431, 12244.00
1179.518, 12194.00
1180.605, 12263.00
1181.691, 12326.00
1182.778, 12363.00
1183.864, 12369.00
1184.950, 12381.00
1186.036, 12227.00
1187.122, 12385.00
1188.207, 12249.00
1189.292, 12228.00
1190.378, 12351.00
1191.463, 12324.00
1192.548, 12338.00
1193.632, 12238.00
1194.717, 12392.00
1195.801, 12332.00
1196.886, 12275.00
1197.970, 12434.00
1199.054, 12390.00
1200.137, 12295.00
1201.221, 12430.00
1202.305, 12372.00
1203.388, 12331.00
1204.471, 12384.00
1205.554, 12363.00
1206.637, 12309.00
1207.719, 12366.00
1208.802, 12385.00
1209.884, 12427.00
1210.966, 12413.00
1212.048, 12422.00
1213.130, 12342.00
1214.212, 12605.00
1215.293, 12525.00
1216.374, 12413.00
1217.456, 12445.00
1218.536, 12273.00
1219.617, 12316.79
1220.698, 12489.00
1221.778, 12409.00
1222.859, 12494.00
1223.939, 12667.00
1225.019, 12370.00
1226.099, 12579.00
1227.178, 12482.00
1228.258, 12549.00
1229.337, 12501.00
1230.417, 12593.00
1231.496, 12598.00
1232.574, 12565.00
1233.653, 12618.00
1234.732, 12542.00
1235.810, 12653.00
1236.888, 12658.00
1237.966, 12715.00
1239.044, 12787.00
1240.122, 12821.00
1241.199, 12593.00
1242.277, 12740.00
1243.354, 12648.00
1244.431, 12740.00
1245.508, 12867.00
1246.585, 12736.00
1247.661, 12785.00
1248.738, 12737.00
1249.814, 12757.00
1250.890, 12790.00
1251.966, 12659.00
1253.042, 12743.00
1254.117, 12921.00
1255.193, 12916.00
1256.268, 12820.00
1257.343, 12777.00
1258.418, 12877.00
1259.493, 12827.00
1260.567, 12913.00
1261.642, 12997.00
1262.716, 12906.00
1263.790, 12903.00
1264.864, 12887.00
1265.938, 12943.00
1267.011, 12884.00
1268.085, 13005.00
1269.158, 13017.00
1270.231, 13034.12
1271.304, 13064.00
1272.377, 13058.00
1273.450, 13072.00
1274.522, 13033.00
1275.594, 12990.00
1276.666, 13203.00
1277.738, 13105.00
1278.810, 13283.00
1279.882, 12941.00
1280.953, 13043.00
1282.025, 13120.00
1283.096, 13059.00
1284.167, 13133.00
1285.238, 13143.00
1286.308, 13160.00
1287.379, 13130.00
1288.449, 13127.00
1289.519, 13241.00
1290.589, 13064.00
1291.659, 13251.00
1292.729, 13148.00
1293.798, 13280.00
1294.868, 13178.00
1295.937, 13037.00
1297.006, 13211.00
