##NAMES=Enstatite
##RRUFFID=R040093
##IDEAL CHEMISTRY=MgSiO_3_
##LOCALITY=Castle Rock, Pennsylvania, USA
##OWNER=RRUFF
##SOURCE=University of Arizona Mineral Museum
##DESCRIPTION=Dark green massive
##STATUS=The identification of this mineral has been confirmed by X-ray diffraction and chemical analysis
##URL=rruff.info/R040093
##MEASURED CHEMISTRY=(Mg_0.84_Fe_0.15_Al_0.01_)Si_1.00_O_3_
##PIN_ID=L00172
##ORIENTATION=Laser parallel to -c* (0 0 -1). Fiducial mark perpendicular to laser is parallel to a [1 0 0]
109.2680, 6996.000
110.5040, 6939.000
111.7400, 6952.000
112.9760, 6979.000
114.2120, 7138.000
115.4470, 7426.000
116.6820, 7227.000
117.9170, 7008.000
119.1520, 7034.585
120.3870, 6746.917
121.6220, 6805.000
122.8560, 6307.000
124.0900, 6159.000
125.3240, 5911.000
126.5580, 5922.000
127.7920, 5893.000
129.0260, 6054.000
130.2590, 6101.000
131.4920, 6173.000
132.7250, 6182.000
133.9580, 6179.000
135.1910, 6280.000
136.4230, 6392.000
137.6560, 6531.000
138.8880, 6642.000
140.1200, 6785.000
141.3520, 6905.000
142.5830, 6980.000
143.8150, 7248.000
145.0460, 7293.000
146.2770, 7637.000
147.5080, 7658.000
148.7390, 7649.000
149.9700, 7630.000
151.2000, 7441.000
152.4310, 7519.000
153.6610, 7379.000
154.8910, 7385.000
156.1210, 7362.000
157.3500, 7406.000
158.5800, 7388.000
159.8090, 7434.000
161.0380, 7492.000
162.2670, 7440.000
163.4960, 7444.000
164.7240, 7314.000
165.9530, 7143.000
167.1810, 7045.000
168.4090, 6948.358
169.6370, 6895.000
170.8650, 6818.000
172.0920, 6755.000
173.3200, 6728.000
174.5470, 6802.000
175.7740, 6865.000
177.0010, 7076.000
178.2280, 7409.000
179.4540, 7640.000
180.6810, 8082.000
181.9070, 8239.000
183.1330, 8869.000
184.3590, 9464.000
185.5850, 10201.00
186.8100, 11184.00
188.0350, 12143.00
189.2610, 13252.00
190.4860, 13881.00
191.7110, 14727.00
192.9350, 15144.00
194.1600, 15298.00
195.3840, 14557.00
196.6080, 13557.00
197.8320, 12402.00
199.0560, 11224.00
200.2800, 10311.00
201.5030, 9632.000
202.7270, 9071.000
203.9500, 8989.000
205.1730, 8808.000
206.3950, 8641.000
207.6180, 8481.000
208.8410, 8580.000
210.0630, 8547.000
211.2850, 8438.000
212.5070, 8517.000
213.7290, 8411.000
214.9500, 8295.000
216.1720, 8337.000
217.3930, 8281.000
218.6140, 8581.000
219.8350, 8914.000
221.0560, 9137.612
222.2770, 9565.000
223.4970, 9858.000
224.7170, 10416.00
225.9370, 10860.00
227.1570, 11616.00
228.3770, 12447.00
229.5970, 13757.00
230.8160, 15019.00
232.0350, 16496.00
233.2540, 17643.00
234.4730, 18937.00
235.6920, 19675.00
236.9110, 19747.00
238.1290, 18791.00
239.3470, 17016.00
240.5650, 14966.00
241.7830, 12800.00
243.0010, 11086.00
244.2180, 9739.000
245.4360, 8770.000
246.6530, 8133.000
247.8700, 7621.000
249.0870, 7345.000
250.3040, 7273.000
251.5200, 7121.000
252.7370, 7210.000
253.9530, 7275.000
255.1690, 7517.000
256.3850, 7575.000
257.6000, 7411.000
258.8160, 7011.000
260.0310, 6769.000
261.2460, 6573.000
262.4610, 6686.000
263.6760, 6723.000
264.8910, 6710.000
266.1050, 6922.000
267.3200, 7060.000
268.5340, 7194.000
269.7480, 7449.000
270.9620, 7730.000
272.1750, 7715.000
273.3890, 7777.000
274.6020, 7866.000
275.8150, 7815.000
277.0280, 7609.000
278.2410, 7431.000
279.4540, 7346.000
280.6660, 7284.000
281.8790, 7335.000
283.0910, 7204.000
284.3030, 7184.000
285.5140, 7334.000
286.7260, 7426.000
287.9380, 7566.636
289.1490, 7531.000
290.3600, 7927.000
291.5710, 8151.000
292.7820, 8359.000
293.9920, 8774.000
295.2030, 9152.000
296.4130, 9270.000
297.6230, 9466.000
298.8330, 9437.000
300.0430, 9469.000
301.2520, 9197.000
302.4620, 9051.000
303.6710, 8896.000
304.8800, 8826.000
306.0890, 8835.000
307.2980, 8982.000
308.5070, 9230.000
309.7150, 9571.000
310.9230, 10022.00
312.1310, 10780.00
313.3390, 11483.00
314.5470, 12683.00
315.7550, 13553.00
316.9620, 14734.00
318.1690, 15492.00
319.3760, 16196.00
320.5830, 16966.00
321.7900, 17410.00
322.9960, 17801.00
324.2030, 18743.00
325.4090, 19590.00
326.6150, 20167.00
327.8210, 21200.00
329.0270, 22040.00
330.2320, 23259.00
331.4380, 24653.00
332.6430, 26662.00
333.8480, 29034.00
335.0530, 31897.00
336.2580, 34581.00
337.4620, 37502.00
338.6670, 39624.00
339.8710, 41384.00
341.0750, 41681.00
342.2790, 39978.00
343.4820, 36923.00
344.6860, 33418.00
345.8890, 29698.00
347.0920, 25852.00
348.2960, 22421.00
349.4980, 19665.00
350.7010, 17809.00
351.9040, 15907.00
353.1060, 14552.00
354.3080, 13913.00
355.5100, 12973.00
356.7120, 12528.00
357.9140, 12084.00
359.1150, 11849.00
360.3170, 11595.00
361.5180, 11412.00
362.7190, 11397.00
363.9200, 11316.00
365.1200, 10949.00
366.3210, 11036.00
367.5210, 11154.00
368.7210, 11197.00
369.9210, 11474.00
371.1210, 11828.00
372.3210, 12173.00
373.5200, 12922.00
374.7200, 13405.00
375.9190, 14175.00
377.1180, 15020.00
378.3170, 15731.00
379.5150, 16224.00
380.7140, 16991.00
381.9120, 17141.00
383.1110, 17460.00
384.3090, 17329.00
385.5060, 17301.00
386.7040, 17000.00
387.9020, 17004.00
389.0990, 16961.00
390.2960, 17327.00
391.4930, 17844.00
392.6900, 18253.00
393.8860, 18972.00
395.0830, 19481.00
396.2790, 19773.00
397.4750, 19791.00
398.6710, 19853.00
399.8670, 19715.00
401.0630, 19281.00
402.2580, 18989.00
403.4540, 18317.00
404.6490, 17978.00
405.8440, 17255.00
407.0390, 17126.00
408.2330, 16954.00
409.4280, 16888.00
410.6220, 16658.00
411.8160, 16632.00
413.0100, 16373.00
414.2040, 16021.00
415.3980, 15349.00
416.5910, 14539.00
417.7850, 13333.00
418.9780, 12508.00
420.1710, 11489.00
421.3640, 10731.00
422.5560, 10067.00
423.7490, 9433.000
424.9410, 8771.000
426.1330, 8314.000
427.3250, 7914.000
428.5170, 7667.000
429.7090, 7531.000
430.9000, 7310.000
432.0910, 7239.000
433.2820, 7133.000
434.4730, 6962.000
435.6640, 6865.000
436.8550, 6808.000
438.0450, 6649.000
439.2360, 6611.000
440.4260, 6712.000
441.6160, 6761.000
442.8060, 6597.000
443.9950, 6798.000
445.1850, 6792.000
446.3740, 6810.000
447.5630, 6997.000
448.7520, 7240.000
449.9410, 7566.000
451.1300, 7714.000
452.3180, 7936.000
453.5060, 7904.000
454.6950, 7856.000
455.8830, 7686.000
457.0700, 7545.000
458.2580, 7340.000
459.4450, 7213.000
460.6330, 7043.000
461.8200, 6991.000
463.0070, 6922.856
464.1940, 6883.762
465.3800, 6938.000
466.5670, 6924.000
467.7530, 7076.000
468.9390, 7213.000
470.1250, 7181.000
471.3110, 7179.000
472.4970, 7128.000
473.6820, 7027.000
474.8680, 6944.000
476.0530, 6969.000
477.2380, 7047.000
478.4230, 7112.000
479.6070, 7290.260
480.7920, 7457.000
481.9760, 7628.000
483.1600, 7592.000
484.3440, 7591.000
485.5280, 7409.000
486.7120, 7361.000
487.8950, 7103.000
489.0780, 7005.000
490.2620, 6844.000
491.4450, 6619.000
492.6270, 6543.000
493.8100, 6333.000
494.9920, 6351.000
496.1750, 6267.000
497.3570, 6302.000
498.5390, 6244.000
499.7210, 6331.000
500.9020, 6321.000
502.0840, 6409.000
503.2650, 6528.000
504.4460, 6696.000
505.6270, 6870.000
506.8080, 7044.000
507.9890, 7340.000
509.1690, 7699.000
510.3500, 8118.000
511.5300, 8472.000
512.7100, 9174.000
513.8900, 9816.000
515.0690, 10428.00
516.2490, 10850.00
517.4280, 11381.00
518.6070, 11727.00
519.7860, 11871.00
520.9650, 12005.00
522.1440, 11976.00
523.3220, 11978.00
524.5010, 11852.00
525.6790, 11648.17
526.8570, 11519.00
528.0350, 11069.00
529.2130, 10716.00
530.3900, 10322.00
531.5670, 10263.00
532.7450, 10284.00
533.9220, 10418.00
535.0980, 10721.00
536.2750, 11108.00
537.4520, 11141.00
538.6280, 11176.00
539.8040, 10954.00
540.9800, 10590.00
542.1560, 10157.00
543.3320, 9845.000
544.5070, 9506.000
545.6830, 9532.000
546.8580, 9576.000
548.0330, 9673.000
549.2080, 9517.000
550.3830, 9517.000
551.5570, 9263.000
552.7310, 9100.000
553.9060, 8847.000
555.0800, 8699.000
556.2540, 8493.000
557.4270, 8300.000
558.6010, 8229.000
559.7740, 8353.000
560.9470, 8524.000
562.1210, 8656.000
563.2930, 9092.000
564.4660, 9286.000
565.6390, 9696.000
566.8110, 10204.00
567.9830, 11034.00
569.1550, 11654.89
570.3270, 12409.00
571.4990, 13197.00
572.6710, 13786.00
573.8420, 14472.00
575.0130, 14843.00
576.1840, 14854.00
577.3550, 14421.00
578.5260, 13536.00
579.6970, 12658.00
580.8670, 11577.00
582.0370, 10674.00
583.2070, 9879.000
584.3770, 9205.000
585.5470, 8772.000
586.7170, 8381.000
587.8860, 8289.000
589.0550, 8226.000
590.2240, 8073.000
591.3930, 7923.324
592.5620, 7806.000
593.7310, 7552.000
594.8990, 7339.000
596.0670, 7145.000
597.2350, 6849.000
598.4030, 6670.000
599.5710, 6539.000
600.7390, 6367.000
601.9060, 6293.000
603.0740, 6228.000
604.2410, 6146.000
605.4080, 6097.556
606.5740, 6057.988
607.7410, 6011.000
608.9080, 6033.000
610.0740, 6023.000
611.2400, 6076.000
612.4060, 6072.000
613.5720, 6078.465
614.7370, 6161.000
615.9030, 6083.000
617.0680, 6056.000
618.2330, 6063.588
619.3980, 6205.000
620.5630, 6173.000
621.7280, 6306.000
622.8920, 6471.000
624.0570, 6508.000
625.2210, 6449.000
626.3850, 6632.000
627.5490, 6726.000
628.7120, 6530.000
629.8760, 6852.000
631.0390, 6811.000
632.2020, 6965.000
633.3650, 7067.000
634.5280, 7181.337
635.6910, 7358.000
636.8530, 7504.000
638.0160, 7717.000
639.1780, 7910.000
640.3400, 8280.000
641.5020, 8622.000
642.6640, 8945.000
643.8250, 9539.000
644.9870, 9973.000
646.1480, 10865.00
647.3090, 11714.00
648.4700, 12567.00
649.6300, 13824.00
650.7910, 15186.00
651.9510, 17158.00
653.1120, 19267.00
654.2720, 21795.00
655.4320, 24401.00
656.5910, 27735.00
657.7510, 30847.00
658.9100, 33841.00
660.0690, 36563.00
661.2290, 38102.00
662.3880, 38102.00
663.5460, 37053.00
664.7050, 34908.00
665.8630, 32399.00
667.0220, 30546.00
668.1800, 28693.00
669.3380, 27656.00
670.4950, 27842.00
671.6530, 28687.00
672.8100, 30110.00
673.9680, 32430.00
675.1250, 35283.00
676.2820, 38566.00
677.4390, 41942.00
678.5950, 45908.00
679.7520, 49270.00
680.9080, 52274.00
682.0640, 54074.00
683.2200, 53776.00
684.3760, 51480.00
685.5320, 48320.00
686.6870, 42928.00
687.8420, 37654.00
688.9980, 32372.00
690.1530, 27533.00
691.3070, 23542.00
692.4620, 20232.00
693.6170, 17761.00
694.7710, 15560.00
695.9250, 13990.00
697.0790, 12712.00
698.2330, 11793.00
699.3870, 10851.00
700.5400, 10223.00
701.6940, 9570.000
702.8470, 9109.000
704.0000, 8771.000
705.1530, 8621.000
706.3050, 8092.000
707.4580, 7975.000
708.6100, 7723.000
709.7630, 7506.000
710.9150, 7386.000
712.0660, 7261.000
713.2180, 7071.000
714.3700, 7135.000
715.5210, 6961.000
716.6720, 6820.000
717.8240, 6832.000
718.9740, 6861.000
720.1250, 6861.000
721.2760, 6887.247
722.4260, 6887.125
723.5770, 6911.000
724.7270, 6914.000
725.8770, 6886.000
727.0260, 6955.000
728.1760, 7024.000
729.3250, 7019.000
730.4750, 6945.000
731.6240, 6959.000
732.7730, 6811.000
733.9220, 6697.000
735.0700, 6794.000
736.2190, 6649.000
737.3670, 6643.000
738.5150, 6673.000
739.6630, 6525.000
740.8110, 6412.000
741.9590, 6463.000
743.1060, 6428.000
744.2540, 6343.000
745.4010, 6354.000
746.5480, 6400.000
747.6950, 6416.000
748.8410, 6375.863
749.9880, 6373.779
751.1340, 6293.000
752.2800, 6251.000
753.4260, 6249.000
754.5720, 6078.000
755.7180, 6032.000
756.8640, 5905.000
758.0090, 5848.000
759.1540, 5711.000
760.2990, 5726.000
761.4440, 5728.000
762.5890, 5710.000
763.7340, 5759.000
764.8780, 5675.000
766.0220, 5519.000
767.1660, 5550.000
768.3100, 5502.565
769.4540, 5576.000
770.5980, 5522.000
771.7410, 5450.000
772.8840, 5445.000
774.0280, 5497.000
775.1700, 5537.000
776.3130, 5551.000
777.4560, 5528.000
778.5980, 5526.000
779.7410, 5502.794
780.8830, 5426.000
782.0250, 5462.000
783.1670, 5431.000
784.3080, 5442.000
785.4500, 5511.000
786.5910, 5539.000
787.7320, 5515.000
788.8730, 5575.000
790.0140, 5436.000
791.1550, 5584.000
792.2950, 5611.000
793.4360, 5518.000
794.5760, 5590.000
795.7160, 5461.000
796.8560, 5486.000
797.9960, 5478.000
799.1350, 5480.000
800.2750, 5557.000
801.4140, 5522.000
802.5530, 5538.000
803.6920, 5525.000
804.8310, 5524.000
805.9690, 5564.000
807.1080, 5714.000
808.2460, 5688.000
809.3840, 5728.000
810.5220, 5708.000
811.6600, 5651.000
812.7970, 5740.000
813.9350, 5743.000
815.0720, 5695.000
816.2090, 5777.000
817.3460, 5614.000
818.4830, 5675.000
819.6200, 5703.000
820.7560, 5746.000
821.8930, 5763.278
823.0290, 5727.000
824.1650, 5760.000
825.3010, 5737.065
826.4360, 5775.000
827.5720, 5724.000
828.7070, 5709.000
829.8420, 5732.000
830.9770, 5800.000
832.1120, 5757.000
833.2470, 5709.000
834.3820, 5829.000
835.5160, 5676.000
836.6500, 5825.000
837.7840, 5810.000
838.9180, 5827.000
840.0520, 5795.000
841.1860, 5859.000
842.3190, 5885.000
843.4520, 5922.000
844.5850, 5899.000
845.7180, 5940.000
846.8510, 6044.000
847.9840, 6196.000
849.1160, 6079.000
850.2490, 6336.000
851.3810, 6385.000
852.5130, 6488.000
853.6450, 6748.000
854.7760, 6838.000
855.9080, 6891.000
857.0390, 7037.000
858.1700, 7077.000
859.3010, 7139.000
860.4320, 7115.008
861.5630, 7039.000
862.6930, 7007.000
863.8240, 6834.000
864.9540, 6793.000
866.0840, 6681.000
867.2140, 6623.000
868.3440, 6593.000
869.4730, 6472.000
870.6030, 6443.000
871.7320, 6321.000
872.8610, 6334.000
873.9900, 6351.000
875.1190, 6180.000
876.2470, 6323.000
877.3760, 6103.000
878.5040, 6281.000
879.6320, 6267.000
880.7600, 6167.000
881.8880, 6247.000
883.0150, 6280.000
884.1430, 6272.000
885.2700, 6344.000
886.3970, 6381.000
887.5240, 6461.000
888.6510, 6473.000
889.7780, 6605.000
890.9040, 6556.000
892.0310, 6635.000
893.1570, 6774.000
894.2830, 6679.000
895.4090, 6752.000
896.5350, 6748.000
897.6600, 6774.000
898.7860, 6717.000
899.9110, 6792.000
901.0360, 6745.000
902.1610, 6758.000
903.2860, 6644.000
904.4100, 6635.000
905.5350, 6694.000
906.6590, 6787.000
907.7830, 6788.000
908.9070, 6915.000
910.0310, 6821.000
911.1540, 6949.000
912.2780, 7013.000
913.4010, 7216.000
914.5240, 7445.000
915.6470, 7547.000
916.7700, 7729.000
917.8930, 7943.000
919.0150, 8274.000
920.1380, 8554.000
921.2600, 8849.000
922.3820, 9287.000
923.5040, 9823.000
924.6260, 10110.00
925.7470, 10770.00
926.8690, 11188.00
927.9900, 11818.00
929.1110, 11871.00
930.2320, 12377.00
931.3530, 12552.00
932.4730, 12982.00
933.5940, 13355.00
934.7140, 13708.00
935.8340, 14033.00
936.9540, 14093.00
938.0740, 14136.00
939.1930, 14038.00
940.3130, 13677.00
941.4320, 13355.00
942.5510, 12912.00
943.6700, 12200.00
944.7890, 11791.00
945.9080, 11300.00
947.0260, 10823.00
948.1450, 10551.00
949.2630, 10141.00
950.3810, 9747.000
951.4990, 9456.000
952.6170, 9292.000
953.7340, 8973.000
954.8520, 8962.000
955.9690, 8702.000
957.0860, 8756.000
958.2030, 8480.000
959.3200, 8480.000
960.4360, 8372.000
961.5530, 8271.000
962.6690, 8293.000
963.7850, 8224.441
964.9010, 8211.000
966.0170, 8221.000
967.1330, 8157.000
968.2480, 8215.000
969.3630, 8399.000
970.4790, 8341.000
971.5940, 8403.000
972.7080, 8445.000
973.8230, 8474.000
974.9380, 8679.000
976.0520, 8739.000
977.1660, 9002.000
978.2800, 9186.000
979.3940, 9360.000
980.5080, 9651.000
981.6220, 9921.000
982.7350, 10232.00
983.8480, 10714.00
984.9610, 11132.00
986.0740, 11728.00
987.1870, 12325.00
988.3000, 13168.00
989.4120, 14116.00
990.5250, 15283.00
991.6370, 16674.00
992.7490, 18240.00
993.8610, 20144.00
994.9720, 22787.00
996.0840, 25738.00
997.1950, 29188.00
998.3060, 33778.00
999.4170, 39030.00
1000.528, 45584.00
1001.639, 52831.00
1002.750, 61775.00
1003.860, 71876.00
1004.970, 82955.00
1006.080, 94066.00
1007.190, 104537.0
1008.300, 111492.0
1009.410, 113695.0
1010.519, 110732.0
1011.628, 102177.0
1012.738, 91647.00
1013.846, 80539.00
1014.955, 71124.00
1016.064, 62945.00
1017.172, 57689.00
1018.281, 53528.00
1019.389, 50485.00
1020.497, 48746.00
1021.605, 46464.00
1022.713, 44799.00
1023.820, 43848.00
1024.928, 42969.00
1026.035, 42011.00
1027.142, 41055.00
1028.249, 40229.00
1029.356, 39240.00
1030.462, 38538.00
1031.569, 37186.00
1032.675, 35722.00
1033.781, 34056.00
1034.887, 32188.00
1035.993, 30568.00
1037.098, 28899.00
1038.204, 27226.00
1039.309, 25584.00
1040.415, 24264.00
1041.520, 22600.00
1042.624, 21262.00
1043.729, 20020.00
1044.834, 18535.00
1045.938, 17500.00
1047.042, 16203.00
1048.146, 15434.00
1049.250, 14580.00
1050.354, 13866.00
1051.458, 13262.00
1052.561, 12693.00
1053.664, 12172.00
1054.767, 11659.91
1055.870, 11203.36
1056.973, 10784.00
1058.076, 10372.00
1059.178, 10100.00
1060.281, 9755.000
1061.383, 9605.000
1062.485, 9460.000
1063.587, 9207.265
1064.688, 9135.000
1065.790, 8865.000
1066.891, 8705.000
1067.993, 8656.000
1069.094, 8419.000
1070.195, 8330.000
1071.295, 8172.000
1072.396, 8219.000
1073.496, 8074.000
1074.597, 8126.000
1075.697, 8100.000
1076.797, 8125.000
1077.897, 7998.000
1078.996, 8102.000
1080.096, 8284.000
1081.195, 8373.000
1082.294, 8648.652
1083.393, 8987.000
1084.492, 9284.000
1085.591, 9754.000
1086.689, 10253.00
1087.788, 10694.00
1088.886, 11386.00
1089.984, 11847.00
1091.082, 12390.00
1092.180, 13001.00
1093.277, 13027.00
1094.375, 13204.00
1095.472, 12997.00
1096.569, 12567.00
1097.666, 12010.00
1098.763, 11483.00
1099.860, 10825.00
1100.956, 10226.00
1102.053, 9616.000
1103.149, 9303.000
1104.245, 8861.000
1105.341, 8489.000
1106.436, 8063.000
1107.532, 7945.000
1108.627, 7571.000
1109.723, 7500.000
1110.818, 7409.000
1111.913, 7185.000
1113.007, 7106.000
1114.102, 7023.000
1115.197, 7006.000
1116.291, 6819.000
1117.385, 6784.000
1118.479, 6635.000
1119.573, 6683.000
1120.666, 6736.000
1121.760, 6699.000
1122.853, 6704.421
1123.947, 6614.000
1125.040, 6617.000
1126.132, 6583.000
1127.225, 6490.000
1128.318, 6443.000
1129.410, 6464.000
1130.502, 6564.000
1131.595, 6456.000
1132.687, 6491.000
1133.778, 6439.000
1134.870, 6457.000
1135.961, 6399.000
1137.053, 6338.000
1138.144, 6384.000
1139.235, 6447.000
1140.326, 6283.000
1141.416, 6316.000
1142.507, 6258.000
1143.597, 6341.000
1144.688, 6277.000
1145.778, 6214.000
1146.868, 6141.000
1147.957, 6160.000
1149.047, 6131.000
1150.136, 6175.000
1151.226, 6022.000
1152.315, 6064.000
1153.404, 6114.000
1154.493, 6157.000
1155.581, 6194.000
1156.670, 6216.000
1157.758, 6021.000
1158.846, 6063.000
1159.934, 6000.000
1161.022, 6157.000
1162.110, 6098.000
1163.198, 6020.000
1164.285, 6079.000
1165.372, 6070.000
1166.459, 6035.000
1167.546, 6144.000
1168.633, 6035.000
1169.720, 6108.000
1170.806, 6006.000
1171.892, 6089.000
1172.979, 6108.000
1174.065, 5978.000
1175.150, 6106.000
1176.236, 5941.000
1177.322, 5960.000
1178.407, 5922.000
1179.492, 5884.000
1180.577, 5910.000
1181.662, 5934.000
1182.747, 5956.000
1183.832, 6015.000
1184.916, 5922.000
1186.000, 5900.000
1187.084, 5868.000
1188.168, 5899.000
1189.252, 5925.000
1190.336, 5813.000
1191.419, 5860.000
1192.503, 5866.000
1193.586, 5776.000
1194.669, 5852.000
1195.752, 5856.000
1196.835, 5779.000
1197.917, 5887.000
1199.000, 5756.000
1200.082, 5834.000
1201.164, 5827.000
1202.246, 5909.000
1203.328, 5751.000
1204.409, 5845.000
1205.491, 5647.000
1206.572, 5796.000
1207.653, 5813.000
1208.734, 5774.000
1209.815, 5744.000
1210.896, 5763.000
1211.976, 5780.000
1213.057, 5798.000
1214.137, 5764.000
1215.217, 5782.396
1216.297, 5796.000
1217.377, 5760.000
1218.456, 5821.000
1219.536, 5769.000
1220.615, 5803.000
1221.694, 5771.000
1222.773, 5732.000
1223.852, 5822.000
1224.931, 5762.000
1226.009, 5873.000
1227.088, 5744.000
1228.166, 5765.000
1229.244, 5787.000
1230.322, 5802.000
1231.400, 5821.000
1232.477, 5832.000
1233.555, 5779.000
1234.632, 5743.000
1235.709, 5747.406
1236.786, 5795.000
1237.863, 5755.000
1238.939, 5817.000
1240.016, 5857.000
1241.092, 5790.000
1242.168, 5782.000
1243.245, 5954.000
1244.320, 5887.000
1245.396, 5942.966
1246.472, 5778.000
1247.547, 5944.000
1248.622, 5877.000
1249.697, 5818.000
1250.772, 5934.000
1251.847, 5917.000
1252.922, 5880.000
1253.996, 5992.000
1255.071, 5807.000
1256.145, 5800.000
1257.219, 5856.000
1258.293, 5855.000
1259.366, 5853.730
1260.440, 5836.000
1261.513, 5849.000
1262.587, 5836.000
1263.660, 5860.000
1264.733, 5897.000
1265.805, 5957.000
1266.878, 5932.000
1267.951, 5825.000
1269.023, 5937.000
1270.095, 5921.000
1271.167, 5896.000
1272.239, 5993.000
1273.311, 5971.000
1274.382, 5863.000
1275.454, 5960.000
1276.525, 5916.000
1277.596, 5973.000
1278.667, 5899.000
1279.738, 5960.000
1280.808, 6054.000
1281.879, 6045.000
1282.949, 5943.000
1284.019, 6048.000
1285.089, 6038.000
1286.159, 6124.000
1287.229, 6145.000
1288.298, 6056.000
