##NAMES=Enstatite
##RRUFFID=R040093
##IDEAL CHEMISTRY=MgSiO_3_
##LOCALITY=Castle Rock, Pennsylvania, USA
##OWNER=RRUFF
##SOURCE=University of Arizona Mineral Museum
##DESCRIPTION=Dark green massive
##STATUS=The identification of this mineral has been confirmed by X-ray diffraction and chemical analysis
##URL=rruff.info/R040093
##MEASURED CHEMISTRY=(Mg_0.84_Fe_0.15_Al_0.01_)Si_1.00_O_3_
##PIN_ID=L00172
##ORIENTATION=Laser parallel to -c* (0 0 -1). Fiducial mark perpendicular to laser is parallel to a [1 0 0]
109.2680, 6226.000
110.5040, 6090.000
111.7400, 6115.000
112.9760, 6179.000
114.2120, 6511.000
115.4470, 6762.000
116.6820, 6579.000
117.9170, 6560.000
119.1520, 6579.000
120.3870, 6419.000
121.6220, 5963.000
122.8560, 5830.000
124.0900, 5793.000
125.3240, 5618.000
126.5580, 5560.000
127.7920, 5655.000
129.0260, 5795.000
130.2590, 5866.000
131.4920, 6014.000
132.7250, 5996.000
133.9580, 6035.000
135.1910, 6242.000
136.4230, 6423.000
137.6560, 6645.000
138.8880, 6925.000
140.1200, 7231.000
141.3520, 7508.000
142.5830, 7839.000
143.8150, 8043.000
145.0460, 8621.000
146.2770, 8883.000
147.5080, 9093.000
148.7390, 8975.000
149.9700, 9110.000
151.2000, 8870.000
152.4310, 8643.000
153.6610, 8427.000
154.8910, 8242.000
156.1210, 7969.000
157.3500, 7742.000
158.5800, 7524.000
159.8090, 7487.000
161.0380, 7551.000
162.2670, 7484.000
163.4960, 7413.000
164.7240, 7377.000
165.9530, 7302.748
167.1810, 7242.646
168.4090, 7191.000
169.6370, 7130.000
170.8650, 7105.000
172.0920, 7092.000
173.3200, 7090.000
174.5470, 7203.000
175.7740, 7088.000
177.0010, 7122.000
178.2280, 7277.000
179.4540, 7332.000
180.6810, 7560.000
181.9070, 7772.000
183.1330, 8268.000
184.3590, 8768.000
185.5850, 9362.000
186.8100, 9865.000
188.0350, 10460.00
189.2610, 11101.00
190.4860, 11637.00
191.7110, 11817.00
192.9350, 11384.00
194.1600, 10939.00
195.3840, 10154.00
196.6080, 9701.000
197.8320, 9069.000
199.0560, 8679.000
200.2800, 8215.000
201.5030, 8000.000
202.7270, 7708.000
203.9500, 7437.000
205.1730, 7276.000
206.3950, 7076.000
207.6180, 6968.000
208.8410, 6776.000
210.0630, 6866.000
211.2850, 6665.000
212.5070, 6679.359
213.7290, 6574.000
214.9500, 6668.000
216.1720, 6575.000
217.3930, 6576.000
218.6140, 6728.000
219.8350, 6911.000
221.0560, 7071.000
222.2770, 7391.000
223.4970, 7761.000
224.7170, 8239.000
225.9370, 8779.000
227.1570, 9659.000
228.3770, 10587.00
229.5970, 11815.00
230.8160, 12997.00
232.0350, 14624.00
233.2540, 15981.00
234.4730, 17443.00
235.6920, 18582.00
236.9110, 18431.00
238.1290, 17570.00
239.3470, 15667.00
240.5650, 13671.00
241.7830, 11634.00
243.0010, 10735.00
244.2180, 8645.000
245.4360, 7807.000
246.6530, 7144.000
247.8700, 6712.000
249.0870, 6534.000
250.3040, 6362.000
251.5200, 6163.000
252.7370, 6235.000
253.9530, 6264.000
255.1690, 6499.380
256.3850, 6391.913
257.6000, 6257.442
258.8160, 6097.146
260.0310, 5834.373
261.2460, 5716.276
262.4610, 5621.827
263.6760, 5508.143
264.8910, 5610.349
266.1050, 5562.000
267.3200, 5590.000
268.5340, 5573.000
269.7480, 5639.000
270.9620, 5698.000
272.1750, 5749.000
273.3890, 5784.000
274.6020, 5860.000
275.8150, 5937.000
277.0280, 5989.000
278.2410, 6074.000
279.4540, 6200.000
280.6660, 6280.000
281.8790, 6436.000
283.0910, 6483.000
284.3030, 6622.000
285.5140, 6845.000
286.7260, 7162.000
287.9380, 7539.000
289.1490, 7786.000
290.3600, 8137.000
291.5710, 8874.000
292.7820, 9175.000
293.9920, 9811.000
295.2030, 10210.00
296.4130, 10768.00
297.6230, 10978.00
298.8330, 11184.00
300.0430, 11120.00
301.2520, 10979.00
302.4620, 10683.00
303.6710, 10340.00
304.8800, 10273.00
306.0890, 10510.00
307.2980, 10884.00
308.5070, 11313.00
309.7150, 12034.69
310.9230, 12833.00
312.1310, 13838.00
313.3390, 14952.00
314.5470, 16177.00
315.7550, 17793.00
316.9620, 19348.00
318.1690, 20186.00
319.3760, 21025.00
320.5830, 21227.00
321.7900, 21036.00
322.9960, 20886.00
324.2030, 20671.00
325.4090, 21290.00
326.6150, 21977.00
327.8210, 23471.00
329.0270, 25703.00
330.2320, 28733.00
331.4380, 32524.48
332.6430, 36881.00
333.8480, 42329.00
335.0530, 48438.00
336.2580, 55067.00
337.4620, 61385.00
338.6670, 67263.00
339.8710, 70796.00
341.0750, 71953.00
342.2790, 69752.00
343.4820, 64449.00
344.6860, 57858.00
345.8890, 50202.00
347.0920, 42871.00
348.2960, 36593.00
349.4980, 31313.00
350.7010, 27082.00
351.9040, 24014.00
353.1060, 21272.00
354.3080, 19499.00
355.5100, 17933.00
356.7120, 16911.00
357.9140, 15905.00
359.1150, 15158.00
360.3170, 14551.27
361.5180, 14214.00
362.7190, 13827.00
363.9200, 13649.00
365.1200, 13708.00
366.3210, 13684.00
367.5210, 13653.00
368.7210, 13802.00
369.9210, 14251.00
371.1210, 14750.00
372.3210, 15159.00
373.5200, 15903.00
374.7200, 16655.00
375.9190, 17301.00
377.1180, 17972.00
378.3170, 18655.00
379.5150, 19134.00
380.7140, 19617.00
381.9120, 19641.00
383.1110, 20068.00
384.3090, 20475.00
385.5060, 21381.00
386.7040, 22382.00
387.9020, 24259.00
389.0990, 26230.00
390.2960, 28605.00
391.4930, 31406.00
392.6900, 34519.00
393.8860, 37557.00
395.0830, 40653.00
396.2790, 43143.00
397.4750, 44857.00
398.6710, 46385.00
399.8670, 46773.00
401.0630, 46234.00
402.2580, 44706.00
403.4540, 43045.00
404.6490, 40951.00
405.8440, 39039.00
407.0390, 36861.00
408.2330, 34899.00
409.4280, 32913.00
410.6220, 30795.00
411.8160, 29296.00
413.0100, 27670.00
414.2040, 25792.00
415.3980, 24309.00
416.5910, 22802.00
417.7850, 21546.00
418.9780, 20138.26
420.1710, 18823.53
421.3640, 17520.00
422.5560, 16271.00
423.7490, 14972.00
424.9410, 13774.00
426.1330, 12829.00
427.3250, 11862.26
428.5170, 11062.00
429.7090, 10371.00
430.9000, 9836.000
432.0910, 9390.000
433.2820, 9258.000
434.4730, 9022.000
435.6640, 8645.000
436.8550, 8753.000
438.0450, 8388.000
439.2360, 8253.000
440.4260, 8187.000
441.6160, 7957.000
442.8060, 7616.000
443.9950, 7439.000
445.1850, 7196.000
446.3740, 7013.000
447.5630, 6902.000
448.7520, 6696.000
449.9410, 6812.000
451.1300, 6751.000
452.3180, 6869.000
453.5060, 6757.000
454.6950, 6817.000
455.8830, 6754.000
457.0700, 6686.000
458.2580, 6601.000
459.4450, 6583.000
460.6330, 6507.000
461.8200, 6467.000
463.0070, 6543.000
464.1940, 6315.000
465.3800, 6473.000
466.5670, 6394.000
467.7530, 6334.000
468.9390, 6328.000
470.1250, 6338.000
471.3110, 6305.000
472.4970, 6351.000
473.6820, 6158.000
474.8680, 6215.000
476.0530, 6165.000
477.2380, 6039.000
478.4230, 6145.000
479.6070, 6042.000
480.7920, 6090.000
481.9760, 6101.000
483.1600, 6195.000
484.3440, 6169.000
485.5280, 6108.000
486.7120, 6099.000
487.8950, 6038.000
489.0780, 6127.000
490.2620, 6085.000
491.4450, 6188.000
492.6270, 6136.000
493.8100, 6066.000
494.9920, 6097.000
496.1750, 6132.000
497.3570, 6255.000
498.5390, 6384.000
499.7210, 6418.070
500.9020, 6418.000
502.0840, 6484.000
503.2650, 6606.000
504.4460, 6553.000
505.6270, 6779.000
506.8080, 6975.000
507.9890, 7289.000
509.1690, 7444.000
510.3500, 7828.000
511.5300, 8348.000
512.7100, 8845.000
513.8900, 9487.000
515.0690, 10169.00
516.2490, 11047.00
517.4280, 12015.00
518.6070, 13058.00
519.7860, 14281.00
520.9650, 15323.00
522.1440, 16345.00
523.3220, 17008.00
524.5010, 17490.00
525.6790, 17407.00
526.8570, 16709.00
528.0350, 15863.00
529.2130, 15216.00
530.3900, 14350.00
531.5670, 13916.00
532.7450, 14020.00
533.9220, 14292.00
535.0980, 14786.00
536.2750, 15372.00
537.4520, 15745.00
538.6280, 15802.00
539.8040, 15434.00
540.9800, 15019.00
542.1560, 14370.00
543.3320, 13985.00
544.5070, 13591.00
545.6830, 13809.00
546.8580, 13983.00
548.0330, 14183.00
549.2080, 14130.00
550.3830, 14075.00
551.5570, 13397.00
552.7310, 12517.00
553.9060, 11459.00
555.0800, 10615.00
556.2540, 9989.000
557.4270, 9373.000
558.6010, 8943.000
559.7740, 8571.000
560.9470, 8286.000
562.1210, 8135.000
563.2930, 7944.000
564.4660, 7979.000
565.6390, 7871.000
566.8110, 7849.000
567.9830, 7869.000
569.1550, 7852.000
570.3270, 7857.000
571.4990, 8068.000
572.6710, 7805.000
573.8420, 8062.000
575.0130, 7960.000
576.1840, 7847.000
577.3550, 7762.000
578.5260, 7642.000
579.6970, 7510.000
580.8670, 7262.000
582.0370, 7093.000
583.2070, 7072.000
584.3770, 6787.000
585.5470, 6778.000
586.7170, 6731.000
587.8860, 6597.000
589.0550, 6554.000
590.2240, 6579.000
591.3930, 6439.000
592.5620, 6449.000
593.7310, 6336.000
594.8990, 6355.000
596.0670, 6327.000
597.2350, 6177.000
598.4030, 6109.000
599.5710, 6140.000
600.7390, 6084.000
601.9060, 6009.000
603.0740, 5941.000
604.2410, 5935.000
605.4080, 5940.000
606.5740, 5917.000
607.7410, 5917.000
608.9080, 5841.000
610.0740, 5873.000
611.2400, 5866.261
612.4060, 5836.000
613.5720, 5882.000
614.7370, 5908.000
615.9030, 5879.000
617.0680, 5856.000
618.2330, 5986.000
619.3980, 6059.000
620.5630, 5931.000
621.7280, 5937.000
622.8920, 6054.000
624.0570, 6105.000
625.2210, 6050.000
626.3850, 6144.000
627.5490, 6199.000
628.7120, 6272.000
629.8760, 6327.000
631.0390, 6407.000
632.2020, 6481.099
633.3650, 6560.000
634.5280, 6670.000
635.6910, 6746.000
636.8530, 6903.000
638.0160, 7060.287
639.1780, 7188.000
640.3400, 7433.000
641.5020, 7691.000
642.6640, 7884.000
643.8250, 8302.000
644.9870, 8775.000
646.1480, 9185.000
647.3090, 9902.000
648.4700, 10517.00
649.6300, 11413.00
650.7910, 12582.00
651.9510, 14078.00
653.1120, 15555.00
654.2720, 17540.00
655.4320, 19858.00
656.5910, 22592.00
657.7510, 24605.00
658.9100, 27157.00
660.0690, 29531.00
661.2290, 30424.00
662.3880, 31142.00
663.5460, 29763.00
664.7050, 27895.00
665.8630, 25629.00
667.0220, 23585.00
668.1800, 21806.00
669.3380, 20465.00
670.4950, 19859.00
671.6530, 19413.00
672.8100, 20032.00
673.9680, 20641.00
675.1250, 22126.00
676.2820, 23690.00
677.4390, 25553.00
678.5950, 27729.00
679.7520, 29730.00
680.9080, 31632.00
682.0640, 32399.00
683.2200, 32686.00
684.3760, 31678.00
685.5320, 29669.00
686.6870, 27225.00
687.8420, 24191.00
688.9980, 21261.00
690.1530, 18350.00
691.3070, 16375.00
692.4620, 14372.00
693.6170, 12927.00
694.7710, 11673.00
695.9250, 10647.00
697.0790, 10026.00
698.2330, 9410.000
699.3870, 8865.000
700.5400, 8575.000
701.6940, 8235.000
702.8470, 7910.000
704.0000, 7668.000
705.1530, 7559.000
706.3050, 7318.000
707.4580, 7283.000
708.6100, 7136.000
709.7630, 6979.000
710.9150, 6970.000
712.0660, 6725.000
713.2180, 6733.000
714.3700, 6640.000
715.5210, 6669.000
716.6720, 6453.000
717.8240, 6531.000
718.9740, 6384.000
720.1250, 6446.000
721.2760, 6367.000
722.4260, 6394.000
723.5770, 6302.000
724.7270, 6304.000
725.8770, 6219.000
727.0260, 6341.000
728.1760, 6364.000
729.3250, 6323.000
730.4750, 6295.000
731.6240, 6336.000
732.7730, 6238.000
733.9220, 6268.000
735.0700, 6227.814
736.2190, 6221.961
737.3670, 6202.000
738.5150, 6204.000
739.6630, 6275.000
740.8110, 6206.000
741.9590, 6234.000
743.1060, 6176.000
744.2540, 6162.000
745.4010, 6173.513
746.5480, 6163.341
747.6950, 6199.000
748.8410, 6179.000
749.9880, 6210.000
751.1340, 6191.000
752.2800, 6209.000
753.4260, 6160.000
754.5720, 6193.000
755.7180, 6043.000
756.8640, 6021.000
758.0090, 6021.000
759.1540, 6043.000
760.2990, 5945.000
761.4440, 5956.000
762.5890, 5958.000
763.7340, 5856.000
764.8780, 5898.000
766.0220, 5855.000
767.1660, 5777.000
768.3100, 5824.000
769.4540, 5734.000
770.5980, 5793.000
771.7410, 5777.000
772.8840, 5754.000
774.0280, 5716.000
775.1700, 5814.000
776.3130, 5679.000
777.4560, 5694.000
778.5980, 5819.000
779.7410, 5755.000
780.8830, 5707.000
782.0250, 5678.000
783.1670, 5694.000
784.3080, 5689.000
785.4500, 5647.000
786.5910, 5660.000
787.7320, 5611.000
788.8730, 5642.003
790.0140, 5707.000
791.1550, 5714.000
792.2950, 5691.000
793.4360, 5754.000
794.5760, 5629.000
795.7160, 5787.000
796.8560, 5689.000
797.9960, 5792.000
799.1350, 5767.000
800.2750, 5791.000
801.4140, 5785.000
802.5530, 5812.000
803.6920, 5882.000
804.8310, 5860.000
805.9690, 5881.000
807.1080, 5937.000
808.2460, 5944.514
809.3840, 5906.000
810.5220, 5977.000
811.6600, 5950.000
812.7970, 5889.000
813.9350, 5986.000
815.0720, 5925.000
816.2090, 6016.000
817.3460, 5890.000
818.4830, 6058.000
819.6200, 5998.000
820.7560, 6031.000
821.8930, 5960.000
823.0290, 5986.000
824.1650, 5992.000
825.3010, 5997.000
826.4360, 6068.000
827.5720, 5948.000
828.7070, 6095.000
829.8420, 6044.000
830.9770, 6033.000
832.1120, 6163.000
833.2470, 6284.000
834.3820, 6067.000
835.5160, 6022.000
836.6500, 6071.000
837.7840, 6067.000
838.9180, 6197.000
840.0520, 6309.000
841.1860, 6377.000
842.3190, 6368.000
843.4520, 6455.000
844.5850, 6539.000
845.7180, 6610.000
846.8510, 6813.000
847.9840, 6963.000
849.1160, 7163.055
850.2490, 7378.000
851.3810, 7611.000
852.5130, 7959.000
853.6450, 8193.000
854.7760, 8668.000
855.9080, 9024.000
857.0390, 9261.000
858.1700, 9331.000
859.3010, 9572.000
860.4320, 9523.000
861.5630, 9345.000
862.6930, 9219.000
863.8240, 8929.000
864.9540, 8642.000
866.0840, 8361.000
867.2140, 8098.000
868.3440, 7808.000
869.4730, 7595.000
870.6030, 7464.000
871.7320, 7425.000
872.8610, 7233.000
873.9900, 7053.000
875.1190, 6890.000
876.2470, 6832.000
877.3760, 6770.000
878.5040, 6733.000
879.6320, 6739.000
880.7600, 6733.000
881.8880, 6743.000
883.0150, 6575.000
884.1430, 6656.000
885.2700, 6673.000
886.3970, 6559.000
887.5240, 6712.000
888.6510, 6708.000
889.7780, 6802.000
890.9040, 6670.000
892.0310, 6735.000
893.1570, 6738.000
894.2830, 6739.000
895.4090, 6800.000
896.5350, 6846.000
897.6600, 6826.000
898.7860, 6872.000
899.9110, 6938.000
901.0360, 6913.000
902.1610, 6878.000
903.2860, 6929.000
904.4100, 6922.000
905.5350, 7074.000
906.6590, 7068.000
907.7830, 7154.000
908.9070, 7311.000
910.0310, 7198.000
911.1540, 7393.000
912.2780, 7519.000
913.4010, 7813.000
914.5240, 7979.000
915.6470, 8272.000
916.7700, 8587.000
917.8930, 8980.000
919.0150, 9504.000
920.1380, 10148.00
921.2600, 10884.00
922.3820, 11589.00
923.5040, 12725.00
924.6260, 13673.00
925.7470, 14784.00
926.8690, 15493.00
927.9900, 16115.00
929.1110, 16372.00
930.2320, 16580.00
931.3530, 16551.00
932.4730, 16334.00
933.5940, 16526.00
934.7140, 16664.00
935.8340, 16471.00
936.9540, 16534.00
938.0740, 16318.00
939.1930, 16132.00
940.3130, 15722.00
941.4320, 15315.00
942.5510, 14831.00
943.6700, 14089.00
944.7890, 13461.00
945.9080, 12857.00
947.0260, 12251.16
948.1450, 11712.21
949.2630, 11184.00
950.3810, 10722.00
951.4990, 10293.00
952.6170, 9927.000
953.7340, 9640.000
954.8520, 9319.570
955.9690, 9083.000
957.0860, 8857.000
958.2030, 8822.000
959.3200, 8752.000
960.4360, 8673.000
961.5530, 8583.000
962.6690, 8493.000
963.7850, 8285.000
964.9010, 8262.000
966.0170, 8197.000
967.1330, 8200.000
968.2480, 8235.000
969.3630, 8172.292
970.4790, 8146.000
971.5940, 8096.000
972.7080, 8156.000
973.8230, 8119.000
974.9380, 8210.000
976.0520, 8307.000
977.1660, 8363.644
978.2800, 8504.000
979.3940, 8595.000
980.5080, 8824.000
981.6220, 9030.000
982.7350, 9247.000
983.8480, 9546.000
984.9610, 9892.000
986.0740, 10209.00
987.1870, 10655.00
988.3000, 11173.00
989.4120, 11896.00
990.5250, 12695.00
991.6370, 13543.00
992.7490, 14696.00
993.8610, 15994.00
994.9720, 17360.00
996.0840, 19145.00
997.1950, 21354.00
998.3060, 23771.00
999.4170, 26434.00
1000.528, 29551.00
1001.639, 32866.00
1002.750, 37097.00
1003.860, 41481.00
1004.970, 45946.00
1006.080, 50736.00
1007.190, 55173.00
1008.300, 59043.00
1009.410, 61372.00
1010.519, 62321.00
1011.628, 61596.00
1012.738, 60231.00
1013.846, 59223.00
1014.955, 58020.00
1016.064, 58126.00
1017.172, 58304.00
1018.281, 59144.00
1019.389, 60213.00
1020.497, 60930.00
1021.605, 61302.00
1022.713, 61681.00
1023.820, 61835.00
1024.928, 62361.00
1026.035, 62343.00
1027.142, 62029.00
1028.249, 61840.00
1029.356, 60608.00
1030.462, 59428.00
1031.569, 57386.00
1032.675, 54589.00
1033.781, 51486.00
1034.887, 48347.00
1035.993, 44994.00
1037.098, 41547.00
1038.204, 38371.00
1039.309, 35712.00
1040.415, 32589.00
1041.520, 29849.00
1042.624, 27868.00
1043.729, 25578.00
1044.834, 23404.00
1045.938, 21701.00
1047.042, 20060.00
1048.146, 18615.00
1049.250, 17474.00
1050.354, 16663.00
1051.458, 15782.00
1052.561, 14805.00
1053.664, 14165.00
1054.767, 13506.00
1055.870, 12906.00
1056.973, 12317.00
1058.076, 11765.00
1059.178, 11296.00
1060.281, 10828.53
1061.383, 10392.00
1062.485, 10058.00
1063.587, 9720.000
1064.688, 9463.000
1065.790, 9226.000
1066.891, 8972.908
1067.993, 8758.897
1069.094, 8563.000
1070.195, 8419.000
1071.295, 8277.000
1072.396, 8286.000
1073.496, 8065.000
1074.597, 8035.000
1075.697, 7992.000
1076.797, 7807.000
1077.897, 7874.000
1078.996, 7802.000
1080.096, 7789.000
1081.195, 7780.000
1082.294, 7763.000
1083.393, 7876.000
1084.492, 7875.000
1085.591, 7990.000
1086.689, 8053.000
1087.788, 8253.000
1088.886, 8208.000
1089.984, 8232.000
1091.082, 8516.000
1092.180, 8525.000
1093.277, 8605.000
1094.375, 8601.000
1095.472, 8488.000
1096.569, 8422.000
1097.666, 8160.000
1098.763, 8019.000
1099.860, 7828.000
1100.956, 7712.000
1102.053, 7648.000
1103.149, 7449.000
1104.245, 7459.000
1105.341, 7217.000
1106.436, 7157.000
1107.532, 7061.000
1108.627, 6971.000
1109.723, 6978.000
1110.818, 6901.572
1111.913, 6868.000
1113.007, 6857.000
1114.102, 6750.000
1115.197, 6784.000
1116.291, 6792.000
1117.385, 6677.000
1118.479, 6762.000
1119.573, 6679.000
1120.666, 6715.000
1121.760, 6744.000
1122.853, 6719.000
1123.947, 6683.000
1125.040, 6650.000
1126.132, 6755.000
1127.225, 6673.000
1128.318, 6700.000
1129.410, 6532.000
1130.502, 6579.000
1131.595, 6618.000
1132.687, 6522.000
1133.778, 6588.000
1134.870, 6575.000
1135.961, 6543.000
1137.053, 6547.603
1138.144, 6553.000
1139.235, 6509.000
1140.326, 6451.000
1141.416, 6460.000
1142.507, 6564.000
1143.597, 6508.947
1144.688, 6405.000
1145.778, 6486.000
1146.868, 6425.000
1147.957, 6384.000
1149.047, 6343.000
1150.136, 6423.000
1151.226, 6290.000
1152.315, 6209.000
1153.404, 6318.000
1154.493, 6296.000
1155.581, 6347.000
1156.670, 6233.000
1157.758, 6288.000
1158.846, 6214.000
1159.934, 6205.000
1161.022, 6286.000
1162.110, 6302.000
1163.198, 6230.000
1164.285, 6276.000
1165.372, 6229.000
1166.459, 6194.604
1167.546, 6285.000
1168.633, 6147.000
1169.720, 6225.000
1170.806, 6279.000
1171.892, 6203.000
1172.979, 6165.000
1174.065, 6202.000
1175.150, 6182.000
1176.236, 6181.000
1177.322, 6066.000
1178.407, 6225.000
1179.492, 6129.000
1180.577, 5982.000
1181.662, 6084.000
1182.747, 6164.000
1183.832, 6150.000
1184.916, 6159.000
1186.000, 6148.856
1187.084, 6075.000
1188.168, 6051.000
1189.252, 6035.000
1190.336, 5917.000
1191.419, 6005.000
1192.503, 5975.000
1193.586, 5938.000
1194.669, 5872.000
1195.752, 5913.000
1196.835, 5942.000
1197.917, 5953.000
1199.000, 5888.000
1200.082, 5895.000
1201.164, 5979.000
1202.246, 6083.000
1203.328, 6015.000
1204.409, 5970.000
1205.491, 5966.000
1206.572, 6128.000
1207.653, 6087.000
1208.734, 5978.000
1209.815, 5922.000
1210.896, 5834.000
1211.976, 5938.000
1213.057, 5915.000
1214.137, 5982.000
1215.217, 5923.000
1216.297, 5918.000
1217.377, 5995.000
1218.456, 5922.000
1219.536, 5824.000
1220.615, 5907.000
1221.694, 5847.570
1222.773, 5868.000
1223.852, 5891.000
1224.931, 5889.128
1226.009, 5949.488
1227.088, 5982.702
1228.166, 5990.232
1229.244, 5895.145
1230.322, 5932.566
1231.400, 5916.884
1232.477, 5899.026
1233.555, 5955.099
1234.632, 5874.938
1235.709, 5929.840
1236.786, 6080.000
1237.863, 5969.823
1238.939, 5939.000
1240.016, 5905.000
1241.092, 5951.000
1242.168, 5897.000
1243.245, 5826.000
1244.320, 5855.000
1245.396, 5981.000
1246.472, 5864.000
1247.547, 5983.000
1248.622, 6028.000
1249.697, 5944.000
1250.772, 5915.000
1251.847, 5881.000
1252.922, 5994.000
1253.996, 5936.000
1255.071, 5999.000
1256.145, 5948.000
1257.219, 5963.077
1258.293, 5992.000
1259.366, 6000.000
1260.440, 5997.000
1261.513, 6063.000
1262.587, 6035.943
1263.660, 6098.000
1264.733, 6053.000
1265.805, 5970.000
1266.878, 6044.000
1267.951, 6045.000
1269.023, 5999.000
1270.095, 5963.000
1271.167, 6063.000
1272.239, 6026.000
1273.311, 5990.000
1274.382, 6039.000
1275.454, 5962.000
1276.525, 6029.000
1277.596, 5994.000
1278.667, 6050.000
1279.738, 6146.000
1280.808, 6108.000
1281.879, 6052.000
1282.949, 6230.000
1284.019, 6083.000
1285.089, 6173.000
1286.159, 6200.000
1287.229, 6137.000
1288.298, 6195.000
