##NAMES=Enstatite
##RRUFFID=R060630
##IDEAL CHEMISTRY=MgSiO_3_
##LOCALITY=unknown
##OWNER=RRUFF
##SOURCE=Gemological Institute of America
##DESCRIPTION=Tan colored fragment
##STATUS=The identification of this mineral has been confirmed by X-ray diffraction and chemical analysis
##URL=rruff.info/R060630
##MEASURED CHEMISTRY=(Mg_0.89_Fe_0.07_Al_0.04_)_Σ=1_(Si_0.96_Al_0.04_)_Σ=1_O_3_
##PIN_ID=L00984
##ORIENTATION=Laser parallel to a* (1 0 0). Fiducial mark perpendicular to laser is parallel to -b [0 -1 0]
118.1340, 15021.00
119.3650, 14820.00
120.5960, 14679.00
121.8270, 14892.00
123.0580, 15202.00
124.2880, 15278.00
125.5190, 15067.00
126.7490, 15221.00
127.9790, 15353.00
129.2090, 15665.79
130.4390, 16190.00
131.6680, 16659.00
132.8980, 17230.00
134.1270, 17952.00
135.3560, 18625.00
136.5850, 19248.00
137.8140, 20298.00
139.0430, 21424.00
140.2710, 22013.00
141.5000, 22030.00
142.7280, 21723.00
143.9560, 21372.00
145.1840, 20832.00
146.4120, 20376.00
147.6390, 19880.00
148.8670, 19589.00
150.0940, 19480.00
151.3210, 19491.00
152.5490, 19259.00
153.7750, 19021.00
155.0020, 18821.00
156.2290, 18724.00
157.4550, 17988.00
158.6810, 17921.00
159.9080, 17747.00
161.1340, 17778.00
162.3590, 17757.00
163.5850, 17671.00
164.8110, 17920.00
166.0360, 17679.00
167.2610, 17729.00
168.4860, 17966.00
169.7110, 18193.00
170.9360, 17897.00
172.1610, 17652.00
173.3850, 17586.00
174.6100, 17254.00
175.8340, 16954.00
177.0580, 17010.00
178.2820, 17010.00
179.5050, 16925.00
180.7290, 16745.00
181.9520, 16813.00
183.1760, 16960.00
184.3990, 17049.00
185.6220, 17245.18
186.8450, 17606.00
188.0670, 17702.00
189.2900, 17970.00
190.5120, 18294.00
191.7340, 18910.00
192.9560, 18979.00
194.1780, 19427.00
195.4000, 19819.00
196.6220, 19926.00
197.8430, 19997.00
199.0640, 20301.00
200.2860, 20390.00
201.5070, 20359.00
202.7270, 20271.00
203.9480, 20192.00
205.1690, 19790.00
206.3890, 19676.00
207.6090, 19320.00
208.8290, 19388.00
210.0490, 19081.00
211.2690, 18886.00
212.4890, 18865.00
213.7080, 18835.00
214.9280, 18685.00
216.1470, 18677.00
217.3660, 18705.00
218.5850, 18988.00
219.8030, 19010.00
221.0220, 19395.00
222.2400, 19537.00
223.4590, 19916.00
224.6770, 20510.00
225.8950, 21183.00
227.1120, 21971.00
228.3300, 23025.00
229.5480, 24376.00
230.7650, 25726.00
231.9820, 27482.00
233.1990, 29310.00
234.4160, 31223.00
235.6330, 32249.00
236.8490, 32523.00
238.0660, 32268.00
239.2820, 30782.00
240.4980, 29473.00
241.7140, 27984.00
242.9300, 26157.00
244.1460, 24474.00
245.3610, 23242.00
246.5770, 22207.00
247.7920, 21066.00
249.0070, 20364.00
250.2220, 19965.00
251.4370, 19334.00
252.6510, 18882.00
253.8660, 18645.00
255.0800, 18503.00
256.2940, 18674.00
257.5080, 18796.00
258.7220, 18755.56
259.9360, 18600.53
261.1490, 18733.00
262.3630, 18195.00
263.5760, 18007.00
264.7890, 18084.00
266.0020, 17912.00
267.2150, 17985.00
268.4270, 18113.00
269.6400, 18090.00
270.8520, 17965.00
272.0640, 18144.00
273.2760, 18196.40
274.4880, 18423.00
275.7000, 18514.00
276.9120, 18548.00
278.1230, 18720.00
279.3340, 18690.00
280.5450, 18801.00
281.7560, 18914.00
282.9670, 18917.00
284.1780, 19118.00
285.3880, 19291.00
286.5980, 19432.00
287.8090, 19669.00
289.0190, 19826.00
290.2290, 19992.95
291.4380, 20308.00
292.6480, 20340.00
293.8570, 20627.00
295.0670, 20867.00
296.2760, 20996.00
297.4850, 21056.00
298.6930, 21281.00
299.9020, 21276.00
301.1110, 21090.00
302.3190, 21110.00
303.5270, 21052.00
304.7350, 20842.00
305.9430, 21100.00
307.1510, 21073.00
308.3580, 21013.00
309.5660, 21390.00
310.7730, 21422.00
311.9800, 21514.00
313.1870, 21708.00
314.3940, 22000.00
315.6010, 21983.00
316.8070, 22338.00
318.0130, 22533.00
319.2200, 22766.00
320.4260, 22992.00
321.6310, 23250.20
322.8370, 23568.00
324.0430, 23881.00
325.2480, 24253.00
326.4540, 24765.00
327.6590, 24985.00
328.8640, 25878.00
330.0680, 26318.00
331.2730, 26837.00
332.4780, 27853.00
333.6820, 28755.00
334.8860, 29738.00
336.0900, 30715.00
337.2940, 32134.00
338.4980, 33333.00
339.7010, 34807.00
340.9050, 36410.56
342.1080, 39060.00
343.3110, 39718.00
344.5140, 41349.00
345.7170, 42872.00
346.9200, 43548.00
348.1220, 43850.00
349.3240, 43953.00
350.5270, 43856.00
351.7290, 43212.00
352.9310, 42256.00
354.1320, 40878.00
355.3340, 39726.00
356.5350, 38306.00
357.7370, 37429.00
358.9380, 36191.00
360.1390, 34868.00
361.3400, 33831.00
362.5400, 33189.00
363.7410, 32080.00
364.9410, 31452.00
366.1410, 30743.00
367.3410, 30058.00
368.5410, 29263.00
369.7410, 28739.00
370.9400, 28403.00
372.1400, 28288.00
373.3390, 28247.00
374.5380, 28196.00
375.7370, 28109.51
376.9360, 28072.00
378.1350, 27978.00
379.3330, 28003.00
380.5310, 27969.00
381.7300, 28009.00
382.9280, 28267.00
384.1260, 28248.00
385.3230, 28247.00
386.5210, 28192.00
387.7180, 28206.55
388.9160, 28093.00
390.1130, 28170.00
391.3100, 28178.00
392.5060, 28393.07
393.7030, 28591.00
394.9000, 28936.00
396.0960, 29237.00
397.2920, 29515.00
398.4880, 30032.00
399.6840, 30283.00
400.8800, 30671.00
402.0750, 30507.38
403.2710, 30678.00
404.4660, 30098.00
405.6610, 30037.00
406.8560, 30060.00
408.0510, 29779.00
409.2450, 30017.00
410.4400, 30254.00
411.6340, 30367.00
412.8280, 30726.88
414.0220, 31371.00
415.2160, 31366.00
416.4100, 31610.00
417.6030, 31881.00
418.7970, 31520.00
419.9900, 31299.00
421.1830, 30721.00
422.3760, 30205.00
423.5690, 29131.10
424.7610, 28128.98
425.9540, 26792.00
427.1460, 25844.00
428.3380, 24969.00
429.5300, 24316.00
430.7220, 23763.00
431.9140, 23428.00
433.1050, 23251.00
434.2970, 23098.00
435.4880, 23023.00
436.6790, 23158.00
437.8700, 23263.00
439.0610, 23798.00
440.2510, 24179.00
441.4420, 24459.00
442.6320, 24782.00
443.8220, 24985.00
445.0120, 25117.00
446.2020, 25193.00
447.3910, 24995.00
448.5810, 24769.00
449.7700, 24347.00
450.9600, 24075.00
452.1490, 23839.00
453.3370, 23429.00
454.5260, 23354.00
455.7150, 23026.00
456.9030, 22988.00
458.0910, 22916.00
459.2800, 22756.00
460.4670, 22757.00
461.6550, 22631.00
462.8430, 22643.00
464.0300, 22621.00
465.2180, 22594.00
466.4050, 22623.00
467.5920, 22443.00
468.7790, 22338.00
469.9650, 22523.00
471.1520, 22380.00
472.3380, 22228.00
473.5250, 22427.00
474.7110, 22298.00
475.8970, 22517.00
477.0820, 22461.00
478.2680, 22385.00
479.4540, 22398.00
480.6390, 22250.00
481.8240, 22729.00
483.0090, 22534.00
484.1940, 22755.00
485.3780, 22515.00
486.5630, 22634.00
487.7470, 22739.00
488.9320, 22650.00
490.1160, 22559.00
491.3000, 22557.00
492.4830, 22628.00
493.6670, 22504.00
494.8500, 22526.00
496.0340, 22452.00
497.2170, 22523.00
498.4000, 22557.59
499.5820, 22673.00
500.7650, 22663.00
501.9480, 22690.00
503.1300, 22665.00
504.3120, 23107.00
505.4940, 22962.00
506.6760, 23273.00
507.8580, 23263.00
509.0390, 23644.00
510.2210, 23990.00
511.4020, 24110.00
512.5830, 24517.00
513.7640, 24904.00
514.9450, 24991.00
516.1250, 25282.00
517.3060, 25410.00
518.4860, 25655.00
519.6660, 25703.00
520.8460, 25710.00
522.0260, 25885.00
523.2060, 25616.00
524.3850, 25647.00
525.5650, 25814.00
526.7440, 25583.00
527.9230, 25464.00
529.1020, 25466.00
530.2810, 25477.00
531.4590, 25714.00
532.6380, 26124.00
533.8160, 25891.00
534.9940, 26009.00
536.1720, 26056.00
537.3500, 26018.00
538.5270, 25884.00
539.7050, 25607.00
540.8820, 25522.00
542.0590, 25214.00
543.2360, 25353.00
544.4130, 25035.00
545.5900, 25163.00
546.7660, 25237.00
547.9430, 25141.00
549.1190, 25256.00
550.2950, 25060.00
551.4710, 24983.00
552.6470, 24816.00
553.8220, 24670.00
554.9980, 24556.00
556.1730, 24441.09
557.3480, 24342.39
558.5230, 24299.00
559.6980, 24157.00
560.8730, 24172.00
562.0470, 24061.00
563.2220, 24076.00
564.3960, 24247.00
565.5700, 24022.00
566.7440, 24265.00
567.9170, 24400.00
569.0910, 24657.00
570.2640, 24919.00
571.4380, 25327.00
572.6110, 25381.00
573.7840, 25655.00
574.9570, 25941.00
576.1290, 25764.00
577.3020, 25887.00
578.4740, 25822.00
579.6460, 25574.00
580.8180, 25509.00
581.9900, 25081.00
583.1620, 24885.00
584.3330, 24813.00
585.5040, 24424.00
586.6760, 24382.00
587.8470, 24172.00
589.0180, 24123.00
590.1880, 23832.00
591.3590, 24012.00
592.5290, 23960.00
593.7000, 23721.00
594.8700, 23697.00
596.0400, 23770.00
597.2090, 23683.00
598.3790, 23656.00
599.5490, 23779.00
600.7180, 23673.00
601.8870, 23608.00
603.0560, 23611.00
604.2250, 23398.00
605.3940, 23504.00
606.5620, 23556.00
607.7300, 23752.00
608.8990, 23571.00
610.0670, 23738.00
611.2350, 23853.00
612.4020, 23795.00
613.5700, 23851.00
614.7370, 23775.00
615.9050, 23857.00
617.0720, 23928.00
618.2390, 24037.00
619.4060, 24122.00
620.5720, 24012.00
621.7390, 24202.00
622.9050, 24157.00
624.0710, 24332.00
625.2370, 24463.34
626.4030, 24698.00
627.5690, 24791.00
628.7340, 25005.00
629.9000, 25204.00
631.0650, 25558.00
632.2300, 25713.00
633.3950, 25993.00
634.5600, 26504.00
635.7240, 26624.00
636.8890, 26899.00
638.0530, 27243.00
639.2170, 27288.00
640.3810, 27543.00
641.5450, 27907.00
642.7080, 28154.00
643.8720, 28189.00
645.0350, 28519.00
646.1980, 29076.00
647.3610, 29778.00
648.5240, 30623.00
649.6870, 31660.00
650.8490, 32588.00
652.0120, 33859.00
653.1740, 35114.00
654.3360, 36290.00
655.4980, 37696.00
656.6600, 39074.00
657.8210, 40482.00
658.9830, 41343.00
660.1440, 41969.00
661.3050, 41881.00
662.4660, 41879.00
663.6270, 41196.00
664.7870, 40408.00
665.9480, 39635.00
667.1080, 38832.00
668.2680, 38145.00
669.4280, 38103.00
670.5880, 37724.00
671.7480, 38251.00
672.9070, 38481.00
674.0670, 39370.00
675.2260, 41026.00
676.3850, 42608.00
677.5440, 44801.00
678.7030, 47596.00
679.8610, 50501.00
681.0200, 53863.00
682.1780, 57388.00
683.3360, 60244.00
684.4940, 62054.00
685.6520, 62807.00
686.8090, 62807.00
687.9670, 61506.00
689.1240, 58994.00
690.2810, 56412.00
691.4380, 53820.00
692.5950, 49778.00
693.7520, 45906.00
694.9080, 42624.00
696.0650, 40171.00
697.2210, 38056.00
698.3770, 36117.00
699.5330, 34614.36
700.6880, 33235.00
701.8440, 32394.00
702.9990, 31500.00
704.1550, 31007.00
705.3100, 30502.00
706.4650, 29896.00
707.6190, 29545.39
708.7740, 29152.00
709.9290, 28856.00
711.0830, 28388.00
712.2370, 28154.00
713.3910, 28125.00
714.5450, 27800.60
715.6980, 27939.00
716.8520, 27570.00
718.0050, 27184.00
719.1580, 27337.00
720.3110, 27071.00
721.4640, 27063.00
722.6170, 27072.00
723.7700, 27017.00
724.9220, 26796.00
726.0740, 26799.00
727.2260, 26802.00
728.3780, 26737.00
729.5300, 27006.00
730.6810, 26800.00
731.8330, 26794.00
732.9840, 26886.00
734.1350, 26649.00
735.2860, 26952.00
736.4370, 26640.00
737.5880, 26719.00
738.7380, 26711.00
739.8880, 26698.00
741.0390, 26954.00
742.1890, 26767.00
743.3380, 26950.00
744.4880, 26826.00
745.6380, 27113.00
746.7870, 27477.00
747.9360, 27415.00
749.0850, 27770.00
750.2340, 28082.00
751.3830, 28101.00
752.5310, 28072.00
753.6800, 28015.00
754.8280, 27811.00
755.9760, 27377.00
757.1240, 27015.00
758.2720, 26850.00
759.4190, 26650.00
760.5670, 26632.00
761.7140, 26491.00
762.8610, 26481.00
764.0080, 26182.00
765.1550, 26243.00
766.3020, 26026.00
767.4480, 25995.00
768.5950, 26136.00
769.7410, 26107.00
770.8870, 26022.00
772.0330, 25832.00
773.1780, 25989.00
774.3240, 25864.00
775.4690, 25817.81
776.6140, 26377.00
777.7590, 25868.00
778.9040, 26044.00
780.0490, 26456.00
781.1940, 25881.00
782.3380, 25768.00
783.4820, 25676.00
784.6260, 25816.00
785.7700, 25868.00
786.9140, 25983.00
788.0580, 25875.00
789.2010, 25970.00
790.3450, 25938.00
791.4880, 26021.00
792.6310, 25845.00
793.7730, 25925.00
794.9160, 25936.00
796.0590, 25986.00
797.2010, 26057.00
798.3430, 25911.00
799.4850, 26013.00
800.6270, 25946.00
801.7690, 26119.00
802.9100, 26158.00
804.0520, 26271.00
805.1930, 26215.00
806.3340, 26160.00
807.4750, 26154.00
808.6160, 26222.00
809.7560, 26178.79
810.8970, 26336.00
812.0370, 26210.00
813.1770, 26332.00
814.3170, 26443.00
815.4570, 26535.00
816.5960, 26403.00
817.7360, 26580.00
818.8750, 27497.00
820.0140, 26731.00
821.1530, 26544.00
822.2920, 27125.00
823.4310, 26652.00
824.5690, 26905.00
825.7070, 26860.00
826.8460, 27106.00
827.9840, 27226.00
829.1220, 27190.00
830.2590, 27228.00
831.3970, 27269.00
832.5340, 27576.00
833.6710, 27736.00
834.8080, 27874.00
835.9450, 28014.00
837.0820, 28313.00
838.2190, 28435.00
839.3550, 28693.00
840.4910, 29136.00
841.6270, 29106.00
842.7630, 29337.00
843.8990, 29548.00
845.0350, 29548.00
846.1700, 29684.00
847.3060, 29684.00
848.4410, 29522.00
849.5760, 29832.00
850.7100, 29456.00
851.8450, 29571.00
852.9800, 29487.00
854.1140, 29128.00
855.2480, 29228.00
856.3820, 29038.00
857.5160, 28781.00
858.6500, 28814.00
859.7830, 28701.00
860.9170, 28513.00
862.0500, 28703.00
863.1830, 28639.00
864.3160, 28633.00
865.4480, 28629.16
866.5810, 28493.00
867.7130, 28499.00
868.8460, 28455.00
869.9780, 28367.00
871.1100, 28365.00
872.2410, 28360.12
873.3730, 28337.73
874.5050, 28380.00
875.6360, 28369.00
876.7670, 28321.00
877.8980, 28388.00
879.0290, 28361.93
880.1590, 28425.00
881.2900, 28393.00
882.4200, 28420.00
883.5500, 28474.00
884.6800, 28469.00
885.8100, 28494.32
886.9400, 28497.00
888.0690, 28555.00
889.1990, 28537.00
890.3280, 28657.00
891.4570, 28853.00
892.5860, 28866.00
893.7140, 29016.00
894.8430, 28919.00
895.9710, 29015.00
897.1000, 29075.00
898.2280, 29214.00
899.3560, 29110.00
900.4830, 29260.00
901.6110, 29123.00
902.7380, 29313.00
903.8660, 29446.00
904.9930, 29216.00
906.1200, 29428.00
907.2460, 29483.00
908.3730, 29828.00
909.5000, 29650.00
910.6260, 29827.00
911.7520, 30009.00
912.8780, 30030.00
914.0040, 29955.00
915.1290, 30536.00
916.2550, 30480.00
917.3800, 30779.00
918.5050, 31038.00
919.6300, 31169.00
920.7550, 31449.00
921.8800, 31895.00
923.0040, 31981.00
924.1290, 32001.00
925.2530, 32417.00
926.3770, 32634.43
927.5010, 33239.00
928.6250, 33381.00
929.7480, 34005.00
930.8720, 34427.00
931.9950, 34529.00
933.1180, 34652.00
934.2410, 34652.00
935.3640, 34540.00
936.4860, 34503.00
937.6090, 34470.00
938.7310, 34329.00
939.8530, 34228.00
940.9750, 34129.77
942.0970, 34000.00
943.2180, 33859.00
944.3400, 33804.00
945.4610, 33582.00
946.5820, 33541.00
947.7030, 33341.00
948.8240, 33360.00
949.9450, 32874.00
951.0650, 32865.00
952.1860, 32918.00
953.3060, 32983.00
954.4260, 32602.00
955.5460, 32621.00
956.6650, 32304.00
957.7850, 32093.00
958.9040, 32081.00
960.0230, 31576.00
961.1420, 31411.00
962.2610, 31122.00
963.3800, 31035.00
964.4990, 30687.00
965.6170, 30703.00
966.7350, 30760.00
967.8530, 30658.00
968.9710, 30414.00
970.0890, 30330.00
971.2070, 30490.00
972.3240, 30717.00
973.4410, 30496.00
974.5580, 30677.00
975.6750, 30528.00
976.7920, 30902.00
977.9090, 30858.00
979.0250, 30976.00
980.1410, 31147.00
981.2580, 31724.00
982.3740, 31750.00
983.4890, 32282.00
984.6050, 32252.00
985.7200, 32842.00
986.8360, 33455.00
987.9510, 34220.00
989.0660, 34905.00
990.1810, 35579.00
991.2950, 36546.00
992.4100, 37678.00
993.5240, 38871.00
994.6390, 40248.00
995.7530, 41702.00
996.8660, 43351.00
997.9800, 45241.00
999.0940, 46818.00
1000.207, 49093.00
1001.320, 50935.00
1002.433, 53005.00
1003.546, 55467.00
1004.659, 57397.00
1005.772, 59308.00
1006.884, 61065.00
1007.996, 62252.00
1009.108, 63047.81
1010.220, 63479.00
1011.332, 63346.00
1012.444, 62863.00
1013.555, 61811.00
1014.666, 60735.00
1015.777, 59884.00
1016.888, 58358.00
1017.999, 57336.00
1019.110, 56160.00
1020.220, 55540.00
1021.331, 55077.00
1022.441, 54482.00
1023.551, 53682.00
1024.661, 53637.00
1025.770, 53140.00
1026.880, 53312.00
1027.989, 53206.00
1029.098, 53017.00
1030.207, 53182.00
1031.316, 53075.00
1032.425, 52581.00
1033.533, 52117.00
1034.642, 51499.82
1035.750, 50984.00
1036.858, 49968.00
1037.966, 48687.00
1039.073, 47811.00
1040.181, 46389.00
1041.288, 45031.00
1042.396, 43904.00
1043.503, 43053.00
1044.610, 42244.00
1045.716, 41192.00
1046.823, 40177.00
1047.929, 39375.00
1049.036, 38553.00
1050.142, 38077.00
1051.248, 37336.00
1052.353, 36831.00
1053.459, 36520.00
1054.564, 35811.00
1055.670, 35411.00
1056.775, 35264.00
1057.880, 34993.00
1058.985, 34584.00
1060.089, 34300.00
1061.194, 33824.00
1062.298, 33695.00
1063.402, 33529.00
1064.506, 33013.00
1065.610, 33008.00
1066.713, 32955.00
1067.817, 32367.00
1068.920, 32370.00
1070.023, 32138.00
1071.126, 31932.00
1072.229, 32025.00
1073.332, 31981.00
1074.435, 32040.00
1075.537, 31920.13
1076.639, 31845.03
1077.741, 31675.00
1078.843, 31558.00
1079.945, 31499.00
1081.046, 31277.00
1082.148, 31241.00
1083.249, 31049.00
1084.350, 31472.00
1085.451, 31399.00
1086.551, 31441.00
1087.652, 31216.00
1088.752, 31301.00
1089.853, 31257.00
1090.953, 31247.00
1092.053, 31442.00
1093.152, 31153.00
1094.252, 31216.00
1095.351, 31038.00
1096.451, 31201.00
1097.550, 31079.00
1098.649, 31229.00
1099.748, 31351.00
1100.846, 31249.00
1101.945, 31137.00
1103.043, 31198.00
1104.141, 31402.00
1105.239, 31175.00
1106.337, 31325.00
1107.434, 31008.00
1108.532, 31411.00
1109.629, 31250.00
1110.726, 31176.00
1111.823, 31428.00
1112.920, 31388.00
1114.017, 31444.00
1115.113, 31603.00
1116.210, 31484.00
1117.306, 31917.00
1118.402, 31748.00
1119.498, 31863.00
1120.593, 31833.00
1121.689, 32059.00
1122.784, 32147.00
1123.879, 31846.00
1124.974, 31944.00
1126.069, 31794.00
1127.164, 31733.00
1128.259, 31592.00
1129.353, 31437.00
1130.447, 31476.00
1131.541, 31563.00
1132.635, 31494.00
1133.729, 31412.00
1134.822, 31550.00
1135.916, 31452.00
1137.009, 31566.00
1138.102, 31543.00
1139.195, 31396.00
1140.288, 31404.00
1141.380, 31395.00
1142.473, 31462.00
1143.565, 31563.00
1144.657, 31513.00
1145.749, 31675.00
1146.841, 31626.00
1147.932, 31680.00
1149.024, 31602.00
1150.115, 31392.00
1151.206, 31608.00
1152.297, 31486.00
1153.388, 31795.00
1154.479, 31683.00
1155.569, 31508.00
1156.659, 31576.85
1157.750, 31854.00
1158.839, 31402.00
1159.929, 31709.00
1161.019, 31587.00
1162.108, 32165.00
1163.198, 31634.00
1164.287, 31851.00
1165.376, 31709.00
1166.465, 31761.00
1167.553, 31730.00
1168.642, 31996.00
1169.730, 31700.00
1170.818, 31990.00
1171.906, 32054.00
1172.994, 31862.00
1174.082, 31857.00
1175.170, 31670.00
1176.257, 31818.00
1177.344, 32026.00
1178.431, 32088.00
1179.518, 31951.00
1180.605, 32086.00
1181.691, 31861.00
1182.778, 31949.00
1183.864, 32179.00
1184.950, 32197.00
1186.036, 32116.00
1187.122, 31988.00
1188.207, 32152.00
1189.292, 32186.00
1190.378, 32245.00
1191.463, 32292.47
1192.548, 32317.00
1193.632, 32249.00
1194.717, 32235.00
1195.801, 32286.78
1196.886, 32227.00
1197.970, 32452.00
1199.054, 32411.00
1200.137, 32599.00
1201.221, 32411.50
1202.305, 32401.06
1203.388, 32216.00
1204.471, 32198.00
1205.554, 32205.67
1206.637, 32523.00
1207.719, 32213.00
1208.802, 32254.00
1209.884, 32121.00
1210.966, 32513.00
1212.048, 32387.00
1213.130, 32691.00
1214.212, 32390.00
1215.293, 32693.00
1216.374, 32598.00
1217.456, 32536.00
1218.536, 32707.00
1219.617, 32904.00
1220.698, 32415.00
1221.778, 32646.00
1222.859, 32556.00
1223.939, 32719.00
1225.019, 32774.00
1226.099, 32905.00
1227.178, 32827.00
1228.258, 32933.00
1229.337, 33119.00
1230.417, 32996.00
1231.496, 32851.00
1232.574, 32974.00
1233.653, 32927.00
1234.732, 33019.00
1235.810, 33254.00
1236.888, 33083.00
1237.966, 33069.00
1239.044, 32933.00
1240.122, 33115.00
1241.199, 33093.00
1242.277, 33345.00
1243.354, 33092.00
1244.431, 33246.00
1245.508, 33356.00
1246.585, 33517.00
1247.661, 33486.00
1248.738, 33501.85
1249.814, 33171.00
1250.890, 33369.00
1251.966, 33427.00
1253.042, 33328.00
1254.117, 33523.00
1255.193, 33385.00
1256.268, 33376.00
1257.343, 33417.00
1258.418, 33703.00
1259.493, 33528.00
1260.567, 33482.00
1261.642, 33685.00
1262.716, 33576.00
1263.790, 33722.00
1264.864, 33781.00
1265.938, 33659.00
1267.011, 33735.00
1268.085, 33776.00
1269.158, 33950.00
1270.231, 33742.00
1271.304, 33934.00
1272.377, 33819.00
1273.450, 33918.00
1274.522, 33972.00
1275.594, 33867.00
1276.666, 33992.00
1277.738, 33742.00
1278.810, 34121.00
1279.882, 34151.00
1280.953, 34061.00
1282.025, 34267.00
1283.096, 34023.00
1284.167, 34149.00
1285.238, 34185.00
1286.308, 34086.00
1287.379, 34186.00
1288.449, 34256.00
1289.519, 34298.00
1290.589, 34214.00
1291.659, 34244.13
1292.729, 34243.00
1293.798, 34208.00
1294.868, 34340.00
1295.937, 34375.00
1297.006, 34347.00
