##NAMES=Enstatite
##RRUFFID=R040093
##IDEAL CHEMISTRY=MgSiO_3_
##LOCALITY=Castle Rock, Pennsylvania, USA
##OWNER=RRUFF
##SOURCE=University of Arizona Mineral Museum
##DESCRIPTION=Dark green massive
##STATUS=The identification of this mineral has been confirmed by X-ray diffraction and chemical analysis
##URL=rruff.info/R040093
##MEASURED CHEMISTRY=(Mg_0.84_Fe_0.15_Al_0.01_)Si_1.00_O_3_
##PIN_ID=L00247
##ORIENTATION=Laser parallel to a* (1 0 0). Fiducial mark perpendicular to laser is parallel to -b [0 -1 0]
137.6560, 15821.00
138.8880, 15604.00
140.1200, 15513.00
141.3520, 15488.00
142.5830, 15391.00
143.8150, 15480.00
145.0460, 15768.00
146.2770, 15842.00
147.5080, 15976.00
148.7390, 15972.00
149.9700, 16027.00
151.2000, 16188.18
152.4310, 16161.00
153.6610, 16502.00
154.8910, 16618.00
156.1210, 16767.00
157.3500, 16924.00
158.5800, 17209.00
159.8090, 17490.00
161.0380, 17710.00
162.2670, 18135.00
163.4960, 18612.00
164.7240, 19255.00
165.9530, 19791.00
167.1810, 20657.00
168.4090, 21644.00
169.6370, 22850.00
170.8650, 24342.00
172.0920, 26140.00
173.3200, 28024.00
174.5470, 30272.00
175.7740, 32662.69
177.0010, 35441.00
178.2280, 38246.00
179.4540, 41368.00
180.6810, 44945.00
181.9070, 48484.00
183.1330, 52465.00
184.3590, 56046.00
185.5850, 60121.00
186.8100, 63106.00
188.0350, 64759.00
189.2610, 65644.00
190.4860, 64778.00
191.7110, 63777.00
192.9350, 62923.00
194.1600, 62909.00
195.3840, 63771.00
196.6080, 64497.00
197.8320, 65147.00
199.0560, 66094.00
200.2800, 66392.00
201.5030, 66702.00
202.7270, 66903.00
203.9500, 66522.00
205.1730, 65416.00
206.3950, 64700.00
207.6180, 63077.00
208.8410, 61057.00
210.0630, 58975.00
211.2850, 56750.00
212.5070, 53981.00
213.7290, 51285.00
214.9500, 48287.00
216.1720, 46066.00
217.3930, 44049.00
218.6140, 42656.00
219.8350, 41357.00
221.0560, 40564.00
222.2770, 39596.00
223.4970, 38733.00
224.7170, 37369.00
225.9370, 36164.00
227.1570, 34542.00
228.3770, 32603.00
229.5970, 31244.00
230.8160, 29518.00
232.0350, 28085.00
233.2540, 26711.00
234.4730, 25495.00
235.6920, 24561.00
236.9110, 23657.00
238.1290, 22601.00
239.3470, 21998.00
240.5650, 21214.00
241.7830, 20540.00
243.0010, 19969.00
244.2180, 19609.00
245.4360, 19186.00
246.6530, 18885.97
247.8700, 18633.00
249.0870, 18467.00
250.3040, 18378.00
251.5200, 18335.55
252.7370, 18323.78
253.9530, 18304.56
255.1690, 18419.00
256.3850, 18314.00
257.6000, 18378.00
258.8160, 18362.00
260.0310, 18275.57
261.2460, 18258.13
262.4610, 18122.00
263.6760, 18072.00
264.8910, 18006.00
266.1050, 17816.00
267.3200, 17755.00
268.5340, 17525.00
269.7480, 17375.00
270.9620, 17215.00
272.1750, 17334.00
273.3890, 17254.00
274.6020, 17317.00
275.8150, 17330.00
277.0280, 17391.00
278.2410, 17450.17
279.4540, 17477.00
280.6660, 17573.00
281.8790, 17529.00
283.0910, 17561.00
284.3030, 17558.00
285.5140, 17611.00
286.7260, 17909.00
287.9380, 18173.00
289.1490, 18478.00
290.3600, 18959.00
291.5710, 19683.00
292.7820, 20308.00
293.9920, 21453.00
295.2030, 22563.00
296.4130, 24071.00
297.6230, 25596.00
298.8330, 27409.00
300.0430, 28570.00
301.2520, 29417.00
302.4620, 29653.00
303.6710, 29188.00
304.8800, 28022.00
306.0890, 26416.00
307.2980, 24829.00
308.5070, 23486.00
309.7150, 22969.00
310.9230, 22595.00
312.1310, 22562.00
313.3390, 22987.00
314.5470, 23932.00
315.7550, 25511.00
316.9620, 27377.00
318.1690, 30003.00
319.3760, 32920.00
320.5830, 36311.00
321.7900, 39975.00
322.9960, 43144.00
324.2030, 46188.00
325.4090, 48039.00
326.6150, 48926.00
327.8210, 48198.00
329.0270, 46032.00
330.2320, 42725.00
331.4380, 39287.00
332.6430, 35925.00
333.8480, 33453.00
335.0530, 31915.00
336.2580, 30824.00
337.4620, 30045.00
338.6670, 29624.00
339.8710, 28602.00
341.0750, 27543.00
342.2790, 26663.00
343.4820, 25855.00
344.6860, 24822.00
345.8890, 23813.00
347.0920, 22983.00
348.2960, 22502.00
349.4980, 21752.00
350.7010, 21373.71
351.9040, 21043.92
353.1060, 20705.00
354.3080, 20591.00
355.5100, 20337.00
356.7120, 20118.00
357.9140, 20144.00
359.1150, 20108.00
360.3170, 20256.00
361.5180, 19958.00
362.7190, 19948.00
363.9200, 20220.00
365.1200, 20092.00
366.3210, 20207.00
367.5210, 20235.00
368.7210, 20255.00
369.9210, 20735.00
371.1210, 20662.00
372.3210, 21046.00
373.5200, 21203.00
374.7200, 21261.00
375.9190, 21729.00
377.1180, 21828.00
378.3170, 22155.00
379.5150, 22236.00
380.7140, 22519.00
381.9120, 22629.00
383.1110, 22920.00
384.3090, 23045.00
385.5060, 23077.00
386.7040, 23109.00
387.9020, 23025.00
389.0990, 22974.87
390.2960, 22873.22
391.4930, 22760.00
392.6900, 22592.00
393.8860, 22462.00
395.0830, 22276.00
396.2790, 22003.00
397.4750, 21514.00
398.6710, 21186.00
399.8670, 20902.00
401.0630, 20675.00
402.2580, 20664.00
403.4540, 20115.00
404.6490, 19910.00
405.8440, 19552.00
407.0390, 19789.00
408.2330, 19492.00
409.4280, 19572.00
410.6220, 19323.00
411.8160, 19163.00
413.0100, 19276.00
414.2040, 19123.00
415.3980, 19144.00
416.5910, 18981.00
417.7850, 19010.00
418.9780, 19056.00
420.1710, 19087.00
421.3640, 19015.00
422.5560, 19333.00
423.7490, 19181.00
424.9410, 19376.00
426.1330, 19634.00
427.3250, 19410.00
428.5170, 19818.00
429.7090, 19862.00
430.9000, 20116.00
432.0910, 20122.00
433.2820, 20055.00
434.4730, 19836.00
435.6640, 19790.45
436.8550, 19769.00
438.0450, 19531.00
439.2360, 19334.00
440.4260, 19171.00
441.6160, 19013.00
442.8060, 18969.00
443.9950, 18841.00
445.1850, 18771.00
446.3740, 18731.00
447.5630, 18631.00
448.7520, 18632.00
449.9410, 18679.00
451.1300, 18466.00
452.3180, 18445.00
453.5060, 18581.00
454.6950, 18443.00
455.8830, 18535.00
457.0700, 18476.00
458.2580, 18456.00
459.4450, 18537.00
460.6330, 18695.00
461.8200, 18591.00
463.0070, 18387.00
464.1940, 18626.00
465.3800, 18482.00
466.5670, 18355.00
467.7530, 18554.00
468.9390, 18697.00
470.1250, 18529.00
471.3110, 18639.00
472.4970, 18552.00
473.6820, 18635.00
474.8680, 18708.00
476.0530, 18794.00
477.2380, 18820.34
478.4230, 18568.00
479.6070, 18844.00
480.7920, 18752.00
481.9760, 18711.00
483.1600, 18811.00
484.3440, 18930.00
485.5280, 18783.00
486.7120, 18770.00
487.8950, 18744.00
489.0780, 18715.52
490.2620, 18887.00
491.4450, 18795.00
492.6270, 18999.00
493.8100, 19185.00
494.9920, 19188.00
496.1750, 19592.00
497.3570, 19285.00
498.5390, 19529.00
499.7210, 19750.00
500.9020, 19694.00
502.0840, 19990.00
503.2650, 20002.00
504.4460, 19906.00
505.6270, 19755.00
506.8080, 19783.00
507.9890, 19689.00
509.1690, 19820.00
510.3500, 20031.00
511.5300, 19920.52
512.7100, 19971.00
513.8900, 19967.00
515.0690, 20004.00
516.2490, 20077.23
517.4280, 20131.10
518.6070, 20242.00
519.7860, 20328.00
520.9650, 20421.00
522.1440, 20586.00
523.3220, 20674.00
524.5010, 20903.00
525.6790, 20727.00
526.8570, 20674.00
528.0350, 20888.00
529.2130, 21021.00
530.3900, 21037.00
531.5670, 21078.00
532.7450, 21232.00
533.9220, 21414.00
535.0980, 21595.00
536.2750, 21979.00
537.4520, 21951.00
538.6280, 21951.00
539.8040, 21793.00
540.9800, 21935.00
542.1560, 21599.00
543.3320, 21648.00
544.5070, 21309.00
545.6830, 21365.00
546.8580, 21137.00
548.0330, 20960.00
549.2080, 20749.00
550.3830, 20784.00
551.5570, 20818.00
552.7310, 20653.00
553.9060, 20456.00
555.0800, 21044.00
556.2540, 20673.57
557.4270, 20686.33
558.6010, 20477.00
559.7740, 20426.00
560.9470, 20394.00
562.1210, 20372.00
563.2930, 20346.00
564.4660, 20365.83
565.6390, 20376.49
566.8110, 20432.00
567.9830, 20433.00
569.1550, 20490.00
570.3270, 20509.00
571.4990, 20510.00
572.6710, 20724.00
573.8420, 20606.00
575.0130, 20879.00
576.1840, 20762.00
577.3550, 20909.00
578.5260, 20808.00
579.6970, 20781.00
580.8670, 21039.00
582.0370, 20655.00
583.2070, 20682.00
584.3770, 20406.00
585.5470, 20631.00
586.7170, 20184.00
587.8860, 20267.00
589.0550, 20253.00
590.2240, 20155.00
591.3930, 19984.00
592.5620, 19987.00
593.7310, 20018.00
594.8990, 20102.00
596.0670, 20120.00
597.2350, 20146.00
598.4030, 20162.28
599.5710, 19935.00
600.7390, 20171.00
601.9060, 20041.00
603.0740, 20066.00
604.2410, 20206.00
605.4080, 20078.00
606.5740, 20169.00
607.7410, 20293.00
608.9080, 20300.00
610.0740, 20640.00
611.2400, 20644.00
612.4060, 20732.00
613.5720, 20614.00
614.7370, 20617.00
615.9030, 20835.00
617.0680, 20853.00
618.2330, 21084.00
619.3980, 21076.00
620.5630, 21116.00
621.7280, 21047.00
622.8920, 21107.00
624.0570, 21332.00
625.2210, 21447.00
626.3850, 21399.00
627.5490, 21797.00
628.7120, 21759.00
629.8760, 21815.00
631.0390, 21966.00
632.2020, 22233.00
633.3650, 22363.00
634.5280, 22447.00
635.6910, 22568.00
636.8530, 22903.00
638.0160, 23091.76
639.1780, 23350.00
640.3400, 23687.00
641.5020, 23987.00
642.6640, 24323.00
643.8250, 24731.00
644.9870, 24987.00
646.1480, 25748.00
647.3090, 26167.00
648.4700, 26549.00
649.6300, 27495.00
650.7910, 28080.00
651.9510, 29083.00
653.1120, 30028.00
654.2720, 31485.00
655.4320, 32977.00
656.5910, 34820.00
657.7510, 37343.00
658.9100, 40005.00
660.0690, 43482.00
661.2290, 47793.00
662.3880, 53360.00
663.5460, 60106.00
664.7050, 68106.00
665.8630, 77881.00
667.0220, 89668.00
668.1800, 101893.0
669.3380, 115639.0
670.4950, 127755.0
671.6530, 137484.0
672.8100, 143760.0
673.9680, 143270.0
675.1250, 136798.0
676.2820, 125959.0
677.4390, 111273.0
678.5950, 97179.00
679.7520, 83859.00
680.9080, 72768.00
682.0640, 63629.00
683.2200, 56173.00
684.3760, 50192.00
685.5320, 45823.00
686.6870, 41750.00
687.8420, 38806.00
688.9980, 36664.00
690.1530, 34631.00
691.3070, 33096.00
692.4620, 31824.00
693.6170, 30778.00
694.7710, 29633.00
695.9250, 28856.00
697.0790, 28234.00
698.2330, 27598.00
699.3870, 27006.00
700.5400, 26403.00
701.6940, 26001.00
702.8470, 25509.00
704.0000, 25067.00
705.1530, 24820.00
706.3050, 24618.00
707.4580, 24431.00
708.6100, 24199.00
709.7630, 24133.41
710.9150, 24043.90
712.0660, 24012.00
713.2180, 24018.00
714.3700, 23968.00
715.5210, 24004.00
716.6720, 23708.00
717.8240, 23817.00
718.9740, 23821.00
720.1250, 23755.00
721.2760, 23836.00
722.4260, 23614.00
723.5770, 23912.00
724.7270, 23809.00
725.8770, 23833.00
727.0260, 23998.00
728.1760, 24329.00
729.3250, 24747.00
730.4750, 24893.00
731.6240, 25070.00
732.7730, 25494.00
733.9220, 26021.00
735.0700, 25997.00
736.2190, 26124.00
737.3670, 26396.00
738.5150, 26097.00
739.6630, 25894.00
740.8110, 25689.00
741.9590, 25398.79
743.1060, 25129.00
744.2540, 24844.00
745.4010, 24505.00
746.5480, 24190.00
747.6950, 23904.43
748.8410, 23471.00
749.9880, 23405.00
751.1340, 23130.00
752.2800, 23045.00
753.4260, 22942.00
754.5720, 22832.00
755.7180, 22771.00
756.8640, 22655.00
758.0090, 22563.34
759.1540, 22254.00
760.2990, 22431.00
761.4440, 22180.00
762.5890, 22244.00
763.7340, 22310.00
764.8780, 22221.62
766.0220, 22177.00
767.1660, 22225.00
768.3100, 22115.00
769.4540, 22123.00
770.5980, 22265.00
771.7410, 22254.00
772.8840, 22141.00
774.0280, 22520.00
775.1700, 22270.00
776.3130, 22518.00
777.4560, 22612.00
778.5980, 22754.00
779.7410, 22774.00
780.8830, 22779.43
782.0250, 22918.00
783.1670, 22684.00
784.3080, 22685.00
785.4500, 22612.00
786.5910, 22620.00
787.7320, 22419.00
788.8730, 22596.00
790.0140, 22470.00
791.1550, 22223.00
792.2950, 22328.00
793.4360, 22002.00
794.5760, 22265.00
795.7160, 22182.00
796.8560, 22137.00
797.9960, 22241.66
799.1350, 22221.00
800.2750, 22346.00
801.4140, 22061.00
802.5530, 22194.00
803.6920, 22084.00
804.8310, 22097.00
805.9690, 22136.00
807.1080, 22247.00
808.2460, 22321.00
809.3840, 22286.00
810.5220, 22152.00
811.6600, 22404.00
812.7970, 22317.00
813.9350, 22374.00
815.0720, 22396.00
816.2090, 22455.00
817.3460, 22365.00
818.4830, 22291.00
819.6200, 22525.00
820.7560, 22406.00
821.8930, 22308.00
823.0290, 22517.00
824.1650, 22303.00
825.3010, 22376.00
826.4360, 22511.00
827.5720, 22545.00
828.7070, 22576.00
829.8420, 22571.00
830.9770, 22604.00
832.1120, 22854.00
833.2470, 22588.00
834.3820, 22682.00
835.5160, 22530.00
836.6500, 22749.00
837.7840, 22738.00
838.9180, 22813.00
840.0520, 22817.00
841.1860, 22689.00
842.3190, 22945.00
843.4520, 22729.00
844.5850, 22932.00
845.7180, 22835.00
846.8510, 22931.00
847.9840, 22883.00
849.1160, 22921.00
850.2490, 23128.00
851.3810, 23046.00
852.5130, 23351.00
853.6450, 23114.00
854.7760, 23210.00
855.9080, 23271.00
857.0390, 23219.00
858.1700, 23438.00
859.3010, 23479.00
860.4320, 23423.00
861.5630, 23444.00
862.6930, 23420.00
863.8240, 23513.00
864.9540, 23364.00
866.0840, 23360.00
867.2140, 23416.16
868.3440, 23551.00
869.4730, 23516.00
870.6030, 23528.00
871.7320, 23552.00
872.8610, 23811.00
873.9900, 23875.00
875.1190, 23920.00
876.2470, 23977.00
877.3760, 23876.00
878.5040, 24004.00
879.6320, 23949.00
880.7600, 24065.00
881.8880, 24215.00
883.0150, 24249.00
884.1430, 24392.72
885.2700, 24319.00
886.3970, 24554.00
887.5240, 24723.00
888.6510, 24677.00
889.7780, 24908.00
890.9040, 24856.00
892.0310, 25139.00
893.1570, 25372.00
894.2830, 25479.00
895.4090, 25531.00
896.5350, 25796.00
897.6600, 25748.00
898.7860, 25863.00
899.9110, 25932.00
901.0360, 25855.00
902.1610, 26086.00
903.2860, 25902.00
904.4100, 26189.00
905.5350, 26096.00
906.6590, 25995.00
907.7830, 26337.00
908.9070, 26649.00
910.0310, 26545.00
911.1540, 27182.00
912.2780, 27277.00
913.4010, 27909.00
914.5240, 28251.00
915.6470, 28789.00
916.7700, 29537.00
917.8930, 30397.00
919.0150, 31062.00
920.1380, 32119.00
921.2600, 32924.00
922.3820, 33569.00
923.5040, 34542.00
924.6260, 34913.00
925.7470, 35022.00
926.8690, 34961.00
927.9900, 34487.00
929.1110, 33720.00
930.2320, 32776.00
931.3530, 31953.00
932.4730, 30880.00
933.5940, 30388.00
934.7140, 29612.00
935.8340, 28844.00
936.9540, 28520.00
938.0740, 28058.00
939.1930, 27912.00
940.3130, 27631.00
941.4320, 27233.00
942.5510, 27141.00
943.6700, 27094.00
944.7890, 26810.00
945.9080, 26866.00
947.0260, 26726.00
948.1450, 26414.00
949.2630, 26571.00
950.3810, 26396.00
951.4990, 26423.00
952.6170, 26367.00
953.7340, 26353.00
954.8520, 26362.00
955.9690, 26301.00
957.0860, 26280.00
958.2030, 26406.00
959.3200, 26525.00
960.4360, 26416.00
961.5530, 26647.00
962.6690, 26577.00
963.7850, 26519.00
964.9010, 26634.00
966.0170, 26779.00
967.1330, 26970.00
968.2480, 26931.00
969.3630, 26812.00
970.4790, 27138.00
971.5940, 27157.00
972.7080, 27420.00
973.8230, 27482.00
974.9380, 27492.28
976.0520, 27527.00
977.1660, 27534.00
978.2800, 27551.00
979.3940, 27571.48
980.5080, 27606.45
981.6220, 27634.00
982.7350, 27697.00
983.8480, 27718.00
984.9610, 27776.00
986.0740, 27850.00
987.1870, 27964.00
988.3000, 28067.00
989.4120, 28051.00
990.5250, 28040.00
991.6370, 28270.00
992.7490, 28398.00
993.8610, 28471.00
994.9720, 28665.95
996.0840, 28887.00
997.1950, 28926.00
998.3060, 29035.00
999.4170, 29080.00
1000.528, 29446.00
1001.639, 29808.00
1002.750, 29943.00
1003.860, 30108.00
1004.970, 30400.00
1006.080, 30696.00
1007.190, 31067.00
1008.300, 31061.00
1009.410, 31326.00
1010.519, 31335.00
1011.628, 31429.00
1012.738, 31700.00
1013.846, 31846.00
1014.955, 31782.00
1016.064, 31849.00
1017.172, 32328.00
1018.281, 32583.00
1019.389, 32938.53
1020.497, 33404.00
1021.605, 33888.00
1022.713, 34437.00
1023.820, 35269.00
1024.928, 35709.00
1026.035, 36794.00
1027.142, 38068.00
1028.249, 39408.00
1029.356, 41063.00
1030.462, 43755.00
1031.569, 46502.00
1032.675, 50510.00
1033.781, 54894.00
1034.887, 60794.00
1035.993, 67104.00
1037.098, 74380.00
1038.204, 81238.00
1039.309, 86978.00
1040.415, 90419.00
1041.520, 91448.00
1042.624, 88347.00
1043.729, 82911.00
1044.834, 75737.00
1045.938, 68380.00
1047.042, 61210.00
1048.146, 55505.00
1049.250, 50415.00
1050.354, 46628.00
1051.458, 43407.00
1052.561, 41046.00
1053.664, 39066.00
1054.767, 37711.00
1055.870, 36695.00
1056.973, 35544.00
1058.076, 34880.00
1059.178, 34437.00
1060.281, 34166.00
1061.383, 33756.00
1062.485, 33712.00
1063.587, 33664.00
1064.688, 33572.00
1065.790, 33673.00
1066.891, 33850.00
1067.993, 33984.00
1069.094, 34276.00
1070.195, 34230.00
1071.295, 34616.00
1072.396, 34797.00
1073.496, 35304.00
1074.597, 35827.00
1075.697, 36466.00
1076.797, 37689.00
1077.897, 39030.59
1078.996, 40073.00
1080.096, 42705.00
1081.195, 45425.00
1082.294, 48000.00
1083.393, 51890.00
1084.492, 57050.00
1085.591, 62440.00
1086.689, 67789.00
1087.788, 73407.00
1088.886, 78873.00
1089.984, 83931.00
1091.082, 88483.00
1092.180, 92078.00
1093.277, 93632.00
1094.375, 92982.00
1095.472, 89813.00
1096.569, 85964.00
1097.666, 80048.00
1098.763, 74204.00
1099.860, 68720.00
1100.956, 63420.00
1102.053, 58933.46
1103.149, 54420.00
1104.245, 51016.00
1105.341, 47610.00
1106.436, 44630.00
1107.532, 42376.00
1108.627, 40427.00
1109.723, 38656.00
1110.818, 36875.00
1111.913, 35591.00
1113.007, 34433.00
1114.102, 33539.00
1115.197, 32509.00
1116.291, 32181.00
1117.385, 31508.00
1118.479, 31292.00
1119.573, 30716.00
1120.666, 30478.00
1121.760, 30425.00
1122.853, 29857.00
1123.947, 30155.00
1125.040, 29557.00
1126.132, 29365.00
1127.225, 29278.00
1128.318, 29345.00
1129.410, 29124.00
1130.502, 29016.00
1131.595, 29047.52
1132.687, 29159.00
1133.778, 29050.00
1134.870, 28921.00
1135.961, 28876.00
1137.053, 28857.00
1138.144, 28924.00
1139.235, 28993.00
1140.326, 28935.00
1141.416, 28899.00
1142.507, 28934.82
1143.597, 28816.00
1144.688, 28961.00
1145.778, 28945.00
1146.868, 28953.84
1147.957, 28915.00
1149.047, 28924.00
1150.136, 28960.36
1151.226, 28888.00
1152.315, 29036.00
1153.404, 29030.00
1154.493, 29021.00
1155.581, 29200.00
1156.670, 28897.00
1157.758, 29123.00
1158.846, 29052.00
1159.934, 29048.00
1161.022, 28853.00
1162.110, 28845.00
1163.198, 28821.00
1164.285, 28920.00
1165.372, 29013.00
1166.459, 29011.36
1167.546, 29087.60
1168.633, 29079.00
1169.720, 29114.00
1170.806, 29189.00
1171.892, 29103.00
1172.979, 29350.00
1174.065, 29411.00
1175.150, 29124.00
1176.236, 29009.00
1177.322, 29145.00
1178.407, 29282.00
1179.492, 29182.00
1180.577, 29234.00
1181.662, 29210.00
1182.747, 29416.00
1183.832, 29345.00
1184.916, 29595.00
1186.000, 29208.00
1187.084, 29375.00
1188.168, 29375.00
1189.252, 29367.00
1190.336, 29404.00
1191.419, 29412.00
1192.503, 29528.00
1193.586, 29635.00
1194.669, 29689.00
1195.752, 29709.00
1196.835, 29498.00
1197.917, 29691.00
1199.000, 29690.00
1200.082, 29512.00
1201.164, 29737.00
1202.246, 29667.00
1203.328, 29686.00
1204.409, 29866.00
1205.491, 29777.00
1206.572, 29655.00
1207.653, 29677.00
1208.734, 29797.00
1209.815, 30010.00
1210.896, 29971.00
1211.976, 29991.00
1213.057, 29854.00
1214.137, 29889.00
1215.217, 29933.00
1216.297, 30116.00
1217.377, 30162.00
1218.456, 30046.00
1219.536, 30049.00
1220.615, 30083.00
1221.694, 30088.00
1222.773, 30136.00
1223.852, 30306.00
1224.931, 30332.00
1226.009, 30244.00
1227.088, 30350.00
1228.166, 30246.00
1229.244, 30381.00
1230.322, 30342.00
1231.400, 30166.00
1232.477, 30355.00
1233.555, 30450.00
1234.632, 30577.00
1235.709, 30424.00
1236.786, 30581.00
1237.863, 30546.00
1238.939, 30574.00
1240.016, 30634.00
1241.092, 30788.00
1242.168, 30651.00
1243.245, 30852.00
1244.320, 30944.00
1245.396, 30845.00
1246.472, 30804.00
1247.547, 30827.00
1248.622, 30890.00
1249.697, 30769.00
1250.772, 31068.00
1251.847, 31150.00
1252.922, 31224.00
1253.996, 31021.00
1255.071, 30946.00
1256.145, 31067.00
1257.219, 30966.00
1258.293, 31102.00
1259.366, 31168.00
1260.440, 31257.00
1261.513, 31267.00
1262.587, 31351.00
1263.660, 31275.00
1264.733, 31280.00
1265.805, 31195.00
1266.878, 31430.00
1267.951, 31281.00
1269.023, 31404.00
1270.095, 31473.00
1271.167, 31504.00
1272.239, 31707.00
1273.311, 31566.00
1274.382, 31474.00
1275.454, 31648.00
1276.525, 31782.00
1277.596, 31599.00
1278.667, 31650.00
1279.738, 31691.00
1280.808, 31846.00
1281.879, 31801.00
1282.949, 31879.17
1284.019, 31938.00
1285.089, 32011.00
1286.159, 31970.00
1287.229, 32173.00
1288.298, 32387.00
1289.368, 32217.00
1290.437, 32122.00
1291.506, 31987.00
1292.575, 31940.00
1293.644, 32221.00
1294.712, 32172.00
1295.781, 32198.00
1296.849, 32429.00
1297.917, 32320.00
1298.985, 32492.00
1300.053, 32550.00
1301.121, 32521.00
1302.188, 32493.00
1303.255, 32520.00
1304.323, 32332.00
1305.390, 32504.00
1306.457, 32180.00
1307.523, 32562.00
1308.590, 32629.00
1309.656, 32596.00
1310.723, 32818.00
1311.789, 32805.00
1312.855, 32661.00
