##NAMES=Enstatite
##RRUFFID=R050644
##IDEAL CHEMISTRY=MgSiO_3_
##LOCALITY=Morogoro, Tanzania
##OWNER=RRUFF
##SOURCE=Jibamitra Ganguly
##DESCRIPTION=Light brown crystal fragment
##STATUS=The identification of this mineral has been confirmed by X-ray diffraction and chemical analysis
##URL=rruff.info/R050644
##MEASURED CHEMISTRY=(Mg_0.90_Fe_0.10_)SiO_3_
##PIN_ID=L01041
##ORIENTATION=Laser parallel to -a* (-1 0 0). Fiducial mark perpendicular to laser is parallel to -b [0 -1 0]
113.2080, 13557.00
114.4400, 13710.00
115.6710, 13907.24
116.9030, 14203.00
118.1340, 14461.00
119.3650, 14776.00
120.5960, 15197.00
121.8270, 15435.00
123.0580, 15828.00
124.2880, 16207.00
125.5190, 17203.00
126.7490, 17897.00
127.9790, 18684.00
129.2090, 19034.00
130.4390, 18977.00
131.6680, 18713.00
132.8980, 18398.00
134.1270, 18340.00
135.3560, 18495.00
136.5850, 18573.00
137.8140, 18791.00
139.0430, 18945.00
140.2710, 19000.00
141.5000, 19021.29
142.7280, 18944.61
143.9560, 18803.00
145.1840, 18579.00
146.4120, 18217.00
147.6390, 17827.00
148.8670, 17313.00
150.0940, 17062.00
151.3210, 16986.00
152.5490, 16645.00
153.7750, 16512.00
155.0020, 16551.00
156.2290, 16407.00
157.4550, 16554.00
158.6810, 16520.00
159.9080, 16270.00
161.1340, 16426.00
162.3590, 16689.00
163.5850, 16824.00
164.8110, 16486.00
166.0360, 16362.00
167.2610, 16348.00
168.4860, 16311.00
169.7110, 16254.00
170.9360, 16217.00
172.1610, 16151.00
173.3850, 16260.00
174.6100, 16249.00
175.8340, 16304.00
177.0580, 16451.00
178.2820, 16565.00
179.5050, 16567.00
180.7290, 16784.00
181.9520, 16587.00
183.1760, 16887.00
184.3990, 16922.00
185.6220, 17010.00
186.8450, 17266.00
188.0670, 17284.00
189.2900, 17697.00
190.5120, 17546.00
191.7340, 17675.00
192.9560, 17604.00
194.1780, 17435.00
195.4000, 17484.00
196.6220, 17643.00
197.8430, 17429.00
199.0640, 17301.00
200.2860, 17442.00
201.5070, 17365.00
202.7270, 17317.00
203.9480, 17259.00
205.1690, 17018.00
206.3890, 17098.00
207.6090, 17126.00
208.8290, 17032.00
210.0490, 17227.00
211.2690, 17219.00
212.4890, 17179.00
213.7080, 17109.00
214.9280, 17217.50
216.1470, 17451.00
217.3660, 17485.00
218.5850, 17607.00
219.8030, 17863.00
221.0220, 17949.00
222.2400, 18146.00
223.4590, 18449.00
224.6770, 18669.00
225.8950, 19064.00
227.1120, 19540.00
228.3300, 20019.00
229.5480, 20421.00
230.7650, 21357.00
231.9820, 21918.00
233.1990, 22142.00
234.4160, 22126.00
235.6330, 21652.00
236.8490, 21414.00
238.0660, 20933.00
239.2820, 20368.00
240.4980, 19972.00
241.7140, 19680.00
242.9300, 19106.00
244.1460, 19001.00
245.3610, 18580.00
246.5770, 18456.00
247.7920, 18305.00
249.0070, 18365.00
250.2220, 18270.00
251.4370, 18184.00
252.6510, 18306.00
253.8660, 18305.00
255.0800, 18088.00
256.2940, 18070.00
257.5080, 18384.00
258.7220, 18518.00
259.9360, 18341.00
261.1490, 18267.00
262.3630, 18182.00
263.5760, 18143.00
264.7890, 18285.00
266.0020, 18361.00
267.2150, 18388.00
268.4270, 18440.00
269.6400, 18516.00
270.8520, 18442.00
272.0640, 18513.00
273.2760, 18640.00
274.4880, 18626.00
275.7000, 18536.00
276.9120, 18588.00
278.1230, 18761.00
279.3340, 18879.00
280.5450, 18752.00
281.7560, 18881.00
282.9670, 18804.00
284.1780, 18998.00
285.3880, 18992.00
286.5980, 19067.00
287.8090, 19119.00
289.0190, 19130.00
290.2290, 19507.00
291.4380, 19572.00
292.6480, 19390.00
293.8570, 19761.00
295.0670, 19878.00
296.2760, 20038.00
297.4850, 20057.00
298.6930, 19979.00
299.9020, 19949.00
301.1110, 20070.00
302.3190, 20131.00
303.5270, 20177.00
304.7350, 20198.00
305.9430, 19968.00
307.1510, 20174.00
308.3580, 20104.00
309.5660, 20249.00
310.7730, 20364.00
311.9800, 20388.00
313.1870, 20524.00
314.3940, 20613.00
315.6010, 20688.98
316.8070, 20863.00
318.0130, 20895.00
319.2200, 21056.00
320.4260, 21228.00
321.6310, 21399.00
322.8370, 21546.71
324.0430, 21736.34
325.2480, 22048.00
326.4540, 22415.00
327.6590, 23124.00
328.8640, 23852.41
330.0680, 24746.40
331.2730, 25828.00
332.4780, 26988.00
333.6820, 28290.00
334.8860, 29785.00
336.0900, 30978.00
337.2940, 31860.00
338.4980, 32156.00
339.7010, 31645.00
340.9050, 30912.00
342.1080, 29826.00
343.3110, 28568.00
344.5140, 27343.00
345.7170, 26125.00
346.9200, 25149.00
348.1220, 24347.88
349.3240, 23821.00
350.5270, 23207.00
351.7290, 22954.00
352.9310, 22786.00
354.1320, 22513.00
355.3340, 22676.00
356.5350, 22323.00
357.7370, 22304.00
358.9380, 22214.56
360.1390, 21789.00
361.3400, 22039.00
362.5400, 22039.00
363.7410, 22031.55
364.9410, 21767.00
366.1410, 21983.00
367.3410, 22007.00
368.5410, 22151.00
369.7410, 22263.00
370.9400, 22531.00
372.1400, 22777.00
373.3390, 22725.00
374.5380, 22996.00
375.7370, 23047.00
376.9360, 23066.00
378.1350, 23112.00
379.3330, 23157.00
380.5310, 23158.00
381.7300, 22900.00
382.9280, 23090.00
384.1260, 23028.00
385.3230, 23065.00
386.5210, 23149.00
387.7180, 23560.00
388.9160, 24039.00
390.1130, 24294.00
391.3100, 24548.00
392.5060, 25035.00
393.7030, 25292.00
394.9000, 25640.00
396.0960, 25766.00
397.2920, 25913.00
398.4880, 25828.00
399.6840, 25730.00
400.8800, 25816.00
402.0750, 25425.00
403.2710, 25302.00
404.4660, 25202.00
405.6610, 24912.00
406.8560, 24989.00
408.0510, 24821.00
409.2450, 25065.00
410.4400, 24894.00
411.6340, 25180.00
412.8280, 24715.00
414.0220, 24980.00
415.2160, 24915.00
416.4100, 24721.00
417.6030, 24518.00
418.7970, 24404.00
419.9900, 24014.00
421.1830, 23770.00
422.3760, 23415.00
423.5690, 23377.00
424.7610, 23004.00
425.9540, 22862.00
427.1460, 22989.00
428.3380, 22802.00
429.5300, 22667.00
430.7220, 22959.00
431.9140, 22963.00
433.1050, 22971.00
434.2970, 22860.00
435.4880, 23174.00
436.6790, 23201.00
437.8700, 23492.00
439.0610, 23445.00
440.2510, 23414.00
441.4420, 23395.00
442.6320, 23166.00
443.8220, 23019.00
445.0120, 23106.00
446.2020, 23120.00
447.3910, 23151.00
448.5810, 22967.00
449.7700, 22931.00
450.9600, 22894.00
452.1490, 22856.43
453.3370, 22859.00
454.5260, 22895.00
455.7150, 23085.00
456.9030, 23154.00
458.0910, 23007.00
459.2800, 23096.00
460.4670, 23042.00
461.6550, 23085.00
462.8430, 23196.00
464.0300, 23314.00
465.2180, 23093.00
466.4050, 22961.00
467.5920, 23080.00
468.7790, 23374.00
469.9650, 23108.00
471.1520, 23333.00
472.3380, 23282.13
473.5250, 23297.00
474.7110, 23236.00
475.8970, 23283.00
477.0820, 23290.00
478.2680, 23452.00
479.4540, 23318.00
480.6390, 23236.00
481.8240, 23479.00
483.0090, 23435.00
484.1940, 23455.00
485.3780, 23502.00
486.5630, 23525.00
487.7470, 23427.00
488.9320, 23541.00
490.1160, 23554.00
491.3000, 23619.00
492.4830, 23372.00
493.6670, 23610.00
494.8500, 23664.00
496.0340, 23541.00
497.2170, 23740.00
498.4000, 23752.00
499.5820, 23893.00
500.7650, 23937.00
501.9480, 23801.00
503.1300, 23698.00
504.3120, 23752.00
505.4940, 24183.00
506.6760, 24248.00
507.8580, 24464.00
509.0390, 24463.00
510.2210, 24789.00
511.4020, 25100.00
512.5830, 24995.00
513.7640, 25343.00
514.9450, 25698.00
516.1250, 25845.00
517.3060, 25807.00
518.4860, 25902.00
519.6660, 25550.00
520.8460, 25898.00
522.0260, 25677.00
523.2060, 26067.00
524.3850, 25626.00
525.5650, 25553.00
526.7440, 25522.00
527.9230, 25291.00
529.1020, 25449.00
530.2810, 25620.00
531.4590, 25594.00
532.6380, 25805.00
533.8160, 25754.00
534.9940, 25888.00
536.1720, 25951.00
537.3500, 25980.00
538.5270, 25947.00
539.7050, 25810.00
540.8820, 25930.00
542.0590, 25881.19
543.2360, 25860.00
544.4130, 25941.00
545.5900, 26031.00
546.7660, 26097.00
547.9430, 25991.00
549.1190, 26017.00
550.2950, 25824.00
551.4710, 25909.00
552.6470, 25731.00
553.8220, 25519.00
554.9980, 25603.00
556.1730, 25601.00
557.3480, 25250.00
558.5230, 25457.00
559.6980, 25507.00
560.8730, 25657.00
562.0470, 25617.00
563.2220, 25539.00
564.3960, 25258.00
565.5700, 25516.00
566.7440, 25385.00
567.9170, 25609.00
569.0910, 25649.00
570.2640, 25942.00
571.4380, 25979.91
572.6110, 26003.49
573.7840, 26103.00
574.9570, 25953.00
576.1290, 25960.00
577.3020, 25917.00
578.4740, 26038.00
579.6460, 25997.00
580.8180, 25808.00
581.9900, 26074.00
583.1620, 25970.00
584.3330, 25807.00
585.5040, 25957.00
586.6760, 25950.00
587.8470, 25759.00
589.0180, 25939.00
590.1880, 25840.00
591.3590, 26225.00
592.5290, 25901.00
593.7000, 26176.00
594.8700, 26226.00
596.0400, 26099.00
597.2090, 26095.00
598.3790, 26221.00
599.5490, 26267.00
600.7180, 26124.00
601.8870, 26122.00
603.0560, 26115.00
604.2250, 26238.00
605.3940, 26309.00
606.5620, 26223.00
607.7300, 26582.00
608.8990, 26281.00
610.0670, 26322.00
611.2350, 26574.00
612.4020, 26663.00
613.5700, 26668.00
614.7370, 26676.00
615.9050, 26572.00
617.0720, 26584.00
618.2390, 26812.00
619.4060, 26909.00
620.5720, 26825.00
621.7390, 26875.00
622.9050, 26952.00
624.0710, 27212.00
625.2370, 27113.00
626.4030, 27322.00
627.5690, 27448.00
628.7340, 27574.00
629.9000, 27663.18
631.0650, 27643.00
632.2300, 27741.00
633.3950, 27644.00
634.5600, 27593.00
635.7240, 27732.00
636.8890, 28051.00
638.0530, 27923.00
639.2170, 28060.00
640.3810, 28200.00
641.5450, 28202.00
642.7080, 28301.00
643.8720, 28464.00
645.0350, 28512.00
646.1980, 28882.00
647.3610, 28876.00
648.5240, 29128.00
649.6870, 29695.00
650.8490, 30086.00
652.0120, 30439.00
653.1740, 31123.00
654.3360, 31871.00
655.4980, 32537.00
656.6600, 33208.00
657.8210, 33914.00
658.9830, 34392.00
660.1440, 34881.00
661.3050, 34394.00
662.4660, 34493.00
663.6270, 33952.00
664.7870, 33125.00
665.9480, 32701.00
667.1080, 32481.00
668.2680, 32003.00
669.4280, 31852.00
670.5880, 31791.00
671.7480, 31988.00
672.9070, 32279.00
674.0670, 32558.00
675.2260, 33250.00
676.3850, 33973.00
677.5440, 34935.00
678.7030, 35424.00
679.8610, 35938.00
681.0200, 36486.00
682.1780, 36755.00
683.3360, 36215.00
684.4940, 35622.00
685.6520, 34708.00
686.8090, 34024.00
687.9670, 33042.00
689.1240, 32329.00
690.2810, 31618.00
691.4380, 31174.00
692.5950, 30697.00
693.7520, 30333.00
694.9080, 29904.00
696.0650, 29714.00
697.2210, 29791.00
698.3770, 29474.00
699.5330, 29267.00
700.6880, 29436.00
701.8440, 29217.00
702.9990, 29181.00
704.1550, 29451.00
705.3100, 29422.00
706.4650, 29414.00
707.6190, 29464.00
708.7740, 29473.00
709.9290, 29387.00
711.0830, 29336.00
712.2370, 29416.00
713.3910, 29306.00
714.5450, 29559.00
715.6980, 29413.00
716.8520, 29223.00
718.0050, 29550.00
719.1580, 29639.00
720.3110, 29718.00
721.4640, 29268.00
722.6170, 29596.00
723.7700, 29463.00
724.9220, 29583.00
726.0740, 29592.00
727.2260, 29661.00
728.3780, 29763.00
729.5300, 29798.00
730.6810, 29855.95
731.8330, 29798.00
732.9840, 29878.00
734.1350, 29988.00
735.2860, 29887.00
736.4370, 30041.61
737.5880, 30059.00
738.7380, 30151.00
739.8880, 30230.00
741.0390, 30276.22
742.1890, 30297.00
743.3380, 30419.00
744.4880, 30491.00
745.6380, 30610.00
746.7870, 30626.00
747.9360, 30760.00
749.0850, 30613.00
750.2340, 30468.00
751.3830, 30738.00
752.5310, 30453.00
753.6800, 30505.00
754.8280, 30416.00
755.9760, 30234.00
757.1240, 30227.00
758.2720, 30160.00
759.4190, 30274.00
760.5670, 30210.00
761.7140, 30354.00
762.8610, 30201.00
764.0080, 30303.00
765.1550, 30400.00
766.3020, 30398.00
767.4480, 30417.00
768.5950, 30503.00
769.7410, 30326.00
770.8870, 30375.00
772.0330, 30481.00
773.1780, 30567.00
774.3240, 30383.00
775.4690, 30555.00
776.6140, 30805.00
777.7590, 30509.00
778.9040, 30727.00
780.0490, 30774.00
781.1940, 30857.00
782.3380, 30899.86
783.4820, 30685.00
784.6260, 30853.00
785.7700, 30959.00
786.9140, 30850.00
788.0580, 30995.00
789.2010, 30978.00
790.3450, 30815.00
791.4880, 30850.00
792.6310, 30945.00
793.7730, 31016.00
794.9160, 31024.00
796.0590, 31087.00
797.2010, 31172.00
798.3430, 31273.00
799.4850, 31147.00
800.6270, 31363.00
801.7690, 31262.00
802.9100, 31187.00
804.0520, 31390.00
805.1930, 31367.00
806.3340, 31483.00
807.4750, 31536.52
808.6160, 31720.00
809.7560, 31600.00
810.8970, 31565.00
812.0370, 31558.00
813.1770, 31538.33
814.3170, 31512.00
815.4570, 31574.00
816.5960, 31618.00
817.7360, 31624.34
818.8750, 31660.00
820.0140, 31833.00
821.1530, 31662.00
822.2920, 31912.00
823.4310, 31902.00
824.5690, 31874.00
825.7070, 32104.00
826.8460, 32067.00
827.9840, 32261.00
829.1220, 32291.00
830.2590, 32185.00
831.3970, 32209.00
832.5340, 32277.00
833.6710, 32301.00
834.8080, 32298.00
835.9450, 32437.00
837.0820, 32418.00
838.2190, 32561.00
839.3550, 32542.00
840.4910, 32619.00
841.6270, 32377.00
842.7630, 32629.00
843.8990, 32668.00
845.0350, 33078.00
846.1700, 33011.00
847.3060, 32985.00
848.4410, 33069.00
849.5760, 33249.00
850.7100, 33321.00
851.8450, 33326.00
852.9800, 33625.00
854.1140, 33765.00
855.2480, 33671.00
856.3820, 33688.00
857.5160, 33730.00
858.6500, 33633.00
859.7830, 33745.00
860.9170, 33627.00
862.0500, 33624.00
863.1830, 33622.00
864.3160, 33384.00
865.4480, 33442.00
866.5810, 33641.00
867.7130, 33336.00
868.8460, 33439.00
869.9780, 33603.00
871.1100, 33326.00
872.2410, 33662.00
873.3730, 33769.00
874.5050, 33483.00
875.6360, 33430.00
876.7670, 33587.00
877.8980, 33514.00
879.0290, 33634.00
880.1590, 33609.00
881.2900, 33606.00
882.4200, 33610.00
883.5500, 33538.00
884.6800, 33661.00
885.8100, 33798.00
886.9400, 33649.00
888.0690, 33788.00
889.1990, 33793.00
890.3280, 33937.00
891.4570, 33993.00
892.5860, 34127.00
893.7140, 33961.00
894.8430, 33918.00
895.9710, 34260.00
897.1000, 34133.00
898.2280, 34311.00
899.3560, 34140.00
900.4830, 34091.00
901.6110, 34125.00
902.7380, 34203.00
903.8660, 34171.00
904.9930, 34424.00
906.1200, 34296.00
907.2460, 34502.00
908.3730, 34112.00
909.5000, 34418.00
910.6260, 34419.00
911.7520, 34626.00
912.8780, 34735.00
914.0040, 34801.00
915.1290, 35044.00
916.2550, 35044.27
917.3800, 35049.00
918.5050, 35123.00
919.6300, 35329.00
920.7550, 35366.00
921.8800, 35606.00
923.0040, 35715.00
924.1290, 35753.00
925.2530, 36040.00
926.3770, 35882.00
927.5010, 36255.00
928.6250, 36332.00
929.7480, 35871.00
930.8720, 36443.00
931.9950, 36284.00
933.1180, 36054.00
934.2410, 35915.00
935.3640, 36192.00
936.4860, 36096.00
937.6090, 36160.00
938.7310, 36389.00
939.8530, 36013.00
940.9750, 36167.00
942.0970, 35930.00
943.2180, 35923.00
944.3400, 35925.00
945.4610, 36139.00
946.5820, 36034.00
947.7030, 35951.00
948.8240, 35849.00
949.9450, 35857.00
951.0650, 35988.00
952.1860, 35933.00
953.3060, 35711.00
954.4260, 35939.00
955.5460, 35938.00
956.6650, 35816.00
957.7850, 35953.00
958.9040, 36024.00
960.0230, 36190.00
961.1420, 36212.00
962.2610, 36229.00
963.3800, 36093.00
964.4990, 36173.00
965.6170, 36285.00
966.7350, 36337.00
967.8530, 35967.00
968.9710, 36127.00
970.0890, 36201.00
971.2070, 36453.00
972.3240, 36403.00
973.4410, 36573.00
974.5580, 36492.00
975.6750, 36534.00
976.7920, 36806.00
977.9090, 36669.00
979.0250, 36664.00
980.1410, 36845.00
981.2580, 36807.00
982.3740, 36970.00
983.4890, 37161.00
984.6050, 37403.00
985.7200, 37163.00
986.8360, 37476.00
987.9510, 37765.00
989.0660, 37419.00
990.1810, 37703.00
991.2950, 37801.00
992.4100, 37928.00
993.5240, 37942.00
994.6390, 38273.00
995.7530, 38737.00
996.8660, 38708.00
997.9800, 39077.00
999.0940, 39635.00
1000.207, 39763.00
1001.320, 40255.00
1002.433, 40816.00
1003.546, 41654.00
1004.659, 42280.00
1005.772, 42897.00
1006.884, 43623.00
1007.996, 44340.00
1009.108, 44604.00
1010.220, 44672.00
1011.332, 44678.00
1012.444, 44385.00
1013.555, 44519.00
1014.666, 44297.00
1015.777, 44305.00
1016.888, 44368.00
1017.999, 44518.00
1019.110, 44737.79
1020.220, 45041.00
1021.331, 45382.00
1022.441, 45769.00
1023.551, 46236.00
1024.661, 46569.00
1025.770, 46700.00
1026.880, 46889.00
1027.989, 47085.00
1029.098, 47153.00
1030.207, 46974.00
1031.316, 46397.00
1032.425, 46197.00
1033.533, 45151.00
1034.642, 44796.00
1035.750, 44326.00
1036.858, 43562.00
1037.966, 42929.00
1039.073, 42305.00
1040.181, 41850.10
1041.288, 41738.00
1042.396, 41165.00
1043.503, 40949.00
1044.610, 40804.00
1045.716, 40448.00
1046.823, 40102.00
1047.929, 39970.00
1049.036, 40160.00
1050.142, 39701.00
1051.248, 40000.00
1052.353, 39816.00
1053.459, 39701.00
1054.564, 39659.00
1055.670, 39620.00
1056.775, 39821.00
1057.880, 39446.00
1058.985, 39716.00
1060.089, 39785.00
1061.194, 39563.00
1062.298, 39664.00
1063.402, 39481.00
1064.506, 39685.00
1065.610, 39341.00
1066.713, 39347.00
1067.817, 39307.00
1068.920, 39203.11
1070.023, 39403.00
1071.126, 39270.00
1072.229, 39354.00
1073.332, 39617.00
1074.435, 39620.00
1075.537, 39692.00
1076.639, 39779.00
1077.741, 39673.00
1078.843, 40017.00
1079.945, 39939.00
1081.046, 39842.00
1082.148, 39850.00
1083.249, 40234.00
1084.350, 40084.00
1085.451, 40225.00
1086.551, 40209.00
1087.652, 40289.00
1088.752, 40013.00
1089.853, 40020.00
1090.953, 40012.00
1092.053, 39823.00
1093.152, 39806.00
1094.252, 39897.00
1095.351, 40145.00
1096.451, 40054.00
1097.550, 40282.00
1098.649, 39970.00
1099.748, 40116.00
1100.846, 40119.00
1101.945, 40210.00
1103.043, 40107.00
1104.141, 40051.00
1105.239, 39987.00
1106.337, 40187.00
1107.434, 40494.00
1108.532, 40408.00
1109.629, 40443.00
1110.726, 40420.00
1111.823, 40206.00
1112.920, 40418.00
1114.017, 40614.00
1115.113, 40489.00
1116.210, 40485.00
1117.306, 40598.00
1118.402, 40458.00
1119.498, 40664.00
1120.593, 40904.00
1121.689, 40756.00
1122.784, 40758.00
1123.879, 40934.00
1124.974, 40848.00
1126.069, 41045.00
1127.164, 40790.00
1128.259, 40817.00
1129.353, 40635.00
1130.447, 41155.00
1131.541, 40940.00
1132.635, 41138.00
1133.729, 41188.00
1134.822, 41183.00
1135.916, 40994.00
1137.009, 41359.00
1138.102, 41081.00
1139.195, 40931.00
1140.288, 41191.00
1141.380, 41345.00
1142.473, 41262.00
1143.565, 41401.00
1144.657, 41485.00
1145.749, 41386.00
1146.841, 41564.00
1147.932, 41569.62
1149.024, 41224.00
1150.115, 41646.00
1151.206, 41539.00
1152.297, 41468.00
1153.388, 41598.00
1154.479, 41584.77
1155.569, 41660.00
1156.659, 41783.00
1157.750, 41746.00
1158.839, 41915.00
1159.929, 41740.00
1161.019, 41848.00
1162.108, 41806.00
1163.198, 41691.00
1164.287, 41978.00
1165.376, 41914.00
1166.465, 42103.00
1167.553, 41924.00
1168.642, 42057.00
1169.730, 42320.00
1170.818, 42502.00
1171.906, 42782.00
1172.994, 42206.00
1174.082, 42369.00
1175.170, 42183.00
1176.257, 42391.00
1177.344, 42208.00
1178.431, 42485.00
1179.518, 42479.00
1180.605, 42514.00
1181.691, 42421.00
1182.778, 42466.00
1183.864, 42458.00
1184.950, 42725.00
1186.036, 42602.00
1187.122, 42539.00
1188.207, 42607.00
1189.292, 43058.00
1190.378, 42754.00
1191.463, 43097.00
1192.548, 43130.00
1193.632, 42987.00
1194.717, 42772.00
1195.801, 42937.00
1196.886, 43096.00
1197.970, 43137.00
1199.054, 43265.00
1200.137, 43086.00
1201.221, 43144.00
1202.305, 43121.00
1203.388, 43159.43
1204.471, 43204.13
1205.554, 43273.00
1206.637, 43335.00
1207.719, 43269.00
1208.802, 43395.00
1209.884, 43332.00
1210.966, 43242.00
1212.048, 43586.00
1213.130, 43674.00
1214.212, 43570.00
1215.293, 43771.00
1216.374, 43589.00
1217.456, 43911.00
1218.536, 43706.00
1219.617, 43944.00
1220.698, 43669.00
1221.778, 44080.00
1222.859, 43918.00
1223.939, 43979.00
1225.019, 44116.00
1226.099, 44225.00
1227.178, 44237.00
1228.258, 44301.53
1229.337, 44300.55
1230.417, 44334.00
1231.496, 44275.00
1232.574, 44296.00
1233.653, 44298.00
1234.732, 44411.00
1235.810, 44393.89
1236.888, 44455.71
1237.966, 44428.00
1239.044, 44552.00
1240.122, 44586.00
1241.199, 44650.00
1242.277, 44750.45
1243.354, 44781.07
1244.431, 44890.00
1245.508, 44835.00
1246.585, 44806.00
1247.661, 44728.00
1248.738, 44623.00
1249.814, 45024.00
1250.890, 45221.00
1251.966, 45088.00
1253.042, 44892.00
1254.117, 45064.00
1255.193, 45053.00
1256.268, 45003.00
1257.343, 44940.00
1258.418, 45180.00
1259.493, 45413.00
1260.567, 45446.00
1261.642, 45389.00
1262.716, 45647.00
1263.790, 45606.00
1264.864, 45658.00
1265.938, 45535.00
1267.011, 45634.00
1268.085, 45356.00
1269.158, 45616.00
1270.231, 45485.00
1271.304, 45373.00
1272.377, 45525.00
1273.450, 45877.00
1274.522, 45642.00
1275.594, 45869.00
1276.666, 45900.00
1277.738, 45904.00
1278.810, 46065.00
1279.882, 46277.00
1280.953, 45941.00
1282.025, 46127.00
1283.096, 46281.00
1284.167, 46450.00
1285.238, 46119.00
1286.308, 46231.00
1287.379, 46379.00
1288.449, 46322.00
1289.519, 46627.00
1290.589, 46478.00
1291.659, 46597.00
1292.729, 46337.00
1293.798, 46528.00
1294.868, 46530.00
