##NAMES=Enstatite
##RRUFFID=R050644
##IDEAL CHEMISTRY=MgSiO_3_
##LOCALITY=Morogoro, Tanzania
##OWNER=RRUFF
##SOURCE=Jibamitra Ganguly
##DESCRIPTION=Light brown crystal fragment
##STATUS=The identification of this mineral has been confirmed by X-ray diffraction and chemical analysis
##URL=rruff.info/R050644
##MEASURED CHEMISTRY=(Mg_0.90_Fe_0.10_)SiO_3_
##PIN_ID=L01041
##ORIENTATION=Laser parallel to -a* (-1 0 0). Fiducial mark perpendicular to laser is parallel to -b [0 -1 0]
113.2080, 15168.00
114.4400, 15496.00
115.6710, 15863.00
116.9030, 15969.00
118.1340, 16195.00
119.3650, 16771.00
120.5960, 17305.00
121.8270, 17736.00
123.0580, 18308.00
124.2880, 19174.00
125.5190, 20463.00
126.7490, 21966.00
127.9790, 23521.00
129.2090, 24107.00
130.4390, 23956.00
131.6680, 23240.00
132.8980, 22663.00
134.1270, 22196.00
135.3560, 21755.00
136.5850, 21807.00
137.8140, 22154.00
139.0430, 22430.00
140.2710, 22541.00
141.5000, 22264.00
142.7280, 22090.00
143.9560, 21607.00
145.1840, 21218.00
146.4120, 20404.00
147.6390, 19776.00
148.8670, 19343.00
150.0940, 19112.00
151.3210, 18862.00
152.5490, 18517.00
153.7750, 18478.00
155.0020, 18210.00
156.2290, 17970.00
157.4550, 18168.00
158.6810, 17977.00
159.9080, 18089.00
161.1340, 18071.00
162.3590, 18129.00
163.5850, 18263.00
164.8110, 18177.00
166.0360, 18174.70
167.2610, 18026.00
168.4860, 18022.00
169.7110, 17940.00
170.9360, 17860.00
172.1610, 17910.00
173.3850, 17961.00
174.6100, 18104.00
175.8340, 18155.02
177.0580, 18282.00
178.2820, 18320.00
179.5050, 18429.00
180.7290, 18500.96
181.9520, 18537.00
183.1760, 18774.00
184.3990, 18969.00
185.6220, 19154.00
186.8450, 19490.00
188.0670, 19656.00
189.2900, 19767.00
190.5120, 19788.00
191.7340, 19837.00
192.9560, 19779.00
194.1780, 19602.00
195.4000, 19538.00
196.6220, 19233.00
197.8430, 19459.00
199.0640, 19407.00
200.2860, 19474.00
201.5070, 19270.00
202.7270, 19235.00
203.9480, 19054.00
205.1690, 18975.00
206.3890, 18943.00
207.6090, 18746.00
208.8290, 18769.00
210.0490, 18923.00
211.2690, 18882.00
212.4890, 18786.00
213.7080, 19039.00
214.9280, 18956.00
216.1470, 19066.00
217.3660, 19100.00
218.5850, 19175.00
219.8030, 19360.51
221.0220, 19504.00
222.2400, 19794.00
223.4590, 20049.00
224.6770, 20366.00
225.8950, 20619.00
227.1120, 21326.00
228.3300, 21787.00
229.5480, 22291.00
230.7650, 23115.00
231.9820, 24103.00
233.1990, 24310.00
234.4160, 24526.00
235.6330, 24012.00
236.8490, 23636.00
238.0660, 22964.00
239.2820, 22588.00
240.4980, 21910.00
241.7140, 21255.00
242.9300, 20891.00
244.1460, 20580.00
245.3610, 20389.00
246.5770, 20128.00
247.7920, 19993.00
249.0070, 20056.00
250.2220, 19851.00
251.4370, 19718.00
252.6510, 19864.00
253.8660, 19848.00
255.0800, 19952.00
256.2940, 19957.00
257.5080, 19905.43
258.7220, 19929.83
259.9360, 19966.12
261.1490, 19931.00
262.3630, 20093.00
263.5760, 20228.00
264.7890, 20327.00
266.0020, 19943.00
267.2150, 20217.00
268.4270, 20139.00
269.6400, 20310.00
270.8520, 20325.00
272.0640, 20259.00
273.2760, 20412.00
274.4880, 20266.00
275.7000, 20495.00
276.9120, 20442.00
278.1230, 20717.00
279.3340, 20769.00
280.5450, 20566.00
281.7560, 20866.00
282.9670, 20911.00
284.1780, 20820.00
285.3880, 20874.00
286.5980, 21062.00
287.8090, 21113.00
289.0190, 21267.85
290.2290, 21370.00
291.4380, 21577.00
292.6480, 21705.02
293.8570, 21858.43
295.0670, 21979.00
296.2760, 22127.00
297.4850, 22197.00
298.6930, 22247.00
299.9020, 22238.00
301.1110, 22257.00
302.3190, 22270.96
303.5270, 22211.00
304.7350, 22242.00
305.9430, 22272.00
307.1510, 22320.12
308.3580, 22325.00
309.5660, 22472.00
310.7730, 22629.00
311.9800, 22693.00
313.1870, 22901.00
314.3940, 23299.00
315.6010, 23703.00
316.8070, 23888.00
318.0130, 24024.00
319.2200, 24184.00
320.4260, 24159.00
321.6310, 24370.00
322.8370, 24609.00
324.0430, 24889.00
325.2480, 25428.00
326.4540, 26199.00
327.6590, 27168.00
328.8640, 28409.00
330.0680, 29925.57
331.2730, 31794.00
332.4780, 33719.00
333.6820, 35944.00
334.8860, 38498.00
336.0900, 40794.00
337.2940, 42469.00
338.4980, 42906.00
339.7010, 42480.00
340.9050, 40678.00
342.1080, 38944.00
343.3110, 36762.00
344.5140, 34424.00
345.7170, 32303.00
346.9200, 30485.00
348.1220, 29125.00
349.3240, 27748.00
350.5270, 26989.00
351.7290, 26605.00
352.9310, 25940.00
354.1320, 25697.00
355.3340, 25328.00
356.5350, 25426.00
357.7370, 25109.00
358.9380, 24806.00
360.1390, 24736.00
361.3400, 24411.00
362.5400, 24482.00
363.7410, 24535.00
364.9410, 24319.00
366.1410, 24448.00
367.3410, 24466.00
368.5410, 24685.00
369.7410, 24636.00
370.9400, 24857.00
372.1400, 25116.00
373.3390, 25501.00
374.5380, 25503.00
375.7370, 25752.00
376.9360, 26021.00
378.1350, 26201.00
379.3330, 25925.00
380.5310, 25973.00
381.7300, 25956.00
382.9280, 26057.00
384.1260, 26338.00
385.3230, 26156.00
386.5210, 26848.00
387.7180, 27063.00
388.9160, 27449.00
390.1130, 28305.00
391.3100, 28881.00
392.5060, 29643.00
393.7030, 30418.00
394.9000, 30747.00
396.0960, 31117.00
397.2920, 31371.00
398.4880, 31228.00
399.6840, 31089.00
400.8800, 30626.00
402.0750, 30305.00
403.2710, 30123.00
404.4660, 29770.00
405.6610, 29677.00
406.8560, 29384.00
408.0510, 29326.00
409.2450, 29101.00
410.4400, 29314.00
411.6340, 29301.00
412.8280, 29270.00
414.0220, 29023.00
415.2160, 28968.00
416.4100, 28593.00
417.6030, 28324.00
418.7970, 27996.00
419.9900, 27595.00
421.1830, 27192.00
422.3760, 26612.00
423.5690, 26416.00
424.7610, 25992.00
425.9540, 25826.00
427.1460, 25481.00
428.3380, 25467.00
429.5300, 25170.00
430.7220, 25282.00
431.9140, 25457.00
433.1050, 25582.00
434.2970, 25758.28
435.4880, 25939.00
436.6790, 26105.00
437.8700, 26326.00
439.0610, 26479.00
440.2510, 26244.00
441.4420, 26384.00
442.6320, 25949.00
443.8220, 25730.00
445.0120, 25527.00
446.2020, 25453.00
447.3910, 25148.00
448.5810, 25098.77
449.7700, 25457.00
450.9600, 25065.00
452.1490, 25058.00
453.3370, 25355.00
454.5260, 25243.00
455.7150, 25010.00
456.9030, 25070.00
458.0910, 25314.00
459.2800, 25361.00
460.4670, 25225.00
461.6550, 25340.00
462.8430, 25404.00
464.0300, 25330.00
465.2180, 25435.00
466.4050, 25425.00
467.5920, 25486.00
468.7790, 25461.00
469.9650, 25465.46
471.1520, 25463.00
472.3380, 25462.00
473.5250, 25412.00
474.7110, 25446.00
475.8970, 25638.00
477.0820, 25424.00
478.2680, 25575.00
479.4540, 25556.00
480.6390, 25776.00
481.8240, 25636.00
483.0090, 25783.00
484.1940, 25704.00
485.3780, 25726.00
486.5630, 25829.00
487.7470, 25773.00
488.9320, 25754.00
490.1160, 25621.00
491.3000, 25652.00
492.4830, 26037.00
493.6670, 25887.00
494.8500, 25864.00
496.0340, 25730.00
497.2170, 26074.00
498.4000, 26092.00
499.5820, 26102.00
500.7650, 26009.00
501.9480, 26144.39
503.1300, 26230.00
504.3120, 26382.00
505.4940, 26405.00
506.6760, 26552.00
507.8580, 26648.00
509.0390, 26964.00
510.2210, 27097.00
511.4020, 27135.00
512.5830, 27471.00
513.7640, 27819.00
514.9450, 27914.00
516.1250, 28245.00
517.3060, 28462.00
518.4860, 28376.00
519.6660, 28609.00
520.8460, 29051.00
522.0260, 28871.00
523.2060, 29111.00
524.3850, 28831.00
525.5650, 28830.00
526.7440, 28538.00
527.9230, 28406.00
529.1020, 28308.00
530.2810, 28269.00
531.4590, 28565.00
532.6380, 28590.00
533.8160, 28910.00
534.9940, 28883.00
536.1720, 28916.00
537.3500, 28988.00
538.5270, 28811.00
539.7050, 29028.00
540.8820, 28809.00
542.0590, 29015.00
543.2360, 28630.00
544.4130, 28952.00
545.5900, 28636.00
546.7660, 28802.00
547.9430, 28643.00
549.1190, 28623.00
550.2950, 28407.00
551.4710, 28478.00
552.6470, 28470.00
553.8220, 28264.00
554.9980, 28056.00
556.1730, 27894.00
557.3480, 27936.00
558.5230, 27971.00
559.6980, 27714.00
560.8730, 27849.00
562.0470, 27785.00
563.2220, 27728.00
564.3960, 28022.00
565.5700, 28032.00
566.7440, 28161.00
567.9170, 28320.00
569.0910, 28323.00
570.2640, 28392.00
571.4380, 28493.00
572.6110, 28429.00
573.7840, 28378.00
574.9570, 28687.00
576.1290, 28337.00
577.3020, 28245.00
578.4740, 28481.00
579.6460, 28469.00
580.8180, 28492.00
581.9900, 28459.00
583.1620, 28355.00
584.3330, 28374.00
585.5040, 28369.00
586.6760, 28518.00
587.8470, 28523.00
589.0180, 28459.00
590.1880, 28609.00
591.3590, 28584.00
592.5290, 28619.57
593.7000, 28688.00
594.8700, 28631.00
596.0400, 28722.00
597.2090, 28639.00
598.3790, 28711.00
599.5490, 28543.00
600.7180, 28791.00
601.8870, 28889.00
603.0560, 28771.00
604.2250, 28911.00
605.3940, 28968.00
606.5620, 28933.00
607.7300, 29017.00
608.8990, 29042.77
610.0670, 29047.07
611.2350, 29137.00
612.4020, 29121.00
613.5700, 29164.00
614.7370, 29309.00
615.9050, 29253.00
617.0720, 29191.00
618.2390, 29418.00
619.4060, 29458.00
620.5720, 29548.00
621.7390, 29725.00
622.9050, 29624.00
624.0710, 29958.00
625.2370, 29998.00
626.4030, 30020.00
627.5690, 29953.00
628.7340, 30092.00
629.9000, 30138.00
631.0650, 30300.00
632.2300, 30412.74
633.3950, 30613.00
634.5600, 30687.00
635.7240, 30675.00
636.8890, 30817.00
638.0530, 30724.00
639.2170, 31122.00
640.3810, 31040.00
641.5450, 31319.00
642.7080, 31399.00
643.8720, 31672.00
645.0350, 31741.00
646.1980, 32176.00
647.3610, 32469.00
648.5240, 32773.00
649.6870, 33348.00
650.8490, 33912.00
652.0120, 34658.00
653.1740, 35747.00
654.3360, 36863.00
655.4980, 38195.00
656.6600, 39187.00
657.8210, 40515.00
658.9830, 41251.00
660.1440, 41734.00
661.3050, 41660.00
662.4660, 41074.00
663.6270, 40226.00
664.7870, 39329.00
665.9480, 38484.00
667.1080, 37419.00
668.2680, 37041.00
669.4280, 36761.00
670.5880, 36699.00
671.7480, 36970.00
672.9070, 37537.00
674.0670, 38169.00
675.2260, 39073.00
676.3850, 40385.00
677.5440, 41181.00
678.7030, 42698.00
679.8610, 43501.00
681.0200, 44318.00
682.1780, 44261.00
683.3360, 43894.00
684.4940, 42969.00
685.6520, 41574.00
686.8090, 39864.00
687.9670, 38615.00
689.1240, 37305.00
690.2810, 35866.00
691.4380, 35273.00
692.5950, 34505.00
693.7520, 34066.00
694.9080, 33365.00
696.0650, 33468.00
697.2210, 33068.00
698.3770, 32772.00
699.5330, 32406.00
700.6880, 32392.00
701.8440, 32238.00
702.9990, 32607.00
704.1550, 32198.00
705.3100, 32219.00
706.4650, 32456.00
707.6190, 32287.00
708.7740, 32381.00
709.9290, 32145.00
711.0830, 32326.00
712.2370, 32195.00
713.3910, 32405.00
714.5450, 32174.00
715.6980, 32285.00
716.8520, 32226.00
718.0050, 32253.00
719.1580, 32276.00
720.3110, 32441.00
721.4640, 32392.00
722.6170, 32469.00
723.7700, 32384.00
724.9220, 32410.00
726.0740, 32513.00
727.2260, 32658.00
728.3780, 32635.00
729.5300, 32303.00
730.6810, 32570.00
731.8330, 32368.00
732.9840, 32531.00
734.1350, 32819.00
735.2860, 32529.00
736.4370, 32864.00
737.5880, 32718.00
738.7380, 32948.00
739.8880, 32707.00
741.0390, 32500.00
742.1890, 32891.00
743.3380, 32797.00
744.4880, 33044.00
745.6380, 33103.00
746.7870, 33517.00
747.9360, 33336.00
749.0850, 33473.00
750.2340, 33195.00
751.3830, 33425.00
752.5310, 33135.00
753.6800, 33044.00
754.8280, 33293.00
755.9760, 33171.00
757.1240, 32960.00
758.2720, 33344.00
759.4190, 33010.00
760.5670, 33105.00
761.7140, 33184.00
762.8610, 33066.00
764.0080, 33098.00
765.1550, 33055.00
766.3020, 33056.00
767.4480, 33332.00
768.5950, 33100.00
769.7410, 33483.00
770.8870, 33264.00
772.0330, 33346.00
773.1780, 33294.00
774.3240, 33108.00
775.4690, 33397.00
776.6140, 33351.00
777.7590, 33450.00
778.9040, 33506.00
780.0490, 33479.00
781.1940, 33595.00
782.3380, 33651.00
783.4820, 33621.00
784.6260, 33479.00
785.7700, 33535.00
786.9140, 33685.00
788.0580, 33923.00
789.2010, 33811.00
790.3450, 33833.00
791.4880, 33962.00
792.6310, 33983.00
793.7730, 33789.00
794.9160, 34138.00
796.0590, 33798.00
797.2010, 33933.00
798.3430, 34027.00
799.4850, 34241.00
800.6270, 34165.00
801.7690, 34268.00
802.9100, 34407.00
804.0520, 34299.00
805.1930, 34311.00
806.3340, 34360.00
807.4750, 34436.00
808.6160, 34296.00
809.7560, 34304.00
810.8970, 34266.00
812.0370, 34457.00
813.1770, 34394.00
814.3170, 34698.00
815.4570, 34607.00
816.5960, 34593.00
817.7360, 34700.00
818.8750, 34736.00
820.0140, 34824.00
821.1530, 34672.00
822.2920, 35018.00
823.4310, 34988.00
824.5690, 34716.00
825.7070, 35077.00
826.8460, 35065.00
827.9840, 35091.00
829.1220, 35019.00
830.2590, 34908.00
831.3970, 35235.00
832.5340, 35072.00
833.6710, 35184.00
834.8080, 35331.00
835.9450, 35309.00
837.0820, 35519.00
838.2190, 35468.00
839.3550, 35606.00
840.4910, 35465.00
841.6270, 35569.00
842.7630, 35958.00
843.8990, 35780.00
845.0350, 35752.00
846.1700, 36027.00
847.3060, 35992.00
848.4410, 36327.00
849.5760, 36678.00
850.7100, 36705.00
851.8450, 37083.00
852.9800, 37223.00
854.1140, 37222.00
855.2480, 37406.00
856.3820, 37217.00
857.5160, 37066.00
858.6500, 37207.00
859.7830, 36912.00
860.9170, 37085.00
862.0500, 36764.00
863.1830, 36622.00
864.3160, 36857.00
865.4480, 36559.00
866.5810, 36819.00
867.7130, 36761.00
868.8460, 36376.00
869.9780, 36562.00
871.1100, 36459.00
872.2410, 36518.00
873.3730, 36713.00
874.5050, 36973.00
875.6360, 36535.00
876.7670, 36780.00
877.8980, 36670.00
879.0290, 36576.00
880.1590, 36608.00
881.2900, 36571.95
882.4200, 36645.29
883.5500, 36622.00
884.6800, 36828.00
885.8100, 36876.00
886.9400, 36946.00
888.0690, 37024.86
889.1990, 37092.00
890.3280, 37092.00
891.4570, 37124.00
892.5860, 37137.00
893.7140, 37162.73
894.8430, 37359.00
895.9710, 37261.00
897.1000, 37253.00
898.2280, 37387.00
899.3560, 37265.00
900.4830, 37685.00
901.6110, 37410.00
902.7380, 37441.00
903.8660, 37581.00
904.9930, 37427.00
906.1200, 37592.00
907.2460, 37438.00
908.3730, 37801.00
909.5000, 37851.00
910.6260, 37760.00
911.7520, 38044.00
912.8780, 38050.00
914.0040, 38167.00
915.1290, 38272.00
916.2550, 38445.93
917.3800, 38620.77
918.5050, 38874.00
919.6300, 38952.00
920.7550, 39156.00
921.8800, 39152.00
923.0040, 39478.00
924.1290, 39671.00
925.2530, 39810.00
926.3770, 39826.00
927.5010, 39983.00
928.6250, 39994.00
929.7480, 40103.00
930.8720, 40003.00
931.9950, 40178.00
933.1180, 39965.00
934.2410, 40117.00
935.3640, 39894.00
936.4860, 39928.00
937.6090, 40172.00
938.7310, 39888.00
939.8530, 39794.00
940.9750, 39961.00
942.0970, 39508.00
943.2180, 39533.00
944.3400, 39520.00
945.4610, 39329.00
946.5820, 39650.00
947.7030, 39323.00
948.8240, 39306.00
949.9450, 39435.00
951.0650, 39313.00
952.1860, 39362.00
953.3060, 39414.39
954.4260, 39370.86
955.5460, 39505.00
956.6650, 39409.00
957.7850, 39404.00
958.9040, 39491.00
960.0230, 39370.00
961.1420, 39482.00
962.2610, 39313.00
963.3800, 39310.00
964.4990, 39382.00
965.6170, 39749.00
966.7350, 39280.00
967.8530, 39788.00
968.9710, 39886.00
970.0890, 39718.00
971.2070, 39549.00
972.3240, 40115.00
973.4410, 39718.00
974.5580, 39972.00
975.6750, 39937.00
976.7920, 40014.00
977.9090, 40305.00
979.0250, 40424.00
980.1410, 40457.31
981.2580, 40391.00
982.3740, 40471.00
983.4890, 40572.00
984.6050, 40580.00
985.7200, 40701.40
986.8360, 40814.00
987.9510, 40900.00
989.0660, 41033.00
990.1810, 41147.00
991.2950, 41469.00
992.4100, 41810.00
993.5240, 42007.24
994.6390, 42199.00
995.7530, 42575.00
996.8660, 42946.00
997.9800, 43351.00
999.0940, 43917.00
1000.207, 44571.00
1001.320, 45202.00
1002.433, 45962.00
1003.546, 47159.00
1004.659, 48171.00
1005.772, 48795.00
1006.884, 50131.00
1007.996, 50848.00
1009.108, 51311.00
1010.220, 51477.00
1011.332, 51258.00
1012.444, 50998.00
1013.555, 50969.00
1014.666, 50843.00
1015.777, 50931.00
1016.888, 50915.00
1017.999, 51395.00
1019.110, 51978.00
1020.220, 52121.00
1021.331, 52649.00
1022.441, 52964.00
1023.551, 53730.00
1024.661, 54115.00
1025.770, 54639.00
1026.880, 54853.00
1027.989, 55178.00
1029.098, 55316.00
1030.207, 54881.00
1031.316, 54223.00
1032.425, 53590.00
1033.533, 52942.00
1034.642, 52012.00
1035.750, 51301.00
1036.858, 50133.00
1037.966, 49362.61
1039.073, 48306.00
1040.181, 47636.00
1041.288, 46981.00
1042.396, 46182.00
1043.503, 46047.00
1044.610, 45267.00
1045.716, 45014.00
1046.823, 44653.00
1047.929, 44302.00
1049.036, 44171.00
1050.142, 44085.00
1051.248, 43951.00
1052.353, 43816.00
1053.459, 44014.00
1054.564, 43727.00
1055.670, 43443.00
1056.775, 43651.00
1057.880, 43525.00
1058.985, 43146.00
1060.089, 43200.00
1061.194, 43303.00
1062.298, 42959.00
1063.402, 43357.00
1064.506, 42971.00
1065.610, 43351.00
1066.713, 43337.00
1067.817, 42915.00
1068.920, 42805.00
1070.023, 43030.00
1071.126, 43129.00
1072.229, 43100.00
1073.332, 43131.00
1074.435, 43215.00
1075.537, 43069.00
1076.639, 43348.00
1077.741, 43166.00
1078.843, 43232.00
1079.945, 43285.00
1081.046, 43558.00
1082.148, 43758.00
1083.249, 43860.00
1084.350, 43896.00
1085.451, 44006.00
1086.551, 43527.00
1087.652, 43799.00
1088.752, 43559.00
1089.853, 43324.00
1090.953, 43338.00
1092.053, 43562.00
1093.152, 43517.00
1094.252, 43781.00
1095.351, 43792.00
1096.451, 43779.00
1097.550, 43590.00
1098.649, 43461.00
1099.748, 43601.00
1100.846, 43512.76
1101.945, 43668.00
1103.043, 43670.00
1104.141, 43824.00
1105.239, 44093.00
1106.337, 44358.00
1107.434, 44244.00
1108.532, 43876.00
1109.629, 43827.00
1110.726, 44026.00
1111.823, 43947.00
1112.920, 44036.00
1114.017, 43906.00
1115.113, 44263.00
1116.210, 44093.00
1117.306, 44093.00
1118.402, 44382.00
1119.498, 44206.00
1120.593, 44298.00
1121.689, 44071.00
1122.784, 44435.00
1123.879, 44114.00
1124.974, 44644.00
1126.069, 44285.00
1127.164, 44424.00
1128.259, 44297.00
1129.353, 44480.00
1130.447, 44644.00
1131.541, 44638.00
1132.635, 44899.00
1133.729, 44625.00
1134.822, 44881.00
1135.916, 44903.00
1137.009, 44695.00
1138.102, 44828.00
1139.195, 45028.00
1140.288, 45004.00
1141.380, 45235.00
1142.473, 44963.00
1143.565, 45242.00
1144.657, 44805.00
1145.749, 45084.00
1146.841, 45064.00
1147.932, 45061.00
1149.024, 45248.00
1150.115, 45380.00
1151.206, 45169.00
1152.297, 45228.00
1153.388, 45343.00
1154.479, 45469.00
1155.569, 45261.00
1156.659, 45558.00
1157.750, 45303.00
1158.839, 45487.00
1159.929, 45524.00
1161.019, 45571.00
1162.108, 45536.00
1163.198, 45768.00
1164.287, 45881.00
1165.376, 45903.00
1166.465, 45943.00
1167.553, 46042.00
1168.642, 45756.00
1169.730, 45764.00
1170.818, 45841.00
1171.906, 45923.00
1172.994, 46038.00
1174.082, 46130.99
1175.170, 46146.00
1176.257, 46288.00
1177.344, 46219.00
1178.431, 46155.00
1179.518, 46056.00
1180.605, 46067.84
1181.691, 46046.73
1182.778, 46062.00
1183.864, 46194.00
1184.950, 46145.20
1186.036, 46451.00
1187.122, 46221.00
1188.207, 46338.00
1189.292, 46505.00
1190.378, 46422.00
1191.463, 46667.00
1192.548, 46661.00
1193.632, 46501.00
1194.717, 46506.00
1195.801, 46873.00
1196.886, 46698.00
1197.970, 46517.00
1199.054, 46875.00
1200.137, 46716.00
1201.221, 46902.00
1202.305, 47147.00
1203.388, 47004.00
1204.471, 47084.00
1205.554, 47052.00
1206.637, 47101.00
1207.719, 47155.00
1208.802, 46951.00
1209.884, 47333.00
1210.966, 47022.00
1212.048, 47552.00
1213.130, 47537.00
1214.212, 47608.00
1215.293, 47706.00
1216.374, 47828.00
1217.456, 47387.00
1218.536, 47515.00
1219.617, 47264.00
1220.698, 47863.00
1221.778, 47531.00
1222.859, 47731.00
1223.939, 47848.00
1225.019, 47716.00
1226.099, 47747.00
1227.178, 48058.00
1228.258, 47903.00
1229.337, 47962.00
1230.417, 48151.00
1231.496, 47874.00
1232.574, 48093.00
1233.653, 48077.00
1234.732, 48186.00
1235.810, 48184.00
1236.888, 48146.00
1237.966, 48275.00
1239.044, 48511.00
1240.122, 48629.00
1241.199, 48635.00
1242.277, 48724.00
1243.354, 48736.00
1244.431, 48608.00
1245.508, 48476.00
1246.585, 48624.00
1247.661, 48758.00
1248.738, 48799.00
1249.814, 48898.00
1250.890, 48989.00
1251.966, 48741.00
1253.042, 48813.00
1254.117, 48964.00
1255.193, 48899.00
1256.268, 49122.00
1257.343, 49003.00
1258.418, 49250.00
1259.493, 49131.00
1260.567, 49213.00
1261.642, 49427.00
1262.716, 49675.00
1263.790, 49191.00
1264.864, 49517.00
1265.938, 49356.00
1267.011, 49473.00
1268.085, 49721.00
1269.158, 49480.00
1270.231, 49681.00
1271.304, 49692.00
1272.377, 49786.00
1273.450, 49598.00
1274.522, 49644.00
1275.594, 49814.00
1276.666, 50000.00
1277.738, 50203.00
1278.810, 50249.65
1279.882, 50284.21
1280.953, 50370.00
1282.025, 50141.00
1283.096, 50262.00
1284.167, 50064.00
1285.238, 50403.00
1286.308, 50597.00
1287.379, 50509.00
1288.449, 50521.00
1289.519, 50524.00
1290.589, 50272.00
1291.659, 50301.00
1292.729, 50278.00
1293.798, 50620.00
1294.868, 50474.00
