##NAMES=Enstatite
##RRUFFID=R040093
##IDEAL CHEMISTRY=MgSiO_3_
##LOCALITY=Castle Rock, Pennsylvania, USA
##OWNER=RRUFF
##SOURCE=University of Arizona Mineral Museum
##DESCRIPTION=Dark green massive
##STATUS=The identification of this mineral has been confirmed by X-ray diffraction and chemical analysis
##URL=rruff.info/R040093
##MEASURED CHEMISTRY=(Mg_0.84_Fe_0.15_Al_0.01_)Si_1.00_O_3_
##PIN_ID=L00172
##ORIENTATION=Laser parallel to -c* (0 0 -1). Fiducial mark perpendicular to laser is parallel to a [1 0 0]
110.5040, 6365.000
111.7400, 6356.000
112.9760, 6553.000
114.2120, 6741.000
115.4470, 6905.000
116.6820, 6914.427
117.9170, 6779.000
119.1520, 6777.000
120.3870, 6464.000
121.6220, 6184.000
122.8560, 5908.000
124.0900, 5819.000
125.3240, 5727.000
126.5580, 5709.000
127.7920, 5816.000
129.0260, 5952.000
130.2590, 5911.000
131.4920, 5958.000
132.7250, 6097.000
133.9580, 6169.000
135.1910, 6153.000
136.4230, 6214.000
137.6560, 6326.000
138.8880, 6636.000
140.1200, 6660.000
141.3520, 6858.000
142.5830, 7182.000
143.8150, 7212.833
145.0460, 7390.773
146.2770, 7401.000
147.5080, 7557.000
148.7390, 7568.000
149.9700, 7602.000
151.2000, 7358.000
152.4310, 7173.000
153.6610, 7009.000
154.8910, 6854.701
156.1210, 6823.000
157.3500, 6696.000
158.5800, 6686.000
159.8090, 6803.000
161.0380, 6621.000
162.2670, 6718.000
163.4960, 6738.000
164.7240, 6689.000
165.9530, 6469.000
167.1810, 6490.000
168.4090, 6368.000
169.6370, 6349.000
170.8650, 6200.000
172.0920, 6229.000
173.3200, 6210.458
174.5470, 6262.666
175.7740, 6253.000
177.0010, 6433.000
178.2280, 6471.000
179.4540, 6501.000
180.6810, 6727.000
181.9070, 7003.000
183.1330, 7306.000
184.3590, 7702.000
185.5850, 8245.000
186.8100, 8743.000
188.0350, 9231.000
189.2610, 9664.000
190.4860, 10263.00
191.7110, 10705.00
192.9350, 10669.00
194.1600, 10657.00
195.3840, 10392.00
196.6080, 9924.000
197.8320, 9415.000
199.0560, 8949.000
200.2800, 8389.000
201.5030, 7992.000
202.7270, 7760.000
203.9500, 7653.000
205.1730, 7599.000
206.3950, 7495.759
207.6180, 7440.570
208.8410, 7419.000
210.0630, 7343.000
211.2850, 7315.000
212.5070, 7299.000
213.7290, 7324.000
214.9500, 7292.000
216.1720, 7462.000
217.3930, 7440.000
218.6140, 7664.000
219.8350, 7835.000
221.0560, 8115.000
222.2770, 8312.000
223.4970, 8675.000
224.7170, 9366.000
225.9370, 9967.000
227.1570, 10806.00
228.3770, 11732.00
229.5970, 12792.00
230.8160, 14233.00
232.0350, 15417.00
233.2540, 16855.00
234.4730, 18019.00
235.6920, 18689.00
236.9110, 18623.00
238.1290, 17489.00
239.3470, 15963.00
240.5650, 13983.00
241.7830, 12108.00
243.0010, 10345.00
244.2180, 8971.000
245.4360, 8277.000
246.6530, 7762.000
247.8700, 7293.000
249.0870, 7107.000
250.3040, 7066.000
251.5200, 7016.000
252.7370, 7121.000
253.9530, 7199.000
255.1690, 7370.000
256.3850, 7253.684
257.6000, 7458.000
258.8160, 7043.000
260.0310, 6760.000
261.2460, 6684.000
262.4610, 6681.000
263.6760, 6671.000
264.8910, 6812.000
266.1050, 6914.000
267.3200, 7069.000
268.5340, 7196.000
269.7480, 7583.000
270.9620, 7582.000
272.1750, 7811.000
273.3890, 7894.000
274.6020, 7810.000
275.8150, 7695.000
277.0280, 7389.000
278.2410, 7129.000
279.4540, 6979.000
280.6660, 6910.000
281.8790, 6795.000
283.0910, 6716.000
284.3030, 6774.000
285.5140, 6799.879
286.7260, 6948.000
287.9380, 7011.000
289.1490, 7321.000
290.3600, 7460.000
291.5710, 7799.000
292.7820, 8191.000
293.9920, 8647.000
295.2030, 8927.000
296.4130, 9127.000
297.6230, 9240.000
298.8330, 9360.000
300.0430, 9149.000
301.2520, 8997.000
302.4620, 8796.000
303.6710, 8644.000
304.8800, 8532.000
306.0890, 8670.000
307.2980, 8813.000
308.5070, 9051.000
309.7150, 9577.000
310.9230, 10141.00
312.1310, 10879.00
313.3390, 11567.00
314.5470, 12678.00
315.7550, 13515.00
316.9620, 14649.00
318.1690, 15469.00
319.3760, 16118.00
320.5830, 16453.00
321.7900, 16433.00
322.9960, 16681.00
324.2030, 16830.00
325.4090, 17364.00
326.6150, 18222.00
327.8210, 19203.00
329.0270, 20373.00
330.2320, 22100.00
331.4380, 24287.00
332.6430, 26555.00
333.8480, 29694.00
335.0530, 33161.00
336.2580, 36468.00
337.4620, 39929.00
338.6670, 42738.00
339.8710, 44559.00
341.0750, 45150.00
342.2790, 43635.00
343.4820, 40560.00
344.6860, 36792.00
345.8890, 32115.00
347.0920, 28100.00
348.2960, 24164.00
349.4980, 21046.00
350.7010, 18854.00
351.9040, 16806.00
353.1060, 15089.00
354.3080, 14076.00
355.5100, 12974.00
356.7120, 12400.00
357.9140, 11827.00
359.1150, 11439.00
360.3170, 11170.00
361.5180, 10756.00
362.7190, 10652.00
363.9200, 10579.00
365.1200, 10367.00
366.3210, 10370.00
367.5210, 10526.00
368.7210, 10589.00
369.9210, 10906.00
371.1210, 11036.00
372.3210, 11373.00
373.5200, 11833.00
374.7200, 12384.00
375.9190, 12872.00
377.1180, 13357.00
378.3170, 13871.00
379.5150, 14260.00
380.7140, 14571.00
381.9120, 14826.00
383.1110, 14799.00
384.3090, 14647.00
385.5060, 14602.00
386.7040, 14698.00
387.9020, 14814.00
389.0990, 15309.00
390.2960, 15828.00
391.4930, 16593.00
392.6900, 17413.00
393.8860, 18200.00
395.0830, 18923.00
396.2790, 19842.00
397.4750, 20301.00
398.6710, 20604.00
399.8670, 20609.00
401.0630, 20465.00
402.2580, 19930.00
403.4540, 19513.00
404.6490, 18559.00
405.8440, 17973.00
407.0390, 17407.00
408.2330, 16895.00
409.4280, 16379.02
410.6220, 15816.00
411.8160, 15471.00
413.0100, 15010.00
414.2040, 14682.00
415.3980, 14037.00
416.5910, 13188.00
417.7850, 12563.00
418.9780, 11689.00
420.1710, 11034.00
421.3640, 10222.00
422.5560, 9746.000
423.7490, 9195.000
424.9410, 8772.000
426.1330, 8246.000
427.3250, 7873.000
428.5170, 7576.000
429.7090, 7298.000
430.9000, 7150.000
432.0910, 7081.000
433.2820, 6859.000
434.4730, 6836.000
435.6640, 6765.000
436.8550, 6853.000
438.0450, 6777.000
439.2360, 6691.000
440.4260, 6573.000
441.6160, 6480.000
442.8060, 6550.000
443.9950, 6477.000
445.1850, 6417.000
446.3740, 6461.000
447.5630, 6413.000
448.7520, 6631.000
449.9410, 6720.000
451.1300, 6706.000
452.3180, 6946.000
453.5060, 6891.000
454.6950, 6956.000
455.8830, 6934.000
457.0700, 6809.000
458.2580, 6851.000
459.4450, 6728.000
460.6330, 6566.000
461.8200, 6575.000
463.0070, 6566.000
464.1940, 6621.000
465.3800, 6558.000
466.5670, 6568.000
467.7530, 6750.000
468.9390, 6713.000
470.1250, 6724.000
471.3110, 6714.000
472.4970, 6683.000
473.6820, 6506.000
474.8680, 6679.000
476.0530, 6367.000
477.2380, 6382.000
478.4230, 6414.000
479.6070, 6484.000
480.7920, 6546.000
481.9760, 6561.000
483.1600, 6574.000
484.3440, 6568.000
485.5280, 6461.000
486.7120, 6451.000
487.8950, 6379.000
489.0780, 6319.000
490.2620, 6153.000
491.4450, 6207.000
492.6270, 6107.394
493.8100, 6248.000
494.9920, 6056.000
496.1750, 5922.000
497.3570, 5972.000
498.5390, 5995.000
499.7210, 5951.000
500.9020, 6012.000
502.0840, 6100.000
503.2650, 6191.000
504.4460, 6314.000
505.6270, 6262.000
506.8080, 6562.000
507.9890, 6636.000
509.1690, 6959.000
510.3500, 7118.000
511.5300, 7574.000
512.7100, 7783.000
513.8900, 8399.000
515.0690, 8708.000
516.2490, 9181.000
517.4280, 9501.000
518.6070, 9981.000
519.7860, 10306.00
520.9650, 10673.00
522.1440, 10870.00
523.3220, 11232.00
524.5010, 11038.00
525.6790, 11162.00
526.8570, 10905.00
528.0350, 10673.00
529.2130, 10378.00
530.3900, 10234.00
531.5670, 10283.00
532.7450, 10368.00
533.9220, 10526.00
535.0980, 10858.00
536.2750, 11355.00
537.4520, 11356.00
538.6280, 11532.00
539.8040, 11314.00
540.9800, 11066.00
542.1560, 10632.00
543.3320, 10229.00
544.5070, 9951.000
545.6830, 9817.000
546.8580, 9641.000
548.0330, 9870.000
549.2080, 9729.000
550.3830, 9641.000
551.5570, 9528.000
552.7310, 9270.000
553.9060, 8803.000
555.0800, 8486.000
556.2540, 8167.000
557.4270, 7996.000
558.6010, 7833.000
559.7740, 7654.000
560.9470, 7733.000
562.1210, 7720.000
563.2930, 7829.000
564.4660, 8014.000
565.6390, 8231.000
566.8110, 8360.000
567.9830, 8721.000
569.1550, 8811.000
570.3270, 9284.000
571.4990, 9722.000
572.6710, 10083.00
573.8420, 10210.00
575.0130, 10411.00
576.1840, 10477.00
577.3550, 10147.00
578.5260, 9727.000
579.6970, 9290.000
580.8670, 8736.000
582.0370, 8496.000
583.2070, 8099.000
584.3770, 7728.000
585.5470, 7440.000
586.7170, 7400.000
587.8860, 7220.828
589.0550, 7117.021
590.2240, 7152.000
591.3930, 6940.000
592.5620, 6941.000
593.7310, 6826.000
594.8990, 6746.000
596.0670, 6639.000
597.2350, 6563.000
598.4030, 6483.000
599.5710, 6406.000
600.7390, 6304.000
601.9060, 6179.000
603.0740, 6156.000
604.2410, 6245.000
605.4080, 6163.000
606.5740, 6195.000
607.7410, 6200.000
608.9080, 6113.000
610.0740, 6068.000
611.2400, 6262.000
612.4060, 6177.000
613.5720, 6160.000
614.7370, 6081.000
615.9030, 6258.000
617.0680, 6174.000
618.2330, 6341.000
619.3980, 6488.000
620.5630, 6428.000
621.7280, 6475.000
622.8920, 6512.000
624.0570, 6615.000
625.2210, 6734.000
626.3850, 6819.000
627.5490, 6846.000
628.7120, 6957.000
629.8760, 6911.000
631.0390, 7191.000
632.2020, 7149.000
633.3650, 7238.000
634.5280, 7523.000
635.6910, 7513.000
636.8530, 7880.000
638.0160, 7945.000
639.1780, 8163.000
640.3400, 8524.000
641.5020, 8885.000
642.6640, 9245.000
643.8250, 9867.000
644.9870, 10367.00
646.1480, 11019.00
647.3090, 12065.00
648.4700, 12999.00
649.6300, 14349.00
650.7910, 15945.00
651.9510, 17889.76
653.1120, 20210.00
654.2720, 22772.00
655.4320, 25736.00
656.5910, 29057.00
657.7510, 32922.00
658.9100, 36052.00
660.0690, 38933.00
661.2290, 40651.00
662.3880, 40646.00
663.5460, 39453.00
664.7050, 37167.00
665.8630, 34349.00
667.0220, 31899.00
668.1800, 29896.00
669.3380, 28584.00
670.4950, 28386.00
671.6530, 29028.00
672.8100, 30434.00
673.9680, 32720.00
675.1250, 35700.00
676.2820, 39045.00
677.4390, 43127.00
678.5950, 47256.00
679.7520, 51192.00
680.9080, 54693.00
682.0640, 56425.00
683.2200, 56853.00
684.3760, 54634.00
685.5320, 50926.00
686.6870, 45753.00
687.8420, 40079.00
688.9980, 34214.00
690.1530, 29253.00
691.3070, 24854.00
692.4620, 21285.00
693.6170, 18752.00
694.7710, 16576.00
695.9250, 14831.00
697.0790, 13414.00
698.2330, 12273.00
699.3870, 11322.00
700.5400, 10594.00
701.6940, 10106.00
702.8470, 9591.000
704.0000, 9119.000
705.1530, 8876.000
706.3050, 8514.000
707.4580, 8228.000
708.6100, 7981.000
709.7630, 7763.000
710.9150, 7624.000
712.0660, 7489.000
713.2180, 7345.257
714.3700, 7229.000
715.5210, 7136.000
716.6720, 7063.000
717.8240, 7013.000
718.9740, 6941.497
720.1250, 6850.000
721.2760, 6846.000
722.4260, 6788.000
723.5770, 6776.000
724.7270, 6656.000
725.8770, 6695.000
727.0260, 6705.000
728.1760, 6786.000
729.3250, 6741.000
730.4750, 6674.000
731.6240, 6693.000
732.7730, 6670.000
733.9220, 6557.000
735.0700, 6529.000
736.2190, 6414.000
737.3670, 6513.000
738.5150, 6465.000
739.6630, 6357.000
740.8110, 6385.000
741.9590, 6281.000
743.1060, 6296.000
744.2540, 6323.000
745.4010, 6385.000
746.5480, 6281.000
747.6950, 6300.000
748.8410, 6244.000
749.9880, 6220.463
751.1340, 6227.000
752.2800, 6191.000
753.4260, 6160.000
754.5720, 6148.000
755.7180, 6123.195
756.8640, 5936.000
758.0090, 6063.000
759.1540, 5993.000
760.2990, 5895.000
761.4440, 5936.000
762.5890, 5862.000
763.7340, 5944.000
764.8780, 5842.000
766.0220, 5721.000
767.1660, 5691.000
768.3100, 5723.000
769.4540, 5751.000
770.5980, 5734.000
771.7410, 5731.000
772.8840, 5738.000
774.0280, 5630.000
775.1700, 5700.000
776.3130, 5629.000
777.4560, 5682.000
778.5980, 5758.000
779.7410, 5642.000
780.8830, 5631.000
782.0250, 5615.000
783.1670, 5652.000
784.3080, 5634.000
785.4500, 5643.440
786.5910, 5740.000
787.7320, 5675.000
788.8730, 5674.000
790.0140, 5743.000
791.1550, 5634.000
792.2950, 5659.000
793.4360, 5643.000
794.5760, 5662.000
795.7160, 5696.000
796.8560, 5622.000
797.9960, 5751.000
799.1350, 5664.000
800.2750, 5682.000
801.4140, 5742.000
802.5530, 5692.000
803.6920, 5804.000
804.8310, 5801.000
805.9690, 5745.000
807.1080, 5762.000
808.2460, 5861.000
809.3840, 5948.000
810.5220, 5790.000
811.6600, 5936.000
812.7970, 5784.000
813.9350, 5865.000
815.0720, 5855.000
816.2090, 5847.000
817.3460, 5876.000
818.4830, 5798.000
819.6200, 5825.000
820.7560, 5807.000
821.8930, 5824.000
823.0290, 5856.000
824.1650, 5919.000
825.3010, 5918.000
826.4360, 5913.000
827.5720, 5886.000
828.7070, 5922.000
829.8420, 5939.000
830.9770, 5956.000
832.1120, 5967.000
833.2470, 5866.000
834.3820, 5865.000
835.5160, 5917.000
836.6500, 5970.000
837.7840, 6007.000
838.9180, 6033.000
840.0520, 5970.000
841.1860, 6079.000
842.3190, 6168.000
843.4520, 6102.000
844.5850, 6220.000
845.7180, 6133.000
846.8510, 6227.000
847.9840, 6389.000
849.1160, 6285.000
850.2490, 6583.000
851.3810, 6619.000
852.5130, 6752.000
853.6450, 6950.000
854.7760, 7051.000
855.9080, 7208.000
857.0390, 7222.000
858.1700, 7318.000
859.3010, 7467.000
860.4320, 7377.000
861.5630, 7316.000
862.6930, 7350.000
863.8240, 7205.000
864.9540, 7152.920
866.0840, 7044.000
867.2140, 6939.000
868.3440, 6833.000
869.4730, 6685.000
870.6030, 6560.000
871.7320, 6573.000
872.8610, 6616.000
873.9900, 6518.000
875.1190, 6402.000
876.2470, 6421.000
877.3760, 6396.000
878.5040, 6376.000
879.6320, 6394.602
880.7600, 6446.000
881.8880, 6434.000
883.0150, 6414.000
884.1430, 6467.000
885.2700, 6429.000
886.3970, 6395.000
887.5240, 6488.000
888.6510, 6558.000
889.7780, 6618.000
890.9040, 6664.762
892.0310, 6666.000
893.1570, 6689.000
894.2830, 6662.000
895.4090, 6702.562
896.5350, 6702.000
897.6600, 6735.000
898.7860, 6783.000
899.9110, 6735.000
901.0360, 6863.000
902.1610, 6695.000
903.2860, 6777.000
904.4100, 6726.000
905.5350, 6777.000
906.6590, 6790.000
907.7830, 6854.000
908.9070, 7027.000
910.0310, 6992.000
911.1540, 7128.000
912.2780, 7147.000
913.4010, 7356.000
914.5240, 7415.000
915.6470, 7585.000
916.7700, 7757.000
917.8930, 8051.000
919.0150, 8223.000
920.1380, 8468.000
921.2600, 8730.000
922.3820, 9027.000
923.5040, 9756.000
924.6260, 10188.00
925.7470, 10754.00
926.8690, 11294.00
927.9900, 11712.00
929.1110, 12128.00
930.2320, 12547.00
931.3530, 12902.00
932.4730, 13273.38
933.5940, 13789.00
934.7140, 13938.00
935.8340, 14187.00
936.9540, 14467.00
938.0740, 14257.00
939.1930, 14389.00
940.3130, 14026.00
941.4320, 13836.00
942.5510, 13210.00
943.6700, 12658.00
944.7890, 12074.00
945.9080, 11585.69
947.0260, 11205.00
948.1450, 10719.00
949.2630, 10328.00
950.3810, 10047.00
951.4990, 9736.000
952.6170, 9527.000
953.7340, 9214.000
954.8520, 9099.000
955.9690, 8977.000
957.0860, 8827.000
958.2030, 8644.000
959.3200, 8734.000
960.4360, 8669.000
961.5530, 8581.000
962.6690, 8487.000
963.7850, 8406.000
964.9010, 8368.000
966.0170, 8502.000
967.1330, 8386.000
968.2480, 8509.772
969.3630, 8507.175
970.4790, 8692.000
971.5940, 8549.000
972.7080, 8637.000
973.8230, 8680.000
974.9380, 8785.000
976.0520, 8963.000
977.1660, 9119.000
978.2800, 9426.000
979.3940, 9668.000
980.5080, 9826.000
981.6220, 10026.00
982.7350, 10470.00
983.8480, 10814.00
984.9610, 11410.00
986.0740, 11790.00
987.1870, 12518.00
988.3000, 13380.00
989.4120, 14109.00
990.5250, 15399.00
991.6370, 16737.00
992.7490, 18439.00
993.8610, 20410.00
994.9720, 22869.00
996.0840, 25793.00
997.1950, 29509.00
998.3060, 33881.00
999.4170, 38875.00
1000.528, 45474.00
1001.639, 53052.00
1002.750, 62278.00
1003.860, 72118.00
1004.970, 83556.00
1006.080, 95026.00
1007.190, 104587.0
1008.300, 111478.0
1009.410, 113471.0
1010.519, 110298.0
1011.628, 102136.0
1012.738, 91469.00
1013.846, 80507.00
1014.955, 70715.00
1016.064, 63573.00
1017.172, 57927.00
1018.281, 53264.00
1019.389, 50358.00
1020.497, 48128.00
1021.605, 46563.00
1022.713, 45052.00
1023.820, 43807.00
1024.928, 42647.00
1026.035, 41778.00
1027.142, 40891.00
1028.249, 39991.00
1029.356, 39126.00
1030.462, 37829.00
1031.569, 36649.00
1032.675, 34706.00
1033.781, 33061.00
1034.887, 31002.00
1035.993, 29394.00
1037.098, 27657.00
1038.204, 25840.00
1039.309, 24284.00
1040.415, 22846.00
1041.520, 21270.00
1042.624, 19915.00
1043.729, 18663.00
1044.834, 17624.00
1045.938, 16248.00
1047.042, 15338.00
1048.146, 14729.00
1049.250, 13671.00
1050.354, 13156.00
1051.458, 12594.00
1052.561, 11991.00
1053.664, 11573.00
1054.767, 11204.00
1055.870, 10570.00
1056.973, 10429.00
1058.076, 10005.00
1059.178, 9869.000
1060.281, 9505.000
1061.383, 9284.000
1062.485, 9008.000
1063.587, 8925.000
1064.688, 8844.000
1065.790, 8421.000
1066.891, 8452.000
1067.993, 8347.000
1069.094, 8292.000
1070.195, 8121.000
1071.295, 7994.000
1072.396, 7916.000
1073.496, 7948.000
1074.597, 7762.000
1075.697, 7805.000
1076.797, 7770.000
1077.897, 7739.000
1078.996, 7743.000
1080.096, 7790.949
1081.195, 7863.206
1082.294, 7978.000
1083.393, 8089.000
1084.492, 8277.000
1085.591, 8414.000
1086.689, 8603.000
1087.788, 8907.000
1088.886, 9209.000
1089.984, 9251.000
1091.082, 9492.000
1092.180, 9636.000
1093.277, 9828.000
1094.375, 9732.000
1095.472, 9652.000
1096.569, 9483.000
1097.666, 9355.000
1098.763, 9099.679
1099.860, 8576.000
1100.956, 8502.000
1102.053, 8273.000
1103.149, 7901.000
1104.245, 7739.000
1105.341, 7699.000
1106.436, 7548.000
1107.532, 7362.000
1108.627, 7196.000
1109.723, 7262.000
1110.818, 7100.000
1111.913, 7050.000
1113.007, 6902.000
1114.102, 6911.000
1115.197, 6825.000
1116.291, 6792.000
1117.385, 6889.000
1118.479, 6888.000
1119.573, 6767.000
1120.666, 6849.000
1121.760, 6846.000
1122.853, 6779.989
1123.947, 6849.000
1125.040, 6686.000
1126.132, 6678.000
1127.225, 6641.000
1128.318, 6570.000
1129.410, 6669.000
1130.502, 6582.000
1131.595, 6567.000
1132.687, 6668.000
1133.778, 6609.000
1134.870, 6589.000
1135.961, 6565.000
1137.053, 6461.000
1138.144, 6583.000
1139.235, 6435.000
1140.326, 6483.000
1141.416, 6401.000
1142.507, 6388.000
1143.597, 6447.000
1144.688, 6382.000
1145.778, 6407.000
1146.868, 6431.000
1147.957, 6399.000
1149.047, 6349.000
1150.136, 6353.473
1151.226, 6320.849
1152.315, 6314.000
1153.404, 6295.000
1154.493, 6260.035
1155.581, 6259.836
1156.670, 6233.000
1157.758, 6279.000
1158.846, 6266.000
1159.934, 6259.000
1161.022, 6342.000
1162.110, 6325.000
1163.198, 6125.000
1164.285, 6220.000
1165.372, 6277.000
1166.459, 6106.000
1167.546, 6383.000
1168.633, 6212.000
1169.720, 6192.000
1170.806, 6320.000
1171.892, 6230.000
1172.979, 6281.000
1174.065, 6192.000
1175.150, 6129.000
1176.236, 6115.000
1177.322, 6137.000
1178.407, 6120.000
1179.492, 6066.000
1180.577, 6129.000
1181.662, 6016.000
1182.747, 6033.000
1183.832, 6025.989
1184.916, 6105.000
1186.000, 6021.000
1187.084, 6057.000
1188.168, 6065.000
1189.252, 6042.000
1190.336, 6056.226
1191.419, 6022.000
1192.503, 6029.000
1193.586, 6001.000
1194.669, 5952.000
1195.752, 5987.000
1196.835, 5951.000
1197.917, 6012.000
1199.000, 6077.000
1200.082, 6014.000
1201.164, 6072.000
1202.246, 6036.427
1203.328, 6001.000
1204.409, 5981.000
1205.491, 5998.000
1206.572, 5984.000
1207.653, 5896.000
1208.734, 6013.000
1209.815, 5843.000
1210.896, 6009.000
1211.976, 5995.000
1213.057, 5990.000
1214.137, 5984.000
1215.217, 5918.000
1216.297, 5951.000
1217.377, 5924.000
1218.456, 5961.000
1219.536, 5965.000
1220.615, 5987.000
1221.694, 5976.000
1222.773, 5965.000
1223.852, 5915.000
1224.931, 5986.000
1226.009, 5974.000
1227.088, 6040.000
1228.166, 6057.000
1229.244, 5974.000
1230.322, 6058.000
1231.400, 6004.000
1232.477, 6007.718
1233.555, 5950.000
1234.632, 5995.000
1235.709, 5966.000
1236.786, 5938.000
1237.863, 5977.000
1238.939, 5997.000
1240.016, 6018.000
1241.092, 5938.000
1242.168, 5918.000
1243.245, 5996.000
1244.320, 6094.000
1245.396, 5990.000
1246.472, 6003.000
1247.547, 6037.000
1248.622, 6024.000
1249.697, 5918.000
1250.772, 6114.000
1251.847, 5941.000
1252.922, 6060.000
1253.996, 6037.000
1255.071, 6122.000
1256.145, 5993.000
1257.219, 6037.000
1258.293, 6045.000
1259.366, 6028.000
1260.440, 6089.000
1261.513, 6074.000
1262.587, 6027.000
1263.660, 6040.000
1264.733, 6075.000
1265.805, 6104.000
1266.878, 6035.000
1267.951, 6096.000
1269.023, 6047.000
1270.095, 6093.000
1271.167, 6068.000
1272.239, 6078.822
1273.311, 6102.000
1274.382, 6112.000
1275.454, 6109.000
1276.525, 6145.000
1277.596, 6154.000
1278.667, 6192.000
1279.738, 6084.000
1280.808, 6082.000
1281.879, 6186.000
1282.949, 6309.000
1284.019, 6318.000
1285.089, 6223.000
1286.159, 6220.000
1287.229, 6134.000
1288.298, 6117.000
1289.368, 6145.000
