##NAMES=Enstatite
##RRUFFID=R040093
##IDEAL CHEMISTRY=MgSiO_3_
##LOCALITY=Castle Rock, Pennsylvania, USA
##OWNER=RRUFF
##SOURCE=University of Arizona Mineral Museum
##DESCRIPTION=Dark green massive
##STATUS=The identification of this mineral has been confirmed by X-ray diffraction and chemical analysis
##URL=rruff.info/R040093
##MEASURED CHEMISTRY=(Mg_0.84_Fe_0.15_Al_0.01_)Si_1.00_O_3_
##PIN_ID=L00094
##ORIENTATION=Laser parallel to -b* (0 -1 0). Fiducial mark perpendicular to laser is parallel to c [0 0 1]
103.0850, 16753.00
104.3220, 18000.00
105.5590, 18685.00
106.7950, 18975.00
108.0320, 18763.00
109.2680, 18362.00
110.5040, 18151.00
111.7400, 17988.00
112.9760, 18027.00
114.2120, 18131.00
115.4470, 18397.67
116.6820, 18826.00
117.9170, 19383.00
119.1520, 20129.00
120.3870, 21105.00
121.6220, 22075.00
122.8560, 23116.00
124.0900, 24569.00
125.3240, 26346.00
126.5580, 28312.00
127.7920, 30119.00
129.0260, 32186.00
130.2590, 33632.00
131.4920, 34090.00
132.7250, 33501.00
133.9580, 31902.00
135.1910, 29403.00
136.4230, 26455.00
137.6560, 23851.00
138.8880, 22189.00
140.1200, 21160.00
141.3520, 20250.00
142.5830, 19815.00
143.8150, 19308.00
145.0460, 18905.00
146.2770, 18568.00
147.5080, 18497.00
148.7390, 18124.00
149.9700, 17720.00
151.2000, 17191.00
152.4310, 17206.00
153.6610, 16843.00
154.8910, 16721.00
156.1210, 16819.00
157.3500, 16695.00
158.5800, 16859.00
159.8090, 16849.00
161.0380, 16831.00
162.2670, 16981.00
163.4960, 16855.00
164.7240, 16622.00
165.9530, 16695.00
167.1810, 16436.00
168.4090, 16262.00
169.6370, 16255.00
170.8650, 16269.80
172.0920, 16428.00
173.3200, 16527.00
174.5470, 16720.00
175.7740, 16853.00
177.0010, 17176.00
178.2280, 17383.00
179.4540, 17453.00
180.6810, 17697.00
181.9070, 17858.00
183.1330, 17917.00
184.3590, 18053.00
185.5850, 18085.00
186.8100, 18200.00
188.0350, 18360.00
189.2610, 18852.00
190.4860, 18787.00
191.7110, 19042.00
192.9350, 19190.00
194.1600, 19238.00
195.3840, 19166.00
196.6080, 18821.00
197.8320, 18500.00
199.0560, 17825.00
200.2800, 17376.00
201.5030, 17288.00
202.7270, 16972.00
203.9500, 16969.00
205.1730, 16759.00
206.3950, 16654.00
207.6180, 16799.00
208.8410, 16728.00
210.0630, 16766.00
211.2850, 16865.00
212.5070, 16975.71
213.7290, 17160.28
214.9500, 17393.00
216.1720, 17651.00
217.3930, 17994.00
218.6140, 18358.00
219.8350, 18815.00
221.0560, 19239.00
222.2770, 19552.00
223.4970, 20303.00
224.7170, 20584.00
225.9370, 21078.00
227.1570, 21804.00
228.3770, 22091.00
229.5970, 22922.00
230.8160, 23437.00
232.0350, 24126.00
233.2540, 24499.00
234.4730, 25016.00
235.6920, 25115.00
236.9110, 24677.00
238.1290, 24180.00
239.3470, 22574.00
240.5650, 21066.00
241.7830, 20398.00
243.0010, 18254.00
244.2180, 17178.00
245.4360, 16706.00
246.6530, 16486.00
247.8700, 16118.00
249.0870, 15932.00
250.3040, 15915.00
251.5200, 15960.00
252.7370, 16089.00
253.9530, 16321.00
255.1690, 16463.00
256.3850, 16400.87
257.6000, 17107.00
258.8160, 16180.00
260.0310, 15884.00
261.2460, 15705.00
262.4610, 16799.00
263.6760, 15828.00
264.8910, 16048.00
266.1050, 16009.00
267.3200, 15952.00
268.5340, 16126.00
269.7480, 16303.00
270.9620, 16454.00
272.1750, 16566.00
273.3890, 16638.00
274.6020, 16501.00
275.8150, 16322.00
277.0280, 16136.00
278.2410, 15938.00
279.4540, 15734.00
280.6660, 15617.00
281.8790, 15564.51
283.0910, 15454.00
284.3030, 15638.00
285.5140, 15701.00
286.7260, 15914.00
287.9380, 16248.00
289.1490, 16318.00
290.3600, 16524.00
291.5710, 16913.00
292.7820, 17183.00
293.9920, 17352.00
295.2030, 17801.00
296.4130, 17853.00
297.6230, 17795.00
298.8330, 18036.00
300.0430, 17893.00
301.2520, 17832.00
302.4620, 17704.00
303.6710, 17698.00
304.8800, 17675.00
306.0890, 17811.00
307.2980, 17842.00
308.5070, 17778.00
309.7150, 18105.00
310.9230, 18459.00
312.1310, 18664.00
313.3390, 19221.00
314.5470, 19391.00
315.7550, 20372.00
316.9620, 20775.00
318.1690, 21304.00
319.3760, 21996.00
320.5830, 22523.00
321.7900, 23163.00
322.9960, 24291.00
324.2030, 25264.00
325.4090, 25830.00
326.6150, 27241.00
327.8210, 28982.00
329.0270, 31162.00
330.2320, 33632.00
331.4380, 36409.00
332.6430, 39817.00
333.8480, 43524.00
335.0530, 47885.00
336.2580, 51779.00
337.4620, 55786.00
338.6670, 58190.00
339.8710, 60076.00
341.0750, 60378.00
342.2790, 58590.00
343.4820, 55503.00
344.6860, 51651.00
345.8890, 46769.00
347.0920, 42555.00
348.2960, 37921.00
349.4980, 34288.00
350.7010, 31084.00
351.9040, 29017.00
353.1060, 27219.00
354.3080, 25802.00
355.5100, 24887.00
356.7120, 24003.00
357.9140, 23287.00
359.1150, 22641.00
360.3170, 22096.96
361.5180, 21660.57
362.7190, 21277.00
363.9200, 21048.00
365.1200, 20786.00
366.3210, 20669.00
367.5210, 20482.00
368.7210, 20355.00
369.9210, 20377.00
371.1210, 20499.00
372.3210, 20634.00
373.5200, 20696.00
374.7200, 20565.00
375.9190, 21523.10
377.1180, 20856.00
378.3170, 22802.00
379.5150, 23256.00
380.7140, 22411.00
381.9120, 20961.00
383.1110, 20981.00
384.3090, 20764.00
385.5060, 20644.00
386.7040, 20886.00
387.9020, 21011.00
389.0990, 21276.00
390.2960, 21494.00
391.4930, 21771.00
392.6900, 22272.00
393.8860, 22668.00
395.0830, 23023.00
396.2790, 23462.00
397.4750, 23661.00
398.6710, 23848.00
399.8670, 23819.00
401.0630, 23607.00
402.2580, 23434.00
403.4540, 23380.00
404.6490, 23246.00
405.8440, 23163.00
407.0390, 22957.00
408.2330, 22713.00
409.4280, 22738.00
410.6220, 22578.00
411.8160, 22325.00
413.0100, 22227.00
414.2040, 21818.00
415.3980, 21589.00
416.5910, 21322.00
417.7850, 20802.00
418.9780, 20385.00
420.1710, 20207.00
421.3640, 19630.00
422.5560, 19485.00
423.7490, 19012.00
424.9410, 18926.00
426.1330, 18586.00
427.3250, 18426.00
428.5170, 18569.00
429.7090, 18559.00
430.9000, 18943.00
432.0910, 18932.00
433.2820, 19369.00
434.4730, 19695.00
435.6640, 20319.00
436.8550, 20645.00
438.0450, 20896.00
439.2360, 20961.63
440.4260, 20824.27
441.6160, 20605.00
442.8060, 20128.00
443.9950, 19558.00
445.1850, 18894.00
446.3740, 18290.00
447.5630, 17827.00
448.7520, 17507.00
449.9410, 17208.00
451.1300, 17021.00
452.3180, 17090.00
453.5060, 16871.00
454.6950, 16899.00
455.8830, 16941.00
457.0700, 16811.00
458.2580, 17000.00
459.4450, 16892.00
460.6330, 16690.00
461.8200, 16894.00
463.0070, 16725.00
464.1940, 16959.00
465.3800, 16600.00
466.5670, 16906.00
467.7530, 16877.00
468.9390, 16657.00
470.1250, 16608.00
471.3110, 16554.00
472.4970, 16572.00
473.6820, 16338.00
474.8680, 16147.00
476.0530, 16049.00
477.2380, 16037.00
478.4230, 15972.00
479.6070, 15878.00
480.7920, 15917.00
481.9760, 15894.00
483.1600, 16023.00
484.3440, 15894.00
485.5280, 15925.00
486.7120, 16014.00
487.8950, 16013.00
489.0780, 15913.00
490.2620, 15858.00
491.4450, 15753.00
492.6270, 15743.84
493.8100, 15724.75
494.9920, 15749.00
496.1750, 15742.00
497.3570, 15785.00
498.5390, 15787.89
499.7210, 15884.00
500.9020, 15896.00
502.0840, 15920.00
503.2650, 15982.00
504.4460, 15923.00
505.6270, 16050.00
506.8080, 16065.00
507.9890, 16134.00
509.1690, 16297.00
510.3500, 16313.00
511.5300, 16485.00
512.7100, 16711.00
513.8900, 16792.00
515.0690, 17049.00
516.2490, 17146.00
517.4280, 17318.00
518.6070, 17367.00
519.7860, 17420.00
520.9650, 17632.00
522.1440, 17750.00
523.3220, 17929.00
524.5010, 17846.00
525.6790, 17792.00
526.8570, 18071.00
528.0350, 18144.00
529.2130, 18453.00
530.3900, 18453.00
531.5670, 18709.00
532.7450, 19101.00
533.9220, 19275.00
535.0980, 19689.00
536.2750, 20034.00
537.4520, 20210.00
538.6280, 20146.00
539.8040, 20001.00
540.9800, 19684.00
542.1560, 19228.00
543.3320, 19261.00
544.5070, 18891.00
545.6830, 18733.00
546.8580, 18550.00
548.0330, 18600.00
549.2080, 18570.00
550.3830, 18244.00
551.5570, 18319.00
552.7310, 17899.00
553.9060, 17841.00
555.0800, 17743.00
556.2540, 17616.00
557.4270, 17545.25
558.6010, 17470.00
559.7740, 17435.00
560.9470, 17284.00
562.1210, 17379.00
563.2930, 17319.00
564.4660, 17233.00
565.6390, 17092.00
566.8110, 17183.96
567.9830, 17383.00
569.1550, 17363.00
570.3270, 17510.00
571.4990, 17622.00
572.6710, 17709.00
573.8420, 17824.00
575.0130, 17754.00
576.1840, 17621.00
577.3550, 17624.00
578.5260, 17485.00
579.6970, 17418.00
580.8670, 17284.00
582.0370, 17227.00
583.2070, 17292.00
584.3770, 17157.00
585.5470, 17174.00
586.7170, 17163.00
587.8860, 17046.00
589.0550, 17140.00
590.2240, 17185.00
591.3930, 16816.00
592.5620, 17109.00
593.7310, 17020.00
594.8990, 16835.00
596.0670, 17070.00
597.2350, 17071.00
598.4030, 16896.00
599.5710, 16961.00
600.7390, 16956.00
601.9060, 16926.00
603.0740, 16988.00
604.2410, 16970.00
605.4080, 16910.00
606.5740, 17107.00
607.7410, 17048.00
608.9080, 17003.00
610.0740, 17162.00
611.2400, 17060.00
612.4060, 17234.00
613.5720, 17170.00
614.7370, 17286.00
615.9030, 17327.00
617.0680, 17389.00
618.2330, 17398.00
619.3980, 17509.25
620.5630, 17648.00
621.7280, 17704.00
622.8920, 17830.00
624.0570, 17897.00
625.2210, 18040.00
626.3850, 18136.82
627.5490, 18462.00
628.7120, 18389.00
629.8760, 18711.00
631.0390, 18928.00
632.2020, 18968.00
633.3650, 19122.00
634.5280, 19507.00
635.6910, 19800.00
636.8530, 20048.00
638.0160, 20370.00
639.1780, 20783.00
640.3400, 21348.00
641.5020, 21935.00
642.6640, 22623.00
643.8250, 23226.00
644.9870, 24396.00
646.1480, 25211.00
647.3090, 26769.00
648.4700, 28242.00
649.6300, 30234.00
650.7910, 32509.00
651.9510, 35249.00
653.1120, 39086.00
654.2720, 42586.00
655.4320, 46793.00
656.5910, 51282.00
657.7510, 55559.00
658.9100, 59705.00
660.0690, 63388.00
661.2290, 65599.00
662.3880, 66561.00
663.5460, 66003.00
664.7050, 64019.00
665.8630, 61656.00
667.0220, 59693.00
668.1800, 58279.00
669.3380, 57344.00
670.4950, 58010.00
671.6530, 59248.00
672.8100, 61486.00
673.9680, 64199.00
675.1250, 67338.00
676.2820, 71071.00
677.4390, 74895.00
678.5950, 79178.00
679.7520, 82390.00
680.9080, 85436.00
682.0640, 86746.00
683.2200, 85942.00
684.3760, 83458.00
685.5320, 78538.00
686.6870, 71981.00
687.8420, 64460.00
688.9980, 57342.00
690.1530, 50360.00
691.3070, 44599.00
692.4620, 39598.00
693.6170, 36008.00
694.7710, 32781.00
695.9250, 30158.00
697.0790, 28277.00
698.2330, 26696.00
699.3870, 25540.00
700.5400, 24524.00
701.6940, 23419.00
702.8470, 22822.00
704.0000, 22266.00
705.1530, 21803.00
706.3050, 21251.00
707.4580, 21065.00
708.6100, 20513.00
709.7630, 20071.00
710.9150, 19991.00
712.0660, 19860.00
713.2180, 19675.00
714.3700, 19505.00
715.5210, 19253.00
716.6720, 18958.00
717.8240, 19008.00
718.9740, 18743.00
720.1250, 18615.00
721.2760, 18541.00
722.4260, 18460.00
723.5770, 18390.38
724.7270, 18316.00
725.8770, 18287.00
727.0260, 18249.00
728.1760, 18207.00
729.3250, 18170.00
730.4750, 18140.00
731.6240, 18220.00
732.7730, 18267.00
733.9220, 18269.00
735.0700, 18094.00
736.2190, 18213.00
737.3670, 17986.00
738.5150, 17960.00
739.6630, 18005.00
740.8110, 17994.00
741.9590, 17987.60
743.1060, 17855.00
744.2540, 17931.00
745.4010, 17931.00
746.5480, 17825.00
747.6950, 18016.00
748.8410, 18035.00
749.9880, 18006.00
751.1340, 17880.00
752.2800, 17840.00
753.4260, 18017.00
754.5720, 17791.00
755.7180, 17922.00
756.8640, 17710.00
758.0090, 17772.00
759.1540, 17689.00
760.2990, 17685.00
761.4440, 17578.00
762.5890, 17568.00
763.7340, 17479.00
764.8780, 17598.00
766.0220, 17634.00
767.1660, 17538.00
768.3100, 17570.00
769.4540, 17555.00
770.5980, 17508.48
771.7410, 17619.00
772.8840, 17456.24
774.0280, 17383.00
775.1700, 17375.00
776.3130, 17499.00
777.4560, 17423.00
778.5980, 17325.00
779.7410, 17432.00
780.8830, 17341.00
782.0250, 17489.00
783.1670, 17422.00
784.3080, 17324.00
785.4500, 17482.00
786.5910, 17424.00
787.7320, 17641.00
788.8730, 17461.00
790.0140, 17526.00
791.1550, 17403.00
792.2950, 17514.00
793.4360, 17472.69
794.5760, 17509.00
795.7160, 17452.00
796.8560, 17581.00
797.9960, 17568.00
799.1350, 17451.00
800.2750, 17628.00
801.4140, 17654.00
802.5530, 17558.00
803.6920, 17698.00
804.8310, 17582.00
805.9690, 17614.00
807.1080, 17616.00
808.2460, 17753.00
809.3840, 17796.00
810.5220, 17774.00
811.6600, 17794.00
812.7970, 17832.00
813.9350, 17707.00
815.0720, 18035.00
816.2090, 17785.00
817.3460, 17821.00
818.4830, 17981.00
819.6200, 17944.00
820.7560, 17856.00
821.8930, 17673.00
823.0290, 17853.00
824.1650, 17874.00
825.3010, 17986.00
826.4360, 18042.49
827.5720, 18034.27
828.7070, 18106.00
829.8420, 17966.00
830.9770, 17940.00
832.1120, 17817.00
833.2470, 18046.00
834.3820, 18120.00
835.5160, 17997.00
836.6500, 18178.00
837.7840, 18046.00
838.9180, 18086.00
840.0520, 18239.00
841.1860, 18266.00
842.3190, 18463.00
843.4520, 18461.00
844.5850, 18510.00
845.7180, 18609.00
846.8510, 18872.00
847.9840, 19012.00
849.1160, 19126.00
850.2490, 19658.00
851.3810, 19763.00
852.5130, 20156.00
853.6450, 20416.00
854.7760, 20918.00
855.9080, 21222.00
857.0390, 21509.00
858.1700, 21661.00
859.3010, 21713.00
860.4320, 21579.00
861.5630, 21522.13
862.6930, 21239.00
863.8240, 21091.00
864.9540, 20796.00
866.0840, 20586.57
867.2140, 20305.00
868.3440, 20147.00
869.4730, 19906.00
870.6030, 19714.00
871.7320, 19555.00
872.8610, 19437.00
873.9900, 19204.00
875.1190, 19273.00
876.2470, 19095.00
877.3760, 19121.00
878.5040, 18792.00
879.6320, 19071.00
880.7600, 18989.00
881.8880, 18793.00
883.0150, 18896.00
884.1430, 18995.00
885.2700, 18919.00
886.3970, 19096.00
887.5240, 19017.00
888.6510, 19088.00
889.7780, 19107.00
890.9040, 19078.00
892.0310, 19108.00
893.1570, 19205.00
894.2830, 19274.00
895.4090, 19269.70
896.5350, 19329.00
897.6600, 19278.00
898.7860, 19243.52
899.9110, 19285.00
901.0360, 19254.00
902.1610, 19184.00
903.2860, 19324.00
904.4100, 19365.00
905.5350, 19544.00
906.6590, 19440.00
907.7830, 19641.00
908.9070, 19639.00
910.0310, 19672.00
911.1540, 19764.00
912.2780, 19782.00
913.4010, 19961.00
914.5240, 20025.00
915.6470, 20176.00
916.7700, 20311.00
917.8930, 20373.00
919.0150, 20525.00
920.1380, 20712.48
921.2600, 20923.12
922.3820, 21199.00
923.5040, 21498.00
924.6260, 21881.00
925.7470, 22291.00
926.8690, 22719.00
927.9900, 23125.56
929.1110, 23340.00
930.2320, 23915.00
931.3530, 24020.00
932.4730, 24272.00
933.5940, 24931.00
934.7140, 25054.00
935.8340, 24916.00
936.9540, 25320.00
938.0740, 25043.00
939.1930, 25057.00
940.3130, 24896.00
941.4320, 24485.00
942.5510, 24367.00
943.6700, 23913.00
944.7890, 23562.00
945.9080, 23375.00
947.0260, 23125.00
948.1450, 22859.00
949.2630, 22738.00
950.3810, 22444.62
951.4990, 22096.00
952.6170, 22007.00
953.7340, 21861.00
954.8520, 21778.00
955.9690, 21505.00
957.0860, 21454.00
958.2030, 21319.00
959.3200, 21239.41
960.4360, 21317.00
961.5530, 21185.00
962.6690, 21206.00
963.7850, 21240.00
964.9010, 21179.00
966.0170, 21018.00
967.1330, 21177.00
968.2480, 20903.00
969.3630, 21197.00
970.4790, 21079.00
971.5940, 21160.00
972.7080, 21426.00
973.8230, 21433.00
974.9380, 21474.00
976.0520, 21610.00
977.1660, 21835.00
978.2800, 21912.00
979.3940, 22198.00
980.5080, 22405.00
981.6220, 22630.00
982.7350, 22912.00
983.8480, 23411.00
984.9610, 23682.00
986.0740, 24415.00
987.1870, 24962.00
988.3000, 25424.00
989.4120, 26451.00
990.5250, 27350.00
991.6370, 28832.00
992.7490, 30435.00
993.8610, 32059.00
994.9720, 34378.00
996.0840, 37296.00
997.1950, 40300.00
998.3060, 44220.00
999.4170, 48971.00
1000.528, 54718.00
1001.639, 60860.00
1002.750, 68418.00
1003.860, 77294.00
1004.970, 85958.00
1006.080, 94375.00
1007.190, 102149.0
1008.300, 106791.0
1009.410, 107912.0
1010.519, 104910.0
1011.628, 98364.00
1012.738, 89527.00
1013.846, 80149.00
1014.955, 71924.00
1016.064, 65388.00
1017.172, 60207.00
1018.281, 56439.00
1019.389, 52966.00
1020.497, 50785.00
1021.605, 48269.00
1022.713, 46954.00
1023.820, 45676.00
1024.928, 44009.00
1026.035, 42984.00
1027.142, 42179.00
1028.249, 40917.00
1029.356, 40015.00
1030.462, 38935.00
1031.569, 37812.00
1032.675, 36702.00
1033.781, 35623.62
1034.887, 34328.00
1035.993, 33465.00
1037.098, 32131.00
1038.204, 31043.00
1039.309, 30232.00
1040.415, 29155.00
1041.520, 28710.00
1042.624, 27846.00
1043.729, 27204.00
1044.834, 26819.00
1045.938, 26416.00
1047.042, 26121.00
1048.146, 26009.00
1049.250, 25607.00
1050.354, 25425.00
1051.458, 25330.00
1052.561, 25051.00
1053.664, 25121.00
1054.767, 24820.00
1055.870, 24731.00
1056.973, 24476.00
1058.076, 24500.00
1059.178, 24119.00
1060.281, 23947.00
1061.383, 23751.00
1062.485, 23503.00
1063.587, 23173.00
1064.688, 23027.00
1065.790, 22752.30
1066.891, 22557.00
1067.993, 22256.00
1069.094, 22266.00
1070.195, 21947.00
1071.295, 21887.00
1072.396, 21863.00
1073.496, 21374.00
1074.597, 21466.00
1075.697, 21225.00
1076.797, 21148.00
1077.897, 21073.00
1078.996, 21156.00
1080.096, 20972.00
1081.195, 20873.00
1082.294, 21091.00
1083.393, 21103.00
1084.492, 21187.00
1085.591, 21278.00
1086.689, 21229.00
1087.788, 21309.00
1088.886, 21417.00
1089.984, 21362.00
1091.082, 21547.00
1092.180, 21773.00
1093.277, 21494.00
1094.375, 21789.00
1095.472, 21396.00
1096.569, 21627.00
1097.666, 21493.00
1098.763, 21476.00
1099.860, 21336.00
1100.956, 21215.00
1102.053, 21118.00
1103.149, 21012.00
1104.245, 21107.00
1105.341, 20959.00
1106.436, 20680.00
1107.532, 20868.00
1108.627, 20494.00
1109.723, 20662.00
1110.818, 20437.00
1111.913, 20488.00
1113.007, 20507.00
1114.102, 20712.00
1115.197, 20506.00
1116.291, 20582.00
1117.385, 20754.00
1118.479, 20483.00
1119.573, 20454.00
1120.666, 20277.00
1121.760, 20312.00
1122.853, 20433.00
1123.947, 20182.00
1125.040, 20350.00
1126.132, 20343.00
1127.225, 20320.00
1128.318, 20533.00
1129.410, 20337.00
1130.502, 20396.00
1131.595, 20375.00
1132.687, 20124.00
1133.778, 20253.00
1134.870, 20252.00
1135.961, 20409.00
1137.053, 20195.00
1138.144, 20389.00
1139.235, 20166.00
1140.326, 20192.60
1141.416, 20141.64
1142.507, 20322.60
1143.597, 20419.28
1144.688, 20436.19
1145.778, 20134.48
1146.868, 20244.22
1147.957, 20189.08
1149.047, 20127.17
1150.136, 20294.83
1151.226, 20039.46
1152.315, 20203.48
1153.404, 20200.09
1154.493, 20273.32
1155.581, 20199.00
1156.670, 20252.00
1157.758, 20273.00
1158.846, 20247.00
1159.934, 20133.00
1161.022, 20336.00
1162.110, 20270.00
1163.198, 20106.00
1164.285, 20120.00
1165.372, 20315.00
1166.459, 20242.00
1167.546, 20176.00
1168.633, 20032.00
1169.720, 20214.00
1170.806, 20199.00
1171.892, 20297.00
1172.979, 20237.00
1174.065, 20282.00
1175.150, 20282.00
1176.236, 20174.00
1177.322, 20094.00
1178.407, 20426.00
1179.492, 20259.00
1180.577, 20086.00
1181.662, 20260.00
1182.747, 20120.00
1183.832, 20217.00
1184.916, 20068.00
1186.000, 20105.00
1187.084, 20393.00
1188.168, 20120.00
1189.252, 20220.00
1190.336, 20254.00
1191.419, 20123.00
1192.503, 20156.00
1193.586, 19970.00
1194.669, 20035.09
1195.752, 20192.00
1196.835, 20095.00
1197.917, 20105.00
1199.000, 20077.25
1200.082, 20252.00
1201.164, 20113.00
1202.246, 20256.00
1203.328, 20239.00
1204.409, 20168.00
1205.491, 20250.00
1206.572, 20298.00
1207.653, 20295.00
1208.734, 20310.46
1209.815, 20301.00
1210.896, 20324.00
1211.976, 20240.00
1213.057, 20351.00
1214.137, 20435.00
1215.217, 20297.00
1216.297, 20399.00
1217.377, 20292.00
1218.456, 20330.00
1219.536, 20462.00
1220.615, 20518.00
1221.694, 20585.00
1222.773, 20413.00
1223.852, 20378.00
1224.931, 20375.00
1226.009, 20574.00
1227.088, 20410.00
1228.166, 20548.00
1229.244, 20505.00
1230.322, 20678.00
1231.400, 20404.00
1232.477, 20390.00
1233.555, 20446.00
1234.632, 20446.00
1235.709, 20569.79
1236.786, 20580.19
1237.863, 20601.97
1238.939, 20667.00
1240.016, 20613.00
1241.092, 20668.00
1242.168, 20666.00
1243.245, 20638.00
1244.320, 20554.00
1245.396, 20756.00
1246.472, 20787.00
1247.547, 20507.00
1248.622, 20804.00
1249.697, 20641.00
1250.772, 20825.00
1251.847, 20658.00
1252.922, 20740.00
1253.996, 20920.00
1255.071, 20821.00
1256.145, 20945.00
1257.219, 20925.00
1258.293, 20764.00
1259.366, 20949.00
1260.440, 21034.00
1261.513, 20913.00
1262.587, 20957.00
1263.660, 21071.00
1264.733, 20942.00
1265.805, 21180.00
1266.878, 20971.00
1267.951, 21091.00
1269.023, 20862.00
1270.095, 20912.00
1271.167, 21083.00
1272.239, 21096.00
1273.311, 21206.11
1274.382, 21197.00
1275.454, 21317.00
1276.525, 21307.00
1277.596, 21231.00
1278.667, 21357.00
1279.738, 21215.00
1280.808, 21194.00
1281.879, 21210.00
1282.949, 21424.00
