##NAMES=Epididymite
##RRUFFID=R060773
##IDEAL CHEMISTRY=Na_2_Be_2_Si_6_O_15_&#183;H_2_O
##LOCALITY=unknown
##OWNER=RRUFF
##SOURCE=Michael Scott
##DESCRIPTION=Colorless platy crystals forming a pseudohexagonal aggregate
##STATUS=The identification of this mineral has been confirmed by single-crystal X-ray diffraction.
##URL=rruff.info/R060773
##PIN_ID=M00206
##ORIENTATION=Laser parallel to a* (1 0 0). Fiducial mark perpendicular to laser is parallel to b [0 1 0]
102.1160, 19036.00
103.3490, 19156.00
104.5820, 19316.00
105.8150, 19635.00
107.0470, 19989.00
108.2800, 20440.00
109.5120, 20719.00
110.7440, 20491.00
111.9760, 20770.00
113.2080, 21140.00
114.4400, 21574.00
115.6710, 21971.00
116.9030, 22341.00
118.1340, 22995.00
119.3650, 23571.00
120.5960, 24326.00
121.8270, 25019.00
123.0580, 25811.00
124.2880, 25868.00
125.5190, 25624.00
126.7490, 26088.00
127.9790, 26066.00
129.2090, 26208.00
130.4390, 25803.00
131.6680, 24916.00
132.8980, 23866.00
134.1270, 23091.00
135.3560, 22287.00
136.5850, 21701.00
137.8140, 21321.00
139.0430, 21222.00
140.2710, 20947.00
141.5000, 20869.00
142.7280, 20641.00
143.9560, 20571.00
145.1840, 20634.00
146.4120, 20475.00
147.6390, 20640.00
148.8670, 20107.00
150.0940, 19740.00
151.3210, 19596.00
152.5490, 18982.00
153.7750, 18741.00
155.0020, 18465.00
156.2290, 17971.00
157.4550, 17813.00
158.6810, 17623.00
159.9080, 17468.00
161.1340, 17246.00
162.3590, 17363.00
163.5850, 17397.00
164.8110, 17169.00
166.0360, 17141.00
167.2610, 17174.00
168.4860, 17337.00
169.7110, 17249.00
170.9360, 17136.00
172.1610, 17043.00
173.3850, 17131.00
174.6100, 17181.00
175.8340, 17103.00
177.0580, 17071.00
178.2820, 17274.00
179.5050, 17074.00
180.7290, 17442.00
181.9520, 17295.00
183.1760, 17360.00
184.3990, 17546.00
185.6220, 17608.00
186.8450, 17826.00
188.0670, 17894.00
189.2900, 17673.00
190.5120, 17858.00
191.7340, 17825.00
192.9560, 18055.00
194.1780, 18170.00
195.4000, 18195.00
196.6220, 18018.00
197.8430, 17991.00
199.0640, 18009.00
200.2860, 18129.00
201.5070, 17903.00
202.7270, 17946.00
203.9480, 17641.00
205.1690, 17463.00
206.3890, 17468.00
207.6090, 17353.00
208.8290, 17327.00
210.0490, 17478.00
211.2690, 17435.00
212.4890, 17461.00
213.7080, 17660.00
214.9280, 17666.00
216.1470, 17723.00
217.3660, 17830.00
218.5850, 17949.00
219.8030, 18379.00
221.0220, 18493.00
222.2400, 18638.00
223.4590, 19146.00
224.6770, 19292.00
225.8950, 19919.00
227.1120, 20336.00
228.3300, 21300.00
229.5480, 22010.00
230.7650, 23105.00
231.9820, 24187.00
233.1990, 24714.00
234.4160, 25442.00
235.6330, 26092.00
236.8490, 26171.00
238.0660, 26328.00
239.2820, 26058.00
240.4980, 25682.00
241.7140, 25210.00
242.9300, 24457.00
244.1460, 23746.00
245.3610, 22951.00
246.5770, 22249.00
247.7920, 21565.00
249.0070, 21216.00
250.2220, 20774.00
251.4370, 20415.00
252.6510, 20156.25
253.8660, 19890.00
255.0800, 19697.00
256.2940, 19604.00
257.5080, 19413.00
258.7220, 19555.00
259.9360, 19160.00
261.1490, 19115.00
262.3630, 18791.00
263.5760, 18651.56
264.7890, 18550.00
266.0020, 18347.00
267.2150, 18264.00
268.4270, 18055.00
269.6400, 18023.00
270.8520, 18297.00
272.0640, 18252.00
273.2760, 18316.77
274.4880, 18339.00
275.7000, 18330.00
276.9120, 18427.00
278.1230, 18373.00
279.3340, 18386.00
280.5450, 18410.00
281.7560, 18270.00
282.9670, 18334.00
284.1780, 18217.00
285.3880, 18229.00
286.5980, 17973.00
287.8090, 17893.00
289.0190, 17658.00
290.2290, 17880.00
291.4380, 17755.00
292.6480, 17839.00
293.8570, 17569.00
295.0670, 17652.00
296.2760, 17608.00
297.4850, 17581.00
298.6930, 17680.00
299.9020, 17660.00
301.1110, 17616.00
302.3190, 17789.00
303.5270, 17727.00
304.7350, 17617.00
305.9430, 17746.00
307.1510, 17775.00
308.3580, 17624.00
309.5660, 17828.00
310.7730, 17795.00
311.9800, 17775.00
313.1870, 17880.00
314.3940, 17846.00
315.6010, 18003.00
316.8070, 17864.00
318.0130, 18020.00
319.2200, 17988.00
320.4260, 18026.00
321.6310, 17882.00
322.8370, 18023.00
324.0430, 18047.00
325.2480, 18176.00
326.4540, 18093.00
327.6590, 18200.00
328.8640, 18199.00
330.0680, 18250.00
331.2730, 17977.00
332.4780, 18028.00
333.6820, 18204.00
334.8860, 18173.00
336.0900, 18368.00
337.2940, 18376.00
338.4980, 18487.00
339.7010, 18417.00
340.9050, 18617.00
342.1080, 18502.00
343.3110, 18616.00
344.5140, 18522.00
345.7170, 18800.00
346.9200, 18921.00
348.1220, 19084.00
349.3240, 19066.00
350.5270, 19052.00
351.7290, 19026.00
352.9310, 18904.00
354.1320, 19024.00
355.3340, 19015.00
356.5350, 18902.00
357.7370, 19084.00
358.9380, 19173.00
360.1390, 19110.00
361.3400, 19121.00
362.5400, 19197.00
363.7410, 19169.00
364.9410, 19406.00
366.1410, 19622.00
367.3410, 19524.00
368.5410, 19865.00
369.7410, 19739.00
370.9400, 20018.00
372.1400, 20518.00
373.3390, 20575.00
374.5380, 21136.00
375.7370, 21266.00
376.9360, 21595.00
378.1350, 21716.00
379.3330, 21597.00
380.5310, 21717.00
381.7300, 21668.00
382.9280, 21510.00
384.1260, 21311.00
385.3230, 21142.00
386.5210, 20877.00
387.7180, 20650.00
388.9160, 20601.00
390.1130, 20594.00
391.3100, 20494.00
392.5060, 20329.00
393.7030, 20831.00
394.9000, 21168.00
396.0960, 21873.00
397.2920, 22800.00
398.4880, 24149.00
399.6840, 25060.00
400.8800, 25700.00
402.0750, 26284.00
403.2710, 26561.00
404.4660, 26872.00
405.6610, 26588.00
406.8560, 25831.00
408.0510, 24638.00
409.2450, 23700.00
410.4400, 22659.00
411.6340, 21634.00
412.8280, 20924.00
414.0220, 20421.00
415.2160, 20027.00
416.4100, 19694.00
417.6030, 19514.00
418.7970, 19350.77
419.9900, 19319.00
421.1830, 19308.00
422.3760, 19190.00
423.5690, 19350.00
424.7610, 19305.00
425.9540, 19308.00
427.1460, 19460.00
428.3380, 19477.00
429.5300, 19400.00
430.7220, 19353.00
431.9140, 19528.00
433.1050, 19279.00
434.2970, 19557.00
435.4880, 19647.00
436.6790, 19589.00
437.8700, 19489.00
439.0610, 19525.00
440.2510, 19616.00
441.4420, 19467.00
442.6320, 19587.00
443.8220, 19624.00
445.0120, 19681.00
446.2020, 19614.00
447.3910, 19754.88
448.5810, 19811.00
449.7700, 19979.00
450.9600, 20067.00
452.1490, 20176.00
453.3370, 20450.00
454.5260, 20413.00
455.7150, 20702.00
456.9030, 20825.00
458.0910, 21247.00
459.2800, 21365.00
460.4670, 21656.00
461.6550, 22185.00
462.8430, 22889.00
464.0300, 24036.00
465.2180, 25382.00
466.4050, 27053.00
467.5920, 28811.00
468.7790, 30484.00
469.9650, 31171.00
471.1520, 31856.00
472.3380, 32200.00
473.5250, 32056.00
474.7110, 31333.00
475.8970, 29967.00
477.0820, 28484.00
478.2680, 26602.00
479.4540, 25447.00
480.6390, 24519.00
481.8240, 23585.00
483.0090, 23312.00
484.1940, 22776.00
485.3780, 22437.00
486.5630, 22166.00
487.7470, 22072.00
488.9320, 22065.00
490.1160, 21954.00
491.3000, 21956.00
492.4830, 22202.00
493.6670, 22079.00
494.8500, 22203.00
496.0340, 22209.00
497.2170, 22520.00
498.4000, 22798.00
499.5820, 23007.00
500.7650, 23274.00
501.9480, 23962.00
503.1300, 24562.00
504.3120, 25812.00
505.4940, 27060.00
506.6760, 29480.00
507.8580, 32206.00
509.0390, 36665.00
510.2210, 41271.00
511.4020, 46096.00
512.5830, 49816.00
513.7640, 52538.00
514.9450, 55144.00
516.1250, 55736.00
517.3060, 55353.00
518.4860, 53019.00
519.6660, 49226.00
520.8460, 44707.00
522.0260, 40227.00
523.2060, 36374.00
524.3850, 33113.00
525.5650, 30523.00
526.7440, 28207.00
527.9230, 26665.00
529.1020, 25613.00
530.2810, 24802.00
531.4590, 24041.00
532.6380, 23671.00
533.8160, 23453.00
534.9940, 22962.00
536.1720, 23008.00
537.3500, 22657.00
538.5270, 22686.00
539.7050, 22440.00
540.8820, 22310.00
542.0590, 22165.00
543.2360, 22079.00
544.4130, 21938.00
545.5900, 22053.00
546.7660, 21924.00
547.9430, 21785.00
549.1190, 21960.00
550.2950, 22015.00
551.4710, 21811.00
552.6470, 22020.00
553.8220, 21818.00
554.9980, 21843.54
556.1730, 21874.80
557.3480, 21815.00
558.5230, 21881.00
559.6980, 21864.00
560.8730, 21844.00
562.0470, 22033.00
563.2220, 21892.00
564.3960, 21984.00
565.5700, 21993.00
566.7440, 21960.00
567.9170, 21969.00
569.0910, 22113.00
570.2640, 22161.00
571.4380, 22391.00
572.6110, 22340.00
573.7840, 22616.00
574.9570, 22646.00
576.1290, 22851.00
577.3020, 22957.00
578.4740, 23018.00
579.6460, 23393.00
580.8180, 23355.00
581.9900, 23366.00
583.1620, 23233.00
584.3330, 23421.00
585.5040, 23266.00
586.6760, 23250.00
587.8470, 23060.00
589.0180, 22827.00
590.1880, 23116.00
591.3590, 22948.00
592.5290, 22866.00
593.7000, 23166.00
594.8700, 22866.00
596.0400, 23045.00
597.2090, 23117.00
598.3790, 23149.00
599.5490, 23123.00
600.7180, 23122.00
601.8870, 23156.66
603.0560, 22993.00
604.2250, 23222.00
605.3940, 23131.00
606.5620, 23155.00
607.7300, 23280.00
608.8990, 23218.00
610.0670, 23143.00
611.2350, 23183.00
612.4020, 23145.00
613.5700, 23380.00
614.7370, 23525.00
615.9050, 23623.00
617.0720, 23714.00
618.2390, 24115.00
619.4060, 24386.00
620.5720, 24655.00
621.7390, 24866.00
622.9050, 25353.00
624.0710, 25773.00
625.2370, 26116.00
626.4030, 26339.00
627.5690, 26253.00
628.7340, 26080.00
629.9000, 25867.00
631.0650, 25153.00
632.2300, 24983.00
633.3950, 24685.00
634.5600, 24420.00
635.7240, 24436.00
636.8890, 24248.00
638.0530, 24086.00
639.2170, 24354.00
640.3810, 24432.00
641.5450, 24748.00
642.7080, 24874.00
643.8720, 25137.00
645.0350, 25319.17
646.1980, 25504.00
647.3610, 25613.00
648.5240, 25724.00
649.6870, 25738.00
650.8490, 25573.00
652.0120, 25618.00
653.1740, 25468.00
654.3360, 25296.00
655.4980, 25293.00
656.6600, 24983.93
657.8210, 24567.00
658.9830, 24446.00
660.1440, 24108.00
661.3050, 23843.00
662.4660, 23769.00
663.6270, 23618.00
664.7870, 23504.00
665.9480, 23245.00
667.1080, 23526.00
668.2680, 23668.00
669.4280, 23934.00
670.5880, 23367.00
671.7480, 23445.00
672.9070, 23323.00
674.0670, 23299.00
675.2260, 23388.00
676.3850, 23143.00
677.5440, 23165.00
678.7030, 23033.00
679.8610, 23121.00
681.0200, 23458.00
682.1780, 23203.00
683.3360, 23269.00
684.4940, 23031.00
685.6520, 23134.00
686.8090, 23265.00
687.9670, 23410.00
689.1240, 23272.00
690.2810, 23346.00
691.4380, 23238.00
692.5950, 23349.00
693.7520, 23303.00
694.9080, 23345.00
696.0650, 23335.00
697.2210, 23350.00
698.3770, 23340.29
699.5330, 23314.77
700.6880, 23322.00
701.8440, 23296.00
702.9990, 23323.00
704.1550, 23413.00
705.3100, 23604.00
706.4650, 23525.00
707.6190, 23492.00
708.7740, 23372.00
709.9290, 23656.00
711.0830, 23645.00
712.2370, 23666.00
713.3910, 23728.00
714.5450, 23754.00
715.6980, 23792.00
716.8520, 23866.00
718.0050, 23738.00
719.1580, 23867.00
720.3110, 24064.00
721.4640, 24140.00
722.6170, 23937.00
723.7700, 23929.00
724.9220, 24112.00
726.0740, 24161.00
727.2260, 24239.00
728.3780, 24315.00
729.5300, 24393.00
730.6810, 24426.00
731.8330, 24413.00
732.9840, 24499.73
734.1350, 24559.62
735.2860, 24622.00
736.4370, 24725.00
737.5880, 24788.00
738.7380, 24834.00
739.8880, 24834.00
741.0390, 24773.00
742.1890, 24978.00
743.3380, 24813.00
744.4880, 25228.00
745.6380, 25201.00
746.7870, 25580.00
747.9360, 25493.00
749.0850, 25556.00
750.2340, 25756.00
751.3830, 25726.00
752.5310, 25710.00
753.6800, 25672.00
754.8280, 25849.00
755.9760, 25784.00
757.1240, 25890.00
758.2720, 25743.00
759.4190, 25567.00
760.5670, 25568.00
761.7140, 25671.00
762.8610, 25608.00
764.0080, 25670.00
765.1550, 25572.00
766.3020, 25674.00
767.4480, 25589.00
768.5950, 25597.00
769.7410, 25739.00
770.8870, 25475.00
772.0330, 25689.00
773.1780, 25654.00
774.3240, 25718.00
775.4690, 25738.00
776.6140, 25963.00
777.7590, 25938.00
778.9040, 25947.00
780.0490, 25618.00
781.1940, 25900.00
782.3380, 25979.00
783.4820, 26229.00
784.6260, 26014.00
785.7700, 26036.00
786.9140, 26106.00
788.0580, 26039.00
789.2010, 26031.00
790.3450, 26305.00
791.4880, 26329.00
792.6310, 26255.00
793.7730, 26579.00
794.9160, 26621.00
796.0590, 26556.00
797.2010, 26434.00
798.3430, 26408.00
799.4850, 26406.57
800.6270, 26439.33
801.7690, 26524.00
802.9100, 26648.00
804.0520, 26836.00
805.1930, 27048.00
806.3340, 26924.00
807.4750, 26983.00
808.6160, 27209.00
809.7560, 27388.00
810.8970, 27603.00
812.0370, 27470.00
813.1770, 27576.00
814.3170, 27506.00
815.4570, 27442.00
816.5960, 27566.00
817.7360, 27646.00
818.8750, 27435.00
820.0140, 27562.00
821.1530, 27596.00
822.2920, 27466.00
823.4310, 27638.00
824.5690, 27665.00
825.7070, 27609.00
826.8460, 27536.00
827.9840, 27704.00
829.1220, 27537.00
830.2590, 27626.00
831.3970, 27742.00
832.5340, 27790.00
833.6710, 27601.00
834.8080, 27422.00
835.9450, 27729.00
837.0820, 27827.00
838.2190, 27935.00
839.3550, 28044.00
840.4910, 28125.00
841.6270, 28198.37
842.7630, 28388.00
843.8990, 28480.06
845.0350, 28684.00
846.1700, 28779.00
847.3060, 29047.00
848.4410, 29270.00
849.5760, 29226.00
850.7100, 29379.00
851.8450, 29651.00
852.9800, 29995.00
854.1140, 30084.00
855.2480, 30340.00
856.3820, 30350.00
857.5160, 30860.00
858.6500, 30932.00
859.7830, 30911.00
860.9170, 31259.00
862.0500, 31290.00
863.1830, 30818.00
864.3160, 30674.00
865.4480, 30463.00
866.5810, 30030.00
867.7130, 29690.00
868.8460, 29723.00
869.9780, 29361.00
871.1100, 29190.00
872.2410, 29289.00
873.3730, 29223.00
874.5050, 29242.00
875.6360, 29182.02
876.7670, 29118.00
877.8980, 29058.00
879.0290, 29001.00
880.1590, 29030.00
881.2900, 29152.00
882.4200, 29106.00
883.5500, 29053.00
884.6800, 28966.00
885.8100, 28866.00
886.9400, 28854.00
888.0690, 29086.00
889.1990, 28946.00
890.3280, 29108.00
891.4570, 29084.00
892.5860, 29123.00
893.7140, 29173.43
894.8430, 29163.06
895.9710, 29175.00
897.1000, 29179.00
898.2280, 29091.00
899.3560, 29088.00
900.4830, 29036.00
901.6110, 29077.00
902.7380, 29310.00
903.8660, 29314.00
904.9930, 29529.00
906.1200, 29294.00
907.2460, 29064.00
908.3730, 29251.00
909.5000, 29263.00
910.6260, 29167.00
911.7520, 28939.00
912.8780, 29336.00
914.0040, 29061.00
915.1290, 29186.00
916.2550, 29280.00
917.3800, 29179.00
918.5050, 29087.00
919.6300, 28926.00
920.7550, 28890.00
921.8800, 28850.00
923.0040, 28740.00
924.1290, 28720.00
925.2530, 28960.00
926.3770, 29044.00
927.5010, 29022.00
928.6250, 29157.42
929.7480, 29145.00
930.8720, 29253.00
931.9950, 29170.00
933.1180, 29194.00
934.2410, 29259.00
935.3640, 29339.00
936.4860, 29321.42
937.6090, 29108.00
938.7310, 29265.00
939.8530, 29213.00
940.9750, 29098.00
942.0970, 29237.00
943.2180, 29156.00
944.3400, 29224.00
945.4610, 29263.00
946.5820, 29338.00
947.7030, 29359.60
948.8240, 29270.00
949.9450, 29427.00
951.0650, 29400.00
952.1860, 29475.00
953.3060, 29655.00
954.4260, 29666.00
955.5460, 29372.00
956.6650, 29653.00
957.7850, 29359.00
958.9040, 29686.00
960.0230, 29578.00
961.1420, 29787.00
962.2610, 29659.00
963.3800, 29525.00
964.4990, 29848.00
965.6170, 29635.00
966.7350, 29771.00
967.8530, 29504.00
968.9710, 29655.00
970.0890, 29790.00
971.2070, 29715.00
972.3240, 29597.00
973.4410, 29627.00
974.5580, 29614.00
975.6750, 29464.00
976.7920, 29568.00
977.9090, 29603.00
979.0250, 29559.00
980.1410, 29666.00
981.2580, 29776.00
982.3740, 29920.00
983.4890, 29849.00
984.6050, 30079.00
985.7200, 29963.00
986.8360, 30149.00
987.9510, 30491.00
989.0660, 30313.00
990.1810, 30360.00
991.2950, 30305.00
992.4100, 30404.00
993.5240, 30252.00
994.6390, 30564.00
995.7530, 30644.00
996.8660, 30729.00
997.9800, 31217.00
999.0940, 31374.00
1000.207, 32015.00
1001.320, 32626.00
1002.433, 33403.00
1003.546, 33496.00
1004.659, 33430.00
1005.772, 32524.00
1006.884, 31893.00
1007.996, 31368.00
1009.108, 31254.00
1010.220, 31028.00
1011.332, 31014.00
1012.444, 30998.00
1013.555, 30919.26
1014.666, 31276.00
1015.777, 31055.00
1016.888, 30999.00
1017.999, 31427.00
1019.110, 31470.00
1020.220, 31522.00
1021.331, 31595.00
1022.441, 31577.00
1023.551, 31646.00
1024.661, 31839.00
1025.770, 31677.00
1026.880, 31799.00
1027.989, 31691.00
1029.098, 31657.00
1030.207, 31629.00
1031.316, 31528.00
1032.425, 31651.00
1033.533, 31569.00
1034.642, 31565.53
1035.750, 31421.00
1036.858, 31557.00
1037.966, 31573.00
1039.073, 31642.00
1040.181, 31772.00
1041.288, 31815.00
1042.396, 31796.00
1043.503, 31819.00
1044.610, 32169.00
1045.716, 31931.00
1046.823, 32194.00
1047.929, 32179.00
1049.036, 32211.00
1050.142, 32148.00
1051.248, 32113.00
1052.353, 32312.00
1053.459, 32429.00
1054.564, 32066.00
1055.670, 32244.00
1056.775, 32114.00
1057.880, 32077.00
1058.985, 32026.00
1060.089, 31984.40
1061.194, 31990.82
1062.298, 31990.00
1063.402, 32000.00
1064.506, 32087.00
1065.610, 32064.00
1066.713, 32106.00
1067.817, 32208.00
1068.920, 32174.00
1070.023, 32122.00
1071.126, 32200.00
1072.229, 32219.00
1073.332, 31921.00
1074.435, 32221.00
1075.537, 32437.00
1076.639, 32219.00
1077.741, 32535.00
1078.843, 32607.00
1079.945, 32930.00
1081.046, 32887.00
1082.148, 32897.00
1083.249, 32915.00
1084.350, 32774.00
1085.451, 33067.00
1086.551, 32827.00
1087.652, 32964.00
1088.752, 33015.00
1089.853, 32872.00
1090.953, 32594.00
1092.053, 32638.00
1093.152, 32666.00
1094.252, 32754.00
1095.351, 32623.00
1096.451, 32537.00
1097.550, 32580.00
1098.649, 32698.00
1099.748, 32717.00
1100.846, 32775.00
1101.945, 32698.00
1103.043, 32774.00
1104.141, 32812.00
1105.239, 33017.00
1106.337, 33209.00
1107.434, 33205.00
1108.532, 33605.00
1109.629, 33675.00
1110.726, 33636.00
1111.823, 33690.00
1112.920, 33728.09
1114.017, 33706.01
1115.113, 33805.00
1116.210, 33681.00
1117.306, 33673.00
1118.402, 33635.00
1119.498, 33746.00
1120.593, 33964.00
1121.689, 33747.00
1122.784, 33750.00
1123.879, 34027.00
1124.974, 33889.00
1126.069, 33943.00
1127.164, 33874.00
1128.259, 33638.00
1129.353, 34030.00
1130.447, 33938.00
1131.541, 34370.00
1132.635, 34153.00
1133.729, 34375.00
1134.822, 34585.00
1135.916, 34852.00
1137.009, 34694.00
1138.102, 34927.00
1139.195, 34635.00
1140.288, 34530.00
1141.380, 34654.00
1142.473, 34304.00
1143.565, 34147.00
1144.657, 34312.00
1145.749, 33765.00
1146.841, 33625.00
1147.932, 33845.00
1149.024, 33441.00
1150.115, 33265.00
1151.206, 33353.00
1152.297, 33245.00
1153.388, 33179.00
1154.479, 33125.00
1155.569, 33334.00
1156.659, 33252.00
1157.750, 33589.00
1158.839, 33401.00
1159.929, 33594.00
1161.019, 33463.00
1162.108, 33456.00
1163.198, 33281.00
1164.287, 33553.00
1165.376, 33538.00
1166.465, 33541.00
1167.553, 33748.00
1168.642, 33893.00
1169.730, 33684.00
1170.818, 33623.00
1171.906, 33559.00
1172.994, 33848.00
1174.082, 33854.00
1175.170, 33577.00
1176.257, 33801.00
1177.344, 33555.00
1178.431, 33546.00
1179.518, 33752.00
1180.605, 33739.00
1181.691, 33840.00
1182.778, 33787.00
1183.864, 33826.00
1184.950, 33954.00
1186.036, 33811.00
1187.122, 33710.00
1188.207, 33507.00
1189.292, 33592.00
1190.378, 33766.00
1191.463, 33877.00
1192.548, 33765.00
1193.632, 33822.00
1194.717, 33658.00
1195.801, 33607.00
1196.886, 33487.00
1197.970, 33671.00
1199.054, 33773.00
1200.137, 33884.00
1201.221, 33732.00
1202.305, 33701.00
1203.388, 33774.00
1204.471, 33712.00
1205.554, 33883.00
1206.637, 34057.00
1207.719, 34136.00
1208.802, 33880.00
1209.884, 33948.00
1210.966, 34130.00
1212.048, 34070.00
1213.130, 34220.00
1214.212, 34345.00
1215.293, 34046.00
1216.374, 34409.00
1217.456, 34264.00
1218.536, 34384.00
1219.617, 34493.00
1220.698, 34290.00
1221.778, 34362.00
1222.859, 34250.00
1223.939, 34311.00
1225.019, 34624.00
1226.099, 34464.00
1227.178, 34730.00
1228.258, 34464.00
1229.337, 34496.00
1230.417, 34383.00
1231.496, 34827.00
1232.574, 34823.00
1233.653, 35056.00
1234.732, 35047.00
1235.810, 35066.00
1236.888, 35198.00
1237.966, 35113.00
1239.044, 35002.00
1240.122, 35493.00
1241.199, 35059.00
1242.277, 35297.00
1243.354, 35376.00
1244.431, 35211.00
1245.508, 35448.00
1246.585, 35115.00
1247.661, 35445.00
1248.738, 35371.00
1249.814, 35573.00
1250.890, 35645.00
1251.966, 35553.00
1253.042, 35348.00
1254.117, 35391.00
1255.193, 35532.00
1256.268, 35632.00
1257.343, 35344.00
1258.418, 35580.00
1259.493, 35493.00
1260.567, 35631.00
1261.642, 35714.00
1262.716, 36002.00
1263.790, 36175.00
1264.864, 36265.00
1265.938, 36433.00
1267.011, 36311.00
1268.085, 36561.00
1269.158, 36352.00
1270.231, 36546.00
1271.304, 36562.00
1272.377, 36783.00
1273.450, 36685.00
1274.522, 36931.00
1275.594, 36724.00
1276.666, 36788.00
1277.738, 36818.00
1278.810, 36928.00
1279.882, 36458.00
1280.953, 36604.00
1282.025, 36394.00
1283.096, 36295.00
1284.167, 36379.00
1285.238, 36117.00
1286.308, 36032.00
