##NAMES=Epidote
##RRUFFID=R050303
##IDEAL CHEMISTRY=Ca_2_Fe^3+^Al_2_(Si_2_O_7_)(SiO_4_)O(OH)
##LOCALITY=San Martin mine, Zacatecas, Mexico
##OWNER=RRUFF
##SOURCE=Eugene Schlepp
##DESCRIPTION=Green elongated prismatic crystals
##STATUS=The identification of this mineral has been confirmed by X-ray diffraction and chemical analysis
##URL=rruff.info/R050303
##MEASURED CHEMISTRY=Ca_2.00_Al_2.00_(Fe^3+^_0.97_Al_0.03_)(SiO_4_)(Si_2_O_7_)O(OH)
##PIN_ID=L01452
##ORIENTATION=Laser parallel to c* (0 0 1). Fiducial mark perpendicular to laser is parallel to a [1 0 0]
53.91000, 1440.000
55.14900, 1437.000
56.38700, 1505.000
57.62600, 1456.000
58.86400, 1477.000
60.10300, 1506.000
61.34100, 1541.000
62.57900, 1664.000
63.81700, 1792.000
65.05400, 1903.000
66.29200, 2099.444
67.52900, 2298.390
68.76700, 2504.000
70.00400, 2776.000
71.24100, 3060.789
72.47700, 3385.201
73.71400, 3751.000
74.95100, 4182.000
76.18700, 4637.000
77.42300, 5217.000
78.65900, 5914.000
79.89500, 6953.000
81.13100, 8190.000
82.36700, 9825.000
83.60200, 11540.00
84.83700, 13460.00
86.07200, 15742.00
87.30800, 17753.00
88.54200, 19613.00
89.77700, 21163.00
91.01200, 21931.00
92.24600, 23019.00
93.48000, 23218.00
94.71400, 22588.00
95.94800, 20984.00
97.18200, 18768.00
98.41600, 16824.00
99.64900, 14850.00
100.8830, 13109.00
102.1160, 12032.00
103.3490, 11015.00
104.5820, 10601.00
105.8150, 10290.00
107.0470, 10458.00
108.2800, 9813.155
109.5120, 9902.000
110.7440, 8958.000
111.9760, 8652.000
113.2080, 8444.000
114.4400, 8511.000
115.6710, 8446.000
116.9030, 8329.000
118.1340, 8138.000
119.3650, 8162.000
120.5960, 8053.000
121.8270, 8256.000
123.0580, 8341.000
124.2880, 8299.000
125.5190, 8378.000
126.7490, 8474.000
127.9790, 8546.000
129.2090, 8561.584
130.4390, 8530.767
131.6680, 8532.000
132.8980, 8351.000
134.1270, 8248.000
135.3560, 8082.000
136.5850, 8070.000
137.8140, 8170.000
139.0430, 8223.000
140.2710, 8241.000
141.5000, 8350.000
142.7280, 8342.000
143.9560, 8385.000
145.1840, 8399.000
146.4120, 8460.000
147.6390, 8275.000
148.8670, 8283.000
150.0940, 8370.000
151.3210, 8444.000
152.5490, 8542.000
153.7750, 8663.000
155.0020, 8990.000
156.2290, 9334.498
157.4550, 9803.000
158.6810, 10325.00
159.9080, 11002.00
161.1340, 11681.00
162.3590, 12515.00
163.5850, 13185.00
164.8110, 13547.00
166.0360, 13315.00
167.2610, 12896.00
168.4860, 12301.00
169.7110, 11469.00
170.9360, 10792.00
172.1610, 10119.00
173.3850, 9550.000
174.6100, 9034.000
175.8340, 8791.000
177.0580, 8570.000
178.2820, 8554.000
179.5050, 8463.000
180.7290, 8613.000
181.9520, 8530.000
183.1760, 8696.000
184.3990, 8856.000
185.6220, 8970.000
186.8450, 9097.000
188.0670, 9171.000
189.2900, 9438.000
190.5120, 9790.000
191.7340, 10236.00
192.9560, 10885.00
194.1780, 11364.00
195.4000, 12313.00
196.6220, 13026.00
197.8430, 13887.00
199.0640, 14430.00
200.2860, 14705.00
201.5070, 14773.00
202.7270, 14427.00
203.9480, 14791.00
205.1690, 13225.00
206.3890, 12893.00
207.6090, 12704.00
208.8290, 12420.00
210.0490, 12532.00
211.2690, 12750.00
212.4890, 13083.00
213.7080, 13409.00
214.9280, 14142.00
216.1470, 14844.00
217.3660, 15473.00
218.5850, 16316.00
219.8030, 17226.00
221.0220, 17999.00
222.2400, 18797.00
223.4590, 19022.00
224.6770, 18950.00
225.8950, 18418.00
227.1120, 17687.00
228.3300, 16457.00
229.5480, 15343.00
230.7650, 14320.00
231.9820, 13623.15
233.1990, 13091.42
234.4160, 12732.00
235.6330, 12663.00
236.8490, 12800.00
238.0660, 13071.00
239.2820, 13063.00
240.4980, 13049.00
241.7140, 12810.00
242.9300, 12429.00
244.1460, 11690.00
245.3610, 11608.00
246.5770, 11349.00
247.7920, 11146.00
249.0070, 10886.00
250.2220, 10808.00
251.4370, 10681.00
252.6510, 10672.00
253.8660, 10625.00
255.0800, 10863.00
256.2940, 10985.00
257.5080, 11473.00
258.7220, 12512.00
259.9360, 12862.00
261.1490, 13542.00
262.3630, 14800.00
263.5760, 16658.00
264.7890, 18939.00
266.0020, 21726.00
267.2150, 24730.00
268.4270, 28507.00
269.6400, 31976.00
270.8520, 34955.00
272.0640, 35964.00
273.2760, 34450.00
274.4880, 31200.00
275.7000, 27024.00
276.9120, 23662.00
278.1230, 20551.00
279.3340, 18166.00
280.5450, 16484.00
281.7560, 15276.00
282.9670, 14437.00
284.1780, 13937.00
285.3880, 13770.00
286.5980, 13637.00
287.8090, 13947.00
289.0190, 14604.00
290.2290, 15423.00
291.4380, 16095.00
292.6480, 16785.00
293.8570, 17421.00
295.0670, 17670.00
296.2760, 17672.00
297.4850, 17073.00
298.6930, 16417.00
299.9020, 15597.00
301.1110, 15034.00
302.3190, 14540.00
303.5270, 14160.00
304.7350, 13710.00
305.9430, 13339.00
307.1510, 13331.00
308.3580, 13275.00
309.5660, 13089.00
310.7730, 12831.00
311.9800, 12285.00
313.1870, 11854.00
314.3940, 11408.00
315.6010, 11152.00
316.8070, 11009.00
318.0130, 10802.00
319.2200, 10829.00
320.4260, 10609.00
321.6310, 10423.00
322.8370, 10208.00
324.0430, 9790.000
325.2480, 9598.000
326.4540, 9205.000
327.6590, 8776.000
328.8640, 8558.000
330.0680, 8155.000
331.2730, 7795.000
332.4780, 7584.000
333.6820, 7490.000
334.8860, 7382.000
336.0900, 7368.000
337.2940, 7256.000
338.4980, 7405.000
339.7010, 7546.000
340.9050, 7660.000
342.1080, 7986.000
343.3110, 8164.000
344.5140, 8373.000
345.7170, 8422.000
346.9200, 8607.000
348.1220, 8601.000
349.3240, 8623.000
350.5270, 8713.000
351.7290, 8527.000
352.9310, 8575.000
354.1320, 8534.000
355.3340, 8496.000
356.5350, 8562.000
357.7370, 8569.000
358.9380, 8555.000
360.1390, 8557.000
361.3400, 8530.565
362.5400, 8482.000
363.7410, 8459.000
364.9410, 8317.000
366.1410, 8243.000
367.3410, 8045.000
368.5410, 7996.000
369.7410, 7862.000
370.9400, 7893.000
372.1400, 7919.000
373.3390, 7789.000
374.5380, 7950.000
375.7370, 8016.000
376.9360, 8184.000
378.1350, 8435.000
379.3330, 8751.000
380.5310, 9035.000
381.7300, 9468.000
382.9280, 10087.00
384.1260, 10305.00
385.3230, 10359.00
386.5210, 10684.00
387.7180, 10398.00
388.9160, 10319.00
390.1130, 10029.00
391.3100, 9723.000
392.5060, 9562.000
393.7030, 9410.018
394.9000, 9434.000
396.0960, 9297.000
397.2920, 9332.000
398.4880, 9403.967
399.6840, 9672.000
400.8800, 9871.000
402.0750, 10137.00
403.2710, 10678.00
404.4660, 11103.00
405.6610, 11787.00
406.8560, 12663.00
408.0510, 13876.00
409.2450, 15268.00
410.4400, 17059.00
411.6340, 19447.00
412.8280, 22232.00
414.0220, 25679.00
415.2160, 29466.00
416.4100, 34199.00
417.6030, 39354.00
418.7970, 44014.00
419.9900, 47283.00
421.1830, 48993.00
422.3760, 47869.00
423.5690, 45115.00
424.7610, 41997.00
425.9540, 38815.00
427.1460, 35861.00
428.3380, 33264.00
429.5300, 31627.00
430.7220, 30253.00
431.9140, 29329.00
433.1050, 29064.00
434.2970, 28874.00
435.4880, 28909.00
436.6790, 29775.00
437.8700, 30950.00
439.0610, 32904.00
440.2510, 35450.00
441.4420, 38776.00
442.6320, 42255.00
443.8220, 46514.00
445.0120, 50791.00
446.2020, 54545.00
447.3910, 57282.00
448.5810, 59670.00
449.7700, 61228.00
450.9600, 62324.00
452.1490, 62265.00
453.3370, 60684.00
454.5260, 57719.00
455.7150, 53594.00
456.9030, 48573.00
458.0910, 43852.00
459.2800, 38578.00
460.4670, 34241.00
461.6550, 30272.00
462.8430, 27452.00
464.0300, 24488.00
465.2180, 22113.00
466.4050, 20296.00
467.5920, 18572.00
468.7790, 17200.00
469.9650, 16009.00
471.1520, 15107.00
472.3380, 14434.00
473.5250, 13663.00
474.7110, 13290.00
475.8970, 12920.00
477.0820, 12407.00
478.2680, 12493.00
479.4540, 12293.00
480.6390, 12148.00
481.8240, 12095.00
483.0090, 12082.00
484.1940, 12051.00
485.3780, 12169.00
486.5630, 12343.00
487.7470, 12600.00
488.9320, 12827.00
490.1160, 13062.00
491.3000, 13594.00
492.4830, 14156.00
493.6670, 14529.00
494.8500, 14951.00
496.0340, 15068.00
497.2170, 15366.00
498.4000, 15656.00
499.5820, 15589.00
500.7650, 15813.00
501.9480, 15670.00
503.1300, 16078.00
504.3120, 16312.00
505.4940, 16462.00
506.6760, 16658.00
507.8580, 16522.00
509.0390, 16470.00
510.2210, 16813.00
511.4020, 16909.00
512.5830, 17548.00
513.7640, 18358.00
514.9450, 19432.00
516.1250, 20705.00
517.3060, 21750.00
518.4860, 22401.00
519.6660, 22081.00
520.8460, 21618.00
522.0260, 19874.00
523.2060, 18171.00
524.3850, 16310.00
525.5650, 14761.00
526.7440, 13482.00
527.9230, 12578.00
529.1020, 11596.00
530.2810, 11185.00
531.4590, 10630.00
532.6380, 10343.00
533.8160, 10167.00
534.9940, 10062.00
536.1720, 10008.00
537.3500, 9943.000
538.5270, 10075.00
539.7050, 10214.00
540.8820, 10314.00
542.0590, 10553.00
543.2360, 10966.00
544.4130, 11199.00
545.5900, 11792.00
546.7660, 12396.00
547.9430, 13002.00
549.1190, 13910.00
550.2950, 15281.00
551.4710, 16761.00
552.6470, 18876.00
553.8220, 21940.00
554.9980, 25386.00
556.1730, 29777.00
557.3480, 35093.00
558.5230, 41156.00
559.6980, 46576.00
560.8730, 50581.00
562.0470, 50250.00
563.2220, 46980.00
564.3960, 41176.00
565.5700, 34969.00
566.7440, 29567.00
567.9170, 25361.00
569.0910, 22246.00
570.2640, 20219.00
571.4380, 18667.00
572.6110, 17977.00
573.7840, 17861.00
574.9570, 17867.00
576.1290, 18167.00
577.3020, 19079.00
578.4740, 19798.00
579.6460, 20731.00
580.8180, 21854.00
581.9900, 23220.00
583.1620, 24090.00
584.3330, 24962.00
585.5040, 25622.00
586.6760, 26620.00
587.8470, 27714.00
589.0180, 29166.00
590.1880, 31018.00
591.3590, 33058.00
592.5290, 34680.00
593.7000, 35697.00
594.8700, 36201.00
596.0400, 35617.00
597.2090, 34626.00
598.3790, 32874.00
599.5490, 31132.00
600.7180, 29220.00
601.8870, 27340.00
603.0560, 25621.00
604.2250, 24537.00
605.3940, 23542.00
606.5620, 22740.00
607.7300, 21770.00
608.8990, 21199.00
610.0670, 20181.00
611.2350, 19347.00
612.4020, 18481.00
613.5700, 17438.00
614.7370, 16252.00
615.9050, 15253.00
617.0720, 14238.00
618.2390, 13225.00
619.4060, 12475.00
620.5720, 11748.61
621.7390, 11099.00
622.9050, 10665.00
624.0710, 10160.00
625.2370, 9841.000
626.4030, 9561.000
627.5690, 9200.000
628.7340, 8899.000
629.9000, 8693.000
631.0650, 8458.000
632.2300, 8252.000
633.3950, 8039.000
634.5600, 7892.000
635.7240, 7735.931
636.8890, 7697.000
638.0530, 7502.000
639.2170, 7529.000
640.3810, 7467.000
641.5450, 7396.000
642.7080, 7355.000
643.8720, 7152.000
645.0350, 7217.000
646.1980, 7031.000
647.3610, 7142.000
648.5240, 6964.000
649.6870, 7136.000
650.8490, 7093.000
652.0120, 7090.000
653.1740, 7081.000
654.3360, 7132.000
655.4980, 7037.000
656.6600, 7223.000
657.8210, 7130.000
658.9830, 7129.000
660.1440, 7239.000
661.3050, 7246.000
662.4660, 7242.000
663.6270, 7295.000
664.7870, 7238.000
665.9480, 7338.000
667.1080, 7275.000
668.2680, 7171.000
669.4280, 7455.000
670.5880, 7403.000
671.7480, 7471.000
672.9070, 7601.000
674.0670, 7622.000
675.2260, 7738.000
676.3850, 7937.000
677.5440, 7949.000
678.7030, 8171.000
679.8610, 8223.000
681.0200, 8442.000
682.1780, 8630.000
683.3360, 8830.000
684.4940, 8849.000
685.6520, 8704.000
686.8090, 8619.000
687.9670, 8461.000
689.1240, 8086.000
690.2810, 7961.000
691.4380, 7607.000
692.5950, 7476.000
693.7520, 7116.000
694.9080, 6932.000
696.0650, 6772.000
697.2210, 6557.000
698.3770, 6530.000
699.5330, 6415.000
700.6880, 6251.000
701.8440, 6116.000
702.9990, 6110.000
704.1550, 6072.000
705.3100, 6029.000
706.4650, 6018.000
707.6190, 5905.000
708.7740, 5938.000
709.9290, 5789.000
711.0830, 5853.000
712.2370, 5744.000
713.3910, 5823.000
714.5450, 5796.000
715.6980, 5756.000
716.8520, 5728.000
718.0050, 5663.000
719.1580, 5673.344
720.3110, 5633.000
721.4640, 5699.000
722.6170, 5655.000
723.7700, 5695.000
724.9220, 5620.000
726.0740, 5636.000
727.2260, 5539.000
728.3780, 5548.000
729.5300, 5614.000
730.6810, 5569.000
731.8330, 5528.000
732.9840, 5544.000
734.1350, 5582.000
735.2860, 5550.000
736.4370, 5585.000
737.5880, 5607.000
738.7380, 5530.000
739.8880, 5594.000
741.0390, 5585.000
742.1890, 5517.000
743.3380, 5631.000
744.4880, 5607.000
745.6380, 5589.000
746.7870, 5594.000
747.9360, 5601.000
749.0850, 5578.000
750.2340, 5615.333
751.3830, 5613.053
752.5310, 5659.000
753.6800, 5646.000
754.8280, 5626.000
755.9760, 5656.000
757.1240, 5654.925
758.2720, 5652.000
759.4190, 5702.000
760.5670, 5667.000
761.7140, 5712.000
762.8610, 5651.000
764.0080, 5784.000
765.1550, 5687.000
766.3020, 5792.000
767.4480, 5596.000
768.5950, 5729.000
769.7410, 5751.000
770.8870, 5774.000
772.0330, 5746.000
773.1780, 5739.000
774.3240, 5758.000
775.4690, 5752.000
776.6140, 5802.000
777.7590, 5799.000
778.9040, 5802.000
780.0490, 5834.000
781.1940, 5808.000
782.3380, 5905.000
783.4820, 5822.000
784.6260, 5924.000
785.7700, 5863.000
786.9140, 5902.000
788.0580, 5821.000
789.2010, 5960.000
790.3450, 5939.000
791.4880, 5929.000
792.6310, 5938.000
793.7730, 5965.809
794.9160, 6065.000
796.0590, 6092.000
797.2010, 6101.000
798.3430, 6246.000
799.4850, 6263.000
800.6270, 6278.000
801.7690, 6361.497
802.9100, 6375.000
804.0520, 6447.000
805.1930, 6530.000
806.3340, 6551.000
807.4750, 6712.000
808.6160, 6701.000
809.7560, 6873.000
810.8970, 7023.000
812.0370, 7091.000
813.1770, 7208.000
814.3170, 7479.000
815.4570, 7690.000
816.5960, 7793.000
817.7360, 8089.000
818.8750, 8395.000
820.0140, 8704.000
821.1530, 9036.000
822.2920, 9334.000
823.4310, 9563.000
824.5690, 9932.000
825.7070, 10124.00
826.8460, 10141.00
827.9840, 10384.00
829.1220, 10405.00
830.2590, 10276.00
831.3970, 10032.00
832.5340, 10016.00
833.6710, 9777.000
834.8080, 9767.000
835.9450, 9835.000
837.0820, 9570.000
838.2190, 9605.000
839.3550, 9600.000
840.4910, 9676.000
841.6270, 9823.000
842.7630, 9844.000
843.8990, 9932.000
845.0350, 10204.00
846.1700, 10426.00
847.3060, 10563.00
848.4410, 10922.00
849.5760, 11104.00
850.7100, 11669.00
851.8450, 12001.00
852.9800, 12370.00
854.1140, 12861.00
855.2480, 13330.00
856.3820, 13902.00
857.5160, 14479.00
858.6500, 15027.00
859.7830, 15466.00
860.9170, 15985.00
862.0500, 16400.00
863.1830, 16941.00
864.3160, 17313.00
865.4480, 17695.00
866.5810, 17844.00
867.7130, 17949.00
868.8460, 18116.00
869.9780, 18238.00
871.1100, 18113.00
872.2410, 18144.00
873.3730, 18346.00
874.5050, 18596.00
875.6360, 18672.00
876.7670, 18824.00
877.8980, 18931.00
879.0290, 19261.00
880.1590, 19303.00
881.2900, 19597.00
882.4200, 19630.00
883.5500, 19512.00
884.6800, 19488.00
885.8100, 19318.00
886.9400, 19158.00
888.0690, 19008.00
889.1990, 18988.00
890.3280, 19163.00
891.4570, 19525.00
892.5860, 19834.00
893.7140, 20481.00
894.8430, 21213.00
895.9710, 22422.00
897.1000, 23560.00
898.2280, 25099.00
899.3560, 26681.00
900.4830, 28350.00
901.6110, 30625.00
902.7380, 32817.00
903.8660, 35424.00
904.9930, 37756.00
906.1200, 40980.00
907.2460, 43742.00
908.3730, 46284.00
909.5000, 48202.00
910.6260, 50197.00
911.7520, 51145.00
912.8780, 51241.00
914.0040, 49814.00
915.1290, 47855.00
916.2550, 44753.00
917.3800, 40920.00
918.5050, 37721.00
919.6300, 34014.00
920.7550, 30771.00
921.8800, 27838.00
923.0040, 25022.00
924.1290, 22754.00
925.2530, 20836.00
926.3770, 18959.00
927.5010, 17565.00
928.6250, 16254.00
929.7480, 15246.00
930.8720, 14512.00
931.9950, 13768.00
933.1180, 12975.00
934.2410, 12476.00
935.3640, 12089.00
936.4860, 11641.00
937.6090, 11247.00
938.7310, 11092.00
939.8530, 10934.00
940.9750, 10649.00
942.0970, 10524.00
943.2180, 10454.00
944.3400, 10481.00
945.4610, 10447.00
946.5820, 10286.00
947.7030, 10259.00
948.8240, 10318.00
949.9450, 10442.00
951.0650, 10415.00
952.1860, 10594.00
953.3060, 10557.00
954.4260, 10524.00
955.5460, 10679.00
956.6650, 10711.00
957.7850, 10580.00
958.9040, 10646.00
960.0230, 10608.00
961.1420, 10478.00
962.2610, 10805.00
963.3800, 10822.00
964.4990, 11124.00
965.6170, 11374.00
966.7350, 11728.00
967.8530, 12436.00
968.9710, 13276.00
970.0890, 14182.00
971.2070, 15400.00
972.3240, 16601.00
973.4410, 18051.00
974.5580, 19440.00
975.6750, 20283.00
976.7920, 20849.00
977.9090, 20709.00
979.0250, 20059.00
980.1410, 18844.00
981.2580, 17675.00
982.3740, 16082.00
983.4890, 14855.00
984.6050, 13557.00
985.7200, 12625.00
986.8360, 11712.00
987.9510, 11095.00
989.0660, 10557.00
990.1810, 10054.00
991.2950, 9604.000
992.4100, 9320.000
993.5240, 8907.000
994.6390, 8701.000
995.7530, 8475.000
996.8660, 8209.000
997.9800, 8155.000
999.0940, 7947.000
1000.207, 7642.000
1001.320, 7705.000
1002.433, 7535.000
1003.546, 7540.000
1004.659, 7594.000
1005.772, 7502.000
1006.884, 7627.000
1007.996, 7545.000
1009.108, 7614.000
1010.220, 7751.000
1011.332, 7834.000
1012.444, 7857.000
1013.555, 7995.000
1014.666, 8062.000
1015.777, 8290.000
1016.888, 8337.000
1017.999, 8235.000
1019.110, 8512.000
1020.220, 8572.000
1021.331, 8709.000
1022.441, 8960.000
1023.551, 9366.000
1024.661, 9720.000
1025.770, 10151.00
1026.880, 10592.00
1027.989, 11160.00
1029.098, 12023.00
1030.207, 12803.00
1031.316, 13615.00
1032.425, 14615.00
1033.533, 15474.00
1034.642, 16393.00
1035.750, 16846.00
1036.858, 17636.00
1037.966, 17680.00
1039.073, 17837.00
1040.181, 17443.00
1041.288, 17118.00
1042.396, 16694.00
1043.503, 15692.00
1044.610, 15266.00
1045.716, 14540.00
1046.823, 14027.00
1047.929, 13589.00
1049.036, 13119.00
1050.142, 12911.00
1051.248, 12843.00
1052.353, 12932.00
1053.459, 13243.00
1054.564, 13578.00
1055.670, 14004.00
1056.775, 14386.00
1057.880, 14650.00
1058.985, 14531.00
1060.089, 14551.00
1061.194, 14245.00
1062.298, 13941.00
1063.402, 13734.00
1064.506, 13477.00
1065.610, 13414.00
1066.713, 13657.00
1067.817, 13949.00
1068.920, 14334.00
1070.023, 15030.00
1071.126, 16081.00
1072.229, 16958.00
1073.332, 18469.00
1074.435, 20126.00
1075.537, 21926.00
1076.639, 24249.00
1077.741, 27019.00
1078.843, 30217.00
1079.945, 33485.00
1081.046, 36734.00
1082.148, 38860.00
1083.249, 39133.00
1084.350, 37698.00
1085.451, 34693.00
1086.551, 30834.00
1087.652, 26586.00
1088.752, 22786.00
1089.853, 19225.00
1090.953, 16546.00
1092.053, 14511.00
1093.152, 12811.00
1094.252, 11718.00
1095.351, 10702.00
1096.451, 9938.000
1097.550, 9359.000
1098.649, 9063.000
1099.748, 8688.000
1100.846, 8307.000
1101.945, 8060.000
1103.043, 7772.000
1104.141, 7606.000
1105.239, 7436.000
1106.337, 7295.000
1107.434, 7182.000
1108.532, 7117.000
1109.629, 6998.000
1110.726, 6909.000
1111.823, 6794.000
1112.920, 6754.000
1114.017, 6715.000
1115.113, 6683.000
1116.210, 6581.000
1117.306, 6504.000
1118.402, 6500.000
1119.498, 6448.000
1120.593, 6470.000
1121.689, 6413.000
1122.784, 6407.000
1123.879, 6288.000
1124.974, 6445.000
1126.069, 6319.000
1127.164, 6141.000
1128.259, 6325.000
1129.353, 6170.000
1130.447, 6243.000
1131.541, 6160.000
1132.635, 6173.000
1133.729, 6005.000
1134.822, 6009.000
1135.916, 6001.000
1137.009, 5966.000
1138.102, 5950.000
1139.195, 5919.701
1140.288, 5877.000
1141.380, 5843.000
1142.473, 5799.000
1143.565, 5731.000
1144.657, 5789.000
1145.749, 5694.000
1146.841, 5680.654
1147.932, 5714.000
1149.024, 5613.000
1150.115, 5603.000
1151.206, 5585.000
1152.297, 5598.000
1153.388, 5639.000
1154.479, 5604.000
1155.569, 5488.000
1156.659, 5508.000
1157.750, 5619.000
1158.839, 5427.000
1159.929, 5529.000
1161.019, 5373.000
1162.108, 5452.000
1163.198, 5444.000
1164.287, 5419.000
1165.376, 5429.000
1166.465, 5399.000
1167.553, 5440.000
1168.642, 5429.773
1169.730, 5429.000
1170.818, 5427.000
1171.906, 5381.000
1172.994, 5347.000
1174.082, 5277.000
1175.170, 5378.000
1176.257, 5291.000
1177.344, 5376.000
1178.431, 5362.000
1179.518, 5305.000
1180.605, 5344.000
1181.691, 5320.000
1182.778, 5320.000
1183.864, 5341.000
1184.950, 5244.000
1186.036, 5324.000
1187.122, 5230.000
1188.207, 5256.000
1189.292, 5333.000
1190.378, 5212.000
1191.463, 5209.000
1192.548, 5204.000
1193.632, 5237.000
1194.717, 5158.000
1195.801, 5298.000
1196.886, 5210.000
1197.970, 5261.000
1199.054, 5265.000
1200.137, 5322.000
1201.221, 5193.000
1202.305, 5201.000
1203.388, 5217.000
1204.471, 5275.000
1205.554, 5209.000
1206.637, 5169.000
1207.719, 5162.000
1208.802, 5173.000
1209.884, 5127.000
1210.966, 5202.000
1212.048, 5212.000
1213.130, 5165.000
1214.212, 5186.000
1215.293, 5207.000
1216.374, 5119.000
1217.456, 5175.000
1218.536, 5180.000
1219.617, 5058.000
1220.698, 5186.000
1221.778, 5185.000
1222.859, 5138.000
1223.939, 5184.000
1225.019, 5175.000
1226.099, 5150.000
1227.178, 5076.000
1228.258, 5227.000
1229.337, 5127.000
1230.417, 5204.000
1231.496, 5164.000
1232.574, 5160.000
1233.653, 5083.000
1234.732, 5101.000
1235.810, 5090.000
1236.888, 5181.000
1237.966, 5053.000
1239.044, 5154.000
