##NAMES=Epidote
##RRUFFID=R050303
##IDEAL CHEMISTRY=Ca_2_Fe^3+^Al_2_(Si_2_O_7_)(SiO_4_)O(OH)
##LOCALITY=San Martin mine, Zacatecas, Mexico
##OWNER=RRUFF
##SOURCE=Eugene Schlepp
##DESCRIPTION=Green elongated prismatic crystals
##STATUS=The identification of this mineral has been confirmed by X-ray diffraction and chemical analysis
##URL=rruff.info/R050303
##MEASURED CHEMISTRY=Ca_2.00_Al_2.00_(Fe^3+^_0.97_Al_0.03_)(SiO_4_)(Si_2_O_7_)O(OH)
##PIN_ID=L01452
##ORIENTATION=Laser parallel to c* (0 0 1). Fiducial mark perpendicular to laser is parallel to a [1 0 0]
53.91000, 1277.000
55.14900, 1309.000
56.38700, 1304.000
57.62600, 1294.000
58.86400, 1401.000
60.10300, 1448.000
61.34100, 1491.000
62.57900, 1589.000
63.81700, 1721.000
65.05400, 1862.000
66.29200, 2049.000
67.52900, 2346.000
68.76700, 2830.000
70.00400, 3278.000
71.24100, 3609.000
72.47700, 4057.000
73.71400, 4639.000
74.95100, 5537.000
76.18700, 6407.000
77.42300, 7333.000
78.65900, 8542.000
79.89500, 10182.00
81.13100, 12175.00
82.36700, 15003.00
83.60200, 18048.00
84.83700, 21672.00
86.07200, 26021.00
87.30800, 30547.00
88.54200, 35125.00
89.77700, 40297.00
91.01200, 45132.00
92.24600, 50561.00
93.48000, 54418.00
94.71400, 56579.00
95.94800, 54274.00
97.18200, 48479.00
98.41600, 41310.00
99.64900, 34680.00
100.8830, 28507.00
102.1160, 24169.00
103.3490, 20692.00
104.5820, 18645.00
105.8150, 17387.00
107.0470, 17501.00
108.2800, 17875.00
109.5120, 17284.00
110.7440, 13333.00
111.9760, 12273.00
113.2080, 11999.00
114.4400, 12092.00
115.6710, 11940.00
116.9030, 11755.00
118.1340, 11491.00
119.3650, 11227.00
120.5960, 11198.00
121.8270, 11588.00
123.0580, 11881.00
124.2880, 11906.00
125.5190, 11482.00
126.7490, 11407.00
127.9790, 11243.00
129.2090, 11078.00
130.4390, 11001.86
131.6680, 10866.00
132.8980, 10830.00
134.1270, 10769.00
135.3560, 10725.00
136.5850, 10861.00
137.8140, 10928.00
139.0430, 10921.00
140.2710, 10781.00
141.5000, 10857.00
142.7280, 10741.00
143.9560, 10883.00
145.1840, 10846.00
146.4120, 10790.00
147.6390, 10977.00
148.8670, 10955.00
150.0940, 11153.00
151.3210, 11403.00
152.5490, 11559.00
153.7750, 11826.00
155.0020, 12439.00
156.2290, 12936.00
157.4550, 13636.00
158.6810, 14462.00
159.9080, 15417.00
161.1340, 16571.00
162.3590, 18155.00
163.5850, 19498.00
164.8110, 20625.00
166.0360, 21469.00
167.2610, 22191.00
168.4860, 22260.00
169.7110, 21977.00
170.9360, 21112.00
172.1610, 19692.00
173.3850, 18297.00
174.6100, 17118.00
175.8340, 16029.00
177.0580, 15122.00
178.2820, 14426.00
179.5050, 13815.00
180.7290, 13686.00
181.9520, 13937.00
183.1760, 13960.00
184.3990, 14193.00
185.6220, 14120.00
186.8450, 13732.00
188.0670, 13408.00
189.2900, 13128.00
190.5120, 13030.00
191.7340, 13072.00
192.9560, 13415.00
194.1780, 13548.00
195.4000, 14201.00
196.6220, 14653.00
197.8430, 15074.00
199.0640, 15480.00
200.2860, 15583.00
201.5070, 15269.00
202.7270, 15071.00
203.9480, 14407.00
205.1690, 13705.00
206.3890, 13665.00
207.6090, 13381.00
208.8290, 13360.00
210.0490, 13654.00
211.2690, 13852.00
212.4890, 14321.00
213.7080, 14966.00
214.9280, 15368.00
216.1470, 16251.00
217.3660, 17244.00
218.5850, 18120.00
219.8030, 19354.00
221.0220, 20689.00
222.2400, 21882.00
223.4590, 23045.00
224.6770, 23626.00
225.8950, 23773.00
227.1120, 23229.00
228.3300, 22338.00
229.5480, 21404.00
230.7650, 20598.00
231.9820, 19898.00
233.1990, 19442.00
234.4160, 19290.00
235.6330, 19440.00
236.8490, 19490.00
238.0660, 19411.00
239.2820, 19082.00
240.4980, 18604.00
241.7140, 17828.00
242.9300, 16904.00
244.1460, 16260.00
245.3610, 15788.00
246.5770, 15430.00
247.7920, 15329.00
249.0070, 15451.00
250.2220, 15363.00
251.4370, 15563.00
252.6510, 15256.00
253.8660, 15133.00
255.0800, 15024.00
256.2940, 15074.00
257.5080, 15312.00
258.7220, 15329.03
259.9360, 16037.00
261.1490, 16032.00
262.3630, 16490.00
263.5760, 17794.00
264.7890, 19504.00
266.0020, 21259.00
267.2150, 23576.00
268.4270, 26063.00
269.6400, 28867.00
270.8520, 31072.00
272.0640, 31933.00
273.2760, 31142.00
274.4880, 29060.00
275.7000, 26414.00
276.9120, 24292.00
278.1230, 22201.00
279.3340, 20859.00
280.5450, 19643.00
281.7560, 18774.00
282.9670, 18165.00
284.1780, 17463.00
285.3880, 17240.00
286.5980, 17157.00
287.8090, 17435.00
289.0190, 17666.00
290.2290, 18030.00
291.4380, 18417.00
292.6480, 19078.00
293.8570, 19645.00
295.0670, 19768.00
296.2760, 19663.00
297.4850, 19568.00
298.6930, 19130.00
299.9020, 19054.00
301.1110, 19499.00
302.3190, 19969.00
303.5270, 20673.00
304.7350, 21389.00
305.9430, 22261.00
307.1510, 23817.00
308.3580, 24920.00
309.5660, 25849.00
310.7730, 25801.00
311.9800, 25221.00
313.1870, 24133.00
314.3940, 22669.00
315.6010, 21449.00
316.8070, 20428.00
318.0130, 19719.00
319.2200, 19316.00
320.4260, 19122.00
321.6310, 18813.00
322.8370, 18384.00
324.0430, 18009.00
325.2480, 17538.47
326.4540, 17030.54
327.6590, 16547.00
328.8640, 15938.00
330.0680, 15433.00
331.2730, 14872.00
332.4780, 14497.00
333.6820, 14313.00
334.8860, 14390.00
336.0900, 14446.00
337.2940, 15029.00
338.4980, 15335.00
339.7010, 16355.00
340.9050, 17258.00
342.1080, 18164.00
343.3110, 19153.00
344.5140, 20036.00
345.7170, 20493.00
346.9200, 20581.00
348.1220, 20185.00
349.3240, 19565.00
350.5270, 18731.00
351.7290, 18031.00
352.9310, 17239.00
354.1320, 16725.00
355.3340, 16328.00
356.5350, 16149.00
357.7370, 15924.00
358.9380, 15892.00
360.1390, 15948.00
361.3400, 15853.00
362.5400, 15653.00
363.7410, 15175.00
364.9410, 14757.00
366.1410, 14434.00
367.3410, 13939.00
368.5410, 13389.00
369.7410, 12791.00
370.9400, 12435.00
372.1400, 12041.00
373.3390, 11767.00
374.5380, 11595.00
375.7370, 11483.00
376.9360, 11670.00
378.1350, 11774.00
379.3330, 11896.00
380.5310, 12183.00
381.7300, 12509.00
382.9280, 12847.00
384.1260, 13268.00
385.3230, 13461.00
386.5210, 13512.00
387.7180, 13455.00
388.9160, 13068.00
390.1130, 12633.00
391.3100, 12417.00
392.5060, 12168.00
393.7030, 11846.00
394.9000, 11753.00
396.0960, 11513.00
397.2920, 11316.00
398.4880, 11423.00
399.6840, 11457.00
400.8800, 11632.00
402.0750, 11813.00
403.2710, 11983.00
404.4660, 12309.00
405.6610, 12795.00
406.8560, 13265.00
408.0510, 13882.00
409.2450, 14822.00
410.4400, 16002.00
411.6340, 17383.00
412.8280, 19246.00
414.0220, 21776.00
415.2160, 24423.00
416.4100, 27738.00
417.6030, 31093.00
418.7970, 34766.00
419.9900, 37180.00
421.1830, 38453.00
422.3760, 39359.00
423.5690, 38419.00
424.7610, 37654.00
425.9540, 37258.00
427.1460, 37283.00
428.3380, 38007.00
429.5300, 38405.00
430.7220, 38884.00
431.9140, 38207.00
433.1050, 37350.00
434.2970, 36040.00
435.4880, 34746.00
436.6790, 34030.00
437.8700, 33896.00
439.0610, 34326.00
440.2510, 35505.00
441.4420, 37173.00
442.6320, 39428.00
443.8220, 42205.00
445.0120, 45069.00
446.2020, 47175.00
447.3910, 49167.00
448.5810, 50524.00
449.7700, 51505.00
450.9600, 51568.00
452.1490, 50429.00
453.3370, 48604.00
454.5260, 45062.00
455.7150, 41419.00
456.9030, 37526.00
458.0910, 33762.00
459.2800, 30276.00
460.4670, 27283.00
461.6550, 24811.00
462.8430, 22877.00
464.0300, 21113.00
465.2180, 19748.00
466.4050, 18694.00
467.5920, 17661.00
468.7790, 16704.00
469.9650, 15743.00
471.1520, 15201.00
472.3380, 14446.00
473.5250, 13952.00
474.7110, 13381.00
475.8970, 13175.00
477.0820, 12969.00
478.2680, 12829.00
479.4540, 12781.00
480.6390, 12730.00
481.8240, 12706.00
483.0090, 12908.00
484.1940, 13176.00
485.3780, 13386.00
486.5630, 13568.00
487.7470, 14219.00
488.9320, 14817.00
490.1160, 15278.00
491.3000, 16171.00
492.4830, 17026.00
493.6670, 17908.00
494.8500, 18717.00
496.0340, 19274.00
497.2170, 19846.00
498.4000, 20207.00
499.5820, 20480.00
500.7650, 20590.00
501.9480, 20748.00
503.1300, 20800.00
504.3120, 20710.72
505.4940, 20556.15
506.6760, 20258.00
507.8580, 19818.00
509.0390, 19213.00
510.2210, 18384.00
511.4020, 18036.00
512.5830, 17682.00
513.7640, 17699.00
514.9450, 18045.00
516.1250, 18446.00
517.3060, 18771.00
518.4860, 18921.00
519.6660, 18627.00
520.8460, 17960.00
522.0260, 16967.00
523.2060, 15815.00
524.3850, 14910.00
525.5650, 13804.00
526.7440, 13184.00
527.9230, 12549.00
529.1020, 12020.00
530.2810, 11826.00
531.4590, 11335.00
532.6380, 11360.00
533.8160, 11159.00
534.9940, 11229.00
536.1720, 11195.00
537.3500, 11241.00
538.5270, 11167.00
539.7050, 11347.00
540.8820, 11452.00
542.0590, 11739.00
543.2360, 12052.00
544.4130, 12085.00
545.5900, 12568.00
546.7660, 12876.00
547.9430, 13577.00
549.1190, 14115.00
550.2950, 14935.00
551.4710, 16010.00
552.6470, 17646.00
553.8220, 19622.00
554.9980, 22063.00
556.1730, 25396.00
557.3480, 29264.00
558.5230, 33812.00
559.6980, 37937.00
560.8730, 40092.00
562.0470, 39794.00
563.2220, 37151.00
564.3960, 32795.00
565.5700, 28726.00
566.7440, 25336.00
567.9170, 22404.00
569.0910, 20735.00
570.2640, 19340.00
571.4380, 18710.00
572.6110, 18364.00
573.7840, 18665.00
574.9570, 19171.00
576.1290, 20525.00
577.3020, 22265.00
578.4740, 23643.00
579.6460, 24190.00
580.8180, 26638.00
581.9900, 28194.00
583.1620, 27828.00
584.3330, 28854.00
585.5040, 29885.00
586.6760, 31352.00
587.8470, 32821.00
589.0180, 34820.00
590.1880, 36964.00
591.3590, 39072.00
592.5290, 41048.00
593.7000, 42426.00
594.8700, 43033.00
596.0400, 42668.00
597.2090, 41570.00
598.3790, 39622.00
599.5490, 37767.00
600.7180, 35707.00
601.8870, 34368.00
603.0560, 32971.00
604.2250, 31745.00
605.3940, 31096.00
606.5620, 30331.00
607.7300, 29739.00
608.8990, 29077.00
610.0670, 27979.00
611.2350, 27017.00
612.4020, 25494.00
613.5700, 24087.00
614.7370, 22327.00
615.9050, 20673.00
617.0720, 19137.00
618.2390, 17672.00
619.4060, 16442.00
620.5720, 15560.00
621.7390, 14544.00
622.9050, 13896.00
624.0710, 13314.00
625.2370, 12708.00
626.4030, 12379.00
627.5690, 11888.00
628.7340, 11704.00
629.9000, 11374.00
631.0650, 11070.00
632.2300, 10878.00
633.3950, 10640.00
634.5600, 10407.00
635.7240, 10265.00
636.8890, 9990.000
638.0530, 9928.000
639.2170, 9878.000
640.3810, 9556.000
641.5450, 9611.000
642.7080, 9562.000
643.8720, 9451.000
645.0350, 9343.000
646.1980, 9249.000
647.3610, 9042.000
648.5240, 9039.000
649.6870, 8962.000
650.8490, 8869.000
652.0120, 8973.000
653.1740, 8906.000
654.3360, 8809.000
655.4980, 8894.000
656.6600, 8771.000
657.8210, 8841.000
658.9830, 8755.000
660.1440, 8600.000
661.3050, 8667.000
662.4660, 8628.000
663.6270, 8614.000
664.7870, 8668.000
665.9480, 8653.000
667.1080, 8680.000
668.2680, 8704.000
669.4280, 8768.000
670.5880, 8805.000
671.7480, 8779.000
672.9070, 8835.000
674.0670, 8852.000
675.2260, 8937.000
676.3850, 8926.000
677.5440, 8984.000
678.7030, 9084.000
679.8610, 9217.000
681.0200, 9221.000
682.1780, 9268.000
683.3360, 9306.000
684.4940, 9435.000
685.6520, 9399.000
686.8090, 9260.000
687.9670, 9204.000
689.1240, 8965.000
690.2810, 8923.000
691.4380, 8663.000
692.5950, 8490.000
693.7520, 8430.000
694.9080, 8237.000
696.0650, 8127.000
697.2210, 8163.000
698.3770, 8003.000
699.5330, 7907.000
700.6880, 7984.000
701.8440, 7884.000
702.9990, 7745.000
704.1550, 7604.000
705.3100, 7580.000
706.4650, 7499.267
707.6190, 7474.827
708.7740, 7433.000
709.9290, 7468.000
711.0830, 7429.000
712.2370, 7436.000
713.3910, 7442.000
714.5450, 7419.000
715.6980, 7410.000
716.8520, 7367.000
718.0050, 7379.000
719.1580, 7325.000
720.3110, 7369.000
721.4640, 7284.000
722.6170, 7243.000
723.7700, 7285.000
724.9220, 7339.000
726.0740, 7225.000
727.2260, 7185.000
728.3780, 7230.000
729.5300, 7163.000
730.6810, 7226.000
731.8330, 7356.000
732.9840, 7207.000
734.1350, 7283.000
735.2860, 7245.000
736.4370, 7235.000
737.5880, 7304.000
738.7380, 7327.000
739.8880, 7319.000
741.0390, 7370.031
742.1890, 7295.000
743.3380, 7415.000
744.4880, 7362.000
745.6380, 7355.000
746.7870, 7291.000
747.9360, 7314.000
749.0850, 7360.000
750.2340, 7367.000
751.3830, 7380.000
752.5310, 7322.000
753.6800, 7370.000
754.8280, 7388.000
755.9760, 7315.000
757.1240, 7358.000
758.2720, 7415.000
759.4190, 7356.000
760.5670, 7362.000
761.7140, 7430.000
762.8610, 7395.000
764.0080, 7402.000
765.1550, 7405.000
766.3020, 7409.000
767.4480, 7456.000
768.5950, 7377.000
769.7410, 7394.000
770.8870, 7446.000
772.0330, 7361.000
773.1780, 7394.000
774.3240, 7495.000
775.4690, 7403.000
776.6140, 7552.000
777.7590, 7533.000
778.9040, 7537.000
780.0490, 7563.000
781.1940, 7571.000
782.3380, 7563.000
783.4820, 7593.000
784.6260, 7519.000
785.7700, 7631.000
786.9140, 7579.000
788.0580, 7724.000
789.2010, 7586.000
790.3450, 7724.000
791.4880, 7747.000
792.6310, 7699.000
793.7730, 7662.000
794.9160, 7763.000
796.0590, 7794.000
797.2010, 7963.000
798.3430, 7838.000
799.4850, 7990.000
800.6270, 7980.000
801.7690, 8059.000
802.9100, 8112.000
804.0520, 8149.000
805.1930, 8234.000
806.3340, 8317.880
807.4750, 8445.000
808.6160, 8530.000
809.7560, 8592.000
810.8970, 8711.000
812.0370, 8873.000
813.1770, 9093.000
814.3170, 9195.000
815.4570, 9394.000
816.5960, 9612.000
817.7360, 9788.000
818.8750, 10076.00
820.0140, 10189.00
821.1530, 10614.00
822.2920, 10931.00
823.4310, 11186.00
824.5690, 11344.00
825.7070, 11666.00
826.8460, 11796.25
827.9840, 12012.00
829.1220, 12070.00
830.2590, 12120.00
831.3970, 12170.00
832.5340, 12039.00
833.6710, 12025.00
834.8080, 11885.00
835.9450, 11838.00
837.0820, 11811.00
838.2190, 12039.00
839.3550, 11822.00
840.4910, 12044.00
841.6270, 12021.00
842.7630, 12180.00
843.8990, 12442.00
845.0350, 12703.00
846.1700, 13000.98
847.3060, 13173.00
848.4410, 13672.00
849.5760, 14100.00
850.7100, 14439.00
851.8450, 15020.00
852.9800, 15220.00
854.1140, 16094.00
855.2480, 16766.00
856.3820, 17205.00
857.5160, 17711.00
858.6500, 18516.00
859.7830, 19163.00
860.9170, 19594.00
862.0500, 19912.00
863.1830, 20255.00
864.3160, 20731.00
865.4480, 21091.00
866.5810, 21451.00
867.7130, 21850.00
868.8460, 22413.00
869.9780, 23137.00
871.1100, 24034.00
872.2410, 25106.00
873.3730, 26286.00
874.5050, 27514.00
875.6360, 29017.00
876.7670, 30314.00
877.8980, 31867.00
879.0290, 33058.00
880.1590, 33989.00
881.2900, 34697.00
882.4200, 34736.00
883.5500, 34302.00
884.6800, 33723.00
885.8100, 32444.00
886.9400, 31519.00
888.0690, 30113.00
889.1990, 29428.00
890.3280, 28657.00
891.4570, 28264.00
892.5860, 28093.00
893.7140, 28272.00
894.8430, 28782.00
895.9710, 29726.00
897.1000, 30767.00
898.2280, 31796.00
899.3560, 33603.00
900.4830, 35355.00
901.6110, 37726.00
902.7380, 40436.00
903.8660, 42946.00
904.9930, 46305.00
906.1200, 49721.00
907.2460, 53109.00
908.3730, 56568.00
909.5000, 59597.00
910.6260, 62081.00
911.7520, 63275.00
912.8780, 63621.00
914.0040, 62051.00
915.1290, 59744.00
916.2550, 56160.00
917.3800, 51514.00
918.5050, 47113.00
919.6300, 42630.00
920.7550, 38802.00
921.8800, 34914.00
923.0040, 31410.00
924.1290, 28641.00
925.2530, 25964.00
926.3770, 24062.00
927.5010, 22102.00
928.6250, 20737.00
929.7480, 19312.00
930.8720, 18200.00
931.9950, 17409.00
933.1180, 16499.00
934.2410, 15679.00
935.3640, 15194.00
936.4860, 14745.00
937.6090, 14102.00
938.7310, 13801.00
939.8530, 13349.00
940.9750, 13287.00
942.0970, 13021.00
943.2180, 12911.00
944.3400, 12818.00
945.4610, 12728.00
946.5820, 12693.00
947.7030, 12632.00
948.8240, 12639.00
949.9450, 12738.00
951.0650, 12806.00
952.1860, 12981.00
953.3060, 13183.00
954.4260, 13344.00
955.5460, 13231.00
956.6650, 13274.00
957.7850, 13156.00
958.9040, 13010.00
960.0230, 12812.00
961.1420, 12818.00
962.2610, 12627.00
963.3800, 12658.00
964.4990, 12595.00
965.6170, 12860.00
966.7350, 13130.00
967.8530, 13355.00
968.9710, 13923.00
970.0890, 14476.00
971.2070, 15331.00
972.3240, 16117.00
973.4410, 17041.00
974.5580, 17741.00
975.6750, 18384.00
976.7920, 18622.00
977.9090, 18337.00
979.0250, 17789.00
980.1410, 16902.00
981.2580, 15958.00
982.3740, 15074.00
983.4890, 14083.00
984.6050, 13393.00
985.7200, 12736.00
986.8360, 12207.00
987.9510, 11659.00
989.0660, 11463.00
990.1810, 11147.00
991.2950, 10843.00
992.4100, 10596.00
993.5240, 10347.00
994.6390, 10288.00
995.7530, 10228.00
996.8660, 9998.000
997.9800, 9835.000
999.0940, 9928.000
1000.207, 9786.000
1001.320, 9806.000
1002.433, 9630.000
1003.546, 9852.000
1004.659, 9754.000
1005.772, 9824.000
1006.884, 9947.000
1007.996, 10018.00
1009.108, 10167.00
1010.220, 10515.00
1011.332, 10706.00
1012.444, 10706.00
1013.555, 10859.00
1014.666, 10900.00
1015.777, 11059.00
1016.888, 11050.00
1017.999, 10926.00
1019.110, 10998.00
1020.220, 10905.00
1021.331, 10947.00
1022.441, 10916.00
1023.551, 11131.00
1024.661, 11234.00
1025.770, 11533.00
1026.880, 12020.00
1027.989, 12445.00
1029.098, 12837.00
1030.207, 13413.00
1031.316, 14084.00
1032.425, 14568.00
1033.533, 15196.00
1034.642, 15702.00
1035.750, 16065.00
1036.858, 16407.00
1037.966, 16530.00
1039.073, 16533.00
1040.181, 16286.00
1041.288, 15780.00
1042.396, 15393.00
1043.503, 14978.00
1044.610, 14660.00
1045.716, 14091.00
1046.823, 13745.00
1047.929, 13289.00
1049.036, 13180.00
1050.142, 13002.00
1051.248, 13089.00
1052.353, 13046.00
1053.459, 13246.00
1054.564, 13566.00
1055.670, 13877.00
1056.775, 14043.00
1057.880, 14170.00
1058.985, 14206.30
1060.089, 14266.00
1061.194, 14030.00
1062.298, 13881.00
1063.402, 13590.00
1064.506, 13580.00
1065.610, 13506.00
1066.713, 13574.00
1067.817, 13750.00
1068.920, 14025.00
1070.023, 14541.00
1071.126, 15176.00
1072.229, 15932.00
1073.332, 17126.00
1074.435, 18130.00
1075.537, 19860.00
1076.639, 21539.00
1077.741, 24128.00
1078.843, 26830.00
1079.945, 29365.00
1081.046, 32102.00
1082.148, 33376.00
1083.249, 33411.00
1084.350, 32053.00
1085.451, 29442.00
1086.551, 26327.00
1087.652, 23087.00
1088.752, 20414.00
1089.853, 18110.00
1090.953, 16183.00
1092.053, 14646.00
1093.152, 13459.00
1094.252, 12576.00
1095.351, 11847.00
1096.451, 11552.00
1097.550, 10986.00
1098.649, 10688.00
1099.748, 10180.00
1100.846, 10092.00
1101.945, 9892.000
1103.043, 9663.000
1104.141, 9527.000
1105.239, 9433.000
1106.337, 9403.000
1107.434, 9060.000
1108.532, 9037.000
1109.629, 8992.000
1110.726, 8991.000
1111.823, 8908.000
1112.920, 8819.000
1114.017, 8768.000
1115.113, 8689.381
1116.210, 8685.000
1117.306, 8582.000
1118.402, 8638.000
1119.498, 8644.000
1120.593, 8596.000
1121.689, 8602.000
1122.784, 8564.407
1123.879, 8532.000
1124.974, 8488.000
1126.069, 8477.000
1127.164, 8424.000
1128.259, 8453.000
1129.353, 8410.000
1130.447, 8346.000
1131.541, 8334.000
1132.635, 8247.000
1133.729, 8166.000
1134.822, 8149.000
1135.916, 8208.000
1137.009, 8026.000
1138.102, 8179.000
1139.195, 8027.000
1140.288, 8047.000
1141.380, 8012.000
1142.473, 8020.000
1143.565, 7970.000
1144.657, 7952.000
1145.749, 8006.000
1146.841, 7917.000
1147.932, 7999.000
1149.024, 7981.000
1150.115, 7904.000
1151.206, 7846.000
1152.297, 7744.000
1153.388, 7789.000
1154.479, 7860.000
1155.569, 7810.000
1156.659, 7837.000
1157.750, 7824.000
1158.839, 7783.000
1159.929, 7854.000
1161.019, 7767.000
1162.108, 7859.000
1163.198, 7842.000
1164.287, 7717.000
1165.376, 7759.000
1166.465, 7704.000
1167.553, 7709.000
1168.642, 7758.000
1169.730, 7733.000
1170.818, 7793.000
1171.906, 7779.024
1172.994, 7693.000
1174.082, 7739.000
1175.170, 7756.000
1176.257, 7677.000
1177.344, 7704.000
1178.431, 7698.000
1179.518, 7733.000
1180.605, 7645.000
1181.691, 7768.000
1182.778, 7622.000
1183.864, 7726.000
1184.950, 7614.000
1186.036, 7589.000
1187.122, 7694.000
1188.207, 7645.000
1189.292, 7608.000
1190.378, 7659.000
1191.463, 7679.000
1192.548, 7635.000
1193.632, 7671.017
1194.717, 7639.000
1195.801, 7662.000
1196.886, 7667.000
1197.970, 7626.000
1199.054, 7553.000
1200.137, 7533.000
1201.221, 7490.000
1202.305, 7579.000
1203.388, 7569.000
1204.471, 7566.000
1205.554, 7573.155
1206.637, 7546.075
1207.719, 7532.000
1208.802, 7516.000
1209.884, 7498.000
1210.966, 7522.000
1212.048, 7491.000
1213.130, 7545.000
1214.212, 7494.000
1215.293, 7506.000
1216.374, 7498.609
1217.456, 7475.019
1218.536, 7449.000
1219.617, 7459.000
1220.698, 7388.000
1221.778, 7402.000
1222.859, 7343.000
1223.939, 7375.000
1225.019, 7465.000
1226.099, 7386.959
1227.178, 7381.227
1228.258, 7318.000
1229.337, 7291.000
1230.417, 7282.000
1231.496, 7308.000
1232.574, 7270.000
1233.653, 7323.000
1234.732, 7269.000
1235.810, 7281.000
1236.888, 7244.000
1237.966, 7238.000
1239.044, 7243.000
