##NAMES=Epididymite
##RRUFFID=R060773
##IDEAL CHEMISTRY=Na_2_Be_2_Si_6_O_15_&#183;H_2_O
##LOCALITY=unknown
##OWNER=RRUFF
##SOURCE=Michael Scott
##DESCRIPTION=Colorless platy crystals forming a pseudohexagonal aggregate
##STATUS=The identification of this mineral has been confirmed by single-crystal X-ray diffraction.
##URL=rruff.info/R060773
##PIN_ID=M00206
##ORIENTATION=Laser parallel to a* (1 0 0). Fiducial mark perpendicular to laser is parallel to b [0 1 0]
102.1160, 23749.00
103.3490, 23795.00
104.5820, 23859.00
105.8150, 24291.00
107.0470, 24295.00
108.2800, 24495.00
109.5120, 24361.00
110.7440, 24168.00
111.9760, 24552.00
113.2080, 24319.00
114.4400, 24538.00
115.6710, 24882.00
116.9030, 24931.00
118.1340, 25063.00
119.3650, 25522.00
120.5960, 25861.00
121.8270, 26513.00
123.0580, 27154.00
124.2880, 27256.00
125.5190, 27567.00
126.7490, 27751.00
127.9790, 28187.00
129.2090, 28646.00
130.4390, 28372.00
131.6680, 28384.00
132.8980, 27736.00
134.1270, 26975.00
135.3560, 26333.00
136.5850, 25751.00
137.8140, 25035.00
139.0430, 24326.00
140.2710, 23974.00
141.5000, 23816.00
142.7280, 23619.00
143.9560, 23557.00
145.1840, 23613.00
146.4120, 23786.00
147.6390, 23570.00
148.8670, 23786.00
150.0940, 23502.00
151.3210, 23875.00
152.5490, 23663.00
153.7750, 23701.00
155.0020, 23659.00
156.2290, 23809.00
157.4550, 23716.00
158.6810, 24025.00
159.9080, 23886.00
161.1340, 24132.00
162.3590, 24171.00
163.5850, 24257.00
164.8110, 24414.00
166.0360, 24335.00
167.2610, 24563.00
168.4860, 24230.00
169.7110, 24526.00
170.9360, 24607.00
172.1610, 24347.00
173.3850, 24059.00
174.6100, 24175.00
175.8340, 24066.00
177.0580, 24145.00
178.2820, 24264.00
179.5050, 24590.00
180.7290, 24409.00
181.9520, 24537.00
183.1760, 24845.00
184.3990, 24798.00
185.6220, 24912.00
186.8450, 25304.00
188.0670, 25485.00
189.2900, 25617.00
190.5120, 25806.00
191.7340, 25981.14
192.9560, 26099.00
194.1780, 26295.00
195.4000, 26408.00
196.6220, 26437.00
197.8430, 26414.00
199.0640, 26378.00
200.2860, 26132.00
201.5070, 26114.00
202.7270, 25967.00
203.9480, 25594.00
205.1690, 25481.00
206.3890, 25089.00
207.6090, 25223.00
208.8290, 24933.00
210.0490, 24891.00
211.2690, 24888.00
212.4890, 25145.00
213.7080, 25016.00
214.9280, 24955.00
216.1470, 25200.00
217.3660, 25236.00
218.5850, 25219.00
219.8030, 25521.00
221.0220, 25488.00
222.2400, 25872.00
223.4590, 25827.00
224.6770, 26181.00
225.8950, 26338.00
227.1120, 26600.00
228.3300, 27290.00
229.5480, 27486.00
230.7650, 27964.00
231.9820, 28495.00
233.1990, 28675.00
234.4160, 29111.00
235.6330, 29724.00
236.8490, 29976.00
238.0660, 29966.00
239.2820, 29992.00
240.4980, 29891.00
241.7140, 29729.00
242.9300, 29316.00
244.1460, 28910.00
245.3610, 28347.00
246.5770, 27845.00
247.7920, 27229.00
249.0070, 27177.00
250.2220, 26759.00
251.4370, 26570.00
252.6510, 26561.00
253.8660, 26361.00
255.0800, 26306.00
256.2940, 26241.00
257.5080, 26178.00
258.7220, 26449.00
259.9360, 26300.00
261.1490, 26349.00
262.3630, 26092.00
263.5760, 26123.00
264.7890, 26033.00
266.0020, 25959.00
267.2150, 25881.00
268.4270, 25849.00
269.6400, 25883.00
270.8520, 25745.00
272.0640, 25783.00
273.2760, 25961.00
274.4880, 26135.00
275.7000, 25876.00
276.9120, 25881.00
278.1230, 25778.00
279.3340, 25799.00
280.5450, 25906.00
281.7560, 25976.00
282.9670, 26000.00
284.1780, 25911.00
285.3880, 25859.00
286.5980, 25898.00
287.8090, 25989.00
289.0190, 25986.00
290.2290, 26061.00
291.4380, 25860.00
292.6480, 25854.00
293.8570, 25992.00
295.0670, 25986.00
296.2760, 26053.00
297.4850, 26117.95
298.6930, 26126.00
299.9020, 26205.00
301.1110, 26173.00
302.3190, 26169.00
303.5270, 26119.00
304.7350, 26307.00
305.9430, 26338.00
307.1510, 26428.00
308.3580, 26387.00
309.5660, 26132.00
310.7730, 26360.00
311.9800, 26388.00
313.1870, 26587.00
314.3940, 26642.00
315.6010, 26756.81
316.8070, 26723.00
318.0130, 26982.00
319.2200, 26974.00
320.4260, 27097.00
321.6310, 27167.00
322.8370, 27317.00
324.0430, 27338.00
325.2480, 27364.00
326.4540, 27429.00
327.6590, 27457.00
328.8640, 27493.00
330.0680, 27871.00
331.2730, 27415.00
332.4780, 27924.00
333.6820, 27756.00
334.8860, 27641.00
336.0900, 27770.00
337.2940, 27846.00
338.4980, 27672.00
339.7010, 27739.00
340.9050, 27761.00
342.1080, 27530.00
343.3110, 27589.00
344.5140, 27666.00
345.7170, 27543.00
346.9200, 27550.00
348.1220, 27606.00
349.3240, 27741.00
350.5270, 27568.00
351.7290, 27726.00
352.9310, 27737.00
354.1320, 27903.00
355.3340, 27658.00
356.5350, 27778.00
357.7370, 27717.00
358.9380, 27625.00
360.1390, 27706.00
361.3400, 27768.00
362.5400, 27888.00
363.7410, 27907.24
364.9410, 27901.00
366.1410, 27985.00
367.3410, 27868.00
368.5410, 27937.00
369.7410, 28041.00
370.9400, 28245.00
372.1400, 28402.00
373.3390, 28374.00
374.5380, 28480.00
375.7370, 28611.00
376.9360, 28757.00
378.1350, 28903.64
379.3330, 29025.00
380.5310, 29215.00
381.7300, 29337.00
382.9280, 29460.00
384.1260, 29581.00
385.3230, 29790.00
386.5210, 29828.00
387.7180, 29811.00
388.9160, 29947.00
390.1130, 29764.00
391.3100, 29974.00
392.5060, 30073.00
393.7030, 30340.00
394.9000, 30758.00
396.0960, 31565.00
397.2920, 32359.00
398.4880, 33628.00
399.6840, 34831.00
400.8800, 36006.00
402.0750, 37135.00
403.2710, 38560.00
404.4660, 39282.00
405.6610, 39703.00
406.8560, 39051.00
408.0510, 38324.00
409.2450, 36961.00
410.4400, 35342.00
411.6340, 33511.00
412.8280, 32070.00
414.0220, 31184.00
415.2160, 30474.00
416.4100, 29900.00
417.6030, 29834.00
418.7970, 29796.00
419.9900, 29843.00
421.1830, 29811.27
422.3760, 29667.00
423.5690, 29851.00
424.7610, 29758.00
425.9540, 29812.00
427.1460, 30366.00
428.3380, 30249.00
429.5300, 30613.00
430.7220, 30479.00
431.9140, 30542.00
433.1050, 30629.00
434.2970, 30703.00
435.4880, 30527.00
436.6790, 30471.00
437.8700, 30342.00
439.0610, 30335.00
440.2510, 30011.00
441.4420, 30044.00
442.6320, 29926.00
443.8220, 30132.00
445.0120, 29879.00
446.2020, 30082.00
447.3910, 30131.00
448.5810, 30449.00
449.7700, 30166.00
450.9600, 30531.00
452.1490, 30500.00
453.3370, 30470.00
454.5260, 30711.00
455.7150, 30848.00
456.9030, 30901.00
458.0910, 31232.00
459.2800, 31003.00
460.4670, 30830.00
461.6550, 31195.00
462.8430, 31194.00
464.0300, 31645.00
465.2180, 32003.00
466.4050, 32154.00
467.5920, 32509.00
468.7790, 32927.00
469.9650, 33331.00
471.1520, 33804.00
472.3380, 34150.51
473.5250, 34567.00
474.7110, 34908.00
475.8970, 35238.00
477.0820, 35694.00
478.2680, 35659.00
479.4540, 35877.00
480.6390, 36155.00
481.8240, 36376.00
483.0090, 36380.00
484.1940, 36242.00
485.3780, 35900.00
486.5630, 35637.00
487.7470, 35024.00
488.9320, 34364.00
490.1160, 33662.00
491.3000, 33236.00
492.4830, 33010.00
493.6670, 32844.00
494.8500, 32805.98
496.0340, 32783.00
497.2170, 33094.00
498.4000, 33133.00
499.5820, 33571.00
500.7650, 33715.00
501.9480, 34162.00
503.1300, 34496.00
504.3120, 35427.00
505.4940, 36260.00
506.6760, 37712.00
507.8580, 39525.00
509.0390, 42506.00
510.2210, 45596.00
511.4020, 49369.00
512.5830, 52444.00
513.7640, 56366.00
514.9450, 59668.00
516.1250, 62327.00
517.3060, 63522.00
518.4860, 62836.00
519.6660, 61345.00
520.8460, 57577.00
522.0260, 53916.00
523.2060, 49398.00
524.3850, 45424.00
525.5650, 41937.00
526.7440, 39454.00
527.9230, 38148.00
529.1020, 36808.00
530.2810, 35930.00
531.4590, 35255.00
532.6380, 34828.00
533.8160, 34654.00
534.9940, 34346.00
536.1720, 34069.00
537.3500, 34049.00
538.5270, 33735.00
539.7050, 33749.00
540.8820, 33693.00
542.0590, 33445.00
543.2360, 33644.00
544.4130, 33702.00
545.5900, 33861.00
546.7660, 33396.00
547.9430, 33488.00
549.1190, 33383.00
550.2950, 33566.00
551.4710, 33274.00
552.6470, 33424.00
553.8220, 33546.00
554.9980, 33750.00
556.1730, 33716.00
557.3480, 33779.00
558.5230, 33542.00
559.6980, 33507.00
560.8730, 33669.00
562.0470, 33558.00
563.2220, 33771.00
564.3960, 33512.00
565.5700, 33939.00
566.7440, 33953.00
567.9170, 33904.00
569.0910, 34094.00
570.2640, 34227.00
571.4380, 34370.00
572.6110, 34724.00
573.7840, 34955.00
574.9570, 35255.00
576.1290, 35741.00
577.3020, 36126.00
578.4740, 36588.00
579.6460, 37211.00
580.8180, 37529.00
581.9900, 37394.00
583.1620, 37818.00
584.3330, 37622.00
585.5040, 37128.00
586.6760, 37065.00
587.8470, 36758.32
589.0180, 36303.56
590.1880, 36380.00
591.3590, 35542.00
592.5290, 35445.00
593.7000, 35394.00
594.8700, 35203.00
596.0400, 35166.00
597.2090, 35116.20
598.3790, 35170.00
599.5490, 35076.00
600.7180, 35085.00
601.8870, 35073.88
603.0560, 35111.38
604.2250, 35202.00
605.3940, 35222.00
606.5620, 35279.00
607.7300, 35279.00
608.8990, 35433.00
610.0670, 35429.74
611.2350, 35335.00
612.4020, 35511.00
613.5700, 35574.00
614.7370, 35644.00
615.9050, 35834.00
617.0720, 35917.00
618.2390, 36350.00
619.4060, 36584.00
620.5720, 36671.00
621.7390, 37169.00
622.9050, 37664.00
624.0710, 37927.00
625.2370, 38498.00
626.4030, 38258.00
627.5690, 38343.00
628.7340, 38105.00
629.9000, 38234.00
631.0650, 37690.00
632.2300, 37579.00
633.3950, 37543.00
634.5600, 37198.00
635.7240, 36908.00
636.8890, 36799.00
638.0530, 37017.00
639.2170, 37022.00
640.3810, 37116.00
641.5450, 37197.00
642.7080, 37274.00
643.8720, 37197.00
645.0350, 37476.00
646.1980, 37658.00
647.3610, 37500.00
648.5240, 37682.00
649.6870, 37637.00
650.8490, 37815.00
652.0120, 37556.00
653.1740, 37806.00
654.3360, 37578.00
655.4980, 37211.00
656.6600, 37136.00
657.8210, 36953.00
658.9830, 36972.00
660.1440, 36615.00
661.3050, 36512.00
662.4660, 36703.00
663.6270, 36573.00
664.7870, 36659.00
665.9480, 36472.00
667.1080, 36578.00
668.2680, 36275.00
669.4280, 36472.00
670.5880, 36515.00
671.7480, 36489.00
672.9070, 36370.00
674.0670, 36397.87
675.2260, 36653.00
676.3850, 36429.00
677.5440, 36626.00
678.7030, 36824.00
679.8610, 36489.00
681.0200, 36610.00
682.1780, 36257.00
683.3360, 36880.00
684.4940, 36611.00
685.6520, 36870.00
686.8090, 36782.00
687.9670, 36671.00
689.1240, 36683.00
690.2810, 36716.00
691.4380, 36413.00
692.5950, 36713.00
693.7520, 36761.00
694.9080, 36647.00
696.0650, 36900.00
697.2210, 36699.00
698.3770, 37171.00
699.5330, 37116.00
700.6880, 37004.00
701.8440, 37077.00
702.9990, 37081.00
704.1550, 36940.00
705.3100, 36766.00
706.4650, 37192.00
707.6190, 37109.00
708.7740, 37100.00
709.9290, 37430.00
711.0830, 37396.00
712.2370, 37205.00
713.3910, 37273.00
714.5450, 37629.00
715.6980, 37490.00
716.8520, 37776.00
718.0050, 37459.00
719.1580, 37723.00
720.3110, 37629.00
721.4640, 37789.00
722.6170, 37971.00
723.7700, 37787.00
724.9220, 38123.00
726.0740, 37934.00
727.2260, 37906.00
728.3780, 38210.00
729.5300, 38300.00
730.6810, 38343.00
731.8330, 38455.22
732.9840, 38348.00
734.1350, 38515.00
735.2860, 38433.00
736.4370, 38469.00
737.5880, 38535.00
738.7380, 38594.00
739.8880, 38657.00
741.0390, 38698.00
742.1890, 38510.00
743.3380, 38779.00
744.4880, 38667.00
745.6380, 38766.00
746.7870, 38884.00
747.9360, 38963.00
749.0850, 38774.00
750.2340, 39159.00
751.3830, 38915.00
752.5310, 39325.00
753.6800, 39102.00
754.8280, 39368.00
755.9760, 39160.00
757.1240, 39181.00
758.2720, 39072.00
759.4190, 39333.00
760.5670, 39198.00
761.7140, 39213.00
762.8610, 39581.00
764.0080, 39636.00
765.1550, 39693.00
766.3020, 39571.00
767.4480, 39536.00
768.5950, 39547.00
769.7410, 39635.00
770.8870, 39821.00
772.0330, 39907.00
773.1780, 39959.00
774.3240, 40022.00
775.4690, 40120.00
776.6140, 40137.00
777.7590, 40080.00
778.9040, 40319.00
780.0490, 40056.00
781.1940, 40415.00
782.3380, 40166.00
783.4820, 40198.00
784.6260, 40469.00
785.7700, 40627.00
786.9140, 40488.00
788.0580, 40636.00
789.2010, 40800.00
790.3450, 40506.00
791.4880, 40474.00
792.6310, 40690.00
793.7730, 40827.00
794.9160, 40897.00
796.0590, 41089.00
797.2010, 40893.00
798.3430, 41129.00
799.4850, 40800.00
800.6270, 40764.00
801.7690, 41170.00
802.9100, 41146.00
804.0520, 41207.00
805.1930, 41412.00
806.3340, 41508.00
807.4750, 41709.00
808.6160, 41827.00
809.7560, 41910.00
810.8970, 41828.00
812.0370, 41947.00
813.1770, 42393.00
814.3170, 42441.00
815.4570, 42360.00
816.5960, 42130.00
817.7360, 42186.00
818.8750, 42267.00
820.0140, 42548.00
821.1530, 42294.00
822.2920, 42215.00
823.4310, 42369.00
824.5690, 42271.25
825.7070, 42364.00
826.8460, 42378.00
827.9840, 42394.38
829.1220, 42686.00
830.2590, 42498.00
831.3970, 42637.00
832.5340, 42743.00
833.6710, 42646.00
834.8080, 42550.00
835.9450, 42802.00
837.0820, 42719.00
838.2190, 42812.00
839.3550, 42886.00
840.4910, 43250.00
841.6270, 43291.00
842.7630, 43382.00
843.8990, 43363.00
845.0350, 43808.00
846.1700, 43599.00
847.3060, 43791.00
848.4410, 43751.00
849.5760, 44199.00
850.7100, 44132.00
851.8450, 44113.00
852.9800, 44366.00
854.1140, 44308.00
855.2480, 44856.00
856.3820, 44890.00
857.5160, 45088.00
858.6500, 45261.00
859.7830, 45584.00
860.9170, 45412.00
862.0500, 45315.00
863.1830, 45438.00
864.3160, 45178.00
865.4480, 45414.00
866.5810, 45072.00
867.7130, 44798.00
868.8460, 44582.00
869.9780, 44490.15
871.1100, 44647.00
872.2410, 44477.00
873.3730, 44561.00
874.5050, 44641.00
875.6360, 44429.00
876.7670, 44566.00
877.8980, 44372.00
879.0290, 44681.00
880.1590, 44504.00
881.2900, 44521.00
882.4200, 44727.00
883.5500, 44507.00
884.6800, 44399.00
885.8100, 44625.00
886.9400, 44628.00
888.0690, 44657.00
889.1990, 44566.00
890.3280, 44629.47
891.4570, 44636.02
892.5860, 44691.00
893.7140, 44694.00
894.8430, 44716.45
895.9710, 44714.00
897.1000, 44843.00
898.2280, 44881.00
899.3560, 45059.00
900.4830, 44866.00
901.6110, 44829.00
902.7380, 44925.00
903.8660, 45056.00
904.9930, 45108.00
906.1200, 45030.00
907.2460, 45050.00
908.3730, 45048.00
909.5000, 44868.00
910.6260, 45222.00
911.7520, 45228.00
912.8780, 45032.00
914.0040, 45167.00
915.1290, 45336.00
916.2550, 45050.00
917.3800, 45339.00
918.5050, 45140.00
919.6300, 45053.00
920.7550, 45265.00
921.8800, 44980.00
923.0040, 45136.00
924.1290, 45234.00
925.2530, 44959.00
926.3770, 45381.00
927.5010, 45161.00
928.6250, 45578.00
929.7480, 45428.00
930.8720, 45422.00
931.9950, 45380.00
933.1180, 45700.00
934.2410, 45559.00
935.3640, 45638.00
936.4860, 45599.00
937.6090, 45688.00
938.7310, 45383.00
939.8530, 45896.00
940.9750, 45486.00
942.0970, 45660.00
943.2180, 45927.00
944.3400, 45956.00
945.4610, 45980.00
946.5820, 46079.48
947.7030, 45860.00
948.8240, 46059.00
949.9450, 46143.00
951.0650, 45977.00
952.1860, 46119.00
953.3060, 46032.00
954.4260, 46306.00
955.5460, 46526.00
956.6650, 46293.00
957.7850, 46484.00
958.9040, 46473.00
960.0230, 46493.00
961.1420, 46327.00
962.2610, 46690.00
963.3800, 46264.00
964.4990, 46521.00
965.6170, 46453.00
966.7350, 46464.00
967.8530, 46580.00
968.9710, 46555.00
970.0890, 46335.00
971.2070, 46500.00
972.3240, 46420.24
973.4410, 46456.00
974.5580, 46478.00
975.6750, 46680.00
976.7920, 46782.00
977.9090, 46568.00
979.0250, 46814.00
980.1410, 46688.00
981.2580, 46726.00
982.3740, 47062.00
983.4890, 46605.00
984.6050, 47226.00
985.7200, 47319.00
986.8360, 47445.00
987.9510, 47499.00
989.0660, 47036.00
990.1810, 47649.00
991.2950, 47200.00
992.4100, 47261.00
993.5240, 47827.00
994.6390, 47853.00
995.7530, 47645.00
996.8660, 47783.00
997.9800, 48243.00
999.0940, 48325.00
1000.207, 49225.00
1001.320, 49379.00
1002.433, 49909.00
1003.546, 49628.00
1004.659, 49459.00
1005.772, 49056.00
1006.884, 48462.00
1007.996, 48464.00
1009.108, 48301.00
1010.220, 48369.00
1011.332, 48265.00
1012.444, 48284.00
1013.555, 48304.94
1014.666, 48363.00
1015.777, 48418.00
1016.888, 48517.00
1017.999, 48715.00
1019.110, 48793.00
1020.220, 48840.00
1021.331, 49002.00
1022.441, 49425.00
1023.551, 49445.00
1024.661, 49553.31
1025.770, 49529.00
1026.880, 49545.00
1027.989, 49448.00
1029.098, 49390.00
1030.207, 49615.00
1031.316, 49697.00
1032.425, 49761.00
1033.533, 49717.00
1034.642, 49778.00
1035.750, 49883.00
1036.858, 50176.00
1037.966, 50240.00
1039.073, 50293.00
1040.181, 50516.00
1041.288, 50498.00
1042.396, 50400.00
1043.503, 50380.00
1044.610, 50664.00
1045.716, 50711.00
1046.823, 50766.00
1047.929, 50929.00
1049.036, 50588.00
1050.142, 50542.00
1051.248, 50693.00
1052.353, 50646.00
1053.459, 50654.00
1054.564, 50485.00
1055.670, 50466.00
1056.775, 50453.00
1057.880, 50482.00
1058.985, 50455.00
1060.089, 50623.00
1061.194, 50763.00
1062.298, 50679.00
1063.402, 50536.00
1064.506, 50634.00
1065.610, 50859.00
1066.713, 50860.00
1067.817, 50436.00
1068.920, 50894.00
1070.023, 50457.00
1071.126, 50765.00
1072.229, 50864.00
1073.332, 50875.00
1074.435, 50877.00
1075.537, 50935.00
1076.639, 50898.00
1077.741, 51258.00
1078.843, 51181.00
1079.945, 51404.00
1081.046, 51211.00
1082.148, 51396.00
1083.249, 51327.00
1084.350, 51202.00
1085.451, 51570.00
1086.551, 51645.00
1087.652, 51409.00
1088.752, 51430.00
1089.853, 51289.00
1090.953, 51298.00
1092.053, 51495.00
1093.152, 51180.00
1094.252, 51195.00
1095.351, 51028.00
1096.451, 51502.00
1097.550, 51313.00
1098.649, 51492.00
1099.748, 51395.00
1100.846, 51495.00
1101.945, 51796.00
1103.043, 51854.00
1104.141, 51750.00
1105.239, 51779.00
1106.337, 51957.00
1107.434, 52124.00
1108.532, 52080.00
1109.629, 52377.00
1110.726, 52347.00
1111.823, 52604.00
1112.920, 52865.00
1114.017, 52737.00
1115.113, 52837.00
1116.210, 52850.00
1117.306, 53115.00
1118.402, 53577.00
1119.498, 53648.00
1120.593, 53798.00
1121.689, 54027.00
1122.784, 54124.00
1123.879, 54334.00
1124.974, 54968.00
1126.069, 54983.00
1127.164, 55637.00
1128.259, 56043.00
1129.353, 56199.00
1130.447, 56876.00
1131.541, 57084.00
1132.635, 57406.00
1133.729, 58184.00
1134.822, 58132.00
1135.916, 58446.00
1137.009, 58671.00
1138.102, 58451.00
1139.195, 58284.00
1140.288, 57859.00
1141.380, 57474.08
1142.473, 56872.00
1143.565, 56405.00
1144.657, 55999.00
1145.749, 55557.04
1146.841, 55098.00
1147.932, 54799.00
1149.024, 54424.00
1150.115, 54011.00
1151.206, 53981.00
1152.297, 53824.00
1153.388, 53432.00
1154.479, 53140.00
1155.569, 53410.00
1156.659, 53413.00
1157.750, 53164.00
1158.839, 53314.00
1159.929, 53231.00
1161.019, 53343.00
1162.108, 53262.00
1163.198, 53133.00
1164.287, 53267.00
1165.376, 53463.00
1166.465, 53365.00
1167.553, 53340.00
1168.642, 53713.00
1169.730, 53209.00
1170.818, 53642.00
1171.906, 53340.00
1172.994, 53323.00
1174.082, 53116.00
1175.170, 53385.00
1176.257, 53564.00
1177.344, 53455.00
1178.431, 53579.00
1179.518, 53738.00
1180.605, 53408.00
1181.691, 53452.00
1182.778, 53546.00
1183.864, 53472.00
1184.950, 53598.00
1186.036, 53619.94
1187.122, 53620.98
1188.207, 53673.00
1189.292, 53643.00
1190.378, 53553.00
1191.463, 53545.00
1192.548, 53520.60
1193.632, 53607.00
1194.717, 53563.00
1195.801, 53634.00
1196.886, 53777.00
1197.970, 53566.00
1199.054, 53848.00
1200.137, 53782.00
1201.221, 53811.00
1202.305, 54133.00
1203.388, 53909.00
1204.471, 54173.00
1205.554, 54042.00
1206.637, 54000.00
1207.719, 53940.00
1208.802, 54221.00
1209.884, 54067.00
1210.966, 54532.00
1212.048, 53950.00
1213.130, 54249.00
1214.212, 54714.00
1215.293, 54512.00
1216.374, 54615.00
1217.456, 54480.00
1218.536, 54844.00
1219.617, 54495.00
1220.698, 54585.00
1221.778, 54734.00
1222.859, 54547.00
1223.939, 54648.00
1225.019, 54614.00
1226.099, 54814.00
1227.178, 54886.00
1228.258, 54867.00
1229.337, 55010.00
1230.417, 55106.00
1231.496, 55022.00
1232.574, 55061.00
1233.653, 55424.00
1234.732, 55348.00
1235.810, 55619.00
1236.888, 55637.00
1237.966, 55648.00
1239.044, 55620.00
1240.122, 55709.00
1241.199, 55904.00
1242.277, 55882.00
1243.354, 55598.00
1244.431, 55581.00
1245.508, 56032.00
1246.585, 55854.00
1247.661, 56044.00
1248.738, 55992.00
1249.814, 56207.00
1250.890, 55959.00
1251.966, 55804.00
1253.042, 56184.00
1254.117, 56023.00
1255.193, 55813.00
1256.268, 56071.00
1257.343, 55798.00
1258.418, 56029.00
1259.493, 56017.00
1260.567, 56282.00
1261.642, 56265.00
1262.716, 56682.00
1263.790, 56702.00
1264.864, 56729.00
1265.938, 57178.00
1267.011, 57103.00
1268.085, 57016.00
1269.158, 57038.00
1270.231, 56891.00
1271.304, 57261.00
1272.377, 57307.00
1273.450, 57334.00
1274.522, 57402.00
1275.594, 57178.00
1276.666, 57059.00
1277.738, 56761.00
1278.810, 56986.00
1279.882, 56973.00
1280.953, 56645.00
1282.025, 56974.00
1283.096, 56600.00
1284.167, 56746.00
1285.238, 56963.00
1286.308, 56973.00
