##NAMES=Epididymite
##RRUFFID=R070580
##IDEAL CHEMISTRY=Na_2_Be_2_Si_6_O_15_&#183;H_2_O
##LOCALITY=Narsarsuk, Narsaq, Kitaa, Greenland
##OWNER=RRUFF
##SOURCE=James Shigley
##DESCRIPTION=A translucent to white elongated prism.
##STATUS=The identification of this mineral is confirmed by single-crystal X-ray diffraction and chemical analysis.
##URL=rruff.info/R070580
##MEASURED CHEMISTRY=(Na_1.97_K_0.03_)_Σ=2_Be_2_Si_6.00_O_15_·H_2_O; trace amounts of Al; Be and H_2_O assumed by stoichiometry
##PIN_ID=M01755
##ORIENTATION=Laser parallel to -a* (-1 0 0). Fiducial mark perpendicular to laser is parallel to b [0 1 0]
111.2060, 10974.00
112.4440, 11028.00
113.6810, 11312.00
114.9180, 11847.00
116.1550, 12378.00
117.3920, 12757.00
118.6290, 13356.00
119.8650, 13928.00
121.1010, 14820.00
122.3370, 15472.00
123.5730, 16344.00
124.8090, 16661.00
126.0450, 16540.00
127.2800, 16831.00
128.5150, 17378.00
129.7500, 18131.00
130.9850, 19131.00
132.2200, 19952.00
133.4540, 20423.00
134.6890, 20151.00
135.9230, 19055.00
137.1570, 17457.00
138.3900, 16295.00
139.6240, 15675.00
140.8580, 15395.00
142.0910, 15143.00
143.3240, 15004.00
144.5570, 14962.12
145.7900, 15099.00
147.0220, 15080.00
148.2550, 15356.00
149.4870, 15534.00
150.7190, 15407.00
151.9510, 15316.00
153.1830, 15177.00
154.4140, 14655.00
155.6460, 14080.00
156.8770, 13445.00
158.1080, 12970.00
159.3390, 12623.00
160.5690, 12627.00
161.8000, 12480.00
163.0300, 12427.00
164.2600, 12373.00
165.4900, 12369.00
166.7200, 12332.70
167.9500, 12317.00
169.1790, 12333.00
170.4080, 12367.00
171.6380, 12440.00
172.8670, 12420.00
174.0950, 12314.00
175.3240, 12460.00
176.5520, 12339.00
177.7810, 12420.00
179.0090, 12529.00
180.2370, 12513.00
181.4640, 12592.40
182.6920, 12612.00
183.9190, 12649.00
185.1460, 12728.00
186.3730, 12715.00
187.6000, 12934.00
188.8270, 13093.00
190.0530, 13130.00
191.2800, 13138.00
192.5060, 13316.00
193.7320, 13360.00
194.9580, 13640.00
196.1830, 13769.00
197.4090, 13726.00
198.6340, 13920.00
199.8590, 13889.00
201.0840, 13822.00
202.3090, 13835.00
203.5340, 13686.00
204.7580, 13640.00
205.9820, 13453.00
207.2060, 13412.00
208.4300, 13307.00
209.6540, 13408.00
210.8780, 13316.00
212.1010, 13312.00
213.3240, 13467.00
214.5470, 13346.00
215.7700, 13337.00
216.9930, 13573.00
218.2150, 13530.00
219.4380, 13681.00
220.6600, 13656.00
221.8820, 13908.00
223.1040, 14045.00
224.3260, 14157.00
225.5470, 14364.00
226.7680, 14458.00
227.9900, 15046.00
229.2110, 15312.00
230.4310, 15884.00
231.6520, 16500.00
232.8720, 17059.00
234.0930, 17840.00
235.3130, 18522.00
236.5330, 19244.00
237.7530, 20166.00
238.9720, 21055.00
240.1920, 21819.00
241.4110, 22551.00
242.6300, 22680.00
243.8490, 22252.00
245.0680, 21574.00
246.2860, 20636.00
247.5040, 19599.00
248.7230, 18579.00
249.9410, 17838.00
251.1590, 17282.00
252.3760, 16720.00
253.5940, 16307.00
254.8110, 16207.00
256.0280, 15943.00
257.2450, 15625.00
258.4620, 15856.00
259.6790, 15692.00
260.8950, 15685.00
262.1120, 15298.00
263.3280, 14959.00
264.5440, 14681.00
265.7600, 14506.51
266.9750, 14410.00
268.1910, 14352.00
269.4060, 14216.00
270.6210, 14299.00
271.8360, 14297.00
273.0510, 14130.00
274.2650, 14020.00
275.4800, 14287.00
276.6940, 14189.00
277.9080, 14145.00
279.1220, 14396.00
280.3360, 14296.00
281.5490, 14613.00
282.7630, 14632.00
283.9760, 14889.00
285.1890, 14911.00
286.4020, 14768.00
287.6150, 14610.00
288.8270, 14311.00
290.0400, 14385.00
291.2520, 14305.00
292.4640, 14103.00
293.6760, 14069.00
294.8870, 14089.00
296.0990, 14038.00
297.3100, 14057.02
298.5210, 14025.00
299.7320, 14096.00
300.9430, 14101.00
302.1540, 14158.00
303.3640, 14168.00
304.5750, 14198.40
305.7850, 14204.39
306.9950, 14239.00
308.2050, 14222.00
309.4140, 14210.00
310.6240, 14267.00
311.8330, 14257.00
313.0420, 14280.91
314.2510, 14334.26
315.4600, 14327.00
316.6680, 14393.00
317.8770, 14442.00
319.0850, 14376.00
320.2930, 14375.00
321.5010, 14433.65
322.7090, 14439.77
323.9160, 14560.00
325.1240, 14571.00
326.3310, 14643.00
327.5380, 14774.00
328.7450, 14792.99
329.9520, 14743.00
331.1580, 14881.00
332.3650, 14861.00
333.5710, 14854.00
334.7770, 14912.00
335.9830, 14934.00
337.1880, 14957.00
338.3940, 14850.00
339.5990, 14940.00
340.8040, 14951.00
342.0090, 14791.00
343.2140, 14885.00
344.4190, 14963.00
345.6230, 14986.00
346.8280, 15170.00
348.0320, 15059.00
349.2360, 15002.00
350.4400, 15143.00
351.6430, 15060.00
352.8470, 15102.00
354.0500, 15224.00
355.2530, 15177.00
356.4560, 15159.00
357.6590, 15093.00
358.8620, 15181.00
360.0640, 15196.45
361.2660, 15242.00
362.4680, 15326.00
363.6700, 15425.00
364.8720, 15484.00
366.0740, 15481.00
367.2750, 15486.00
368.4760, 15763.00
369.6770, 15725.00
370.8780, 15931.00
372.0790, 16191.00
373.2800, 16381.00
374.4800, 16711.00
375.6800, 16798.00
376.8800, 17184.00
378.0800, 17295.00
379.2800, 17862.00
380.4790, 17906.00
381.6790, 18180.00
382.8780, 18472.00
384.0770, 18283.00
385.2760, 18342.00
386.4750, 18138.00
387.6730, 17927.00
388.8720, 17704.00
390.0700, 17290.00
391.2680, 17165.00
392.4660, 16963.00
393.6630, 16807.00
394.8610, 16666.00
396.0580, 16924.00
397.2550, 17118.00
398.4520, 17450.00
399.6490, 17977.00
400.8460, 18587.00
402.0420, 19212.00
403.2390, 19956.00
404.4350, 20977.00
405.6310, 22318.00
406.8270, 23442.00
408.0220, 24468.00
409.2180, 25092.00
410.4130, 24202.00
411.6080, 22652.00
412.8030, 20701.00
413.9980, 19043.00
415.1920, 17878.00
416.3870, 17281.00
417.5810, 16805.00
418.7750, 16606.00
419.9690, 16552.00
421.1630, 16332.00
422.3570, 16311.00
423.5500, 16283.00
424.7430, 16271.00
425.9360, 16206.00
427.1290, 16257.00
428.3220, 16251.00
429.5150, 16242.00
430.7070, 16353.00
431.8990, 16308.00
433.0910, 16433.00
434.2830, 16390.00
435.4750, 16494.00
436.6670, 16325.00
437.8580, 16436.00
439.0490, 16456.00
440.2400, 16512.00
441.4310, 16465.00
442.6220, 16467.00
443.8130, 16363.00
445.0030, 16401.62
446.1930, 16391.61
447.3830, 16430.00
448.5730, 16489.00
449.7630, 16480.00
450.9520, 16652.00
452.1420, 16860.00
453.3310, 16757.00
454.5200, 16938.00
455.7090, 16901.00
456.8980, 16987.00
458.0860, 17101.00
459.2740, 17074.00
460.4630, 17381.00
461.6510, 17720.00
462.8380, 17778.00
464.0260, 18056.00
465.2140, 18590.00
466.4010, 19366.00
467.5880, 20233.00
468.7750, 21238.00
469.9620, 22176.00
471.1490, 23355.00
472.3350, 24806.00
473.5220, 26502.00
474.7080, 28175.00
475.8940, 29788.00
477.0800, 30151.00
478.2650, 29855.00
479.4510, 27649.00
480.6360, 25277.00
481.8210, 23032.00
483.0060, 21446.00
484.1910, 20304.00
485.3760, 19757.00
486.5600, 19332.00
487.7440, 19059.00
488.9290, 18835.00
490.1130, 18788.00
491.2960, 18447.00
492.4800, 18432.00
493.6630, 18240.00
494.8470, 18315.00
496.0300, 18403.00
497.2130, 18339.00
498.3960, 18366.00
499.5780, 18665.00
500.7610, 18587.00
501.9430, 18695.00
503.1250, 19033.00
504.3070, 19754.00
505.4890, 20122.00
506.6710, 20724.00
507.8520, 21728.00
509.0330, 23146.00
510.2140, 25083.00
511.3950, 27511.00
512.5760, 30321.00
513.7570, 33477.00
514.9370, 36958.00
516.1170, 40907.00
517.2980, 46195.00
518.4780, 50708.00
519.6570, 54405.00
520.8370, 56162.00
522.0160, 54486.00
523.1960, 49542.00
524.3750, 42833.00
525.5540, 36510.00
526.7320, 31123.00
527.9110, 27581.00
529.0890, 25319.00
530.2680, 23467.00
531.4460, 22217.00
532.6240, 21640.00
533.8010, 20976.00
534.9790, 20535.00
536.1560, 20141.49
537.3340, 19788.00
538.5110, 19608.00
539.6880, 19453.00
540.8650, 19366.00
542.0410, 19066.00
543.2180, 18957.00
544.3940, 18716.00
545.5700, 18852.00
546.7460, 18809.00
547.9220, 18752.00
549.0970, 18749.00
550.2730, 18822.00
551.4480, 18828.00
552.6230, 18741.00
553.7980, 18629.00
554.9730, 18559.00
556.1470, 18447.00
557.3210, 18471.11
558.4960, 18473.00
559.6700, 18543.00
560.8440, 18623.00
562.0170, 18669.00
563.1910, 18616.00
564.3640, 18680.00
565.5380, 18684.00
566.7110, 18669.00
567.8840, 18427.00
569.0560, 18754.00
570.2290, 18547.00
571.4010, 18703.00
572.5740, 18618.00
573.7460, 18724.00
574.9180, 18810.00
576.0890, 19016.00
577.2610, 18914.00
578.4320, 19008.00
579.6040, 19107.00
580.7750, 19202.00
581.9450, 19438.00
583.1160, 19686.00
584.2870, 19777.00
585.4570, 19814.00
586.6270, 19571.00
587.7980, 19762.00
588.9670, 19478.00
590.1370, 19222.00
591.3070, 19338.00
592.4760, 19194.00
593.6450, 19020.00
594.8140, 19106.00
595.9830, 18923.00
597.1520, 19106.00
598.3210, 19141.00
599.4890, 18956.00
600.6570, 19159.00
601.8250, 18943.00
602.9930, 19099.00
604.1610, 19052.00
605.3290, 19104.00
606.4960, 19068.00
607.6630, 19112.00
608.8300, 19026.00
609.9970, 19096.74
611.1640, 19232.00
612.3300, 19205.00
613.4970, 19207.00
614.6630, 19263.00
615.8290, 19197.00
616.9950, 19272.00
618.1610, 19381.00
619.3260, 19284.00
620.4920, 19403.00
621.6570, 19399.00
622.8220, 19321.00
623.9870, 19291.00
625.1520, 19346.00
626.3160, 19418.00
627.4810, 19380.00
628.6450, 19374.00
629.8090, 19631.00
630.9730, 19649.00
632.1370, 19543.00
633.3000, 19724.00
634.4640, 19461.00
635.6270, 19629.00
636.7900, 19737.00
637.9530, 19729.00
639.1160, 19841.00
640.2780, 19815.00
641.4410, 19762.00
642.6030, 19759.00
643.7650, 19800.00
644.9270, 19649.00
646.0890, 19758.00
647.2500, 19775.00
648.4120, 19654.00
649.5730, 19701.00
650.7340, 19799.00
651.8950, 19700.00
653.0560, 19748.00
654.2160, 19815.00
655.3770, 19852.00
656.5370, 19904.00
657.6970, 19891.00
658.8570, 19702.00
660.0170, 20019.00
661.1760, 19705.00
662.3360, 19832.00
663.4950, 19660.00
664.6540, 19870.00
665.8130, 20042.00
666.9720, 20063.00
668.1310, 20128.07
669.2890, 20102.00
670.4470, 20124.00
671.6050, 20000.00
672.7630, 20053.00
673.9210, 20019.64
675.0790, 20148.00
676.2360, 20062.00
677.3930, 20122.00
678.5510, 20261.00
679.7080, 20094.00
680.8640, 20177.00
682.0210, 20271.00
683.1770, 20410.00
684.3340, 20411.00
685.4900, 20296.00
686.6460, 20304.00
687.8020, 20257.00
688.9570, 20147.00
690.1130, 20219.00
691.2680, 20074.00
692.4230, 20231.00
693.5780, 20439.00
694.7330, 20426.00
695.8880, 20685.00
697.0420, 20434.00
698.1960, 20550.00
699.3510, 20494.00
700.5040, 20599.00
701.6580, 20516.00
702.8120, 20404.00
703.9650, 20438.00
705.1190, 20479.00
706.2720, 20480.00
707.4250, 20694.00
708.5780, 20662.00
709.7300, 20826.00
710.8830, 20676.00
712.0350, 20666.00
713.1870, 20755.00
714.3390, 20737.00
715.4910, 20630.00
716.6430, 20716.00
717.7940, 20692.00
718.9460, 20918.00
720.0970, 20878.00
721.2480, 21094.00
722.3990, 21101.00
723.5500, 21206.00
724.7000, 20919.00
725.8500, 21026.00
727.0010, 20994.00
728.1510, 21070.00
729.3010, 21039.00
730.4500, 21267.00
731.6000, 21022.00
732.7490, 21166.00
733.8980, 21256.00
735.0470, 21016.00
736.1960, 21253.00
737.3450, 21350.00
738.4940, 21285.00
739.6420, 21438.00
740.7900, 21348.00
741.9380, 21384.00
743.0860, 21478.00
744.2340, 21384.00
745.3810, 21620.00
746.5290, 21583.00
747.6760, 21750.00
748.8230, 21775.00
749.9700, 21836.00
751.1170, 21742.00
752.2630, 22053.00
753.4100, 22228.00
754.5560, 22321.00
755.7020, 22225.00
756.8480, 22302.00
757.9940, 22277.00
759.1390, 22269.00
760.2850, 22223.00
761.4300, 22197.13
762.5750, 22196.00
763.7200, 22101.00
764.8650, 22071.00
766.0100, 21974.00
767.1540, 21996.00
768.2980, 21976.00
769.4420, 21856.00
770.5860, 21850.00
771.7300, 21927.00
772.8740, 21896.00
774.0170, 21898.00
775.1610, 22118.00
776.3040, 21996.00
777.4470, 22118.00
778.5900, 22027.00
779.7320, 22130.00
780.8750, 21970.00
782.0170, 22033.00
783.1590, 22067.00
784.3010, 22135.00
785.4430, 22055.00
786.5850, 22250.00
787.7260, 22100.00
788.8680, 22408.00
790.0090, 22291.00
791.1500, 22312.00
792.2910, 22285.00
793.4310, 22305.00
794.5720, 22327.00
795.7120, 22248.00
796.8520, 22499.00
797.9920, 22425.00
799.1320, 22623.00
800.2720, 22555.00
801.4120, 22394.00
802.5510, 22497.00
803.6900, 22669.00
804.8290, 22486.00
805.9680, 22440.00
807.1070, 22620.00
808.2450, 22607.00
809.3840, 22874.00
810.5220, 22978.61
811.6600, 22964.71
812.7980, 23222.00
813.9360, 23063.00
815.0730, 22999.00
816.2110, 23324.00
817.3480, 23275.00
818.4850, 23170.00
819.6220, 23162.00
820.7590, 23214.00
821.8960, 23028.00
823.0320, 23039.00
824.1680, 23260.00
825.3040, 22985.00
826.4400, 23037.00
827.5760, 23095.00
828.7120, 23050.00
829.8470, 23090.00
830.9830, 22946.00
832.1180, 23028.50
833.2530, 23038.00
834.3880, 23107.00
835.5220, 23212.00
836.6570, 23218.00
837.7910, 23277.95
838.9250, 23101.00
840.0590, 23242.00
841.1930, 23435.00
842.3270, 23227.00
843.4600, 23176.00
844.5940, 23196.00
845.7270, 23145.04
846.8600, 23295.00
847.9930, 23241.00
849.1250, 23186.00
850.2580, 23314.00
851.3900, 23256.00
852.5230, 23483.00
853.6550, 23470.00
854.7870, 23355.00
855.9180, 23516.00
857.0500, 23579.00
858.1810, 23658.00
859.3130, 23591.00
860.4440, 23492.00
861.5750, 23685.00
862.7050, 23731.00
863.8360, 23417.00
864.9660, 23758.00
866.0970, 23705.00
867.2270, 23645.00
868.3570, 23835.00
869.4870, 23905.00
870.6160, 23769.00
871.7460, 23746.00
872.8750, 23877.00
874.0040, 23703.00
875.1330, 23941.00
876.2620, 23846.00
877.3910, 24026.00
878.5190, 23802.00
879.6470, 24199.00
880.7760, 24009.00
881.9040, 24050.00
883.0310, 24013.00
884.1590, 24091.00
885.2870, 24069.00
886.4140, 24071.00
887.5410, 23995.00
888.6680, 24052.00
889.7950, 24311.00
890.9220, 24049.00
892.0480, 24227.00
893.1750, 24420.00
894.3010, 24352.00
895.4270, 24249.00
896.5530, 24279.00
897.6790, 24338.00
898.8040, 24336.00
899.9300, 24315.00
901.0550, 24415.00
902.1800, 24543.00
903.3050, 24480.00
904.4300, 24535.00
905.5540, 24522.00
906.6790, 24463.00
907.8030, 24560.00
908.9270, 24578.00
910.0510, 24643.00
911.1750, 24492.00
912.2990, 24670.00
913.4220, 24553.00
914.5450, 24654.00
915.6690, 24670.00
916.7920, 24810.00
917.9140, 24785.26
919.0370, 24834.00
920.1600, 24725.00
921.2820, 24812.00
922.4040, 24714.00
923.5260, 24862.00
924.6480, 24799.00
925.7700, 24985.00
926.8910, 24844.00
928.0130, 24962.00
929.1340, 24899.00
930.2550, 24906.00
931.3760, 25209.00
932.4970, 24840.00
933.6170, 25032.00
934.7380, 25234.00
935.8580, 25064.00
936.9780, 25049.00
938.0980, 25369.00
939.2180, 25038.00
940.3370, 25290.00
941.4570, 25078.00
942.5760, 25157.00
943.6950, 25286.00
944.8140, 25327.00
945.9330, 25376.57
947.0520, 25391.00
948.1700, 25404.00
949.2890, 25413.00
950.4070, 25383.00
951.5250, 25396.29
952.6430, 25379.25
953.7600, 25396.00
954.8780, 25353.00
955.9950, 25357.00
957.1120, 25342.00
958.2290, 25357.00
959.3460, 25343.00
960.4630, 25393.00
961.5800, 25310.00
962.6960, 25682.00
963.8120, 25571.00
964.9280, 25648.00
966.0440, 25600.00
967.1600, 25599.00
968.2760, 25813.00
969.3910, 25604.00
970.5060, 25731.00
971.6210, 25958.00
972.7360, 25845.00
973.8510, 25834.00
974.9660, 25937.00
976.0800, 25895.59
977.1950, 25941.73
978.3090, 25988.00
979.4230, 25953.00
980.5370, 26059.00
981.6500, 25995.00
982.7640, 26031.00
983.8770, 26067.00
984.9900, 26078.00
986.1030, 26152.81
987.2160, 26297.00
988.3290, 26260.00
989.4420, 26327.00
990.5540, 26308.00
991.6660, 26201.00
992.7780, 26268.67
993.8900, 26348.00
995.0020, 26350.00
996.1140, 26258.00
997.2250, 26389.00
998.3360, 26435.00
999.4470, 26577.00
1000.558, 26658.00
1001.669, 26687.00
1002.780, 26815.00
1003.890, 26810.00
1005.001, 26607.00
1006.111, 26652.00
1007.221, 26710.00
1008.331, 26689.00
1009.440, 26996.00
1010.550, 27059.00
1011.659, 26944.00
1012.768, 26848.00
1013.877, 27089.00
1014.986, 27040.00
1016.095, 27078.00
1017.204, 26937.00
1018.312, 26928.00
1019.420, 26800.00
1020.528, 26887.00
1021.636, 26708.00
1022.744, 26947.00
1023.852, 26730.00
1024.959, 26813.00
1026.066, 27102.00
1027.173, 27068.00
1028.280, 27037.00
1029.387, 27217.00
1030.494, 27190.00
1031.600, 27340.00
1032.707, 27106.00
1033.813, 27053.00
1034.919, 27262.00
1036.025, 27268.00
1037.130, 27538.00
1038.236, 27621.00
1039.341, 27625.00
1040.446, 27857.00
1041.552, 27625.00
1042.656, 27985.00
1043.761, 28253.00
1044.866, 28117.00
1045.970, 28245.00
1047.074, 28410.00
1048.179, 28342.00
1049.282, 28380.00
1050.386, 28378.00
1051.490, 28620.00
1052.593, 28566.35
1053.697, 28567.00
1054.800, 28536.00
1055.903, 28518.00
1057.006, 28511.62
1058.108, 28448.00
1059.211, 28475.00
1060.313, 28481.00
1061.415, 28424.00
1062.517, 28475.00
1063.619, 28526.00
1064.721, 28695.00
1065.823, 28554.00
1066.924, 28572.00
1068.025, 28533.00
1069.126, 28457.69
1070.227, 28476.22
1071.328, 28365.00
1072.429, 28481.00
1073.529, 28487.00
1074.629, 28529.00
1075.729, 28333.00
1076.829, 28266.00
1077.929, 28334.00
1079.029, 28273.00
1080.128, 28510.00
1081.228, 28438.00
1082.327, 28490.00
1083.426, 28551.00
1084.525, 28589.00
1085.623, 28682.00
1086.722, 28759.00
1087.820, 28456.00
1088.919, 28303.00
1090.017, 28375.00
1091.115, 28538.00
1092.212, 28455.00
1093.310, 28597.00
1094.407, 28512.00
1095.505, 28484.00
1096.602, 28449.00
1097.699, 28716.00
1098.795, 28518.00
1099.892, 28406.00
1100.989, 28691.00
1102.085, 28661.00
1103.181, 29003.00
1104.277, 28781.00
1105.373, 28768.00
1106.469, 29168.00
1107.564, 29034.00
1108.660, 28901.00
1109.755, 29216.00
1110.850, 29093.00
1111.945, 29104.00
1113.040, 29219.00
1114.134, 29289.00
1115.229, 29172.00
1116.323, 29463.00
1117.417, 29342.00
1118.511, 29421.00
1119.605, 29392.00
1120.698, 29360.00
1121.792, 29576.00
1122.885, 29469.00
1123.978, 29591.00
1125.071, 29532.00
1126.164, 29848.00
1127.257, 29694.00
1128.349, 29864.00
1129.442, 29784.00
1130.534, 29985.00
1131.626, 30363.00
1132.718, 30524.00
1133.810, 30724.00
1134.901, 30785.00
1135.993, 31097.00
1137.084, 31125.00
1138.175, 31042.00
1139.266, 31474.00
1140.357, 31451.00
1141.448, 31335.00
1142.538, 31158.00
1143.628, 30934.00
1144.719, 31038.00
1145.809, 31085.00
1146.898, 30781.00
1147.988, 30765.00
1149.078, 30589.00
1150.167, 30272.00
1151.256, 30269.00
1152.345, 29902.00
1153.434, 30047.00
1154.523, 29921.00
1155.612, 30044.00
1156.700, 29769.00
1157.788, 29916.00
1158.877, 29972.00
1159.964, 29995.00
1161.052, 30213.00
1162.140, 30017.00
1163.227, 30097.00
1164.315, 30207.00
1165.402, 29911.00
1166.489, 30040.00
1167.576, 30227.00
1168.663, 29983.00
1169.749, 29974.00
1170.836, 29857.00
1171.922, 30077.00
1173.008, 30202.00
1174.094, 30038.00
1175.180, 30301.00
1176.265, 30113.00
1177.351, 30168.00
1178.436, 30041.00
1179.521, 30064.96
1180.606, 29947.00
1181.691, 30220.00
1182.776, 30204.00
1183.860, 30465.00
1184.944, 30310.00
1186.029, 30258.00
1187.113, 30413.00
1188.197, 30557.00
1189.280, 30630.00
1190.364, 30446.00
1191.447, 30498.00
1192.531, 30444.00
1193.614, 30383.00
1194.697, 30262.00
1195.779, 30317.38
1196.862, 30351.09
1197.945, 30417.00
1199.027, 30582.00
1200.109, 30660.00
1201.191, 30846.00
1202.273, 30952.00
1203.355, 30860.00
1204.436, 30682.00
1205.518, 30778.00
1206.599, 30552.00
1207.680, 30655.00
1208.761, 30580.00
1209.842, 30787.00
1210.922, 30700.00
1212.003, 30984.00
1213.083, 30875.00
1214.163, 31012.00
1215.243, 31080.00
1216.323, 30903.00
1217.402, 31138.00
1218.482, 31194.00
1219.561, 30956.00
1220.641, 31167.00
1221.720, 30859.00
1222.798, 30985.00
1223.877, 31078.00
1224.956, 31022.00
1226.034, 31030.00
1227.112, 31257.00
1228.191, 31157.00
1229.269, 31016.00
1230.346, 31392.00
1231.424, 31396.00
1232.501, 31152.00
1233.579, 31173.00
1234.656, 31206.00
1235.733, 31315.00
1236.810, 31338.84
1237.886, 31405.05
1238.963, 31468.00
1240.039, 31483.00
1241.116, 31586.00
1242.192, 31562.00
1243.268, 31592.00
1244.343, 31583.28
1245.419, 31466.00
1246.494, 31509.00
1247.570, 31450.00
1248.645, 31376.00
1249.720, 31672.00
1250.795, 31622.00
1251.869, 31669.00
1252.944, 32108.00
1254.018, 31777.00
1255.093, 31920.00
1256.167, 31932.00
1257.240, 31875.00
1258.314, 31838.00
1259.388, 31914.00
1260.461, 32098.00
1261.535, 32019.00
1262.608, 31860.00
1263.681, 31677.00
1264.753, 31993.00
1265.826, 31740.00
1266.899, 32218.00
1267.971, 32050.00
1269.043, 31929.00
1270.115, 32373.00
1271.187, 32201.00
1272.259, 32273.00
1273.330, 32118.00
1274.402, 32303.00
1275.473, 32053.00
1276.544, 32254.00
1277.615, 32262.00
1278.686, 32435.00
1279.756, 32298.00
1280.827, 32434.00
1281.897, 32409.00
1282.967, 32363.00
1284.037, 32564.00
1285.107, 32416.00
