##NAMES=Epidote
##RRUFFID=R050191
##IDEAL CHEMISTRY=Ca_2_Fe^3+^Al_2_(Si_2_O_7_)(SiO_4_)O(OH)
##LOCALITY=Pampa Blanca, Castrovirreyna Province, Huancavelica Department, Peru
##OWNER=RRUFF
##SOURCE=Dave Bunk Minerals
##DESCRIPTION=Cluster of green elongated prismatic crystals
##STATUS=The identification of this mineral has been confirmed by X-ray diffraction and chemical analysis
##URL=rruff.info/R050191
##MEASURED CHEMISTRY=Ca_2.00_Al_2.00_(Fe^3+^_0.84_Al_0.16_)(SiO_4_)(Si_2_O_7_)O(OH)
##PIN_ID=L00883
##ORIENTATION=Laser parallel to (1 0 1). Fiducial mark perpendicular to laser is parallel to b [0 1 0]
53.91000, 532.0000
55.14900, 561.0000
56.38700, 560.0000
57.62600, 593.0000
58.86400, 589.0000
60.10300, 605.0000
61.34100, 618.0000
62.57900, 652.0000
63.81700, 682.0000
65.05400, 740.0000
66.29200, 828.0000
67.52900, 985.0000
68.76700, 1251.000
70.00400, 1539.000
71.24100, 1619.000
72.47700, 1677.000
73.71400, 1967.000
74.95100, 2347.000
76.18700, 3025.000
77.42300, 3402.000
78.65900, 4146.000
79.89500, 5224.000
81.13100, 6520.000
82.36700, 8026.000
83.60200, 9875.000
84.83700, 11637.00
86.07200, 13335.00
87.30800, 15295.00
88.54200, 16661.00
89.77700, 18101.00
91.01200, 18970.00
92.24600, 19597.00
93.48000, 19554.00
94.71400, 19264.00
95.94800, 17827.00
97.18200, 16032.00
98.41600, 14430.00
99.64900, 13021.00
100.8830, 11702.00
102.1160, 10371.00
103.3490, 9661.000
104.5820, 9238.000
105.8150, 8908.000
107.0470, 9758.000
108.2800, 8757.873
109.5120, 9698.000
110.7440, 7774.000
111.9760, 7158.000
113.2080, 7203.000
114.4400, 7376.000
115.6710, 7471.000
116.9030, 7373.000
118.1340, 7353.000
119.3650, 7304.000
120.5960, 7387.000
121.8270, 7637.000
123.0580, 7670.000
124.2880, 7801.000
125.5190, 7444.000
126.7490, 7400.000
127.9790, 7424.000
129.2090, 7468.000
130.4390, 7360.000
131.6680, 7405.000
132.8980, 7279.000
134.1270, 7117.000
135.3560, 7103.000
136.5850, 7226.000
137.8140, 7179.000
139.0430, 7327.000
140.2710, 7243.000
141.5000, 7046.000
142.7280, 6976.000
143.9560, 7066.000
145.1840, 7272.000
146.4120, 7264.000
147.6390, 7324.000
148.8670, 7520.000
150.0940, 7598.000
151.3210, 7652.288
152.5490, 7743.000
153.7750, 7793.000
155.0020, 7916.000
156.2290, 8132.000
157.4550, 8259.000
158.6810, 8638.000
159.9080, 9143.000
161.1340, 9847.000
162.3590, 10572.00
163.5850, 11228.00
164.8110, 11729.00
166.0360, 11993.00
167.2610, 12191.00
168.4860, 12150.00
169.7110, 12037.00
170.9360, 11741.00
172.1610, 11209.00
173.3850, 10400.00
174.6100, 10079.00
175.8340, 9597.000
177.0580, 9336.000
178.2820, 8842.000
179.5050, 8589.000
180.7290, 8207.000
181.9520, 8028.000
183.1760, 8057.000
184.3990, 8062.000
185.6220, 7929.000
186.8450, 8011.000
188.0670, 8086.000
189.2900, 8282.000
190.5120, 8449.000
191.7340, 8675.000
192.9560, 9173.000
194.1780, 9413.000
195.4000, 9707.000
196.6220, 9970.000
197.8430, 10026.00
199.0640, 10261.00
200.2860, 10500.00
201.5070, 10676.00
202.7270, 10665.00
203.9480, 10515.00
205.1690, 10232.00
206.3890, 10147.00
207.6090, 9832.000
208.8290, 9531.000
210.0490, 9417.000
211.2690, 9354.000
212.4890, 9340.000
213.7080, 9473.000
214.9280, 9547.000
216.1470, 9742.000
217.3660, 10190.00
218.5850, 10654.00
219.8030, 11267.00
221.0220, 11507.00
222.2400, 11971.00
223.4590, 12216.00
224.6770, 12433.00
225.8950, 12569.00
227.1120, 12645.00
228.3300, 12689.00
229.5480, 12809.00
230.7650, 12933.00
231.9820, 13172.00
233.1990, 13321.00
234.4160, 13449.00
235.6330, 13556.00
236.8490, 13561.00
238.0660, 13583.00
239.2820, 13462.00
240.4980, 13275.00
241.7140, 13023.00
242.9300, 12844.00
244.1460, 12661.00
245.3610, 12198.00
246.5770, 11867.00
247.7920, 11247.00
249.0070, 10693.00
250.2220, 10180.00
251.4370, 9841.726
252.6510, 9632.000
253.8660, 9419.000
255.0800, 9394.000
256.2940, 9471.000
257.5080, 10024.00
258.7220, 10153.70
259.9360, 11082.00
261.1490, 11220.00
262.3630, 11917.00
263.5760, 13279.00
264.7890, 14615.00
266.0020, 16304.00
267.2150, 17603.00
268.4270, 18811.00
269.6400, 19280.00
270.8520, 20050.00
272.0640, 20240.00
273.2760, 20671.00
274.4880, 20704.00
275.7000, 20769.00
276.9120, 20693.00
278.1230, 19996.00
279.3340, 18937.00
280.5450, 17598.00
281.7560, 16110.00
282.9670, 14854.00
284.1780, 13859.00
285.3880, 13485.00
286.5980, 13365.00
287.8090, 13447.00
289.0190, 13649.00
290.2290, 13967.00
291.4380, 14139.81
292.6480, 14362.00
293.8570, 14606.00
295.0670, 14740.00
296.2760, 14882.00
297.4850, 14967.67
298.6930, 15006.00
299.9020, 15013.00
301.1110, 14924.00
302.3190, 14836.00
303.5270, 14772.00
304.7350, 14464.00
305.9430, 14293.00
307.1510, 13979.00
308.3580, 13802.00
309.5660, 13425.00
310.7730, 12992.00
311.9800, 12846.00
313.1870, 12442.00
314.3940, 12151.00
315.6010, 11898.00
316.8070, 11674.00
318.0130, 11549.00
319.2200, 11433.00
320.4260, 11278.00
321.6310, 11215.00
322.8370, 11097.00
324.0430, 11066.00
325.2480, 10885.00
326.4540, 10730.00
327.6590, 10565.00
328.8640, 10350.00
330.0680, 10072.00
331.2730, 9923.000
332.4780, 9923.000
333.6820, 9854.000
334.8860, 9915.000
336.0900, 10193.00
337.2940, 10277.00
338.4980, 10793.00
339.7010, 11391.00
340.9050, 11699.00
342.1080, 12209.00
343.3110, 12460.00
344.5140, 12791.00
345.7170, 12876.00
346.9200, 12558.00
348.1220, 12344.00
349.3240, 12047.00
350.5270, 11716.00
351.7290, 11460.75
352.9310, 11061.97
354.1320, 11001.00
355.3340, 10385.00
356.5350, 10386.00
357.7370, 10304.00
358.9380, 10512.00
360.1390, 10017.00
361.3400, 10079.00
362.5400, 10067.00
363.7410, 9922.000
364.9410, 9703.000
366.1410, 9599.000
367.3410, 9438.000
368.5410, 9059.000
369.7410, 8819.000
370.9400, 8690.000
372.1400, 8514.000
373.3390, 8299.000
374.5380, 8184.000
375.7370, 8090.000
376.9360, 8037.000
378.1350, 7948.000
379.3330, 8067.000
380.5310, 8163.000
381.7300, 8337.000
382.9280, 8283.000
384.1260, 8506.000
385.3230, 8482.000
386.5210, 8663.000
387.7180, 8620.000
388.9160, 8568.000
390.1130, 8397.000
391.3100, 8419.000
392.5060, 8334.000
393.7030, 8409.000
394.9000, 8281.000
396.0960, 8311.000
397.2920, 8399.000
398.4880, 8489.000
399.6840, 8397.000
400.8800, 8655.000
402.0750, 8779.000
403.2710, 9031.000
404.4660, 9290.000
405.6610, 9751.000
406.8560, 10149.00
408.0510, 10755.00
409.2450, 11365.00
410.4400, 12495.00
411.6340, 13805.00
412.8280, 15229.00
414.0220, 17339.00
415.2160, 19560.00
416.4100, 21742.00
417.6030, 23854.00
418.7970, 25650.00
419.9900, 27615.00
421.1830, 29317.00
422.3760, 30986.00
423.5690, 32480.00
424.7610, 33912.00
425.9540, 34988.00
427.1460, 35275.43
428.3380, 35576.00
429.5300, 34871.00
430.7220, 34187.00
431.9140, 33104.00
433.1050, 31965.00
434.2970, 31767.00
435.4880, 31710.00
436.6790, 32130.00
437.8700, 32933.00
439.0610, 34347.00
440.2510, 36477.00
441.4420, 38940.00
442.6320, 41630.00
443.8220, 44875.00
445.0120, 48200.00
446.2020, 51952.00
447.3910, 55249.00
448.5810, 58185.00
449.7700, 60750.00
450.9600, 61956.00
452.1490, 62315.00
453.3370, 62163.00
454.5260, 60546.00
455.7150, 58172.00
456.9030, 55473.00
458.0910, 51993.00
459.2800, 48191.00
460.4670, 43600.00
461.6550, 39000.00
462.8430, 34447.00
464.0300, 30480.00
465.2180, 26760.00
466.4050, 23623.00
467.5920, 21312.00
468.7790, 19029.00
469.9650, 17440.00
471.1520, 16159.00
472.3380, 15180.00
473.5250, 14180.00
474.7110, 13478.00
475.8970, 13040.00
477.0820, 12477.00
478.2680, 12096.00
479.4540, 11926.00
480.6390, 11761.00
481.8240, 11625.00
483.0090, 11672.00
484.1940, 11679.00
485.3780, 11759.00
486.5630, 11905.00
487.7470, 12258.00
488.9320, 12531.00
490.1160, 12902.00
491.3000, 13255.00
492.4830, 13690.00
493.6670, 13981.00
494.8500, 14428.00
496.0340, 14818.00
497.2170, 14922.00
498.4000, 15059.00
499.5820, 15317.00
500.7650, 15368.00
501.9480, 15242.00
503.1300, 15253.00
504.3120, 15091.00
505.4940, 14629.00
506.6760, 14198.00
507.8580, 13556.00
509.0390, 13213.00
510.2210, 12561.00
511.4020, 12224.00
512.5830, 11775.00
513.7640, 11291.00
514.9450, 11064.00
516.1250, 10711.00
517.3060, 10427.00
518.4860, 10255.00
519.6660, 9971.000
520.8460, 9846.000
522.0260, 9692.000
523.2060, 9457.000
524.3850, 9176.000
525.5650, 9103.000
526.7440, 8781.000
527.9230, 8584.000
529.1020, 8433.000
530.2810, 8230.853
531.4590, 8109.000
532.6380, 7997.000
533.8160, 8025.000
534.9940, 8039.000
536.1720, 7917.000
537.3500, 8053.000
538.5270, 8007.000
539.7050, 8300.000
540.8820, 8426.000
542.0590, 8561.000
543.2360, 8864.000
544.4130, 9019.000
545.5900, 9279.000
546.7660, 9647.000
547.9430, 10201.00
549.1190, 10642.00
550.2950, 11543.00
551.4710, 12319.00
552.6470, 13800.00
553.8220, 15719.00
554.9980, 18272.00
556.1730, 20770.00
557.3480, 23362.00
558.5230, 25411.00
559.6980, 26924.00
560.8730, 28398.00
562.0470, 29005.00
563.2220, 29087.00
564.3960, 29285.00
565.5700, 28307.00
566.7440, 27011.00
567.9170, 24594.00
569.0910, 22156.00
570.2640, 19548.00
571.4380, 17487.00
572.6110, 16180.00
573.7840, 15412.00
574.9570, 15162.00
576.1290, 15210.00
577.3020, 15751.00
578.4740, 16201.00
579.6460, 16886.00
580.8180, 17803.00
581.9900, 18750.00
583.1620, 19780.00
584.3330, 20888.00
585.5040, 22050.06
586.6760, 23221.00
587.8470, 24532.00
589.0180, 26227.00
590.1880, 27531.00
591.3590, 28759.00
592.5290, 30197.00
593.7000, 31046.00
594.8700, 31866.00
596.0400, 32073.00
597.2090, 32101.00
598.3790, 31456.00
599.5490, 30892.00
600.7180, 29990.00
601.8870, 28943.00
603.0560, 27812.00
604.2250, 26737.00
605.3940, 25685.00
606.5620, 24826.00
607.7300, 23885.00
608.8990, 22939.00
610.0670, 22034.08
611.2350, 21182.00
612.4020, 20095.00
613.5700, 19058.00
614.7370, 17908.00
615.9050, 16837.00
617.0720, 15680.00
618.2390, 14693.00
619.4060, 13738.00
620.5720, 12922.00
621.7390, 12058.00
622.9050, 11398.00
624.0710, 10841.00
625.2370, 10387.00
626.4030, 9992.000
627.5690, 9652.000
628.7340, 9305.000
629.9000, 9086.000
631.0650, 8857.000
632.2300, 8667.000
633.3950, 8549.000
634.5600, 8419.000
635.7240, 8280.729
636.8890, 7987.000
638.0530, 8031.000
639.2170, 7806.000
640.3810, 7657.000
641.5450, 7618.000
642.7080, 7562.000
643.8720, 7448.000
645.0350, 7361.000
646.1980, 7368.000
647.3610, 7225.000
648.5240, 7275.000
649.6870, 7242.000
650.8490, 7168.000
652.0120, 7083.000
653.1740, 7105.000
654.3360, 7066.173
655.4980, 7056.000
656.6600, 7057.000
657.8210, 7082.000
658.9830, 7047.000
660.1440, 6952.000
661.3050, 6950.000
662.4660, 6961.549
663.6270, 7019.000
664.7870, 7038.000
665.9480, 7066.000
667.1080, 7098.000
668.2680, 7124.000
669.4280, 7135.000
670.5880, 7182.188
671.7480, 7212.000
672.9070, 7283.000
674.0670, 7325.000
675.2260, 7410.000
676.3850, 7553.000
677.5440, 7647.971
678.7030, 7872.000
679.8610, 7956.000
681.0200, 8181.000
682.1780, 8437.000
683.3360, 8512.000
684.4940, 8724.000
685.6520, 8733.000
686.8090, 8803.954
687.9670, 8682.000
689.1240, 8757.000
690.2810, 8583.000
691.4380, 8341.000
692.5950, 8222.000
693.7520, 7963.000
694.9080, 7716.000
696.0650, 7522.000
697.2210, 7331.000
698.3770, 7078.000
699.5330, 6965.000
700.6880, 6874.000
701.8440, 6781.000
702.9990, 6770.000
704.1550, 6614.000
705.3100, 6555.000
706.4650, 6501.000
707.6190, 6393.000
708.7740, 6326.000
709.9290, 6217.000
711.0830, 6263.000
712.2370, 6294.000
713.3910, 6147.000
714.5450, 5969.000
715.6980, 6031.000
716.8520, 6000.000
718.0050, 6095.000
719.1580, 5928.000
720.3110, 5951.000
721.4640, 5955.000
722.6170, 5936.000
723.7700, 5875.000
724.9220, 5943.000
726.0740, 5854.000
727.2260, 5905.000
728.3780, 5809.000
729.5300, 5879.000
730.6810, 5825.000
731.8330, 5810.000
732.9840, 5898.000
734.1350, 5690.000
735.2860, 5803.000
736.4370, 5843.000
737.5880, 5766.000
738.7380, 5753.000
739.8880, 5858.000
741.0390, 5876.000
742.1890, 5810.000
743.3380, 5777.000
744.4880, 5780.000
745.6380, 5909.000
746.7870, 5982.000
747.9360, 5826.000
749.0850, 5957.000
750.2340, 5886.000
751.3830, 5845.000
752.5310, 5980.000
753.6800, 5926.000
754.8280, 5969.000
755.9760, 6053.000
757.1240, 6031.000
758.2720, 6120.000
759.4190, 6113.000
760.5670, 6237.000
761.7140, 6288.000
762.8610, 6272.000
764.0080, 6344.000
765.1550, 6325.000
766.3020, 6382.000
767.4480, 6359.000
768.5950, 6389.000
769.7410, 6375.000
770.8870, 6266.000
772.0330, 6276.000
773.1780, 6340.000
774.3240, 6300.850
775.4690, 6143.000
776.6140, 6293.000
777.7590, 6152.000
778.9040, 6057.000
780.0490, 6053.000
781.1940, 6118.000
782.3380, 6148.000
783.4820, 6111.000
784.6260, 6057.000
785.7700, 6092.000
786.9140, 6183.000
788.0580, 6147.000
789.2010, 6152.000
790.3450, 6138.000
791.4880, 6151.000
792.6310, 6117.000
793.7730, 6236.000
794.9160, 6273.000
796.0590, 6282.000
797.2010, 6376.069
798.3430, 6344.000
799.4850, 6459.000
800.6270, 6491.000
801.7690, 6435.000
802.9100, 6409.000
804.0520, 6568.000
805.1930, 6586.000
806.3340, 6601.000
807.4750, 6642.000
808.6160, 6771.000
809.7560, 6924.000
810.8970, 6906.000
812.0370, 7025.000
813.1770, 7004.000
814.3170, 7068.000
815.4570, 7197.000
816.5960, 7349.000
817.7360, 7375.351
818.8750, 7494.123
820.0140, 7470.000
821.1530, 7685.000
822.2920, 7763.000
823.4310, 7943.000
824.5690, 8071.000
825.7070, 8217.000
826.8460, 8356.000
827.9840, 8492.000
829.1220, 8531.000
830.2590, 8459.000
831.3970, 8643.000
832.5340, 8661.000
833.6710, 8620.000
834.8080, 8695.000
835.9450, 8624.000
837.0820, 8599.000
838.2190, 8668.000
839.3550, 8625.000
840.4910, 8680.000
841.6270, 8910.000
842.7630, 8851.000
843.8990, 9163.000
845.0350, 9252.000
846.1700, 9308.000
847.3060, 9490.000
848.4410, 9775.000
849.5760, 9996.000
850.7100, 10266.00
851.8450, 10531.00
852.9800, 11144.00
854.1140, 11605.00
855.2480, 12122.00
856.3820, 12560.00
857.5160, 13238.00
858.6500, 13654.00
859.7830, 14252.00
860.9170, 14920.00
862.0500, 15376.00
863.1830, 15894.00
864.3160, 16260.00
865.4480, 16663.00
866.5810, 17008.00
867.7130, 17340.00
868.8460, 17611.00
869.9780, 18112.00
871.1100, 18536.00
872.2410, 19200.00
873.3730, 19607.00
874.5050, 20532.00
875.6360, 21264.00
876.7670, 22355.00
877.8980, 23310.00
879.0290, 24225.00
880.1590, 25062.00
881.2900, 25980.00
882.4200, 26496.00
883.5500, 26720.00
884.6800, 26224.00
885.8100, 25969.00
886.9400, 25124.00
888.0690, 24320.00
889.1990, 23242.00
890.3280, 22198.00
891.4570, 21400.00
892.5860, 20558.00
893.7140, 20074.00
894.8430, 19749.00
895.9710, 19431.00
897.1000, 19799.00
898.2280, 19923.00
899.3560, 20710.00
900.4830, 21419.00
901.6110, 22368.00
902.7380, 23405.00
903.8660, 24837.00
904.9930, 26335.00
906.1200, 28019.00
907.2460, 30150.00
908.3730, 31701.00
909.5000, 33037.00
910.6260, 34696.00
911.7520, 35406.00
912.8780, 35838.00
914.0040, 35307.00
915.1290, 34543.00
916.2550, 33151.00
917.3800, 31314.00
918.5050, 29426.00
919.6300, 27447.00
920.7550, 24981.00
921.8800, 23220.00
923.0040, 20968.00
924.1290, 19316.00
925.2530, 17848.00
926.3770, 16690.00
927.5010, 15308.00
928.6250, 14259.00
929.7480, 13550.00
930.8720, 12867.00
931.9950, 12247.00
933.1180, 11731.47
934.2410, 11230.00
935.3640, 10917.00
936.4860, 10599.00
937.6090, 10440.00
938.7310, 10135.00
939.8530, 10031.00
940.9750, 9855.000
942.0970, 9671.000
943.2180, 9593.000
944.3400, 9575.000
945.4610, 9442.000
946.5820, 9431.000
947.7030, 9335.000
948.8240, 9492.000
949.9450, 9476.000
951.0650, 9495.000
952.1860, 9647.000
953.3060, 9586.000
954.4260, 9697.000
955.5460, 9781.000
956.6650, 9775.000
957.7850, 9685.000
958.9040, 9967.000
960.0230, 9771.000
961.1420, 9809.000
962.2610, 9981.000
963.3800, 9987.000
964.4990, 10155.00
965.6170, 10206.00
966.7350, 10534.00
967.8530, 10728.00
968.9710, 11322.00
970.0890, 11949.00
971.2070, 12587.00
972.3240, 13468.00
973.4410, 14341.00
974.5580, 15186.00
975.6750, 15852.00
976.7920, 16423.00
977.9090, 16861.00
979.0250, 17062.00
980.1410, 17014.00
981.2580, 16464.00
982.3740, 15854.00
983.4890, 14887.00
984.6050, 13984.00
985.7200, 13064.00
986.8360, 12338.00
987.9510, 11436.00
989.0660, 10757.00
990.1810, 10210.00
991.2950, 9924.000
992.4100, 9395.000
993.5240, 9275.000
994.6390, 8981.000
995.7530, 8910.000
996.8660, 8725.000
997.9800, 8649.000
999.0940, 8330.000
1000.207, 8404.000
1001.320, 8277.000
1002.433, 8202.000
1003.546, 8266.000
1004.659, 8306.000
1005.772, 8170.000
1006.884, 8335.000
1007.996, 8400.000
1009.108, 8438.000
1010.220, 8563.000
1011.332, 8823.000
1012.444, 9013.000
1013.555, 9240.000
1014.666, 9349.000
1015.777, 9501.000
1016.888, 9501.000
1017.999, 9715.000
1019.110, 9599.000
1020.220, 9489.000
1021.331, 9562.000
1022.441, 9500.000
1023.551, 9583.000
1024.661, 9566.000
1025.770, 9660.000
1026.880, 9928.000
1027.989, 10062.00
1029.098, 10522.00
1030.207, 10803.00
1031.316, 11156.00
1032.425, 11649.00
1033.533, 12166.00
1034.642, 12735.00
1035.750, 13063.00
1036.858, 13657.00
1037.966, 13854.00
1039.073, 14156.00
1040.181, 14146.00
1041.288, 13998.00
1042.396, 13715.00
1043.503, 13698.00
1044.610, 13256.00
1045.716, 12771.00
1046.823, 12499.00
1047.929, 11992.00
1049.036, 11861.00
1050.142, 11615.00
1051.248, 11282.00
1052.353, 11366.00
1053.459, 11296.00
1054.564, 11443.00
1055.670, 11564.00
1056.775, 11835.00
1057.880, 12031.00
1058.985, 12177.00
1060.089, 12284.00
1061.194, 12329.81
1062.298, 12356.00
1063.402, 12272.00
1064.506, 12101.00
1065.610, 11925.00
1066.713, 11801.00
1067.817, 11811.00
1068.920, 11960.00
1070.023, 12129.00
1071.126, 12516.00
1072.229, 13011.00
1073.332, 13750.00
1074.435, 14689.37
1075.537, 15794.14
1076.639, 17158.00
1077.741, 18698.00
1078.843, 20449.00
1079.945, 22561.00
1081.046, 24518.00
1082.148, 26405.00
1083.249, 27473.00
1084.350, 27883.00
1085.451, 27854.00
1086.551, 26900.00
1087.652, 25449.00
1088.752, 23436.00
1089.853, 20975.00
1090.953, 18355.00
1092.053, 16117.00
1093.152, 14072.00
1094.252, 12413.00
1095.351, 11359.00
1096.451, 10303.00
1097.550, 9582.000
1098.649, 8989.000
1099.748, 8838.000
1100.846, 8444.000
1101.945, 8281.000
1103.043, 8130.000
1104.141, 7893.000
1105.239, 7726.000
1106.337, 7655.000
1107.434, 7636.000
1108.532, 7550.000
1109.629, 7512.492
1110.726, 7376.000
1111.823, 7412.000
1112.920, 7339.000
1114.017, 7274.000
1115.113, 7272.000
1116.210, 7362.000
1117.306, 7377.000
1118.402, 7373.000
1119.498, 7340.000
1120.593, 7384.000
1121.689, 7290.000
1122.784, 7364.000
1123.879, 7269.000
1124.974, 7278.000
1126.069, 7133.000
1127.164, 7058.000
1128.259, 6959.000
1129.353, 6869.898
1130.447, 6799.000
1131.541, 6722.000
1132.635, 6692.000
1133.729, 6632.601
1134.822, 6720.000
1135.916, 6637.000
1137.009, 6654.000
1138.102, 6685.000
1139.195, 6499.000
1140.288, 6527.000
1141.380, 6467.000
1142.473, 6456.000
1143.565, 6438.000
1144.657, 6452.000
1145.749, 6366.000
1146.841, 6401.000
1147.932, 6388.000
1149.024, 6290.000
1150.115, 6362.000
1151.206, 6358.000
1152.297, 6321.000
1153.388, 6329.000
1154.479, 6252.000
1155.569, 6238.000
1156.659, 6278.000
1157.750, 6184.000
1158.839, 6166.000
1159.929, 6264.000
1161.019, 6182.000
1162.108, 6215.000
1163.198, 6203.000
1164.287, 6109.000
1165.376, 6202.000
1166.465, 6067.000
1167.553, 6174.000
1168.642, 6141.000
1169.730, 6160.000
1170.818, 6256.000
1171.906, 6141.000
1172.994, 6160.000
1174.082, 6114.000
1175.170, 6164.000
1176.257, 6147.000
1177.344, 6054.000
1178.431, 6084.000
1179.518, 6118.000
1180.605, 6140.000
1181.691, 6134.665
1182.778, 6117.220
1183.864, 6100.000
1184.950, 6064.000
1186.036, 6028.000
1187.122, 6044.000
1188.207, 6042.000
1189.292, 6081.000
1190.378, 6126.000
1191.463, 6045.000
1192.548, 6024.000
1193.632, 6008.000
1194.717, 6045.000
1195.801, 5980.000
1196.886, 6045.000
1197.970, 6025.000
1199.054, 5955.000
1200.137, 6030.000
1201.221, 5885.000
1202.305, 6037.000
1203.388, 6064.000
1204.471, 6013.852
1205.554, 6071.641
1206.637, 5999.000
1207.719, 6009.000
1208.802, 6071.000
1209.884, 5948.000
1210.966, 6007.000
1212.048, 5919.000
1213.130, 5976.000
1214.212, 5953.000
1215.293, 5968.000
1216.374, 5916.000
1217.456, 5958.000
1218.536, 5932.000
1219.617, 5891.000
1220.698, 5828.000
1221.778, 5950.000
1222.859, 5980.000
1223.939, 5833.000
1225.019, 5935.000
1226.099, 5864.000
1227.178, 5866.000
1228.258, 5842.000
1229.337, 5925.000
1230.417, 5826.000
1231.496, 5909.000
1232.574, 5933.000
1233.653, 5852.000
1234.732, 5855.000
1235.810, 5843.000
