##NAMES=Epididymite
##RRUFFID=R060773
##IDEAL CHEMISTRY=Na_2_Be_2_Si_6_O_15_&#183;H_2_O
##LOCALITY=unknown
##OWNER=RRUFF
##SOURCE=Michael Scott
##DESCRIPTION=Colorless platy crystals forming a pseudohexagonal aggregate
##STATUS=The identification of this mineral has been confirmed by single-crystal X-ray diffraction.
##URL=rruff.info/R060773
##PIN_ID=M00395
##ORIENTATION=Laser parallel to b* (0 1 0). Fiducial mark perpendicular to laser is parallel to -c [0 0 -1]
102.1160, 18279.00
103.3490, 18633.00
104.5820, 18798.00
105.8150, 19229.00
107.0470, 18982.00
108.2800, 18792.00
109.5120, 18335.00
110.7440, 17797.00
111.9760, 17346.00
113.2080, 17037.00
114.4400, 17323.00
115.6710, 17671.00
116.9030, 17728.00
118.1340, 18158.00
119.3650, 18645.00
120.5960, 19453.00
121.8270, 20219.00
123.0580, 21171.00
124.2880, 21719.00
125.5190, 21942.00
126.7490, 21701.00
127.9790, 22078.00
129.2090, 22807.00
130.4390, 23889.00
131.6680, 25290.00
132.8980, 26736.00
134.1270, 27158.00
135.3560, 26177.00
136.5850, 24287.00
137.8140, 22208.00
139.0430, 20439.00
140.2710, 19207.00
141.5000, 18536.00
142.7280, 18219.00
143.9560, 18037.00
145.1840, 17826.00
146.4120, 17642.00
147.6390, 17830.00
148.8670, 18197.00
150.0940, 18403.00
151.3210, 18448.00
152.5490, 18497.00
153.7750, 18313.00
155.0020, 17832.00
156.2290, 17316.00
157.4550, 17175.00
158.6810, 16640.00
159.9080, 16604.00
161.1340, 16544.00
162.3590, 16417.00
163.5850, 16416.00
164.8110, 16404.00
166.0360, 16436.00
167.2610, 16384.00
168.4860, 16359.00
169.7110, 16322.00
170.9360, 16379.95
172.1610, 16557.00
173.3850, 16500.00
174.6100, 16610.00
175.8340, 16617.49
177.0580, 16656.83
178.2820, 16756.00
179.5050, 16725.00
180.7290, 16798.00
181.9520, 16774.00
183.1760, 16844.00
184.3990, 17018.00
185.6220, 17068.00
186.8450, 17376.00
188.0670, 17516.00
189.2900, 17669.05
190.5120, 18037.00
191.7340, 18027.00
192.9560, 18292.00
194.1780, 18573.00
195.4000, 19022.00
196.6220, 19340.00
197.8430, 19458.00
199.0640, 19530.00
200.2860, 19486.00
201.5070, 19521.00
202.7270, 19333.00
203.9480, 19067.00
205.1690, 18465.00
206.3890, 18169.00
207.6090, 17973.00
208.8290, 17786.00
210.0490, 17554.00
211.2690, 17481.00
212.4890, 17369.00
213.7080, 17478.00
214.9280, 17515.00
216.1470, 17431.00
217.3660, 17486.00
218.5850, 17322.00
219.8030, 17620.00
221.0220, 17706.00
222.2400, 17536.00
223.4590, 17758.00
224.6770, 17705.00
225.8950, 17953.00
227.1120, 18164.00
228.3300, 18490.00
229.5480, 18735.00
230.7650, 19092.00
231.9820, 19588.00
233.1990, 19872.00
234.4160, 20379.00
235.6330, 21016.00
236.8490, 22064.00
238.0660, 22739.00
239.2820, 23527.00
240.4980, 24545.00
241.7140, 25093.00
242.9300, 25410.00
244.1460, 25444.00
245.3610, 24830.00
246.5770, 24030.00
247.7920, 23301.00
249.0070, 22941.00
250.2220, 22607.00
251.4370, 22601.00
252.6510, 22363.00
253.8660, 22505.00
255.0800, 22440.00
256.2940, 22750.00
257.5080, 22810.00
258.7220, 23012.00
259.9360, 23375.00
261.1490, 23360.00
262.3630, 23582.00
263.5760, 23624.00
264.7890, 23926.00
266.0020, 23876.00
267.2150, 23826.00
268.4270, 23792.00
269.6400, 23126.00
270.8520, 22785.00
272.0640, 22104.00
273.2760, 21171.00
274.4880, 20714.00
275.7000, 19970.00
276.9120, 19213.00
278.1230, 19020.00
279.3340, 18905.00
280.5450, 18500.00
281.7560, 18565.00
282.9670, 18456.00
284.1780, 18651.00
285.3880, 18572.00
286.5980, 18535.00
287.8090, 18347.00
289.0190, 18369.00
290.2290, 18191.00
291.4380, 18132.50
292.6480, 17923.00
293.8570, 18012.00
295.0670, 18069.00
296.2760, 18073.00
297.4850, 18161.00
298.6930, 18151.00
299.9020, 18254.00
301.1110, 18211.00
302.3190, 18350.00
303.5270, 18103.00
304.7350, 18352.00
305.9430, 18279.00
307.1510, 18378.00
308.3580, 18620.00
309.5660, 18706.00
310.7730, 18641.00
311.9800, 18693.00
313.1870, 18903.00
314.3940, 18970.00
315.6010, 19244.00
316.8070, 19102.00
318.0130, 19239.00
319.2200, 19430.00
320.4260, 19467.00
321.6310, 19592.00
322.8370, 19745.00
324.0430, 19766.00
325.2480, 19813.00
326.4540, 20129.00
327.6590, 20042.00
328.8640, 20353.00
330.0680, 20412.00
331.2730, 20831.00
332.4780, 20866.00
333.6820, 21205.00
334.8860, 21568.00
336.0900, 21606.00
337.2940, 21832.00
338.4980, 22223.00
339.7010, 22507.00
340.9050, 22917.00
342.1080, 23443.00
343.3110, 24153.00
344.5140, 24704.00
345.7170, 24857.00
346.9200, 25041.00
348.1220, 24733.00
349.3240, 23945.00
350.5270, 23250.00
351.7290, 22697.00
352.9310, 22288.00
354.1320, 21990.00
355.3340, 21719.00
356.5350, 21471.00
357.7370, 21280.33
358.9380, 21180.00
360.1390, 20972.00
361.3400, 20968.00
362.5400, 20865.00
363.7410, 20853.00
364.9410, 20989.00
366.1410, 20957.00
367.3410, 20912.00
368.5410, 20870.00
369.7410, 21010.00
370.9400, 21154.04
372.1400, 21405.00
373.3390, 21752.00
374.5380, 22107.00
375.7370, 22686.00
376.9360, 23332.00
378.1350, 24095.00
379.3330, 24828.00
380.5310, 25575.00
381.7300, 26084.00
382.9280, 25929.00
384.1260, 25461.00
385.3230, 24740.00
386.5210, 24061.00
387.7180, 23377.00
388.9160, 22729.00
390.1130, 22028.00
391.3100, 21571.00
392.5060, 21275.00
393.7030, 21111.00
394.9000, 20934.00
396.0960, 20980.00
397.2920, 21103.00
398.4880, 21415.00
399.6840, 21871.00
400.8800, 22286.00
402.0750, 22937.00
403.2710, 24031.00
404.4660, 25438.00
405.6610, 27390.00
406.8560, 29521.00
408.0510, 31136.00
409.2450, 31639.00
410.4400, 30367.00
411.6340, 27997.00
412.8280, 25352.00
414.0220, 23374.00
415.2160, 22032.00
416.4100, 21266.00
417.6030, 21037.00
418.7970, 20325.00
419.9900, 20313.00
421.1830, 19977.00
422.3760, 20153.00
423.5690, 20044.00
424.7610, 19801.00
425.9540, 20029.00
427.1460, 20038.00
428.3380, 20059.00
429.5300, 19951.00
430.7220, 19920.00
431.9140, 20161.00
433.1050, 20205.00
434.2970, 20120.00
435.4880, 20293.00
436.6790, 20339.00
437.8700, 20466.00
439.0610, 20394.00
440.2510, 20391.00
441.4420, 20406.00
442.6320, 20509.00
443.8220, 20647.00
445.0120, 20595.00
446.2020, 20686.00
447.3910, 20665.00
448.5810, 20641.00
449.7700, 20447.00
450.9600, 20516.00
452.1490, 20440.00
453.3370, 20682.00
454.5260, 20587.00
455.7150, 20705.00
456.9030, 20989.00
458.0910, 21236.00
459.2800, 21120.00
460.4670, 21470.00
461.6550, 21502.00
462.8430, 21877.00
464.0300, 22018.00
465.2180, 22484.00
466.4050, 22319.00
467.5920, 22803.00
468.7790, 23127.00
469.9650, 23509.00
471.1520, 24174.00
472.3380, 25329.00
473.5250, 26503.00
474.7110, 28074.00
475.8970, 29101.00
477.0820, 29321.00
478.2680, 28742.00
479.4540, 27436.00
480.6390, 25903.00
481.8240, 24833.00
483.0090, 23990.00
484.1940, 23623.00
485.3780, 23536.00
486.5630, 23341.00
487.7470, 23163.00
488.9320, 22879.00
490.1160, 22327.00
491.3000, 22354.00
492.4830, 22271.00
493.6670, 21962.00
494.8500, 22026.00
496.0340, 21972.00
497.2170, 21939.00
498.4000, 22195.00
499.5820, 22137.00
500.7650, 22344.85
501.9480, 22592.01
503.1300, 22802.00
504.3120, 23251.00
505.4940, 23702.00
506.6760, 24260.00
507.8580, 25211.00
509.0390, 26200.00
510.2210, 27492.00
511.4020, 29340.00
512.5830, 31973.00
513.7640, 34649.00
514.9450, 38791.00
516.1250, 43331.00
517.3060, 49572.00
518.4860, 56157.00
519.6660, 60798.00
520.8460, 62156.00
522.0260, 59537.00
523.2060, 53498.00
524.3850, 46304.00
525.5650, 39869.00
526.7440, 34988.00
527.9230, 31383.00
529.1020, 28973.00
530.2810, 27804.00
531.4590, 26104.00
532.6380, 25486.00
533.8160, 24805.00
534.9940, 24316.00
536.1720, 23981.00
537.3500, 23561.00
538.5270, 23423.00
539.7050, 23210.00
540.8820, 23080.00
542.0590, 23076.00
543.2360, 23080.00
544.4130, 22906.00
545.5900, 22593.00
546.7660, 22866.00
547.9430, 22637.00
549.1190, 22543.00
550.2950, 22565.00
551.4710, 22425.00
552.6470, 22580.00
553.8220, 22591.00
554.9980, 22539.00
556.1730, 22500.00
557.3480, 22519.00
558.5230, 22469.00
559.6980, 22461.00
560.8730, 22552.00
562.0470, 22530.00
563.2220, 22506.00
564.3960, 22686.00
565.5700, 22736.00
566.7440, 22582.00
567.9170, 22790.00
569.0910, 22711.00
570.2640, 23036.00
571.4380, 22802.00
572.6110, 22855.00
573.7840, 22993.00
574.9570, 23118.00
576.1290, 23246.00
577.3020, 23671.00
578.4740, 23898.00
579.6460, 24385.00
580.8180, 24951.00
581.9900, 25576.00
583.1620, 26314.00
584.3330, 26782.00
585.5040, 26570.00
586.6760, 26519.00
587.8470, 25945.00
589.0180, 25324.00
590.1880, 24432.00
591.3590, 23935.00
592.5290, 23788.00
593.7000, 23594.00
594.8700, 23565.00
596.0400, 23400.00
597.2090, 23521.00
598.3790, 23448.00
599.5490, 23388.00
600.7180, 23156.00
601.8870, 23366.00
603.0560, 23414.00
604.2250, 23313.00
605.3940, 23516.00
606.5620, 23498.00
607.7300, 23466.00
608.8990, 23552.00
610.0670, 23361.00
611.2350, 23373.00
612.4020, 23380.00
613.5700, 23329.00
614.7370, 23519.00
615.9050, 23686.00
617.0720, 23950.00
618.2390, 24112.77
619.4060, 24276.72
620.5720, 24501.00
621.7390, 24636.00
622.9050, 24841.00
624.0710, 25169.00
625.2370, 25392.00
626.4030, 25230.00
627.5690, 25097.00
628.7340, 25081.00
629.9000, 24983.00
631.0650, 24870.00
632.2300, 25012.00
633.3950, 24840.94
634.5600, 24885.00
635.7240, 24712.00
636.8890, 24721.00
638.0530, 24770.00
639.2170, 24624.00
640.3810, 24456.00
641.5450, 24630.00
642.7080, 24516.00
643.8720, 24756.00
645.0350, 24665.00
646.1980, 24708.00
647.3610, 24621.00
648.5240, 24441.00
649.6870, 24924.00
650.8490, 24705.00
652.0120, 24507.00
653.1740, 24571.00
654.3360, 24360.00
655.4980, 24463.00
656.6600, 24330.00
657.8210, 24259.00
658.9830, 24303.00
660.1440, 24077.00
661.3050, 24152.00
662.4660, 24108.00
663.6270, 24124.00
664.7870, 24090.00
665.9480, 24044.00
667.1080, 24223.00
668.2680, 24172.00
669.4280, 23981.00
670.5880, 24116.00
671.7480, 24176.00
672.9070, 23983.00
674.0670, 23957.00
675.2260, 24231.00
676.3850, 24199.00
677.5440, 23997.00
678.7030, 24291.00
679.8610, 24027.00
681.0200, 24292.00
682.1780, 24249.00
683.3360, 24252.00
684.4940, 24174.00
685.6520, 24230.00
686.8090, 24348.00
687.9670, 24219.00
689.1240, 24199.00
690.2810, 24177.00
691.4380, 24402.00
692.5950, 24407.00
693.7520, 24286.00
694.9080, 24646.00
696.0650, 24496.00
697.2210, 24333.00
698.3770, 24265.00
699.5330, 24429.00
700.6880, 24458.00
701.8440, 24716.00
702.9990, 24546.00
704.1550, 24534.00
705.3100, 24626.00
706.4650, 24572.00
707.6190, 24621.00
708.7740, 24543.00
709.9290, 24685.00
711.0830, 24758.00
712.2370, 24846.00
713.3910, 24906.00
714.5450, 24903.00
715.6980, 24645.00
716.8520, 24948.00
718.0050, 24889.00
719.1580, 24821.00
720.3110, 25148.00
721.4640, 25084.00
722.6170, 25146.00
723.7700, 25078.00
724.9220, 25273.00
726.0740, 25160.00
727.2260, 25145.00
728.3780, 25497.00
729.5300, 25297.00
730.6810, 25469.00
731.8330, 25369.00
732.9840, 25451.00
734.1350, 25465.00
735.2860, 25493.00
736.4370, 25498.38
737.5880, 25543.00
738.7380, 25481.00
739.8880, 25603.00
741.0390, 25625.00
742.1890, 25659.00
743.3380, 25812.00
744.4880, 25628.00
745.6380, 25830.00
746.7870, 25887.00
747.9360, 26062.00
749.0850, 26165.00
750.2340, 26286.00
751.3830, 26027.00
752.5310, 26346.00
753.6800, 26214.00
754.8280, 26292.00
755.9760, 26432.00
757.1240, 26643.00
758.2720, 26635.00
759.4190, 26707.00
760.5670, 26459.00
761.7140, 26733.00
762.8610, 26691.00
764.0080, 26560.00
765.1550, 26717.00
766.3020, 26732.00
767.4480, 26764.00
768.5950, 26705.00
769.7410, 26830.00
770.8870, 26620.00
772.0330, 26795.00
773.1780, 26805.00
774.3240, 26562.00
775.4690, 26886.00
776.6140, 26549.00
777.7590, 26839.00
778.9040, 26742.00
780.0490, 26802.00
781.1940, 26834.00
782.3380, 26807.00
783.4820, 26819.00
784.6260, 27040.00
785.7700, 26856.00
786.9140, 27107.00
788.0580, 27191.00
789.2010, 27270.00
790.3450, 27325.00
791.4880, 27143.00
792.6310, 27305.00
793.7730, 27494.00
794.9160, 27738.00
796.0590, 27960.00
797.2010, 27860.00
798.3430, 27821.00
799.4850, 27899.00
800.6270, 27980.00
801.7690, 27901.00
802.9100, 27904.23
804.0520, 27523.00
805.1930, 27732.00
806.3340, 27612.00
807.4750, 27430.00
808.6160, 27540.00
809.7560, 27414.00
810.8970, 27667.00
812.0370, 27642.00
813.1770, 27717.00
814.3170, 27836.00
815.4570, 27701.00
816.5960, 27868.00
817.7360, 27842.00
818.8750, 28118.00
820.0140, 27956.00
821.1530, 28003.00
822.2920, 27932.00
823.4310, 28021.00
824.5690, 27941.00
825.7070, 28046.00
826.8460, 28156.00
827.9840, 28171.00
829.1220, 27883.00
830.2590, 27974.00
831.3970, 28045.00
832.5340, 28022.00
833.6710, 28159.00
834.8080, 28085.00
835.9450, 28259.00
837.0820, 28089.00
838.2190, 28416.00
839.3550, 28133.00
840.4910, 28408.00
841.6270, 28651.00
842.7630, 28370.00
843.8990, 28660.00
845.0350, 28491.00
846.1700, 28799.00
847.3060, 28674.00
848.4410, 28648.00
849.5760, 28815.00
850.7100, 28992.00
851.8450, 29019.00
852.9800, 29090.00
854.1140, 29128.00
855.2480, 29165.00
856.3820, 29130.00
857.5160, 29447.00
858.6500, 29420.00
859.7830, 29723.00
860.9170, 30080.00
862.0500, 29921.00
863.1830, 29558.00
864.3160, 29557.00
865.4480, 29656.00
866.5810, 29415.00
867.7130, 29542.00
868.8460, 29256.00
869.9780, 29373.00
871.1100, 29239.00
872.2410, 29420.00
873.3730, 29387.00
874.5050, 29384.00
875.6360, 29336.00
876.7670, 29364.00
877.8980, 29393.00
879.0290, 29368.00
880.1590, 29361.00
881.2900, 29510.00
882.4200, 29673.00
883.5500, 29497.00
884.6800, 29441.00
885.8100, 29331.00
886.9400, 29330.00
888.0690, 29358.00
889.1990, 29524.00
890.3280, 29593.00
891.4570, 29484.00
892.5860, 29440.00
893.7140, 29520.00
894.8430, 29408.00
895.9710, 29712.00
897.1000, 29478.00
898.2280, 29621.00
899.3560, 29819.00
900.4830, 29732.00
901.6110, 29693.00
902.7380, 29549.00
903.8660, 29843.00
904.9930, 29690.00
906.1200, 29864.00
907.2460, 29787.00
908.3730, 29947.00
909.5000, 30007.00
910.6260, 29954.00
911.7520, 29883.00
912.8780, 30019.00
914.0040, 29748.00
915.1290, 29762.00
916.2550, 29804.00
917.3800, 30025.00
918.5050, 30038.00
919.6300, 29747.00
920.7550, 29939.00
921.8800, 30261.00
923.0040, 30011.00
924.1290, 30221.63
925.2530, 29987.00
926.3770, 30207.00
927.5010, 30099.00
928.6250, 29928.00
929.7480, 30162.00
930.8720, 30113.00
931.9950, 29924.00
933.1180, 30060.00
934.2410, 30024.00
935.3640, 30264.00
936.4860, 30481.00
937.6090, 30239.00
938.7310, 30090.00
939.8530, 30347.00
940.9750, 30164.00
942.0970, 30440.00
943.2180, 30175.00
944.3400, 30457.00
945.4610, 30377.00
946.5820, 30355.00
947.7030, 30402.00
948.8240, 30526.00
949.9450, 30411.00
951.0650, 30387.00
952.1860, 30586.00
953.3060, 30623.00
954.4260, 30686.00
955.5460, 30743.00
956.6650, 30918.00
957.7850, 30744.00
958.9040, 30605.00
960.0230, 30781.00
961.1420, 30729.00
962.2610, 30852.00
963.3800, 30721.00
964.4990, 30761.00
965.6170, 30646.00
966.7350, 30742.00
967.8530, 30638.00
968.9710, 30646.00
970.0890, 30731.00
971.2070, 30620.00
972.3240, 30657.00
973.4410, 30877.00
974.5580, 30723.00
975.6750, 30792.00
976.7920, 30940.00
977.9090, 30888.00
979.0250, 30884.00
980.1410, 31099.00
981.2580, 31067.00
982.3740, 31176.00
983.4890, 31051.00
984.6050, 31162.00
985.7200, 31162.00
986.8360, 31146.00
987.9510, 31275.00
989.0660, 31225.00
990.1810, 31255.00
991.2950, 31297.00
992.4100, 31360.92
993.5240, 31368.00
994.6390, 31597.00
995.7530, 31718.00
996.8660, 31918.00
997.9800, 32177.29
999.0940, 32195.00
1000.207, 32720.00
1001.320, 33061.00
1002.433, 33344.00
1003.546, 33410.00
1004.659, 33194.00
1005.772, 32883.00
1006.884, 33000.00
1007.996, 32920.00
1009.108, 32934.00
1010.220, 32658.00
1011.332, 32871.00
1012.444, 32713.00
1013.555, 32733.00
1014.666, 32784.00
1015.777, 32654.00
1016.888, 32472.00
1017.999, 32761.00
1019.110, 32734.00
1020.220, 32636.00
1021.331, 32810.00
1022.441, 32622.00
1023.551, 32493.00
1024.661, 32435.00
1025.770, 32332.00
1026.880, 32558.00
1027.989, 32478.00
1029.098, 32692.00
1030.207, 32673.00
1031.316, 32530.00
1032.425, 32639.00
1033.533, 32586.00
1034.642, 32555.00
1035.750, 32725.00
1036.858, 32830.00
1037.966, 32576.00
1039.073, 32777.00
1040.181, 32863.00
1041.288, 32898.00
1042.396, 33102.00
1043.503, 33205.63
1044.610, 33374.22
1045.716, 33539.00
1046.823, 33692.00
1047.929, 33896.00
1049.036, 33952.00
1050.142, 34013.57
1051.248, 33953.00
1052.353, 33923.00
1053.459, 33917.00
1054.564, 33652.00
1055.670, 33712.00
1056.775, 33771.00
1057.880, 33592.00
1058.985, 33706.00
1060.089, 33844.00
1061.194, 33650.00
1062.298, 33749.00
1063.402, 33818.00
1064.506, 33750.00
1065.610, 33972.00
1066.713, 33986.00
1067.817, 33896.00
1068.920, 33945.00
1070.023, 34022.00
1071.126, 34108.00
1072.229, 33828.00
1073.332, 33962.00
1074.435, 33864.00
1075.537, 33809.13
1076.639, 33844.00
1077.741, 33853.00
1078.843, 34089.00
1079.945, 34341.00
1081.046, 34315.00
1082.148, 34312.00
1083.249, 34417.00
1084.350, 34234.00
1085.451, 34349.00
1086.551, 34026.00
1087.652, 34103.00
1088.752, 34033.00
1089.853, 33978.00
1090.953, 33991.00
1092.053, 33957.96
1093.152, 34023.00
1094.252, 33991.00
1095.351, 34058.66
1096.451, 34152.00
1097.550, 34139.00
1098.649, 34243.00
1099.748, 34242.00
1100.846, 34163.00
1101.945, 34347.00
1103.043, 34615.00
1104.141, 34813.00
1105.239, 34637.00
1106.337, 34685.00
1107.434, 34927.00
1108.532, 34796.00
1109.629, 34951.00
1110.726, 35020.00
1111.823, 35360.00
1112.920, 35509.00
1114.017, 35555.00
1115.113, 35849.00
1116.210, 35715.00
1117.306, 35905.00
1118.402, 36095.00
1119.498, 36251.00
1120.593, 36226.00
1121.689, 36534.00
1122.784, 36460.00
1123.879, 37043.00
1124.974, 37204.00
1126.069, 37303.00
1127.164, 37819.00
1128.259, 38125.00
1129.353, 38681.00
1130.447, 38991.00
1131.541, 39429.00
1132.635, 40319.00
1133.729, 40855.00
1134.822, 41312.00
1135.916, 41766.00
1137.009, 42068.00
1138.102, 42155.00
1139.195, 42229.13
1140.288, 42261.00
1141.380, 41857.00
1142.473, 41562.00
1143.565, 40925.00
1144.657, 40511.00
1145.749, 39823.00
1146.841, 39102.00
1147.932, 38621.00
1149.024, 37937.00
1150.115, 37714.00
1151.206, 37255.00
1152.297, 37091.00
1153.388, 36669.00
1154.479, 36441.00
1155.569, 36469.00
1156.659, 36056.00
1157.750, 36309.00
1158.839, 35909.00
1159.929, 35829.00
1161.019, 35645.00
1162.108, 35942.00
1163.198, 35855.00
1164.287, 35776.00
1165.376, 35690.00
1166.465, 35557.00
1167.553, 35749.00
1168.642, 35655.00
1169.730, 35815.00
1170.818, 35776.00
1171.906, 35799.47
1172.994, 35740.00
1174.082, 35800.00
1175.170, 35893.00
1176.257, 35827.00
1177.344, 35873.94
1178.431, 35703.00
1179.518, 35844.00
1180.605, 35841.00
1181.691, 35791.00
1182.778, 35944.00
1183.864, 35806.00
1184.950, 36139.00
1186.036, 36006.00
1187.122, 35939.00
1188.207, 36024.00
1189.292, 35810.00
1190.378, 35930.00
1191.463, 35740.00
1192.548, 35803.00
1193.632, 35742.00
1194.717, 35899.00
1195.801, 35863.15
1196.886, 35953.00
1197.970, 35924.00
1199.054, 35906.00
1200.137, 36036.00
1201.221, 36106.00
1202.305, 36108.00
1203.388, 35867.00
1204.471, 35981.00
1205.554, 35990.00
1206.637, 35845.00
1207.719, 35950.00
1208.802, 35924.00
1209.884, 36118.00
1210.966, 36137.16
1212.048, 36252.00
1213.130, 36263.00
1214.212, 36217.00
1215.293, 36271.92
1216.374, 36316.00
1217.456, 36382.00
1218.536, 36460.00
1219.617, 36380.00
1220.698, 36648.00
1221.778, 36512.00
1222.859, 36589.00
1223.939, 36419.00
1225.019, 36503.00
1226.099, 36706.00
1227.178, 36684.00
1228.258, 36596.00
1229.337, 36708.00
1230.417, 36755.00
1231.496, 36561.00
1232.574, 36858.00
1233.653, 36860.00
1234.732, 37070.00
1235.810, 36845.00
1236.888, 37220.00
1237.966, 36974.00
1239.044, 36865.00
1240.122, 37160.00
1241.199, 36920.00
1242.277, 36708.00
1243.354, 36887.00
1244.431, 37298.00
1245.508, 37251.00
1246.585, 37079.00
1247.661, 37258.00
1248.738, 37233.00
1249.814, 37364.00
1250.890, 37428.00
1251.966, 37307.00
1253.042, 37085.00
1254.117, 37247.00
1255.193, 37071.00
1256.268, 37205.00
1257.343, 37521.00
1258.418, 37268.00
1259.493, 37427.00
1260.567, 37341.00
1261.642, 37685.00
1262.716, 37679.00
1263.790, 37597.00
1264.864, 37819.00
1265.938, 37786.00
1267.011, 38073.00
1268.085, 37844.00
1269.158, 38066.00
1270.231, 38025.00
1271.304, 38047.00
1272.377, 38093.00
1273.450, 38053.18
1274.522, 37948.00
1275.594, 37987.00
1276.666, 37962.00
1277.738, 37862.56
1278.810, 37944.00
1279.882, 37822.00
1280.953, 38033.00
1282.025, 38092.00
1283.096, 38131.00
1284.167, 38216.00
1285.238, 38059.00
1286.308, 38252.00
