##NAMES=Epididymite
##RRUFFID=R070580
##IDEAL CHEMISTRY=Na_2_Be_2_Si_6_O_15_&#183;H_2_O
##LOCALITY=Narsarsuk, Narsaq, Kitaa, Greenland
##OWNER=RRUFF
##SOURCE=James Shigley
##DESCRIPTION=A translucent to white elongated prism.
##STATUS=The identification of this mineral is confirmed by single-crystal X-ray diffraction and chemical analysis.
##URL=rruff.info/R070580
##MEASURED CHEMISTRY=(Na_1.97_K_0.03_)_Σ=2_Be_2_Si_6.00_O_15_·H_2_O; trace amounts of Al; Be and H_2_O assumed by stoichiometry
##PIN_ID=M01755
##ORIENTATION=Laser parallel to -a* (-1 0 0). Fiducial mark perpendicular to laser is parallel to b [0 1 0]
111.2060, 11773.00
112.4440, 12078.00
113.6810, 12348.00
114.9180, 13114.00
116.1550, 13705.00
117.3920, 14361.00
118.6290, 15315.00
119.8650, 16006.00
121.1010, 16713.00
122.3370, 17394.00
123.5730, 17466.00
124.8090, 17192.00
126.0450, 16694.00
127.2800, 16495.00
128.5150, 17030.00
129.7500, 17836.00
130.9850, 18767.00
132.2200, 19587.00
133.4540, 20141.00
134.6890, 19263.00
135.9230, 18421.00
137.1570, 17172.00
138.3900, 16013.00
139.6240, 15479.00
140.8580, 15339.00
142.0910, 15196.00
143.3240, 15379.00
144.5570, 15363.00
145.7900, 15395.00
147.0220, 15365.00
148.2550, 15401.00
149.4870, 15280.00
150.7190, 15131.00
151.9510, 15032.00
153.1830, 14819.00
154.4140, 14443.00
155.6460, 13976.00
156.8770, 13783.00
158.1080, 13510.00
159.3390, 13285.00
160.5690, 13251.00
161.8000, 13261.00
163.0300, 12949.00
164.2600, 13169.00
165.4900, 13302.00
166.7200, 13061.00
167.9500, 13276.00
169.1790, 13180.00
170.4080, 13417.00
171.6380, 13350.00
172.8670, 13288.00
174.0950, 13332.00
175.3240, 13332.00
176.5520, 13201.00
177.7810, 13218.00
179.0090, 13357.00
180.2370, 13395.00
181.4640, 13589.00
182.6920, 13484.00
183.9190, 13580.00
185.1460, 13577.00
186.3730, 13858.00
187.6000, 13911.00
188.8270, 14104.00
190.0530, 14319.00
191.2800, 14469.00
192.5060, 14702.00
193.7320, 15046.00
194.9580, 14936.00
196.1830, 15256.00
197.4090, 15479.00
198.6340, 15423.00
199.8590, 15465.00
201.0840, 15420.00
202.3090, 15224.00
203.5340, 15286.00
204.7580, 14854.00
205.9820, 14586.00
207.2060, 14562.00
208.4300, 14582.00
209.6540, 14441.00
210.8780, 14293.00
212.1010, 14234.00
213.3240, 14380.00
214.5470, 14323.00
215.7700, 14497.00
216.9930, 14257.00
218.2150, 14405.00
219.4380, 14496.00
220.6600, 14714.00
221.8820, 14750.00
223.1040, 15000.00
224.3260, 15170.00
225.5470, 15237.00
226.7680, 15478.00
227.9900, 15640.00
229.2110, 16008.00
230.4310, 16380.00
231.6520, 16750.00
232.8720, 17450.00
234.0930, 17909.00
235.3130, 18626.00
236.5330, 19215.00
237.7530, 20219.00
238.9720, 20966.00
240.1920, 21518.00
241.4110, 22124.00
242.6300, 22034.00
243.8490, 21679.00
245.0680, 21036.00
246.2860, 20049.00
247.5040, 19060.00
248.7230, 18123.00
249.9410, 17644.00
251.1590, 16991.00
252.3760, 16617.00
253.5940, 16660.00
254.8110, 16271.00
256.0280, 16064.00
257.2450, 15835.00
258.4620, 15846.00
259.6790, 15851.00
260.8950, 15840.00
262.1120, 15612.00
263.3280, 15374.00
264.5440, 15187.00
265.7600, 15161.00
266.9750, 14935.00
268.1910, 14869.00
269.4060, 14978.00
270.6210, 14838.00
271.8360, 14904.00
273.0510, 14812.00
274.2650, 14741.00
275.4800, 14859.00
276.6940, 14949.00
277.9080, 15064.00
279.1220, 15134.75
280.3360, 15131.00
281.5490, 15307.00
282.7630, 15272.00
283.9760, 15426.00
285.1890, 15330.00
286.4020, 15432.00
287.6150, 15318.00
288.8270, 15213.00
290.0400, 15195.00
291.2520, 15087.00
292.4640, 15153.00
293.6760, 14906.00
294.8870, 15222.00
296.0990, 14956.00
297.3100, 15012.00
298.5210, 15048.00
299.7320, 14960.00
300.9430, 14986.00
302.1540, 14925.00
303.3640, 14914.00
304.5750, 14924.00
305.7850, 14929.00
306.9950, 14959.00
308.2050, 15018.25
309.4140, 15035.60
310.6240, 15080.78
311.8330, 15121.00
313.0420, 15147.23
314.2510, 15222.55
315.4600, 15240.00
316.6680, 15385.00
317.8770, 15476.00
319.0850, 15458.00
320.2930, 15490.00
321.5010, 15654.00
322.7090, 15682.00
323.9160, 15585.00
325.1240, 15707.00
326.3310, 15729.00
327.5380, 15917.00
328.7450, 15895.00
329.9520, 15986.00
331.1580, 16110.00
332.3650, 16344.00
333.5710, 16314.00
334.7770, 16261.00
335.9830, 16315.00
337.1880, 16155.00
338.3940, 16149.00
339.5990, 16240.00
340.8040, 16159.00
342.0090, 16130.00
343.2140, 16152.79
344.4190, 16250.00
345.6230, 16131.00
346.8280, 16227.00
348.0320, 16187.00
349.2360, 16054.00
350.4400, 16099.00
351.6430, 15946.00
352.8470, 16165.00
354.0500, 16050.00
355.2530, 16245.00
356.4560, 16135.00
357.6590, 16256.00
358.8620, 16102.00
360.0640, 16251.00
361.2660, 16176.00
362.4680, 16204.00
363.6700, 16111.00
364.8720, 16276.00
366.0740, 16226.86
367.2750, 16285.00
368.4760, 16306.00
369.6770, 16335.00
370.8780, 16496.00
372.0790, 16692.00
373.2800, 16905.00
374.4800, 17074.00
375.6800, 17203.00
376.8800, 17347.00
378.0800, 17603.00
379.2800, 17793.00
380.4790, 17935.63
381.6790, 18253.00
382.8780, 18206.00
384.0770, 18333.72
385.2760, 18442.00
386.4750, 18254.00
387.6730, 18190.00
388.8720, 18008.00
390.0700, 17895.00
391.2680, 17862.00
392.4660, 17639.00
393.6630, 17685.37
394.8610, 17749.15
396.0580, 17901.00
397.2550, 18153.00
398.4520, 18688.00
399.6490, 19204.00
400.8460, 20060.00
402.0420, 20934.00
403.2390, 21760.00
404.4350, 23285.00
405.6310, 25239.00
406.8270, 27170.00
408.0220, 28461.00
409.2180, 28722.00
410.4130, 27345.00
411.6080, 24935.00
412.8030, 22553.00
413.9980, 20399.00
415.1920, 19204.00
416.3870, 18464.00
417.5810, 18087.00
418.7750, 17915.00
419.9690, 17657.00
421.1630, 17516.00
422.3570, 17493.00
423.5500, 17342.00
424.7430, 17481.00
425.9360, 17490.00
427.1290, 17443.00
428.3220, 17492.00
429.5150, 17634.00
430.7070, 17697.00
431.8990, 17941.00
433.0910, 17951.00
434.2830, 18250.00
435.4750, 18095.00
436.6670, 18256.00
437.8580, 17986.00
439.0490, 18224.00
440.2400, 17917.00
441.4310, 17628.00
442.6220, 17771.00
443.8130, 17685.00
445.0030, 17617.00
446.1930, 17734.00
447.3830, 17835.00
448.5730, 17685.00
449.7630, 17731.00
450.9520, 17732.00
452.1420, 17659.00
453.3310, 17764.00
454.5200, 17896.00
455.7090, 18047.00
456.8980, 18213.00
458.0860, 18326.00
459.2740, 18409.00
460.4630, 18410.00
461.6510, 18450.00
462.8380, 18502.00
464.0260, 18813.00
465.2140, 19164.00
466.4010, 19436.00
467.5880, 19951.00
468.7750, 20556.00
469.9620, 21297.00
471.1490, 22000.00
472.3350, 23239.00
473.5220, 24543.00
474.7080, 25936.00
475.8940, 26959.00
477.0800, 27229.00
478.2650, 26816.00
479.4510, 25452.00
480.6360, 24487.00
481.8210, 23348.00
483.0060, 22800.00
484.1910, 22496.00
485.3760, 22593.00
486.5600, 22515.00
487.7440, 22212.00
488.9290, 21554.00
490.1130, 21171.00
491.2960, 20411.00
492.4800, 20066.00
493.6630, 19777.00
494.8470, 19646.00
496.0300, 19569.00
497.2130, 19695.00
498.3960, 19603.00
499.5780, 19887.00
500.7610, 19984.00
501.9430, 20073.00
503.1250, 20313.00
504.3070, 20637.00
505.4890, 21006.00
506.6710, 21874.00
507.8520, 22614.00
509.0330, 24008.00
510.2140, 25555.00
511.3950, 27927.00
512.5760, 30799.00
513.7570, 33779.00
514.9370, 37729.00
516.1170, 42339.00
517.2980, 48033.00
518.4780, 53566.00
519.6570, 57955.00
520.8370, 58923.00
522.0160, 56595.00
523.1960, 50475.00
524.3750, 43407.00
525.5540, 37098.00
526.7320, 32016.00
527.9110, 28664.00
529.0890, 26611.00
530.2680, 24485.00
531.4460, 23652.00
532.6240, 22675.00
533.8010, 22209.00
534.9790, 21540.00
536.1560, 21421.00
537.3340, 20945.00
538.5110, 20684.00
539.6880, 20584.00
540.8650, 20655.00
542.0410, 20243.00
543.2180, 20403.00
544.3940, 20246.00
545.5700, 20187.00
546.7460, 20077.00
547.9220, 20044.00
549.0970, 20131.00
550.2730, 19873.00
551.4480, 19904.00
552.6230, 19845.00
553.7980, 19716.04
554.9730, 19763.00
556.1470, 19599.00
557.3210, 19775.00
558.4960, 19857.00
559.6700, 19834.00
560.8440, 19991.00
562.0170, 20051.00
563.1910, 20139.00
564.3640, 20114.90
565.5380, 20038.00
566.7110, 20005.00
567.8840, 19965.00
569.0560, 19919.00
570.2290, 20109.00
571.4010, 20193.00
572.5740, 20253.00
573.7460, 20238.00
574.9180, 20277.00
576.0890, 20444.31
577.2610, 20619.00
578.4320, 20906.00
579.6040, 21085.00
580.7750, 21510.00
581.9450, 21830.00
583.1160, 21999.00
584.2870, 22387.00
585.4570, 22598.00
586.6270, 22346.00
587.7980, 22088.00
588.9670, 21835.00
590.1370, 21285.00
591.3070, 21187.00
592.4760, 20878.00
593.6450, 20877.00
594.8140, 20977.00
595.9830, 20723.00
597.1520, 20722.00
598.3210, 20725.00
599.4890, 20601.00
600.6570, 20632.18
601.8250, 20638.00
602.9930, 20681.00
604.1610, 20710.00
605.3290, 20889.00
606.4960, 20617.00
607.6630, 20677.00
608.8300, 20674.00
609.9970, 20421.00
611.1640, 20589.00
612.3300, 20616.00
613.4970, 20675.00
614.6630, 20661.00
615.8290, 20832.00
616.9950, 21003.00
618.1610, 20720.00
619.3260, 20851.00
620.4920, 20738.00
621.6570, 20840.00
622.8220, 20654.00
623.9870, 20833.00
625.1520, 20922.00
626.3160, 20908.82
627.4810, 21108.00
628.6450, 21059.00
629.8090, 21100.00
630.9730, 21278.00
632.1370, 21379.00
633.3000, 21344.00
634.4640, 21381.00
635.6270, 21596.00
636.7900, 21213.00
637.9530, 21422.00
639.1160, 21035.00
640.2780, 21055.00
641.4410, 21221.00
642.6030, 21123.00
643.7650, 21202.00
644.9270, 21166.00
646.0890, 21130.00
647.2500, 21177.09
648.4120, 21055.00
649.5730, 21216.00
650.7340, 21091.00
651.8950, 21099.00
653.0560, 21122.00
654.2160, 21224.00
655.3770, 21239.00
656.5370, 21240.86
657.6970, 21283.00
658.8570, 21202.00
660.0170, 21236.00
661.1760, 21209.00
662.3360, 21367.00
663.4950, 21317.00
664.6540, 21212.00
665.8130, 21453.00
666.9720, 21338.00
668.1310, 21297.00
669.2890, 21325.00
670.4470, 21353.00
671.6050, 21580.00
672.7630, 21491.00
673.9210, 21612.00
675.0790, 21448.00
676.2360, 21456.00
677.3930, 21472.00
678.5510, 21430.00
679.7080, 21644.00
680.8640, 21682.00
682.0210, 21665.00
683.1770, 21542.00
684.3340, 21756.00
685.4900, 21793.00
686.6460, 21904.00
687.8020, 21759.00
688.9570, 21668.00
690.1130, 21695.00
691.2680, 21728.00
692.4230, 21912.00
693.5780, 21777.00
694.7330, 21939.00
695.8880, 21720.00
697.0420, 21658.00
698.1960, 21951.00
699.3510, 21780.00
700.5040, 21841.00
701.6580, 21959.00
702.8120, 21827.00
703.9650, 21930.00
705.1190, 21925.00
706.2720, 21997.00
707.4250, 22072.00
708.5780, 22285.00
709.7300, 22296.00
710.8830, 22196.00
712.0350, 22262.00
713.1870, 22166.00
714.3390, 22284.00
715.4910, 22120.00
716.6430, 22298.00
717.7940, 22195.00
718.9460, 22361.00
720.0970, 22400.00
721.2480, 22399.00
722.3990, 22415.00
723.5500, 22313.00
724.7000, 22505.00
725.8500, 22269.00
727.0010, 22461.00
728.1510, 22543.00
729.3010, 22397.00
730.4500, 22432.00
731.6000, 22419.00
732.7490, 22639.00
733.8980, 22807.00
735.0470, 22483.00
736.1960, 22606.00
737.3450, 22549.00
738.4940, 22752.00
739.6420, 22743.00
740.7900, 22804.00
741.9380, 22814.00
743.0860, 22768.00
744.2340, 22923.00
745.3810, 22771.00
746.5290, 23063.00
747.6760, 22880.00
748.8230, 22939.00
749.9700, 23108.00
751.1170, 23260.00
752.2630, 23201.00
753.4100, 23250.00
754.5560, 23370.00
755.7020, 23468.00
756.8480, 23383.00
757.9940, 23534.00
759.1390, 23520.00
760.2850, 23383.00
761.4300, 23468.00
762.5750, 23434.00
763.7200, 23424.00
764.8650, 23377.00
766.0100, 23306.00
767.1540, 23185.00
768.2980, 23303.00
769.4420, 23420.00
770.5860, 23318.00
771.7300, 23319.00
772.8740, 23387.00
774.0170, 23209.00
775.1610, 23496.00
776.3040, 23672.00
777.4470, 23547.00
778.5900, 23463.00
779.7320, 23538.00
780.8750, 23623.00
782.0170, 23503.00
783.1590, 23697.00
784.3010, 23719.00
785.4430, 23629.00
786.5850, 23793.00
787.7260, 23743.00
788.8680, 23878.00
790.0090, 23819.00
791.1500, 23835.00
792.2910, 23612.00
793.4310, 23767.00
794.5720, 23770.00
795.7120, 23880.00
796.8520, 23966.00
797.9920, 23896.00
799.1320, 23968.81
800.2720, 24072.00
801.4120, 23955.00
802.5510, 24028.00
803.6900, 23974.00
804.8290, 24152.00
805.9680, 24042.00
807.1070, 24234.00
808.2450, 24181.00
809.3840, 24418.00
810.5220, 24154.00
811.6600, 24382.00
812.7980, 24389.00
813.9360, 24752.00
815.0730, 24756.00
816.2110, 24825.00
817.3480, 24978.00
818.4850, 24722.00
819.6220, 24944.00
820.7590, 24896.00
821.8960, 24624.00
823.0320, 24849.00
824.1680, 24666.00
825.3040, 24490.00
826.4400, 24547.00
827.5760, 24527.00
828.7120, 24589.00
829.8470, 24700.00
830.9830, 24628.00
832.1180, 24651.00
833.2530, 24555.00
834.3880, 24686.00
835.5220, 24686.00
836.6570, 24510.00
837.7910, 24607.00
838.9250, 24791.00
840.0590, 24739.00
841.1930, 24680.00
842.3270, 24809.00
843.4600, 24907.00
844.5940, 24877.00
845.7270, 24751.00
846.8600, 24688.00
847.9930, 24909.00
849.1250, 24983.00
850.2580, 24951.00
851.3900, 25048.00
852.5230, 25060.00
853.6550, 24952.00
854.7870, 25125.00
855.9180, 25093.00
857.0500, 25314.00
858.1810, 25161.00
859.3130, 25442.00
860.4440, 25200.00
861.5750, 25356.00
862.7050, 25486.00
863.8360, 25347.00
864.9660, 25440.00
866.0970, 25348.00
867.2270, 25491.00
868.3570, 25510.00
869.4870, 25524.00
870.6160, 25678.00
871.7460, 25631.00
872.8750, 25799.00
874.0040, 25615.00
875.1330, 25586.00
876.2620, 25541.00
877.3910, 25634.00
878.5190, 25623.00
879.6470, 25774.00
880.7760, 25686.00
881.9040, 25733.00
883.0310, 25947.00
884.1590, 25857.00
885.2870, 25731.00
886.4140, 25660.00
887.5410, 25795.00
888.6680, 25779.00
889.7950, 25846.00
890.9220, 25949.00
892.0480, 25805.00
893.1750, 26049.00
894.3010, 25703.00
895.4270, 25808.00
896.5530, 26160.00
897.6790, 26062.00
898.8040, 26113.00
899.9300, 25944.00
901.0550, 26157.00
902.1800, 25974.00
903.3050, 25922.00
904.4300, 25931.00
905.5540, 26234.00
906.6790, 26282.00
907.8030, 26285.00
908.9270, 26279.00
910.0510, 26282.00
911.1750, 26238.00
912.2990, 26296.00
913.4220, 26213.00
914.5450, 26343.00
915.6690, 26363.00
916.7920, 26240.00
917.9140, 26531.00
919.0370, 26226.00
920.1600, 26336.00
921.2820, 26482.00
922.4040, 26453.00
923.5260, 26614.00
924.6480, 26481.00
925.7700, 26324.00
926.8910, 26641.00
928.0130, 26499.00
929.1340, 26575.00
930.2550, 26862.00
931.3760, 26521.00
932.4970, 26516.00
933.6170, 26724.00
934.7380, 26669.00
935.8580, 26808.00
936.9780, 26864.00
938.0980, 26863.00
939.2180, 26987.00
940.3370, 26970.66
941.4570, 27002.64
942.5760, 26975.00
943.6950, 27008.00
944.8140, 26983.00
945.9330, 26951.00
947.0520, 27097.00
948.1700, 26917.00
949.2890, 26885.00
950.4070, 27094.00
951.5250, 27063.00
952.6430, 27044.00
953.7600, 27140.00
954.8780, 27131.00
955.9950, 27046.00
957.1120, 27193.00
958.2290, 26977.00
959.3460, 27012.00
960.4630, 27183.00
961.5800, 27314.00
962.6960, 27249.00
963.8120, 27203.00
964.9280, 27579.00
966.0440, 27354.00
967.1600, 27629.00
968.2760, 27321.00
969.3910, 27607.00
970.5060, 27522.00
971.6210, 27608.00
972.7360, 27561.00
973.8510, 27635.00
974.9660, 27631.00
976.0800, 27769.00
977.1950, 27774.00
978.3090, 27726.00
979.4230, 27633.00
980.5370, 27835.00
981.6500, 27702.00
982.7640, 27882.00
983.8770, 27811.00
984.9900, 27994.00
986.1030, 28047.00
987.2160, 28130.00
988.3290, 28136.00
989.4420, 28102.00
990.5540, 28262.00
991.6660, 28331.00
992.7780, 28297.00
993.8900, 28322.00
995.0020, 28476.00
996.1140, 28331.00
997.2250, 28496.00
998.3360, 28500.36
999.4470, 28510.00
1000.558, 28527.00
1001.669, 28432.00
1002.780, 28327.00
1003.890, 28729.00
1005.001, 28631.00
1006.111, 28747.00
1007.221, 28991.00
1008.331, 28694.00
1009.440, 28751.00
1010.550, 28674.00
1011.659, 28972.00
1012.768, 28711.00
1013.877, 28923.00
1014.986, 29048.00
1016.095, 28943.00
1017.204, 28883.00
1018.312, 28786.00
1019.420, 28774.52
1020.528, 28791.00
1021.636, 28783.00
1022.744, 28804.80
1023.852, 28812.47
1024.959, 28877.00
1026.066, 28861.00
1027.173, 28951.00
1028.280, 29032.00
1029.387, 29106.00
1030.494, 29098.00
1031.600, 29187.00
1032.707, 29056.00
1033.813, 29160.00
1034.919, 29174.00
1036.025, 29288.00
1037.130, 29523.00
1038.236, 29549.00
1039.341, 29394.00
1040.446, 29833.00
1041.552, 29714.00
1042.656, 29902.00
1043.761, 30011.00
1044.866, 30267.00
1045.970, 30392.00
1047.074, 30626.00
1048.179, 30588.00
1049.282, 30832.00
1050.386, 30512.00
1051.490, 30690.00
1052.593, 30615.00
1053.697, 30745.00
1054.800, 30679.00
1055.903, 30642.00
1057.006, 30474.00
1058.108, 30488.00
1059.211, 30572.00
1060.313, 30538.00
1061.415, 30606.00
1062.517, 30487.00
1063.619, 30732.00
1064.721, 30731.00
1065.823, 30743.00
1066.924, 30510.00
1068.025, 30693.00
1069.126, 30650.00
1070.227, 30669.00
1071.328, 30726.00
1072.429, 30689.00
1073.529, 30449.00
1074.629, 30456.00
1075.729, 30384.00
1076.829, 30446.00
1077.929, 30376.00
1079.029, 30513.00
1080.128, 30588.00
1081.228, 30380.00
1082.327, 30416.00
1083.426, 30279.00
1084.525, 30408.00
1085.623, 30396.00
1086.722, 30414.00
1087.820, 30749.00
1088.919, 30388.00
1090.017, 30726.00
1091.115, 30420.00
1092.212, 30357.00
1093.310, 30530.00
1094.407, 30469.00
1095.505, 30592.00
1096.602, 30498.00
1097.699, 30603.00
1098.795, 30646.00
1099.892, 30762.00
1100.989, 30799.00
1102.085, 30603.00
1103.181, 30585.00
1104.277, 30616.00
1105.373, 30884.00
1106.469, 30900.00
1107.564, 30945.00
1108.660, 31036.00
1109.755, 30993.00
1110.850, 31275.00
1111.945, 31200.00
1113.040, 31337.00
1114.134, 31315.00
1115.229, 31402.00
1116.323, 31822.00
1117.417, 31505.00
1118.511, 31811.00
1119.605, 31694.00
1120.698, 31889.00
1121.792, 31880.00
1122.885, 32118.00
1123.978, 32426.00
1125.071, 32426.00
1126.164, 32743.00
1127.257, 32798.00
1128.349, 33055.00
1129.442, 33267.00
1130.534, 33483.00
1131.626, 33834.79
1132.718, 34316.00
1133.810, 34555.00
1134.901, 34890.00
1135.993, 35266.00
1137.084, 35418.00
1138.175, 35604.00
1139.266, 35591.00
1140.357, 35621.00
1141.448, 35622.00
1142.538, 35262.00
1143.628, 34928.00
1144.719, 34568.00
1145.809, 34188.00
1146.898, 33738.00
1147.988, 33528.00
1149.078, 33163.00
1150.167, 32980.00
1151.256, 32793.00
1152.345, 32452.00
1153.434, 32631.00
1154.523, 32411.00
1155.612, 32610.00
1156.700, 32118.00
1157.788, 32369.00
1158.877, 32512.00
1159.964, 32216.00
1161.052, 32332.00
1162.140, 32394.00
1163.227, 32085.00
1164.315, 32185.00
1165.402, 32136.00
1166.489, 32266.00
1167.576, 32053.00
1168.663, 32157.00
1169.749, 32073.00
1170.836, 32115.00
1171.922, 32195.00
1173.008, 32200.00
1174.094, 31995.00
1175.180, 32280.00
1176.265, 32273.00
1177.351, 32520.00
1178.436, 32057.00
1179.521, 32417.00
1180.606, 32207.00
1181.691, 32233.00
1182.776, 32251.00
1183.860, 32345.00
1184.944, 32226.00
1186.029, 32168.00
1187.113, 32254.00
1188.197, 32422.00
1189.280, 32532.00
1190.364, 32580.00
1191.447, 32533.00
1192.531, 32550.00
1193.614, 32370.00
1194.697, 32324.00
1195.779, 32531.00
1196.862, 32706.00
1197.945, 32614.00
1199.027, 32811.00
1200.109, 32560.00
1201.191, 32728.00
1202.273, 32805.00
1203.355, 32585.00
1204.436, 32771.49
1205.518, 32782.00
1206.599, 32875.00
1207.680, 32901.00
1208.761, 32914.00
1209.842, 32935.00
1210.922, 32848.00
1212.003, 32931.00
1213.083, 32851.00
1214.163, 32996.00
1215.243, 33040.00
1216.323, 33081.00
1217.402, 32884.00
1218.482, 33412.00
1219.561, 33005.00
1220.641, 33216.00
1221.720, 33117.00
1222.798, 33143.00
1223.877, 33312.00
1224.956, 33437.00
1226.034, 33233.00
1227.112, 33417.00
1228.191, 33258.00
1229.269, 33456.00
1230.346, 33265.00
1231.424, 33492.00
1232.501, 33219.00
1233.579, 33520.00
1234.656, 33412.00
1235.733, 33281.00
1236.810, 33254.00
1237.886, 33803.00
1238.963, 33685.00
1240.039, 33842.00
1241.116, 33587.00
1242.192, 33741.00
1243.268, 33594.00
1244.343, 33755.00
1245.419, 33788.00
1246.494, 33700.00
1247.570, 33968.00
1248.645, 33637.00
1249.720, 33667.00
1250.795, 34008.00
1251.869, 33769.00
1252.944, 33914.00
1254.018, 33878.00
1255.093, 34153.00
1256.167, 33962.00
1257.240, 34249.00
1258.314, 34114.00
1259.388, 34112.00
1260.461, 34219.00
1261.535, 34229.00
1262.608, 34289.00
1263.681, 34287.00
1264.753, 34297.00
1265.826, 34193.00
1266.899, 34386.00
1267.971, 34213.00
1269.043, 34250.00
1270.115, 34150.00
1271.187, 34533.00
1272.259, 34403.00
1273.330, 34466.00
1274.402, 34467.00
1275.473, 34317.00
1276.544, 34409.00
1277.615, 34380.00
1278.686, 34451.00
1279.756, 34335.00
1280.827, 34348.00
1281.897, 34365.00
1282.967, 34682.00
1284.037, 34786.00
1285.107, 34521.00
