##NAMES=Epidote
##RRUFFID=R050303
##IDEAL CHEMISTRY=Ca_2_Fe^3+^Al_2_(Si_2_O_7_)(SiO_4_)O(OH)
##LOCALITY=San Martin mine, Zacatecas, Mexico
##OWNER=RRUFF
##SOURCE=Eugene Schlepp
##DESCRIPTION=Green elongated prismatic crystals
##STATUS=The identification of this mineral has been confirmed by X-ray diffraction and chemical analysis
##URL=rruff.info/R050303
##MEASURED CHEMISTRY=Ca_2.00_Al_2.00_(Fe^3+^_0.97_Al_0.03_)(SiO_4_)(Si_2_O_7_)O(OH)
##PIN_ID=L00691
##ORIENTATION=Laser parallel to -b* (0 -1 0). Fiducial mark perpendicular to laser is parallel to -c [0 0 -1]
53.91000, 4953.000
55.14900, 4769.000
56.38700, 4611.000
57.62600, 4615.000
58.86400, 4534.000
60.10300, 4338.000
61.34100, 4122.000
62.57900, 3953.000
63.81700, 3862.000
65.05400, 3806.000
66.29200, 3916.000
67.52900, 4162.000
68.76700, 4476.000
70.00400, 4746.000
71.24100, 4931.000
72.47700, 5403.000
73.71400, 6172.000
74.95100, 7322.000
76.18700, 8489.000
77.42300, 10053.00
78.65900, 12104.00
79.89500, 15019.00
81.13100, 18850.00
82.36700, 23371.00
83.60200, 28278.00
84.83700, 33256.00
86.07200, 37960.00
87.30800, 41399.00
88.54200, 42014.00
89.77700, 40729.00
91.01200, 37375.00
92.24600, 32887.00
93.48000, 28404.00
94.71400, 24349.00
95.94800, 21317.00
97.18200, 18737.00
98.41600, 17029.00
99.64900, 15706.00
100.8830, 14407.00
102.1160, 13673.00
103.3490, 13277.00
104.5820, 13331.00
105.8150, 14065.00
107.0470, 13707.58
108.2800, 13483.01
109.5120, 13683.00
110.7440, 12719.00
111.9760, 12607.00
113.2080, 12864.00
114.4400, 13141.00
115.6710, 13307.00
116.9030, 13695.00
118.1340, 14205.00
119.3650, 14893.00
120.5960, 16304.00
121.8270, 18319.00
123.0580, 20840.00
124.2880, 23531.00
125.5190, 27512.00
126.7490, 31998.00
127.9790, 36249.00
129.2090, 39388.00
130.4390, 39351.00
131.6680, 36201.00
132.8980, 31483.00
134.1270, 26992.00
135.3560, 23294.00
136.5850, 20792.00
137.8140, 18782.00
139.0430, 17697.00
140.2710, 16881.00
141.5000, 16654.00
142.7280, 16464.00
143.9560, 16295.00
145.1840, 15556.00
146.4120, 15225.00
147.6390, 14711.00
148.8670, 14108.00
150.0940, 14421.00
151.3210, 14540.00
152.5490, 14778.00
153.7750, 15528.00
155.0020, 16284.00
156.2290, 17254.00
157.4550, 18658.00
158.6810, 20210.00
159.9080, 22275.00
161.1340, 24357.00
162.3590, 26386.00
163.5850, 27622.00
164.8110, 28140.00
166.0360, 27689.00
167.2610, 26638.00
168.4860, 24956.00
169.7110, 23439.00
170.9360, 21620.00
172.1610, 19721.00
173.3850, 18312.00
174.6100, 17015.00
175.8340, 15853.00
177.0580, 14883.00
178.2820, 14288.00
179.5050, 13998.00
180.7290, 13558.00
181.9520, 13237.00
183.1760, 13037.00
184.3990, 13040.00
185.6220, 13173.00
186.8450, 13317.00
188.0670, 13456.00
189.2900, 13924.00
190.5120, 14205.00
191.7340, 14798.00
192.9560, 15665.00
194.1780, 16294.00
195.4000, 17165.00
196.6220, 18000.00
197.8430, 18787.00
199.0640, 19731.00
200.2860, 19969.00
201.5070, 20034.00
202.7270, 19811.00
203.9480, 19176.00
205.1690, 18966.00
206.3890, 18803.00
207.6090, 19076.00
208.8290, 19191.00
210.0490, 19836.00
211.2690, 20501.00
212.4890, 21770.00
213.7080, 22921.00
214.9280, 24508.00
216.1470, 26337.00
217.3660, 28215.00
218.5850, 30276.00
219.8030, 32442.00
221.0220, 34846.00
222.2400, 36395.00
223.4590, 37707.00
224.6770, 38061.00
225.8950, 37295.00
227.1120, 35636.00
228.3300, 33142.00
229.5480, 30848.00
230.7650, 29134.00
231.9820, 27993.26
233.1990, 26972.00
234.4160, 27070.00
235.6330, 27460.00
236.8490, 28170.00
238.0660, 28418.00
239.2820, 28228.00
240.4980, 27579.00
241.7140, 26084.00
242.9300, 23914.00
244.1460, 22378.00
245.3610, 20366.00
246.5770, 18654.00
247.7920, 17302.00
249.0070, 16203.00
250.2220, 15361.00
251.4370, 14645.00
252.6510, 14279.00
253.8660, 14067.00
255.0800, 13813.00
256.2940, 13959.00
257.5080, 14120.81
258.7220, 14358.06
259.9360, 15112.00
261.1490, 15452.00
262.3630, 16577.00
263.5760, 17867.00
264.7890, 19609.00
266.0020, 21704.00
267.2150, 24206.00
268.4270, 27326.00
269.6400, 30305.00
270.8520, 33030.00
272.0640, 33697.00
273.2760, 32774.00
274.4880, 30487.00
275.7000, 27543.00
276.9120, 24664.00
278.1230, 22398.00
279.3340, 20955.00
280.5450, 20028.00
281.7560, 19884.00
282.9670, 20121.00
284.1780, 20864.00
285.3880, 21775.00
286.5980, 23254.00
287.8090, 24616.00
289.0190, 25364.00
290.2290, 25877.00
291.4380, 25452.00
292.6480, 24819.00
293.8570, 23830.00
295.0670, 22937.00
296.2760, 21774.00
297.4850, 20419.00
298.6930, 19302.00
299.9020, 18183.00
301.1110, 17499.00
302.3190, 16735.00
303.5270, 16136.00
304.7350, 15728.00
305.9430, 15158.00
307.1510, 14901.00
308.3580, 14638.00
309.5660, 14351.00
310.7730, 14349.00
311.9800, 14641.00
313.1870, 15034.00
314.3940, 15398.00
315.6010, 16343.00
316.8070, 16995.00
318.0130, 18103.00
319.2200, 19059.00
320.4260, 19424.00
321.6310, 19716.00
322.8370, 19660.00
324.0430, 18900.00
325.2480, 17963.00
326.4540, 16956.00
327.6590, 16266.00
328.8640, 15580.00
330.0680, 14963.00
331.2730, 14959.00
332.4780, 14714.00
333.6820, 15149.00
334.8860, 15618.00
336.0900, 16200.00
337.2940, 16997.00
338.4980, 17982.00
339.7010, 19135.00
340.9050, 20623.00
342.1080, 22279.00
343.3110, 23289.00
344.5140, 24212.00
345.7170, 24772.00
346.9200, 24458.00
348.1220, 23872.00
349.3240, 22411.00
350.5270, 21233.00
351.7290, 19496.00
352.9310, 18405.00
354.1320, 17082.00
355.3340, 16090.00
356.5350, 14970.00
357.7370, 14449.00
358.9380, 13890.00
360.1390, 13212.00
361.3400, 12824.00
362.5400, 12508.00
363.7410, 12432.00
364.9410, 12181.00
366.1410, 11964.00
367.3410, 11801.00
368.5410, 11686.00
369.7410, 11654.00
370.9400, 11644.00
372.1400, 11760.60
373.3390, 11961.30
374.5380, 12204.00
375.7370, 12637.00
376.9360, 13097.00
378.1350, 13691.00
379.3330, 14115.00
380.5310, 14801.00
381.7300, 15611.00
382.9280, 16583.00
384.1260, 17102.00
385.3230, 17396.00
386.5210, 17652.00
387.7180, 17270.00
388.9160, 16873.00
390.1130, 15999.00
391.3100, 15432.00
392.5060, 15304.00
393.7030, 14377.00
394.9000, 14054.00
396.0960, 13892.00
397.2920, 13898.00
398.4880, 13743.00
399.6840, 13906.00
400.8800, 14082.00
402.0750, 14431.00
403.2710, 14849.00
404.4660, 15346.00
405.6610, 15900.00
406.8560, 16918.00
408.0510, 17922.00
409.2450, 19341.00
410.4400, 21209.00
411.6340, 23374.00
412.8280, 26318.00
414.0220, 29436.00
415.2160, 33535.00
416.4100, 37920.00
417.6030, 42656.00
418.7970, 47044.00
419.9900, 50495.00
421.1830, 51984.00
422.3760, 52111.00
423.5690, 50342.00
424.7610, 47920.00
425.9540, 45022.00
427.1460, 43071.00
428.3380, 41246.00
429.5300, 39923.00
430.7220, 38523.00
431.9140, 37234.00
433.1050, 36324.00
434.2970, 35188.00
435.4880, 34444.00
436.6790, 34447.00
437.8700, 35217.00
439.0610, 36680.39
440.2510, 39050.00
441.4420, 41745.00
442.6320, 45638.00
443.8220, 49819.00
445.0120, 53859.00
446.2020, 57228.00
447.3910, 59447.00
448.5810, 60248.00
449.7700, 59981.00
450.9600, 58962.00
452.1490, 56913.00
453.3370, 54598.00
454.5260, 51142.00
455.7150, 47492.00
456.9030, 43369.00
458.0910, 38872.00
459.2800, 35195.00
460.4670, 31549.00
461.6550, 28575.00
462.8430, 26036.00
464.0300, 23901.00
465.2180, 22067.00
466.4050, 20415.00
467.5920, 19317.00
468.7790, 18382.00
469.9650, 17520.00
471.1520, 16909.00
472.3380, 16519.00
473.5250, 16155.00
474.7110, 15897.00
475.8970, 15941.00
477.0820, 15873.00
478.2680, 16130.00
479.4540, 16324.00
480.6390, 16488.00
481.8240, 16893.00
483.0090, 17348.00
484.1940, 18001.00
485.3780, 18651.00
486.5630, 19975.00
487.7470, 21146.00
488.9320, 22214.00
490.1160, 23390.00
491.3000, 24971.00
492.4830, 26508.00
493.6670, 27758.00
494.8500, 28951.00
496.0340, 29703.00
497.2170, 30058.00
498.4000, 29926.00
499.5820, 30212.00
500.7650, 30011.00
501.9480, 30261.00
503.1300, 30607.00
504.3120, 30988.00
505.4940, 31214.00
506.6760, 31529.00
507.8580, 31077.00
509.0390, 30612.00
510.2210, 30187.00
511.4020, 30226.00
512.5830, 30183.00
513.7640, 30952.00
514.9450, 31808.00
516.1250, 32867.00
517.3060, 33822.00
518.4860, 34372.00
519.6660, 33873.00
520.8460, 32073.00
522.0260, 29919.00
523.2060, 27136.00
524.3850, 24559.00
525.5650, 22234.00
526.7440, 20255.00
527.9230, 18917.00
529.1020, 17543.00
530.2810, 16414.00
531.4590, 15805.00
532.6380, 15215.00
533.8160, 14778.00
534.9940, 14521.00
536.1720, 14386.00
537.3500, 14380.00
538.5270, 14225.00
539.7050, 14429.00
540.8820, 14734.00
542.0590, 14833.81
543.2360, 15251.00
544.4130, 15568.00
545.5900, 16005.00
546.7660, 16917.00
547.9430, 17804.00
549.1190, 18965.00
550.2950, 20559.00
551.4710, 22672.00
552.6470, 25479.00
553.8220, 29019.00
554.9980, 32989.00
556.1730, 38137.00
557.3480, 44386.00
558.5230, 50629.00
559.6980, 56687.00
560.8730, 60796.00
562.0470, 60561.00
563.2220, 56985.00
564.3960, 50335.00
565.5700, 43041.00
566.7440, 36753.00
567.9170, 31773.00
569.0910, 28194.00
570.2640, 25588.00
571.4380, 24424.00
572.6110, 23315.00
573.7840, 23169.00
574.9570, 23378.00
576.1290, 23890.00
577.3020, 24772.00
578.4740, 26154.00
579.6460, 27288.00
580.8180, 28777.00
581.9900, 30010.00
583.1620, 31130.00
584.3330, 31965.00
585.5040, 32921.00
586.6760, 34240.00
587.8470, 35650.00
589.0180, 37497.00
590.1880, 39297.00
591.3590, 41529.00
592.5290, 43758.00
593.7000, 45243.00
594.8700, 45532.00
596.0400, 45649.00
597.2090, 44253.00
598.3790, 42722.00
599.5490, 39406.00
600.7180, 36979.00
601.8870, 34390.00
603.0560, 32156.00
604.2250, 30442.00
605.3940, 28820.00
606.5620, 27514.00
607.7300, 26444.00
608.8990, 25460.00
610.0670, 24535.00
611.2350, 23531.00
612.4020, 22353.00
613.5700, 21007.00
614.7370, 19704.00
615.9050, 18766.00
617.0720, 17433.00
618.2390, 16433.00
619.4060, 15851.00
620.5720, 14860.00
621.7390, 14068.00
622.9050, 13521.00
624.0710, 13026.00
625.2370, 12730.00
626.4030, 12282.00
627.5690, 12002.00
628.7340, 11642.00
629.9000, 11317.00
631.0650, 11180.00
632.2300, 11026.00
633.3950, 10909.00
634.5600, 10661.00
635.7240, 10532.00
636.8890, 10348.00
638.0530, 10375.00
639.2170, 10186.00
640.3810, 10142.00
641.5450, 10020.00
642.7080, 10057.00
643.8720, 9968.000
645.0350, 9849.000
646.1980, 9803.000
647.3610, 9714.000
648.5240, 9721.000
649.6870, 9765.000
650.8490, 9628.000
652.0120, 9495.000
653.1740, 9732.000
654.3360, 9630.000
655.4980, 9634.000
656.6600, 9685.000
657.8210, 9663.000
658.9830, 9535.167
660.1440, 9682.759
661.3050, 9786.017
662.4660, 9847.321
663.6270, 9741.023
664.7870, 9851.108
665.9480, 9874.501
667.1080, 9894.296
668.2680, 10034.84
669.4280, 9952.879
670.5880, 10240.00
671.7480, 10139.00
672.9070, 10208.00
674.0670, 10346.00
675.2260, 10339.00
676.3850, 10512.00
677.5440, 10673.00
678.7030, 10716.71
679.8610, 10828.60
681.0200, 10872.00
682.1780, 10918.00
683.3360, 10970.00
684.4940, 10956.00
685.6520, 10736.00
686.8090, 10663.00
687.9670, 10361.00
689.1240, 10235.00
690.2810, 9969.000
691.4380, 9640.000
692.5950, 9363.000
693.7520, 9203.000
694.9080, 8910.000
696.0650, 8792.000
697.2210, 8624.172
698.3770, 8467.000
699.5330, 8402.000
700.6880, 8311.000
701.8440, 8291.000
702.9990, 8106.000
704.1550, 8120.000
705.3100, 8132.000
706.4650, 8079.000
707.6190, 7944.000
708.7740, 7948.000
709.9290, 7833.000
711.0830, 7800.842
712.2370, 7781.000
713.3910, 7783.000
714.5450, 7709.000
715.6980, 7701.112
716.8520, 7711.000
718.0050, 7658.000
719.1580, 7610.000
720.3110, 7623.000
721.4640, 7597.000
722.6170, 7690.000
723.7700, 7702.000
724.9220, 7665.014
726.0740, 7641.628
727.2260, 7636.000
728.3780, 7501.000
729.5300, 7604.000
730.6810, 7560.000
731.8330, 7631.000
732.9840, 7515.000
734.1350, 7579.000
735.2860, 7449.000
736.4370, 7595.000
737.5880, 7486.000
738.7380, 7474.000
739.8880, 7505.000
741.0390, 7541.000
742.1890, 7517.000
743.3380, 7509.000
744.4880, 7574.000
745.6380, 7497.000
746.7870, 7498.000
747.9360, 7401.000
749.0850, 7506.000
750.2340, 7615.000
751.3830, 7489.000
752.5310, 7684.000
753.6800, 7590.000
754.8280, 7701.000
755.9760, 7623.000
757.1240, 7619.000
758.2720, 7682.000
759.4190, 7635.000
760.5670, 7631.000
761.7140, 7582.000
762.8610, 7604.000
764.0080, 7746.000
765.1550, 7704.000
766.3020, 7738.000
767.4480, 7658.000
768.5950, 7715.000
769.7410, 8125.000
770.8870, 7883.281
772.0330, 8183.000
773.1780, 7718.000
774.3240, 7715.000
775.4690, 7729.000
776.6140, 7735.000
777.7590, 7867.000
778.9040, 7855.000
780.0490, 7735.000
781.1940, 7876.000
782.3380, 7855.000
783.4820, 7856.000
784.6260, 8054.000
785.7700, 8017.000
786.9140, 7915.000
788.0580, 7944.000
789.2010, 8032.000
790.3450, 8107.000
791.4880, 8076.000
792.6310, 8218.000
793.7730, 8252.000
794.9160, 8291.000
796.0590, 8217.000
797.2010, 8348.000
798.3430, 8432.000
799.4850, 8606.000
800.6270, 8672.000
801.7690, 8765.000
802.9100, 8768.000
804.0520, 8938.969
805.1930, 8926.000
806.3340, 9257.000
807.4750, 9335.000
808.6160, 9498.000
809.7560, 9608.000
810.8970, 9745.000
812.0370, 9978.000
813.1770, 10168.00
814.3170, 10442.00
815.4570, 10753.00
816.5960, 11114.00
817.7360, 11546.00
818.8750, 12130.00
820.0140, 12418.00
821.1530, 12972.00
822.2920, 13401.00
823.4310, 13801.00
824.5690, 14370.00
825.7070, 14589.00
826.8460, 14875.00
827.9840, 14682.00
829.1220, 14516.00
830.2590, 14300.00
831.3970, 14095.00
832.5340, 13632.00
833.6710, 13219.00
834.8080, 13217.00
835.9450, 12734.00
837.0820, 12585.00
838.2190, 12576.00
839.3550, 12511.00
840.4910, 12448.29
841.6270, 12443.21
842.7630, 12418.00
843.8990, 12451.00
845.0350, 12564.00
846.1700, 12661.00
847.3060, 13063.00
848.4410, 13210.00
849.5760, 13596.00
850.7100, 13817.00
851.8450, 14239.00
852.9800, 14441.00
854.1140, 15168.00
855.2480, 15692.00
856.3820, 16155.00
857.5160, 16535.00
858.6500, 17040.00
859.7830, 17614.00
860.9170, 18244.00
862.0500, 19011.00
863.1830, 19465.00
864.3160, 19982.00
865.4480, 20199.00
866.5810, 20798.00
867.7130, 20995.00
868.8460, 21295.00
869.9780, 21359.00
871.1100, 21509.00
872.2410, 21385.00
873.3730, 21504.00
874.5050, 21273.00
875.6360, 20938.00
876.7670, 20822.00
877.8980, 20324.00
879.0290, 20047.00
880.1590, 19685.00
881.2900, 19437.00
882.4200, 19334.00
883.5500, 19022.00
884.6800, 19237.00
885.8100, 19205.00
886.9400, 19441.00
888.0690, 19779.00
889.1990, 20346.00
890.3280, 20952.00
891.4570, 21549.00
892.5860, 22561.00
893.7140, 23669.00
894.8430, 25009.00
895.9710, 26457.00
897.1000, 28164.00
898.2280, 29923.00
899.3560, 32025.00
900.4830, 34659.00
901.6110, 37434.00
902.7380, 40668.00
903.8660, 43947.00
904.9930, 47454.00
906.1200, 51261.00
907.2460, 55259.00
908.3730, 58807.00
909.5000, 62112.00
910.6260, 63999.00
911.7520, 65432.00
912.8780, 65520.00
914.0040, 64086.00
915.1290, 61615.00
916.2550, 57862.00
917.3800, 52712.00
918.5050, 48272.00
919.6300, 43299.00
920.7550, 38981.00
921.8800, 35267.00
923.0040, 31507.00
924.1290, 28579.00
925.2530, 26239.00
926.3770, 23766.00
927.5010, 22317.00
928.6250, 20475.00
929.7480, 19342.00
930.8720, 18297.00
931.9950, 17239.00
933.1180, 16558.00
934.2410, 15696.00
935.3640, 15192.00
936.4860, 14772.00
937.6090, 14102.00
938.7310, 13951.00
939.8530, 13619.00
940.9750, 13332.00
942.0970, 13002.00
943.2180, 12966.00
944.3400, 12779.00
945.4610, 12551.00
946.5820, 12615.00
947.7030, 12522.00
948.8240, 12479.00
949.9450, 12470.00
951.0650, 12372.00
952.1860, 12501.00
953.3060, 12447.79
954.4260, 12506.00
955.5460, 12477.00
956.6650, 12531.00
957.7850, 12583.00
958.9040, 12566.00
960.0230, 12586.00
961.1420, 12752.00
962.2610, 12807.01
963.3800, 12853.00
964.4990, 13149.00
965.6170, 13458.00
966.7350, 13838.00
967.8530, 14220.00
968.9710, 15120.00
970.0890, 15732.00
971.2070, 16711.00
972.3240, 17946.00
973.4410, 19031.00
974.5580, 20178.00
975.6750, 20826.00
976.7920, 21214.00
977.9090, 21176.00
979.0250, 20501.00
980.1410, 19424.00
981.2580, 18314.00
982.3740, 17056.00
983.4890, 16017.00
984.6050, 14891.00
985.7200, 14078.00
986.8360, 13356.00
987.9510, 12806.00
989.0660, 12299.00
990.1810, 11871.00
991.2950, 11489.00
992.4100, 11109.00
993.5240, 10858.00
994.6390, 10627.00
995.7530, 10484.00
996.8660, 10226.00
997.9800, 10124.00
999.0940, 10024.00
1000.207, 9798.000
1001.320, 9795.000
1002.433, 9769.000
1003.546, 9503.000
1004.659, 9599.000
1005.772, 9580.000
1006.884, 9475.000
1007.996, 9600.000
1009.108, 9592.000
1010.220, 9765.000
1011.332, 9735.000
1012.444, 9866.000
1013.555, 9885.000
1014.666, 9939.000
1015.777, 10144.00
1016.888, 10163.00
1017.999, 10374.00
1019.110, 10497.00
1020.220, 10732.57
1021.331, 10855.00
1022.441, 11327.00
1023.551, 11547.00
1024.661, 11956.00
1025.770, 12457.00
1026.880, 12852.00
1027.989, 13385.00
1029.098, 14179.00
1030.207, 14932.00
1031.316, 15787.00
1032.425, 16623.00
1033.533, 17446.00
1034.642, 17939.00
1035.750, 18658.00
1036.858, 18888.00
1037.966, 19185.00
1039.073, 19070.00
1040.181, 18690.00
1041.288, 18578.00
1042.396, 17837.00
1043.503, 17319.00
1044.610, 16902.00
1045.716, 16266.00
1046.823, 15740.00
1047.929, 15350.00
1049.036, 15141.00
1050.142, 15025.00
1051.248, 14974.00
1052.353, 15049.00
1053.459, 15491.00
1054.564, 15888.00
1055.670, 16324.00
1056.775, 16565.00
1057.880, 16689.58
1058.985, 16834.00
1060.089, 16667.00
1061.194, 16326.00
1062.298, 16124.00
1063.402, 15969.00
1064.506, 15555.00
1065.610, 15572.00
1066.713, 15467.00
1067.817, 15895.00
1068.920, 16528.00
1070.023, 16796.00
1071.126, 17718.00
1072.229, 18657.00
1073.332, 20109.00
1074.435, 21751.00
1075.537, 23633.00
1076.639, 25735.00
1077.741, 28540.00
1078.843, 31562.00
1079.945, 34264.00
1081.046, 36815.00
1082.148, 38214.00
1083.249, 38275.00
1084.350, 36264.00
1085.451, 33121.00
1086.551, 29255.00
1087.652, 25437.00
1088.752, 22122.00
1089.853, 19214.00
1090.953, 16877.00
1092.053, 15188.00
1093.152, 13904.00
1094.252, 12852.00
1095.351, 12136.00
1096.451, 11494.00
1097.550, 10912.00
1098.649, 10571.00
1099.748, 10421.00
1100.846, 10116.00
1101.945, 10017.00
1103.043, 9649.000
1104.141, 9595.000
1105.239, 9466.000
1106.337, 9386.000
1107.434, 9172.000
1108.532, 9248.000
1109.629, 8987.000
1110.726, 8926.000
1111.823, 8972.000
1112.920, 8866.000
1114.017, 8906.000
1115.113, 8822.000
1116.210, 8831.000
1117.306, 9007.000
1118.402, 8904.000
1119.498, 8833.000
1120.593, 8803.000
1121.689, 8681.000
1122.784, 8650.000
1123.879, 8600.000
1124.974, 8593.000
1126.069, 8387.000
1127.164, 8514.000
1128.259, 8409.000
1129.353, 8273.000
1130.447, 8318.000
1131.541, 8215.000
1132.635, 8181.000
1133.729, 8098.000
1134.822, 8093.000
1135.916, 8031.444
1137.009, 8036.000
1138.102, 7956.000
1139.195, 7921.000
1140.288, 7921.000
1141.380, 7834.000
1142.473, 7835.000
1143.565, 7855.000
1144.657, 7947.000
1145.749, 7796.000
1146.841, 7804.000
1147.932, 7739.000
1149.024, 7845.000
1150.115, 7578.000
1151.206, 7785.000
1152.297, 7625.000
1153.388, 7721.000
1154.479, 7738.000
1155.569, 7703.000
1156.659, 7584.000
1157.750, 7600.926
1158.839, 7702.000
1159.929, 7573.000
1161.019, 7608.000
1162.108, 7646.000
1163.198, 7558.000
1164.287, 7447.000
1165.376, 7561.000
1166.465, 7577.000
1167.553, 7650.000
1168.642, 7514.000
1169.730, 7457.000
1170.818, 7544.000
1171.906, 7417.000
1172.994, 7533.000
1174.082, 7489.000
1175.170, 7522.000
1176.257, 7555.000
1177.344, 7607.000
1178.431, 7418.000
1179.518, 7449.000
1180.605, 7457.000
1181.691, 7512.000
1182.778, 7467.000
1183.864, 7433.000
1184.950, 7536.000
1186.036, 7373.000
1187.122, 7311.000
1188.207, 7441.000
1189.292, 7418.000
1190.378, 7434.000
1191.463, 7321.000
1192.548, 7410.000
1193.632, 7340.000
1194.717, 7361.000
1195.801, 7357.000
1196.886, 7454.000
1197.970, 7406.000
1199.054, 7456.000
1200.137, 7389.000
1201.221, 7383.000
1202.305, 7536.000
1203.388, 7345.000
1204.471, 7399.000
1205.554, 7491.000
1206.637, 7314.000
1207.719, 7294.000
1208.802, 7354.000
1209.884, 7268.000
1210.966, 7318.000
1212.048, 7262.000
1213.130, 7483.000
1214.212, 7284.000
1215.293, 7376.000
1216.374, 7264.000
1217.456, 7378.000
1218.536, 7211.000
1219.617, 7252.000
1220.698, 7242.000
1221.778, 7269.000
1222.859, 7309.000
1223.939, 7262.000
1225.019, 7236.000
1226.099, 7138.000
1227.178, 7309.000
1228.258, 7204.000
1229.337, 7389.000
1230.417, 7169.000
1231.496, 7319.000
1232.574, 7199.000
1233.653, 7274.000
1234.732, 7251.000
1235.810, 7185.000
1236.888, 7261.000
1237.966, 7241.000
