##NAMES=Epidote
##RRUFFID=R050191
##IDEAL CHEMISTRY=Ca_2_Fe^3+^Al_2_(Si_2_O_7_)(SiO_4_)O(OH)
##LOCALITY=Pampa Blanca, Castrovirreyna Province, Huancavelica Department, Peru
##OWNER=RRUFF
##SOURCE=Dave Bunk Minerals
##DESCRIPTION=Cluster of green elongated prismatic crystals
##STATUS=The identification of this mineral has been confirmed by X-ray diffraction and chemical analysis
##URL=rruff.info/R050191
##MEASURED CHEMISTRY=Ca_2.00_Al_2.00_(Fe^3+^_0.84_Al_0.16_)(SiO_4_)(Si_2_O_7_)O(OH)
##PIN_ID=L01970
##ORIENTATION=Laser parallel to b* (0 1 0). Fiducial mark perpendicular to laser is parallel to c [0 0 1]
53.91000, 556.0000
55.14900, 592.0000
56.38700, 610.0000
57.62600, 596.0000
58.86400, 632.0000
60.10300, 671.0000
61.34100, 700.0000
62.57900, 781.0000
63.81700, 879.0000
65.05400, 955.0000
66.29200, 1129.000
67.52900, 1387.000
68.76700, 1768.000
70.00400, 2118.000
71.24100, 2429.000
72.47700, 2766.000
73.71400, 3422.000
74.95100, 4286.000
76.18700, 5344.000
77.42300, 6566.000
78.65900, 8076.000
79.89500, 10226.00
81.13100, 12847.00
82.36700, 16200.00
83.60200, 20676.00
84.83700, 25238.00
86.07200, 30971.00
87.30800, 36606.00
88.54200, 41596.00
89.77700, 43700.00
91.01200, 41851.00
92.24600, 38028.00
93.48000, 32776.00
94.71400, 28373.00
95.94800, 24594.00
97.18200, 20828.00
98.41600, 17907.00
99.64900, 15758.00
100.8830, 13822.00
102.1160, 12492.00
103.3490, 11400.00
104.5820, 10870.13
105.8150, 10611.92
107.0470, 10335.40
108.2800, 10041.07
109.5120, 9676.816
110.7440, 9403.168
111.9760, 9093.210
113.2080, 8781.761
114.4400, 8800.000
115.6710, 8985.000
116.9030, 8952.000
118.1340, 9051.000
119.3650, 9189.000
120.5960, 9476.000
121.8270, 10278.00
123.0580, 11309.00
124.2880, 12300.00
125.5190, 13792.00
126.7490, 16040.00
127.9790, 19410.00
129.2090, 22938.00
130.4390, 24916.00
131.6680, 23948.00
132.8980, 20879.00
134.1270, 17839.00
135.3560, 15363.00
136.5850, 13462.00
137.8140, 12350.00
139.0430, 11698.00
140.2710, 10800.00
141.5000, 10655.00
142.7280, 10505.00
143.9560, 10604.00
145.1840, 10638.00
146.4120, 10133.00
147.6390, 9359.000
148.8670, 8970.000
150.0940, 8613.000
151.3210, 8788.000
152.5490, 8547.000
153.7750, 8637.000
155.0020, 8939.000
156.2290, 9103.000
157.4550, 9591.000
158.6810, 10065.00
159.9080, 10933.00
161.1340, 11890.00
162.3590, 12882.00
163.5850, 14140.00
164.8110, 15101.00
166.0360, 15238.00
167.2610, 14762.00
168.4860, 14050.00
169.7110, 13259.00
170.9360, 12349.00
172.1610, 11631.00
173.3850, 10929.00
174.6100, 10283.00
175.8340, 9704.000
177.0580, 9641.000
178.2820, 9368.000
179.5050, 9158.000
180.7290, 9191.000
181.9520, 9274.000
183.1760, 9447.000
184.3990, 9445.000
185.6220, 9745.000
186.8450, 9774.000
188.0670, 9888.000
189.2900, 9793.000
190.5120, 10033.00
191.7340, 10405.00
192.9560, 10868.00
194.1780, 11394.00
195.4000, 11984.00
196.6220, 12962.00
197.8430, 13876.00
199.0640, 14743.00
200.2860, 15573.00
201.5070, 15828.00
202.7270, 15920.00
203.9480, 15275.00
205.1690, 15074.00
206.3890, 14743.00
207.6090, 14885.00
208.8290, 14874.00
210.0490, 15093.00
211.2690, 15694.00
212.4890, 16430.00
213.7080, 17278.00
214.9280, 18448.00
216.1470, 20175.00
217.3660, 21737.00
218.5850, 23655.00
219.8030, 26029.00
221.0220, 28252.00
222.2400, 30926.00
223.4590, 33082.00
224.6770, 35057.00
225.8950, 35504.00
227.1120, 34630.00
228.3300, 32363.00
229.5480, 29577.00
230.7650, 26113.00
231.9820, 23304.00
233.1990, 21035.00
234.4160, 19421.00
235.6330, 18782.00
236.8490, 18430.00
238.0660, 18557.00
239.2820, 18461.00
240.4980, 18455.00
241.7140, 17739.00
242.9300, 16566.00
244.1460, 15654.00
245.3610, 14725.00
246.5770, 13899.00
247.7920, 13233.66
249.0070, 12519.00
250.2220, 12139.00
251.4370, 11692.00
252.6510, 11381.00
253.8660, 11261.00
255.0800, 10962.00
256.2940, 10850.00
257.5080, 11018.00
258.7220, 10947.49
259.9360, 11658.00
261.1490, 11355.00
262.3630, 11821.00
263.5760, 12497.00
264.7890, 13591.00
266.0020, 15323.00
267.2150, 17112.00
268.4270, 19676.00
269.6400, 22223.00
270.8520, 25665.00
272.0640, 28575.00
273.2760, 29580.00
274.4880, 28627.00
275.7000, 25789.00
276.9120, 22254.00
278.1230, 19366.00
279.3340, 16753.00
280.5450, 14782.00
281.7560, 13404.00
282.9670, 12583.00
284.1780, 12016.00
285.3880, 11618.00
286.5980, 11740.00
287.8090, 12103.00
289.0190, 12442.00
290.2290, 12820.00
291.4380, 13121.00
292.6480, 13617.00
293.8570, 13967.00
295.0670, 14305.00
296.2760, 14073.00
297.4850, 13905.00
298.6930, 13468.00
299.9020, 13086.00
301.1110, 12685.00
302.3190, 12430.00
303.5270, 12458.00
304.7350, 12308.00
305.9430, 11902.00
307.1510, 11799.00
308.3580, 11527.00
309.5660, 11350.00
310.7730, 11236.00
311.9800, 11166.00
313.1870, 11109.00
314.3940, 11183.00
315.6010, 11410.00
316.8070, 11932.00
318.0130, 12276.00
319.2200, 13179.00
320.4260, 13491.00
321.6310, 14203.00
322.8370, 14228.00
324.0430, 13637.00
325.2480, 12685.00
326.4540, 11750.00
327.6590, 10719.00
328.8640, 9806.000
330.0680, 9116.000
331.2730, 8387.000
332.4780, 7983.000
333.6820, 7643.000
334.8860, 7521.000
336.0900, 7306.000
337.2940, 7280.000
338.4980, 7127.000
339.7010, 7144.000
340.9050, 7291.000
342.1080, 7382.000
343.3110, 7468.000
344.5140, 7686.000
345.7170, 7799.000
346.9200, 7910.000
348.1220, 8062.000
349.3240, 8094.000
350.5270, 8091.000
351.7290, 8099.000
352.9310, 7995.000
354.1320, 7878.000
355.3340, 7872.000
356.5350, 7741.000
357.7370, 7881.000
358.9380, 7864.000
360.1390, 7718.000
361.3400, 7765.000
362.5400, 7739.000
363.7410, 7541.000
364.9410, 7633.000
366.1410, 7811.000
367.3410, 7621.000
368.5410, 7767.000
369.7410, 7831.000
370.9400, 7939.000
372.1400, 8095.000
373.3390, 8243.000
374.5380, 8413.000
375.7370, 8864.000
376.9360, 9163.000
378.1350, 9803.000
379.3330, 10381.00
380.5310, 11163.00
381.7300, 12118.00
382.9280, 13329.00
384.1260, 14491.00
385.3230, 15444.00
386.5210, 15780.00
387.7180, 15564.00
388.9160, 15163.00
390.1130, 14152.00
391.3100, 13192.00
392.5060, 12332.00
393.7030, 11672.00
394.9000, 11144.00
396.0960, 10686.00
397.2920, 10516.00
398.4880, 10355.00
399.6840, 10370.00
400.8800, 10309.00
402.0750, 10407.00
403.2710, 10606.00
404.4660, 10937.00
405.6610, 11347.00
406.8560, 12051.00
408.0510, 12852.00
409.2450, 13503.00
410.4400, 14971.00
411.6340, 16617.00
412.8280, 18968.00
414.0220, 21660.00
415.2160, 25138.00
416.4100, 29450.00
417.6030, 34829.00
418.7970, 40120.00
419.9900, 45335.00
421.1830, 49381.00
422.3760, 50387.00
423.5690, 49133.00
424.7610, 46294.00
425.9540, 42785.00
427.1460, 39651.00
428.3380, 36467.00
429.5300, 34554.00
430.7220, 32753.00
431.9140, 31208.00
433.1050, 29431.00
434.2970, 27276.00
435.4880, 25431.00
436.6790, 23993.00
437.8700, 23363.00
439.0610, 23116.00
440.2510, 23756.00
441.4420, 24800.00
442.6320, 26486.00
443.8220, 29087.00
445.0120, 31983.00
446.2020, 34800.00
447.3910, 36950.00
448.5810, 37663.00
449.7700, 37431.00
450.9600, 36700.00
452.1490, 35731.00
453.3370, 34711.00
454.5260, 32921.00
455.7150, 30850.00
456.9030, 28232.00
458.0910, 25943.00
459.2800, 23603.00
460.4670, 21783.00
461.6550, 19930.00
462.8430, 18318.00
464.0300, 16992.00
465.2180, 16033.00
466.4050, 14908.00
467.5920, 14273.00
468.7790, 13574.00
469.9650, 13014.00
471.1520, 12342.00
472.3380, 12163.00
473.5250, 11634.00
474.7110, 11725.00
475.8970, 11427.00
477.0820, 11329.00
478.2680, 11358.00
479.4540, 11431.01
480.6390, 11579.00
481.8240, 11936.00
483.0090, 12148.00
484.1940, 12590.00
485.3780, 12852.00
486.5630, 13456.00
487.7470, 14024.00
488.9320, 15051.00
490.1160, 16035.00
491.3000, 16762.00
492.4830, 18134.00
493.6670, 19405.00
494.8500, 20764.00
496.0340, 21517.00
497.2170, 22224.00
498.4000, 22426.00
499.5820, 22930.00
500.7650, 22944.00
501.9480, 23375.00
503.1300, 24096.00
504.3120, 24833.00
505.4940, 25985.00
506.6760, 26215.00
507.8580, 26600.00
509.0390, 26145.00
510.2210, 26009.00
511.4020, 25870.00
512.5830, 26044.00
513.7640, 26807.00
514.9450, 28200.00
516.1250, 30543.00
517.3060, 32999.00
518.4860, 35178.00
519.6660, 36456.00
520.8460, 35612.00
522.0260, 33830.00
523.2060, 30347.00
524.3850, 26825.00
525.5650, 23378.00
526.7440, 20641.00
527.9230, 18296.00
529.1020, 16341.00
530.2810, 14794.00
531.4590, 13805.00
532.6380, 12953.00
533.8160, 12323.00
534.9940, 11917.00
536.1720, 11735.00
537.3500, 11319.00
538.5270, 11337.00
539.7050, 11283.00
540.8820, 11444.00
542.0590, 11459.00
543.2360, 11519.00
544.4130, 11967.00
545.5900, 12321.00
546.7660, 12813.00
547.9430, 13253.00
549.1190, 14052.00
550.2950, 15056.00
551.4710, 16300.00
552.6470, 17952.00
553.8220, 20476.00
554.9980, 23705.00
556.1730, 28244.00
557.3480, 33660.00
558.5230, 40690.00
559.6980, 48287.00
560.8730, 55798.00
562.0470, 60382.00
563.2220, 60286.00
564.3960, 55404.00
565.5700, 47972.00
566.7440, 40661.00
567.9170, 34500.00
569.0910, 29759.00
570.2640, 25883.00
571.4380, 23262.00
572.6110, 21524.00
573.7840, 20479.00
574.9570, 20075.00
576.1290, 20367.00
577.3020, 21107.00
578.4740, 22102.00
579.6460, 23550.00
580.8180, 25017.00
581.9900, 26892.00
583.1620, 28238.00
584.3330, 29491.00
585.5040, 30517.00
586.6760, 31265.00
587.8470, 32283.00
589.0180, 33737.00
590.1880, 36164.00
591.3590, 38797.00
592.5290, 41095.00
593.7000, 43723.00
594.8700, 45356.00
596.0400, 45733.00
597.2090, 44859.00
598.3790, 42779.00
599.5490, 40426.00
600.7180, 37824.00
601.8870, 34914.00
603.0560, 33012.00
604.2250, 30560.00
605.3940, 28862.00
606.5620, 27425.00
607.7300, 26364.00
608.8990, 25193.00
610.0670, 24473.00
611.2350, 23482.00
612.4020, 22072.00
613.5700, 20783.00
614.7370, 19360.00
615.9050, 18105.00
617.0720, 16607.00
618.2390, 15298.00
619.4060, 14453.00
620.5720, 13533.67
621.7390, 12958.00
622.9050, 12270.00
624.0710, 11789.00
625.2370, 11185.00
626.4030, 10886.00
627.5690, 10558.00
628.7340, 10177.00
629.9000, 9949.000
631.0650, 9654.000
632.2300, 9423.000
633.3950, 9297.000
634.5600, 9008.000
635.7240, 8934.000
636.8890, 8796.000
638.0530, 8665.000
639.2170, 8600.000
640.3810, 8448.000
641.5450, 8294.000
642.7080, 8367.000
643.8720, 8396.000
645.0350, 8059.000
646.1980, 8252.000
647.3610, 8107.000
648.5240, 8015.000
649.6870, 8016.000
650.8490, 8065.000
652.0120, 7934.000
653.1740, 8020.000
654.3360, 8008.000
655.4980, 8065.000
656.6600, 8025.000
657.8210, 8003.000
658.9830, 8104.000
660.1440, 8130.000
661.3050, 8181.000
662.4660, 8180.000
663.6270, 8225.000
664.7870, 8049.000
665.9480, 7993.000
667.1080, 8113.000
668.2680, 8148.000
669.4280, 8271.000
670.5880, 8217.000
671.7480, 8277.000
672.9070, 8136.000
674.0670, 8275.000
675.2260, 8275.000
676.3850, 8404.000
677.5440, 8461.000
678.7030, 8458.000
679.8610, 8598.000
681.0200, 8549.000
682.1780, 8543.000
683.3360, 8566.901
684.4940, 8534.521
685.6520, 8516.000
686.8090, 8439.000
687.9670, 8359.000
689.1240, 8145.000
690.2810, 8092.000
691.4380, 7835.000
692.5950, 7521.000
693.7520, 7337.000
694.9080, 7284.000
696.0650, 7153.000
697.2210, 7056.000
698.3770, 6925.000
699.5330, 6859.000
700.6880, 6754.000
701.8440, 6737.000
702.9990, 6635.000
704.1550, 6683.000
705.3100, 6533.000
706.4650, 6541.000
707.6190, 6591.000
708.7740, 6498.000
709.9290, 6514.000
711.0830, 6446.000
712.2370, 6528.000
713.3910, 6465.000
714.5450, 6406.000
715.6980, 6361.000
716.8520, 6309.000
718.0050, 6348.000
719.1580, 6387.000
720.3110, 6404.000
721.4640, 6396.000
722.6170, 6295.000
723.7700, 6348.000
724.9220, 6247.000
726.0740, 6278.000
727.2260, 6351.000
728.3780, 6289.000
729.5300, 6319.000
730.6810, 6355.000
731.8330, 6319.000
732.9840, 6348.000
734.1350, 6378.000
735.2860, 6390.000
736.4370, 6397.517
737.5880, 6390.000
738.7380, 6398.067
739.8880, 6402.000
741.0390, 6411.000
742.1890, 6430.000
743.3380, 6369.000
744.4880, 6406.000
745.6380, 6423.000
746.7870, 6376.000
747.9360, 6396.000
749.0850, 6457.000
750.2340, 6516.000
751.3830, 6419.000
752.5310, 6498.000
753.6800, 6521.000
754.8280, 6586.000
755.9760, 6550.000
757.1240, 6658.000
758.2720, 6615.000
759.4190, 6617.000
760.5670, 6815.000
761.7140, 6758.000
762.8610, 6719.000
764.0080, 6802.000
765.1550, 6786.000
766.3020, 6836.000
767.4480, 6849.133
768.5950, 6905.000
769.7410, 6845.000
770.8870, 6856.000
772.0330, 6810.000
773.1780, 6803.000
774.3240, 6791.000
775.4690, 6695.000
776.6140, 6785.000
777.7590, 6734.000
778.9040, 6816.000
780.0490, 6951.000
781.1940, 6847.031
782.3380, 6794.000
783.4820, 6730.000
784.6260, 6784.000
785.7700, 6757.000
786.9140, 6915.000
788.0580, 6847.000
789.2010, 6940.000
790.3450, 6906.000
791.4880, 6971.000
792.6310, 7061.000
793.7730, 7070.000
794.9160, 7065.000
796.0590, 7148.146
797.2010, 7211.000
798.3430, 7282.000
799.4850, 7347.292
800.6270, 7385.000
801.7690, 7480.000
802.9100, 7551.552
804.0520, 7638.000
805.1930, 7756.000
806.3340, 7853.000
807.4750, 7978.000
808.6160, 8128.034
809.7560, 8246.406
810.8970, 8449.000
812.0370, 8549.000
813.1770, 8706.000
814.3170, 8924.000
815.4570, 9327.000
816.5960, 9642.000
817.7360, 9966.000
818.8750, 10286.00
820.0140, 10816.00
821.1530, 11175.00
822.2920, 11827.00
823.4310, 12386.00
824.5690, 12864.00
825.7070, 13163.00
826.8460, 13479.00
827.9840, 13812.00
829.1220, 13740.00
830.2590, 13610.00
831.3970, 13267.00
832.5340, 12843.00
833.6710, 12509.00
834.8080, 11980.00
835.9450, 11762.00
837.0820, 11393.00
838.2190, 11054.00
839.3550, 10852.00
840.4910, 10699.00
841.6270, 10553.00
842.7630, 10436.00
843.8990, 10525.00
845.0350, 10583.00
846.1700, 10613.00
847.3060, 10750.26
848.4410, 10829.00
849.5760, 11033.00
850.7100, 11283.00
851.8450, 11498.00
852.9800, 11805.00
854.1140, 12060.00
855.2480, 12437.00
856.3820, 12744.00
857.5160, 13151.00
858.6500, 13775.00
859.7830, 14235.00
860.9170, 14753.00
862.0500, 15217.00
863.1830, 15713.00
864.3160, 16142.00
865.4480, 16484.00
866.5810, 16822.00
867.7130, 16812.00
868.8460, 16872.00
869.9780, 16586.00
871.1100, 16123.00
872.2410, 15775.00
873.3730, 15707.00
874.5050, 14994.00
875.6360, 14941.00
876.7670, 14540.00
877.8980, 14295.00
879.0290, 14079.00
880.1590, 13847.00
881.2900, 13915.00
882.4200, 13974.00
883.5500, 14038.00
884.6800, 14001.00
885.8100, 14272.00
886.9400, 14489.00
888.0690, 14798.00
889.1990, 15173.00
890.3280, 15682.00
891.4570, 16125.00
892.5860, 16747.00
893.7140, 17516.00
894.8430, 18469.00
895.9710, 19759.00
897.1000, 20862.00
898.2280, 22340.00
899.3560, 23865.00
900.4830, 25798.00
901.6110, 27818.00
902.7380, 30342.00
903.8660, 32873.00
904.9930, 36061.00
906.1200, 39501.00
907.2460, 43105.00
908.3730, 47158.00
909.5000, 51118.00
910.6260, 55183.00
911.7520, 58166.00
912.8780, 61225.00
914.0040, 62341.00
915.1290, 61588.00
916.2550, 59676.00
917.3800, 55850.00
918.5050, 51558.00
919.6300, 46439.00
920.7550, 41506.00
921.8800, 37127.00
923.0040, 33090.00
924.1290, 29885.00
925.2530, 26838.00
926.3770, 24235.00
927.5010, 22116.00
928.6250, 20336.00
929.7480, 18753.00
930.8720, 17474.00
931.9950, 16380.00
933.1180, 15475.00
934.2410, 14647.00
935.3640, 13964.00
936.4860, 13472.00
937.6090, 12903.00
938.7310, 12560.00
939.8530, 12274.00
940.9750, 11856.00
942.0970, 11610.00
943.2180, 11333.00
944.3400, 11192.00
945.4610, 11086.00
946.5820, 11022.00
947.7030, 10898.00
948.8240, 10803.00
949.9450, 10865.00
951.0650, 10851.00
952.1860, 10999.00
953.3060, 10843.00
954.4260, 11090.00
955.5460, 11051.00
956.6650, 11049.00
957.7850, 11156.00
958.9040, 10968.00
960.0230, 11072.00
961.1420, 10930.00
962.2610, 10952.00
963.3800, 11140.00
964.4990, 11145.00
965.6170, 11197.00
966.7350, 11495.00
967.8530, 11795.00
968.9710, 12297.00
970.0890, 12873.00
971.2070, 13639.21
972.3240, 14376.00
973.4410, 15578.00
974.5580, 16666.00
975.6750, 17973.00
976.7920, 18775.00
977.9090, 19462.00
979.0250, 19648.00
980.1410, 19386.00
981.2580, 18512.00
982.3740, 17581.00
983.4890, 16305.00
984.6050, 15054.00
985.7200, 14067.00
986.8360, 13057.00
987.9510, 12257.00
989.0660, 11588.00
990.1810, 11046.00
991.2950, 10607.00
992.4100, 10304.00
993.5240, 10020.00
994.6390, 9746.000
995.7530, 9532.357
996.8660, 9420.000
997.9800, 9154.000
999.0940, 8942.000
1000.207, 8775.000
1001.320, 8790.000
1002.433, 8657.000
1003.546, 8619.000
1004.659, 8459.000
1005.772, 8400.000
1006.884, 8294.000
1007.996, 8318.000
1009.108, 8357.000
1010.220, 8320.000
1011.332, 8345.000
1012.444, 8349.000
1013.555, 8411.000
1014.666, 8337.000
1015.777, 8552.000
1016.888, 8607.000
1017.999, 8693.000
1019.110, 8668.000
1020.220, 8633.000
1021.331, 8854.000
1022.441, 9018.000
1023.551, 8941.000
1024.661, 9270.000
1025.770, 9401.000
1026.880, 9646.000
1027.989, 9833.000
1029.098, 10295.00
1030.207, 10544.00
1031.316, 11092.00
1032.425, 11609.00
1033.533, 12177.00
1034.642, 12691.00
1035.750, 13212.00
1036.858, 13856.00
1037.966, 14401.00
1039.073, 14830.00
1040.181, 14921.00
1041.288, 14688.00
1042.396, 14567.00
1043.503, 14284.00
1044.610, 13990.00
1045.716, 13725.00
1046.823, 13156.00
1047.929, 12711.00
1049.036, 12566.00
1050.142, 12243.00
1051.248, 12174.00
1052.353, 12443.00
1053.459, 12691.00
1054.564, 13053.00
1055.670, 13444.00
1056.775, 13835.00
1057.880, 14533.00
1058.985, 14969.00
1060.089, 15052.00
1061.194, 14928.00
1062.298, 14789.00
1063.402, 14424.00
1064.506, 14078.00
1065.610, 13674.00
1066.713, 13593.00
1067.817, 13376.00
1068.920, 13619.00
1070.023, 14022.00
1071.126, 14307.00
1072.229, 14917.00
1073.332, 15960.00
1074.435, 16990.00
1075.537, 18188.00
1076.639, 19821.00
1077.741, 21953.00
1078.843, 24564.00
1079.945, 27312.00
1081.046, 30669.00
1082.148, 33730.00
1083.249, 35635.00
1084.350, 36044.00
1085.451, 34396.00
1086.551, 31846.00
1087.652, 28364.00
1088.752, 25221.00
1089.853, 21829.00
1090.953, 19100.00
1092.053, 16779.00
1093.152, 14815.00
1094.252, 13154.00
1095.351, 12162.00
1096.451, 11200.00
1097.550, 10504.00
1098.649, 10189.00
1099.748, 9592.000
1100.846, 9712.000
1101.945, 9197.000
1103.043, 8969.000
1104.141, 8693.000
1105.239, 8492.000
1106.337, 8519.000
1107.434, 8275.000
1108.532, 8342.000
1109.629, 8164.000
1110.726, 8137.000
1111.823, 8040.000
1112.920, 8002.000
1114.017, 7949.000
1115.113, 7939.923
1116.210, 7950.000
1117.306, 7975.000
1118.402, 7920.000
1119.498, 7970.000
1120.593, 7968.000
1121.689, 8014.000
1122.784, 7919.000
1123.879, 7869.000
1124.974, 7794.000
1126.069, 7708.000
1127.164, 7750.000
1128.259, 7707.000
1129.353, 7617.000
1130.447, 7713.000
1131.541, 7637.000
1132.635, 7497.000
1133.729, 7550.000
1134.822, 7482.000
1135.916, 7391.000
1137.009, 7341.000
1138.102, 7328.868
1139.195, 7313.623
1140.288, 7327.000
1141.380, 7331.000
1142.473, 7303.000
1143.565, 7273.000
1144.657, 7284.000
1145.749, 7245.000
1146.841, 7174.000
1147.932, 7186.000
1149.024, 7222.000
1150.115, 7262.000
1151.206, 7187.000
1152.297, 7066.000
1153.388, 7214.000
1154.479, 7085.000
1155.569, 7256.000
1156.659, 7198.000
1157.750, 7234.000
1158.839, 7159.000
1159.929, 7128.000
1161.019, 7028.000
1162.108, 7065.000
1163.198, 7149.000
1164.287, 7072.000
1165.376, 7093.000
1166.465, 7128.000
1167.553, 7122.000
1168.642, 7131.000
1169.730, 7101.000
1170.818, 6998.000
1171.906, 7157.000
1172.994, 7110.000
1174.082, 7002.000
1175.170, 7040.000
1176.257, 7089.000
1177.344, 7091.000
1178.431, 7050.000
1179.518, 7092.000
1180.605, 7155.000
1181.691, 7037.000
1182.778, 7043.000
1183.864, 7003.000
1184.950, 7064.000
1186.036, 7135.000
1187.122, 7050.000
1188.207, 6997.000
1189.292, 7078.000
1190.378, 6942.000
1191.463, 7121.000
1192.548, 7112.000
1193.632, 6987.000
1194.717, 7139.000
1195.801, 7078.000
1196.886, 7027.000
1197.970, 7146.000
1199.054, 7122.000
1200.137, 7062.000
1201.221, 7068.000
1202.305, 7017.000
1203.388, 7061.000
1204.471, 7054.000
1205.554, 7071.000
1206.637, 7136.000
1207.719, 6990.000
1208.802, 7129.000
1209.884, 7068.000
1210.966, 7143.000
1212.048, 7032.000
1213.130, 7206.000
1214.212, 7052.000
1215.293, 7085.000
1216.374, 7222.000
1217.456, 7176.000
1218.536, 7127.000
1219.617, 7076.000
1220.698, 7100.000
1221.778, 7143.000
1222.859, 7124.000
1223.939, 7101.000
1225.019, 7176.000
1226.099, 7219.000
1227.178, 7132.000
1228.258, 7061.000
1229.337, 7086.000
1230.417, 7057.000
1231.496, 7024.000
1232.574, 7031.000
1233.653, 7069.000
1234.732, 7026.000
1235.810, 7047.000
