##NAMES=Epidote
##RRUFFID=R050303
##IDEAL CHEMISTRY=Ca_2_Fe^3+^Al_2_(Si_2_O_7_)(SiO_4_)O(OH)
##LOCALITY=San Martin mine, Zacatecas, Mexico
##OWNER=RRUFF
##SOURCE=Eugene Schlepp
##DESCRIPTION=Green elongated prismatic crystals
##STATUS=The identification of this mineral has been confirmed by X-ray diffraction and chemical analysis
##URL=rruff.info/R050303
##MEASURED CHEMISTRY=Ca_2.00_Al_2.00_(Fe^3+^_0.97_Al_0.03_)(SiO_4_)(Si_2_O_7_)O(OH)
##PIN_ID=L01741
##ORIENTATION=Laser parallel to -a* (-1 0 0). Fiducial mark perpendicular to laser is parallel to -b [0 -1 0]
53.91000, 1669.000
55.14900, 1646.000
56.38700, 1648.000
57.62600, 1670.000
58.86400, 1687.000
60.10300, 1738.000
61.34100, 1737.000
62.57900, 1849.000
63.81700, 1854.000
65.05400, 1981.000
66.29200, 2196.000
67.52900, 2444.000
68.76700, 2810.000
70.00400, 3292.000
71.24100, 3571.000
72.47700, 3957.000
73.71400, 4488.000
74.95100, 5150.000
76.18700, 5947.000
77.42300, 6586.000
78.65900, 7468.000
79.89500, 8587.000
81.13100, 10176.00
82.36700, 12162.00
83.60200, 14554.00
84.83700, 16847.00
86.07200, 19097.00
87.30800, 21563.00
88.54200, 23443.00
89.77700, 24952.00
91.01200, 25411.00
92.24600, 25001.00
93.48000, 23619.00
94.71400, 22624.00
95.94800, 21453.00
97.18200, 20208.00
98.41600, 18780.00
99.64900, 17092.00
100.8830, 15896.00
102.1160, 14617.00
103.3490, 13886.00
104.5820, 13655.00
105.8150, 13983.00
107.0470, 14960.00
108.2800, 14309.55
109.5120, 15615.00
110.7440, 13739.00
111.9760, 13362.00
113.2080, 13342.00
114.4400, 13690.00
115.6710, 14054.00
116.9030, 13816.00
118.1340, 13863.00
119.3650, 13768.00
120.5960, 13923.00
121.8270, 14147.00
123.0580, 14578.00
124.2880, 14887.98
125.5190, 15379.00
126.7490, 15828.00
127.9790, 16566.00
129.2090, 17275.00
130.4390, 17544.00
131.6680, 17536.00
132.8980, 16989.00
134.1270, 16375.00
135.3560, 16226.00
136.5850, 16326.00
137.8140, 16223.94
139.0430, 16457.00
140.2710, 16642.00
141.5000, 17096.00
142.7280, 17579.00
143.9560, 17815.00
145.1840, 18252.00
146.4120, 18305.00
147.6390, 17802.00
148.8670, 17812.00
150.0940, 18014.00
151.3210, 18586.00
152.5490, 19185.00
153.7750, 19955.00
155.0020, 21093.00
156.2290, 22808.00
157.4550, 24444.00
158.6810, 26633.00
159.9080, 29112.00
161.1340, 31816.00
162.3590, 34596.00
163.5850, 37100.00
164.8110, 38561.00
166.0360, 38934.00
167.2610, 38614.00
168.4860, 38167.00
169.7110, 37946.00
170.9360, 37434.00
172.1610, 36736.00
173.3850, 33593.00
174.6100, 30684.00
175.8340, 28140.00
177.0580, 25902.91
178.2820, 23948.00
179.5050, 22374.00
180.7290, 21076.00
181.9520, 20113.00
183.1760, 19809.00
184.3990, 19418.00
185.6220, 19261.00
186.8450, 18786.00
188.0670, 18525.00
189.2900, 18195.00
190.5120, 17982.00
191.7340, 18100.00
192.9560, 18045.00
194.1780, 18257.00
195.4000, 18559.00
196.6220, 19181.00
197.8430, 19426.00
199.0640, 19734.00
200.2860, 19734.00
201.5070, 19827.00
202.7270, 19551.00
203.9480, 18904.00
205.1690, 18438.00
206.3890, 18116.00
207.6090, 17716.00
208.8290, 17397.00
210.0490, 17255.00
211.2690, 17299.02
212.4890, 17672.00
213.7080, 17758.00
214.9280, 18049.00
216.1470, 18489.00
217.3660, 18931.00
218.5850, 19796.00
219.8030, 20339.00
221.0220, 21049.00
222.2400, 21937.00
223.4590, 23234.00
224.6770, 24406.00
225.8950, 25961.00
227.1120, 26838.00
228.3300, 28046.00
229.5480, 28940.00
230.7650, 29901.00
231.9820, 30810.00
233.1990, 32204.00
234.4160, 34130.00
235.6330, 36600.00
236.8490, 38747.00
238.0660, 41108.00
239.2820, 42653.00
240.4980, 42322.00
241.7140, 40698.00
242.9300, 37527.00
244.1460, 34014.00
245.3610, 30641.00
246.5770, 28183.00
247.7920, 25822.00
249.0070, 24123.00
250.2220, 23126.00
251.4370, 22070.00
252.6510, 21552.00
253.8660, 20932.33
255.0800, 20711.00
256.2940, 20363.00
257.5080, 20403.00
258.7220, 20068.71
259.9360, 20171.00
261.1490, 19649.00
262.3630, 19471.00
263.5760, 19357.00
264.7890, 19738.00
266.0020, 20206.00
267.2150, 20598.00
268.4270, 21289.00
269.6400, 22236.00
270.8520, 22982.00
272.0640, 24021.00
273.2760, 24451.00
274.4880, 24498.00
275.7000, 23882.00
276.9120, 23293.00
278.1230, 23020.00
279.3340, 23210.00
280.5450, 23422.00
281.7560, 23714.00
282.9670, 24325.00
284.1780, 25372.00
285.3880, 26480.00
286.5980, 28034.00
287.8090, 29808.00
289.0190, 31349.00
290.2290, 32772.00
291.4380, 32351.76
292.6480, 32316.00
293.8570, 30638.00
295.0670, 28808.00
296.2760, 27576.00
297.4850, 26217.00
298.6930, 24759.00
299.9020, 23870.00
301.1110, 22975.00
302.3190, 22263.00
303.5270, 21830.00
304.7350, 21571.00
305.9430, 21626.00
307.1510, 21554.00
308.3580, 21744.00
309.5660, 21875.00
310.7730, 22404.00
311.9800, 22567.00
313.1870, 22871.00
314.3940, 22774.00
315.6010, 23243.00
316.8070, 23312.00
318.0130, 24013.00
319.2200, 24659.00
320.4260, 25345.00
321.6310, 26103.00
322.8370, 27036.00
324.0430, 27742.00
325.2480, 28275.00
326.4540, 28415.00
327.6590, 28707.00
328.8640, 28349.00
330.0680, 28833.00
331.2730, 28659.00
332.4780, 28957.00
333.6820, 29482.00
334.8860, 30121.00
336.0900, 31311.00
337.2940, 33155.00
338.4980, 35580.00
339.7010, 38696.00
340.9050, 42038.00
342.1080, 45967.00
343.3110, 49773.00
344.5140, 53565.00
345.7170, 55638.00
346.9200, 56989.00
348.1220, 56341.00
349.3240, 53103.00
350.5270, 49094.00
351.7290, 44909.00
352.9310, 40610.00
354.1320, 36990.00
355.3340, 33986.00
356.5350, 31050.00
357.7370, 28912.00
358.9380, 27575.00
360.1390, 26261.00
361.3400, 25400.00
362.5400, 24595.00
363.7410, 23905.00
364.9410, 23289.00
366.1410, 22435.00
367.3410, 21856.00
368.5410, 21017.00
369.7410, 20486.00
370.9400, 19688.00
372.1400, 19306.45
373.3390, 19082.00
374.5380, 18712.00
375.7370, 18492.00
376.9360, 18470.00
378.1350, 18423.00
379.3330, 18657.00
380.5310, 18854.00
381.7300, 19310.00
382.9280, 19632.00
384.1260, 19957.00
385.3230, 20616.00
386.5210, 21041.00
387.7180, 21021.00
388.9160, 21159.00
390.1130, 20986.00
391.3100, 20373.00
392.5060, 20000.00
393.7030, 19804.00
394.9000, 19369.00
396.0960, 19315.00
397.2920, 18994.00
398.4880, 18971.00
399.6840, 18965.00
400.8800, 18875.00
402.0750, 18788.00
403.2710, 19068.00
404.4660, 19495.00
405.6610, 19551.00
406.8560, 20054.00
408.0510, 20590.00
409.2450, 21080.00
410.4400, 21802.00
411.6340, 22535.00
412.8280, 23207.00
414.0220, 24136.00
415.2160, 24921.00
416.4100, 25902.00
417.6030, 27395.00
418.7970, 28725.00
419.9900, 30555.00
421.1830, 32054.00
422.3760, 33241.00
423.5690, 34707.00
424.7610, 35857.00
425.9540, 37174.00
427.1460, 39474.00
428.3380, 42206.00
429.5300, 45713.00
430.7220, 49266.00
431.9140, 52350.00
433.1050, 53787.00
434.2970, 52795.00
435.4880, 50910.00
436.6790, 48886.00
437.8700, 47059.00
439.0610, 47140.00
440.2510, 47236.00
441.4420, 48970.00
442.6320, 51586.00
443.8220, 54489.00
445.0120, 58048.00
446.2020, 61251.00
447.3910, 62829.00
448.5810, 62703.00
449.7700, 61202.00
450.9600, 59431.00
452.1490, 57088.00
453.3370, 54380.00
454.5260, 51295.00
455.7150, 47735.00
456.9030, 43643.00
458.0910, 39657.00
459.2800, 36580.00
460.4670, 33295.00
461.6550, 30736.00
462.8430, 29081.00
464.0300, 27150.00
465.2180, 25845.00
466.4050, 24800.00
467.5920, 23923.00
468.7790, 23255.00
469.9650, 22725.00
471.1520, 22313.00
472.3380, 21929.00
473.5250, 21724.00
474.7110, 21516.00
475.8970, 21383.00
477.0820, 21609.00
478.2680, 21720.00
479.4540, 21858.00
480.6390, 22250.00
481.8240, 22827.00
483.0090, 23164.00
484.1940, 23727.00
485.3780, 24645.00
486.5630, 25525.00
487.7470, 26797.00
488.9320, 28115.00
490.1160, 29637.00
491.3000, 31281.00
492.4830, 33351.00
493.6670, 34981.00
494.8500, 36846.00
496.0340, 38031.00
497.2170, 38114.00
498.4000, 37885.00
499.5820, 37333.00
500.7650, 35876.00
501.9480, 34858.00
503.1300, 34253.00
504.3120, 33557.00
505.4940, 33238.00
506.6760, 32168.00
507.8580, 30907.00
509.0390, 29504.00
510.2210, 27472.00
511.4020, 25851.00
512.5830, 24280.00
513.7640, 23234.00
514.9450, 22575.00
516.1250, 22128.00
517.3060, 21649.00
518.4860, 21386.00
519.6660, 21115.00
520.8460, 20724.00
522.0260, 20616.00
523.2060, 20266.00
524.3850, 20001.00
525.5650, 19556.00
526.7440, 19222.00
527.9230, 19100.00
529.1020, 18932.00
530.2810, 18763.00
531.4590, 18624.72
532.6380, 18373.00
533.8160, 18418.00
534.9940, 18288.00
536.1720, 18387.00
537.3500, 18301.00
538.5270, 18276.00
539.7050, 18460.00
540.8820, 18441.00
542.0590, 18632.00
543.2360, 18811.00
544.4130, 18917.00
545.5900, 19270.00
546.7660, 19746.00
547.9430, 20063.00
549.1190, 20551.00
550.2950, 21478.00
551.4710, 22161.00
552.6470, 23376.00
553.8220, 24610.00
554.9980, 26694.00
556.1730, 28810.00
557.3480, 31405.00
558.5230, 34296.00
559.6980, 37529.00
560.8730, 40229.00
562.0470, 41775.00
563.2220, 41117.00
564.3960, 38268.00
565.5700, 34729.00
566.7440, 31406.00
567.9170, 28577.00
569.0910, 26719.00
570.2640, 25653.00
571.4380, 24706.00
572.6110, 24230.00
573.7840, 24059.00
574.9570, 24512.00
576.1290, 24814.00
577.3020, 25664.00
578.4740, 26599.00
579.6460, 27838.00
580.8180, 28910.00
581.9900, 30250.00
583.1620, 31697.00
584.3330, 32739.00
585.5040, 33743.00
586.6760, 34788.00
587.8470, 36229.00
589.0180, 37681.00
590.1880, 39421.00
591.3590, 41768.00
592.5290, 43734.00
593.7000, 45804.00
594.8700, 46560.00
596.0400, 46851.00
597.2090, 45672.00
598.3790, 44203.00
599.5490, 42222.00
600.7180, 40689.00
601.8870, 39136.00
603.0560, 37705.00
604.2250, 37052.00
605.3940, 36782.00
606.5620, 36603.00
607.7300, 36151.00
608.8990, 36539.00
610.0670, 35889.00
611.2350, 35111.00
612.4020, 34090.00
613.5700, 32781.00
614.7370, 31001.00
615.9050, 29409.00
617.0720, 27682.00
618.2390, 26264.00
619.4060, 25231.00
620.5720, 23769.00
621.7390, 23050.00
622.9050, 22234.00
624.0710, 21557.00
625.2370, 21347.00
626.4030, 20949.00
627.5690, 20335.00
628.7340, 20158.00
629.9000, 19817.00
631.0650, 19469.00
632.2300, 19280.00
633.3950, 19116.00
634.5600, 18938.00
635.7240, 18735.00
636.8890, 18630.00
638.0530, 18512.00
639.2170, 18271.00
640.3810, 18395.00
641.5450, 18402.00
642.7080, 18212.00
643.8720, 18293.00
645.0350, 18135.00
646.1980, 18251.00
647.3610, 18140.00
648.5240, 18004.00
649.6870, 18006.00
650.8490, 17856.00
652.0120, 17876.00
653.1740, 17807.07
654.3360, 17689.00
655.4980, 17690.00
656.6600, 17637.00
657.8210, 17526.00
658.9830, 17424.00
660.1440, 17455.00
661.3050, 17397.17
662.4660, 17372.00
663.6270, 17404.00
664.7870, 17366.00
665.9480, 17380.89
667.1080, 17424.47
668.2680, 17446.00
669.4280, 17550.00
670.5880, 17484.00
671.7480, 17591.00
672.9070, 17571.00
674.0670, 17554.00
675.2260, 17734.00
676.3850, 17742.00
677.5440, 17752.00
678.7030, 17879.00
679.8610, 18011.00
681.0200, 18146.00
682.1780, 18291.00
683.3360, 18281.00
684.4940, 18376.00
685.6520, 18353.96
686.8090, 18503.00
687.9670, 18319.00
689.1240, 18136.00
690.2810, 18187.00
691.4380, 18013.00
692.5950, 17830.00
693.7520, 17728.00
694.9080, 17566.00
696.0650, 17443.40
697.2210, 17367.00
698.3770, 17215.00
699.5330, 17197.00
700.6880, 17118.00
701.8440, 17088.00
702.9990, 17159.00
704.1550, 16922.00
705.3100, 16968.00
706.4650, 17043.00
707.6190, 16841.00
708.7740, 17007.00
709.9290, 16851.00
711.0830, 16869.00
712.2370, 16812.00
713.3910, 16708.00
714.5450, 16870.00
715.6980, 16746.00
716.8520, 16660.00
718.0050, 16883.00
719.1580, 16796.00
720.3110, 16738.00
721.4640, 16700.00
722.6170, 16763.00
723.7700, 16679.00
724.9220, 16770.00
726.0740, 16640.00
727.2260, 16684.00
728.3780, 16759.00
729.5300, 16718.00
730.6810, 16690.00
731.8330, 16681.00
732.9840, 16700.00
734.1350, 16726.00
735.2860, 16737.88
736.4370, 16777.03
737.5880, 16765.00
738.7380, 16794.00
739.8880, 16768.00
741.0390, 16645.00
742.1890, 16591.00
743.3380, 16587.00
744.4880, 16875.00
745.6380, 16788.00
746.7870, 16999.00
747.9360, 16790.00
749.0850, 16905.00
750.2340, 16776.00
751.3830, 16866.00
752.5310, 16780.00
753.6800, 16775.00
754.8280, 16800.00
755.9760, 16706.00
757.1240, 16906.00
758.2720, 16873.00
759.4190, 16875.00
760.5670, 16776.00
761.7140, 16709.00
762.8610, 17028.00
764.0080, 17016.00
765.1550, 16917.00
766.3020, 17030.00
767.4480, 16979.00
768.5950, 16964.00
769.7410, 17070.00
770.8870, 17092.00
772.0330, 17201.00
773.1780, 16956.00
774.3240, 17070.00
775.4690, 16912.00
776.6140, 17124.00
777.7590, 17142.00
778.9040, 17230.00
780.0490, 17140.00
781.1940, 17260.00
782.3380, 17135.00
783.4820, 17246.00
784.6260, 17435.00
785.7700, 17463.00
786.9140, 17474.91
788.0580, 17328.00
789.2010, 17357.00
790.3450, 17333.00
791.4880, 17212.00
792.6310, 17626.00
793.7730, 17483.00
794.9160, 17420.00
796.0590, 17576.00
797.2010, 17462.00
798.3430, 17596.00
799.4850, 17605.00
800.6270, 17643.00
801.7690, 17747.14
802.9100, 17717.00
804.0520, 17881.00
805.1930, 17878.00
806.3340, 17859.00
807.4750, 17999.00
808.6160, 17999.00
809.7560, 18130.00
810.8970, 18089.00
812.0370, 18179.00
813.1770, 18153.00
814.3170, 18270.31
815.4570, 18561.00
816.5960, 18584.00
817.7360, 18716.00
818.8750, 19025.00
820.0140, 19008.00
821.1530, 19147.00
822.2920, 19249.00
823.4310, 19341.00
824.5690, 19645.00
825.7070, 19599.00
826.8460, 19886.00
827.9840, 20006.00
829.1220, 20123.00
830.2590, 20378.00
831.3970, 20296.00
832.5340, 20547.00
833.6710, 20540.00
834.8080, 20559.00
835.9450, 20728.00
837.0820, 20979.00
838.2190, 21175.00
839.3550, 21354.00
840.4910, 21413.00
841.6270, 21653.00
842.7630, 21637.00
843.8990, 21925.00
845.0350, 22167.00
846.1700, 22508.00
847.3060, 23039.00
848.4410, 23164.00
849.5760, 23663.00
850.7100, 24309.00
851.8450, 24598.00
852.9800, 25836.00
854.1140, 26120.00
855.2480, 27104.00
856.3820, 28136.00
857.5160, 29265.00
858.6500, 29987.00
859.7830, 31230.00
860.9170, 32029.00
862.0500, 33057.00
863.1830, 33745.00
864.3160, 34313.00
865.4480, 34765.00
866.5810, 35399.00
867.7130, 36098.00
868.8460, 37253.00
869.9780, 38489.00
871.1100, 40123.00
872.2410, 41312.00
873.3730, 43250.00
874.5050, 45428.00
875.6360, 47068.00
876.7670, 49175.00
877.8980, 50826.00
879.0290, 52266.00
880.1590, 54055.00
881.2900, 55216.00
882.4200, 56522.00
883.5500, 56399.00
884.6800, 55864.00
885.8100, 54621.00
886.9400, 52736.00
888.0690, 50023.00
889.1990, 47464.00
890.3280, 44772.00
891.4570, 42642.00
892.5860, 40883.00
893.7140, 39238.00
894.8430, 38348.00
895.9710, 37594.00
897.1000, 37352.00
898.2280, 37213.00
899.3560, 37274.00
900.4830, 37563.00
901.6110, 38354.00
902.7380, 39225.00
903.8660, 40551.00
904.9930, 41898.00
906.1200, 43625.00
907.2460, 45237.00
908.3730, 47367.00
909.5000, 49253.00
910.6260, 51365.00
911.7520, 52903.00
912.8780, 54065.00
914.0040, 53916.00
915.1290, 53193.00
916.2550, 51582.00
917.3800, 49382.00
918.5050, 46077.00
919.6300, 42914.00
920.7550, 40262.00
921.8800, 37853.00
923.0040, 35098.00
924.1290, 32854.00
925.2530, 31348.00
926.3770, 29917.00
927.5010, 28878.00
928.6250, 27629.00
929.7480, 26761.00
930.8720, 26002.00
931.9950, 25326.00
933.1180, 24635.00
934.2410, 24122.00
935.3640, 23618.32
936.4860, 23184.00
937.6090, 22849.00
938.7310, 22527.00
939.8530, 22298.00
940.9750, 22058.71
942.0970, 22058.00
943.2180, 21777.00
944.3400, 21612.00
945.4610, 21684.00
946.5820, 21316.00
947.7030, 21224.00
948.8240, 21293.00
949.9450, 21061.00
951.0650, 20946.00
952.1860, 20969.00
953.3060, 20995.00
954.4260, 20756.00
955.5460, 20974.00
956.6650, 20790.00
957.7850, 20930.00
958.9040, 20699.00
960.0230, 20824.00
961.1420, 20833.00
962.2610, 20826.00
963.3800, 20980.00
964.4990, 20970.00
965.6170, 21220.00
966.7350, 21032.00
967.8530, 21383.00
968.9710, 21420.00
970.0890, 21812.00
971.2070, 22130.00
972.3240, 22358.00
973.4410, 22732.00
974.5580, 23193.00
975.6750, 23271.00
976.7920, 23321.00
977.9090, 23367.00
979.0250, 23139.00
980.1410, 22793.00
981.2580, 22428.00
982.3740, 22066.00
983.4890, 21919.00
984.6050, 21518.00
985.7200, 21383.00
986.8360, 21139.00
987.9510, 20765.00
989.0660, 20774.00
990.1810, 20687.00
991.2950, 20642.00
992.4100, 20666.00
993.5240, 20633.00
994.6390, 20580.00
995.7530, 20455.00
996.8660, 20505.00
997.9800, 20552.44
999.0940, 20785.00
1000.207, 20790.00
1001.320, 20956.00
1002.433, 21117.00
1003.546, 21176.48
1004.659, 21114.00
1005.772, 21379.00
1006.884, 21442.00
1007.996, 21555.00
1009.108, 21855.00
1010.220, 22012.00
1011.332, 22583.00
1012.444, 22874.00
1013.555, 23690.00
1014.666, 24167.00
1015.777, 24413.00
1016.888, 24679.00
1017.999, 24758.00
1019.110, 24482.00
1020.220, 24107.00
1021.331, 23683.00
1022.441, 23481.00
1023.551, 22863.00
1024.661, 22630.00
1025.770, 22439.00
1026.880, 22245.00
1027.989, 22012.00
1029.098, 22176.00
1030.207, 22122.00
1031.316, 22320.00
1032.425, 22385.00
1033.533, 22555.00
1034.642, 22755.00
1035.750, 22581.00
1036.858, 22783.00
1037.966, 22671.00
1039.073, 22801.00
1040.181, 22748.00
1041.288, 22693.00
1042.396, 22713.00
1043.503, 22469.00
1044.610, 22301.00
1045.716, 22052.00
1046.823, 22017.00
1047.929, 21795.00
1049.036, 21505.00
1050.142, 21503.00
1051.248, 21378.00
1052.353, 21358.00
1053.459, 21407.00
1054.564, 21410.00
1055.670, 21489.00
1056.775, 21287.00
1057.880, 21288.00
1058.985, 21319.00
1060.089, 21254.00
1061.194, 21232.00
1062.298, 21354.00
1063.402, 21210.00
1064.506, 21198.00
1065.610, 21192.00
1066.713, 21471.00
1067.817, 21567.00
1068.920, 21667.00
1070.023, 21597.00
1071.126, 22143.00
1072.229, 22076.00
1073.332, 22508.00
1074.435, 22966.00
1075.537, 23441.00
1076.639, 24131.00
1077.741, 24930.00
1078.843, 25600.00
1079.945, 26947.00
1081.046, 27977.00
1082.148, 29039.00
1083.249, 29623.00
1084.350, 29769.00
1085.451, 29062.00
1086.551, 27976.00
1087.652, 28382.00
1088.752, 25425.00
1089.853, 24301.00
1090.953, 23467.00
1092.053, 23028.00
1093.152, 22492.00
1094.252, 21795.00
1095.351, 21667.00
1096.451, 21418.00
1097.550, 21218.00
1098.649, 21320.00
1099.748, 21016.00
1100.846, 21095.00
1101.945, 20886.00
1103.043, 20890.00
1104.141, 20655.00
1105.239, 20724.00
1106.337, 20841.00
1107.434, 20586.00
1108.532, 20589.00
1109.629, 20599.00
1110.726, 20446.00
1111.823, 20718.00
1112.920, 20690.00
1114.017, 20601.00
1115.113, 20533.00
1116.210, 20543.00
1117.306, 20634.00
1118.402, 20732.00
1119.498, 20797.00
1120.593, 20787.00
1121.689, 20754.00
1122.784, 20903.00
1123.879, 20560.00
1124.974, 20836.00
1126.069, 20661.00
1127.164, 20651.00
1128.259, 20541.00
1129.353, 20344.00
1130.447, 20227.00
1131.541, 20183.24
1132.635, 20131.04
1133.729, 20163.00
1134.822, 20160.00
1135.916, 20210.00
1137.009, 20248.00
1138.102, 20289.00
1139.195, 20168.00
1140.288, 20166.00
1141.380, 20145.06
1142.473, 20206.00
1143.565, 20124.69
1144.657, 20123.31
1145.749, 20149.00
1146.841, 20093.00
1147.932, 20089.00
1149.024, 20049.00
1150.115, 20092.00
1151.206, 20056.00
1152.297, 20069.00
1153.388, 20087.00
1154.479, 20016.00
1155.569, 20089.00
1156.659, 20066.00
1157.750, 20010.00
1158.839, 20109.00
1159.929, 20138.00
1161.019, 20233.00
1162.108, 20144.00
1163.198, 20025.00
1164.287, 20031.00
1165.376, 20012.34
1166.465, 20083.00
1167.553, 20077.00
1168.642, 20155.00
1169.730, 20200.00
1170.818, 20306.00
1171.906, 20345.00
1172.994, 20239.00
1174.082, 20241.00
1175.170, 20195.00
1176.257, 20161.00
1177.344, 20327.00
1178.431, 20132.00
1179.518, 20246.00
1180.605, 20398.00
1181.691, 20296.00
1182.778, 20190.00
1183.864, 20194.00
1184.950, 20313.00
1186.036, 20170.00
1187.122, 20326.00
1188.207, 20173.00
1189.292, 20392.00
1190.378, 20314.00
1191.463, 20198.00
1192.548, 20187.00
1193.632, 20238.00
1194.717, 20307.00
1195.801, 20140.00
1196.886, 20312.00
1197.970, 20303.00
1199.054, 20166.00
1200.137, 20173.00
1201.221, 20335.00
1202.305, 20347.00
1203.388, 20432.00
1204.471, 20455.00
1205.554, 20436.12
1206.637, 20197.00
1207.719, 20333.00
1208.802, 20210.00
1209.884, 20061.00
1210.966, 20257.00
1212.048, 20211.00
1213.130, 20404.00
1214.212, 20246.00
1215.293, 20337.00
1216.374, 20391.00
1217.456, 20365.00
1218.536, 20291.00
1219.617, 20338.00
1220.698, 20165.00
1221.778, 20251.00
1222.859, 20228.00
1223.939, 20157.00
1225.019, 20226.00
1226.099, 20291.00
1227.178, 20384.00
1228.258, 20277.00
1229.337, 20319.00
1230.417, 20238.00
1231.496, 20234.19
1232.574, 20309.00
1233.653, 20240.00
1234.732, 20357.00
1235.810, 20406.00
1236.888, 20344.00
1237.966, 20349.00
