##NAMES=Epidote
##RRUFFID=R050191
##IDEAL CHEMISTRY=Ca_2_Fe^3+^Al_2_(Si_2_O_7_)(SiO_4_)O(OH)
##LOCALITY=Pampa Blanca, Castrovirreyna Province, Huancavelica Department, Peru
##OWNER=RRUFF
##SOURCE=Dave Bunk Minerals
##DESCRIPTION=Cluster of green elongated prismatic crystals
##STATUS=The identification of this mineral has been confirmed by X-ray diffraction and chemical analysis
##URL=rruff.info/R050191
##MEASURED CHEMISTRY=Ca_2.00_Al_2.00_(Fe^3+^_0.84_Al_0.16_)(SiO_4_)(Si_2_O_7_)O(OH)
##PIN_ID=L00883
##ORIENTATION=Laser parallel to (1 0 1). Fiducial mark perpendicular to laser is parallel to b [0 1 0]
53.91000, 436.0000
55.14900, 466.0000
56.38700, 448.0000
57.62600, 460.0000
58.86400, 477.0000
60.10300, 483.0000
61.34100, 473.0000
62.57900, 500.0000
63.81700, 507.0000
65.05400, 540.0000
66.29200, 589.0000
67.52900, 665.0000
68.76700, 772.0000
70.00400, 904.0000
71.24100, 955.0000
72.47700, 972.0000
73.71400, 1093.000
74.95100, 1253.000
76.18700, 1467.000
77.42300, 1570.000
78.65900, 1829.000
79.89500, 2152.000
81.13100, 2555.000
82.36700, 3034.710
83.60200, 3715.000
84.83700, 4218.000
86.07200, 4876.000
87.30800, 5653.000
88.54200, 6254.000
89.77700, 6743.000
91.01200, 6982.000
92.24600, 7039.000
93.48000, 6962.000
94.71400, 6752.000
95.94800, 6453.000
97.18200, 6122.000
98.41600, 5974.000
99.64900, 5743.000
100.8830, 5582.000
102.1160, 5349.000
103.3490, 5300.000
104.5820, 5295.000
105.8150, 5373.000
107.0470, 5923.000
108.2800, 5556.508
109.5120, 5976.000
110.7440, 5176.000
111.9760, 4980.000
113.2080, 4921.000
114.4400, 5143.000
115.6710, 5197.000
116.9030, 5205.000
118.1340, 5202.000
119.3650, 5256.000
120.5960, 5237.000
121.8270, 5282.655
123.0580, 5302.262
124.2880, 5341.000
125.5190, 5349.000
126.7490, 5344.000
127.9790, 5361.847
129.2090, 5475.000
130.4390, 5447.000
131.6680, 5565.000
132.8980, 5573.000
134.1270, 5497.000
135.3560, 5490.000
136.5850, 5358.000
137.8140, 5397.000
139.0430, 5446.000
140.2710, 5316.000
141.5000, 5297.000
142.7280, 5217.000
143.9560, 5249.000
145.1840, 5256.000
146.4120, 5450.000
147.6390, 5441.000
148.8670, 5462.000
150.0940, 5523.000
151.3210, 5568.000
152.5490, 5491.000
153.7750, 5334.000
155.0020, 5293.000
156.2290, 5251.000
157.4550, 5258.000
158.6810, 5212.000
159.9080, 5215.000
161.1340, 5261.000
162.3590, 5151.000
163.5850, 5249.000
164.8110, 5303.000
166.0360, 5188.000
167.2610, 5220.000
168.4860, 5245.000
169.7110, 5184.000
170.9360, 5178.762
172.1610, 5114.000
173.3850, 5088.000
174.6100, 5076.000
175.8340, 5024.000
177.0580, 4964.000
178.2820, 4991.000
179.5050, 4941.000
180.7290, 5010.000
181.9520, 4958.000
183.1760, 5121.000
184.3990, 5296.000
185.6220, 5281.000
186.8450, 5565.000
188.0670, 5637.000
189.2900, 5904.000
190.5120, 6143.000
191.7340, 6507.000
192.9560, 6848.000
194.1780, 7157.000
195.4000, 7413.000
196.6220, 7683.000
197.8430, 7936.000
199.0640, 8195.000
200.2860, 8569.000
201.5070, 8723.000
202.7270, 8972.000
203.9480, 8960.000
205.1690, 8967.000
206.3890, 8683.000
207.6090, 8432.000
208.8290, 8074.000
210.0490, 7771.000
211.2690, 7531.000
212.4890, 7267.000
213.7080, 7173.000
214.9280, 7000.000
216.1470, 7026.000
217.3660, 7120.000
218.5850, 7065.000
219.8030, 7233.000
221.0220, 7328.000
222.2400, 7287.000
223.4590, 7323.000
224.6770, 7457.000
225.8950, 7518.000
227.1120, 7642.000
228.3300, 7826.000
229.5480, 7856.000
230.7650, 7983.000
231.9820, 8419.000
233.1990, 8520.000
234.4160, 8728.000
235.6330, 8941.000
236.8490, 8931.000
238.0660, 9351.000
239.2820, 9417.000
240.4980, 9632.000
241.7140, 9956.000
242.9300, 9931.000
244.1460, 10186.00
245.3610, 10199.00
246.5770, 9985.000
247.7920, 9538.000
249.0070, 9038.000
250.2220, 8490.000
251.4370, 8008.000
252.6510, 7789.000
253.8660, 7552.000
255.0800, 7448.000
256.2940, 7420.000
257.5080, 7750.000
258.7220, 7922.427
259.9360, 8592.000
261.1490, 8869.000
262.3630, 9577.000
263.5760, 10584.00
264.7890, 11871.00
266.0020, 13214.00
267.2150, 14349.00
268.4270, 15256.00
269.6400, 15875.00
270.8520, 16531.00
272.0640, 17165.00
273.2760, 17974.00
274.4880, 18866.00
275.7000, 19757.00
276.9120, 19840.00
278.1230, 19359.00
279.3340, 18032.00
280.5450, 16212.00
281.7560, 14278.00
282.9670, 12772.00
284.1780, 11558.00
285.3880, 11121.00
286.5980, 10945.00
287.8090, 11117.00
289.0190, 11233.00
290.2290, 11533.00
291.4380, 11899.00
292.6480, 12161.00
293.8570, 12320.00
295.0670, 12571.00
296.2760, 12827.00
297.4850, 12801.00
298.6930, 13177.00
299.9020, 13273.00
301.1110, 13002.00
302.3190, 12615.00
303.5270, 11895.00
304.7350, 11166.00
305.9430, 10330.00
307.1510, 9606.000
308.3580, 9055.000
309.5660, 8463.000
310.7730, 8055.786
311.9800, 7719.000
313.1870, 7456.000
314.3940, 7195.000
315.6010, 7102.000
316.8070, 7015.000
318.0130, 6859.000
319.2200, 6708.000
320.4260, 6622.000
321.6310, 6594.000
322.8370, 6499.000
324.0430, 6411.825
325.2480, 6291.000
326.4540, 6211.000
327.6590, 6095.000
328.8640, 5992.000
330.0680, 5930.151
331.2730, 5826.000
332.4780, 5797.000
333.6820, 5775.000
334.8860, 5693.000
336.0900, 5695.787
337.2940, 5576.000
338.4980, 5681.000
339.7010, 5683.000
340.9050, 5705.000
342.1080, 5806.000
343.3110, 5814.000
344.5140, 5941.000
345.7170, 5882.000
346.9200, 6047.000
348.1220, 6087.000
349.3240, 6024.000
350.5270, 6132.000
351.7290, 6098.000
352.9310, 6040.000
354.1320, 6087.000
355.3340, 6161.000
356.5350, 6112.000
357.7370, 6159.000
358.9380, 6204.000
360.1390, 6217.000
361.3400, 6225.000
362.5400, 6177.000
363.7410, 6187.348
364.9410, 6161.211
366.1410, 6152.000
367.3410, 6082.000
368.5410, 6034.000
369.7410, 5910.000
370.9400, 5894.000
372.1400, 5837.000
373.3390, 5887.000
374.5380, 5807.000
375.7370, 5808.000
376.9360, 5679.000
378.1350, 5770.000
379.3330, 5830.000
380.5310, 5893.000
381.7300, 6099.000
382.9280, 6103.000
384.1260, 6228.000
385.3230, 6248.000
386.5210, 6273.000
387.7180, 6372.000
388.9160, 6494.000
390.1130, 6484.000
391.3100, 6691.000
392.5060, 6720.000
393.7030, 6819.000
394.9000, 6951.000
396.0960, 6991.000
397.2920, 6964.000
398.4880, 7140.000
399.6840, 7202.000
400.8800, 7377.000
402.0750, 7522.000
403.2710, 7781.000
404.4660, 8092.000
405.6610, 8280.000
406.8560, 8941.000
408.0510, 9345.000
409.2450, 10292.00
410.4400, 11001.00
411.6340, 12414.00
412.8280, 13799.00
414.0220, 15699.00
415.2160, 17730.00
416.4100, 19785.00
417.6030, 21506.00
418.7970, 23430.00
419.9900, 25152.00
421.1830, 26820.00
422.3760, 28460.00
423.5690, 30130.00
424.7610, 31949.00
425.9540, 32379.00
427.1460, 32153.00
428.3380, 31294.00
429.5300, 29702.00
430.7220, 28224.00
431.9140, 26707.00
433.1050, 26019.00
434.2970, 25654.00
435.4880, 26164.00
436.6790, 27019.00
437.8700, 28629.00
439.0610, 30709.00
440.2510, 33207.00
441.4420, 36015.00
442.6320, 39307.00
443.8220, 42919.00
445.0120, 46552.00
446.2020, 50812.00
447.3910, 55020.00
448.5810, 58550.00
449.7700, 61668.00
450.9600, 63830.00
452.1490, 64997.00
453.3370, 65354.00
454.5260, 64814.48
455.7150, 63334.80
456.9030, 61058.00
458.0910, 57758.00
459.2800, 53614.00
460.4670, 48639.00
461.6550, 43662.00
462.8430, 38097.00
464.0300, 33187.00
465.2180, 28979.00
466.4050, 25259.00
467.5920, 22356.00
468.7790, 19796.00
469.9650, 18026.00
471.1520, 16307.00
472.3380, 14964.00
473.5250, 13810.00
474.7110, 13035.00
475.8970, 12387.00
477.0820, 11843.00
478.2680, 11573.00
479.4540, 11147.00
480.6390, 10863.00
481.8240, 10603.00
483.0090, 10751.00
484.1940, 10597.00
485.3780, 10624.00
486.5630, 10461.00
487.7470, 10764.00
488.9320, 10746.00
490.1160, 11032.00
491.3000, 11220.00
492.4830, 11250.00
493.6670, 11606.00
494.8500, 11817.00
496.0340, 11881.00
497.2170, 11987.00
498.4000, 11892.00
499.5820, 12130.00
500.7650, 11973.00
501.9480, 11937.00
503.1300, 11446.00
504.3120, 11295.00
505.4940, 10917.00
506.6760, 10622.00
507.8580, 10424.00
509.0390, 10156.00
510.2210, 9889.000
511.4020, 9837.000
512.5830, 9637.000
513.7640, 9442.000
514.9450, 9140.000
516.1250, 8985.000
517.3060, 8919.000
518.4860, 8675.000
519.6660, 8645.000
520.8460, 8614.000
522.0260, 8543.000
523.2060, 8451.000
524.3850, 8309.000
525.5650, 8160.000
526.7440, 7895.000
527.9230, 7743.000
529.1020, 7469.000
530.2810, 7100.000
531.4590, 6937.000
532.6380, 6922.000
533.8160, 6916.000
534.9940, 6880.000
536.1720, 6904.000
537.3500, 6873.000
538.5270, 7001.000
539.7050, 7124.000
540.8820, 7254.000
542.0590, 7307.000
543.2360, 7551.000
544.4130, 7753.000
545.5900, 7978.000
546.7660, 8394.000
547.9430, 8694.000
549.1190, 9220.000
550.2950, 9977.000
551.4710, 11065.00
552.6470, 12219.00
553.8220, 13918.00
554.9980, 16162.00
556.1730, 18545.00
557.3480, 20879.00
558.5230, 22703.00
559.6980, 24088.00
560.8730, 25848.00
562.0470, 27092.00
563.2220, 28434.00
564.3960, 29559.00
565.5700, 29736.00
566.7440, 28438.00
567.9170, 25839.00
569.0910, 22377.00
570.2640, 18949.00
571.4380, 16380.00
572.6110, 14360.00
573.7840, 13324.00
574.9570, 12715.00
576.1290, 12449.00
577.3020, 12639.00
578.4740, 12660.00
579.6460, 12994.00
580.8180, 13607.00
581.9900, 14188.00
583.1620, 14826.00
584.3330, 15466.00
585.5040, 16188.00
586.6760, 17111.00
587.8470, 17909.00
589.0180, 18849.00
590.1880, 19848.00
591.3590, 20580.00
592.5290, 21401.00
593.7000, 22116.00
594.8700, 22707.00
596.0400, 23340.00
597.2090, 23883.00
598.3790, 23911.00
599.5490, 23789.00
600.7180, 23003.00
601.8870, 22092.00
603.0560, 21101.00
604.2250, 19893.00
605.3940, 18874.00
606.5620, 17929.00
607.7300, 17057.00
608.8990, 16286.84
610.0670, 15679.00
611.2350, 14976.00
612.4020, 14495.00
613.5700, 14033.00
614.7370, 13378.00
615.9050, 12700.00
617.0720, 12225.00
618.2390, 11430.00
619.4060, 10868.00
620.5720, 10183.00
621.7390, 9664.000
622.9050, 9233.000
624.0710, 8861.000
625.2370, 8397.000
626.4030, 8189.000
627.5690, 7870.000
628.7340, 7617.000
629.9000, 7458.000
631.0650, 7226.000
632.2300, 7093.000
633.3950, 6980.171
634.5600, 6945.000
635.7240, 6800.000
636.8890, 6738.000
638.0530, 6630.000
639.2170, 6654.000
640.3810, 6519.000
641.5450, 6469.000
642.7080, 6341.000
643.8720, 6366.000
645.0350, 6231.000
646.1980, 6281.000
647.3610, 6310.000
648.5240, 6296.000
649.6870, 6214.000
650.8490, 6230.000
652.0120, 6124.000
653.1740, 6055.000
654.3360, 6104.000
655.4980, 6267.000
656.6600, 6165.000
657.8210, 6269.000
658.9830, 6200.000
660.1440, 6103.000
661.3050, 6254.000
662.4660, 6279.000
663.6270, 6195.000
664.7870, 6310.000
665.9480, 6254.000
667.1080, 6244.000
668.2680, 6292.000
669.4280, 6355.000
670.5880, 6381.000
671.7480, 6447.000
672.9070, 6448.000
674.0670, 6550.000
675.2260, 6747.000
676.3850, 6822.000
677.5440, 7010.000
678.7030, 7247.000
679.8610, 7335.000
681.0200, 7573.000
682.1780, 7773.000
683.3360, 7958.000
684.4940, 8171.000
685.6520, 8228.000
686.8090, 8373.000
687.9670, 8347.000
689.1240, 8409.000
690.2810, 8255.000
691.4380, 8073.000
692.5950, 7741.000
693.7520, 7582.000
694.9080, 7274.000
696.0650, 6991.000
697.2210, 6784.000
698.3770, 6605.000
699.5330, 6418.368
700.6880, 6321.000
701.8440, 6158.000
702.9990, 6085.000
704.1550, 6039.000
705.3100, 5974.000
706.4650, 5899.000
707.6190, 5847.000
708.7740, 5765.000
709.9290, 5621.000
711.0830, 5600.000
712.2370, 5550.560
713.3910, 5692.000
714.5450, 5512.000
715.6980, 5580.000
716.8520, 5539.000
718.0050, 5480.000
719.1580, 5527.000
720.3110, 5588.000
721.4640, 5513.000
722.6170, 5470.000
723.7700, 5476.561
724.9220, 5415.000
726.0740, 5423.000
727.2260, 5458.000
728.3780, 5392.000
729.5300, 5455.000
730.6810, 5435.000
731.8330, 5397.000
732.9840, 5414.000
734.1350, 5422.000
735.2860, 5395.000
736.4370, 5409.085
737.5880, 5427.000
738.7380, 5402.000
739.8880, 5425.000
741.0390, 5413.000
742.1890, 5420.000
743.3380, 5401.000
744.4880, 5468.000
745.6380, 5427.000
746.7870, 5488.000
747.9360, 5454.000
749.0850, 5471.000
750.2340, 5538.000
751.3830, 5578.000
752.5310, 5591.000
753.6800, 5713.000
754.8280, 5649.000
755.9760, 5699.000
757.1240, 5692.000
758.2720, 5812.000
759.4190, 5834.000
760.5670, 5984.000
761.7140, 5999.000
762.8610, 6024.000
764.0080, 5970.000
765.1550, 6180.000
766.3020, 6144.000
767.4480, 6205.000
768.5950, 6098.000
769.7410, 6112.000
770.8870, 6066.000
772.0330, 5989.000
773.1780, 5966.000
774.3240, 5900.416
775.4690, 5757.000
776.6140, 5751.000
777.7590, 5712.000
778.9040, 5552.000
780.0490, 5670.000
781.1940, 5662.000
782.3380, 5594.000
783.4820, 5648.000
784.6260, 5616.000
785.7700, 5552.000
786.9140, 5571.000
788.0580, 5590.000
789.2010, 5587.000
790.3450, 5636.000
791.4880, 5614.000
792.6310, 5601.000
793.7730, 5690.000
794.9160, 5675.000
796.0590, 5739.000
797.2010, 5740.000
798.3430, 5747.000
799.4850, 5727.000
800.6270, 5770.000
801.7690, 5765.000
802.9100, 5827.000
804.0520, 5908.000
805.1930, 5884.000
806.3340, 5903.000
807.4750, 6074.000
808.6160, 5975.000
809.7560, 6093.000
810.8970, 5957.000
812.0370, 6129.000
813.1770, 6067.000
814.3170, 6116.000
815.4570, 6209.000
816.5960, 6263.000
817.7360, 6328.000
818.8750, 6446.000
820.0140, 6448.000
821.1530, 6551.000
822.2920, 6585.000
823.4310, 6666.251
824.5690, 6747.000
825.7070, 6870.000
826.8460, 6955.000
827.9840, 7122.000
829.1220, 7212.000
830.2590, 7137.000
831.3970, 7352.000
832.5340, 7371.000
833.6710, 7203.000
834.8080, 7249.000
835.9450, 7218.000
837.0820, 7320.000
838.2190, 7306.000
839.3550, 7112.000
840.4910, 7236.000
841.6270, 7174.000
842.7630, 7431.000
843.8990, 7376.000
845.0350, 7457.000
846.1700, 7642.000
847.3060, 7818.000
848.4410, 7789.000
849.5760, 8068.000
850.7100, 8203.000
851.8450, 8466.000
852.9800, 8744.000
854.1140, 9084.000
855.2480, 9275.000
856.3820, 9532.000
857.5160, 9986.000
858.6500, 10401.00
859.7830, 10847.00
860.9170, 11162.00
862.0500, 11677.00
863.1830, 11945.00
864.3160, 12381.00
865.4480, 12771.00
866.5810, 12994.00
867.7130, 13267.00
868.8460, 13570.00
869.9780, 13679.00
871.1100, 13841.00
872.2410, 14091.00
873.3730, 14190.00
874.5050, 14014.00
875.6360, 14004.00
876.7670, 14057.00
877.8980, 14181.00
879.0290, 14181.00
880.1590, 14061.00
881.2900, 14014.00
882.4200, 13954.00
883.5500, 13901.00
884.6800, 13681.00
885.8100, 13519.00
886.9400, 13253.00
888.0690, 12939.00
889.1990, 12514.00
890.3280, 12305.05
891.4570, 12118.00
892.5860, 11850.00
893.7140, 11770.00
894.8430, 11665.00
895.9710, 11726.00
897.1000, 11978.00
898.2280, 12054.00
899.3560, 12608.00
900.4830, 12883.00
901.6110, 13376.00
902.7380, 14165.00
903.8660, 14769.00
904.9930, 15318.00
906.1200, 15997.00
907.2460, 16890.00
908.3730, 17633.00
909.5000, 18498.00
910.6260, 19078.00
911.7520, 19321.00
912.8780, 19795.00
914.0040, 19670.00
915.1290, 19503.00
916.2550, 19182.00
917.3800, 18493.00
918.5050, 17814.00
919.6300, 16812.00
920.7550, 15751.00
921.8800, 14692.00
923.0040, 13617.00
924.1290, 12805.00
925.2530, 12016.00
926.3770, 11335.00
927.5010, 10602.00
928.6250, 10074.00
929.7480, 9614.000
930.8720, 9244.000
931.9950, 8939.000
933.1180, 8766.000
934.2410, 8464.000
935.3640, 8389.000
936.4860, 8260.000
937.6090, 8115.000
938.7310, 8044.000
939.8530, 7942.089
940.9750, 7810.000
942.0970, 7798.000
943.2180, 7794.000
944.3400, 7738.000
945.4610, 7698.000
946.5820, 7803.000
947.7030, 7888.000
948.8240, 7784.000
949.9450, 7789.000
951.0650, 7932.000
952.1860, 8043.000
953.3060, 8006.000
954.4260, 8142.000
955.5460, 8136.000
956.6650, 8218.000
957.7850, 8227.000
958.9040, 8439.000
960.0230, 8379.000
961.1420, 8459.000
962.2610, 8531.000
963.3800, 8766.000
964.4990, 8837.000
965.6170, 9072.000
966.7350, 9167.000
967.8530, 9760.000
968.9710, 10292.00
970.0890, 10671.00
971.2070, 11452.00
972.3240, 12176.00
973.4410, 13265.00
974.5580, 14016.00
975.6750, 14874.00
976.7920, 15639.00
977.9090, 16319.00
979.0250, 16629.00
980.1410, 16616.00
981.2580, 16402.00
982.3740, 15682.00
983.4890, 14876.00
984.6050, 14009.00
985.7200, 12734.00
986.8360, 11750.00
987.9510, 10989.00
989.0660, 10215.00
990.1810, 9688.000
991.2950, 9238.000
992.4100, 8747.000
993.5240, 8377.000
994.6390, 8291.000
995.7530, 7818.000
996.8660, 7849.000
997.9800, 7635.000
999.0940, 7633.000
1000.207, 7522.000
1001.320, 7344.000
1002.433, 7376.000
1003.546, 7215.000
1004.659, 7200.000
1005.772, 7265.000
1006.884, 7019.000
1007.996, 7164.000
1009.108, 7187.000
1010.220, 7236.000
1011.332, 7199.000
1012.444, 7299.000
1013.555, 7256.000
1014.666, 7511.000
1015.777, 7603.000
1016.888, 7540.000
1017.999, 7732.000
1019.110, 7827.000
1020.220, 7656.000
1021.331, 7803.000
1022.441, 7959.000
1023.551, 8054.000
1024.661, 8149.000
1025.770, 8340.000
1026.880, 8548.000
1027.989, 8960.000
1029.098, 9190.000
1030.207, 9636.000
1031.316, 10014.00
1032.425, 10574.00
1033.533, 11105.00
1034.642, 11634.00
1035.750, 12101.00
1036.858, 12644.00
1037.966, 13009.00
1039.073, 13151.00
1040.181, 13429.00
1041.288, 13223.00
1042.396, 13143.00
1043.503, 12836.00
1044.610, 12633.00
1045.716, 12122.00
1046.823, 11907.00
1047.929, 11391.00
1049.036, 11051.00
1050.142, 10808.00
1051.248, 10599.00
1052.353, 10578.72
1053.459, 10527.00
1054.564, 10712.00
1055.670, 10850.00
1056.775, 10983.00
1057.880, 11260.00
1058.985, 11419.00
1060.089, 11558.01
1061.194, 11739.00
1062.298, 11736.00
1063.402, 11708.00
1064.506, 11626.00
1065.610, 11365.00
1066.713, 11228.00
1067.817, 11085.00
1068.920, 11150.00
1070.023, 11410.00
1071.126, 11767.00
1072.229, 12123.00
1073.332, 12918.00
1074.435, 13711.00
1075.537, 14663.00
1076.639, 16030.00
1077.741, 17093.00
1078.843, 18902.00
1079.945, 20707.00
1081.046, 22572.00
1082.148, 24294.00
1083.249, 25386.00
1084.350, 26314.00
1085.451, 26590.00
1086.551, 26441.00
1087.652, 25306.00
1088.752, 23295.00
1089.853, 20799.00
1090.953, 18025.00
1092.053, 15568.00
1093.152, 13495.00
1094.252, 11850.00
1095.351, 10526.00
1096.451, 9561.000
1097.550, 8719.000
1098.649, 8294.000
1099.748, 7834.000
1100.846, 7670.000
1101.945, 7548.000
1103.043, 7218.000
1104.141, 7083.000
1105.239, 7011.000
1106.337, 6883.000
1107.434, 6792.446
1108.532, 6770.000
1109.629, 6642.000
1110.726, 6617.000
1111.823, 6622.000
1112.920, 6609.000
1114.017, 6617.000
1115.113, 6658.765
1116.210, 6832.000
1117.306, 6785.000
1118.402, 6844.000
1119.498, 6962.000
1120.593, 6856.000
1121.689, 6871.000
1122.784, 7023.000
1123.879, 6920.000
1124.974, 6838.000
1126.069, 6664.000
1127.164, 6448.000
1128.259, 6434.000
1129.353, 6259.000
1130.447, 6166.000
1131.541, 6122.000
1132.635, 6084.000
1133.729, 6027.000
1134.822, 5926.000
1135.916, 5995.000
1137.009, 5928.000
1138.102, 5993.000
1139.195, 5888.000
1140.288, 5812.000
1141.380, 5780.000
1142.473, 5755.000
1143.565, 5712.283
1144.657, 5709.000
1145.749, 5687.000
1146.841, 5624.000
1147.932, 5669.000
1149.024, 5627.000
1150.115, 5616.000
1151.206, 5659.000
1152.297, 5532.000
1153.388, 5560.000
1154.479, 5549.000
1155.569, 5563.000
1156.659, 5533.000
1157.750, 5610.000
1158.839, 5469.000
1159.929, 5463.000
1161.019, 5564.000
1162.108, 5504.000
1163.198, 5521.000
1164.287, 5532.000
1165.376, 5477.000
1166.465, 5417.000
1167.553, 5479.000
1168.642, 5491.000
1169.730, 5471.000
1170.818, 5573.000
1171.906, 5458.000
1172.994, 5526.000
1174.082, 5406.000
1175.170, 5422.000
1176.257, 5505.000
1177.344, 5408.000
1178.431, 5477.000
1179.518, 5455.000
1180.605, 5345.000
1181.691, 5343.000
1182.778, 5390.000
1183.864, 5432.000
1184.950, 5368.000
1186.036, 5385.000
1187.122, 5356.000
1188.207, 5424.000
1189.292, 5398.265
1190.378, 5369.000
1191.463, 5383.000
1192.548, 5342.000
1193.632, 5319.000
1194.717, 5317.000
1195.801, 5302.000
1196.886, 5373.000
1197.970, 5379.000
1199.054, 5340.000
1200.137, 5320.000
1201.221, 5315.000
1202.305, 5341.000
1203.388, 5378.000
1204.471, 5293.000
1205.554, 5257.000
1206.637, 5259.000
1207.719, 5206.000
1208.802, 5320.000
1209.884, 5267.000
1210.966, 5255.000
1212.048, 5322.000
1213.130, 5285.000
1214.212, 5357.000
1215.293, 5343.035
1216.374, 5310.000
1217.456, 5322.000
1218.536, 5311.000
1219.617, 5278.000
1220.698, 5299.000
1221.778, 5230.000
1222.859, 5260.000
1223.939, 5297.000
1225.019, 5224.000
1226.099, 5325.000
1227.178, 5256.000
1228.258, 5241.000
1229.337, 5242.000
1230.417, 5210.234
1231.496, 5271.000
1232.574, 5201.000
1233.653, 5318.000
1234.732, 5347.000
1235.810, 5360.000
