##NAMES=Epidote
##RRUFFID=R050303
##IDEAL CHEMISTRY=Ca_2_Fe^3+^Al_2_(Si_2_O_7_)(SiO_4_)O(OH)
##LOCALITY=San Martin mine, Zacatecas, Mexico
##OWNER=RRUFF
##SOURCE=Eugene Schlepp
##DESCRIPTION=Green elongated prismatic crystals
##STATUS=The identification of this mineral has been confirmed by X-ray diffraction and chemical analysis
##URL=rruff.info/R050303
##MEASURED CHEMISTRY=Ca_2.00_Al_2.00_(Fe^3+^_0.97_Al_0.03_)(SiO_4_)(Si_2_O_7_)O(OH)
##PIN_ID=L01452
##ORIENTATION=Laser parallel to c* (0 0 1). Fiducial mark perpendicular to laser is parallel to a [1 0 0]
53.91000, 1780.000
55.14900, 1770.000
56.38700, 1802.000
57.62600, 1760.000
58.86400, 1812.000
60.10300, 1846.000
61.34100, 1983.000
62.57900, 1929.000
63.81700, 2050.000
65.05400, 2251.000
66.29200, 2471.000
67.52900, 2717.000
68.76700, 3070.404
70.00400, 3445.278
71.24100, 3924.000
72.47700, 4435.000
73.71400, 5046.000
74.95100, 5792.000
76.18700, 6780.000
77.42300, 7614.000
78.65900, 8759.000
79.89500, 10346.00
81.13100, 12094.00
82.36700, 14538.00
83.60200, 17391.00
84.83700, 20311.00
86.07200, 23543.00
87.30800, 26977.00
88.54200, 30540.00
89.77700, 33576.00
91.01200, 36157.00
92.24600, 38847.00
93.48000, 40386.00
94.71400, 40993.00
95.94800, 39255.00
97.18200, 35883.00
98.41600, 31950.00
99.64900, 27764.00
100.8830, 23953.00
102.1160, 20788.00
103.3490, 18496.00
104.5820, 16985.00
105.8150, 16149.00
107.0470, 16346.00
108.2800, 16579.00
109.5120, 15037.00
110.7440, 13216.00
111.9760, 12524.00
113.2080, 12184.00
114.4400, 12361.00
115.6710, 12279.00
116.9030, 11980.00
118.1340, 11767.00
119.3650, 11328.00
120.5960, 11488.00
121.8270, 11645.00
123.0580, 12025.00
124.2880, 11795.00
125.5190, 11583.00
126.7490, 11690.00
127.9790, 11715.00
129.2090, 11765.00
130.4390, 11598.00
131.6680, 11522.00
132.8980, 11406.00
134.1270, 11424.00
135.3560, 11390.00
136.5850, 11465.00
137.8140, 11592.00
139.0430, 11791.00
140.2710, 11606.00
141.5000, 11438.00
142.7280, 11559.00
143.9560, 11554.00
145.1840, 11626.00
146.4120, 11628.00
147.6390, 11726.16
148.8670, 11853.12
150.0940, 11990.00
151.3210, 12135.00
152.5490, 12402.00
153.7750, 12693.13
155.0020, 12924.00
156.2290, 13507.00
157.4550, 14081.00
158.6810, 14718.00
159.9080, 15800.00
161.1340, 16830.00
162.3590, 18233.00
163.5850, 19372.00
164.8110, 20455.00
166.0360, 21279.00
167.2610, 21988.00
168.4860, 22081.00
169.7110, 21896.00
170.9360, 21181.00
172.1610, 19822.00
173.3850, 18670.00
174.6100, 17292.00
175.8340, 16397.00
177.0580, 15449.00
178.2820, 14936.00
179.5050, 14355.00
180.7290, 14102.00
181.9520, 14067.00
183.1760, 13978.00
184.3990, 13883.94
185.6220, 13933.00
186.8450, 13800.00
188.0670, 13793.00
189.2900, 13784.00
190.5120, 13731.00
191.7340, 13895.00
192.9560, 14241.00
194.1780, 14504.00
195.4000, 15179.00
196.6220, 15634.00
197.8430, 16168.00
199.0640, 16562.00
200.2860, 16546.00
201.5070, 16609.00
202.7270, 16523.00
203.9480, 15992.00
205.1690, 15483.00
206.3890, 15100.00
207.6090, 14901.00
208.8290, 14976.00
210.0490, 15170.00
211.2690, 15332.00
212.4890, 15793.00
213.7080, 16292.00
214.9280, 16903.00
216.1470, 17590.00
217.3660, 18484.00
218.5850, 19629.00
219.8030, 20731.00
221.0220, 21560.00
222.2400, 22629.00
223.4590, 23423.00
224.6770, 24009.00
225.8950, 24125.00
227.1120, 23529.00
228.3300, 22960.00
229.5480, 21974.00
230.7650, 21181.00
231.9820, 20685.00
233.1990, 20183.00
234.4160, 19984.00
235.6330, 20029.00
236.8490, 20050.00
238.0660, 20139.00
239.2820, 19678.00
240.4980, 19221.00
241.7140, 18484.00
242.9300, 17674.00
244.1460, 16990.00
245.3610, 16510.00
246.5770, 16023.00
247.7920, 15651.00
249.0070, 15492.00
250.2220, 15369.00
251.4370, 15188.00
252.6510, 15132.00
253.8660, 14990.00
255.0800, 14982.00
256.2940, 14964.00
257.5080, 15740.00
258.7220, 16267.00
259.9360, 16549.00
261.1490, 16526.00
262.3630, 17369.00
263.5760, 18602.00
264.7890, 20038.00
266.0020, 22337.00
267.2150, 24477.00
268.4270, 27110.00
269.6400, 29812.00
270.8520, 31843.00
272.0640, 33220.00
273.2760, 31854.00
274.4880, 29812.00
275.7000, 27191.00
276.9120, 24858.00
278.1230, 22875.00
279.3340, 21123.00
280.5450, 19860.00
281.7560, 18973.00
282.9670, 18099.00
284.1780, 17592.00
285.3880, 17252.00
286.5980, 17294.00
287.8090, 17543.00
289.0190, 17745.00
290.2290, 18170.00
291.4380, 18513.00
292.6480, 19199.00
293.8570, 19519.00
295.0670, 19663.00
296.2760, 19669.00
297.4850, 19567.00
298.6930, 19182.00
299.9020, 18965.00
301.1110, 18942.00
302.3190, 18877.00
303.5270, 19158.00
304.7350, 19358.00
305.9430, 20037.00
307.1510, 20512.00
308.3580, 21124.00
309.5660, 21494.00
310.7730, 21478.00
311.9800, 20960.00
313.1870, 20432.00
314.3940, 19587.00
315.6010, 18853.00
316.8070, 18370.00
318.0130, 17768.00
319.2200, 17467.00
320.4260, 17172.00
321.6310, 16958.00
322.8370, 16781.00
324.0430, 16510.00
325.2480, 16330.00
326.4540, 15989.12
327.6590, 15518.00
328.8640, 15263.00
330.0680, 14930.00
331.2730, 14501.00
332.4780, 14273.00
333.6820, 14269.00
334.8860, 14479.00
336.0900, 14578.00
337.2940, 14801.00
338.4980, 15388.00
339.7010, 16232.00
340.9050, 17222.00
342.1080, 17989.00
343.3110, 18954.00
344.5140, 19796.00
345.7170, 19962.00
346.9200, 20111.00
348.1220, 19792.00
349.3240, 19373.00
350.5270, 18498.00
351.7290, 17833.00
352.9310, 17101.00
354.1320, 16402.00
355.3340, 15874.00
356.5350, 15674.00
357.7370, 15324.00
358.9380, 15179.00
360.1390, 15158.00
361.3400, 14971.00
362.5400, 14863.00
363.7410, 14586.00
364.9410, 14389.00
366.1410, 13908.00
367.3410, 13622.00
368.5410, 13250.00
369.7410, 12968.00
370.9400, 12766.00
372.1400, 12445.00
373.3390, 12326.00
374.5380, 12260.00
375.7370, 12402.00
376.9360, 12487.00
378.1350, 12725.00
379.3330, 12933.00
380.5310, 13359.00
381.7300, 13628.00
382.9280, 13958.00
384.1260, 14272.00
385.3230, 14666.00
386.5210, 14655.00
387.7180, 14525.00
388.9160, 14270.00
390.1130, 13979.00
391.3100, 13656.00
392.5060, 13291.00
393.7030, 13065.00
394.9000, 12877.28
396.0960, 12692.00
397.2920, 12708.00
398.4880, 12777.00
399.6840, 12894.00
400.8800, 12948.00
402.0750, 13253.00
403.2710, 13523.00
404.4660, 13795.00
405.6610, 14417.00
406.8560, 15052.00
408.0510, 15828.00
409.2450, 16907.00
410.4400, 18204.00
411.6340, 19993.00
412.8280, 22069.00
414.0220, 24496.00
415.2160, 27510.00
416.4100, 30927.00
417.6030, 34584.00
418.7970, 37801.00
419.9900, 40734.00
421.1830, 42427.00
422.3760, 42662.00
423.5690, 42326.00
424.7610, 41431.00
425.9540, 40676.00
427.1460, 39954.00
428.3380, 39977.00
429.5300, 40107.00
430.7220, 40142.00
431.9140, 39488.00
433.1050, 38870.00
434.2970, 37528.00
435.4880, 36482.00
436.6790, 35885.00
437.8700, 35752.00
439.0610, 36452.00
440.2510, 37767.00
441.4420, 39316.00
442.6320, 41537.00
443.8220, 44365.00
445.0120, 47119.00
446.2020, 49871.00
447.3910, 51909.00
448.5810, 53767.00
449.7700, 54968.00
450.9600, 55268.00
452.1490, 54611.00
453.3370, 53082.00
454.5260, 50575.00
455.7150, 46828.00
456.9030, 43119.00
458.0910, 39146.00
459.2800, 35521.00
460.4670, 32135.00
461.6550, 28919.00
462.8430, 26703.00
464.0300, 24372.00
465.2180, 22640.70
466.4050, 21469.00
467.5920, 19968.00
468.7790, 18944.00
469.9650, 17821.00
471.1520, 17171.00
472.3380, 16591.00
473.5250, 16083.00
474.7110, 15687.20
475.8970, 15341.91
477.0820, 15095.00
478.2680, 14903.00
479.4540, 14731.00
480.6390, 14689.00
481.8240, 14763.00
483.0090, 14873.00
484.1940, 14853.00
485.3780, 15302.00
486.5630, 15633.00
487.7470, 15939.00
488.9320, 16606.00
490.1160, 17011.00
491.3000, 17689.00
492.4830, 18470.00
493.6670, 18984.00
494.8500, 19644.00
496.0340, 20319.00
497.2170, 20581.00
498.4000, 20892.00
499.5820, 21236.00
500.7650, 21662.00
501.9480, 21848.00
503.1300, 21994.00
504.3120, 22115.00
505.4940, 22226.00
506.6760, 21931.00
507.8580, 21434.00
509.0390, 20807.00
510.2210, 20411.00
511.4020, 20315.00
512.5830, 19932.00
513.7640, 20112.00
514.9450, 20456.00
516.1250, 21032.00
517.3060, 21351.00
518.4860, 21708.00
519.6660, 21245.00
520.8460, 20690.00
522.0260, 19774.00
523.2060, 18333.00
524.3850, 17287.00
525.5650, 16297.00
526.7440, 15379.00
527.9230, 14592.00
529.1020, 14041.00
530.2810, 13648.00
531.4590, 13432.00
532.6380, 13095.00
533.8160, 13115.00
534.9940, 12943.00
536.1720, 12886.00
537.3500, 12882.00
538.5270, 12927.00
539.7050, 13080.00
540.8820, 13205.00
542.0590, 13494.00
543.2360, 13846.00
544.4130, 14003.00
545.5900, 14393.00
546.7660, 15002.00
547.9430, 15601.00
549.1190, 16269.00
550.2950, 17286.00
551.4710, 18519.00
552.6470, 20276.00
553.8220, 22398.00
554.9980, 25199.00
556.1730, 28531.00
557.3480, 32404.00
558.5230, 36656.00
559.6980, 40801.00
560.8730, 43811.00
562.0470, 43901.00
563.2220, 41753.00
564.3960, 37715.00
565.5700, 33260.00
566.7440, 29599.00
567.9170, 26346.00
569.0910, 23858.00
570.2640, 22366.00
571.4380, 21340.00
572.6110, 20762.00
573.7840, 21096.00
574.9570, 21378.00
576.1290, 21932.00
577.3020, 23063.00
578.4740, 23952.00
579.6460, 25273.00
580.8180, 26714.00
581.9900, 28188.00
583.1620, 29527.00
584.3330, 30604.00
585.5040, 31883.00
586.6760, 33094.00
587.8470, 34600.00
589.0180, 36357.00
590.1880, 38314.00
591.3590, 40311.00
592.5290, 42183.00
593.7000, 43649.00
594.8700, 43928.00
596.0400, 43716.00
597.2090, 42713.00
598.3790, 40974.00
599.5490, 38923.00
600.7180, 37229.00
601.8870, 35213.00
603.0560, 33954.00
604.2250, 32742.00
605.3940, 31883.00
606.5620, 31041.00
607.7300, 30564.00
608.8990, 29531.00
610.0670, 28834.00
611.2350, 27906.00
612.4020, 26629.00
613.5700, 25300.00
614.7370, 23579.00
615.9050, 21899.00
617.0720, 20636.00
618.2390, 19457.00
619.4060, 18273.00
620.5720, 17163.00
621.7390, 16326.99
622.9050, 15534.00
624.0710, 14861.00
625.2370, 14315.00
626.4030, 13743.00
627.5690, 13392.00
628.7340, 13158.00
629.9000, 12908.00
631.0650, 12486.00
632.2300, 12537.00
633.3950, 12053.00
634.5600, 11894.00
635.7240, 11747.00
636.8890, 11628.00
638.0530, 11453.00
639.2170, 11345.00
640.3810, 11250.00
641.5450, 11113.00
642.7080, 11078.00
643.8720, 11013.00
645.0350, 10837.00
646.1980, 10733.00
647.3610, 10721.00
648.5240, 10600.00
649.6870, 10576.00
650.8490, 10573.00
652.0120, 10528.00
653.1740, 10472.00
654.3360, 10431.00
655.4980, 10450.00
656.6600, 10496.00
657.8210, 10438.00
658.9830, 10427.00
660.1440, 10330.00
661.3050, 10420.00
662.4660, 10379.00
663.6270, 10343.00
664.7870, 10270.00
665.9480, 10310.00
667.1080, 10233.00
668.2680, 10367.00
669.4280, 10193.00
670.5880, 10375.00
671.7480, 10444.00
672.9070, 10523.00
674.0670, 10462.00
675.2260, 10571.00
676.3850, 10577.00
677.5440, 10698.00
678.7030, 10694.00
679.8610, 10857.00
681.0200, 11033.00
682.1780, 11259.00
683.3360, 11072.00
684.4940, 11182.00
685.6520, 11144.00
686.8090, 11032.00
687.9670, 10977.00
689.1240, 10728.00
690.2810, 10570.00
691.4380, 10375.00
692.5950, 10183.00
693.7520, 10081.00
694.9080, 9899.000
696.0650, 9858.000
697.2210, 9755.000
698.3770, 9607.000
699.5330, 9449.000
700.6880, 9463.000
701.8440, 9451.000
702.9990, 9402.000
704.1550, 9253.000
705.3100, 9231.000
706.4650, 9265.000
707.6190, 9077.000
708.7740, 9132.000
709.9290, 9113.000
711.0830, 8986.000
712.2370, 9064.000
713.3910, 9056.000
714.5450, 8935.000
715.6980, 8953.000
716.8520, 8907.000
718.0050, 8907.000
719.1580, 8948.000
720.3110, 8903.000
721.4640, 8921.000
722.6170, 8859.000
723.7700, 8948.000
724.9220, 8817.000
726.0740, 8941.000
727.2260, 8820.000
728.3780, 8776.000
729.5300, 8768.000
730.6810, 8711.000
731.8330, 8764.141
732.9840, 8895.000
734.1350, 8809.000
735.2860, 8840.000
736.4370, 8722.000
737.5880, 8787.000
738.7380, 8754.000
739.8880, 8812.000
741.0390, 8796.000
742.1890, 8729.000
743.3380, 8943.000
744.4880, 8889.000
745.6380, 8770.000
746.7870, 8875.000
747.9360, 8854.000
749.0850, 8938.000
750.2340, 8837.000
751.3830, 8660.000
752.5310, 8914.000
753.6800, 8774.000
754.8280, 8857.000
755.9760, 8894.000
757.1240, 8905.000
758.2720, 8895.000
759.4190, 8968.000
760.5670, 8914.000
761.7140, 8948.000
762.8610, 8970.000
764.0080, 8900.000
765.1550, 8933.000
766.3020, 8851.000
767.4480, 8943.000
768.5950, 9052.000
769.7410, 8997.000
770.8870, 9036.000
772.0330, 9011.000
773.1780, 9005.070
774.3240, 9002.274
775.4690, 8999.000
776.6140, 8984.000
777.7590, 8984.000
778.9040, 8998.000
780.0490, 8995.702
781.1940, 9010.000
782.3380, 9060.000
783.4820, 9064.000
784.6260, 9102.844
785.7700, 9132.703
786.9140, 9149.000
788.0580, 9187.000
789.2010, 9171.000
790.3450, 9179.000
791.4880, 9164.000
792.6310, 9343.000
793.7730, 9337.000
794.9160, 9339.000
796.0590, 9415.000
797.2010, 9414.825
798.3430, 9473.000
799.4850, 9475.000
800.6270, 9562.000
801.7690, 9599.000
802.9100, 9754.000
804.0520, 9762.000
805.1930, 9745.000
806.3340, 9971.000
807.4750, 9959.000
808.6160, 9910.000
809.7560, 10135.00
810.8970, 10388.00
812.0370, 10433.00
813.1770, 10540.00
814.3170, 10722.00
815.4570, 10953.00
816.5960, 11136.00
817.7360, 11478.00
818.8750, 11688.54
820.0140, 11817.00
821.1530, 12231.00
822.2920, 12455.00
823.4310, 12785.00
824.5690, 12974.00
825.7070, 13178.00
826.8460, 13401.00
827.9840, 13466.06
829.1220, 13448.00
830.2590, 13556.00
831.3970, 13453.00
832.5340, 13422.00
833.6710, 13360.00
834.8080, 13417.00
835.9450, 13216.00
837.0820, 13339.00
838.2190, 13204.00
839.3550, 13412.00
840.4910, 13405.00
841.6270, 13477.00
842.7630, 13616.00
843.8990, 13620.00
845.0350, 13893.00
846.1700, 14013.00
847.3060, 14275.00
848.4410, 14660.00
849.5760, 14928.00
850.7100, 15339.00
851.8450, 15816.00
852.9800, 16281.00
854.1140, 16638.00
855.2480, 17067.00
856.3820, 17585.00
857.5160, 18072.97
858.6500, 18894.00
859.7830, 19218.00
860.9170, 19607.00
862.0500, 20252.00
863.1830, 20459.00
864.3160, 20925.00
865.4480, 21246.00
866.5810, 21605.00
867.7130, 21706.00
868.8460, 22145.00
869.9780, 22610.00
871.1100, 23015.00
872.2410, 23505.00
873.3730, 24233.00
874.5050, 24974.00
875.6360, 25971.00
876.7670, 26583.00
877.8980, 27650.00
879.0290, 28428.00
880.1590, 29034.00
881.2900, 29496.00
882.4200, 29627.00
883.5500, 29680.23
884.6800, 29081.00
885.8100, 29185.00
886.9400, 28487.00
888.0690, 27858.00
889.1990, 27593.00
890.3280, 27282.00
891.4570, 27086.00
892.5860, 27572.00
893.7140, 27762.00
894.8430, 28501.00
895.9710, 29463.00
897.1000, 30875.00
898.2280, 32105.00
899.3560, 33789.00
900.4830, 35686.00
901.6110, 37962.00
902.7380, 40310.00
903.8660, 43322.00
904.9930, 46335.00
906.1200, 49396.00
907.2460, 52715.00
908.3730, 55621.00
909.5000, 58869.00
910.6260, 60928.00
911.7520, 61565.00
912.8780, 62084.00
914.0040, 60912.00
915.1290, 58367.00
916.2550, 55518.00
917.3800, 51354.00
918.5050, 47042.00
919.6300, 43098.00
920.7550, 39419.00
921.8800, 35603.00
923.0040, 32270.00
924.1290, 29519.00
925.2530, 27412.00
926.3770, 25255.00
927.5010, 23227.00
928.6250, 21943.00
929.7480, 20581.00
930.8720, 19588.00
931.9950, 18617.00
933.1180, 17741.00
934.2410, 17200.00
935.3640, 16604.00
936.4860, 15946.00
937.6090, 15641.00
938.7310, 15294.00
939.8530, 15098.00
940.9750, 14832.00
942.0970, 14560.00
943.2180, 14416.00
944.3400, 14145.00
945.4610, 14227.00
946.5820, 14010.00
947.7030, 14191.00
948.8240, 14141.00
949.9450, 14333.00
951.0650, 14227.00
952.1860, 14168.00
953.3060, 14412.00
954.4260, 14442.00
955.5460, 14613.00
956.6650, 14399.00
957.7850, 14304.00
958.9040, 14322.00
960.0230, 14276.00
961.1420, 14135.00
962.2610, 14051.00
963.3800, 14129.00
964.4990, 14130.00
965.6170, 14389.00
966.7350, 14630.00
967.8530, 15067.00
968.9710, 15487.00
970.0890, 16140.00
971.2070, 17227.00
972.3240, 17902.00
973.4410, 18803.00
974.5580, 19733.00
975.6750, 20334.00
976.7920, 20798.00
977.9090, 20687.00
979.0250, 20341.00
980.1410, 19414.00
981.2580, 18689.00
982.3740, 17649.06
983.4890, 16625.00
984.6050, 15488.00
985.7200, 14788.00
986.8360, 14144.00
987.9510, 13638.00
989.0660, 13069.00
990.1810, 12678.00
991.2950, 12324.00
992.4100, 12186.00
993.5240, 11932.00
994.6390, 11780.00
995.7530, 11605.00
996.8660, 11567.00
997.9800, 11381.00
999.0940, 11231.00
1000.207, 11250.00
1001.320, 11026.00
1002.433, 10931.00
1003.546, 11084.00
1004.659, 11049.00
1005.772, 11056.00
1006.884, 11254.00
1007.996, 11292.00
1009.108, 11370.00
1010.220, 11505.00
1011.332, 11543.00
1012.444, 11850.00
1013.555, 11963.00
1014.666, 12007.00
1015.777, 12025.00
1016.888, 12048.00
1017.999, 12094.00
1019.110, 12247.00
1020.220, 12070.00
1021.331, 12314.00
1022.441, 12263.00
1023.551, 12500.00
1024.661, 12797.00
1025.770, 13002.00
1026.880, 13431.00
1027.989, 13752.00
1029.098, 14381.00
1030.207, 14861.00
1031.316, 15483.00
1032.425, 16283.00
1033.533, 16687.00
1034.642, 17341.00
1035.750, 17783.00
1036.858, 18158.00
1037.966, 18404.00
1039.073, 18298.00
1040.181, 18255.00
1041.288, 17845.00
1042.396, 17621.00
1043.503, 17053.00
1044.610, 16494.00
1045.716, 16283.00
1046.823, 15813.00
1047.929, 15410.00
1049.036, 15068.00
1050.142, 15001.00
1051.248, 14945.00
1052.353, 14906.00
1053.459, 15054.00
1054.564, 15250.00
1055.670, 15715.00
1056.775, 15809.00
1057.880, 16014.00
1058.985, 16089.00
1060.089, 16032.00
1061.194, 15753.00
1062.298, 15690.00
1063.402, 15535.00
1064.506, 15297.00
1065.610, 15394.00
1066.713, 15562.00
1067.817, 15685.00
1068.920, 16179.00
1070.023, 16497.00
1071.126, 17445.00
1072.229, 18113.00
1073.332, 19341.00
1074.435, 20569.00
1075.537, 22223.00
1076.639, 24343.00
1077.741, 26705.00
1078.843, 29095.00
1079.945, 31892.00
1081.046, 34019.00
1082.148, 35954.00
1083.249, 36187.00
1084.350, 34924.00
1085.451, 32767.00
1086.551, 29548.00
1087.652, 26386.00
1088.752, 23436.00
1089.853, 20918.00
1090.953, 18587.00
1092.053, 16953.00
1093.152, 15530.00
1094.252, 14700.00
1095.351, 13797.00
1096.451, 13138.00
1097.550, 12693.00
1098.649, 12235.00
1099.748, 12010.00
1100.846, 11617.00
1101.945, 11548.00
1103.043, 11371.00
1104.141, 11232.00
1105.239, 10981.00
1106.337, 10867.00
1107.434, 10637.00
1108.532, 10778.00
1109.629, 10700.00
1110.726, 10510.00
1111.823, 10526.00
1112.920, 10312.00
1114.017, 10250.00
1115.113, 10304.00
1116.210, 10150.00
1117.306, 10207.00
1118.402, 10154.00
1119.498, 10069.00
1120.593, 10184.00
1121.689, 10072.00
1122.784, 10001.00
1123.879, 9985.000
1124.974, 10016.00
1126.069, 9870.000
1127.164, 9873.000
1128.259, 9734.000
1129.353, 9875.000
1130.447, 9758.000
1131.541, 9859.000
1132.635, 9751.000
1133.729, 9659.000
1134.822, 9742.000
1135.916, 9593.000
1137.009, 9634.000
1138.102, 9678.000
1139.195, 9540.000
1140.288, 9526.000
1141.380, 9478.000
1142.473, 9405.000
1143.565, 9448.000
1144.657, 9504.000
1145.749, 9350.000
1146.841, 9301.000
1147.932, 9386.000
1149.024, 9373.000
1150.115, 9392.000
1151.206, 9234.000
1152.297, 9252.000
1153.388, 9261.000
1154.479, 9354.000
1155.569, 9266.000
1156.659, 9200.000
1157.750, 9323.000
1158.839, 9300.000
1159.929, 9173.000
1161.019, 9174.000
1162.108, 9032.000
1163.198, 9201.000
1164.287, 9091.000
1165.376, 9179.000
1166.465, 9207.000
1167.553, 9205.000
1168.642, 9139.000
1169.730, 9232.000
1170.818, 9311.000
1171.906, 9183.000
1172.994, 9199.000
1174.082, 9139.000
1175.170, 9183.000
1176.257, 9255.000
1177.344, 9036.000
1178.431, 9243.000
1179.518, 9086.000
1180.605, 9053.000
1181.691, 9134.000
1182.778, 9107.000
1183.864, 9141.000
1184.950, 9133.000
1186.036, 9031.000
1187.122, 9096.000
1188.207, 9145.000
1189.292, 9062.000
1190.378, 9084.000
1191.463, 9100.000
1192.548, 9068.000
1193.632, 9033.000
1194.717, 8945.000
1195.801, 9042.000
1196.886, 9012.000
1197.970, 9090.000
1199.054, 9046.000
1200.137, 9021.000
1201.221, 8979.000
1202.305, 8928.000
1203.388, 8948.000
1204.471, 8974.000
1205.554, 8938.000
1206.637, 9002.000
1207.719, 9025.000
1208.802, 9022.000
1209.884, 8965.000
1210.966, 8841.000
1212.048, 8844.000
1213.130, 8816.680
1214.212, 8834.000
1215.293, 8824.000
1216.374, 8842.000
1217.456, 8821.000
1218.536, 8887.000
1219.617, 8828.000
1220.698, 8857.000
1221.778, 8928.000
1222.859, 8974.000
1223.939, 8911.081
1225.019, 8891.000
1226.099, 8812.000
1227.178, 8737.000
1228.258, 8797.000
1229.337, 8773.000
1230.417, 8748.000
1231.496, 8774.000
1232.574, 8765.000
1233.653, 8710.000
1234.732, 8691.000
1235.810, 8781.000
1236.888, 8765.000
1237.966, 8839.000
1239.044, 8686.000
