##NAMES=Epididymite
##RRUFFID=R070580
##IDEAL CHEMISTRY=Na_2_Be_2_Si_6_O_15_&#183;H_2_O
##LOCALITY=Narsarsuk, Narsaq, Kitaa, Greenland
##OWNER=RRUFF
##SOURCE=James Shigley
##DESCRIPTION=A translucent to white elongated prism.
##STATUS=The identification of this mineral is confirmed by single-crystal X-ray diffraction and chemical analysis.
##URL=rruff.info/R070580
##MEASURED CHEMISTRY=(Na_1.97_K_0.03_)_Σ=2_Be_2_Si_6.00_O_15_·H_2_O; trace amounts of Al; Be and H_2_O assumed by stoichiometry
##PIN_ID=M01755
##ORIENTATION=Laser parallel to -a* (-1 0 0). Fiducial mark perpendicular to laser is parallel to b [0 1 0]
111.2060, 10044.00
112.4440, 10542.00
113.6810, 11106.00
114.9180, 11554.00
116.1550, 12139.00
117.3920, 12978.00
118.6290, 13891.00
119.8650, 14659.00
121.1010, 14888.00
122.3370, 15077.00
123.5730, 14715.00
124.8090, 14137.00
126.0450, 13337.00
127.2800, 13034.00
128.5150, 13002.00
129.7500, 13211.00
130.9850, 13466.00
132.2200, 13659.00
133.4540, 13366.00
134.6890, 13301.00
135.9230, 13104.00
137.1570, 12769.00
138.3900, 12370.00
139.6240, 12655.00
140.8580, 12971.00
142.0910, 13292.00
143.3240, 13285.00
144.5570, 13621.00
145.7900, 13622.00
147.0220, 13464.00
148.2550, 13355.00
149.4870, 13081.00
150.7190, 12733.00
151.9510, 12537.00
153.1830, 12230.00
154.4140, 11916.00
155.6460, 11681.00
156.8770, 11569.00
158.1080, 11356.00
159.3390, 11176.00
160.5690, 11238.00
161.8000, 11189.00
163.0300, 11063.00
164.2600, 11138.00
165.4900, 11236.00
166.7200, 11157.00
167.9500, 11297.00
169.1790, 11168.00
170.4080, 11340.00
171.6380, 11218.00
172.8670, 11143.00
174.0950, 11221.00
175.3240, 11291.00
176.5520, 11332.00
177.7810, 11281.00
179.0090, 11511.00
180.2370, 11348.00
181.4640, 11506.00
182.6920, 11403.00
183.9190, 11514.00
185.1460, 11529.00
186.3730, 11792.00
187.6000, 11849.00
188.8270, 11966.00
190.0530, 12036.00
191.2800, 12189.00
192.5060, 12347.00
193.7320, 12478.61
194.9580, 12714.00
196.1830, 12758.00
197.4090, 12958.00
198.6340, 13021.00
199.8590, 12962.00
201.0840, 12921.00
202.3090, 12816.00
203.5340, 12585.00
204.7580, 12396.00
205.9820, 12349.00
207.2060, 12180.00
208.4300, 12163.00
209.6540, 12008.00
210.8780, 12122.00
212.1010, 12145.00
213.3240, 12036.00
214.5470, 12100.00
215.7700, 12058.00
216.9930, 12119.00
218.2150, 12298.00
219.4380, 12338.00
220.6600, 12454.00
221.8820, 12469.00
223.1040, 12779.00
224.3260, 12915.00
225.5470, 12980.00
226.7680, 13054.00
227.9900, 13203.00
229.2110, 13349.00
230.4310, 13743.00
231.6520, 14154.00
232.8720, 14514.00
234.0930, 15015.00
235.3130, 15402.00
236.5330, 16099.00
237.7530, 16660.00
238.9720, 17336.00
240.1920, 17470.00
241.4110, 17627.00
242.6300, 17594.00
243.8490, 17155.00
245.0680, 16673.00
246.2860, 16076.00
247.5040, 15451.00
248.7230, 14839.00
249.9410, 14352.00
251.1590, 14009.00
252.3760, 13837.00
253.5940, 13483.00
254.8110, 13359.00
256.0280, 13221.00
257.2450, 13170.00
258.4620, 12921.00
259.6790, 13285.00
260.8950, 13136.00
262.1120, 12958.00
263.3280, 12828.00
264.5440, 12663.00
265.7600, 12750.00
266.9750, 12654.00
268.1910, 12516.00
269.4060, 12579.00
270.6210, 12402.00
271.8360, 12525.00
273.0510, 12658.00
274.2650, 12500.00
275.4800, 12573.00
276.6940, 12572.00
277.9080, 12599.00
279.1220, 12705.00
280.3360, 12767.00
281.5490, 12668.00
282.7630, 12941.00
283.9760, 12959.00
285.1890, 12891.00
286.4020, 12864.00
287.6150, 12777.00
288.8270, 12721.00
290.0400, 12739.00
291.2520, 12697.00
292.4640, 12841.00
293.6760, 12811.00
294.8870, 12704.00
296.0990, 12757.00
297.3100, 12674.00
298.5210, 12700.00
299.7320, 12821.00
300.9430, 12713.00
302.1540, 12757.00
303.3640, 12688.00
304.5750, 12685.00
305.7850, 12821.00
306.9950, 12702.00
308.2050, 12793.00
309.4140, 12979.00
310.6240, 12963.00
311.8330, 12958.00
313.0420, 12951.00
314.2510, 13119.00
315.4600, 12999.00
316.6680, 13137.00
317.8770, 13114.00
319.0850, 13029.00
320.2930, 13309.00
321.5010, 13328.00
322.7090, 13348.00
323.9160, 13287.00
325.1240, 13434.00
326.3310, 13497.00
327.5380, 13677.00
328.7450, 13860.00
329.9520, 13996.00
331.1580, 13996.00
332.3650, 14050.00
333.5710, 14011.00
334.7770, 14030.45
335.9830, 14075.00
337.1880, 13996.00
338.3940, 13927.00
339.5990, 13836.00
340.8040, 13806.52
342.0090, 13764.00
343.2140, 13752.00
344.4190, 13801.00
345.6230, 13789.00
346.8280, 13766.10
348.0320, 13763.00
349.2360, 13694.00
350.4400, 13705.00
351.6430, 13665.00
352.8470, 13623.00
354.0500, 13640.66
355.2530, 13649.00
356.4560, 13648.00
357.6590, 13650.00
358.8620, 13638.00
360.0640, 13632.00
361.2660, 13770.00
362.4680, 13585.00
363.6700, 13582.00
364.8720, 13856.00
366.0740, 13505.00
367.2750, 13795.00
368.4760, 13893.00
369.6770, 13450.00
370.8780, 13870.00
372.0790, 13937.00
373.2800, 14005.00
374.4800, 14006.00
375.6800, 14139.00
376.8800, 14224.00
378.0800, 14293.00
379.2800, 14314.00
380.4790, 14423.30
381.6790, 14549.00
382.8780, 14576.00
384.0770, 14664.00
385.2760, 14676.00
386.4750, 14619.00
387.6730, 14597.00
388.8720, 14692.00
390.0700, 14701.00
391.2680, 14615.00
392.4660, 14768.00
393.6630, 14597.00
394.8610, 14833.00
396.0580, 15087.00
397.2550, 15411.00
398.4520, 15956.00
399.6490, 16470.00
400.8460, 16999.00
402.0420, 17833.00
403.2390, 18693.00
404.4350, 19857.00
405.6310, 21225.00
406.8270, 22544.00
408.0220, 23120.00
409.2180, 22672.00
410.4130, 21394.00
411.6080, 19717.00
412.8030, 18366.00
413.9980, 16887.00
415.1920, 16131.00
416.3870, 15546.00
417.5810, 15224.00
418.7750, 15227.00
419.9690, 14870.00
421.1630, 14844.00
422.3570, 14708.00
423.5500, 14888.00
424.7430, 14743.00
425.9360, 14974.00
427.1290, 14835.00
428.3220, 14961.00
429.5150, 14934.00
430.7070, 15092.00
431.8990, 15247.00
433.0910, 15342.00
434.2830, 15428.00
435.4750, 15304.00
436.6670, 15272.00
437.8580, 15233.00
439.0490, 15098.00
440.2400, 15068.00
441.4310, 15029.89
442.6220, 14869.00
443.8130, 15017.00
445.0030, 14924.00
446.1930, 14965.00
447.3830, 14932.00
448.5730, 14974.00
449.7630, 14866.00
450.9520, 15163.00
452.1420, 15218.00
453.3310, 15130.00
454.5200, 15330.00
455.7090, 15331.00
456.8980, 15359.00
458.0860, 15585.00
459.2740, 15555.00
460.4630, 15705.00
461.6510, 15665.00
462.8380, 15831.00
464.0260, 15842.00
465.2140, 16051.00
466.4010, 16402.00
467.5880, 16755.00
468.7750, 17238.00
469.9620, 17822.00
471.1490, 18466.00
472.3350, 19378.00
473.5220, 20194.00
474.7080, 20980.00
475.8940, 21501.00
477.0800, 21602.00
478.2650, 20995.00
479.4510, 20198.00
480.6360, 19429.00
481.8210, 19169.00
483.0060, 18813.00
484.1910, 18944.00
485.3760, 18848.00
486.5600, 18600.00
487.7440, 18387.00
488.9290, 17785.00
490.1130, 17441.00
491.2960, 17280.00
492.4800, 16784.00
493.6630, 16758.00
494.8470, 16590.00
496.0300, 16665.00
497.2130, 16505.00
498.3960, 16689.00
499.5780, 16749.00
500.7610, 16842.00
501.9430, 16987.00
503.1250, 17320.00
504.3070, 17558.00
505.4890, 17985.00
506.6710, 18457.00
507.8520, 19300.00
509.0330, 20608.00
510.2140, 21963.00
511.3950, 23815.00
512.5760, 26260.00
513.7570, 29256.00
514.9370, 32377.00
516.1170, 36046.00
517.2980, 40427.00
518.4780, 43734.00
519.6570, 45977.00
520.8370, 45246.00
522.0160, 42507.00
523.1960, 38187.00
524.3750, 33039.00
525.5540, 28971.00
526.7320, 25498.00
527.9110, 23144.00
529.0890, 21509.00
530.2680, 20304.00
531.4460, 19539.00
532.6240, 19045.00
533.8010, 18388.00
534.9790, 18153.00
536.1560, 17928.00
537.3340, 17596.00
538.5110, 17606.00
539.6880, 17272.00
540.8650, 17491.00
542.0410, 17261.00
543.2180, 17169.00
544.3940, 17167.00
545.5700, 17156.00
546.7460, 17150.00
547.9220, 16899.00
549.0970, 17014.00
550.2730, 16951.00
551.4480, 17114.00
552.6230, 17130.00
553.7980, 17097.74
554.9730, 17020.00
556.1470, 17003.00
557.3210, 17037.00
558.4960, 16947.00
559.6700, 17015.00
560.8440, 16924.00
562.0170, 17193.00
563.1910, 17028.00
564.3640, 16936.00
565.5380, 17193.00
566.7110, 17288.00
567.8840, 17167.00
569.0560, 17039.00
570.2290, 17003.00
571.4010, 17283.00
572.5740, 17306.00
573.7460, 17378.00
574.9180, 17671.00
576.0890, 17708.00
577.2610, 17841.00
578.4320, 18141.00
579.6040, 18220.00
580.7750, 18658.00
581.9450, 18871.00
583.1160, 19045.00
584.2870, 19209.00
585.4570, 19147.85
586.6270, 19074.00
587.7980, 18854.00
588.9670, 18620.00
590.1370, 18294.00
591.3070, 18197.00
592.4760, 18183.00
593.6450, 18055.00
594.8140, 18000.00
595.9830, 17946.00
597.1520, 17769.00
598.3210, 17831.00
599.4890, 17743.00
600.6570, 17879.00
601.8250, 17864.00
602.9930, 17821.00
604.1610, 17723.00
605.3290, 17715.61
606.4960, 17780.00
607.6630, 17650.00
608.8300, 17601.00
609.9970, 17565.74
611.1640, 17653.00
612.3300, 17574.00
613.4970, 17725.00
614.6630, 17755.00
615.8290, 17793.00
616.9950, 17797.00
618.1610, 17708.00
619.3260, 17811.00
620.4920, 17776.00
621.6570, 17904.00
622.8220, 17955.00
623.9870, 17990.00
625.1520, 17995.00
626.3160, 17942.00
627.4810, 18122.00
628.6450, 18129.00
629.8090, 18054.00
630.9730, 18402.00
632.1370, 18301.00
633.3000, 18253.00
634.4640, 18345.00
635.6270, 18330.00
636.7900, 18336.00
637.9530, 18188.00
639.1160, 18160.00
640.2780, 18301.00
641.4410, 18182.00
642.6030, 18375.00
643.7650, 18282.00
644.9270, 18069.00
646.0890, 18212.00
647.2500, 18250.00
648.4120, 18154.00
649.5730, 17988.00
650.7340, 18167.00
651.8950, 18248.00
653.0560, 18325.00
654.2160, 18223.00
655.3770, 18198.00
656.5370, 18320.00
657.6970, 18203.00
658.8570, 18243.00
660.0170, 18347.00
661.1760, 18338.00
662.3360, 18221.00
663.4950, 18195.00
664.6540, 18295.00
665.8130, 18274.00
666.9720, 18270.00
668.1310, 18290.00
669.2890, 18404.00
670.4470, 18531.00
671.6050, 18351.00
672.7630, 18509.00
673.9210, 18348.00
675.0790, 18420.00
676.2360, 18525.00
677.3930, 18489.00
678.5510, 18557.00
679.7080, 18591.85
680.8640, 18465.00
682.0210, 18645.00
683.1770, 18678.00
684.3340, 18667.00
685.4900, 18603.00
686.6460, 18775.00
687.8020, 18540.00
688.9570, 18780.00
690.1130, 18747.00
691.2680, 18516.00
692.4230, 18638.00
693.5780, 18755.00
694.7330, 18647.00
695.8880, 18692.00
697.0420, 18821.00
698.1960, 18841.00
699.3510, 19044.00
700.5040, 19010.00
701.6580, 18786.00
702.8120, 18910.00
703.9650, 18884.00
705.1190, 18960.00
706.2720, 19039.00
707.4250, 19110.00
708.5780, 19049.00
709.7300, 19119.68
710.8830, 19290.00
712.0350, 19152.00
713.1870, 19036.00
714.3390, 19028.00
715.4910, 19191.00
716.6430, 19042.00
717.7940, 19172.00
718.9460, 19183.00
720.0970, 19229.00
721.2480, 19187.00
722.3990, 19362.00
723.5500, 19436.00
724.7000, 19398.00
725.8500, 19349.00
727.0010, 19446.00
728.1510, 19350.00
729.3010, 19289.00
730.4500, 19282.00
731.6000, 19524.00
732.7490, 19487.00
733.8980, 19591.00
735.0470, 19464.00
736.1960, 19554.00
737.3450, 19572.00
738.4940, 19515.00
739.6420, 19720.00
740.7900, 19583.00
741.9380, 19587.00
743.0860, 19600.00
744.2340, 19649.00
745.3810, 19717.00
746.5290, 19741.00
747.6760, 19605.00
748.8230, 19840.00
749.9700, 19830.00
751.1170, 19854.00
752.2630, 19671.00
753.4100, 19916.00
754.5560, 19942.00
755.7020, 20169.00
756.8480, 20033.00
757.9940, 20232.00
759.1390, 20099.00
760.2850, 20176.00
761.4300, 20164.00
762.5750, 20083.00
763.7200, 20017.00
764.8650, 20083.00
766.0100, 20075.00
767.1540, 19939.00
768.2980, 20202.00
769.4420, 20104.00
770.5860, 20326.00
771.7300, 20156.00
772.8740, 20197.00
774.0170, 20116.00
775.1610, 20327.00
776.3040, 20222.00
777.4470, 20207.00
778.5900, 20351.00
779.7320, 20231.00
780.8750, 20325.00
782.0170, 20194.00
783.1590, 20464.00
784.3010, 20288.00
785.4430, 20581.00
786.5850, 20320.00
787.7260, 20311.00
788.8680, 20446.00
790.0090, 20303.00
791.1500, 20389.69
792.2910, 20402.00
793.4310, 20462.00
794.5720, 20442.00
795.7120, 20519.00
796.8520, 20629.00
797.9920, 20566.00
799.1320, 20384.00
800.2720, 20610.00
801.4120, 20549.00
802.5510, 20883.00
803.6900, 20774.00
804.8290, 20807.00
805.9680, 20739.00
807.1070, 20611.00
808.2450, 20858.00
809.3840, 20794.00
810.5220, 20889.00
811.6600, 20807.00
812.7980, 20997.00
813.9360, 21017.00
815.0730, 21064.00
816.2110, 21197.00
817.3480, 21135.00
818.4850, 21144.00
819.6220, 21410.00
820.7590, 21330.00
821.8960, 21079.00
823.0320, 21094.00
824.1680, 21328.00
825.3040, 21043.00
826.4400, 21353.00
827.5760, 21145.00
828.7120, 20929.00
829.8470, 21384.00
830.9830, 20999.00
832.1180, 21256.00
833.2530, 21158.00
834.3880, 21256.00
835.5220, 21376.00
836.6570, 21358.00
837.7910, 21435.64
838.9250, 21382.00
840.0590, 21464.00
841.1930, 21485.00
842.3270, 21437.00
843.4600, 21528.00
844.5940, 21497.00
845.7270, 21424.00
846.8600, 21596.00
847.9930, 21616.00
849.1250, 21522.00
850.2580, 21548.00
851.3900, 21524.00
852.5230, 21834.00
853.6550, 21599.00
854.7870, 21860.00
855.9180, 21778.00
857.0500, 21882.00
858.1810, 21871.00
859.3130, 21740.00
860.4440, 21787.00
861.5750, 21831.00
862.7050, 21826.00
863.8360, 21936.00
864.9660, 22110.00
866.0970, 22034.00
867.2270, 21992.00
868.3570, 22030.00
869.4870, 21874.00
870.6160, 22011.00
871.7460, 22109.00
872.8750, 22052.00
874.0040, 22085.00
875.1330, 22170.00
876.2620, 22192.00
877.3910, 22144.00
878.5190, 22324.00
879.6470, 22373.00
880.7760, 22242.00
881.9040, 22183.00
883.0310, 22361.00
884.1590, 22243.00
885.2870, 22245.00
886.4140, 22198.00
887.5410, 22257.00
888.6680, 22260.00
889.7950, 22361.00
890.9220, 22404.00
892.0480, 22218.00
893.1750, 22503.00
894.3010, 22505.00
895.4270, 22470.00
896.5530, 22287.00
897.6790, 22539.00
898.8040, 22618.00
899.9300, 22549.00
901.0550, 22683.00
902.1800, 22496.00
903.3050, 22636.00
904.4300, 22464.00
905.5540, 22688.00
906.6790, 22746.00
907.8030, 22745.00
908.9270, 22824.00
910.0510, 22761.00
911.1750, 22905.00
912.2990, 22777.00
913.4220, 22983.00
914.5450, 22918.00
915.6690, 22823.00
916.7920, 22851.00
917.9140, 22737.00
919.0370, 22881.00
920.1600, 22919.00
921.2820, 23120.00
922.4040, 22985.00
923.5260, 22911.00
924.6480, 23117.00
925.7700, 23023.00
926.8910, 23052.00
928.0130, 23196.00
929.1340, 23294.00
930.2550, 23309.12
931.3760, 23339.15
932.4970, 23269.00
933.6170, 23268.00
934.7380, 23074.00
935.8580, 22977.00
936.9780, 23235.00
938.0980, 23479.00
939.2180, 23444.00
940.3370, 23165.00
941.4570, 23174.00
942.5760, 23323.00
943.6950, 23294.00
944.8140, 23188.00
945.9330, 23477.00
947.0520, 23348.00
948.1700, 23343.00
949.2890, 23432.00
950.4070, 23507.00
951.5250, 23654.00
952.6430, 23557.00
953.7600, 23334.00
954.8780, 23474.00
955.9950, 23569.00
957.1120, 23557.00
958.2290, 23650.00
959.3460, 23387.00
960.4630, 23416.00
961.5800, 23466.00
962.6960, 23796.00
963.8120, 23852.00
964.9280, 23813.00
966.0440, 23680.00
967.1600, 24010.00
968.2760, 23959.00
969.3910, 24045.00
970.5060, 23949.00
971.6210, 24037.00
972.7360, 24003.00
973.8510, 24102.03
974.9660, 24162.86
976.0800, 24229.00
977.1950, 24276.00
978.3090, 24106.00
979.4230, 24035.00
980.5370, 24305.00
981.6500, 24199.00
982.7640, 24387.00
983.8770, 24233.00
984.9900, 24403.00
986.1030, 24648.00
987.2160, 24605.00
988.3290, 24607.00
989.4420, 24669.00
990.5540, 25126.00
991.6660, 24859.29
992.7780, 25148.00
993.8900, 24552.00
995.0020, 24824.00
996.1140, 24656.00
997.2250, 24757.00
998.3360, 24613.00
999.4470, 24826.00
1000.558, 24838.00
1001.669, 24905.00
1002.780, 25022.74
1003.890, 25021.80
1005.001, 25158.00
1006.111, 25048.00
1007.221, 25027.00
1008.331, 24974.00
1009.440, 25108.00
1010.550, 25176.00
1011.659, 25277.00
1012.768, 25073.00
1013.877, 25254.00
1014.986, 25108.00
1016.095, 25135.00
1017.204, 24956.00
1018.312, 24923.00
1019.420, 25087.00
1020.528, 25170.00
1021.636, 25147.00
1022.744, 25093.00
1023.852, 25276.00
1024.959, 25118.00
1026.066, 25404.00
1027.173, 25319.00
1028.280, 24998.00
1029.387, 25219.00
1030.494, 25429.00
1031.600, 25677.00
1032.707, 25407.00
1033.813, 25487.00
1034.919, 25586.00
1036.025, 25785.00
1037.130, 25650.00
1038.236, 25923.00
1039.341, 25782.00
1040.446, 25953.00
1041.552, 26104.00
1042.656, 26234.00
1043.761, 26384.00
1044.866, 26439.00
1045.970, 26507.00
1047.074, 26530.00
1048.179, 26636.00
1049.282, 26612.00
1050.386, 26532.00
1051.490, 26743.00
1052.593, 26646.78
1053.697, 26353.00
1054.800, 26647.00
1055.903, 26624.00
1057.006, 26663.00
1058.108, 26765.00
1059.211, 26780.00
1060.313, 26569.00
1061.415, 26705.00
1062.517, 26483.00
1063.619, 26696.00
1064.721, 26672.00
1065.823, 26677.00
1066.924, 26644.00
1068.025, 26751.00
1069.126, 26819.00
1070.227, 26644.00
1071.328, 26726.00
1072.429, 26636.00
1073.529, 26697.00
1074.629, 26643.00
1075.729, 26703.00
1076.829, 26522.00
1077.929, 26319.00
1079.029, 26513.00
1080.128, 26444.00
1081.228, 26566.00
1082.327, 26435.00
1083.426, 26516.00
1084.525, 26727.00
1085.623, 26861.00
1086.722, 26797.00
1087.820, 26728.00
1088.919, 26464.00
1090.017, 26503.38
1091.115, 26560.00
1092.212, 26451.00
1093.310, 26533.00
1094.407, 26492.00
1095.505, 26735.00
1096.602, 26889.00
1097.699, 26758.00
1098.795, 26652.00
1099.892, 26767.12
1100.989, 26715.32
1102.085, 26970.00
1103.181, 26774.00
1104.277, 27029.00
1105.373, 27008.00
1106.469, 27003.00
1107.564, 26913.00
1108.660, 27032.00
1109.755, 27350.00
1110.850, 27227.00
1111.945, 27255.00
1113.040, 27039.00
1114.134, 27361.00
1115.229, 27572.00
1116.323, 27529.00
1117.417, 27573.00
1118.511, 27379.00
1119.605, 27736.00
1120.698, 28000.00
1121.792, 27906.00
1122.885, 27783.00
1123.978, 28087.00
1125.071, 28442.00
1126.164, 28621.00
1127.257, 28592.00
1128.349, 28710.00
1129.442, 29086.00
1130.534, 29195.00
1131.626, 29551.00
1132.718, 29844.00
1133.810, 30064.00
1134.901, 30378.00
1135.993, 30750.00
1137.084, 30756.00
1138.175, 30874.00
1139.266, 30804.00
1140.357, 30687.00
1141.448, 30569.00
1142.538, 30410.00
1143.628, 30152.00
1144.719, 30096.00
1145.809, 29438.00
1146.898, 29240.00
1147.988, 28903.00
1149.078, 28816.00
1150.167, 28628.00
1151.256, 28669.00
1152.345, 28250.00
1153.434, 28155.00
1154.523, 28301.00
1155.612, 28613.00
1156.700, 28195.00
1157.788, 27995.00
1158.877, 28339.00
1159.964, 28063.00
1161.052, 28204.00
1162.140, 28121.00
1163.227, 28114.00
1164.315, 28131.00
1165.402, 28140.00
1166.489, 28143.00
1167.576, 28090.00
1168.663, 28130.00
1169.749, 28075.00
1170.836, 28195.00
1171.922, 28157.00
1173.008, 28085.00
1174.094, 28242.00
1175.180, 28298.00
1176.265, 28354.00
1177.351, 28261.00
1178.436, 28296.00
1179.521, 28475.00
1180.606, 28269.00
1181.691, 28403.00
1182.776, 28225.00
1183.860, 28233.00
1184.944, 28473.00
1186.029, 28362.00
1187.113, 28302.00
1188.197, 28217.00
1189.280, 28243.54
1190.364, 28400.00
1191.447, 28357.00
1192.531, 28451.00
1193.614, 28561.00
1194.697, 28426.00
1195.779, 28659.00
1196.862, 28533.00
1197.945, 28563.00
1199.027, 28700.00
1200.109, 28713.00
1201.191, 28471.00
1202.273, 28734.00
1203.355, 28711.00
1204.436, 28496.00
1205.518, 28704.00
1206.599, 28797.00
1207.680, 28823.00
1208.761, 28851.00
1209.842, 28749.00
1210.922, 28759.00
1212.003, 28941.00
1213.083, 28906.00
1214.163, 29072.00
1215.243, 28844.00
1216.323, 29063.00
1217.402, 28902.00
1218.482, 29096.00
1219.561, 29274.00
1220.641, 29059.00
1221.720, 29061.00
1222.798, 29158.00
1223.877, 29235.00
1224.956, 29238.00
1226.034, 29055.00
1227.112, 29146.00
1228.191, 29177.00
1229.269, 29357.00
1230.346, 29021.00
1231.424, 29273.00
1232.501, 29502.00
1233.579, 29248.00
1234.656, 29348.00
1235.733, 29346.00
1236.810, 29297.00
1237.886, 29470.00
1238.963, 29508.00
1240.039, 29415.00
1241.116, 29699.00
1242.192, 29728.00
1243.268, 29693.00
1244.343, 29721.00
1245.419, 29856.00
1246.494, 29599.00
1247.570, 29697.00
1248.645, 29526.00
1249.720, 29668.00
1250.795, 29753.00
1251.869, 29896.00
1252.944, 29952.00
1254.018, 29815.00
1255.093, 29987.00
1256.167, 29782.00
1257.240, 30005.00
1258.314, 30062.00
1259.388, 29841.00
1260.461, 30083.00
1261.535, 30202.00
1262.608, 30011.00
1263.681, 30042.00
1264.753, 30029.00
1265.826, 29928.00
1266.899, 29977.00
1267.971, 30012.58
1269.043, 29971.00
1270.115, 30142.00
1271.187, 30230.00
1272.259, 30234.00
1273.330, 30287.00
1274.402, 30375.00
1275.473, 30164.00
1276.544, 30159.00
1277.615, 30193.00
1278.686, 30203.00
1279.756, 30287.00
1280.827, 30419.00
1281.897, 30196.00
1282.967, 30147.00
1284.037, 30467.00
1285.107, 30432.00
