##NAMES=Epididymite
##RRUFFID=R060773
##IDEAL CHEMISTRY=Na_2_Be_2_Si_6_O_15_&#183;H_2_O
##LOCALITY=unknown
##OWNER=RRUFF
##SOURCE=Michael Scott
##DESCRIPTION=Colorless platy crystals forming a pseudohexagonal aggregate
##STATUS=The identification of this mineral has been confirmed by single-crystal X-ray diffraction.
##URL=rruff.info/R060773
##PIN_ID=M00148
##ORIENTATION=Laser parallel to c* (0 0 1). Fiducial mark perpendicular to laser is parallel to a [1 0 0]
102.1160, 12204.00
103.3490, 12375.00
104.5820, 12600.00
105.8150, 12789.00
107.0470, 13350.00
108.2800, 13871.00
109.5120, 14282.00
110.7440, 14282.00
111.9760, 14395.00
113.2080, 14821.00
114.4400, 15304.00
115.6710, 15941.00
116.9030, 16661.00
118.1340, 17531.00
119.3650, 18555.00
120.5960, 19578.00
121.8270, 20383.00
123.0580, 20803.00
124.2880, 21012.00
125.5190, 20929.00
126.7490, 20701.00
127.9790, 21794.00
129.2090, 23444.00
130.4390, 25365.00
131.6680, 26720.00
132.8980, 26442.00
134.1270, 25137.00
135.3560, 23090.00
136.5850, 20836.00
137.8140, 18499.00
139.0430, 16893.00
140.2710, 15992.00
141.5000, 15290.00
142.7280, 14876.00
143.9560, 14593.00
145.1840, 14483.00
146.4120, 14610.00
147.6390, 14700.00
148.8670, 14631.00
150.0940, 14753.00
151.3210, 14851.00
152.5490, 14654.00
153.7750, 14479.00
155.0020, 14278.00
156.2290, 14160.00
157.4550, 13867.00
158.6810, 13797.00
159.9080, 13710.00
161.1340, 13700.00
162.3590, 13698.00
163.5850, 13843.00
164.8110, 13983.00
166.0360, 13912.00
167.2610, 13945.00
168.4860, 13922.00
169.7110, 13933.00
170.9360, 13923.00
172.1610, 13757.00
173.3850, 13854.00
174.6100, 13692.00
175.8340, 13772.00
177.0580, 13803.00
178.2820, 13852.00
179.5050, 13984.00
180.7290, 14095.00
181.9520, 14145.00
183.1760, 14359.12
184.3990, 14516.94
185.6220, 14772.00
186.8450, 14990.00
188.0670, 15236.00
189.2900, 15581.00
190.5120, 15904.00
191.7340, 16313.00
192.9560, 16616.54
194.1780, 17052.00
195.4000, 17193.00
196.6220, 17551.00
197.8430, 17682.00
199.0640, 17399.00
200.2860, 17337.00
201.5070, 17123.00
202.7270, 16649.00
203.9480, 15937.00
205.1690, 15485.00
206.3890, 15246.00
207.6090, 14765.00
208.8290, 14518.00
210.0490, 14322.44
211.2690, 14435.00
212.4890, 14105.00
213.7080, 14093.00
214.9280, 14188.00
216.1470, 13973.20
217.3660, 13866.00
218.5850, 13825.00
219.8030, 13862.00
221.0220, 13888.00
222.2400, 14097.00
223.4590, 14095.00
224.6770, 14345.00
225.8950, 14422.00
227.1120, 14816.00
228.3300, 14905.00
229.5480, 15131.00
230.7650, 15674.00
231.9820, 16103.00
233.1990, 16756.00
234.4160, 17167.00
235.6330, 17841.00
236.8490, 18364.00
238.0660, 19356.00
239.2820, 20077.00
240.4980, 20063.00
241.7140, 20411.00
242.9300, 20086.00
244.1460, 19721.00
245.3610, 18938.00
246.5770, 18358.00
247.7920, 17951.00
249.0070, 17394.00
250.2220, 17063.00
251.4370, 16794.00
252.6510, 16427.00
253.8660, 16299.00
255.0800, 16356.00
256.2940, 16377.00
257.5080, 16213.00
258.7220, 16139.21
259.9360, 15908.71
261.1490, 15755.00
262.3630, 15469.00
263.5760, 15156.00
264.7890, 15135.00
266.0020, 14770.00
267.2150, 14639.00
268.4270, 14447.00
269.6400, 14246.00
270.8520, 14103.00
272.0640, 13923.00
273.2760, 13914.00
274.4880, 13969.00
275.7000, 13710.00
276.9120, 13819.00
278.1230, 13761.00
279.3340, 13714.00
280.5450, 13825.00
281.7560, 13779.00
282.9670, 13986.00
284.1780, 13770.00
285.3880, 13809.00
286.5980, 13942.00
287.8090, 13811.00
289.0190, 13689.00
290.2290, 13823.00
291.4380, 13790.00
292.6480, 13864.00
293.8570, 13620.00
295.0670, 13827.00
296.2760, 13784.00
297.4850, 13874.00
298.6930, 13898.00
299.9020, 13932.00
301.1110, 13990.00
302.3190, 13850.00
303.5270, 13821.00
304.7350, 14112.00
305.9430, 13959.00
307.1510, 13996.00
308.3580, 13955.00
309.5660, 14000.00
310.7730, 14138.00
311.9800, 14132.00
313.1870, 14055.00
314.3940, 14292.00
315.6010, 14319.00
316.8070, 14433.00
318.0130, 14542.00
319.2200, 14592.00
320.4260, 14574.00
321.6310, 14577.00
322.8370, 14798.00
324.0430, 14920.00
325.2480, 15003.00
326.4540, 14995.00
327.6590, 15216.00
328.8640, 15288.00
330.0680, 15534.00
331.2730, 15898.00
332.4780, 16122.00
333.6820, 16361.00
334.8860, 16981.00
336.0900, 17434.23
337.2940, 18294.00
338.4980, 18912.00
339.7010, 19753.00
340.9050, 20992.00
342.1080, 22558.00
343.3110, 23502.00
344.5140, 24101.00
345.7170, 24062.00
346.9200, 23088.00
348.1220, 21959.00
349.3240, 20924.00
350.5270, 19624.00
351.7290, 18926.00
352.9310, 18471.00
354.1320, 18139.00
355.3340, 17868.55
356.5350, 17863.00
357.7370, 17661.00
358.9380, 17930.00
360.1390, 17931.00
361.3400, 17848.00
362.5400, 17997.00
363.7410, 18132.00
364.9410, 18107.00
366.1410, 18661.00
367.3410, 18871.00
368.5410, 19511.00
369.7410, 19943.00
370.9400, 20917.00
372.1400, 22006.00
373.3390, 22777.00
374.5380, 23770.00
375.7370, 25077.00
376.9360, 26295.00
378.1350, 27681.00
379.3330, 28954.00
380.5310, 28813.00
381.7300, 28285.00
382.9280, 27111.00
384.1260, 25499.00
385.3230, 24034.00
386.5210, 22307.00
387.7180, 20920.00
388.9160, 20041.00
390.1130, 18927.00
391.3100, 18143.00
392.5060, 17824.00
393.7030, 17871.00
394.9000, 17785.00
396.0960, 18226.00
397.2920, 18747.00
398.4880, 19897.00
399.6840, 20869.00
400.8800, 22010.00
402.0750, 23329.00
403.2710, 25597.00
404.4660, 28169.00
405.6610, 30996.00
406.8560, 32464.00
408.0510, 31820.00
409.2450, 30065.00
410.4400, 27231.00
411.6340, 24034.00
412.8280, 21438.00
414.0220, 19274.00
415.2160, 17795.00
416.4100, 17184.00
417.6030, 16422.00
418.7970, 16199.00
419.9900, 15988.00
421.1830, 15810.00
422.3760, 15793.00
423.5690, 15670.00
424.7610, 15680.00
425.9540, 15691.00
427.1460, 15618.00
428.3380, 15561.00
429.5300, 15655.00
430.7220, 15685.00
431.9140, 15527.00
433.1050, 15644.00
434.2970, 15788.00
435.4880, 15594.00
436.6790, 15572.00
437.8700, 15639.00
439.0610, 15618.00
440.2510, 15455.00
441.4420, 15632.00
442.6320, 15294.00
443.8220, 15489.00
445.0120, 15406.00
446.2020, 15515.00
447.3910, 15647.00
448.5810, 15408.00
449.7700, 15766.00
450.9600, 15696.00
452.1490, 15759.00
453.3370, 15776.00
454.5260, 15959.00
455.7150, 16057.00
456.9030, 16259.00
458.0910, 16365.00
459.2800, 16433.00
460.4670, 16292.00
461.6550, 16209.00
462.8430, 16331.00
464.0300, 16348.00
465.2180, 16632.00
466.4050, 16705.00
467.5920, 17124.00
468.7790, 17208.00
469.9650, 17622.00
471.1520, 17781.00
472.3380, 18555.00
473.5250, 18870.00
474.7110, 19117.00
475.8970, 19046.00
477.0820, 19214.00
478.2680, 19094.00
479.4540, 19065.00
480.6390, 18850.00
481.8240, 19040.00
483.0090, 19193.00
484.1940, 19339.00
485.3780, 19275.26
486.5630, 19231.00
487.7470, 19002.00
488.9320, 18688.00
490.1160, 18403.00
491.3000, 18102.00
492.4830, 18154.00
493.6670, 18071.00
494.8500, 18107.00
496.0340, 18391.00
497.2170, 18252.00
498.4000, 18648.00
499.5820, 19085.00
500.7650, 19373.00
501.9480, 19725.00
503.1300, 20222.00
504.3120, 20830.00
505.4940, 21744.00
506.6760, 22943.00
507.8580, 24652.00
509.0390, 27128.00
510.2210, 30639.00
511.4020, 34206.00
512.5830, 38295.00
513.7640, 42931.00
514.9450, 48977.00
516.1250, 55519.00
517.3060, 61516.00
518.4860, 65229.00
519.6660, 64613.00
520.8460, 61608.00
522.0260, 55191.00
523.2060, 47445.00
524.3850, 40353.00
525.5650, 34048.00
526.7440, 29571.00
527.9230, 26340.00
529.1020, 24272.00
530.2810, 22557.00
531.4590, 21441.00
532.6380, 20776.00
533.8160, 19977.00
534.9940, 19444.00
536.1720, 19063.00
537.3500, 18898.00
538.5270, 18501.00
539.7050, 18311.00
540.8820, 18279.00
542.0590, 18255.00
543.2360, 17872.00
544.4130, 17892.00
545.5900, 17852.00
546.7660, 17740.00
547.9430, 17862.00
549.1190, 17548.00
550.2950, 17456.00
551.4710, 17605.00
552.6470, 17454.00
553.8220, 17422.00
554.9980, 17526.00
556.1730, 17317.00
557.3480, 17412.00
558.5230, 17520.00
559.6980, 17451.00
560.8730, 17500.00
562.0470, 17386.00
563.2220, 17441.00
564.3960, 17570.00
565.5700, 17597.00
566.7440, 17631.00
567.9170, 17741.00
569.0910, 17807.00
570.2640, 18042.00
571.4380, 18056.00
572.6110, 18499.00
573.7840, 19093.00
574.9570, 19413.00
576.1290, 20106.00
577.3020, 20791.00
578.4740, 21682.00
579.6460, 22982.00
580.8180, 23962.00
581.9900, 24841.00
583.1620, 25477.00
584.3330, 25530.00
585.5040, 24762.00
586.6760, 23554.00
587.8470, 22561.00
589.0180, 21412.00
590.1880, 20279.00
591.3590, 19552.00
592.5290, 19135.00
593.7000, 18796.00
594.8700, 18544.00
596.0400, 18350.17
597.2090, 18231.24
598.3790, 18103.00
599.5490, 18184.00
600.7180, 18050.00
601.8870, 18139.00
603.0560, 18053.00
604.2250, 18267.00
605.3940, 18141.00
606.5620, 18288.00
607.7300, 18415.00
608.8990, 18158.00
610.0670, 18252.00
611.2350, 18141.00
612.4020, 18330.00
613.5700, 18209.00
614.7370, 18291.00
615.9050, 18329.00
617.0720, 18209.00
618.2390, 18378.00
619.4060, 18412.00
620.5720, 18301.00
621.7390, 18564.00
622.9050, 18768.00
624.0710, 18678.00
625.2370, 19015.00
626.4030, 19265.00
627.5690, 19376.00
628.7340, 19520.00
629.9000, 19701.00
631.0650, 19758.00
632.2300, 20240.00
633.3950, 20206.00
634.5600, 19813.00
635.7240, 19804.00
636.8890, 19355.00
638.0530, 19163.00
639.2170, 18935.00
640.3810, 18937.00
641.5450, 18761.90
642.7080, 18679.00
643.8720, 18575.00
645.0350, 18653.00
646.1980, 18582.00
647.3610, 18597.95
648.5240, 18546.00
649.6870, 18579.00
650.8490, 18515.00
652.0120, 18400.00
653.1740, 18548.00
654.3360, 18555.00
655.4980, 18619.00
656.6600, 18497.00
657.8210, 18326.00
658.9830, 18563.00
660.1440, 18311.00
661.3050, 18394.00
662.4660, 18229.00
663.6270, 18412.00
664.7870, 18526.00
665.9480, 18394.00
667.1080, 18483.00
668.2680, 18541.00
669.4280, 18574.00
670.5880, 18468.00
671.7480, 18515.00
672.9070, 18467.98
674.0670, 18301.00
675.2260, 18452.00
676.3850, 18398.00
677.5440, 18479.00
678.7030, 18441.00
679.8610, 18647.00
681.0200, 18512.00
682.1780, 18506.00
683.3360, 18311.00
684.4940, 18470.00
685.6520, 18446.00
686.8090, 18325.00
687.9670, 18409.00
689.1240, 18412.00
690.2810, 18613.00
691.4380, 18452.00
692.5950, 18335.00
693.7520, 18513.00
694.9080, 18409.00
696.0650, 18365.00
697.2210, 18392.00
698.3770, 18479.00
699.5330, 18539.00
700.6880, 18561.00
701.8440, 18547.00
702.9990, 18408.00
704.1550, 18481.00
705.3100, 18408.00
706.4650, 18554.00
707.6190, 18661.00
708.7740, 18576.00
709.9290, 18526.00
711.0830, 18528.00
712.2370, 18566.00
713.3910, 18552.17
714.5450, 18667.00
715.6980, 18627.00
716.8520, 18735.00
718.0050, 18877.00
719.1580, 18775.00
720.3110, 18842.00
721.4640, 18791.00
722.6170, 18911.00
723.7700, 18870.00
724.9220, 18874.00
726.0740, 19042.00
727.2260, 18986.00
728.3780, 19097.00
729.5300, 19176.00
730.6810, 18996.00
731.8330, 19155.00
732.9840, 19231.00
734.1350, 19139.00
735.2860, 19233.00
736.4370, 19131.00
737.5880, 19283.00
738.7380, 19366.00
739.8880, 19165.00
741.0390, 19364.00
742.1890, 19245.00
743.3380, 19370.00
744.4880, 19297.00
745.6380, 19453.00
746.7870, 19361.00
747.9360, 19465.00
749.0850, 19623.00
750.2340, 19640.00
751.3830, 19661.00
752.5310, 19604.00
753.6800, 19625.00
754.8280, 19700.00
755.9760, 19643.00
757.1240, 19824.00
758.2720, 19813.00
759.4190, 19903.00
760.5670, 19834.00
761.7140, 19903.00
762.8610, 19689.00
764.0080, 19781.00
765.1550, 19666.00
766.3020, 19723.00
767.4480, 19879.00
768.5950, 19569.00
769.7410, 19785.00
770.8870, 19646.00
772.0330, 19869.00
773.1780, 19847.00
774.3240, 19867.00
775.4690, 19902.00
776.6140, 19968.00
777.7590, 19923.00
778.9040, 20026.00
780.0490, 19800.00
781.1940, 19766.00
782.3380, 19956.00
783.4820, 20046.00
784.6260, 20045.00
785.7700, 19988.00
786.9140, 20192.00
788.0580, 19955.00
789.2010, 19917.00
790.3450, 20134.00
791.4880, 20195.00
792.6310, 20181.00
793.7730, 20228.00
794.9160, 20081.00
796.0590, 20242.00
797.2010, 20173.00
798.3430, 20203.00
799.4850, 20278.00
800.6270, 20090.00
801.7690, 20418.00
802.9100, 20423.00
804.0520, 20367.00
805.1930, 20545.00
806.3340, 20381.00
807.4750, 20440.00
808.6160, 20499.00
809.7560, 20525.00
810.8970, 20527.00
812.0370, 20620.00
813.1770, 20501.00
814.3170, 20541.00
815.4570, 20621.00
816.5960, 20565.00
817.7360, 20603.00
818.8750, 20756.00
820.0140, 20793.00
821.1530, 20793.00
822.2920, 20847.21
823.4310, 20717.00
824.5690, 20849.00
825.7070, 20718.00
826.8460, 20694.00
827.9840, 21042.00
829.1220, 20914.00
830.2590, 20984.00
831.3970, 20978.00
832.5340, 20854.00
833.6710, 20724.00
834.8080, 21011.00
835.9450, 20905.00
837.0820, 21049.00
838.2190, 21035.00
839.3550, 20915.00
840.4910, 21187.00
841.6270, 21119.00
842.7630, 21057.00
843.8990, 21115.00
845.0350, 21192.18
846.1700, 21313.00
847.3060, 21496.00
848.4410, 21664.00
849.5760, 21864.00
850.7100, 22055.00
851.8450, 22158.00
852.9800, 22629.00
854.1140, 22727.00
855.2480, 23012.00
856.3820, 23400.00
857.5160, 23420.00
858.6500, 23369.00
859.7830, 23425.00
860.9170, 23344.00
862.0500, 23169.00
863.1830, 23093.00
864.3160, 22851.00
865.4480, 22720.53
866.5810, 22620.00
867.7130, 22375.00
868.8460, 22217.00
869.9780, 22015.00
871.1100, 21988.00
872.2410, 21927.47
873.3730, 21832.00
874.5050, 21916.00
875.6360, 22034.00
876.7670, 21981.00
877.8980, 21794.00
879.0290, 21963.00
880.1590, 21823.00
881.2900, 21630.00
882.4200, 21826.00
883.5500, 21673.00
884.6800, 21670.00
885.8100, 21774.00
886.9400, 21738.00
888.0690, 21745.00
889.1990, 21708.00
890.3280, 21702.00
891.4570, 21595.00
892.5860, 21699.00
893.7140, 21676.00
894.8430, 21608.00
895.9710, 21708.00
897.1000, 21595.00
898.2280, 21622.65
899.3560, 21749.00
900.4830, 21600.00
901.6110, 21742.00
902.7380, 21713.00
903.8660, 21714.00
904.9930, 21747.00
906.1200, 21593.00
907.2460, 21693.00
908.3730, 21628.00
909.5000, 21601.00
910.6260, 21757.00
911.7520, 21775.00
912.8780, 21722.00
914.0040, 21565.00
915.1290, 21578.00
916.2550, 21902.00
917.3800, 21748.00
918.5050, 21964.00
919.6300, 21746.00
920.7550, 21906.00
921.8800, 21587.00
923.0040, 21662.00
924.1290, 21737.00
925.2530, 21850.00
926.3770, 21883.00
927.5010, 21910.00
928.6250, 21977.23
929.7480, 21958.00
930.8720, 21976.16
931.9950, 21894.00
933.1180, 21971.00
934.2410, 21920.00
935.3640, 21931.00
936.4860, 22051.00
937.6090, 22061.00
938.7310, 21979.00
939.8530, 22160.00
940.9750, 22014.00
942.0970, 22120.00
943.2180, 22160.00
944.3400, 22043.00
945.4610, 22025.00
946.5820, 22095.00
947.7030, 22003.00
948.8240, 22238.00
949.9450, 22290.00
951.0650, 22229.00
952.1860, 22403.00
953.3060, 22246.00
954.4260, 22366.00
955.5460, 22413.00
956.6650, 22455.00
957.7850, 22284.00
958.9040, 22351.00
960.0230, 22362.00
961.1420, 22497.00
962.2610, 22416.00
963.3800, 22441.00
964.4990, 22527.00
965.6170, 22613.00
966.7350, 22609.00
967.8530, 22583.00
968.9710, 22552.00
970.0890, 22529.00
971.2070, 22680.00
972.3240, 22822.00
973.4410, 22805.00
974.5580, 22573.00
975.6750, 22718.00
976.7920, 22766.00
977.9090, 23001.00
979.0250, 22810.00
980.1410, 22983.00
981.2580, 23209.00
982.3740, 23121.00
983.4890, 22953.00
984.6050, 22970.00
985.7200, 23174.00
986.8360, 22968.00
987.9510, 23279.00
989.0660, 23164.00
990.1810, 23335.00
991.2950, 23276.00
992.4100, 23343.00
993.5240, 23365.00
994.6390, 23518.00
995.7530, 23562.00
996.8660, 23627.00
997.9800, 23770.00
999.0940, 23842.00
1000.207, 23973.00
1001.320, 24329.00
1002.433, 24710.00
1003.546, 24533.00
1004.659, 24568.00
1005.772, 24174.00
1006.884, 24306.00
1007.996, 24196.00
1009.108, 24328.00
1010.220, 24258.00
1011.332, 24283.00
1012.444, 24227.00
1013.555, 24315.00
1014.666, 24299.00
1015.777, 24344.00
1016.888, 24410.00
1017.999, 24353.00
1019.110, 24335.00
1020.220, 24467.00
1021.331, 24398.00
1022.441, 24526.00
1023.551, 24468.00
1024.661, 24410.00
1025.770, 24743.00
1026.880, 24883.00
1027.989, 24651.00
1029.098, 24726.00
1030.207, 24880.00
1031.316, 25209.00
1032.425, 25146.00
1033.533, 25078.00
1034.642, 25379.00
1035.750, 25498.00
1036.858, 25417.00
1037.966, 25668.00
1039.073, 25840.00
1040.181, 25733.00
1041.288, 25931.00
1042.396, 25778.00
1043.503, 25798.00
1044.610, 26045.00
1045.716, 25966.00
1046.823, 25934.25
1047.929, 26027.00
1049.036, 25749.00
1050.142, 25977.00
1051.248, 25996.00
1052.353, 25848.00
1053.459, 25569.00
1054.564, 25681.00
1055.670, 25735.00
1056.775, 25570.00
1057.880, 25742.00
1058.985, 25488.00
1060.089, 25363.00
1061.194, 25607.00
1062.298, 25557.00
1063.402, 25607.00
1064.506, 25840.00
1065.610, 25583.00
1066.713, 25509.00
1067.817, 25526.00
1068.920, 25631.00
1070.023, 25605.00
1071.126, 25518.00
1072.229, 25403.00
1073.332, 25301.00
1074.435, 25306.00
1075.537, 25212.00
1076.639, 25195.00
1077.741, 25287.00
1078.843, 25338.00
1079.945, 25045.00
1081.046, 25414.00
1082.148, 25118.00
1083.249, 25263.00
1084.350, 24989.00
1085.451, 25002.00
1086.551, 25183.00
1087.652, 25037.00
1088.752, 25232.00
1089.853, 25391.00
1090.953, 25298.00
1092.053, 25256.00
1093.152, 25475.00
1094.252, 25602.00
1095.351, 25657.00
1096.451, 25622.00
1097.550, 25705.00
1098.649, 25721.00
1099.748, 25912.00
1100.846, 26013.00
1101.945, 26076.00
1103.043, 26372.00
1104.141, 26438.00
1105.239, 26563.00
1106.337, 26648.00
1107.434, 26852.50
1108.532, 26914.00
1109.629, 27280.00
1110.726, 27649.00
1111.823, 27851.00
1112.920, 28248.00
1114.017, 28651.00
1115.113, 28979.00
1116.210, 29120.00
1117.306, 29317.00
1118.402, 29497.00
1119.498, 29853.00
1120.593, 29906.00
1121.689, 30057.00
1122.784, 30500.00
1123.879, 30971.00
1124.974, 31357.00
1126.069, 31545.00
1127.164, 32449.00
1128.259, 33084.00
1129.353, 34130.00
1130.447, 34961.00
1131.541, 35831.00
1132.635, 36900.00
1133.729, 37937.00
1134.822, 38731.00
1135.916, 39443.00
1137.009, 39880.00
1138.102, 39968.00
1139.195, 39406.00
1140.288, 39135.00
1141.380, 38122.00
1142.473, 37258.00
1143.565, 35784.00
1144.657, 34800.00
1145.749, 33712.00
1146.841, 32706.00
1147.932, 31840.97
1149.024, 30827.00
1150.115, 30195.00
1151.206, 29761.00
1152.297, 29050.00
1153.388, 28563.00
1154.479, 28303.00
1155.569, 28125.00
1156.659, 27834.68
1157.750, 27547.00
1158.839, 27443.00
1159.929, 27253.00
1161.019, 27024.00
1162.108, 26927.00
1163.198, 26883.00
1164.287, 26890.00
1165.376, 26557.00
1166.465, 26491.00
1167.553, 26661.00
1168.642, 26379.00
1169.730, 26523.00
1170.818, 26296.00
1171.906, 26410.00
1172.994, 26334.00
1174.082, 26048.00
1175.170, 25830.00
1176.257, 26171.00
1177.344, 25886.00
1178.431, 25966.00
1179.518, 25850.00
1180.605, 25890.00
1181.691, 25861.00
1182.778, 25962.00
1183.864, 25775.00
1184.950, 25887.00
1186.036, 25920.00
1187.122, 25703.00
1188.207, 25897.00
1189.292, 25808.00
1190.378, 25906.00
1191.463, 25705.00
1192.548, 25795.00
1193.632, 25928.00
1194.717, 25676.00
1195.801, 25552.00
1196.886, 25804.00
1197.970, 25760.00
1199.054, 25717.00
1200.137, 25738.00
1201.221, 25814.00
1202.305, 25681.00
1203.388, 25673.00
1204.471, 25745.00
1205.554, 25644.00
1206.637, 25757.00
1207.719, 25756.00
1208.802, 25856.00
1209.884, 25873.00
1210.966, 25775.00
1212.048, 25865.00
1213.130, 25859.56
1214.212, 25913.00
1215.293, 25963.00
1216.374, 25971.00
1217.456, 25995.28
1218.536, 25916.00
1219.617, 25980.00
1220.698, 26008.00
1221.778, 25951.00
1222.859, 26180.00
1223.939, 25899.00
1225.019, 25886.00
1226.099, 26197.00
1227.178, 26249.00
1228.258, 26170.00
1229.337, 26224.00
1230.417, 26172.30
1231.496, 26183.69
1232.574, 26127.00
1233.653, 26249.00
1234.732, 26326.00
1235.810, 26456.00
1236.888, 26449.00
1237.966, 26344.00
1239.044, 26468.00
1240.122, 26486.00
1241.199, 26334.00
1242.277, 26562.00
1243.354, 26477.00
1244.431, 26580.00
1245.508, 26573.00
1246.585, 26441.00
1247.661, 26455.00
1248.738, 26694.00
1249.814, 26514.00
1250.890, 26687.00
1251.966, 26658.00
1253.042, 26553.00
1254.117, 26691.00
1255.193, 26610.00
1256.268, 26572.00
1257.343, 26524.00
1258.418, 26639.00
1259.493, 26800.00
1260.567, 26832.00
1261.642, 26954.00
1262.716, 26981.01
1263.790, 27005.00
1264.864, 26989.00
1265.938, 26927.00
1267.011, 26870.00
1268.085, 26905.00
1269.158, 26914.11
1270.231, 27086.00
1271.304, 27003.00
1272.377, 27104.00
1273.450, 27115.00
1274.522, 27089.43
1275.594, 27240.00
1276.666, 27091.00
1277.738, 27135.00
1278.810, 27202.00
1279.882, 27207.00
1280.953, 27216.00
1282.025, 27181.00
1283.096, 27045.00
1284.167, 26978.00
1285.238, 27073.00
1286.308, 26946.00
