##NAMES=Epidote
##RRUFFID=R050303
##IDEAL CHEMISTRY=Ca_2_Fe^3+^Al_2_(Si_2_O_7_)(SiO_4_)O(OH)
##LOCALITY=San Martin mine, Zacatecas, Mexico
##OWNER=RRUFF
##SOURCE=Eugene Schlepp
##DESCRIPTION=Green elongated prismatic crystals
##STATUS=The identification of this mineral has been confirmed by X-ray diffraction and chemical analysis
##URL=rruff.info/R050303
##MEASURED CHEMISTRY=Ca_2.00_Al_2.00_(Fe^3+^_0.97_Al_0.03_)(SiO_4_)(Si_2_O_7_)O(OH)
##PIN_ID=L01452
##ORIENTATION=Laser parallel to c* (0 0 1). Fiducial mark perpendicular to laser is parallel to a [1 0 0]
53.91000, 1813.000
55.14900, 1718.000
56.38700, 1774.000
57.62600, 1785.000
58.86400, 1838.000
60.10300, 1906.000
61.34100, 1980.000
62.57900, 2005.000
63.81700, 2213.000
65.05400, 2305.000
66.29200, 2626.000
67.52900, 2955.000
68.76700, 3396.000
70.00400, 3980.000
71.24100, 4336.000
72.47700, 4713.000
73.71400, 5494.000
74.95100, 6290.000
76.18700, 7290.000
77.42300, 8198.000
78.65900, 9297.000
79.89500, 10879.00
81.13100, 12653.00
82.36700, 15120.00
83.60200, 17974.00
84.83700, 20737.00
86.07200, 23560.00
87.30800, 26952.00
88.54200, 29153.00
89.77700, 31129.00
91.01200, 32473.00
92.24600, 33372.00
93.48000, 33503.00
94.71400, 32260.00
95.94800, 29394.00
97.18200, 25943.00
98.41600, 22670.00
99.64900, 19780.00
100.8830, 17527.00
102.1160, 15638.00
103.3490, 14555.00
104.5820, 14176.00
105.8150, 13680.00
107.0470, 14552.00
108.2800, 15314.00
109.5120, 13591.00
110.7440, 11938.00
111.9760, 11500.00
113.2080, 11339.00
114.4400, 11728.00
115.6710, 11583.00
116.9030, 11421.00
118.1340, 10854.00
119.3650, 10632.00
120.5960, 10812.00
121.8270, 10906.00
123.0580, 11020.00
124.2880, 10933.00
125.5190, 10749.00
126.7490, 10546.00
127.9790, 10536.00
129.2090, 10634.00
130.4390, 10734.00
131.6680, 10606.00
132.8980, 10596.00
134.1270, 10574.00
135.3560, 10500.00
136.5850, 10662.00
137.8140, 10960.00
139.0430, 11037.00
140.2710, 10975.00
141.5000, 10866.00
142.7280, 11016.00
143.9560, 11170.00
145.1840, 11273.00
146.4120, 11234.00
147.6390, 11434.00
148.8670, 11489.00
150.0940, 11827.00
151.3210, 12151.00
152.5490, 12453.00
153.7750, 12807.00
155.0020, 13317.00
156.2290, 13828.00
157.4550, 14658.00
158.6810, 15826.00
159.9080, 17022.00
161.1340, 18638.00
162.3590, 20351.00
163.5850, 22665.00
164.8110, 24873.00
166.0360, 26824.00
167.2610, 29079.00
168.4860, 30555.00
169.7110, 30890.00
170.9360, 29800.00
172.1610, 27982.00
173.3850, 25687.00
174.6100, 23267.00
175.8340, 20929.00
177.0580, 19449.00
178.2820, 17957.00
179.5050, 16889.00
180.7290, 16029.00
181.9520, 15314.00
183.1760, 15056.00
184.3990, 14810.00
185.6220, 14314.00
186.8450, 14173.00
188.0670, 13725.00
189.2900, 13675.00
190.5120, 13565.00
191.7340, 13501.00
192.9560, 13546.00
194.1780, 13633.00
195.4000, 13800.00
196.6220, 14225.00
197.8430, 14290.00
199.0640, 14479.00
200.2860, 14302.00
201.5070, 14111.00
202.7270, 13853.00
203.9480, 13461.00
205.1690, 13321.00
206.3890, 13152.00
207.6090, 13039.00
208.8290, 13244.00
210.0490, 13285.00
211.2690, 13706.00
212.4890, 13989.00
213.7080, 14427.00
214.9280, 15089.00
216.1470, 15814.00
217.3660, 16838.00
218.5850, 17812.00
219.8030, 19067.00
221.0220, 20363.00
222.2400, 21631.00
223.4590, 23038.00
224.6770, 24110.00
225.8950, 24812.00
227.1120, 24713.00
228.3300, 24476.00
229.5480, 24039.00
230.7650, 23651.00
231.9820, 23226.00
233.1990, 22826.00
234.4160, 23045.00
235.6330, 23030.00
236.8490, 23508.00
238.0660, 23180.00
239.2820, 22587.00
240.4980, 21404.00
241.7140, 19830.00
242.9300, 18324.00
244.1460, 17160.00
245.3610, 16050.00
246.5770, 15337.00
247.7920, 14691.00
249.0070, 14229.00
250.2220, 14008.00
251.4370, 13768.00
252.6510, 13634.00
253.8660, 13304.00
255.0800, 13265.00
256.2940, 13200.00
257.5080, 13489.00
258.7220, 13441.87
259.9360, 14018.00
261.1490, 13764.00
262.3630, 14160.00
263.5760, 14706.00
264.7890, 15346.00
266.0020, 16370.00
267.2150, 17327.00
268.4270, 18393.00
269.6400, 19561.00
270.8520, 20289.00
272.0640, 20780.00
273.2760, 20226.00
274.4880, 19274.00
275.7000, 18284.00
276.9120, 17150.00
278.1230, 16194.00
279.3340, 15713.00
280.5450, 15078.00
281.7560, 14898.00
282.9670, 14520.00
284.1780, 14478.00
285.3880, 14324.00
286.5980, 14365.00
287.8090, 14601.00
289.0190, 14717.20
290.2290, 14972.46
291.4380, 15129.00
292.6480, 15370.00
293.8570, 15330.00
295.0670, 15161.00
296.2760, 15359.00
297.4850, 15237.00
298.6930, 15163.00
299.9020, 15080.00
301.1110, 15515.00
302.3190, 15564.00
303.5270, 15870.00
304.7350, 16245.00
305.9430, 16575.00
307.1510, 17303.00
308.3580, 17937.00
309.5660, 18142.00
310.7730, 18221.00
311.9800, 17930.00
313.1870, 17389.00
314.3940, 17092.00
315.6010, 16693.00
316.8070, 16297.00
318.0130, 16153.00
319.2200, 15992.00
320.4260, 15805.00
321.6310, 15812.00
322.8370, 15908.00
324.0430, 15705.00
325.2480, 15619.00
326.4540, 15493.00
327.6590, 15432.00
328.8640, 16264.00
330.0680, 16516.65
331.2730, 15821.00
332.4780, 17820.00
333.6820, 18364.00
334.8860, 19038.00
336.0900, 18597.00
337.2940, 19019.00
338.4980, 20482.00
339.7010, 21937.00
340.9050, 23589.00
342.1080, 25733.00
343.3110, 27352.00
344.5140, 29039.00
345.7170, 29644.00
346.9200, 29665.00
348.1220, 28731.00
349.3240, 27235.00
350.5270, 25195.00
351.7290, 23438.00
352.9310, 21914.00
354.1320, 20370.00
355.3340, 19036.00
356.5350, 18071.00
357.7370, 17316.00
358.9380, 16809.00
360.1390, 16118.00
361.3400, 15758.00
362.5400, 15342.00
363.7410, 14823.00
364.9410, 14391.00
366.1410, 14040.42
367.3410, 13752.00
368.5410, 13413.00
369.7410, 13140.00
370.9400, 12907.00
372.1400, 12689.00
373.3390, 12596.00
374.5380, 12576.18
375.7370, 12634.00
376.9360, 12789.00
378.1350, 12952.00
379.3330, 13281.00
380.5310, 13556.00
381.7300, 13962.00
382.9280, 14141.00
384.1260, 14283.00
385.3230, 14378.00
386.5210, 14436.00
387.7180, 14337.00
388.9160, 13917.00
390.1130, 13587.00
391.3100, 13289.00
392.5060, 12910.00
393.7030, 12693.00
394.9000, 12508.00
396.0960, 12419.00
397.2920, 12130.00
398.4880, 12326.00
399.6840, 12157.00
400.8800, 12222.00
402.0750, 12338.00
403.2710, 12400.00
404.4660, 12484.00
405.6610, 12647.00
406.8560, 12912.00
408.0510, 13143.00
409.2450, 13499.00
410.4400, 14022.00
411.6340, 14526.00
412.8280, 15497.00
414.0220, 16273.00
415.2160, 17460.00
416.4100, 18820.00
417.6030, 20168.00
418.7970, 21942.00
419.9900, 23531.00
421.1830, 25143.00
422.3760, 26863.00
423.5690, 28508.00
424.7610, 30628.00
425.9540, 32937.00
427.1460, 36232.00
428.3380, 39432.00
429.5300, 42487.00
430.7220, 44730.00
431.9140, 44668.00
433.1050, 43063.00
434.2970, 40269.00
435.4880, 37263.00
436.6790, 34315.00
437.8700, 32547.00
439.0610, 31424.00
440.2510, 31046.00
441.4420, 30689.00
442.6320, 31081.00
443.8220, 31960.00
445.0120, 32691.00
446.2020, 33820.00
447.3910, 34466.00
448.5810, 34520.00
449.7700, 34453.00
450.9600, 34029.00
452.1490, 32993.00
453.3370, 31497.00
454.5260, 29472.00
455.7150, 27307.00
456.9030, 24953.00
458.0910, 22940.00
459.2800, 21190.00
460.4670, 19624.00
461.6550, 18545.00
462.8430, 17256.00
464.0300, 16461.00
465.2180, 15959.00
466.4050, 15455.00
467.5920, 14942.00
468.7790, 14405.00
469.9650, 14090.00
471.1520, 13670.00
472.3380, 13496.00
473.5250, 13311.00
474.7110, 13190.00
475.8970, 13016.00
477.0820, 12972.00
478.2680, 12895.00
479.4540, 13099.00
480.6390, 13201.00
481.8240, 13341.00
483.0090, 13596.00
484.1940, 13866.00
485.3780, 14116.00
486.5630, 14463.00
487.7470, 14961.00
488.9320, 15593.00
490.1160, 16444.00
491.3000, 17304.00
492.4830, 18069.00
493.6670, 18789.00
494.8500, 19391.58
496.0340, 19880.67
497.2170, 20349.00
498.4000, 20596.00
499.5820, 20814.93
500.7650, 20969.86
501.9480, 21135.00
503.1300, 21167.00
504.3120, 21329.00
505.4940, 21449.00
506.6760, 20989.00
507.8580, 20148.00
509.0390, 19025.00
510.2210, 17757.00
511.4020, 16946.00
512.5830, 15918.00
513.7640, 15060.00
514.9450, 14488.00
516.1250, 13980.00
517.3060, 13561.00
518.4860, 13316.00
519.6660, 13192.00
520.8460, 12955.00
522.0260, 12496.00
523.2060, 12456.00
524.3850, 12254.00
525.5650, 12163.00
526.7440, 12011.00
527.9230, 12078.00
529.1020, 12049.00
530.2810, 12010.00
531.4590, 12013.00
532.6380, 12012.00
533.8160, 12030.79
534.9940, 12053.00
536.1720, 12106.00
537.3500, 12134.58
538.5270, 12231.35
539.7050, 12257.00
540.8820, 12443.00
542.0590, 12599.00
543.2360, 12719.00
544.4130, 12991.00
545.5900, 13235.00
546.7660, 13384.00
547.9430, 13454.00
549.1190, 13967.00
550.2950, 14495.00
551.4710, 14906.00
552.6470, 15578.00
553.8220, 16682.00
554.9980, 17628.00
556.1730, 19148.00
557.3480, 20392.00
558.5230, 22139.00
559.6980, 23702.00
560.8730, 24299.00
562.0470, 23919.00
563.2220, 22645.00
564.3960, 21402.00
565.5700, 19668.00
566.7440, 18884.00
567.9170, 17963.00
569.0910, 17467.00
570.2640, 17474.00
571.4380, 17605.00
572.6110, 17861.00
573.7840, 18431.71
574.9570, 19148.00
576.1290, 20014.00
577.3020, 21146.00
578.4740, 22303.00
579.6460, 23639.00
580.8180, 25371.00
581.9900, 26631.00
583.1620, 27979.00
584.3330, 29193.00
585.5040, 30456.00
586.6760, 31657.00
587.8470, 33337.00
589.0180, 35172.00
590.1880, 37390.00
591.3590, 39271.00
592.5290, 41109.00
593.7000, 41669.00
594.8700, 41755.00
596.0400, 41455.00
597.2090, 39961.00
598.3790, 38277.00
599.5490, 36548.00
600.7180, 34813.00
601.8870, 33873.00
603.0560, 33121.00
604.2250, 32328.00
605.3940, 32090.00
606.5620, 31719.00
607.7300, 31652.00
608.8990, 31467.00
610.0670, 31051.00
611.2350, 29885.00
612.4020, 28630.00
613.5700, 26894.00
614.7370, 25256.00
615.9050, 23504.00
617.0720, 21790.00
618.2390, 20504.00
619.4060, 19144.56
620.5720, 17916.00
621.7390, 17046.00
622.9050, 16196.00
624.0710, 15575.00
625.2370, 15070.00
626.4030, 14714.00
627.5690, 14187.00
628.7340, 13817.00
629.9000, 13658.00
631.0650, 13394.00
632.2300, 13013.00
633.3950, 12836.00
634.5600, 12673.00
635.7240, 12477.00
636.8890, 12343.02
638.0530, 12148.00
639.2170, 12058.00
640.3810, 11997.00
641.5450, 11841.00
642.7080, 11789.00
643.8720, 11646.00
645.0350, 11534.00
646.1980, 11370.00
647.3610, 11346.00
648.5240, 11188.00
649.6870, 11091.00
650.8490, 10987.00
652.0120, 10972.00
653.1740, 10885.09
654.3360, 10904.00
655.4980, 10781.00
656.6600, 10773.13
657.8210, 10734.00
658.9830, 10673.00
660.1440, 10624.00
661.3050, 10580.00
662.4660, 10338.00
663.6270, 10467.00
664.7870, 10520.00
665.9480, 10338.00
667.1080, 10467.00
668.2680, 10346.00
669.4280, 10391.00
670.5880, 10393.00
671.7480, 10357.00
672.9070, 10389.78
674.0670, 10320.00
675.2260, 10385.00
676.3850, 10359.00
677.5440, 10308.00
678.7030, 10367.00
679.8610, 10346.00
681.0200, 10301.00
682.1780, 10317.80
683.3360, 10237.00
684.4940, 10274.00
685.6520, 10247.00
686.8090, 10190.00
687.9670, 10111.00
689.1240, 10254.00
690.2810, 10178.00
691.4380, 10179.00
692.5950, 10047.00
693.7520, 10076.00
694.9080, 10013.00
696.0650, 9972.000
697.2210, 10016.00
698.3770, 9948.000
699.5330, 9997.000
700.6880, 9865.000
701.8440, 9981.000
702.9990, 9944.000
704.1550, 9838.000
705.3100, 9800.000
706.4650, 9793.000
707.6190, 9812.000
708.7740, 9864.000
709.9290, 9732.000
711.0830, 9789.000
712.2370, 9716.000
713.3910, 9623.000
714.5450, 9718.000
715.6980, 9737.000
716.8520, 9785.000
718.0050, 9661.000
719.1580, 9776.000
720.3110, 9679.000
721.4640, 9585.000
722.6170, 9641.000
723.7700, 9743.000
724.9220, 9767.000
726.0740, 9577.000
727.2260, 9581.000
728.3780, 9539.000
729.5300, 9503.000
730.6810, 9509.167
731.8330, 9482.079
732.9840, 9502.000
734.1350, 9493.000
735.2860, 9477.000
736.4370, 9541.000
737.5880, 9506.692
738.7380, 9512.000
739.8880, 9538.000
741.0390, 9437.000
742.1890, 9552.000
743.3380, 9670.000
744.4880, 9535.000
745.6380, 9584.000
746.7870, 9631.000
747.9360, 9590.000
749.0850, 9509.000
750.2340, 9749.000
751.3830, 9634.000
752.5310, 9641.000
753.6800, 9515.000
754.8280, 9550.000
755.9760, 9594.000
757.1240, 9587.000
758.2720, 9604.000
759.4190, 9553.000
760.5670, 9474.000
761.7140, 9591.000
762.8610, 9613.000
764.0080, 9473.000
765.1550, 9592.000
766.3020, 9667.000
767.4480, 9543.000
768.5950, 9573.000
769.7410, 9665.000
770.8870, 9543.000
772.0330, 9550.000
773.1780, 9651.000
774.3240, 9613.000
775.4690, 9666.000
776.6140, 9616.000
777.7590, 9703.000
778.9040, 9667.000
780.0490, 9755.000
781.1940, 9679.000
782.3380, 9656.000
783.4820, 9757.000
784.6260, 9872.000
785.7700, 9684.000
786.9140, 9670.000
788.0580, 9733.000
789.2010, 9856.000
790.3450, 9801.000
791.4880, 9828.000
792.6310, 9838.000
793.7730, 9968.000
794.9160, 9815.000
796.0590, 9984.000
797.2010, 9894.000
798.3430, 10055.00
799.4850, 9969.000
800.6270, 10053.00
801.7690, 10117.00
802.9100, 10181.00
804.0520, 10251.00
805.1930, 10262.00
806.3340, 10331.00
807.4750, 10408.00
808.6160, 10409.00
809.7560, 10472.00
810.8970, 10491.00
812.0370, 10736.00
813.1770, 10811.00
814.3170, 10837.00
815.4570, 11038.00
816.5960, 11024.00
817.7360, 11334.00
818.8750, 11411.00
820.0140, 11574.00
821.1530, 11588.00
822.2920, 12038.00
823.4310, 12300.00
824.5690, 12331.00
825.7070, 12469.00
826.8460, 12696.00
827.9840, 12796.00
829.1220, 12880.00
830.2590, 12800.00
831.3970, 12932.00
832.5340, 12770.00
833.6710, 12911.00
834.8080, 12896.00
835.9450, 12961.00
837.0820, 12934.00
838.2190, 13003.00
839.3550, 12975.00
840.4910, 13038.00
841.6270, 12978.00
842.7630, 13024.00
843.8990, 13208.00
845.0350, 13132.00
846.1700, 13439.00
847.3060, 13617.00
848.4410, 13707.00
849.5760, 13935.00
850.7100, 14168.00
851.8450, 14419.00
852.9800, 14875.00
854.1140, 14787.00
855.2480, 15262.00
856.3820, 15456.00
857.5160, 15634.00
858.6500, 16020.00
859.7830, 16334.00
860.9170, 16491.00
862.0500, 16446.00
863.1830, 16608.00
864.3160, 16872.00
865.4480, 17063.00
866.5810, 17353.00
867.7130, 17504.00
868.8460, 17894.00
869.9780, 18358.00
871.1100, 18670.00
872.2410, 19331.00
873.3730, 20070.00
874.5050, 20847.00
875.6360, 21711.00
876.7670, 22456.00
877.8980, 23441.00
879.0290, 24238.00
880.1590, 24807.00
881.2900, 25200.72
882.4200, 25329.00
883.5500, 25356.00
884.6800, 25146.00
885.8100, 24684.00
886.9400, 24425.00
888.0690, 24330.00
889.1990, 24201.00
890.3280, 24294.00
891.4570, 24629.00
892.5860, 25030.00
893.7140, 25803.00
894.8430, 26547.00
895.9710, 27732.00
897.1000, 28891.00
898.2280, 30287.00
899.3560, 31935.00
900.4830, 33856.00
901.6110, 36199.00
902.7380, 38578.00
903.8660, 41342.00
904.9930, 44605.00
906.1200, 48099.00
907.2460, 51555.00
908.3730, 54891.00
909.5000, 57953.00
910.6260, 60046.00
911.7520, 61389.00
912.8780, 60972.44
914.0040, 60235.00
915.1290, 57284.00
916.2550, 54045.00
917.3800, 49858.00
918.5050, 45678.00
919.6300, 41308.00
920.7550, 37638.00
921.8800, 34029.00
923.0040, 31187.00
924.1290, 28435.00
925.2530, 26277.00
926.3770, 24327.00
927.5010, 22821.00
928.6250, 21268.00
929.7480, 20132.00
930.8720, 19156.00
931.9950, 18327.00
933.1180, 17492.00
934.2410, 16911.00
935.3640, 16275.00
936.4860, 15719.00
937.6090, 15364.00
938.7310, 15020.00
939.8530, 14615.00
940.9750, 14364.00
942.0970, 14274.00
943.2180, 14031.00
944.3400, 13874.00
945.4610, 13663.00
946.5820, 13504.00
947.7030, 13325.00
948.8240, 13428.00
949.9450, 13325.00
951.0650, 13280.00
952.1860, 13351.00
953.3060, 13339.00
954.4260, 13215.00
955.5460, 13299.00
956.6650, 13051.00
957.7850, 12918.00
958.9040, 12967.00
960.0230, 12909.00
961.1420, 12754.00
962.2610, 12703.00
963.3800, 12656.85
964.4990, 12592.00
965.6170, 12634.00
966.7350, 12621.00
967.8530, 12674.00
968.9710, 12944.00
970.0890, 12907.00
971.2070, 13194.00
972.3240, 13204.00
973.4410, 13440.00
974.5580, 13577.00
975.6750, 13586.00
976.7920, 13650.00
977.9090, 13377.00
979.0250, 13274.00
980.1410, 12960.00
981.2580, 12625.00
982.3740, 12312.00
983.4890, 12086.53
984.6050, 11932.00
985.7200, 11738.00
986.8360, 11637.00
987.9510, 11627.00
989.0660, 11447.00
990.1810, 11298.00
991.2950, 11358.00
992.4100, 11142.00
993.5240, 11110.00
994.6390, 11035.00
995.7530, 11028.00
996.8660, 11117.00
997.9800, 11093.00
999.0940, 11080.00
1000.207, 11030.00
1001.320, 11044.00
1002.433, 10956.00
1003.546, 10919.00
1004.659, 11097.00
1005.772, 11020.00
1006.884, 11206.00
1007.996, 11205.00
1009.108, 11355.00
1010.220, 11455.00
1011.332, 11664.00
1012.444, 11764.00
1013.555, 11718.00
1014.666, 11746.00
1015.777, 11698.00
1016.888, 11684.00
1017.999, 11673.00
1019.110, 11620.00
1020.220, 11613.00
1021.331, 11628.00
1022.441, 11652.28
1023.551, 11703.99
1024.661, 11784.00
1025.770, 11831.00
1026.880, 11957.00
1027.989, 12010.00
1029.098, 12147.00
1030.207, 12317.00
1031.316, 12587.00
1032.425, 12597.00
1033.533, 12766.00
1034.642, 12925.00
1035.750, 12965.00
1036.858, 13122.00
1037.966, 13013.00
1039.073, 12956.00
1040.181, 12986.00
1041.288, 12791.00
1042.396, 12720.00
1043.503, 12716.00
1044.610, 12537.00
1045.716, 12230.00
1046.823, 12114.00
1047.929, 12054.00
1049.036, 12117.00
1050.142, 11902.00
1051.248, 11888.00
1052.353, 11995.00
1053.459, 12036.00
1054.564, 11948.00
1055.670, 12059.00
1056.775, 11933.00
1057.880, 11994.00
1058.985, 12075.00
1060.089, 11999.00
1061.194, 11855.00
1062.298, 11899.00
1063.402, 11835.00
1064.506, 11983.00
1065.610, 11945.00
1066.713, 12129.00
1067.817, 12166.00
1068.920, 12367.00
1070.023, 12586.00
1071.126, 12712.00
1072.229, 13209.00
1073.332, 13542.00
1074.435, 14173.00
1075.537, 14958.00
1076.639, 15933.00
1077.741, 17095.00
1078.843, 18473.00
1079.945, 19834.00
1081.046, 21150.00
1082.148, 21584.00
1083.249, 21689.00
1084.350, 20958.00
1085.451, 19909.00
1086.551, 18203.00
1087.652, 16908.00
1088.752, 15769.00
1089.853, 14715.00
1090.953, 14018.00
1092.053, 13384.00
1093.152, 12760.00
1094.252, 12387.00
1095.351, 12197.00
1096.451, 11904.00
1097.550, 11805.00
1098.649, 11768.00
1099.748, 11458.00
1100.846, 11376.00
1101.945, 11225.00
1103.043, 11240.00
1104.141, 11052.00
1105.239, 11026.00
1106.337, 11099.00
1107.434, 10981.00
1108.532, 10922.00
1109.629, 10774.00
1110.726, 10862.00
1111.823, 10772.00
1112.920, 10727.00
1114.017, 10791.00
1115.113, 10768.00
1116.210, 10809.00
1117.306, 10796.00
1118.402, 10651.00
1119.498, 10565.00
1120.593, 10871.00
1121.689, 10887.00
1122.784, 10685.00
1123.879, 10653.00
1124.974, 10633.00
1126.069, 10568.00
1127.164, 10648.00
1128.259, 10590.00
1129.353, 10554.00
1130.447, 10629.00
1131.541, 10616.00
1132.635, 10564.34
1133.729, 10407.00
1134.822, 10445.00
1135.916, 10433.00
1137.009, 10393.00
1138.102, 10486.00
1139.195, 10438.42
1140.288, 10388.00
1141.380, 10414.00
1142.473, 10351.00
1143.565, 10319.00
1144.657, 10325.00
1145.749, 10350.00
1146.841, 10239.00
1147.932, 10190.00
1149.024, 10322.00
1150.115, 10246.00
1151.206, 10487.00
1152.297, 10333.00
1153.388, 10359.00
1154.479, 10185.00
1155.569, 10280.00
1156.659, 10351.00
1157.750, 10212.00
1158.839, 10374.00
1159.929, 10323.00
1161.019, 10207.00
1162.108, 10180.00
1163.198, 10165.39
1164.287, 10204.00
1165.376, 10188.00
1166.465, 10268.00
1167.553, 10293.00
1168.642, 10319.25
1169.730, 10249.00
1170.818, 10328.00
1171.906, 10253.00
1172.994, 10134.00
1174.082, 10327.00
1175.170, 10388.00
1176.257, 10231.00
1177.344, 10230.00
1178.431, 10239.00
1179.518, 10280.00
1180.605, 10183.00
1181.691, 10195.00
1182.778, 10319.00
1183.864, 10255.00
1184.950, 10244.00
1186.036, 10204.00
1187.122, 10269.00
1188.207, 10226.00
1189.292, 10159.00
1190.378, 10291.00
1191.463, 10169.00
1192.548, 10362.00
1193.632, 10224.00
1194.717, 10136.00
1195.801, 10201.00
1196.886, 10058.00
1197.970, 10240.00
1199.054, 10310.00
1200.137, 10057.00
1201.221, 10058.00
1202.305, 10202.00
1203.388, 10064.00
1204.471, 10127.00
1205.554, 10156.00
1206.637, 10044.00
1207.719, 9983.000
1208.802, 10045.00
1209.884, 10095.00
1210.966, 10024.00
1212.048, 10058.00
1213.130, 10126.00
1214.212, 10111.00
1215.293, 9993.000
1216.374, 9892.000
1217.456, 9906.000
1218.536, 10016.00
1219.617, 9805.000
1220.698, 9963.000
1221.778, 9886.000
1222.859, 9890.000
1223.939, 9848.000
1225.019, 9872.000
1226.099, 9797.000
1227.178, 9754.000
1228.258, 9787.000
1229.337, 9858.000
1230.417, 9731.000
1231.496, 9928.000
1232.574, 9957.000
1233.653, 9725.000
1234.732, 9745.000
1235.810, 9701.000
1236.888, 9652.540
1237.966, 9739.000
1239.044, 9697.000
