##NAMES=Epididymite
##RRUFFID=R060773
##IDEAL CHEMISTRY=Na_2_Be_2_Si_6_O_15_&#183;H_2_O
##LOCALITY=unknown
##OWNER=RRUFF
##SOURCE=Michael Scott
##DESCRIPTION=Colorless platy crystals forming a pseudohexagonal aggregate
##STATUS=The identification of this mineral has been confirmed by single-crystal X-ray diffraction.
##URL=rruff.info/R060773
##PIN_ID=M00148
##ORIENTATION=Laser parallel to c* (0 0 1). Fiducial mark perpendicular to laser is parallel to a [1 0 0]
102.1160, 11911.00
103.3490, 12251.00
104.5820, 12319.00
105.8150, 12573.00
107.0470, 12931.00
108.2800, 13091.37
109.5120, 13284.42
110.7440, 13607.00
111.9760, 13625.00
113.2080, 13901.00
114.4400, 14240.00
115.6710, 14546.00
116.9030, 15093.00
118.1340, 15852.00
119.3650, 16345.00
120.5960, 17218.00
121.8270, 17848.00
123.0580, 18356.00
124.2880, 18543.00
125.5190, 18780.00
126.7490, 19708.00
127.9790, 21148.00
129.2090, 23470.00
130.4390, 25410.00
131.6680, 26585.00
132.8980, 26078.00
134.1270, 24183.00
135.3560, 21915.00
136.5850, 19655.00
137.8140, 17747.00
139.0430, 16426.00
140.2710, 15578.00
141.5000, 14861.00
142.7280, 14770.00
143.9560, 14725.00
145.1840, 14537.00
146.4120, 14611.00
147.6390, 14517.00
148.8670, 14713.00
150.0940, 14631.00
151.3210, 14715.00
152.5490, 14561.00
153.7750, 14648.00
155.0020, 14705.00
156.2290, 14303.00
157.4550, 14555.00
158.6810, 14583.00
159.9080, 14722.00
161.1340, 15064.00
162.3590, 15255.00
163.5850, 15890.00
164.8110, 16441.00
166.0360, 16694.00
167.2610, 16790.24
168.4860, 16860.00
169.7110, 16421.00
170.9360, 16058.00
172.1610, 15487.00
173.3850, 15215.00
174.6100, 14968.00
175.8340, 14811.00
177.0580, 14700.00
178.2820, 14647.00
179.5050, 14684.00
180.7290, 14663.00
181.9520, 14749.49
183.1760, 14827.00
184.3990, 14963.00
185.6220, 15146.00
186.8450, 15283.00
188.0670, 15676.00
189.2900, 15691.00
190.5120, 16211.00
191.7340, 16527.00
192.9560, 16890.00
194.1780, 17298.00
195.4000, 17580.00
196.6220, 17573.00
197.8430, 17652.00
199.0640, 17375.00
200.2860, 17152.00
201.5070, 17076.00
202.7270, 16598.00
203.9480, 16199.00
205.1690, 15929.00
206.3890, 15595.86
207.6090, 15410.02
208.8290, 15142.00
210.0490, 15081.00
211.2690, 14972.00
212.4890, 14773.00
213.7080, 14809.00
214.9280, 14859.00
216.1470, 15032.00
217.3660, 14957.00
218.5850, 15011.00
219.8030, 15240.00
221.0220, 15334.00
222.2400, 15663.00
223.4590, 15899.00
224.6770, 16208.00
225.8950, 16678.00
227.1120, 16944.00
228.3300, 17362.00
229.5480, 17990.00
230.7650, 17825.00
231.9820, 18199.00
233.1990, 18473.00
234.4160, 18985.00
235.6330, 19509.00
236.8490, 20096.00
238.0660, 20636.00
239.2820, 21176.00
240.4980, 21281.00
241.7140, 21207.00
242.9300, 20451.00
244.1460, 19775.00
245.3610, 19183.00
246.5770, 18513.23
247.7920, 17621.00
249.0070, 17380.00
250.2220, 16918.00
251.4370, 16555.00
252.6510, 16613.00
253.8660, 16253.00
255.0800, 16313.00
256.2940, 16116.00
257.5080, 16095.00
258.7220, 16086.00
259.9360, 16214.00
261.1490, 15898.00
262.3630, 15697.00
263.5760, 15648.00
264.7890, 15373.00
266.0020, 15142.00
267.2150, 14923.00
268.4270, 14868.00
269.6400, 14894.00
270.8520, 14718.00
272.0640, 14748.00
273.2760, 14609.00
274.4880, 14719.00
275.7000, 14619.00
276.9120, 14473.00
278.1230, 14606.00
279.3340, 14667.00
280.5450, 14717.00
281.7560, 14765.00
282.9670, 14800.21
284.1780, 14921.00
285.3880, 14871.00
286.5980, 14923.00
287.8090, 14988.00
289.0190, 14802.00
290.2290, 14883.00
291.4380, 14650.00
292.6480, 14801.00
293.8570, 14845.00
295.0670, 15067.00
296.2760, 14984.00
297.4850, 14999.00
298.6930, 15154.00
299.9020, 15148.00
301.1110, 15192.00
302.3190, 15076.00
303.5270, 15016.00
304.7350, 14900.00
305.9430, 14920.00
307.1510, 15091.00
308.3580, 14994.00
309.5660, 15093.00
310.7730, 15099.00
311.9800, 15065.00
313.1870, 15297.00
314.3940, 15421.00
315.6010, 15625.00
316.8070, 15742.00
318.0130, 16086.00
319.2200, 16309.00
320.4260, 16339.00
321.6310, 16773.00
322.8370, 16984.00
324.0430, 17103.00
325.2480, 17336.00
326.4540, 17610.00
327.6590, 17854.00
328.8640, 17994.00
330.0680, 18368.00
331.2730, 18639.00
332.4780, 18956.00
333.6820, 18917.00
334.8860, 18680.00
336.0900, 18654.00
337.2940, 18404.00
338.4980, 18337.00
339.7010, 18398.00
340.9050, 18714.00
342.1080, 19044.00
343.3110, 19400.00
344.5140, 19564.00
345.7170, 19228.00
346.9200, 18921.00
348.1220, 18348.00
349.3240, 17844.00
350.5270, 17598.00
351.7290, 17361.00
352.9310, 17207.00
354.1320, 17059.00
355.3340, 17116.00
356.5350, 17116.00
357.7370, 17138.00
358.9380, 16859.00
360.1390, 17134.00
361.3400, 16998.00
362.5400, 16934.00
363.7410, 17104.00
364.9410, 17218.00
366.1410, 17247.00
367.3410, 17371.00
368.5410, 17481.00
369.7410, 17809.00
370.9400, 18122.12
372.1400, 18672.00
373.3390, 19063.00
374.5380, 19625.00
375.7370, 20346.00
376.9360, 21211.00
378.1350, 21821.00
379.3330, 22534.00
380.5310, 22644.00
381.7300, 22596.00
382.9280, 22265.00
384.1260, 22052.00
385.3230, 21905.00
386.5210, 21479.00
387.7180, 20806.00
388.9160, 20161.00
390.1130, 19327.00
391.3100, 18937.00
392.5060, 18563.00
393.7030, 18491.00
394.9000, 18553.17
396.0960, 18844.56
397.2920, 19297.00
398.4880, 20058.00
399.6840, 21063.00
400.8800, 22223.00
402.0750, 24021.00
403.2710, 26133.00
404.4660, 28894.00
405.6610, 31557.00
406.8560, 32703.00
408.0510, 31750.00
409.2450, 29200.00
410.4400, 26290.00
411.6340, 23357.00
412.8280, 21138.00
414.0220, 19555.00
415.2160, 18560.00
416.4100, 17811.00
417.6030, 17434.00
418.7970, 17346.00
419.9900, 17080.00
421.1830, 17091.00
422.3760, 16985.00
423.5690, 17048.00
424.7610, 16982.00
425.9540, 17153.00
427.1460, 17281.00
428.3380, 17346.00
429.5300, 17460.00
430.7220, 17854.00
431.9140, 17954.00
433.1050, 17921.00
434.2970, 18296.00
435.4880, 17882.00
436.6790, 17795.00
437.8700, 17458.00
439.0610, 17265.00
440.2510, 17007.00
441.4420, 17092.00
442.6320, 16873.00
443.8220, 16991.00
445.0120, 16952.00
446.2020, 16821.00
447.3910, 16761.00
448.5810, 16996.00
449.7700, 16998.00
450.9600, 17008.00
452.1490, 17079.00
453.3370, 17102.00
454.5260, 17136.00
455.7150, 17449.00
456.9030, 17726.00
458.0910, 17722.00
459.2800, 17821.00
460.4670, 17855.00
461.6550, 17794.00
462.8430, 18032.00
464.0300, 18205.00
465.2180, 18551.00
466.4050, 18819.00
467.5920, 19245.00
468.7790, 19792.00
469.9650, 21030.00
471.1520, 21591.00
472.3380, 22600.00
473.5250, 22904.00
474.7110, 23175.00
475.8970, 23081.00
477.0820, 22596.00
478.2680, 22102.00
479.4540, 22114.00
480.6390, 22268.00
481.8240, 22930.00
483.0090, 23317.00
484.1940, 23756.00
485.3780, 23688.00
486.5630, 22905.00
487.7470, 22095.00
488.9320, 21229.00
490.1160, 20452.00
491.3000, 19994.00
492.4830, 19602.00
493.6670, 19407.00
494.8500, 19273.00
496.0340, 19272.00
497.2170, 19525.00
498.4000, 19562.00
499.5820, 19923.00
500.7650, 20257.00
501.9480, 20630.00
503.1300, 20958.00
504.3120, 21501.00
505.4940, 22382.00
506.6760, 23280.00
507.8580, 24859.00
509.0390, 26806.00
510.2210, 29555.00
511.4020, 32683.00
512.5830, 36728.00
513.7640, 41519.00
514.9450, 47418.00
516.1250, 54537.00
517.3060, 60488.00
518.4860, 63699.00
519.6660, 62907.00
520.8460, 58496.00
522.0260, 51416.00
523.2060, 44268.00
524.3850, 37911.00
525.5650, 32172.00
526.7440, 28780.00
527.9230, 26174.00
529.1020, 24185.00
530.2810, 22944.00
531.4590, 21909.00
532.6380, 21184.00
533.8160, 20714.00
534.9940, 20200.00
536.1720, 19909.00
537.3500, 19653.00
538.5270, 19387.00
539.7050, 19239.00
540.8820, 19103.00
542.0590, 19060.00
543.2360, 18964.00
544.4130, 18786.00
545.5900, 18845.00
546.7660, 18605.00
547.9430, 18673.00
549.1190, 18563.00
550.2950, 18592.00
551.4710, 18640.00
552.6470, 18370.00
553.8220, 18496.00
554.9980, 18418.00
556.1730, 18518.00
557.3480, 18553.00
558.5230, 18593.00
559.6980, 18511.00
560.8730, 18546.00
562.0470, 18433.00
563.2220, 18594.00
564.3960, 18608.00
565.5700, 18511.00
566.7440, 18659.00
567.9170, 18653.00
569.0910, 18844.00
570.2640, 18804.00
571.4380, 18874.00
572.6110, 19001.00
573.7840, 19269.45
574.9570, 19796.00
576.1290, 20058.00
577.3020, 20692.00
578.4740, 21294.00
579.6460, 22232.00
580.8180, 23003.00
581.9900, 23803.00
583.1620, 24263.00
584.3330, 24199.00
585.5040, 23359.00
586.6760, 22688.00
587.8470, 21927.00
589.0180, 21203.00
590.1880, 20684.00
591.3590, 20163.00
592.5290, 19825.00
593.7000, 19675.00
594.8700, 19513.00
596.0400, 19428.00
597.2090, 19338.59
598.3790, 19190.00
599.5490, 19212.00
600.7180, 19307.00
601.8870, 19224.00
603.0560, 19495.00
604.2250, 19159.00
605.3940, 19129.00
606.5620, 19340.00
607.7300, 19122.00
608.8990, 19354.00
610.0670, 19334.00
611.2350, 19352.00
612.4020, 19229.00
613.5700, 19475.00
614.7370, 19586.00
615.9050, 19412.00
617.0720, 19512.00
618.2390, 19522.00
619.4060, 19566.00
620.5720, 19498.00
621.7390, 19622.76
622.9050, 19636.00
624.0710, 19827.00
625.2370, 20047.00
626.4030, 20147.00
627.5690, 20153.00
628.7340, 20424.00
629.9000, 20503.00
631.0650, 20758.00
632.2300, 20684.00
633.3950, 20898.00
634.5600, 20555.00
635.7240, 20478.00
636.8890, 20405.00
638.0530, 20218.00
639.2170, 19974.00
640.3810, 19758.00
641.5450, 19721.00
642.7080, 19668.00
643.8720, 19768.00
645.0350, 19782.00
646.1980, 19954.00
647.3610, 19804.00
648.5240, 19686.00
649.6870, 19882.00
650.8490, 19893.00
652.0120, 19703.00
653.1740, 19880.00
654.3360, 19673.00
655.4980, 19884.00
656.6600, 19724.00
657.8210, 19742.00
658.9830, 19841.00
660.1440, 19721.00
661.3050, 19829.00
662.4660, 19717.00
663.6270, 19759.00
664.7870, 19619.00
665.9480, 19789.00
667.1080, 19910.00
668.2680, 19862.00
669.4280, 19864.00
670.5880, 19925.00
671.7480, 19958.00
672.9070, 20034.00
674.0670, 20159.00
675.2260, 20136.00
676.3850, 20041.00
677.5440, 20096.00
678.7030, 20296.00
679.8610, 20088.00
681.0200, 20293.00
682.1780, 20324.00
683.3360, 20221.00
684.4940, 20264.00
685.6520, 20237.00
686.8090, 20065.00
687.9670, 20079.00
689.1240, 19955.00
690.2810, 19972.00
691.4380, 19890.00
692.5950, 20006.00
693.7520, 19826.00
694.9080, 20163.00
696.0650, 19970.00
697.2210, 20144.00
698.3770, 20022.00
699.5330, 20056.00
700.6880, 20204.00
701.8440, 20066.00
702.9990, 20137.00
704.1550, 19857.00
705.3100, 20073.00
706.4650, 20091.00
707.6190, 20185.00
708.7740, 20067.00
709.9290, 20129.00
711.0830, 20281.00
712.2370, 20134.00
713.3910, 20088.00
714.5450, 20189.00
715.6980, 20228.00
716.8520, 20246.61
718.0050, 20302.20
719.1580, 20292.00
720.3110, 20371.00
721.4640, 20348.00
722.6170, 20399.00
723.7700, 20404.31
724.9220, 20401.77
726.0740, 20429.00
727.2260, 20450.00
728.3780, 20507.00
729.5300, 20646.00
730.6810, 20656.00
731.8330, 20707.00
732.9840, 20530.00
734.1350, 20832.00
735.2860, 20823.00
736.4370, 20568.00
737.5880, 20706.00
738.7380, 20741.00
739.8880, 20734.00
741.0390, 20944.00
742.1890, 20742.00
743.3380, 20854.00
744.4880, 20863.00
745.6380, 20606.00
746.7870, 20698.00
747.9360, 20865.00
749.0850, 21043.00
750.2340, 20897.00
751.3830, 21002.00
752.5310, 21171.00
753.6800, 20914.00
754.8280, 21121.00
755.9760, 21270.00
757.1240, 20970.00
758.2720, 21426.00
759.4190, 21251.00
760.5670, 20996.00
761.7140, 21256.00
762.8610, 21140.00
764.0080, 21306.00
765.1550, 21266.00
766.3020, 21395.00
767.4480, 21244.00
768.5950, 21262.00
769.7410, 21312.00
770.8870, 21283.00
772.0330, 21403.00
773.1780, 21248.00
774.3240, 21430.00
775.4690, 21380.00
776.6140, 21271.00
777.7590, 21538.00
778.9040, 21329.00
780.0490, 21502.00
781.1940, 21535.00
782.3380, 21474.00
783.4820, 21540.00
784.6260, 21491.00
785.7700, 21649.00
786.9140, 21692.00
788.0580, 21662.00
789.2010, 21607.00
790.3450, 21514.00
791.4880, 21522.00
792.6310, 21728.00
793.7730, 21818.00
794.9160, 21766.00
796.0590, 21810.00
797.2010, 21847.00
798.3430, 21899.00
799.4850, 22023.00
800.6270, 21863.00
801.7690, 21976.00
802.9100, 22100.00
804.0520, 21939.00
805.1930, 22137.00
806.3340, 22032.00
807.4750, 22274.00
808.6160, 22238.00
809.7560, 22442.00
810.8970, 22525.74
812.0370, 22598.00
813.1770, 22700.00
814.3170, 22733.00
815.4570, 22781.00
816.5960, 23023.00
817.7360, 23066.00
818.8750, 22970.00
820.0140, 22875.00
821.1530, 22808.00
822.2920, 22753.00
823.4310, 22666.00
824.5690, 22819.00
825.7070, 22865.00
826.8460, 22769.00
827.9840, 22642.00
829.1220, 22802.00
830.2590, 22592.00
831.3970, 22646.00
832.5340, 22438.00
833.6710, 22713.00
834.8080, 22749.00
835.9450, 22513.00
837.0820, 22772.00
838.2190, 22734.00
839.3550, 22901.00
840.4910, 22830.00
841.6270, 22841.00
842.7630, 22748.00
843.8990, 22877.00
845.0350, 23159.00
846.1700, 23102.00
847.3060, 23082.00
848.4410, 23343.00
849.5760, 23356.00
850.7100, 23545.00
851.8450, 23675.00
852.9800, 23959.00
854.1140, 24136.00
855.2480, 24449.00
856.3820, 24527.00
857.5160, 24555.00
858.6500, 24769.00
859.7830, 24688.00
860.9170, 24577.00
862.0500, 24588.00
863.1830, 24466.18
864.3160, 24443.56
865.4480, 24283.00
866.5810, 24311.00
867.7130, 24214.00
868.8460, 24010.00
869.9780, 23963.00
871.1100, 23834.00
872.2410, 24107.00
873.3730, 23826.00
874.5050, 23740.00
875.6360, 23999.00
876.7670, 23910.00
877.8980, 23819.00
879.0290, 23754.00
880.1590, 23918.00
881.2900, 23550.00
882.4200, 23746.00
883.5500, 23646.00
884.6800, 23849.00
885.8100, 23650.00
886.9400, 23581.00
888.0690, 23799.00
889.1990, 23620.00
890.3280, 23818.00
891.4570, 23728.00
892.5860, 23706.00
893.7140, 23589.00
894.8430, 23674.00
895.9710, 23750.00
897.1000, 23701.00
898.2280, 23907.00
899.3560, 23925.00
900.4830, 23821.00
901.6110, 23821.00
902.7380, 23900.00
903.8660, 23856.00
904.9930, 23765.00
906.1200, 23750.00
907.2460, 23995.00
908.3730, 23857.00
909.5000, 23923.00
910.6260, 23697.00
911.7520, 23866.00
912.8780, 24081.00
914.0040, 23796.00
915.1290, 23748.00
916.2550, 23922.00
917.3800, 23932.00
918.5050, 24089.00
919.6300, 24011.00
920.7550, 24049.00
921.8800, 24058.49
923.0040, 24006.00
924.1290, 24037.00
925.2530, 23966.00
926.3770, 23968.00
927.5010, 24062.00
928.6250, 24031.00
929.7480, 24044.00
930.8720, 24126.00
931.9950, 24150.00
933.1180, 24108.00
934.2410, 24348.00
935.3640, 24337.00
936.4860, 24303.00
937.6090, 24297.00
938.7310, 24334.00
939.8530, 24479.00
940.9750, 24339.00
942.0970, 24290.00
943.2180, 24431.00
944.3400, 24519.00
945.4610, 24438.00
946.5820, 24493.00
947.7030, 24503.00
948.8240, 24451.00
949.9450, 24781.00
951.0650, 24836.00
952.1860, 24586.00
953.3060, 24684.00
954.4260, 24470.00
955.5460, 24712.00
956.6650, 24896.00
957.7850, 24679.00
958.9040, 24559.00
960.0230, 24819.00
961.1420, 24907.00
962.2610, 24849.00
963.3800, 24905.00
964.4990, 24999.00
965.6170, 25010.00
966.7350, 24888.00
967.8530, 24805.00
968.9710, 24943.00
970.0890, 25130.00
971.2070, 24954.00
972.3240, 25108.00
973.4410, 24980.00
974.5580, 25132.00
975.6750, 25275.00
976.7920, 25008.00
977.9090, 25375.00
979.0250, 25275.00
980.1410, 25383.00
981.2580, 25426.00
982.3740, 25375.00
983.4890, 25528.00
984.6050, 25426.00
985.7200, 25477.00
986.8360, 25641.00
987.9510, 25445.00
989.0660, 25556.00
990.1810, 25751.00
991.2950, 25760.00
992.4100, 25817.00
993.5240, 25861.00
994.6390, 25775.00
995.7530, 25924.00
996.8660, 26158.00
997.9800, 26065.00
999.0940, 26174.00
1000.207, 26321.00
1001.320, 26650.00
1002.433, 26838.00
1003.546, 26768.00
1004.659, 26840.00
1005.772, 26717.00
1006.884, 26710.00
1007.996, 26734.00
1009.108, 26511.00
1010.220, 26652.00
1011.332, 26540.00
1012.444, 26562.00
1013.555, 26890.00
1014.666, 26852.00
1015.777, 26866.00
1016.888, 27081.00
1017.999, 27043.00
1019.110, 27183.00
1020.220, 27187.00
1021.331, 27361.00
1022.441, 27543.00
1023.551, 27631.88
1024.661, 27579.00
1025.770, 27924.00
1026.880, 28030.00
1027.989, 28209.00
1029.098, 28451.00
1030.207, 28799.00
1031.316, 29001.00
1032.425, 29298.00
1033.533, 29837.00
1034.642, 29817.00
1035.750, 29977.00
1036.858, 30447.00
1037.966, 30970.00
1039.073, 30858.00
1040.181, 30932.00
1041.288, 31138.00
1042.396, 30626.00
1043.503, 30552.00
1044.610, 30592.00
1045.716, 30337.00
1046.823, 30360.00
1047.929, 30084.00
1049.036, 30105.00
1050.142, 29943.00
1051.248, 29796.00
1052.353, 29697.00
1053.459, 29598.00
1054.564, 29393.00
1055.670, 29137.00
1056.775, 29401.00
1057.880, 29089.00
1058.985, 29183.00
1060.089, 29251.00
1061.194, 29307.00
1062.298, 29028.00
1063.402, 29302.00
1064.506, 29202.00
1065.610, 29428.00
1066.713, 29183.00
1067.817, 29023.00
1068.920, 29077.00
1070.023, 28997.00
1071.126, 28783.00
1072.229, 28942.00
1073.332, 28770.00
1074.435, 28588.00
1075.537, 28397.00
1076.639, 28351.49
1077.741, 28264.00
1078.843, 28340.00
1079.945, 28293.00
1081.046, 28411.00
1082.148, 28294.00
1083.249, 28240.00
1084.350, 28398.00
1085.451, 28299.00
1086.551, 27988.00
1087.652, 28095.00
1088.752, 28212.00
1089.853, 28165.00
1090.953, 28430.00
1092.053, 28355.00
1093.152, 28389.00
1094.252, 28786.00
1095.351, 28627.00
1096.451, 28737.00
1097.550, 28958.00
1098.649, 28717.00
1099.748, 29133.00
1100.846, 29193.00
1101.945, 29283.00
1103.043, 29594.00
1104.141, 29657.00
1105.239, 29679.00
1106.337, 29816.00
1107.434, 29851.00
1108.532, 30029.00
1109.629, 30138.00
1110.726, 30480.00
1111.823, 30486.00
1112.920, 30864.00
1114.017, 31194.00
1115.113, 31302.00
1116.210, 31270.00
1117.306, 31361.00
1118.402, 31541.00
1119.498, 31726.38
1120.593, 32046.00
1121.689, 32305.00
1122.784, 32759.00
1123.879, 33141.00
1124.974, 33549.00
1126.069, 34027.00
1127.164, 34521.00
1128.259, 35280.00
1129.353, 36054.00
1130.447, 36783.00
1131.541, 37498.94
1132.635, 38061.00
1133.729, 38816.00
1134.822, 39407.00
1135.916, 39892.00
1137.009, 40171.00
1138.102, 40200.68
1139.195, 40067.17
1140.288, 39685.00
1141.380, 39127.00
1142.473, 38327.00
1143.565, 37290.00
1144.657, 36238.00
1145.749, 35418.00
1146.841, 34466.00
1147.932, 33677.00
1149.024, 33116.00
1150.115, 32446.00
1151.206, 32136.00
1152.297, 31504.00
1153.388, 31167.00
1154.479, 30955.00
1155.569, 30928.00
1156.659, 30666.00
1157.750, 30445.00
1158.839, 30403.00
1159.929, 30052.00
1161.019, 30046.00
1162.108, 29895.00
1163.198, 29754.00
1164.287, 29861.00
1165.376, 29645.00
1166.465, 29814.00
1167.553, 29357.00
1168.642, 29749.00
1169.730, 29525.00
1170.818, 29737.00
1171.906, 29612.00
1172.994, 29548.00
1174.082, 29534.00
1175.170, 29439.03
1176.257, 29601.00
1177.344, 29391.00
1178.431, 29328.00
1179.518, 29458.00
1180.605, 29425.00
1181.691, 29435.00
1182.778, 29513.84
1183.864, 29473.00
1184.950, 29606.00
1186.036, 29404.00
1187.122, 29392.00
1188.207, 29506.00
1189.292, 29342.00
1190.378, 29316.00
1191.463, 29274.00
1192.548, 29260.61
1193.632, 29355.00
1194.717, 29361.00
1195.801, 29425.00
1196.886, 29572.00
1197.970, 29294.00
1199.054, 29404.00
1200.137, 29488.00
1201.221, 29559.00
1202.305, 29347.00
1203.388, 29655.00
1204.471, 29398.00
1205.554, 29611.00
1206.637, 29519.00
1207.719, 29571.00
1208.802, 29388.00
1209.884, 29513.00
1210.966, 29391.00
1212.048, 29596.00
1213.130, 29751.00
1214.212, 29613.00
1215.293, 29754.00
1216.374, 29638.00
1217.456, 29923.00
1218.536, 29889.00
1219.617, 29973.00
1220.698, 29915.00
1221.778, 30013.00
1222.859, 29803.00
1223.939, 29900.00
1225.019, 29999.00
1226.099, 30014.00
1227.178, 30130.00
1228.258, 29994.00
1229.337, 29950.00
1230.417, 30009.00
1231.496, 30120.00
1232.574, 30358.00
1233.653, 30063.00
1234.732, 30411.00
1235.810, 30236.00
1236.888, 30433.00
1237.966, 30278.00
1239.044, 30512.00
1240.122, 30278.00
1241.199, 30341.00
1242.277, 30416.00
1243.354, 30605.00
1244.431, 30435.00
1245.508, 30414.00
1246.585, 30505.00
1247.661, 30404.00
1248.738, 30520.67
1249.814, 30773.00
1250.890, 30684.00
1251.966, 30685.00
1253.042, 30740.00
1254.117, 30623.00
1255.193, 30597.00
1256.268, 30760.00
1257.343, 30908.00
1258.418, 30769.00
1259.493, 30756.00
1260.567, 30795.00
1261.642, 30931.00
1262.716, 31108.00
1263.790, 30879.00
1264.864, 30831.00
1265.938, 31056.00
1267.011, 31241.00
1268.085, 30922.00
1269.158, 31386.00
1270.231, 30955.00
1271.304, 31453.00
1272.377, 31037.00
1273.450, 31157.00
1274.522, 31186.00
1275.594, 31249.00
1276.666, 31190.00
1277.738, 31207.20
1278.810, 31219.08
1279.882, 31113.00
1280.953, 31279.00
1282.025, 31142.00
1283.096, 31252.00
1284.167, 31201.00
1285.238, 31301.00
1286.308, 31083.00
