##NAMES=Epidote
##RRUFFID=R050191
##IDEAL CHEMISTRY=Ca_2_Fe^3+^Al_2_(Si_2_O_7_)(SiO_4_)O(OH)
##LOCALITY=Pampa Blanca, Castrovirreyna Province, Huancavelica Department, Peru
##OWNER=RRUFF
##SOURCE=Dave Bunk Minerals
##DESCRIPTION=Cluster of green elongated prismatic crystals
##STATUS=The identification of this mineral has been confirmed by X-ray diffraction and chemical analysis
##URL=rruff.info/R050191
##MEASURED CHEMISTRY=Ca_2.00_Al_2.00_(Fe^3+^_0.84_Al_0.16_)(SiO_4_)(Si_2_O_7_)O(OH)
##PIN_ID=L01970
##ORIENTATION=Laser parallel to b* (0 1 0). Fiducial mark perpendicular to laser is parallel to c [0 0 1]
53.91000, 614.0000
55.14900, 592.0000
56.38700, 612.0000
57.62600, 652.0000
58.86400, 670.0000
60.10300, 740.0000
61.34100, 802.0000
62.57900, 912.0000
63.81700, 1042.000
65.05400, 1193.000
66.29200, 1421.000
67.52900, 1651.000
68.76700, 2048.000
70.00400, 2467.000
71.24100, 2759.000
72.47700, 3070.000
73.71400, 3577.000
74.95100, 4178.000
76.18700, 4862.000
77.42300, 5627.000
78.65900, 6221.000
79.89500, 7137.000
81.13100, 8101.000
82.36700, 9205.000
83.60200, 10379.00
84.83700, 11504.00
86.07200, 12631.00
87.30800, 13482.00
88.54200, 14308.00
89.77700, 14999.00
91.01200, 15088.00
92.24600, 14999.00
93.48000, 14071.00
94.71400, 13484.00
95.94800, 12995.00
97.18200, 12254.00
98.41600, 11710.00
99.64900, 11742.00
100.8830, 11418.00
102.1160, 11037.00
103.3490, 10613.13
104.5820, 10871.69
105.8150, 11024.68
107.0470, 11077.77
108.2800, 10731.80
109.5120, 10901.13
110.7440, 10863.95
111.9760, 10818.30
113.2080, 11060.16
114.4400, 10772.22
115.6710, 11009.51
116.9030, 11037.15
118.1340, 11092.00
119.3650, 11090.00
120.5960, 11211.00
121.8270, 11499.00
123.0580, 11710.61
124.2880, 12294.00
125.5190, 12399.00
126.7490, 12777.00
127.9790, 13204.00
129.2090, 13935.00
130.4390, 14382.00
131.6680, 14821.00
132.8980, 14346.00
134.1270, 14025.00
135.3560, 14024.00
136.5850, 13698.00
137.8140, 13830.00
139.0430, 13871.00
140.2710, 13846.00
141.5000, 14104.00
142.7280, 14346.00
143.9560, 14964.00
145.1840, 15361.00
146.4120, 15541.00
147.6390, 15523.00
148.8670, 15464.00
150.0940, 15582.00
151.3210, 15896.00
152.5490, 15979.00
153.7750, 16542.00
155.0020, 17377.00
156.2290, 18479.00
157.4550, 19891.00
158.6810, 21309.00
159.9080, 23317.00
161.1340, 25545.00
162.3590, 27982.00
163.5850, 30431.00
164.8110, 32295.00
166.0360, 33065.00
167.2610, 32485.00
168.4860, 31035.00
169.7110, 29343.00
170.9360, 27171.00
172.1610, 25156.00
173.3850, 23134.00
174.6100, 21195.00
175.8340, 19533.00
177.0580, 18068.00
178.2820, 16940.00
179.5050, 16086.00
180.7290, 15237.00
181.9520, 14695.00
183.1760, 14298.00
184.3990, 13848.00
185.6220, 13513.00
186.8450, 13455.00
188.0670, 13366.00
189.2900, 13304.00
190.5120, 13132.00
191.7340, 13422.00
192.9560, 13500.00
194.1780, 13687.00
195.4000, 14079.00
196.6220, 14403.00
197.8430, 14700.00
199.0640, 15316.00
200.2860, 15675.00
201.5070, 15611.00
202.7270, 15376.00
203.9480, 15026.00
205.1690, 14659.00
206.3890, 14176.00
207.6090, 13844.00
208.8290, 13560.00
210.0490, 13182.00
211.2690, 13160.00
212.4890, 12917.00
213.7080, 12848.00
214.9280, 13037.00
216.1470, 12970.00
217.3660, 13166.00
218.5850, 13103.00
219.8030, 13209.00
221.0220, 13461.00
222.2400, 13714.00
223.4590, 13981.00
224.6770, 14506.00
225.8950, 14791.00
227.1120, 15326.00
228.3300, 15851.00
229.5480, 16858.00
230.7650, 17946.00
231.9820, 19208.00
233.1990, 21047.00
234.4160, 23064.00
235.6330, 25337.00
236.8490, 28196.00
238.0660, 31013.00
239.2820, 33418.00
240.4980, 35082.00
241.7140, 35541.00
242.9300, 34968.00
244.1460, 33435.00
245.3610, 31585.00
246.5770, 29502.00
247.7920, 27165.00
249.0070, 24741.00
250.2220, 22547.00
251.4370, 20512.00
252.6510, 18736.00
253.8660, 17651.00
255.0800, 16620.00
256.2940, 16009.00
257.5080, 15607.00
258.7220, 15149.20
259.9360, 14836.81
261.1490, 14716.00
262.3630, 14501.00
263.5760, 14304.00
264.7890, 14501.00
266.0020, 14528.00
267.2150, 14628.00
268.4270, 14957.00
269.6400, 15120.00
270.8520, 15525.00
272.0640, 15771.00
273.2760, 16011.00
274.4880, 16160.02
275.7000, 16471.00
276.9120, 16327.00
278.1230, 16339.00
279.3340, 16425.00
280.5450, 16622.00
281.7560, 17236.00
282.9670, 17872.00
284.1780, 18722.00
285.3880, 20160.00
286.5980, 21496.00
287.8090, 23410.00
289.0190, 25258.00
290.2290, 27249.00
291.4380, 28559.00
292.6480, 28597.00
293.8570, 28230.00
295.0670, 27539.00
296.2760, 26425.00
297.4850, 24880.00
298.6930, 23009.00
299.9020, 21513.00
301.1110, 20244.00
302.3190, 18809.00
303.5270, 17951.00
304.7350, 17022.00
305.9430, 16410.00
307.1510, 15687.00
308.3580, 15166.00
309.5660, 14912.00
310.7730, 14755.00
311.9800, 14646.00
313.1870, 14564.00
314.3940, 14728.00
315.6010, 14868.00
316.8070, 14994.00
318.0130, 15282.00
319.2200, 15529.00
320.4260, 15908.00
321.6310, 16524.00
322.8370, 17072.00
324.0430, 17380.00
325.2480, 17650.00
326.4540, 17979.00
327.6590, 18037.00
328.8640, 18373.00
330.0680, 18420.00
331.2730, 18944.00
332.4780, 19434.00
333.6820, 20256.00
334.8860, 21236.00
336.0900, 22297.00
337.2940, 24085.00
338.4980, 25989.00
339.7010, 28386.00
340.9050, 30931.00
342.1080, 34125.00
343.3110, 37190.00
344.5140, 40561.00
345.7170, 43644.00
346.9200, 46164.00
348.1220, 47336.00
349.3240, 46987.00
350.5270, 44987.00
351.7290, 42234.00
352.9310, 38489.00
354.1320, 34900.00
355.3340, 31366.00
356.5350, 27802.00
357.7370, 25210.00
358.9380, 22867.00
360.1390, 20964.00
361.3400, 19608.00
362.5400, 17916.00
363.7410, 17152.00
364.9410, 16224.00
366.1410, 15613.00
367.3410, 15224.00
368.5410, 14719.00
369.7410, 14447.00
370.9400, 14136.00
372.1400, 13583.00
373.3390, 13432.00
374.5380, 13244.00
375.7370, 13190.00
376.9360, 13031.00
378.1350, 13041.00
379.3330, 13120.00
380.5310, 12936.00
381.7300, 13001.00
382.9280, 13027.00
384.1260, 13145.00
385.3230, 13205.00
386.5210, 13284.00
387.7180, 13304.00
388.9160, 13493.00
390.1130, 13319.00
391.3100, 13360.00
392.5060, 13243.00
393.7030, 13350.00
394.9000, 13319.00
396.0960, 13374.00
397.2920, 13303.00
398.4880, 13316.00
399.6840, 13389.00
400.8800, 13363.00
402.0750, 13325.00
403.2710, 13340.00
404.4660, 13421.00
405.6610, 13548.00
406.8560, 13662.00
408.0510, 13927.00
409.2450, 14152.00
410.4400, 14461.00
411.6340, 14966.00
412.8280, 15491.00
414.0220, 15954.00
415.2160, 16822.00
416.4100, 17695.00
417.6030, 18777.00
418.7970, 20208.00
419.9900, 21534.00
421.1830, 22847.00
422.3760, 23943.00
423.5690, 24803.00
424.7610, 25723.00
425.9540, 26350.00
427.1460, 27296.00
428.3380, 28100.00
429.5300, 29546.00
430.7220, 31083.00
431.9140, 32635.00
433.1050, 33798.00
434.2970, 34629.00
435.4880, 35162.00
436.6790, 35485.00
437.8700, 36120.00
439.0610, 37173.00
440.2510, 38756.00
441.4420, 40865.00
442.6320, 44056.00
443.8220, 47357.00
445.0120, 51259.00
446.2020, 55654.00
447.3910, 59450.00
448.5810, 62128.00
449.7700, 63189.00
450.9600, 63370.00
452.1490, 62124.00
453.3370, 60211.00
454.5260, 57840.00
455.7150, 54564.00
456.9030, 50464.00
458.0910, 46863.00
459.2800, 43264.00
460.4670, 40048.00
461.6550, 36541.00
462.8430, 33397.00
464.0300, 30901.00
465.2180, 28332.00
466.4050, 26408.00
467.5920, 24394.00
468.7790, 22994.00
469.9650, 21706.00
471.1520, 20855.00
472.3380, 20117.00
473.5250, 19603.00
474.7110, 19156.00
475.8970, 18867.84
477.0820, 18710.55
478.2680, 18665.00
479.4540, 18719.00
480.6390, 18887.00
481.8240, 19096.00
483.0090, 19187.00
484.1940, 19450.00
485.3780, 19916.00
486.5630, 20592.95
487.7470, 21504.00
488.9320, 22556.00
490.1160, 23723.00
491.3000, 25243.00
492.4830, 26417.00
493.6670, 28161.00
494.8500, 29488.00
496.0340, 30504.00
497.2170, 31095.89
498.4000, 31529.00
499.5820, 31200.00
500.7650, 30726.00
501.9480, 29892.00
503.1300, 28949.00
504.3120, 28171.00
505.4940, 27160.00
506.6760, 26234.34
507.8580, 25276.00
509.0390, 24179.00
510.2210, 23024.00
511.4020, 21758.00
512.5830, 20774.00
513.7640, 19745.00
514.9450, 18930.00
516.1250, 18567.00
517.3060, 17906.00
518.4860, 17684.00
519.6660, 17891.00
520.8460, 17527.00
522.0260, 17427.00
523.2060, 17050.00
524.3850, 16993.00
525.5650, 16575.00
526.7440, 16155.00
527.9230, 15651.00
529.1020, 15253.00
530.2810, 14911.00
531.4590, 14695.00
532.6380, 14488.00
533.8160, 14202.00
534.9940, 14200.00
536.1720, 14236.00
537.3500, 14008.00
538.5270, 14162.00
539.7050, 14043.00
540.8820, 13974.00
542.0590, 14071.00
543.2360, 14114.00
544.4130, 14224.66
545.5900, 14285.00
546.7660, 14623.00
547.9430, 14790.00
549.1190, 15211.00
550.2950, 15494.00
551.4710, 16177.00
552.6470, 16911.00
553.8220, 17776.00
554.9980, 19183.00
556.1730, 20848.00
557.3480, 23188.00
558.5230, 25435.00
559.6980, 27838.00
560.8730, 30641.00
562.0470, 32505.00
563.2220, 33662.00
564.3960, 33693.00
565.5700, 32109.00
566.7440, 30275.00
567.9170, 27955.00
569.0910, 25296.00
570.2640, 23028.00
571.4380, 21117.00
572.6110, 19584.00
573.7840, 18754.00
574.9570, 18142.00
576.1290, 18032.00
577.3020, 17914.00
578.4740, 18050.00
579.6460, 18552.00
580.8180, 19006.00
581.9900, 19582.00
583.1620, 20245.00
584.3330, 20662.00
585.5040, 21539.00
586.6760, 21915.00
587.8470, 22807.00
589.0180, 23349.00
590.1880, 24072.00
591.3590, 25082.00
592.5290, 26391.00
593.7000, 27415.00
594.8700, 28453.00
596.0400, 29451.00
597.2090, 29589.00
598.3790, 29334.00
599.5490, 29039.00
600.7180, 28151.00
601.8870, 27194.00
603.0560, 26259.00
604.2250, 24866.00
605.3940, 24180.00
606.5620, 23214.00
607.7300, 22556.00
608.8990, 21841.00
610.0670, 21391.00
611.2350, 21021.00
612.4020, 20331.00
613.5700, 20036.00
614.7370, 19393.00
615.9050, 18880.00
617.0720, 18534.00
618.2390, 17828.00
619.4060, 17549.00
620.5720, 17264.00
621.7390, 16836.00
622.9050, 16577.00
624.0710, 16508.00
625.2370, 16101.00
626.4030, 15975.00
627.5690, 15652.00
628.7340, 15371.00
629.9000, 15085.00
631.0650, 14843.00
632.2300, 14791.00
633.3950, 14495.00
634.5600, 14534.00
635.7240, 14346.00
636.8890, 14435.00
638.0530, 14506.00
639.2170, 14503.00
640.3810, 14617.00
641.5450, 14430.00
642.7080, 14474.00
643.8720, 14631.00
645.0350, 14487.00
646.1980, 14563.00
647.3610, 14662.00
648.5240, 14487.00
649.6870, 14467.00
650.8490, 14433.00
652.0120, 14422.00
653.1740, 14461.00
654.3360, 14421.00
655.4980, 14190.00
656.6600, 14014.00
657.8210, 13994.00
658.9830, 13923.00
660.1440, 13986.00
661.3050, 13934.00
662.4660, 13870.00
663.6270, 13899.00
664.7870, 13773.00
665.9480, 13912.00
667.1080, 13770.00
668.2680, 13770.00
669.4280, 13892.00
670.5880, 13858.00
671.7480, 13960.00
672.9070, 13913.00
674.0670, 14017.61
675.2260, 14143.00
676.3850, 14311.00
677.5440, 14457.57
678.7030, 14626.00
679.8610, 14789.00
681.0200, 14925.00
682.1780, 15061.00
683.3360, 15333.00
684.4940, 15585.00
685.6520, 15727.00
686.8090, 15923.00
687.9670, 15680.00
689.1240, 15816.00
690.2810, 15731.00
691.4380, 15421.00
692.5950, 15281.00
693.7520, 15040.00
694.9080, 14906.00
696.0650, 14736.00
697.2210, 14512.00
698.3770, 14502.00
699.5330, 14401.00
700.6880, 14147.00
701.8440, 14019.00
702.9990, 14040.00
704.1550, 13850.00
705.3100, 14006.00
706.4650, 13828.00
707.6190, 13640.00
708.7740, 13668.00
709.9290, 13828.00
711.0830, 13687.00
712.2370, 13666.00
713.3910, 13702.00
714.5450, 13617.00
715.6980, 13613.00
716.8520, 13682.00
718.0050, 13474.00
719.1580, 13548.00
720.3110, 13430.00
721.4640, 13592.00
722.6170, 13666.00
723.7700, 13586.00
724.9220, 13537.00
726.0740, 13575.00
727.2260, 13712.00
728.3780, 13693.00
729.5300, 13755.00
730.6810, 13644.00
731.8330, 13602.00
732.9840, 13713.00
734.1350, 13759.00
735.2860, 13622.00
736.4370, 13738.00
737.5880, 13716.00
738.7380, 13609.00
739.8880, 13804.00
741.0390, 13624.00
742.1890, 13778.00
743.3380, 13625.00
744.4880, 13800.00
745.6380, 13823.00
746.7870, 13857.00
747.9360, 13930.00
749.0850, 13931.00
750.2340, 13831.00
751.3830, 14058.00
752.5310, 13982.00
753.6800, 14010.00
754.8280, 14125.00
755.9760, 14302.00
757.1240, 14210.00
758.2720, 14360.00
759.4190, 14511.00
760.5670, 14468.00
761.7140, 14821.00
762.8610, 14863.00
764.0080, 14959.00
765.1550, 15112.82
766.3020, 15112.83
767.4480, 15176.00
768.5950, 15167.00
769.7410, 14965.00
770.8870, 14972.00
772.0330, 14913.00
773.1780, 14820.00
774.3240, 14764.00
775.4690, 14837.00
776.6140, 14689.00
777.7590, 14665.00
778.9040, 14564.00
780.0490, 14624.00
781.1940, 14535.00
782.3380, 14272.00
783.4820, 14375.00
784.6260, 14422.00
785.7700, 14206.00
786.9140, 14313.00
788.0580, 14451.00
789.2010, 14426.00
790.3450, 14501.00
791.4880, 14485.00
792.6310, 14427.00
793.7730, 14356.00
794.9160, 14463.00
796.0590, 14562.00
797.2010, 14613.00
798.3430, 14578.00
799.4850, 14687.00
800.6270, 14779.00
801.7690, 14477.00
802.9100, 14606.00
804.0520, 14790.00
805.1930, 15001.00
806.3340, 14740.00
807.4750, 14893.00
808.6160, 14796.00
809.7560, 14774.00
810.8970, 14892.00
812.0370, 15095.00
813.1770, 14959.00
814.3170, 15021.00
815.4570, 14989.00
816.5960, 15146.00
817.7360, 15116.00
818.8750, 15164.00
820.0140, 15218.00
821.1530, 15252.00
822.2920, 15272.00
823.4310, 15236.00
824.5690, 15213.00
825.7070, 15418.00
826.8460, 15362.00
827.9840, 15426.00
829.1220, 15541.00
830.2590, 15532.00
831.3970, 15607.00
832.5340, 15758.00
833.6710, 15683.00
834.8080, 15836.00
835.9450, 15878.26
837.0820, 16093.00
838.2190, 16041.00
839.3550, 16136.00
840.4910, 16285.00
841.6270, 16358.00
842.7630, 16571.00
843.8990, 16571.00
845.0350, 16752.00
846.1700, 16745.00
847.3060, 16931.00
848.4410, 16999.00
849.5760, 17391.00
850.7100, 17553.00
851.8450, 17858.00
852.9800, 17995.00
854.1140, 18214.00
855.2480, 18663.00
856.3820, 18972.00
857.5160, 19391.00
858.6500, 19729.00
859.7830, 20095.00
860.9170, 20582.00
862.0500, 20902.00
863.1830, 21466.00
864.3160, 22014.00
865.4480, 22731.00
866.5810, 23433.00
867.7130, 24169.30
868.8460, 24942.00
869.9780, 25757.00
871.1100, 26661.00
872.2410, 27483.00
873.3730, 28337.00
874.5050, 28822.00
875.6360, 29135.00
876.7670, 29273.00
877.8980, 28941.00
879.0290, 28301.00
880.1590, 27923.00
881.2900, 27152.00
882.4200, 26480.00
883.5500, 25281.00
884.6800, 24635.00
885.8100, 23868.00
886.9400, 23255.00
888.0690, 22581.00
889.1990, 22017.00
890.3280, 21699.00
891.4570, 21106.00
892.5860, 20712.00
893.7140, 20518.00
894.8430, 20149.00
895.9710, 20065.00
897.1000, 20062.00
898.2280, 19968.00
899.3560, 20123.00
900.4830, 20056.00
901.6110, 20509.00
902.7380, 20408.00
903.8660, 20690.00
904.9930, 20834.00
906.1200, 21135.00
907.2460, 21449.00
908.3730, 21840.00
909.5000, 22091.68
910.6260, 22554.00
911.7520, 22576.00
912.8780, 22811.00
914.0040, 22902.00
915.1290, 22620.00
916.2550, 22255.00
917.3800, 21980.00
918.5050, 21215.00
919.6300, 20679.00
920.7550, 20153.00
921.8800, 19580.00
923.0040, 19176.00
924.1290, 18748.00
925.2530, 18548.00
926.3770, 18235.00
927.5010, 18004.00
928.6250, 17798.79
929.7480, 17583.00
930.8720, 17378.00
931.9950, 17211.00
933.1180, 16954.00
934.2410, 17170.00
935.3640, 17042.00
936.4860, 16992.00
937.6090, 16729.00
938.7310, 16791.00
939.8530, 16737.00
940.9750, 16633.00
942.0970, 16680.87
943.2180, 16600.00
944.3400, 16638.00
945.4610, 16439.57
946.5820, 16682.37
947.7030, 16819.61
948.8240, 16856.96
949.9450, 16495.24
951.0650, 16648.84
952.1860, 16595.92
953.3060, 16534.54
954.4260, 16760.66
955.5460, 16456.98
956.6650, 16678.55
957.7850, 16690.45
958.9040, 16798.30
960.0230, 16698.37
961.1420, 16722.00
962.2610, 16708.00
963.3800, 16977.00
964.4990, 16944.00
965.6170, 17116.00
966.7350, 17304.00
967.8530, 17307.00
968.9710, 17481.00
970.0890, 17830.00
971.2070, 18112.00
972.3240, 18424.93
973.4410, 18828.00
974.5580, 19107.00
975.6750, 19505.00
976.7920, 19847.00
977.9090, 20215.00
979.0250, 20317.00
980.1410, 20426.00
981.2580, 20395.00
982.3740, 20105.00
983.4890, 19853.00
984.6050, 19369.00
985.7200, 18851.00
986.8360, 18553.00
987.9510, 18166.00
989.0660, 17810.00
990.1810, 17691.00
991.2950, 17499.00
992.4100, 17074.00
993.5240, 17041.00
994.6390, 17274.00
995.7530, 17004.00
996.8660, 17016.00
997.9800, 17158.00
999.0940, 17256.00
1000.207, 17248.00
1001.320, 17250.96
1002.433, 17187.47
1003.546, 17053.00
1004.659, 17017.00
1005.772, 16953.43
1006.884, 16739.00
1007.996, 16854.00
1009.108, 16831.00
1010.220, 16749.00
1011.332, 16957.00
1012.444, 16937.00
1013.555, 16996.00
1014.666, 16977.00
1015.777, 17146.00
1016.888, 17162.00
1017.999, 17165.00
1019.110, 17243.00
1020.220, 17246.00
1021.331, 17334.00
1022.441, 17328.00
1023.551, 17511.00
1024.661, 17516.00
1025.770, 17633.00
1026.880, 17605.00
1027.989, 17740.00
1029.098, 17966.00
1030.207, 18019.00
1031.316, 18011.00
1032.425, 18065.00
1033.533, 18347.00
1034.642, 18500.00
1035.750, 18624.00
1036.858, 18632.00
1037.966, 19019.00
1039.073, 19026.00
1040.181, 19020.00
1041.288, 19194.00
1042.396, 19147.00
1043.503, 18931.00
1044.610, 18871.00
1045.716, 18851.00
1046.823, 18698.00
1047.929, 18712.00
1049.036, 18422.00
1050.142, 18387.00
1051.248, 18260.00
1052.353, 18182.00
1053.459, 18030.00
1054.564, 18185.00
1055.670, 18299.00
1056.775, 17975.00
1057.880, 18293.00
1058.985, 18310.00
1060.089, 18229.00
1061.194, 18437.00
1062.298, 18493.00
1063.402, 18407.00
1064.506, 18438.00
1065.610, 18488.00
1066.713, 18528.00
1067.817, 18309.00
1068.920, 18555.00
1070.023, 18534.00
1071.126, 18555.00
1072.229, 19003.00
1073.332, 19092.00
1074.435, 19364.00
1075.537, 19820.00
1076.639, 20167.00
1077.741, 20612.00
1078.843, 21447.00
1079.945, 21756.00
1081.046, 22503.00
1082.148, 23397.00
1083.249, 23914.00
1084.350, 23926.00
1085.451, 23928.00
1086.551, 23839.00
1087.652, 23356.00
1088.752, 22608.00
1089.853, 22035.00
1090.953, 21205.00
1092.053, 20464.00
1093.152, 20025.00
1094.252, 19419.00
1095.351, 18979.00
1096.451, 18722.00
1097.550, 18541.00
1098.649, 18387.00
1099.748, 18260.00
1100.846, 18257.00
1101.945, 18130.00
1103.043, 18102.00
1104.141, 18077.00
1105.239, 17960.00
1106.337, 18097.00
1107.434, 18171.00
1108.532, 17992.00
1109.629, 17971.00
1110.726, 17983.00
1111.823, 17746.00
1112.920, 17956.00
1114.017, 17855.00
1115.113, 17865.00
1116.210, 17705.00
1117.306, 17872.00
1118.402, 17760.00
1119.498, 17860.00
1120.593, 17802.00
1121.689, 17995.00
1122.784, 17895.00
1123.879, 17842.00
1124.974, 17742.00
1126.069, 17794.00
1127.164, 17621.00
1128.259, 17749.00
1129.353, 17896.00
1130.447, 17828.00
1131.541, 17802.00
1132.635, 17742.00
1133.729, 17701.00
1134.822, 17725.00
1135.916, 17682.00
1137.009, 17833.00
1138.102, 17728.00
1139.195, 17569.00
1140.288, 17665.00
1141.380, 17522.00
1142.473, 17487.00
1143.565, 17579.00
1144.657, 17533.00
1145.749, 17569.00
1146.841, 17535.00
1147.932, 17538.00
1149.024, 17478.00
1150.115, 17688.00
1151.206, 17663.00
1152.297, 17682.00
1153.388, 17543.00
1154.479, 17634.00
1155.569, 17717.00
1156.659, 17604.00
1157.750, 17562.00
1158.839, 17576.00
1159.929, 17789.00
1161.019, 17560.00
1162.108, 17836.00
1163.198, 17673.00
1164.287, 17524.00
1165.376, 17621.00
1166.465, 17787.00
1167.553, 17912.00
1168.642, 17845.00
1169.730, 17811.00
1170.818, 18005.00
1171.906, 17855.00
1172.994, 17962.00
1174.082, 17909.00
1175.170, 17847.00
1176.257, 17880.00
1177.344, 17898.00
1178.431, 17979.00
1179.518, 17984.00
1180.605, 18013.00
1181.691, 17981.00
1182.778, 17892.00
1183.864, 18039.00
1184.950, 18088.00
1186.036, 18004.00
1187.122, 18004.00
1188.207, 17997.00
1189.292, 17963.00
1190.378, 17947.00
1191.463, 17903.00
1192.548, 17923.00
1193.632, 17892.13
1194.717, 17824.00
1195.801, 17927.00
1196.886, 17892.00
1197.970, 18046.00
1199.054, 18063.00
1200.137, 17929.00
1201.221, 17955.00
1202.305, 18007.00
1203.388, 18013.00
1204.471, 18031.00
1205.554, 17961.00
1206.637, 18101.00
1207.719, 18039.00
1208.802, 18020.00
1209.884, 18239.00
1210.966, 17981.00
1212.048, 18196.00
1213.130, 18049.00
1214.212, 18337.00
1215.293, 18208.00
1216.374, 18199.00
1217.456, 18268.00
1218.536, 18319.00
1219.617, 18082.00
1220.698, 18374.00
1221.778, 18191.00
1222.859, 18300.00
1223.939, 18425.00
1225.019, 18105.00
1226.099, 18318.00
1227.178, 18381.00
1228.258, 18434.00
1229.337, 18116.00
1230.417, 18233.00
1231.496, 18209.00
1232.574, 18470.00
1233.653, 18587.00
1234.732, 18496.00
1235.810, 18456.00
