##NAMES=Epididymite
##RRUFFID=R070580
##IDEAL CHEMISTRY=Na_2_Be_2_Si_6_O_15_&#183;H_2_O
##LOCALITY=Narsarsuk, Narsaq, Kitaa, Greenland
##OWNER=RRUFF
##SOURCE=James Shigley
##DESCRIPTION=A translucent to white elongated prism.
##STATUS=The identification of this mineral is confirmed by single-crystal X-ray diffraction and chemical analysis.
##URL=rruff.info/R070580
##MEASURED CHEMISTRY=(Na_1.97_K_0.03_)_Σ=2_Be_2_Si_6.00_O_15_·H_2_O; trace amounts of Al; Be and H_2_O assumed by stoichiometry
##PIN_ID=M01755
##ORIENTATION=Laser parallel to -a* (-1 0 0). Fiducial mark perpendicular to laser is parallel to b [0 1 0]
111.2060, 9157.000
112.4440, 9496.000
113.6810, 9819.000
114.9180, 10565.00
116.1550, 11411.00
117.3920, 12140.00
118.6290, 12257.00
119.8650, 11929.00
121.1010, 11869.00
122.3370, 11942.00
123.5730, 12342.00
124.8090, 12874.00
126.0450, 12960.00
127.2800, 13613.00
128.5150, 14805.00
129.7500, 16498.00
130.9850, 18231.00
132.2200, 19592.00
133.4540, 20233.00
134.6890, 19175.00
135.9230, 17286.00
137.1570, 15580.00
138.3900, 14614.00
139.6240, 14384.00
140.8580, 14422.00
142.0910, 15092.00
143.3240, 15478.00
144.5570, 15760.00
145.7900, 15499.00
147.0220, 14665.00
148.2550, 13561.00
149.4870, 12762.00
150.7190, 12153.00
151.9510, 11511.00
153.1830, 11167.00
154.4140, 10917.00
155.6460, 10778.00
156.8770, 10507.00
158.1080, 10340.00
159.3390, 10374.00
160.5690, 10278.00
161.8000, 10340.00
163.0300, 10353.00
164.2600, 10376.00
165.4900, 10406.00
166.7200, 10537.00
167.9500, 10518.00
169.1790, 10544.00
170.4080, 10500.00
171.6380, 10504.00
172.8670, 10509.00
174.0950, 10518.00
175.3240, 10512.00
176.5520, 10520.00
177.7810, 10481.00
179.0090, 10534.00
180.2370, 10432.00
181.4640, 10435.00
182.6920, 10541.00
183.9190, 10703.00
185.1460, 10668.00
186.3730, 10837.00
187.6000, 11028.00
188.8270, 11296.00
190.0530, 11456.00
191.2800, 11644.00
192.5060, 11951.00
193.7320, 12351.00
194.9580, 12840.00
196.1830, 13030.00
197.4090, 13300.00
198.6340, 13321.00
199.8590, 12950.00
201.0840, 12562.00
202.3090, 12623.00
203.5340, 12215.00
204.7580, 12043.00
205.9820, 11765.00
207.2060, 11495.00
208.4300, 11354.00
209.6540, 11214.00
210.8780, 11174.00
212.1010, 11017.00
213.3240, 11013.00
214.5470, 11114.00
215.7700, 11161.00
216.9930, 11140.00
218.2150, 11082.00
219.4380, 11095.00
220.6600, 11170.47
221.8820, 11232.00
223.1040, 11385.00
224.3260, 11546.00
225.5470, 11662.00
226.7680, 11835.00
227.9900, 11882.00
229.2110, 12305.00
230.4310, 12447.00
231.6520, 12725.00
232.8720, 13233.00
234.0930, 13632.00
235.3130, 14001.00
236.5330, 14552.00
237.7530, 14975.00
238.9720, 15587.00
240.1920, 15897.00
241.4110, 15930.00
242.6300, 15912.00
243.8490, 15607.00
245.0680, 14956.00
246.2860, 14312.00
247.5040, 13793.00
248.7230, 13251.00
249.9410, 12806.00
251.1590, 12625.00
252.3760, 12278.00
253.5940, 12142.00
254.8110, 11865.00
256.0280, 11802.00
257.2450, 11835.00
258.4620, 11913.00
259.6790, 11859.73
260.8950, 11875.85
262.1120, 11813.00
263.3280, 11761.00
264.5440, 11701.00
265.7600, 11503.00
266.9750, 11378.00
268.1910, 11415.00
269.4060, 11333.00
270.6210, 11316.00
271.8360, 11097.00
273.0510, 11242.00
274.2650, 11364.00
275.4800, 11231.00
276.6940, 11375.00
277.9080, 11359.30
279.1220, 11380.93
280.3360, 11375.00
281.5490, 11485.00
282.7630, 11463.00
283.9760, 11564.00
285.1890, 11636.00
286.4020, 11568.00
287.6150, 11536.00
288.8270, 11456.00
290.0400, 11451.00
291.2520, 11429.00
292.4640, 11402.00
293.6760, 11457.00
294.8870, 11311.00
296.0990, 11411.00
297.3100, 11516.00
298.5210, 11395.00
299.7320, 11424.00
300.9430, 11401.00
302.1540, 11453.00
303.3640, 11436.00
304.5750, 11482.00
305.7850, 11481.77
306.9950, 11454.00
308.2050, 11481.00
309.4140, 11584.00
310.6240, 11581.00
311.8330, 11463.00
313.0420, 11632.00
314.2510, 11521.00
315.4600, 11546.00
316.6680, 11639.00
317.8770, 11611.00
319.0850, 11586.00
320.2930, 11674.00
321.5010, 11783.00
322.7090, 11806.00
323.9160, 11898.00
325.1240, 11989.00
326.3310, 11932.00
327.5380, 12036.00
328.7450, 12017.00
329.9520, 11983.00
331.1580, 12163.00
332.3650, 12140.00
333.5710, 12273.00
334.7770, 12309.00
335.9830, 12202.00
337.1880, 12408.00
338.3940, 12408.00
339.5990, 12376.00
340.8040, 12376.00
342.0090, 12542.00
343.2140, 12721.00
344.4190, 12788.00
345.6230, 12648.00
346.8280, 12510.00
348.0320, 12602.00
349.2360, 12603.00
350.4400, 12332.00
351.6430, 12307.00
352.8470, 12349.00
354.0500, 12304.00
355.2530, 12302.83
356.4560, 12213.00
357.6590, 12284.00
358.8620, 12328.00
360.0640, 12354.00
361.2660, 12268.00
362.4680, 12437.00
363.6700, 12393.00
364.8720, 12592.00
366.0740, 12444.00
367.2750, 12654.00
368.4760, 12615.00
369.6770, 12647.00
370.8780, 12717.00
372.0790, 12747.00
373.2800, 13082.00
374.4800, 13304.00
375.6800, 13429.00
376.8800, 13686.00
378.0800, 14029.00
379.2800, 14413.00
380.4790, 14407.00
381.6790, 14653.00
382.8780, 14732.00
384.0770, 14895.00
385.2760, 14672.00
386.4750, 14638.00
387.6730, 14641.00
388.8720, 14309.00
390.0700, 14321.00
391.2680, 14339.00
392.4660, 14108.00
393.6630, 14420.00
394.8610, 14263.00
396.0580, 14572.00
397.2550, 14898.00
398.4520, 15275.00
399.6490, 16135.00
400.8460, 16645.00
402.0420, 17655.00
403.2390, 18665.00
404.4350, 20452.00
405.6310, 22335.00
406.8270, 24236.00
408.0220, 25305.00
409.2180, 24991.00
410.4130, 23043.00
411.6080, 20467.00
412.8030, 18143.00
413.9980, 16559.00
415.1920, 15307.00
416.3870, 14467.00
417.5810, 14099.00
418.7750, 13854.00
419.9690, 13875.00
421.1630, 13686.00
422.3570, 13774.00
423.5500, 13623.00
424.7430, 13529.00
425.9360, 13644.00
427.1290, 13950.00
428.3220, 13882.00
429.5150, 14093.00
430.7070, 14369.00
431.8990, 14584.00
433.0910, 14646.00
434.2830, 14752.00
435.4750, 14787.00
436.6670, 14692.00
437.8580, 14491.00
439.0490, 14184.00
440.2400, 14214.00
441.4310, 13893.00
442.6220, 13655.00
443.8130, 13733.00
445.0030, 13634.00
446.1930, 13582.00
447.3830, 13656.00
448.5730, 13682.00
449.7630, 13784.00
450.9520, 13682.00
452.1420, 13895.00
453.3310, 13733.00
454.5200, 13929.00
455.7090, 13945.00
456.8980, 14097.00
458.0860, 14233.00
459.2740, 14368.00
460.4630, 14270.00
461.6510, 14401.00
462.8380, 14326.00
464.0260, 14370.00
465.2140, 14331.00
466.4010, 14565.00
467.5880, 14897.00
468.7750, 14960.00
469.9620, 15298.00
471.1490, 15648.00
472.3350, 15964.00
473.5220, 16769.00
474.7080, 17063.00
475.8940, 17511.00
477.0800, 18035.00
478.2650, 18039.00
479.4510, 17820.00
480.6360, 17988.00
481.8210, 18134.00
483.0060, 18768.00
484.1910, 19284.00
485.3760, 19906.00
486.5600, 19832.00
487.7440, 19593.00
488.9290, 18504.00
490.1130, 17328.00
491.2960, 16712.00
492.4800, 16150.00
493.6630, 15676.00
494.8470, 15651.00
496.0300, 15510.00
497.2130, 15513.00
498.3960, 15526.73
499.5780, 15422.00
500.7610, 15676.00
501.9430, 15843.00
503.1250, 16042.00
504.3070, 16463.00
505.4890, 16662.00
506.6710, 17489.00
507.8520, 18087.00
509.0330, 19217.00
510.2140, 21015.00
511.3950, 22982.00
512.5760, 25484.00
513.7570, 28358.00
514.9370, 31760.00
516.1170, 35873.00
517.2980, 41017.00
518.4780, 45275.00
519.6570, 48540.00
520.8370, 48684.00
522.0160, 45064.00
523.1960, 39731.00
524.3750, 33926.00
525.5540, 28974.00
526.7320, 25097.00
527.9110, 22411.00
529.0890, 20349.00
530.2680, 19289.00
531.4460, 18323.00
532.6240, 17538.00
533.8010, 17256.00
534.9790, 16939.00
536.1560, 16518.00
537.3340, 16312.00
538.5110, 16200.00
539.6880, 15940.00
540.8650, 15960.00
542.0410, 15795.00
543.2180, 15623.00
544.3940, 15489.00
545.5700, 15476.00
546.7460, 15408.20
547.9220, 15423.00
549.0970, 15420.00
550.2730, 15494.00
551.4480, 15540.00
552.6230, 15469.00
553.7980, 15421.00
554.9730, 15290.00
556.1470, 15356.00
557.3210, 15337.00
558.4960, 15324.00
559.6700, 15392.00
560.8440, 15388.00
562.0170, 15396.02
563.1910, 15457.00
564.3640, 15421.00
565.5380, 15415.00
566.7110, 15477.00
567.8840, 15613.00
569.0560, 15520.00
570.2290, 15528.00
571.4010, 15717.00
572.5740, 15820.00
573.7460, 15827.00
574.9180, 15993.00
576.0890, 16104.00
577.2610, 16220.00
578.4320, 16545.06
579.6040, 17082.00
580.7750, 17301.00
581.9450, 17778.00
583.1160, 18349.00
584.2870, 18396.78
585.4570, 18467.78
586.6270, 18430.00
587.7980, 17982.00
588.9670, 17533.00
590.1370, 16887.00
591.3070, 16619.00
592.4760, 16554.00
593.6450, 16341.00
594.8140, 16162.00
595.9830, 16253.00
597.1520, 16128.00
598.3210, 15996.00
599.4890, 16043.00
600.6570, 15928.00
601.8250, 15933.00
602.9930, 15929.00
604.1610, 15849.00
605.3290, 15997.00
606.4960, 15948.00
607.6630, 16011.00
608.8300, 16066.00
609.9970, 16009.00
611.1640, 16014.00
612.3300, 16157.00
613.4970, 15968.00
614.6630, 15956.00
615.8290, 16094.00
616.9950, 16200.00
618.1610, 16217.87
619.3260, 16307.00
620.4920, 16319.00
621.6570, 16404.00
622.8220, 16500.00
623.9870, 16419.00
625.1520, 16458.00
626.3160, 16517.00
627.4810, 16648.00
628.6450, 16817.00
629.8090, 17126.00
630.9730, 17133.00
632.1370, 17289.00
633.3000, 17366.00
634.4640, 17412.00
635.6270, 17399.00
636.7900, 17383.00
637.9530, 17263.00
639.1160, 17147.00
640.2780, 17085.00
641.4410, 16995.00
642.6030, 17147.00
643.7650, 16858.00
644.9270, 17054.00
646.0890, 16725.00
647.2500, 16853.00
648.4120, 16618.00
649.5730, 16659.00
650.7340, 16659.00
651.8950, 16686.00
653.0560, 16652.00
654.2160, 16633.00
655.3770, 16669.00
656.5370, 16611.89
657.6970, 16622.00
658.8570, 16582.00
660.0170, 16490.00
661.1760, 16563.00
662.3360, 16565.00
663.4950, 16704.00
664.6540, 16714.00
665.8130, 16655.00
666.9720, 16738.00
668.1310, 16734.00
669.2890, 16766.00
670.4470, 16782.00
671.6050, 16715.00
672.7630, 16835.00
673.9210, 16771.00
675.0790, 16702.00
676.2360, 17025.00
677.3930, 17112.00
678.5510, 16756.00
679.7080, 17093.00
680.8640, 17122.00
682.0210, 16998.00
683.1770, 16994.00
684.3340, 17013.00
685.4900, 16979.00
686.6460, 16995.00
687.8020, 16958.00
688.9570, 16944.00
690.1130, 17131.00
691.2680, 17100.00
692.4230, 16856.00
693.5780, 17106.00
694.7330, 16918.00
695.8880, 17119.00
697.0420, 17138.00
698.1960, 17176.00
699.3510, 17078.00
700.5040, 17013.00
701.6580, 17030.00
702.8120, 17161.00
703.9650, 17077.00
705.1190, 17258.00
706.2720, 17141.00
707.4250, 17284.00
708.5780, 17272.00
709.7300, 17418.00
710.8830, 17247.00
712.0350, 17231.00
713.1870, 17357.00
714.3390, 17534.00
715.4910, 17411.00
716.6430, 17448.00
717.7940, 17412.00
718.9460, 17464.00
720.0970, 17373.00
721.2480, 17495.00
722.3990, 17338.00
723.5500, 17649.00
724.7000, 17480.00
725.8500, 17637.00
727.0010, 17391.00
728.1510, 17635.00
729.3010, 17594.00
730.4500, 17539.00
731.6000, 17572.00
732.7490, 17596.06
733.8980, 17717.00
735.0470, 17690.00
736.1960, 17732.00
737.3450, 17713.00
738.4940, 17544.00
739.6420, 17813.00
740.7900, 17877.00
741.9380, 17847.00
743.0860, 17685.00
744.2340, 17775.00
745.3810, 17852.00
746.5290, 17813.00
747.6760, 17939.00
748.8230, 17934.00
749.9700, 17947.00
751.1170, 17957.00
752.2630, 17945.00
753.4100, 17936.00
754.5560, 18004.00
755.7020, 18101.00
756.8480, 17916.00
757.9940, 18050.00
759.1390, 18276.00
760.2850, 17913.00
761.4300, 18094.00
762.5750, 18068.00
763.7200, 18244.00
764.8650, 18272.00
766.0100, 18170.00
767.1540, 18147.00
768.2980, 18235.00
769.4420, 18365.00
770.5860, 18318.00
771.7300, 18373.78
772.8740, 18408.45
774.0170, 18312.00
775.1610, 18441.00
776.3040, 18311.00
777.4470, 18281.00
778.5900, 18313.00
779.7320, 18318.57
780.8750, 18595.00
782.0170, 18412.00
783.1590, 18554.00
784.3010, 18523.00
785.4430, 18435.00
786.5850, 18444.00
787.7260, 18552.00
788.8680, 18612.00
790.0090, 18684.00
791.1500, 18545.00
792.2910, 18652.00
793.4310, 18620.00
794.5720, 18688.00
795.7120, 18570.00
796.8520, 18660.00
797.9920, 18686.00
799.1320, 18780.00
800.2720, 18807.00
801.4120, 18876.00
802.5510, 19055.00
803.6900, 18803.00
804.8290, 18783.00
805.9680, 18958.00
807.1070, 18862.00
808.2450, 19068.00
809.3840, 19103.00
810.5220, 19298.00
811.6600, 19287.00
812.7980, 19527.00
813.9360, 19698.00
815.0730, 19676.00
816.2110, 19931.00
817.3480, 20054.00
818.4850, 19998.00
819.6220, 19877.00
820.7590, 19830.00
821.8960, 19819.00
823.0320, 19581.00
824.1680, 19595.00
825.3040, 19537.00
826.4400, 19625.00
827.5760, 19463.00
828.7120, 19297.00
829.8470, 19330.00
830.9830, 19435.00
832.1180, 19521.00
833.2530, 19493.00
834.3880, 19342.00
835.5220, 19425.00
836.6570, 19339.00
837.7910, 19563.00
838.9250, 19554.00
840.0590, 19549.00
841.1930, 19638.00
842.3270, 19624.00
843.4600, 19657.00
844.5940, 19691.00
845.7270, 19694.42
846.8600, 19702.00
847.9930, 19659.00
849.1250, 19697.00
850.2580, 19538.00
851.3900, 19637.00
852.5230, 19863.00
853.6550, 19935.00
854.7870, 19847.00
855.9180, 19945.00
857.0500, 19851.00
858.1810, 20005.00
859.3130, 19984.00
860.4440, 19886.00
861.5750, 19889.00
862.7050, 19862.00
863.8360, 19866.91
864.9660, 20027.00
866.0970, 19917.00
867.2270, 20045.00
868.3570, 20067.00
869.4870, 20104.00
870.6160, 20168.00
871.7460, 20195.00
872.8750, 20241.00
874.0040, 20434.00
875.1330, 20102.00
876.2620, 20261.00
877.3910, 20367.00
878.5190, 20221.00
879.6470, 20353.00
880.7760, 20306.00
881.9040, 20481.00
883.0310, 20414.00
884.1590, 20344.00
885.2870, 20480.00
886.4140, 20159.00
887.5410, 20503.00
888.6680, 20366.00
889.7950, 20387.00
890.9220, 20451.00
892.0480, 20296.00
893.1750, 20643.00
894.3010, 20392.00
895.4270, 20503.00
896.5530, 20448.00
897.6790, 20346.00
898.8040, 20744.00
899.9300, 20474.00
901.0550, 20441.00
902.1800, 20668.00
903.3050, 20417.00
904.4300, 20682.00
905.5540, 20489.00
906.6790, 20618.00
907.8030, 20734.00
908.9270, 20661.00
910.0510, 20708.00
911.1750, 20769.00
912.2990, 20589.00
913.4220, 20810.00
914.5450, 20784.00
915.6690, 20579.00
916.7920, 20849.00
917.9140, 20894.00
919.0370, 20774.00
920.1600, 20794.00
921.2820, 20942.00
922.4040, 20840.00
923.5260, 20892.00
924.6480, 21039.00
925.7700, 20966.00
926.8910, 20984.00
928.0130, 21064.00
929.1340, 20923.00
930.2550, 21186.00
931.3760, 21104.00
932.4970, 21038.00
933.6170, 21223.00
934.7380, 21197.00
935.8580, 20991.00
936.9780, 21129.00
938.0980, 21250.00
939.2180, 21197.00
940.3370, 21275.00
941.4570, 21132.00
942.5760, 21347.00
943.6950, 21211.00
944.8140, 21321.00
945.9330, 21619.00
947.0520, 21487.00
948.1700, 21369.00
949.2890, 21168.00
950.4070, 21341.00
951.5250, 21283.00
952.6430, 21520.00
953.7600, 21265.00
954.8780, 21329.00
955.9950, 21404.00
957.1120, 21542.00
958.2290, 21552.20
959.3460, 21592.76
960.4630, 21571.00
961.5800, 21618.00
962.6960, 21545.00
963.8120, 21597.00
964.9280, 21587.00
966.0440, 21591.00
967.1600, 21799.00
968.2760, 21723.00
969.3910, 21722.00
970.5060, 21793.00
971.6210, 21675.00
972.7360, 21719.00
973.8510, 21759.00
974.9660, 21845.00
976.0800, 21912.00
977.1950, 21782.00
978.3090, 21772.00
979.4230, 22162.00
980.5370, 22047.00
981.6500, 22069.00
982.7640, 22039.00
983.8770, 21893.00
984.9900, 22063.00
986.1030, 22296.00
987.2160, 22241.00
988.3290, 22319.00
989.4420, 22177.00
990.5540, 22237.00
991.6660, 22256.00
992.7780, 22251.00
993.8900, 22329.00
995.0020, 22308.00
996.1140, 22355.00
997.2250, 22367.00
998.3360, 22438.00
999.4470, 22365.00
1000.558, 22257.00
1001.669, 22320.00
1002.780, 22427.00
1003.890, 22476.00
1005.001, 22668.00
1006.111, 22526.00
1007.221, 22592.00
1008.331, 22693.00
1009.440, 22574.00
1010.550, 22717.00
1011.659, 22594.00
1012.768, 22810.00
1013.877, 22945.00
1014.986, 22785.00
1016.095, 22728.00
1017.204, 22892.00
1018.312, 22806.00
1019.420, 22780.00
1020.528, 22822.00
1021.636, 22996.00
1022.744, 22987.00
1023.852, 22826.00
1024.959, 22952.00
1026.066, 22870.00
1027.173, 23254.00
1028.280, 23176.00
1029.387, 23311.00
1030.494, 23074.00
1031.600, 23288.00
1032.707, 23253.00
1033.813, 23290.00
1034.919, 23287.00
1036.025, 23478.00
1037.130, 23515.00
1038.236, 23621.60
1039.341, 23849.00
1040.446, 23850.00
1041.552, 24006.00
1042.656, 24170.00
1043.761, 24238.97
1044.866, 24422.00
1045.970, 24494.00
1047.074, 24637.00
1048.179, 24831.00
1049.282, 24646.00
1050.386, 24612.00
1051.490, 24671.00
1052.593, 24649.00
1053.697, 24584.00
1054.800, 24744.00
1055.903, 24623.00
1057.006, 24613.00
1058.108, 24422.00
1059.211, 24483.02
1060.313, 24633.00
1061.415, 24564.00
1062.517, 24469.00
1063.619, 24500.00
1064.721, 24534.00
1065.823, 24514.00
1066.924, 24778.00
1068.025, 24628.00
1069.126, 24713.00
1070.227, 24534.00
1071.328, 24409.00
1072.429, 24355.00
1073.529, 24466.00
1074.629, 24250.00
1075.729, 24275.00
1076.829, 24066.00
1077.929, 24247.00
1079.029, 24381.00
1080.128, 24326.00
1081.228, 24200.00
1082.327, 24329.00
1083.426, 24390.00
1084.525, 24409.00
1085.623, 24822.00
1086.722, 24736.58
1087.820, 25127.00
1088.919, 24752.00
1090.017, 24493.00
1091.115, 24367.00
1092.212, 24228.00
1093.310, 24503.00
1094.407, 24417.00
1095.505, 24380.00
1096.602, 24690.00
1097.699, 24346.00
1098.795, 24275.00
1099.892, 24525.00
1100.989, 24310.00
1102.085, 24587.00
1103.181, 24548.00
1104.277, 24642.00
1105.373, 24696.00
1106.469, 24897.00
1107.564, 24800.00
1108.660, 24936.00
1109.755, 25005.00
1110.850, 24830.00
1111.945, 24919.00
1113.040, 24987.00
1114.134, 25029.29
1115.229, 25459.00
1116.323, 25357.00
1117.417, 25626.00
1118.511, 26005.00
1119.605, 25797.00
1120.698, 26156.00
1121.792, 26172.00
1122.885, 26434.00
1123.978, 26478.00
1125.071, 26886.00
1126.164, 26989.00
1127.257, 27307.00
1128.349, 27438.00
1129.442, 27870.00
1130.534, 28291.00
1131.626, 28696.00
1132.718, 29183.18
1133.810, 29848.00
1134.901, 30140.00
1135.993, 30496.00
1137.084, 30931.00
1138.175, 30939.00
1139.266, 30697.00
1140.357, 30726.00
1141.448, 30309.00
1142.538, 29740.00
1143.628, 29151.00
1144.719, 28838.00
1145.809, 28242.00
1146.898, 27821.00
1147.988, 27496.00
1149.078, 27220.00
1150.167, 26830.00
1151.256, 26596.00
1152.345, 26346.00
1153.434, 26267.00
1154.523, 26196.00
1155.612, 26150.00
1156.700, 25849.00
1157.788, 25864.00
1158.877, 25754.00
1159.964, 26084.00
1161.052, 25728.00
1162.140, 26010.00
1163.227, 25692.00
1164.315, 25566.00
1165.402, 25762.00
1166.489, 25652.00
1167.576, 25697.00
1168.663, 25680.00
1169.749, 25620.00
1170.836, 25545.00
1171.922, 25667.00
1173.008, 25809.00
1174.094, 25645.00
1175.180, 25830.00
1176.265, 25827.00
1177.351, 25439.00
1178.436, 25528.00
1179.521, 25712.00
1180.606, 25713.00
1181.691, 25824.00
1182.776, 25666.00
1183.860, 25788.00
1184.944, 25629.00
1186.029, 25866.00
1187.113, 25776.00
1188.197, 25911.00
1189.280, 25645.00
1190.364, 25772.00
1191.447, 25802.00
1192.531, 25811.00
1193.614, 25825.00
1194.697, 25845.24
1195.779, 25843.27
1196.862, 25852.00
1197.945, 25879.00
1199.027, 25827.00
1200.109, 25917.00
1201.191, 25931.00
1202.273, 26093.00
1203.355, 25967.00
1204.436, 26135.00
1205.518, 25974.00
1206.599, 26073.00
1207.680, 26080.00
1208.761, 26107.00
1209.842, 26172.00
1210.922, 26219.00
1212.003, 25955.00
1213.083, 26076.00
1214.163, 26310.00
1215.243, 26073.00
1216.323, 26283.00
1217.402, 26273.00
1218.482, 26474.00
1219.561, 26381.00
1220.641, 26267.00
1221.720, 26114.00
1222.798, 26219.00
1223.877, 26358.00
1224.956, 26235.00
1226.034, 26269.00
1227.112, 26451.00
1228.191, 26537.00
1229.269, 26359.00
1230.346, 26587.00
1231.424, 26483.00
1232.501, 26687.00
1233.579, 26638.00
1234.656, 26566.00
1235.733, 26536.00
1236.810, 26615.00
1237.886, 26769.00
1238.963, 26704.00
1240.039, 26568.00
1241.116, 26406.00
1242.192, 26649.00
1243.268, 26844.00
1244.343, 26865.00
1245.419, 26907.00
1246.494, 26907.41
1247.570, 26734.00
1248.645, 26820.00
1249.720, 26820.00
1250.795, 26818.00
1251.869, 26880.00
1252.944, 26746.00
1254.018, 26894.00
1255.093, 27040.00
1256.167, 26969.00
1257.240, 27004.00
1258.314, 26910.00
1259.388, 26920.00
1260.461, 26876.00
1261.535, 26888.67
1262.608, 26897.14
1263.681, 26938.00
1264.753, 26934.00
1265.826, 26943.00
1266.899, 26962.00
1267.971, 27006.00
1269.043, 27150.00
1270.115, 27191.00
1271.187, 27265.00
1272.259, 27229.00
1273.330, 27257.10
1274.402, 27101.00
1275.473, 27250.00
1276.544, 27113.00
1277.615, 27115.00
1278.686, 27352.00
1279.756, 27266.00
1280.827, 27411.00
1281.897, 27476.00
1282.967, 27441.00
1284.037, 27385.00
1285.107, 27230.00
