##NAMES=Epidote
##RRUFFID=R050303
##IDEAL CHEMISTRY=Ca_2_Fe^3+^Al_2_(Si_2_O_7_)(SiO_4_)O(OH)
##LOCALITY=San Martin mine, Zacatecas, Mexico
##OWNER=RRUFF
##SOURCE=Eugene Schlepp
##DESCRIPTION=Green elongated prismatic crystals
##STATUS=The identification of this mineral has been confirmed by X-ray diffraction and chemical analysis
##URL=rruff.info/R050303
##MEASURED CHEMISTRY=Ca_2.00_Al_2.00_(Fe^3+^_0.97_Al_0.03_)(SiO_4_)(Si_2_O_7_)O(OH)
##PIN_ID=L01741
##ORIENTATION=Laser parallel to -a* (-1 0 0). Fiducial mark perpendicular to laser is parallel to -b [0 -1 0]
53.91000, 843.0000
55.14900, 843.0000
56.38700, 827.0000
57.62600, 848.0000
58.86400, 874.0000
60.10300, 893.0000
61.34100, 938.0000
62.57900, 924.0000
63.81700, 966.0000
65.05400, 1024.000
66.29200, 1142.000
67.52900, 1283.000
68.76700, 1473.933
70.00400, 1817.000
71.24100, 1984.000
72.47700, 2313.568
73.71400, 2690.000
74.95100, 2963.000
76.18700, 3498.000
77.42300, 3950.000
78.65900, 4656.000
79.89500, 5443.000
81.13100, 6528.000
82.36700, 7917.000
83.60200, 9300.000
84.83700, 10694.00
86.07200, 11891.00
87.30800, 13197.00
88.54200, 13842.00
89.77700, 14075.00
91.01200, 13723.00
92.24600, 13072.00
93.48000, 12059.00
94.71400, 11235.00
95.94800, 10523.00
97.18200, 9893.000
98.41600, 9435.000
99.64900, 9194.000
100.8830, 8847.000
102.1160, 8610.000
103.3490, 8622.000
104.5820, 8854.000
105.8150, 9128.000
107.0470, 9855.000
108.2800, 9563.627
109.5120, 10403.00
110.7440, 9294.000
111.9760, 9240.000
113.2080, 9315.000
114.4400, 9388.000
115.6710, 9580.000
116.9030, 9794.000
118.1340, 9845.000
119.3650, 9724.000
120.5960, 9909.000
121.8270, 10322.00
123.0580, 10752.00
124.2880, 11318.00
125.5190, 11672.00
126.7490, 12463.00
127.9790, 13212.00
129.2090, 14182.00
130.4390, 14767.00
131.6680, 14604.00
132.8980, 14105.00
134.1270, 13506.00
135.3560, 13361.00
136.5850, 13159.00
137.8140, 13217.00
139.0430, 13271.00
140.2710, 13717.00
141.5000, 14053.00
142.7280, 14737.00
143.9560, 15525.00
145.1840, 15437.00
146.4120, 15322.00
147.6390, 14961.00
148.8670, 14948.00
150.0940, 15159.00
151.3210, 15698.68
152.5490, 16424.00
153.7750, 17645.00
155.0020, 19221.00
156.2290, 20964.00
157.4550, 23159.00
158.6810, 25622.00
159.9080, 28175.00
161.1340, 31414.00
162.3590, 34047.00
163.5850, 36027.00
164.8110, 35935.00
166.0360, 34347.00
167.2610, 32063.00
168.4860, 29891.00
169.7110, 27456.00
170.9360, 25375.00
172.1610, 23659.00
173.3850, 21796.00
174.6100, 20029.00
175.8340, 18444.00
177.0580, 17081.00
178.2820, 16065.00
179.5050, 15201.00
180.7290, 14587.00
181.9520, 14038.00
183.1760, 13717.00
184.3990, 13299.00
185.6220, 13174.00
186.8450, 13042.00
188.0670, 13123.00
189.2900, 13048.00
190.5120, 13037.00
191.7340, 13326.00
192.9560, 13671.00
194.1780, 13813.00
195.4000, 14240.00
196.6220, 14697.00
197.8430, 15149.00
199.0640, 15293.00
200.2860, 15361.48
201.5070, 15295.00
202.7270, 15040.00
203.9480, 14509.00
205.1690, 14033.00
206.3890, 13786.00
207.6090, 13403.00
208.8290, 13154.00
210.0490, 13150.00
211.2690, 13190.00
212.4890, 13133.00
213.7080, 13079.00
214.9280, 13305.00
216.1470, 13471.00
217.3660, 13587.00
218.5850, 13908.00
219.8030, 14073.00
221.0220, 14304.00
222.2400, 14428.00
223.4590, 15269.00
224.6770, 15555.00
225.8950, 16218.00
227.1120, 17137.00
228.3300, 18226.00
229.5480, 19502.00
230.7650, 21185.00
231.9820, 23317.00
233.1990, 25757.00
234.4160, 28750.00
235.6330, 31402.00
236.8490, 34657.00
238.0660, 37360.00
239.2820, 38933.00
240.4980, 38955.00
241.7140, 37087.00
242.9300, 33700.00
244.1460, 30176.00
245.3610, 26672.00
246.5770, 23561.00
247.7920, 21406.00
249.0070, 19297.00
250.2220, 17939.00
251.4370, 16459.00
252.6510, 15675.00
253.8660, 15085.00
255.0800, 14465.00
256.2940, 14268.00
257.5080, 14179.00
258.7220, 13895.54
259.9360, 14023.00
261.1490, 13675.00
262.3630, 13665.00
263.5760, 13577.00
264.7890, 13725.00
266.0020, 13815.00
267.2150, 13935.00
268.4270, 14231.00
269.6400, 14640.00
270.8520, 14687.00
272.0640, 15163.00
273.2760, 15449.00
274.4880, 15433.00
275.7000, 15811.00
276.9120, 15883.00
278.1230, 16513.00
279.3340, 17118.00
280.5450, 18035.00
281.7560, 19207.00
282.9670, 20543.00
284.1780, 22154.00
285.3880, 23828.00
286.5980, 26042.00
287.8090, 28184.00
289.0190, 30300.00
290.2290, 31782.00
291.4380, 31864.00
292.6480, 30826.00
293.8570, 29006.00
295.0670, 26707.00
296.2760, 24626.00
297.4850, 22863.00
298.6930, 21136.00
299.9020, 19745.00
301.1110, 18605.00
302.3190, 17709.00
303.5270, 17046.00
304.7350, 16485.00
305.9430, 16059.00
307.1510, 15638.00
308.3580, 15389.00
309.5660, 15259.00
310.7730, 15181.00
311.9800, 15308.00
313.1870, 15662.00
314.3940, 15799.00
315.6010, 16314.00
316.8070, 16856.00
318.0130, 17451.00
319.2200, 18057.00
320.4260, 18615.00
321.6310, 19265.00
322.8370, 19878.00
324.0430, 20423.00
325.2480, 20274.00
326.4540, 20348.00
327.6590, 20663.00
328.8640, 20729.00
330.0680, 20966.00
331.2730, 21586.00
332.4780, 22356.00
333.6820, 23569.00
334.8860, 24883.00
336.0900, 26872.00
337.2940, 29341.00
338.4980, 31962.00
339.7010, 35230.00
340.9050, 39022.00
342.1080, 42840.00
343.3110, 46466.00
344.5140, 49697.00
345.7170, 52212.00
346.9200, 52151.00
348.1220, 50565.00
349.3240, 47479.00
350.5270, 43191.00
351.7290, 38729.00
352.9310, 34637.00
354.1320, 30879.00
355.3340, 27671.00
356.5350, 24788.00
357.7370, 22672.00
358.9380, 20937.00
360.1390, 19604.00
361.3400, 18417.00
362.5400, 17566.00
363.7410, 16826.00
364.9410, 16117.19
366.1410, 15642.00
367.3410, 15145.00
368.5410, 14915.00
369.7410, 14676.00
370.9400, 14323.00
372.1400, 14015.00
373.3390, 13996.00
374.5380, 13785.00
375.7370, 13544.00
376.9360, 13471.00
378.1350, 13432.00
379.3330, 13494.00
380.5310, 13511.00
381.7300, 13520.66
382.9280, 13572.84
384.1260, 13578.00
385.3230, 13615.00
386.5210, 13682.00
387.7180, 13629.00
388.9160, 13663.00
390.1130, 13668.00
391.3100, 13768.00
392.5060, 13761.00
393.7030, 13712.00
394.9000, 13695.00
396.0960, 13689.00
397.2920, 13691.00
398.4880, 13929.00
399.6840, 13774.00
400.8800, 13761.00
402.0750, 14022.00
403.2710, 14222.00
404.4660, 14341.00
405.6610, 14536.00
406.8560, 14765.00
408.0510, 15206.00
409.2450, 15501.00
410.4400, 16101.00
411.6340, 16725.00
412.8280, 17436.00
414.0220, 18389.00
415.2160, 19378.00
416.4100, 20187.00
417.6030, 21490.00
418.7970, 23168.00
419.9900, 24236.00
421.1830, 25640.00
422.3760, 26223.00
423.5690, 27182.00
424.7610, 27617.00
425.9540, 28386.00
427.1460, 29940.00
428.3380, 31071.00
429.5300, 32621.00
430.7220, 34454.00
431.9140, 35841.00
433.1050, 36592.00
434.2970, 36805.00
435.4880, 36349.00
436.6790, 36631.00
437.8700, 37257.00
439.0610, 38492.00
440.2510, 40377.00
441.4420, 43913.00
442.6320, 47104.00
443.8220, 51897.00
445.0120, 55723.00
446.2020, 59223.00
447.3910, 60650.00
448.5810, 59967.00
449.7700, 57562.00
450.9600, 54076.00
452.1490, 50988.00
453.3370, 48024.00
454.5260, 44469.00
455.7150, 41067.00
456.9030, 37262.00
458.0910, 33950.00
459.2800, 30455.00
460.4670, 28245.00
461.6550, 25743.00
462.8430, 24085.00
464.0300, 22517.00
465.2180, 21448.00
466.4050, 20475.00
467.5920, 19740.00
468.7790, 19142.00
469.9650, 18945.00
471.1520, 18593.00
472.3380, 18242.00
473.5250, 18188.00
474.7110, 18135.00
475.8970, 18201.00
477.0820, 18339.13
478.2680, 18582.00
479.4540, 18849.00
480.6390, 19310.00
481.8240, 19793.00
483.0090, 20383.00
484.1940, 21251.00
485.3780, 22302.00
486.5630, 23484.00
487.7470, 24796.00
488.9320, 26354.00
490.1160, 28201.00
491.3000, 29949.00
492.4830, 31940.00
493.6670, 33807.00
494.8500, 35048.00
496.0340, 36023.00
497.2170, 36261.00
498.4000, 35272.00
499.5820, 34063.00
500.7650, 32438.00
501.9480, 30911.00
503.1300, 29250.00
504.3120, 28098.00
505.4940, 27016.00
506.6760, 25943.00
507.8580, 24448.00
509.0390, 23055.00
510.2210, 21688.00
511.4020, 20404.00
512.5830, 19292.00
513.7640, 18762.00
514.9450, 18196.00
516.1250, 17880.00
517.3060, 17882.00
518.4860, 17924.00
519.6660, 17935.00
520.8460, 17774.00
522.0260, 17620.00
523.2060, 17335.00
524.3850, 16669.00
525.5650, 16466.00
526.7440, 16153.00
527.9230, 15733.00
529.1020, 15438.00
530.2810, 15325.00
531.4590, 15120.00
532.6380, 14954.00
533.8160, 14775.00
534.9940, 14678.05
536.1720, 14586.94
537.3500, 14569.00
538.5270, 14553.00
539.7050, 14613.00
540.8820, 14764.00
542.0590, 14820.00
543.2360, 15190.00
544.4130, 15388.00
545.5900, 15568.00
546.7660, 15831.00
547.9430, 16303.00
549.1190, 16755.00
550.2950, 17416.00
551.4710, 18442.00
552.6470, 19744.00
553.8220, 21242.00
554.9980, 23462.00
556.1730, 25308.00
557.3480, 28098.00
558.5230, 30958.00
559.6980, 33842.00
560.8730, 35783.00
562.0470, 36925.00
563.2220, 36163.00
564.3960, 33172.00
565.5700, 29318.00
566.7440, 26151.00
567.9170, 23513.00
569.0910, 21764.00
570.2640, 20238.00
571.4380, 19511.00
572.6110, 18841.00
573.7840, 18706.00
574.9570, 18624.00
576.1290, 18809.00
577.3020, 19053.00
578.4740, 19710.00
579.6460, 20176.00
580.8180, 20746.00
581.9900, 21318.00
583.1620, 21760.00
584.3330, 22410.00
585.5040, 23093.00
586.6760, 23559.00
587.8470, 24279.00
589.0180, 24681.00
590.1880, 26012.00
591.3590, 27245.00
592.5290, 28083.00
593.7000, 29051.00
594.8700, 29551.00
596.0400, 29475.00
597.2090, 29003.00
598.3790, 27925.00
599.5490, 26889.00
600.7180, 25793.00
601.8870, 24467.00
603.0560, 23654.00
604.2250, 23000.00
605.3940, 22505.00
606.5620, 22094.00
607.7300, 21558.00
608.8990, 21372.00
610.0670, 20834.00
611.2350, 20704.00
612.4020, 20154.00
613.5700, 19532.00
614.7370, 18732.00
615.9050, 18268.00
617.0720, 17885.00
618.2390, 17238.00
619.4060, 16816.00
620.5720, 16498.00
621.7390, 16342.00
622.9050, 16054.00
624.0710, 15868.00
625.2370, 15425.00
626.4030, 15419.00
627.5690, 15233.00
628.7340, 14996.00
629.9000, 14974.00
631.0650, 14800.00
632.2300, 14703.00
633.3950, 14663.00
634.5600, 14698.00
635.7240, 14674.00
636.8890, 14578.00
638.0530, 14429.00
639.2170, 14394.00
640.3810, 14410.00
641.5450, 14517.00
642.7080, 14422.00
643.8720, 14309.00
645.0350, 14418.00
646.1980, 14204.00
647.3610, 14322.00
648.5240, 14449.00
649.6870, 14271.00
650.8490, 14252.00
652.0120, 14195.00
653.1740, 14283.00
654.3360, 14234.00
655.4980, 14222.00
656.6600, 14109.00
657.8210, 14154.00
658.9830, 14112.00
660.1440, 14108.00
661.3050, 14084.00
662.4660, 14043.00
663.6270, 14202.00
664.7870, 14153.00
665.9480, 14116.00
667.1080, 14076.00
668.2680, 14048.00
669.4280, 14078.00
670.5880, 14161.51
671.7480, 14366.00
672.9070, 14393.00
674.0670, 14596.00
675.2260, 14687.00
676.3850, 14749.00
677.5440, 14855.00
678.7030, 14940.00
679.8610, 14994.00
681.0200, 15510.00
682.1780, 15553.00
683.3360, 15727.00
684.4940, 15731.00
685.6520, 15846.45
686.8090, 15787.00
687.9670, 15800.00
689.1240, 15676.00
690.2810, 15155.00
691.4380, 15079.00
692.5950, 14946.00
693.7520, 14701.00
694.9080, 14643.00
696.0650, 14502.70
697.2210, 14422.00
698.3770, 14313.00
699.5330, 14259.00
700.6880, 14169.00
701.8440, 14179.00
702.9990, 14078.00
704.1550, 14042.00
705.3100, 14138.00
706.4650, 13901.00
707.6190, 13967.00
708.7740, 13810.00
709.9290, 13864.00
711.0830, 13916.00
712.2370, 13761.00
713.3910, 13783.00
714.5450, 13688.00
715.6980, 13814.00
716.8520, 13793.00
718.0050, 13832.00
719.1580, 13871.00
720.3110, 13779.00
721.4640, 13629.00
722.6170, 13736.00
723.7700, 13681.00
724.9220, 13683.00
726.0740, 13651.00
727.2260, 13671.00
728.3780, 13655.00
729.5300, 13908.00
730.6810, 13795.00
731.8330, 13859.00
732.9840, 13786.00
734.1350, 13821.00
735.2860, 13709.00
736.4370, 13800.00
737.5880, 13668.00
738.7380, 13725.00
739.8880, 13785.00
741.0390, 13765.00
742.1890, 13886.00
743.3380, 13829.00
744.4880, 13952.00
745.6380, 13915.00
746.7870, 13917.00
747.9360, 13754.00
749.0850, 13709.00
750.2340, 13975.00
751.3830, 13799.00
752.5310, 13832.00
753.6800, 13905.00
754.8280, 13800.00
755.9760, 13758.00
757.1240, 13794.27
758.2720, 13960.00
759.4190, 13788.00
760.5670, 13939.00
761.7140, 13856.00
762.8610, 13925.00
764.0080, 14026.00
765.1550, 13830.00
766.3020, 13933.00
767.4480, 13872.00
768.5950, 14089.00
769.7410, 14118.00
770.8870, 14050.00
772.0330, 13868.00
773.1780, 13899.00
774.3240, 13981.00
775.4690, 13960.00
776.6140, 14081.00
777.7590, 14146.00
778.9040, 14180.00
780.0490, 14052.00
781.1940, 14089.00
782.3380, 14044.00
783.4820, 14031.00
784.6260, 14092.00
785.7700, 14212.00
786.9140, 14230.00
788.0580, 14081.00
789.2010, 14323.00
790.3450, 14195.00
791.4880, 14220.00
792.6310, 14289.00
793.7730, 14236.00
794.9160, 14316.00
796.0590, 14334.00
797.2010, 14310.00
798.3430, 14372.82
799.4850, 14414.00
800.6270, 14400.00
801.7690, 14403.00
802.9100, 14334.00
804.0520, 14410.00
805.1930, 14517.00
806.3340, 14582.00
807.4750, 14539.00
808.6160, 14371.00
809.7560, 14517.00
810.8970, 14542.00
812.0370, 14729.00
813.1770, 14746.00
814.3170, 14615.00
815.4570, 14684.00
816.5960, 14663.00
817.7360, 14869.00
818.8750, 14912.00
820.0140, 15013.00
821.1530, 14768.00
822.2920, 14895.00
823.4310, 14958.00
824.5690, 15120.00
825.7070, 15157.79
826.8460, 15114.00
827.9840, 15247.00
829.1220, 15348.00
830.2590, 15374.19
831.3970, 15513.00
832.5340, 15394.00
833.6710, 15411.00
834.8080, 15432.00
835.9450, 15504.22
837.0820, 15837.00
838.2190, 15802.00
839.3550, 15907.00
840.4910, 16152.00
841.6270, 16178.00
842.7630, 16119.00
843.8990, 16567.00
845.0350, 16502.00
846.1700, 16761.00
847.3060, 16942.00
848.4410, 17284.00
849.5760, 17626.00
850.7100, 17789.00
851.8450, 18163.00
852.9800, 18328.00
854.1140, 18776.00
855.2480, 19229.00
856.3820, 19780.00
857.5160, 20312.00
858.6500, 20829.00
859.7830, 21485.00
860.9170, 22212.00
862.0500, 22804.00
863.1830, 23377.00
864.3160, 24195.00
865.4480, 25063.00
866.5810, 25709.00
867.7130, 26546.00
868.8460, 27473.00
869.9780, 28522.00
871.1100, 29257.00
872.2410, 30438.00
873.3730, 31220.00
874.5050, 31678.00
875.6360, 32065.00
876.7670, 32249.00
877.8980, 31953.00
879.0290, 31918.00
880.1590, 31368.00
881.2900, 30967.00
882.4200, 30707.00
883.5500, 30117.00
884.6800, 29289.00
885.8100, 28656.00
886.9400, 27691.00
888.0690, 26398.00
889.1990, 25452.00
890.3280, 24413.00
891.4570, 23506.00
892.5860, 22833.00
893.7140, 22012.00
894.8430, 21665.00
895.9710, 21360.00
897.1000, 21263.00
898.2280, 20851.00
899.3560, 20686.00
900.4830, 20805.00
901.6110, 20716.00
902.7380, 20862.00
903.8660, 20869.00
904.9930, 21024.00
906.1200, 21324.00
907.2460, 21364.00
908.3730, 21547.00
909.5000, 21958.00
910.6260, 21984.00
911.7520, 21976.00
912.8780, 21852.00
914.0040, 21373.00
915.1290, 21111.00
916.2550, 20752.00
917.3800, 20372.00
918.5050, 19758.00
919.6300, 19243.00
920.7550, 18893.00
921.8800, 18445.00
923.0040, 18152.00
924.1290, 17748.00
925.2530, 17519.00
926.3770, 17396.00
927.5010, 17162.00
928.6250, 16983.00
929.7480, 16812.00
930.8720, 16763.00
931.9950, 16591.22
933.1180, 16527.87
934.2410, 16369.00
935.3640, 16383.00
936.4860, 16339.00
937.6090, 16258.00
938.7310, 16326.00
939.8530, 16123.00
940.9750, 16148.00
942.0970, 16058.00
943.2180, 16027.00
944.3400, 16048.00
945.4610, 15981.00
946.5820, 16059.00
947.7030, 16067.00
948.8240, 15954.00
949.9450, 15872.00
951.0650, 16186.00
952.1860, 15957.00
953.3060, 16053.00
954.4260, 15911.00
955.5460, 16086.00
956.6650, 16083.00
957.7850, 16036.00
958.9040, 15997.00
960.0230, 16058.00
961.1420, 16125.00
962.2610, 16092.00
963.3800, 16154.00
964.4990, 16366.00
965.6170, 16572.00
966.7350, 16425.00
967.8530, 16852.00
968.9710, 16851.00
970.0890, 17138.00
971.2070, 17507.00
972.3240, 17683.00
973.4410, 18152.00
974.5580, 18322.00
975.6750, 18555.00
976.7920, 18754.00
977.9090, 18701.00
979.0250, 18664.00
980.1410, 18286.00
981.2580, 17893.00
982.3740, 17608.00
983.4890, 17376.00
984.6050, 17223.00
985.7200, 16984.00
986.8360, 16809.32
987.9510, 16707.00
989.0660, 16468.00
990.1810, 16442.00
991.2950, 16337.00
992.4100, 16430.00
993.5240, 16311.00
994.6390, 16237.00
995.7530, 16455.00
996.8660, 16369.00
997.9800, 16421.00
999.0940, 16337.00
1000.207, 16274.00
1001.320, 16464.00
1002.433, 16464.00
1003.546, 16616.00
1004.659, 16640.00
1005.772, 16484.00
1006.884, 16633.00
1007.996, 16515.00
1009.108, 16661.00
1010.220, 16768.00
1011.332, 16877.00
1012.444, 17093.00
1013.555, 17282.00
1014.666, 17413.00
1015.777, 17520.00
1016.888, 17614.75
1017.999, 17707.00
1019.110, 17720.00
1020.220, 17691.00
1021.331, 17696.00
1022.441, 17464.00
1023.551, 17305.00
1024.661, 17332.00
1025.770, 17200.00
1026.880, 17184.00
1027.989, 17400.00
1029.098, 17231.00
1030.207, 17541.00
1031.316, 17435.00
1032.425, 17464.00
1033.533, 17511.00
1034.642, 17644.00
1035.750, 17800.00
1036.858, 17885.00
1037.966, 17928.00
1039.073, 17864.00
1040.181, 17903.00
1041.288, 17907.00
1042.396, 17667.00
1043.503, 17762.00
1044.610, 17477.00
1045.716, 17371.00
1046.823, 17287.00
1047.929, 17316.00
1049.036, 17145.20
1050.142, 17170.46
1051.248, 16895.00
1052.353, 17116.00
1053.459, 17053.00
1054.564, 16954.00
1055.670, 17171.00
1056.775, 16879.00
1057.880, 16968.00
1058.985, 17090.00
1060.089, 17034.00
1061.194, 17008.00
1062.298, 17165.00
1063.402, 16938.00
1064.506, 16985.00
1065.610, 17227.00
1066.713, 17095.00
1067.817, 17119.00
1068.920, 17247.00
1070.023, 17413.00
1071.126, 17528.00
1072.229, 17819.00
1073.332, 17876.00
1074.435, 18198.00
1075.537, 18293.00
1076.639, 18794.00
1077.741, 19045.00
1078.843, 19480.00
1079.945, 19934.00
1081.046, 20617.00
1082.148, 20684.00
1083.249, 21032.00
1084.350, 20954.00
1085.451, 20634.00
1086.551, 20028.00
1087.652, 19688.00
1088.752, 18727.00
1089.853, 18239.00
1090.953, 17921.00
1092.053, 17632.00
1093.152, 17259.00
1094.252, 17133.00
1095.351, 17091.00
1096.451, 16994.00
1097.550, 16798.00
1098.649, 16686.00
1099.748, 16663.00
1100.846, 16759.00
1101.945, 16617.00
1103.043, 16623.00
1104.141, 16390.00
1105.239, 16618.00
1106.337, 16499.00
1107.434, 16601.00
1108.532, 16549.00
1109.629, 16611.00
1110.726, 16517.00
1111.823, 16576.00
1112.920, 16582.82
1114.017, 16725.00
1115.113, 16625.78
1116.210, 16664.00
1117.306, 16675.00
1118.402, 16850.00
1119.498, 16755.00
1120.593, 16933.00
1121.689, 16966.00
1122.784, 16957.00
1123.879, 16844.00
1124.974, 16821.00
1126.069, 16676.00
1127.164, 16704.00
1128.259, 16664.00
1129.353, 16565.97
1130.447, 16527.86
1131.541, 16428.00
1132.635, 16353.00
1133.729, 16338.00
1134.822, 16233.00
1135.916, 16179.00
1137.009, 16088.00
1138.102, 16183.00
1139.195, 16091.00
1140.288, 16162.00
1141.380, 16153.00
1142.473, 16329.00
1143.565, 16163.00
1144.657, 16075.00
1145.749, 16260.00
1146.841, 16110.00
1147.932, 16117.00
1149.024, 16106.00
1150.115, 16121.00
1151.206, 16092.00
1152.297, 16058.00
1153.388, 16035.49
1154.479, 16060.00
1155.569, 16014.00
1156.659, 15990.00
1157.750, 16098.00
1158.839, 16261.00
1159.929, 16108.00
1161.019, 16122.00
1162.108, 16095.00
1163.198, 16032.00
1164.287, 16049.00
1165.376, 16142.00
1166.465, 16183.00
1167.553, 16219.00
1168.642, 16143.00
1169.730, 16231.00
1170.818, 16195.00
1171.906, 16278.00
1172.994, 16291.00
1174.082, 16201.00
1175.170, 16303.00
1176.257, 16234.00
1177.344, 16215.00
1178.431, 16167.00
1179.518, 16221.00
1180.605, 16182.00
1181.691, 16183.00
1182.778, 16036.00
1183.864, 16279.00
1184.950, 16084.00
1186.036, 16332.00
1187.122, 16161.00
1188.207, 16245.00
1189.292, 16256.00
1190.378, 16270.00
1191.463, 16148.00
1192.548, 16161.10
1193.632, 16168.00
1194.717, 16126.00
1195.801, 16162.00
1196.886, 16231.00
1197.970, 16195.87
1199.054, 16262.00
1200.137, 16178.00
1201.221, 16206.00
1202.305, 16187.00
1203.388, 16233.00
1204.471, 16219.18
1205.554, 16105.00
1206.637, 16216.00
1207.719, 16211.00
1208.802, 16223.00
1209.884, 16323.00
1210.966, 16255.00
1212.048, 16218.00
1213.130, 16222.00
1214.212, 16190.00
1215.293, 16194.00
1216.374, 16150.00
1217.456, 16166.02
1218.536, 16291.00
1219.617, 16171.00
1220.698, 16104.00
1221.778, 16060.00
1222.859, 16186.00
1223.939, 16355.00
1225.019, 16287.00
1226.099, 16409.00
1227.178, 16233.00
1228.258, 16164.00
1229.337, 16257.00
1230.417, 16122.00
1231.496, 16131.00
1232.574, 16349.00
1233.653, 16213.00
1234.732, 16211.00
1235.810, 16379.00
1236.888, 16215.00
1237.966, 16312.00
