##NAMES=Epididymite
##RRUFFID=R060773
##IDEAL CHEMISTRY=Na_2_Be_2_Si_6_O_15_&#183;H_2_O
##LOCALITY=unknown
##OWNER=RRUFF
##SOURCE=Michael Scott
##DESCRIPTION=Colorless platy crystals forming a pseudohexagonal aggregate
##STATUS=The identification of this mineral has been confirmed by single-crystal X-ray diffraction.
##URL=rruff.info/R060773
##PIN_ID=M00395
##ORIENTATION=Laser parallel to b* (0 1 0). Fiducial mark perpendicular to laser is parallel to -c [0 0 -1]
102.1160, 11646.00
103.3490, 11700.00
104.5820, 11794.00
105.8150, 11894.00
107.0470, 11913.00
108.2800, 12198.00
109.5120, 12037.00
110.7440, 12189.00
111.9760, 12113.00
113.2080, 12351.00
114.4400, 12231.00
115.6710, 12675.00
116.9030, 12765.00
118.1340, 13263.00
119.3650, 13933.00
120.5960, 14555.00
121.8270, 15540.00
123.0580, 16187.00
124.2880, 16589.00
125.5190, 16696.00
126.7490, 17072.00
127.9790, 17741.00
129.2090, 19034.00
130.4390, 20644.00
131.6680, 22402.00
132.8980, 23237.00
134.1270, 22837.00
135.3560, 21026.00
136.5850, 19188.00
137.8140, 17371.00
139.0430, 15896.00
140.2710, 15107.00
141.5000, 14436.00
142.7280, 14083.00
143.9560, 14179.00
145.1840, 14257.00
146.4120, 14297.00
147.6390, 14836.00
148.8670, 15382.00
150.0940, 15659.00
151.3210, 15920.00
152.5490, 15773.00
153.7750, 15211.00
155.0020, 14393.00
156.2290, 13880.00
157.4550, 13308.00
158.6810, 12964.00
159.9080, 12747.00
161.1340, 12567.00
162.3590, 12489.00
163.5850, 12425.00
164.8110, 12369.00
166.0360, 12319.00
167.2610, 12304.00
168.4860, 12254.00
169.7110, 12188.00
170.9360, 12297.00
172.1610, 12372.00
173.3850, 12353.00
174.6100, 12507.00
175.8340, 12365.00
177.0580, 12441.00
178.2820, 12522.00
179.5050, 12437.00
180.7290, 12380.00
181.9520, 12514.00
183.1760, 12425.00
184.3990, 12556.00
185.6220, 12763.00
186.8450, 12632.00
188.0670, 12927.00
189.2900, 12788.00
190.5120, 13076.00
191.7340, 13149.00
192.9560, 13383.00
194.1780, 13534.00
195.4000, 13510.00
196.6220, 13769.00
197.8430, 14018.00
199.0640, 14121.00
200.2860, 14127.69
201.5070, 14085.09
202.7270, 13922.00
203.9480, 13757.00
205.1690, 13555.00
206.3890, 13306.00
207.6090, 13320.00
208.8290, 13314.00
210.0490, 13344.00
211.2690, 13200.00
212.4890, 13314.00
213.7080, 13268.00
214.9280, 13305.00
216.1470, 13416.00
217.3660, 13428.00
218.5850, 13530.15
219.8030, 13494.00
221.0220, 13701.00
222.2400, 13816.00
223.4590, 13888.00
224.6770, 14086.00
225.8950, 14213.00
227.1120, 14501.00
228.3300, 14775.00
229.5480, 15309.00
230.7650, 15804.00
231.9820, 16363.00
233.1990, 16994.00
234.4160, 17879.00
235.6330, 18918.00
236.8490, 20193.00
238.0660, 21710.00
239.2820, 22790.00
240.4980, 24000.00
241.7140, 24401.00
242.9300, 24036.00
244.1460, 23418.00
245.3610, 22380.00
246.5770, 20972.00
247.7920, 19766.00
249.0070, 18734.00
250.2220, 18179.00
251.4370, 17514.00
252.6510, 17093.00
253.8660, 16557.00
255.0800, 16542.00
256.2940, 16205.00
257.5080, 16078.00
258.7220, 15997.00
259.9360, 15843.00
261.1490, 15579.00
262.3630, 15146.00
263.5760, 15087.00
264.7890, 14830.00
266.0020, 14654.00
267.2150, 14448.00
268.4270, 14200.00
269.6400, 14254.00
270.8520, 14164.00
272.0640, 13992.00
273.2760, 13912.00
274.4880, 14017.00
275.7000, 13916.00
276.9120, 14050.00
278.1230, 14209.00
279.3340, 14106.00
280.5450, 14466.00
281.7560, 14558.00
282.9670, 14623.00
284.1780, 14726.00
285.3880, 14779.00
286.5980, 14735.00
287.8090, 14505.00
289.0190, 14276.00
290.2290, 14082.00
291.4380, 14165.00
292.6480, 13926.00
293.8570, 13964.00
295.0670, 13950.00
296.2760, 13863.00
297.4850, 13750.00
298.6930, 13814.00
299.9020, 13886.00
301.1110, 13838.00
302.3190, 13904.21
303.5270, 14015.00
304.7350, 13914.00
305.9430, 13959.00
307.1510, 13885.00
308.3580, 14002.00
309.5660, 13876.00
310.7730, 14038.00
311.9800, 13990.00
313.1870, 14054.00
314.3940, 14149.00
315.6010, 14172.00
316.8070, 14049.00
318.0130, 14119.00
319.2200, 14160.00
320.4260, 14059.00
321.6310, 14111.00
322.8370, 14048.00
324.0430, 14074.00
325.2480, 14270.00
326.4540, 14116.00
327.6590, 14301.00
328.8640, 14305.00
330.0680, 14238.00
331.2730, 14311.00
332.4780, 14468.00
333.6820, 14485.00
334.8860, 14508.00
336.0900, 14414.00
337.2940, 14374.00
338.4980, 14511.00
339.7010, 14545.00
340.9050, 14704.00
342.1080, 14722.00
343.3110, 14642.00
344.5140, 14657.00
345.7170, 14690.00
346.9200, 14777.00
348.1220, 14787.61
349.3240, 14806.00
350.5270, 14825.00
351.7290, 14881.00
352.9310, 14837.00
354.1320, 14885.00
355.3340, 14911.00
356.5350, 14812.00
357.7370, 14797.00
358.9380, 14801.25
360.1390, 15009.00
361.3400, 14864.00
362.5400, 14991.00
363.7410, 15138.00
364.9410, 15109.00
366.1410, 15172.00
367.3410, 15306.00
368.5410, 15343.00
369.7410, 15535.00
370.9400, 15663.00
372.1400, 15740.00
373.3390, 15929.00
374.5380, 16261.00
375.7370, 16568.00
376.9360, 16877.00
378.1350, 17286.00
379.3330, 17605.00
380.5310, 18041.00
381.7300, 18329.00
382.9280, 18462.00
384.1260, 18569.00
385.3230, 18477.65
386.5210, 18238.00
387.7180, 17989.00
388.9160, 17540.00
390.1130, 17002.00
391.3100, 16853.00
392.5060, 16698.00
393.7030, 16622.00
394.9000, 16285.00
396.0960, 16317.00
397.2920, 16554.00
398.4880, 17012.00
399.6840, 17300.00
400.8800, 17938.00
402.0750, 18601.00
403.2710, 19791.00
404.4660, 21692.00
405.6610, 23842.00
406.8560, 26094.00
408.0510, 26813.00
409.2450, 26001.00
410.4400, 24320.00
411.6340, 22059.00
412.8280, 19838.00
414.0220, 18295.00
415.2160, 17303.00
416.4100, 16667.00
417.6030, 16406.00
418.7970, 16174.00
419.9900, 16026.00
421.1830, 15902.00
422.3760, 15640.00
423.5690, 15757.00
424.7610, 15894.00
425.9540, 15844.00
427.1460, 15722.00
428.3380, 15724.00
429.5300, 15616.00
430.7220, 15859.00
431.9140, 15876.00
433.1050, 15779.00
434.2970, 16034.00
435.4880, 15935.00
436.6790, 15928.00
437.8700, 15849.00
439.0610, 15872.00
440.2510, 16013.00
441.4420, 15920.00
442.6320, 15962.00
443.8220, 16387.00
445.0120, 16183.46
446.2020, 16265.00
447.3910, 16106.00
448.5810, 16100.00
449.7700, 16104.00
450.9600, 16217.00
452.1490, 16226.00
453.3370, 16402.00
454.5260, 16409.00
455.7150, 16343.00
456.9030, 16499.00
458.0910, 16746.00
459.2800, 16961.00
460.4670, 16994.00
461.6550, 17231.00
462.8430, 17531.00
464.0300, 17878.00
465.2180, 18240.00
466.4050, 18609.00
467.5920, 19411.00
468.7790, 20282.00
469.9650, 21552.00
471.1520, 23341.00
472.3380, 25848.00
473.5250, 29003.00
474.7110, 31726.00
475.8970, 33245.00
477.0820, 32528.00
478.2680, 30483.00
479.4540, 27331.00
480.6390, 24315.00
481.8240, 22281.00
483.0090, 20774.00
484.1940, 19940.00
485.3780, 19485.00
486.5630, 18966.00
487.7470, 18696.00
488.9320, 18496.00
490.1160, 18167.00
491.3000, 17997.00
492.4830, 17968.00
493.6670, 17776.00
494.8500, 17900.00
496.0340, 17891.00
497.2170, 17911.00
498.4000, 18028.00
499.5820, 18176.00
500.7650, 18303.00
501.9480, 18574.00
503.1300, 18750.00
504.3120, 19323.00
505.4940, 19632.00
506.6760, 20212.00
507.8580, 21149.00
509.0390, 22432.00
510.2210, 23899.00
511.4020, 26066.00
512.5830, 28815.00
513.7640, 32574.00
514.9450, 37729.00
516.1250, 44570.00
517.3060, 52603.00
518.4860, 60147.00
519.6660, 63607.00
520.8460, 62708.00
522.0260, 57278.00
523.2060, 49800.00
524.3850, 41780.00
525.5650, 35327.00
526.7440, 30512.00
527.9230, 26908.00
529.1020, 24866.00
530.2810, 23235.00
531.4590, 21882.00
532.6380, 21155.00
533.8160, 20559.00
534.9940, 20082.00
536.1720, 19667.00
537.3500, 19271.00
538.5270, 19019.17
539.7050, 18852.00
540.8820, 18675.00
542.0590, 18586.00
543.2360, 18558.00
544.4130, 18496.00
545.5900, 18388.00
546.7660, 18355.00
547.9430, 18266.00
549.1190, 18237.00
550.2950, 17989.00
551.4710, 18117.00
552.6470, 17954.00
553.8220, 18099.00
554.9980, 17921.00
556.1730, 18064.00
557.3480, 18112.00
558.5230, 18023.00
559.6980, 17995.00
560.8730, 17927.00
562.0470, 17916.13
563.2220, 17819.00
564.3960, 17918.00
565.5700, 18063.00
566.7440, 18094.00
567.9170, 17953.00
569.0910, 18070.00
570.2640, 18045.00
571.4380, 18129.00
572.6110, 17980.00
573.7840, 18005.00
574.9570, 18157.00
576.1290, 18279.00
577.3020, 18359.00
578.4740, 18381.00
579.6460, 18686.00
580.8180, 18774.00
581.9900, 19025.00
583.1620, 19320.00
584.3330, 19259.00
585.5040, 19482.00
586.6760, 19273.00
587.8470, 18968.00
589.0180, 18876.00
590.1880, 18814.00
591.3590, 18402.00
592.5290, 18402.00
593.7000, 18535.00
594.8700, 18429.00
596.0400, 18559.00
597.2090, 18354.00
598.3790, 18470.00
599.5490, 18279.00
600.7180, 18362.00
601.8870, 18258.00
603.0560, 18367.00
604.2250, 18398.00
605.3940, 18642.00
606.5620, 18424.00
607.7300, 18345.00
608.8990, 18434.00
610.0670, 18235.00
611.2350, 18546.00
612.4020, 18573.00
613.5700, 18630.00
614.7370, 18601.00
615.9050, 18673.00
617.0720, 18692.00
618.2390, 18734.00
619.4060, 19094.00
620.5720, 18919.00
621.7390, 19347.00
622.9050, 19521.00
624.0710, 19505.00
625.2370, 19504.00
626.4030, 19404.00
627.5690, 19482.00
628.7340, 19319.00
629.9000, 19349.00
631.0650, 19233.00
632.2300, 19235.80
633.3950, 19216.88
634.5600, 19259.00
635.7240, 19223.00
636.8890, 19239.00
638.0530, 19306.00
639.2170, 19247.71
640.3810, 19392.00
641.5450, 19219.00
642.7080, 19318.00
643.8720, 19388.00
645.0350, 19577.00
646.1980, 19558.00
647.3610, 19407.00
648.5240, 19523.00
649.6870, 19398.00
650.8490, 19365.00
652.0120, 19559.00
653.1740, 19368.00
654.3360, 19237.00
655.4980, 19317.00
656.6600, 19298.00
657.8210, 19157.00
658.9830, 19099.00
660.1440, 19145.00
661.3050, 19132.00
662.4660, 19065.00
663.6270, 19023.00
664.7870, 19176.00
665.9480, 19059.00
667.1080, 18907.00
668.2680, 19184.00
669.4280, 19078.00
670.5880, 19185.00
671.7480, 19160.00
672.9070, 18949.00
674.0670, 19173.00
675.2260, 19029.00
676.3850, 19179.00
677.5440, 18998.00
678.7030, 19240.00
679.8610, 19198.00
681.0200, 19107.00
682.1780, 19177.00
683.3360, 19141.00
684.4940, 19146.00
685.6520, 19201.00
686.8090, 19355.00
687.9670, 19432.00
689.1240, 19228.00
690.2810, 19245.00
691.4380, 19007.00
692.5950, 19298.00
693.7520, 19211.00
694.9080, 19435.00
696.0650, 19317.00
697.2210, 19297.00
698.3770, 19382.00
699.5330, 19463.00
700.6880, 19341.00
701.8440, 19462.00
702.9990, 19505.00
704.1550, 19420.00
705.3100, 19379.00
706.4650, 19543.00
707.6190, 19608.00
708.7740, 19637.00
709.9290, 19486.00
711.0830, 19563.00
712.2370, 19452.00
713.3910, 19565.00
714.5450, 19537.00
715.6980, 19825.00
716.8520, 19616.00
718.0050, 19783.00
719.1580, 19745.00
720.3110, 19752.00
721.4640, 19755.00
722.6170, 19704.00
723.7700, 19760.94
724.9220, 19862.00
726.0740, 19861.00
727.2260, 19874.00
728.3780, 19954.00
729.5300, 19823.00
730.6810, 19971.00
731.8330, 20001.00
732.9840, 20160.00
734.1350, 20096.00
735.2860, 20136.00
736.4370, 20158.00
737.5880, 20124.00
738.7380, 20097.00
739.8880, 20133.00
741.0390, 20240.00
742.1890, 20267.54
743.3380, 20330.00
744.4880, 20439.00
745.6380, 20496.00
746.7870, 20631.66
747.9360, 20612.00
749.0850, 20813.00
750.2340, 20739.00
751.3830, 20888.00
752.5310, 21177.00
753.6800, 21065.00
754.8280, 21162.00
755.9760, 21205.00
757.1240, 21154.00
758.2720, 21110.00
759.4190, 21055.43
760.5670, 20995.98
761.7140, 20941.00
762.8610, 20876.00
764.0080, 20934.00
765.1550, 20897.00
766.3020, 20952.00
767.4480, 20661.00
768.5950, 20693.00
769.7410, 20707.00
770.8870, 20860.00
772.0330, 20833.00
773.1780, 20796.00
774.3240, 20680.00
775.4690, 20744.00
776.6140, 20926.00
777.7590, 20854.00
778.9040, 21016.00
780.0490, 20780.00
781.1940, 20888.00
782.3380, 20925.00
783.4820, 20961.00
784.6260, 21133.00
785.7700, 21081.00
786.9140, 21029.00
788.0580, 21030.00
789.2010, 21143.00
790.3450, 20988.00
791.4880, 21222.00
792.6310, 21154.00
793.7730, 21194.00
794.9160, 21132.00
796.0590, 21038.00
797.2010, 21319.00
798.3430, 21214.00
799.4850, 21109.00
800.6270, 21378.00
801.7690, 21331.00
802.9100, 21423.00
804.0520, 21406.00
805.1930, 21425.20
806.3340, 21504.00
807.4750, 21464.00
808.6160, 21504.00
809.7560, 21540.00
810.8970, 21802.00
812.0370, 21894.00
813.1770, 21874.00
814.3170, 21906.00
815.4570, 21870.00
816.5960, 22151.00
817.7360, 22320.00
818.8750, 22375.00
820.0140, 22367.21
821.1530, 22180.00
822.2920, 22182.00
823.4310, 21983.00
824.5690, 21956.00
825.7070, 21946.00
826.8460, 22143.00
827.9840, 21778.00
829.1220, 21980.00
830.2590, 21966.00
831.3970, 21951.00
832.5340, 22006.00
833.6710, 21837.00
834.8080, 22133.00
835.9450, 21948.00
837.0820, 21845.00
838.2190, 22120.00
839.3550, 22118.00
840.4910, 22067.00
841.6270, 22153.00
842.7630, 22016.00
843.8990, 22195.00
845.0350, 22268.00
846.1700, 22245.00
847.3060, 22274.00
848.4410, 22316.66
849.5760, 22336.07
850.7100, 22422.00
851.8450, 22442.00
852.9800, 22555.00
854.1140, 22667.00
855.2480, 22723.00
856.3820, 22992.00
857.5160, 22903.00
858.6500, 22862.00
859.7830, 23092.00
860.9170, 22961.00
862.0500, 22939.00
863.1830, 22813.00
864.3160, 22804.00
865.4480, 22807.00
866.5810, 22627.00
867.7130, 22646.00
868.8460, 22677.00
869.9780, 22820.00
871.1100, 22782.00
872.2410, 22786.00
873.3730, 22821.36
874.5050, 22651.00
875.6360, 22797.00
876.7670, 22723.00
877.8980, 22653.00
879.0290, 22715.00
880.1590, 22706.00
881.2900, 22956.00
882.4200, 22755.00
883.5500, 22869.00
884.6800, 22698.00
885.8100, 22730.00
886.9400, 22737.54
888.0690, 22753.00
889.1990, 22772.00
890.3280, 22794.00
891.4570, 22842.00
892.5860, 22690.00
893.7140, 22949.00
894.8430, 23045.00
895.9710, 22685.00
897.1000, 22888.00
898.2280, 22814.00
899.3560, 22936.00
900.4830, 22991.00
901.6110, 22987.00
902.7380, 23023.00
903.8660, 23047.27
904.9930, 23058.00
906.1200, 23064.00
907.2460, 23055.00
908.3730, 22998.00
909.5000, 22893.00
910.6260, 23056.00
911.7520, 22989.00
912.8780, 23008.00
914.0040, 23126.00
915.1290, 23078.00
916.2550, 23038.00
917.3800, 23097.00
918.5050, 23199.00
919.6300, 23092.00
920.7550, 22993.00
921.8800, 23235.00
923.0040, 23030.00
924.1290, 23187.00
925.2530, 23010.00
926.3770, 23123.00
927.5010, 23128.00
928.6250, 23318.00
929.7480, 23399.00
930.8720, 23235.00
931.9950, 23370.00
933.1180, 23230.00
934.2410, 23543.00
935.3640, 23375.00
936.4860, 23323.00
937.6090, 23415.00
938.7310, 23350.00
939.8530, 23588.00
940.9750, 23438.00
942.0970, 23513.00
943.2180, 23125.00
944.3400, 23508.00
945.4610, 23283.00
946.5820, 23262.00
947.7030, 23504.00
948.8240, 23549.00
949.9450, 23603.00
951.0650, 23526.00
952.1860, 23662.00
953.3060, 23619.30
954.4260, 23549.00
955.5460, 23689.00
956.6650, 23463.00
957.7850, 23642.00
958.9040, 23679.00
960.0230, 23527.00
961.1420, 23551.00
962.2610, 23606.00
963.3800, 23806.00
964.4990, 23821.00
965.6170, 23545.00
966.7350, 23742.00
967.8530, 23736.00
968.9710, 23861.00
970.0890, 23540.00
971.2070, 23652.00
972.3240, 23669.00
973.4410, 23709.00
974.5580, 23760.00
975.6750, 23803.00
976.7920, 23658.00
977.9090, 23900.00
979.0250, 24284.00
980.1410, 24224.00
981.2580, 24256.07
982.3740, 24017.00
983.4890, 24060.00
984.6050, 23997.00
985.7200, 24039.00
986.8360, 24119.00
987.9510, 24118.00
989.0660, 24188.00
990.1810, 23949.00
991.2950, 24376.00
992.4100, 24232.00
993.5240, 24383.00
994.6390, 24087.00
995.7530, 24410.00
996.8660, 24417.00
997.9800, 24396.00
999.0940, 24666.00
1000.207, 24846.00
1001.320, 25298.00
1002.433, 25264.00
1003.546, 25070.00
1004.659, 24875.00
1005.772, 24962.00
1006.884, 24615.00
1007.996, 24707.00
1009.108, 24702.00
1010.220, 24913.00
1011.332, 24806.00
1012.444, 24851.00
1013.555, 24715.00
1014.666, 24694.00
1015.777, 24728.00
1016.888, 24748.00
1017.999, 24786.00
1019.110, 24671.00
1020.220, 24814.00
1021.331, 24716.00
1022.441, 24746.00
1023.551, 24789.00
1024.661, 24934.00
1025.770, 24773.00
1026.880, 25104.00
1027.989, 24873.00
1029.098, 24887.00
1030.207, 24936.00
1031.316, 24837.00
1032.425, 24814.00
1033.533, 24746.00
1034.642, 24886.00
1035.750, 24899.00
1036.858, 25139.00
1037.966, 25149.00
1039.073, 25010.00
1040.181, 25193.00
1041.288, 25291.00
1042.396, 25216.00
1043.503, 25299.00
1044.610, 25470.00
1045.716, 25852.00
1046.823, 25824.00
1047.929, 25914.00
1049.036, 25986.00
1050.142, 25946.00
1051.248, 26020.00
1052.353, 25856.00
1053.459, 25816.00
1054.564, 25846.05
1055.670, 26126.00
1056.775, 25882.00
1057.880, 25959.00
1058.985, 25968.00
1060.089, 25896.00
1061.194, 25818.00
1062.298, 26071.00
1063.402, 25901.00
1064.506, 25955.00
1065.610, 25795.00
1066.713, 26009.00
1067.817, 26003.00
1068.920, 25996.00
1070.023, 25944.00
1071.126, 25842.00
1072.229, 25888.00
1073.332, 25954.00
1074.435, 26072.00
1075.537, 26028.00
1076.639, 26031.00
1077.741, 26017.00
1078.843, 25941.00
1079.945, 25812.00
1081.046, 25857.00
1082.148, 25993.00
1083.249, 25840.00
1084.350, 25652.00
1085.451, 25855.00
1086.551, 25799.00
1087.652, 25844.00
1088.752, 25842.32
1089.853, 25744.00
1090.953, 25671.00
1092.053, 25712.00
1093.152, 25454.00
1094.252, 25842.00
1095.351, 25802.00
1096.451, 25619.00
1097.550, 25999.00
1098.649, 25803.00
1099.748, 25847.00
1100.846, 25709.00
1101.945, 25898.00
1103.043, 25911.00
1104.141, 26072.00
1105.239, 25830.00
1106.337, 25931.00
1107.434, 26182.00
1108.532, 26134.00
1109.629, 26523.00
1110.726, 26051.00
1111.823, 26163.00
1112.920, 26270.00
1114.017, 26292.00
1115.113, 26392.00
1116.210, 26637.00
1117.306, 26602.00
1118.402, 26774.00
1119.498, 26705.00
1120.593, 26502.00
1121.689, 26707.00
1122.784, 26895.00
1123.879, 26625.00
1124.974, 26652.00
1126.069, 26867.00
1127.164, 26908.00
1128.259, 26660.00
1129.353, 26884.00
1130.447, 26908.46
1131.541, 27136.00
1132.635, 27286.00
1133.729, 27171.00
1134.822, 27559.00
1135.916, 27695.00
1137.009, 27725.00
1138.102, 28098.00
1139.195, 28157.00
1140.288, 28164.00
1141.380, 28310.00
1142.473, 28283.00
1143.565, 28119.00
1144.657, 28229.00
1145.749, 27915.00
1146.841, 27830.00
1147.932, 27466.00
1149.024, 27299.00
1150.115, 27196.00
1151.206, 27179.00
1152.297, 27030.00
1153.388, 26858.00
1154.479, 26714.00
1155.569, 26747.00
1156.659, 26988.00
1157.750, 26822.00
1158.839, 26751.00
1159.929, 26695.00
1161.019, 26571.00
1162.108, 26725.00
1163.198, 26625.00
1164.287, 26451.00
1165.376, 26567.00
1166.465, 26709.00
1167.553, 26518.00
1168.642, 26582.00
1169.730, 26556.00
1170.818, 26882.00
1171.906, 26705.00
1172.994, 26796.00
1174.082, 26566.00
1175.170, 26818.00
1176.257, 26981.00
1177.344, 26931.00
1178.431, 26631.00
1179.518, 26787.00
1180.605, 26533.00
1181.691, 26813.00
1182.778, 26834.00
1183.864, 26700.00
1184.950, 27169.00
1186.036, 26893.00
1187.122, 26733.00
1188.207, 26990.00
1189.292, 26640.00
1190.378, 26905.00
1191.463, 26840.00
1192.548, 26944.00
1193.632, 26930.00
1194.717, 26866.00
1195.801, 26880.00
1196.886, 26834.00
1197.970, 26969.00
1199.054, 26760.00
1200.137, 27071.00
1201.221, 27026.00
1202.305, 26899.00
1203.388, 26930.00
1204.471, 26929.00
1205.554, 26849.00
1206.637, 26997.00
1207.719, 27091.00
1208.802, 27059.00
1209.884, 27050.00
1210.966, 27284.00
1212.048, 27071.00
1213.130, 27166.00
1214.212, 27059.00
1215.293, 27204.00
1216.374, 27241.00
1217.456, 27030.00
1218.536, 27108.00
1219.617, 27172.00
1220.698, 27395.00
1221.778, 27110.00
1222.859, 27325.00
1223.939, 27180.00
1225.019, 27387.00
1226.099, 27481.00
1227.178, 27383.00
1228.258, 27295.00
1229.337, 27256.00
1230.417, 27508.00
1231.496, 27517.00
1232.574, 27534.00
1233.653, 27366.00
1234.732, 27453.00
1235.810, 27444.00
1236.888, 27449.32
1237.966, 27500.04
1239.044, 27476.00
1240.122, 27627.00
1241.199, 27516.00
1242.277, 27704.00
1243.354, 27625.00
1244.431, 27625.00
1245.508, 27752.00
1246.585, 27711.00
1247.661, 27560.00
1248.738, 27548.00
1249.814, 27608.00
1250.890, 27599.17
1251.966, 27660.37
1253.042, 27685.00
1254.117, 27747.00
1255.193, 27697.00
1256.268, 27660.00
1257.343, 27564.00
1258.418, 27731.00
1259.493, 27726.00
1260.567, 27823.00
1261.642, 27789.00
1262.716, 28018.00
1263.790, 28137.00
1264.864, 27992.00
1265.938, 28091.00
1267.011, 27955.00
1268.085, 28276.00
1269.158, 28004.00
1270.231, 28265.00
1271.304, 28073.00
1272.377, 28151.00
1273.450, 28321.00
1274.522, 28097.00
1275.594, 28177.00
1276.666, 28050.00
1277.738, 27907.00
1278.810, 28001.00
1279.882, 28218.00
1280.953, 28195.00
1282.025, 28114.00
1283.096, 28082.00
1284.167, 27889.00
1285.238, 28073.00
1286.308, 28290.00
