##NAMES=Epidote
##RRUFFID=R050303
##IDEAL CHEMISTRY=Ca_2_Fe^3+^Al_2_(Si_2_O_7_)(SiO_4_)O(OH)
##LOCALITY=San Martin mine, Zacatecas, Mexico
##OWNER=RRUFF
##SOURCE=Eugene Schlepp
##DESCRIPTION=Green elongated prismatic crystals
##STATUS=The identification of this mineral has been confirmed by X-ray diffraction and chemical analysis
##URL=rruff.info/R050303
##MEASURED CHEMISTRY=Ca_2.00_Al_2.00_(Fe^3+^_0.97_Al_0.03_)(SiO_4_)(Si_2_O_7_)O(OH)
##PIN_ID=L00691
##ORIENTATION=Laser parallel to -b* (0 -1 0). Fiducial mark perpendicular to laser is parallel to -c [0 0 -1]
53.91000, 1646.000
55.14900, 4222.000
56.38700, 5187.000
57.62600, 4187.000
58.86400, 3681.000
60.10300, 1696.000
61.34100, 1565.000
62.57900, 1544.000
63.81700, 1584.000
65.05400, 1676.000
66.29200, 1772.000
67.52900, 1930.000
68.76700, 2269.000
70.00400, 2552.000
71.24100, 2766.000
72.47700, 3055.000
73.71400, 3517.000
74.95100, 4180.000
76.18700, 4890.000
77.42300, 5690.000
78.65900, 6822.000
79.89500, 8261.000
81.13100, 10213.00
82.36700, 12664.00
83.60200, 15669.00
84.83700, 18662.00
86.07200, 21780.00
87.30800, 24561.00
88.54200, 26497.00
89.77700, 26654.00
91.01200, 25363.00
92.24600, 22956.00
93.48000, 20037.00
94.71400, 17361.00
95.94800, 14921.00
97.18200, 13006.00
98.41600, 11731.00
99.64900, 10759.00
100.8830, 9871.000
102.1160, 9038.000
103.3490, 8649.000
104.5820, 8609.000
105.8150, 8804.000
107.0470, 9597.000
108.2800, 10459.00
109.5120, 9325.000
110.7440, 8199.000
111.9760, 7923.000
113.2080, 7871.000
114.4400, 8179.000
115.6710, 8427.000
116.9030, 8328.000
118.1340, 8506.000
119.3650, 8652.000
120.5960, 9134.000
121.8270, 10037.00
123.0580, 11036.00
124.2880, 12013.00
125.5190, 13574.00
126.7490, 15453.00
127.9790, 18092.00
129.2090, 20296.00
130.4390, 21869.00
131.6680, 21058.00
132.8980, 19210.00
134.1270, 17095.00
135.3560, 15110.00
136.5850, 13739.00
137.8140, 12721.00
139.0430, 12067.00
140.2710, 11773.00
141.5000, 11687.00
142.7280, 12050.00
143.9560, 12057.00
145.1840, 12088.00
146.4120, 12047.00
147.6390, 11327.00
148.8670, 11191.00
150.0940, 11185.00
151.3210, 11411.00
152.5490, 11791.00
153.7750, 12503.00
155.0020, 13392.00
156.2290, 14516.00
157.4550, 15885.00
158.6810, 17581.00
159.9080, 19341.00
161.1340, 21623.00
162.3590, 23887.00
163.5850, 25710.00
164.8110, 26539.00
166.0360, 26462.00
167.2610, 25548.00
168.4860, 23798.00
169.7110, 22194.00
170.9360, 20539.00
172.1610, 18619.00
173.3850, 16804.00
174.6100, 15146.00
175.8340, 13893.00
177.0580, 12891.00
178.2820, 11955.00
179.5050, 11259.00
180.7290, 10692.92
181.9520, 10275.00
183.1760, 10031.00
184.3990, 9861.000
185.6220, 9882.000
186.8450, 9962.000
188.0670, 9986.000
189.2900, 10169.00
190.5120, 10339.00
191.7340, 10623.00
192.9560, 11248.00
194.1780, 11679.00
195.4000, 12447.00
196.6220, 13145.00
197.8430, 13602.00
199.0640, 14391.00
200.2860, 14926.00
201.5070, 14786.00
202.7270, 14566.00
203.9480, 14176.00
205.1690, 13793.00
206.3890, 13473.00
207.6090, 13187.00
208.8290, 13280.00
210.0490, 13329.00
211.2690, 13688.00
212.4890, 14094.87
213.7080, 14690.05
214.9280, 15398.00
216.1470, 16270.00
217.3660, 17374.00
218.5850, 18382.00
219.8030, 19665.00
221.0220, 21080.00
222.2400, 22418.00
223.4590, 23186.00
224.6770, 23845.92
225.8950, 24508.00
227.1120, 24147.00
228.3300, 23776.00
229.5480, 23066.00
230.7650, 22522.00
231.9820, 22450.00
233.1990, 22968.00
234.4160, 23881.00
235.6330, 25253.00
236.8490, 26696.00
238.0660, 28090.00
239.2820, 29014.00
240.4980, 29420.00
241.7140, 28079.00
242.9300, 25950.00
244.1460, 23786.00
245.3610, 21429.00
246.5770, 19001.00
247.7920, 17077.00
249.0070, 15291.00
250.2220, 14064.00
251.4370, 12740.00
252.6510, 12099.00
253.8660, 11396.00
255.0800, 11008.00
256.2940, 10716.00
257.5080, 10928.00
258.7220, 10745.89
259.9360, 11215.00
261.1490, 11081.00
262.3630, 11396.00
263.5760, 12088.00
264.7890, 12923.00
266.0020, 13943.00
267.2150, 15193.00
268.4270, 17003.00
269.6400, 18629.00
270.8520, 20528.00
272.0640, 21680.00
273.2760, 22034.00
274.4880, 21123.00
275.7000, 19643.00
276.9120, 18165.00
278.1230, 17118.00
279.3340, 16075.00
280.5450, 15720.00
281.7560, 15514.00
282.9670, 16146.00
284.1780, 16671.00
285.3880, 18000.00
286.5980, 19311.00
287.8090, 20641.00
289.0190, 21961.00
290.2290, 22893.00
291.4380, 23136.00
292.6480, 22886.00
293.8570, 21766.00
295.0670, 20871.00
296.2760, 19747.00
297.4850, 18444.00
298.6930, 17255.00
299.9020, 15993.00
301.1110, 15173.00
302.3190, 14230.00
303.5270, 13523.00
304.7350, 12868.00
305.9430, 12306.00
307.1510, 11877.45
308.3580, 11525.81
309.5660, 11282.00
310.7730, 11145.00
311.9800, 11081.00
313.1870, 11138.00
314.3940, 11603.00
315.6010, 11852.00
316.8070, 12417.00
318.0130, 13063.00
319.2200, 13721.00
320.4260, 14431.00
321.6310, 14959.00
322.8370, 15249.00
324.0430, 15102.00
325.2480, 14775.00
326.4540, 14248.00
327.6590, 14001.00
328.8640, 13649.00
330.0680, 13595.00
331.2730, 13788.00
332.4780, 13978.00
333.6820, 14663.00
334.8860, 15417.00
336.0900, 16622.00
337.2940, 17932.00
338.4980, 19959.00
339.7010, 21778.00
340.9050, 24023.00
342.1080, 26448.00
343.3110, 28760.00
344.5140, 30739.00
345.7170, 31891.00
346.9200, 32758.00
348.1220, 31745.00
349.3240, 30667.00
350.5270, 28258.00
351.7290, 25706.00
352.9310, 23252.00
354.1320, 21075.00
355.3340, 18719.00
356.5350, 16725.00
357.7370, 15083.00
358.9380, 13939.00
360.1390, 12810.00
361.3400, 11966.00
362.5400, 11262.00
363.7410, 10598.00
364.9410, 10266.00
366.1410, 9863.000
367.3410, 9645.000
368.5410, 9280.000
369.7410, 9154.000
370.9400, 8964.000
372.1400, 8863.000
373.3390, 8891.000
374.5380, 8913.000
375.7370, 9097.000
376.9360, 9295.000
378.1350, 9364.000
379.3330, 9610.000
380.5310, 9996.000
381.7300, 10525.00
382.9280, 10960.00
384.1260, 11363.00
385.3230, 11848.00
386.5210, 11944.00
387.7180, 12304.00
388.9160, 11791.00
390.1130, 11322.00
391.3100, 10940.00
392.5060, 10641.00
393.7030, 10376.00
394.9000, 9964.000
396.0960, 9931.000
397.2920, 9880.000
398.4880, 9817.000
399.6840, 9977.000
400.8800, 10171.00
402.0750, 10233.00
403.2710, 10506.00
404.4660, 10847.00
405.6610, 11287.00
406.8560, 11943.00
408.0510, 12538.00
409.2450, 13480.00
410.4400, 14517.00
411.6340, 15916.00
412.8280, 17953.00
414.0220, 20053.00
415.2160, 22359.00
416.4100, 25200.00
417.6030, 28531.00
418.7970, 31833.00
419.9900, 34801.00
421.1830, 37107.00
422.3760, 38033.00
423.5690, 37918.00
424.7610, 37029.00
425.9540, 35956.00
427.1460, 35059.00
428.3380, 34388.00
429.5300, 34178.00
430.7220, 34044.00
431.9140, 34241.00
433.1050, 33759.00
434.2970, 33831.00
435.4880, 33383.00
436.6790, 33696.00
437.8700, 34436.00
439.0610, 35983.00
440.2510, 38098.00
441.4420, 41079.00
442.6320, 44704.00
443.8220, 49191.00
445.0120, 53684.00
446.2020, 57795.00
447.3910, 60809.00
448.5810, 61269.00
449.7700, 61324.00
450.9600, 60100.00
452.1490, 57794.00
453.3370, 55420.00
454.5260, 51976.00
455.7150, 47616.00
456.9030, 43916.00
458.0910, 39328.00
459.2800, 35045.00
460.4670, 31291.00
461.6550, 27571.00
462.8430, 24689.00
464.0300, 21980.00
465.2180, 20431.00
466.4050, 18836.00
467.5920, 17360.00
468.7790, 16044.00
469.9650, 15346.00
471.1520, 14648.00
472.3380, 14083.00
473.5250, 13957.00
474.7110, 13638.00
475.8970, 13522.00
477.0820, 13538.00
478.2680, 13469.00
479.4540, 13832.00
480.6390, 13845.00
481.8240, 14376.00
483.0090, 14825.00
484.1940, 15474.00
485.3780, 16233.00
486.5630, 17322.00
487.7470, 18456.00
488.9320, 19543.00
490.1160, 21150.00
491.3000, 22742.00
492.4830, 24028.00
493.6670, 25597.00
494.8500, 26804.00
496.0340, 27933.00
497.2170, 28005.00
498.4000, 27780.00
499.5820, 27353.00
500.7650, 26421.00
501.9480, 25838.00
503.1300, 25132.00
504.3120, 24881.00
505.4940, 24638.00
506.6760, 24215.00
507.8580, 23593.00
509.0390, 22677.00
510.2210, 22094.00
511.4020, 21249.00
512.5830, 20878.00
513.7640, 20766.00
514.9450, 21191.00
516.1250, 21721.00
517.3060, 22373.00
518.4860, 22539.00
519.6660, 22705.00
520.8460, 22236.00
522.0260, 20974.00
523.2060, 19386.00
524.3850, 17743.00
525.5650, 16135.00
526.7440, 14709.00
527.9230, 13398.00
529.1020, 12588.00
530.2810, 11747.00
531.4590, 11197.00
532.6380, 10743.00
533.8160, 10359.06
534.9940, 10242.00
536.1720, 10053.00
537.3500, 9902.000
538.5270, 10087.00
539.7050, 9998.000
540.8820, 10113.00
542.0590, 10219.00
543.2360, 10439.00
544.4130, 10914.00
545.5900, 11167.00
546.7660, 11627.00
547.9430, 12252.00
549.1190, 13111.00
550.2950, 14154.00
551.4710, 15625.00
552.6470, 17501.00
553.8220, 20120.00
554.9980, 23168.47
556.1730, 26571.00
557.3480, 31011.00
558.5230, 35982.00
559.6980, 41365.00
560.8730, 45984.00
562.0470, 47234.00
563.2220, 46117.00
564.3960, 41833.00
565.5700, 36108.00
566.7440, 30823.00
567.9170, 26185.00
569.0910, 22536.00
570.2640, 20197.00
571.4380, 18304.00
572.6110, 17378.00
573.7840, 16843.00
574.9570, 16926.00
576.1290, 17169.00
577.3020, 17603.00
578.4740, 18450.00
579.6460, 19381.00
580.8180, 20391.00
581.9900, 21366.00
583.1620, 22259.03
584.3330, 23232.00
585.5040, 23986.00
586.6760, 24913.00
587.8470, 25659.00
589.0180, 27179.00
590.1880, 28598.00
591.3590, 30640.00
592.5290, 32227.00
593.7000, 33741.00
594.8700, 34298.00
596.0400, 34607.00
597.2090, 33827.00
598.3790, 32355.00
599.5490, 30598.00
600.7180, 28844.00
601.8870, 26796.00
603.0560, 25266.00
604.2250, 23608.00
605.3940, 22237.00
606.5620, 21208.00
607.7300, 20460.00
608.8990, 19635.00
610.0670, 18992.00
611.2350, 18367.00
612.4020, 17315.00
613.5700, 16540.00
614.7370, 15614.00
615.9050, 14382.00
617.0720, 13675.00
618.2390, 12899.00
619.4060, 11908.00
620.5720, 11273.00
621.7390, 10679.00
622.9050, 10217.00
624.0710, 9736.000
625.2370, 9344.520
626.4030, 9031.000
627.5690, 8735.000
628.7340, 8519.000
629.9000, 8294.610
631.0650, 8108.000
632.2300, 7957.000
633.3950, 7781.258
634.5600, 7802.000
635.7240, 7517.000
636.8890, 7447.000
638.0530, 7392.000
639.2170, 7191.000
640.3810, 7195.000
641.5450, 7138.000
642.7080, 7128.000
643.8720, 7034.000
645.0350, 7059.000
646.1980, 6994.024
647.3610, 6856.000
648.5240, 6860.000
649.6870, 6864.000
650.8490, 6708.000
652.0120, 6714.000
653.1740, 6741.000
654.3360, 6794.000
655.4980, 6861.000
656.6600, 6741.000
657.8210, 6787.000
658.9830, 6916.000
660.1440, 6780.000
661.3050, 6795.000
662.4660, 6888.000
663.6270, 6871.000
664.7870, 6828.000
665.9480, 6974.000
667.1080, 6930.000
668.2680, 6953.000
669.4280, 6931.000
670.5880, 6960.000
671.7480, 7184.000
672.9070, 7215.000
674.0670, 7295.000
675.2260, 7420.000
676.3850, 7462.000
677.5440, 7633.000
678.7030, 7800.000
679.8610, 7902.000
681.0200, 8078.000
682.1780, 8227.000
683.3360, 8473.000
684.4940, 8392.000
685.6520, 8547.000
686.8090, 8272.000
687.9670, 8209.000
689.1240, 8056.000
690.2810, 7891.000
691.4380, 7677.000
692.5950, 7327.000
693.7520, 7106.000
694.9080, 6875.000
696.0650, 6615.000
697.2210, 6527.000
698.3770, 6410.000
699.5330, 6297.000
700.6880, 6220.000
701.8440, 6117.000
702.9990, 5927.000
704.1550, 5895.000
705.3100, 5787.141
706.4650, 5780.000
707.6190, 5710.000
708.7740, 5625.000
709.9290, 5711.000
711.0830, 5496.000
712.2370, 5540.000
713.3910, 5452.000
714.5450, 5492.000
715.6980, 5464.000
716.8520, 5434.000
718.0050, 5429.000
719.1580, 5403.000
720.3110, 5379.384
721.4640, 5368.000
722.6170, 5314.000
723.7700, 5309.000
724.9220, 5246.832
726.0740, 5253.440
727.2260, 5191.000
728.3780, 5269.000
729.5300, 5306.000
730.6810, 5336.000
731.8330, 5349.053
732.9840, 5286.000
734.1350, 5306.000
735.2860, 5229.000
736.4370, 5136.000
737.5880, 5191.000
738.7380, 5164.000
739.8880, 5207.000
741.0390, 5220.000
742.1890, 5204.000
743.3380, 5223.000
744.4880, 5160.000
745.6380, 5280.000
746.7870, 5163.000
747.9360, 5220.000
749.0850, 5239.000
750.2340, 5207.000
751.3830, 5231.000
752.5310, 5218.000
753.6800, 5218.000
754.8280, 5254.000
755.9760, 5317.000
757.1240, 5273.000
758.2720, 5283.000
759.4190, 5344.000
760.5670, 5306.000
761.7140, 5318.000
762.8610, 5333.000
764.0080, 5323.000
765.1550, 5285.000
766.3020, 5294.000
767.4480, 5336.000
768.5950, 5279.000
769.7410, 5343.000
770.8870, 5243.000
772.0330, 5403.000
773.1780, 5366.000
774.3240, 5330.000
775.4690, 5304.000
776.6140, 5347.000
777.7590, 5256.000
778.9040, 5305.000
780.0490, 5403.000
781.1940, 5353.000
782.3380, 5340.000
783.4820, 5397.000
784.6260, 5421.000
785.7700, 5449.000
786.9140, 5443.000
788.0580, 5489.000
789.2010, 5439.000
790.3450, 5506.000
791.4880, 5576.000
792.6310, 5514.000
793.7730, 5682.000
794.9160, 5581.000
796.0590, 5696.000
797.2010, 5686.000
798.3430, 5765.000
799.4850, 5799.000
800.6270, 5787.000
801.7690, 5827.000
802.9100, 5865.000
804.0520, 6003.000
805.1930, 5985.000
806.3340, 6070.000
807.4750, 6077.000
808.6160, 6367.000
809.7560, 6350.000
810.8970, 6493.000
812.0370, 6490.000
813.1770, 6763.000
814.3170, 6814.000
815.4570, 7010.000
816.5960, 7189.000
817.7360, 7492.000
818.8750, 7690.425
820.0140, 7836.000
821.1530, 8197.000
822.2920, 8492.000
823.4310, 8802.000
824.5690, 8985.000
825.7070, 9111.000
826.8460, 9273.000
827.9840, 9332.000
829.1220, 9311.000
830.2590, 9319.000
831.3970, 9158.000
832.5340, 8928.000
833.6710, 8859.000
834.8080, 8678.000
835.9450, 8602.000
837.0820, 8402.000
838.2190, 8343.000
839.3550, 8322.000
840.4910, 8290.000
841.6270, 8410.000
842.7630, 8426.000
843.8990, 8495.000
845.0350, 8570.000
846.1700, 8841.000
847.3060, 9042.000
848.4410, 9211.000
849.5760, 9345.000
850.7100, 9724.000
851.8450, 9844.000
852.9800, 10173.00
854.1140, 10633.00
855.2480, 10917.00
856.3820, 11364.00
857.5160, 11928.00
858.6500, 12168.00
859.7830, 12791.00
860.9170, 13228.00
862.0500, 13985.00
863.1830, 14506.00
864.3160, 15147.00
865.4480, 15710.00
866.5810, 16391.00
867.7130, 16938.00
868.8460, 17559.00
869.9780, 18102.00
871.1100, 18525.00
872.2410, 18799.00
873.3730, 19101.00
874.5050, 18697.00
875.6360, 18856.00
876.7670, 18418.00
877.8980, 17849.00
879.0290, 17255.00
880.1590, 16849.00
881.2900, 16372.00
882.4200, 15770.00
883.5500, 15451.00
884.6800, 14914.00
885.8100, 14587.00
886.9400, 14542.00
888.0690, 14371.00
889.1990, 14361.00
890.3280, 14354.00
891.4570, 14595.00
892.5860, 14837.00
893.7140, 15496.00
894.8430, 16164.00
895.9710, 16543.00
897.1000, 17284.00
898.2280, 18496.00
899.3560, 19647.00
900.4830, 20758.00
901.6110, 22199.00
902.7380, 23956.00
903.8660, 25604.00
904.9930, 27823.00
906.1200, 29844.00
907.2460, 32068.00
908.3730, 34400.00
909.5000, 36663.00
910.6260, 38572.00
911.7520, 39383.00
912.8780, 40020.00
914.0040, 39551.00
915.1290, 38480.00
916.2550, 36131.00
917.3800, 33286.00
918.5050, 30665.00
919.6300, 27573.00
920.7550, 24861.00
921.8800, 22637.00
923.0040, 20218.00
924.1290, 18716.00
925.2530, 17012.00
926.3770, 15574.00
927.5010, 14406.00
928.6250, 13305.81
929.7480, 12531.00
930.8720, 11737.00
931.9950, 11233.00
933.1180, 10841.00
934.2410, 10391.00
935.3640, 10007.00
936.4860, 9484.000
937.6090, 9423.000
938.7310, 8909.000
939.8530, 8993.000
940.9750, 8802.000
942.0970, 8581.000
943.2180, 8318.000
944.3400, 8317.000
945.4610, 8258.000
946.5820, 8253.000
947.7030, 8127.000
948.8240, 8196.000
949.9450, 8155.000
951.0650, 8053.000
952.1860, 8158.000
953.3060, 8120.000
954.4260, 8149.000
955.5460, 8177.000
956.6650, 8172.000
957.7850, 8144.000
958.9040, 8289.000
960.0230, 8438.000
961.1420, 8325.000
962.2610, 8340.000
963.3800, 8565.000
964.4990, 8683.000
965.6170, 8932.000
966.7350, 9126.000
967.8530, 9549.000
968.9710, 9971.000
970.0890, 10608.00
971.2070, 11265.00
972.3240, 11924.00
973.4410, 12795.00
974.5580, 13451.00
975.6750, 14100.00
976.7920, 14604.00
977.9090, 14715.00
979.0250, 14456.00
980.1410, 13667.00
981.2580, 13032.00
982.3740, 12087.00
983.4890, 11363.00
984.6050, 10507.00
985.7200, 9821.000
986.8360, 9282.000
987.9510, 8741.000
989.0660, 8318.000
990.1810, 7985.703
991.2950, 7763.000
992.4100, 7535.000
993.5240, 7327.000
994.6390, 7267.000
995.7530, 7075.000
996.8660, 6829.000
997.9800, 6872.000
999.0940, 6673.000
1000.207, 6706.000
1001.320, 6568.000
1002.433, 6479.000
1003.546, 6410.000
1004.659, 6366.000
1005.772, 6439.000
1006.884, 6354.000
1007.996, 6481.000
1009.108, 6337.000
1010.220, 6354.000
1011.332, 6484.000
1012.444, 6489.000
1013.555, 6606.000
1014.666, 6625.000
1015.777, 6771.000
1016.888, 6737.000
1017.999, 6818.000
1019.110, 7017.000
1020.220, 6957.000
1021.331, 7098.000
1022.441, 7128.000
1023.551, 7433.000
1024.661, 7577.545
1025.770, 7861.000
1026.880, 8037.000
1027.989, 8497.000
1029.098, 8772.000
1030.207, 9239.000
1031.316, 9546.000
1032.425, 10133.00
1033.533, 10620.00
1034.642, 10951.00
1035.750, 11391.00
1036.858, 11698.00
1037.966, 11862.00
1039.073, 12139.00
1040.181, 11757.00
1041.288, 11578.00
1042.396, 11339.00
1043.503, 11116.00
1044.610, 10768.00
1045.716, 10448.00
1046.823, 10116.00
1047.929, 9869.000
1049.036, 9649.000
1050.142, 9612.000
1051.248, 9565.000
1052.353, 9542.000
1053.459, 9733.000
1054.564, 9991.000
1055.670, 10235.00
1056.775, 10498.00
1057.880, 10671.00
1058.985, 10666.00
1060.089, 10756.00
1061.194, 10697.00
1062.298, 10557.00
1063.402, 10407.00
1064.506, 10275.51
1065.610, 10229.00
1066.713, 10255.81
1067.817, 10261.00
1068.920, 10535.00
1070.023, 10813.00
1071.126, 11205.00
1072.229, 11921.00
1073.332, 12651.00
1074.435, 13672.00
1075.537, 14784.00
1076.639, 15950.00
1077.741, 17753.00
1078.843, 19440.00
1079.945, 21385.00
1081.046, 23060.00
1082.148, 24607.00
1083.249, 25015.00
1084.350, 24586.00
1085.451, 22876.00
1086.551, 20523.00
1087.652, 18060.00
1088.752, 15780.00
1089.853, 13830.00
1090.953, 12183.00
1092.053, 10855.00
1093.152, 9820.000
1094.252, 8919.000
1095.351, 8446.000
1096.451, 8079.000
1097.550, 7652.000
1098.649, 7481.000
1099.748, 7267.000
1100.846, 6857.000
1101.945, 6897.000
1103.043, 6867.000
1104.141, 6660.000
1105.239, 6584.000
1106.337, 6416.000
1107.434, 6319.000
1108.532, 6340.000
1109.629, 6220.000
1110.726, 6095.000
1111.823, 6091.000
1112.920, 6007.000
1114.017, 5983.000
1115.113, 6037.000
1116.210, 5958.000
1117.306, 6047.000
1118.402, 5985.000
1119.498, 5948.000
1120.593, 5916.000
1121.689, 5870.000
1122.784, 5883.000
1123.879, 5923.000
1124.974, 5749.000
1126.069, 5735.000
1127.164, 5820.000
1128.259, 5732.000
1129.353, 5719.000
1130.447, 5732.000
1131.541, 5577.000
1132.635, 5532.000
1133.729, 5569.000
1134.822, 5489.000
1135.916, 5480.000
1137.009, 5446.000
1138.102, 5460.000
1139.195, 5540.000
1140.288, 5372.000
1141.380, 5318.000
1142.473, 5378.000
1143.565, 5310.000
1144.657, 5457.000
1145.749, 5276.000
1146.841, 5276.000
1147.932, 5363.000
1149.024, 5293.000
1150.115, 5272.000
1151.206, 5233.000
1152.297, 5348.000
1153.388, 5249.174
1154.479, 5478.000
1155.569, 5201.000
1156.659, 5145.000
1157.750, 5255.000
1158.839, 5170.000
1159.929, 5186.000
1161.019, 5149.000
1162.108, 5128.000
1163.198, 5248.000
1164.287, 5221.000
1165.376, 5112.000
1166.465, 5291.000
1167.553, 5186.000
1168.642, 5224.000
1169.730, 5191.000
1170.818, 5080.000
1171.906, 5149.000
1172.994, 5155.000
1174.082, 5187.000
1175.170, 5157.000
1176.257, 5100.000
1177.344, 5139.000
1178.431, 5085.000
1179.518, 5037.000
1180.605, 5073.000
1181.691, 5189.000
1182.778, 5055.000
1183.864, 5120.000
1184.950, 5138.000
1186.036, 5050.000
1187.122, 5059.000
1188.207, 5102.000
1189.292, 5116.000
1190.378, 5114.159
1191.463, 5110.585
1192.548, 5091.000
1193.632, 5079.000
1194.717, 5047.000
1195.801, 5054.000
1196.886, 5004.000
1197.970, 5082.000
1199.054, 5031.000
1200.137, 5134.000
1201.221, 5015.000
1202.305, 5096.000
1203.388, 5086.000
1204.471, 5026.000
1205.554, 5048.000
1206.637, 5055.000
1207.719, 4956.000
1208.802, 4963.000
1209.884, 5023.000
1210.966, 4998.000
1212.048, 4923.000
1213.130, 4943.000
1214.212, 4954.000
1215.293, 4976.000
1216.374, 4897.000
1217.456, 4967.000
1218.536, 4998.000
1219.617, 4862.000
1220.698, 4973.000
1221.778, 4863.000
1222.859, 4924.000
1223.939, 4884.000
1225.019, 4941.000
1226.099, 4818.000
1227.178, 4867.000
1228.258, 4856.000
1229.337, 4896.000
1230.417, 4815.000
1231.496, 4808.000
1232.574, 4797.906
1233.653, 4794.000
1234.732, 4787.000
1235.810, 4827.000
1236.888, 4863.000
1237.966, 4821.000
