##NAMES=Epidote
##RRUFFID=R050191
##IDEAL CHEMISTRY=Ca_2_Fe^3+^Al_2_(Si_2_O_7_)(SiO_4_)O(OH)
##LOCALITY=Pampa Blanca, Castrovirreyna Province, Huancavelica Department, Peru
##OWNER=RRUFF
##SOURCE=Dave Bunk Minerals
##DESCRIPTION=Cluster of green elongated prismatic crystals
##STATUS=The identification of this mineral has been confirmed by X-ray diffraction and chemical analysis
##URL=rruff.info/R050191
##MEASURED CHEMISTRY=Ca_2.00_Al_2.00_(Fe^3+^_0.84_Al_0.16_)(SiO_4_)(Si_2_O_7_)O(OH)
##PIN_ID=L01970
##ORIENTATION=Laser parallel to b* (0 1 0). Fiducial mark perpendicular to laser is parallel to c [0 0 1]
53.91000, 781.0000
55.14900, 787.0000
56.38700, 804.0000
57.62600, 826.0000
58.86400, 893.0000
60.10300, 954.0000
61.34100, 1068.000
62.57900, 1145.000
63.81700, 1363.000
65.05400, 1525.000
66.29200, 1803.000
67.52900, 2214.000
68.76700, 2786.000
70.00400, 3410.000
71.24100, 3861.000
72.47700, 4279.000
73.71400, 5061.000
74.95100, 6018.000
76.18700, 7312.000
77.42300, 8383.000
78.65900, 9784.000
79.89500, 11817.00
81.13100, 13820.00
82.36700, 16397.00
83.60200, 19696.00
84.83700, 22668.00
86.07200, 26514.00
87.30800, 30156.00
88.54200, 33413.00
89.77700, 35360.00
91.01200, 34994.00
92.24600, 32636.00
93.48000, 29348.00
94.71400, 26508.00
95.94800, 23837.00
97.18200, 21821.00
98.41600, 19919.00
99.64900, 18885.00
100.8830, 17964.00
102.1160, 17104.00
103.3490, 16467.25
104.5820, 16420.35
105.8150, 16354.89
107.0470, 16271.95
108.2800, 16118.76
109.5120, 16056.25
110.7440, 15957.44
111.9760, 15857.13
113.2080, 15807.37
114.4400, 15860.00
115.6710, 16080.00
116.9030, 16114.00
118.1340, 16053.00
119.3650, 16169.00
120.5960, 16725.00
121.8270, 17394.00
123.0580, 18313.00
124.2880, 19268.00
125.5190, 20579.00
126.7490, 22341.00
127.9790, 24851.00
129.2090, 27770.00
130.4390, 30035.00
131.6680, 29906.00
132.8980, 28195.00
134.1270, 25791.00
135.3560, 23747.00
136.5850, 22105.00
137.8140, 20735.00
139.0430, 20224.00
140.2710, 19680.00
141.5000, 19581.00
142.7280, 19545.00
143.9560, 19895.00
145.1840, 20037.00
146.4120, 19876.00
147.6390, 19413.00
148.8670, 18968.00
150.0940, 18806.00
151.3210, 18939.00
152.5490, 19123.00
153.7750, 19592.00
155.0020, 20079.00
156.2290, 20972.00
157.4550, 21894.00
158.6810, 23255.00
159.9080, 24754.00
161.1340, 26706.00
162.3590, 28835.00
163.5850, 31051.00
164.8110, 32768.00
166.0360, 32900.00
167.2610, 32228.00
168.4860, 30868.00
169.7110, 29493.00
170.9360, 27923.00
172.1610, 26143.00
173.3850, 24614.00
174.6100, 22914.00
175.8340, 21697.00
177.0580, 20584.00
178.2820, 19737.00
179.5050, 19010.00
180.7290, 18716.00
181.9520, 18179.00
183.1760, 18032.00
184.3990, 17762.00
185.6220, 17835.00
186.8450, 17685.00
188.0670, 17775.00
189.2900, 17761.00
190.5120, 17761.00
191.7340, 17993.00
192.9560, 18159.00
194.1780, 18542.39
195.4000, 19076.00
196.6220, 19557.00
197.8430, 20199.00
199.0640, 20944.00
200.2860, 21587.00
201.5070, 21701.00
202.7270, 21457.00
203.9480, 21293.00
205.1690, 20840.00
206.3890, 20402.00
207.6090, 20134.00
208.8290, 20014.00
210.0490, 20154.00
211.2690, 20392.00
212.4890, 20725.00
213.7080, 21006.00
214.9280, 21639.00
216.1470, 22339.00
217.3660, 23089.00
218.5850, 24226.00
219.8030, 25178.00
221.0220, 26642.00
222.2400, 27827.00
223.4590, 29189.00
224.6770, 30573.00
225.8950, 31411.00
227.1120, 31532.00
228.3300, 31193.00
229.5480, 30439.00
230.7650, 29711.00
231.9820, 29158.00
233.1990, 28926.00
234.4160, 29121.00
235.6330, 30124.00
236.8490, 30930.00
238.0660, 32767.00
239.2820, 34339.00
240.4980, 35101.00
241.7140, 35149.00
242.9300, 34132.00
244.1460, 32692.00
245.3610, 30736.00
246.5770, 29176.00
247.7920, 27160.00
249.0070, 25779.00
250.2220, 24150.00
251.4370, 22858.00
252.6510, 21800.00
253.8660, 20946.00
255.0800, 20476.00
256.2940, 20173.00
257.5080, 19990.00
258.7220, 19781.38
259.9360, 20109.00
261.1490, 19760.00
262.3630, 19602.00
263.5760, 19954.00
264.7890, 20647.00
266.0020, 21312.05
267.2150, 22453.74
268.4270, 23679.00
269.6400, 25195.00
270.8520, 27204.00
272.0640, 28929.00
273.2760, 29969.00
274.4880, 29981.00
275.7000, 28937.00
276.9120, 27307.00
278.1230, 25877.00
279.3340, 24592.00
280.5450, 23681.00
281.7560, 23118.00
282.9670, 22973.00
284.1780, 23449.00
285.3880, 24074.00
286.5980, 25163.00
287.8090, 26551.00
289.0190, 27952.00
290.2290, 29735.00
291.4380, 30393.00
292.6480, 30815.00
293.8570, 30135.00
295.0670, 29438.00
296.2760, 28572.00
297.4850, 27152.00
298.6930, 26116.00
299.9020, 24765.00
301.1110, 23782.00
302.3190, 23013.00
303.5270, 22273.00
304.7350, 21678.00
305.9430, 21373.00
307.1510, 20774.00
308.3580, 20517.00
309.5660, 20213.00
310.7730, 19905.00
311.9800, 19975.00
313.1870, 19771.00
314.3940, 20032.00
315.6010, 20167.00
316.8070, 20579.00
318.0130, 21196.00
319.2200, 21789.00
320.4260, 22357.00
321.6310, 23055.00
322.8370, 23318.00
324.0430, 23512.00
325.2480, 23396.00
326.4540, 22942.00
327.6590, 22688.00
328.8640, 22282.00
330.0680, 21827.00
331.2730, 21902.00
332.4780, 21823.00
333.6820, 22117.00
334.8860, 22638.00
336.0900, 23218.00
337.2940, 24310.00
338.4980, 25497.00
339.7010, 26871.00
340.9050, 28674.00
342.1080, 30471.00
343.3110, 32564.00
344.5140, 34386.00
345.7170, 36501.00
346.9200, 37802.00
348.1220, 38145.00
349.3240, 37551.00
350.5270, 36080.00
351.7290, 34118.00
352.9310, 31842.00
354.1320, 29765.00
355.3340, 27382.00
356.5350, 25650.00
357.7370, 24297.00
358.9380, 23056.00
360.1390, 21827.00
361.3400, 20966.00
362.5400, 20453.00
363.7410, 19739.00
364.9410, 19431.00
366.1410, 19115.00
367.3410, 18686.00
368.5410, 18416.00
369.7410, 18353.00
370.9400, 18089.00
372.1400, 18030.00
373.3390, 17974.00
374.5380, 17994.00
375.7370, 17854.00
376.9360, 18239.00
378.1350, 18175.00
379.3330, 18602.00
380.5310, 18744.00
381.7300, 19521.00
382.9280, 19703.00
384.1260, 20502.00
385.3230, 21291.00
386.5210, 21480.00
387.7180, 21435.00
388.9160, 21258.00
390.1130, 21092.00
391.3100, 20538.00
392.5060, 20181.00
393.7030, 19765.00
394.9000, 19581.00
396.0960, 19237.00
397.2920, 19296.00
398.4880, 18969.00
399.6840, 18774.00
400.8800, 19064.00
402.0750, 18879.00
403.2710, 19203.00
404.4660, 19398.00
405.6610, 19647.00
406.8560, 19929.00
408.0510, 20262.00
409.2450, 20974.00
410.4400, 21699.96
411.6340, 22702.00
412.8280, 23923.00
414.0220, 25303.00
415.2160, 27217.00
416.4100, 29775.00
417.6030, 32484.00
418.7970, 35808.00
419.9900, 39130.00
421.1830, 42025.00
422.3760, 43831.00
423.5690, 44440.00
424.7610, 44014.00
425.9540, 42997.00
427.1460, 41966.00
428.3380, 41121.00
429.5300, 41001.00
430.7220, 40929.00
431.9140, 40869.00
433.1050, 40474.00
434.2970, 40159.00
435.4880, 39115.00
436.6790, 38703.00
437.8700, 38813.00
439.0610, 39056.00
440.2510, 40461.00
441.4420, 41953.00
442.6320, 44945.00
443.8220, 48027.00
445.0120, 51744.00
446.2020, 56026.00
447.3910, 59219.00
448.5810, 61135.00
449.7700, 62041.00
450.9600, 62181.00
452.1490, 61331.00
453.3370, 60351.00
454.5260, 57606.00
455.7150, 55028.00
456.9030, 51443.00
458.0910, 48308.00
459.2800, 44542.00
460.4670, 41342.00
461.6550, 38201.00
462.8430, 35726.00
464.0300, 33288.55
465.2180, 31121.00
466.4050, 29433.00
467.5920, 27767.00
468.7790, 26536.00
469.9650, 25536.00
471.1520, 24903.00
472.3380, 24070.00
473.5250, 23731.00
474.7110, 23294.00
475.8970, 22996.00
477.0820, 22854.00
478.2680, 23038.00
479.4540, 22633.00
480.6390, 23168.00
481.8240, 23371.00
483.0090, 23648.00
484.1940, 23765.00
485.3780, 24572.00
486.5630, 25024.00
487.7470, 25853.00
488.9320, 26730.00
490.1160, 27887.00
491.3000, 28880.00
492.4830, 30444.00
493.6670, 31824.00
494.8500, 33145.00
496.0340, 34237.00
497.2170, 34910.00
498.4000, 35274.00
499.5820, 35232.00
500.7650, 35086.00
501.9480, 34930.00
503.1300, 34792.00
504.3120, 34521.00
505.4940, 34713.00
506.6760, 34243.00
507.8580, 33954.00
509.0390, 33256.00
510.2210, 32389.00
511.4020, 31547.00
512.5830, 30876.00
513.7640, 30760.00
514.9450, 30591.00
516.1250, 31344.00
517.3060, 32088.00
518.4860, 33000.00
519.6660, 33657.00
520.8460, 33247.32
522.0260, 32885.00
523.2060, 31605.00
524.3850, 30074.00
525.5650, 28294.00
526.7440, 26293.00
527.9230, 25083.00
529.1020, 23872.00
530.2810, 22822.00
531.4590, 22034.00
532.6380, 21506.00
533.8160, 21122.00
534.9940, 20815.00
536.1720, 20372.00
537.3500, 20465.00
538.5270, 20300.00
539.7050, 20146.00
540.8820, 20334.00
542.0590, 20625.00
543.2360, 20616.00
544.4130, 20894.00
545.5900, 20960.00
546.7660, 21194.00
547.9430, 21712.00
549.1190, 22093.00
550.2950, 23046.00
551.4710, 23718.00
552.6470, 24911.00
553.8220, 26644.00
554.9980, 28637.00
556.1730, 31230.00
557.3480, 34902.00
558.5230, 39135.00
559.6980, 43781.00
560.8730, 48799.00
562.0470, 52715.00
563.2220, 54432.00
564.3960, 53050.00
565.5700, 49246.00
566.7440, 45268.00
567.9170, 40477.00
569.0910, 36313.00
570.2640, 32811.00
571.4380, 30642.00
572.6110, 28774.00
573.7840, 27650.00
574.9570, 26985.00
576.1290, 26777.00
577.3020, 27169.00
578.4740, 27488.00
579.6460, 28559.00
580.8180, 29565.00
581.9900, 30619.00
583.1620, 31462.00
584.3330, 32441.00
585.5040, 33210.00
586.6760, 34025.00
587.8470, 34862.00
589.0180, 35863.00
590.1880, 37121.00
591.3590, 38948.00
592.5290, 40990.00
593.7000, 42421.00
594.8700, 43876.00
596.0400, 44823.00
597.2090, 44981.00
598.3790, 44594.00
599.5490, 43328.00
600.7180, 41523.00
601.8870, 39682.00
603.0560, 37998.00
604.2250, 36397.00
605.3940, 35037.56
606.5620, 33898.00
607.7300, 32747.00
608.8990, 31841.00
610.0670, 31109.00
611.2350, 30285.00
612.4020, 29630.00
613.5700, 28622.00
614.7370, 27627.00
615.9050, 26818.00
617.0720, 26051.00
618.2390, 25049.00
619.4060, 24322.00
620.5720, 23743.00
621.7390, 23171.00
622.9050, 22699.00
624.0710, 22571.00
625.2370, 22251.00
626.4030, 21648.00
627.5690, 21317.00
628.7340, 20904.00
629.9000, 20835.00
631.0650, 20480.00
632.2300, 20357.00
633.3950, 20139.00
634.5600, 20050.00
635.7240, 19937.00
636.8890, 19882.00
638.0530, 19842.00
639.2170, 19680.00
640.3810, 19570.00
641.5450, 19731.00
642.7080, 19642.00
643.8720, 19945.00
645.0350, 19926.00
646.1980, 19786.00
647.3610, 19747.00
648.5240, 19555.00
649.6870, 19567.18
650.8490, 19757.00
652.0120, 19514.00
653.1740, 19630.00
654.3360, 19518.00
655.4980, 19403.00
656.6600, 19369.00
657.8210, 19425.00
658.9830, 19381.00
660.1440, 19082.00
661.3050, 19286.00
662.4660, 19167.00
663.6270, 19356.00
664.7870, 19361.00
665.9480, 19128.00
667.1080, 19296.00
668.2680, 19222.00
669.4280, 19193.00
670.5880, 19420.00
671.7480, 19350.00
672.9070, 19575.00
674.0670, 19497.00
675.2260, 19745.00
676.3850, 19513.00
677.5440, 19601.00
678.7030, 19909.00
679.8610, 20093.00
681.0200, 20227.00
682.1780, 20321.00
683.3360, 20536.00
684.4940, 20702.00
685.6520, 20555.00
686.8090, 20778.00
687.9670, 20646.00
689.1240, 20531.00
690.2810, 20252.00
691.4380, 20151.00
692.5950, 19986.00
693.7520, 19703.00
694.9080, 19588.00
696.0650, 19431.84
697.2210, 19412.00
698.3770, 19212.00
699.5330, 19065.00
700.6880, 18984.00
701.8440, 18799.00
702.9990, 18862.00
704.1550, 18728.00
705.3100, 18569.00
706.4650, 18822.00
707.6190, 18573.00
708.7740, 18550.00
709.9290, 18483.00
711.0830, 18565.00
712.2370, 18474.00
713.3910, 18621.00
714.5450, 18504.00
715.6980, 18458.00
716.8520, 18406.00
718.0050, 18407.00
719.1580, 18411.00
720.3110, 18426.00
721.4640, 18529.00
722.6170, 18554.00
723.7700, 18579.96
724.9220, 18375.00
726.0740, 18619.00
727.2260, 18486.00
728.3780, 18505.00
729.5300, 18543.00
730.6810, 18580.00
731.8330, 18688.00
732.9840, 18682.00
734.1350, 18550.00
735.2860, 18751.00
736.4370, 18494.00
737.5880, 18622.00
738.7380, 18651.00
739.8880, 18737.00
741.0390, 18756.80
742.1890, 18754.00
743.3380, 18779.00
744.4880, 18765.00
745.6380, 18793.00
746.7870, 18812.70
747.9360, 18810.54
749.0850, 18864.00
750.2340, 18856.00
751.3830, 18875.00
752.5310, 18975.00
753.6800, 19047.00
754.8280, 18946.00
755.9760, 18988.00
757.1240, 19086.00
758.2720, 19155.00
759.4190, 19440.00
760.5670, 19455.00
761.7140, 19489.00
762.8610, 19835.00
764.0080, 19729.00
765.1550, 19856.00
766.3020, 19814.00
767.4480, 19991.00
768.5950, 19862.00
769.7410, 19941.00
770.8870, 19754.00
772.0330, 19786.00
773.1780, 19717.00
774.3240, 19612.00
775.4690, 19679.00
776.6140, 19561.00
777.7590, 19521.00
778.9040, 19619.00
780.0490, 19400.00
781.1940, 19708.00
782.3380, 19717.00
783.4820, 19356.00
784.6260, 19406.00
785.7700, 19609.00
786.9140, 19634.00
788.0580, 19583.00
789.2010, 19558.00
790.3450, 19612.00
791.4880, 19649.00
792.6310, 19659.84
793.7730, 19752.00
794.9160, 19731.00
796.0590, 19827.00
797.2010, 19912.00
798.3430, 19928.00
799.4850, 19986.00
800.6270, 20088.00
801.7690, 20148.00
802.9100, 20330.00
804.0520, 20237.00
805.1930, 20277.00
806.3340, 20420.00
807.4750, 20503.00
808.6160, 20668.00
809.7560, 20729.00
810.8970, 20896.00
812.0370, 21033.00
813.1770, 20871.00
814.3170, 21132.00
815.4570, 21298.00
816.5960, 21616.00
817.7360, 21511.00
818.8750, 21851.00
820.0140, 22131.00
821.1530, 22309.00
822.2920, 22632.00
823.4310, 22962.00
824.5690, 23102.00
825.7070, 23543.00
826.8460, 23779.00
827.9840, 23927.00
829.1220, 24100.00
830.2590, 24025.00
831.3970, 23859.00
832.5340, 23966.00
833.6710, 23394.00
834.8080, 23555.00
835.9450, 23365.00
837.0820, 23464.00
838.2190, 23178.00
839.3550, 22931.00
840.4910, 22955.00
841.6270, 23113.00
842.7630, 22938.00
843.8990, 23135.00
845.0350, 23525.00
846.1700, 23259.00
847.3060, 23618.00
848.4410, 23680.00
849.5760, 23831.00
850.7100, 24170.00
851.8450, 24468.00
852.9800, 24919.00
854.1140, 25283.00
855.2480, 25562.00
856.3820, 26040.00
857.5160, 26331.00
858.6500, 26893.00
859.7830, 27441.00
860.9170, 28139.00
862.0500, 28638.00
863.1830, 29495.00
864.3160, 29884.00
865.4480, 30257.00
866.5810, 31002.00
867.7130, 31498.00
868.8460, 32169.00
869.9780, 32404.00
871.1100, 33031.00
872.2410, 33223.00
873.3730, 33908.00
874.5050, 33878.00
875.6360, 33944.00
876.7670, 33893.00
877.8980, 33730.00
879.0290, 33253.00
880.1590, 32756.00
881.2900, 32237.00
882.4200, 32132.00
883.5500, 31396.00
884.6800, 30865.00
885.8100, 30776.00
886.9400, 30702.00
888.0690, 30162.00
889.1990, 29781.00
890.3280, 29738.00
891.4570, 29794.00
892.5860, 29792.00
893.7140, 30041.00
894.8430, 30251.00
895.9710, 30634.00
897.1000, 31334.00
898.2280, 32058.00
899.3560, 32619.00
900.4830, 34104.00
901.6110, 34992.00
902.7380, 36577.00
903.8660, 37983.00
904.9930, 39650.00
906.1200, 41499.00
907.2460, 43267.00
908.3730, 45860.00
909.5000, 47755.00
910.6260, 50182.00
911.7520, 51923.00
912.8780, 53517.00
914.0040, 54145.00
915.1290, 53717.00
916.2550, 53205.00
917.3800, 50800.00
918.5050, 48521.00
919.6300, 45701.00
920.7550, 42820.00
921.8800, 40335.00
923.0040, 38069.21
924.1290, 35974.27
925.2530, 34207.00
926.3770, 32487.00
927.5010, 31144.00
928.6250, 29822.00
929.7480, 28870.00
930.8720, 28226.00
931.9950, 27292.00
933.1180, 27012.00
934.2410, 26349.00
935.3640, 25979.00
936.4860, 25397.00
937.6090, 25137.00
938.7310, 24943.00
939.8530, 24732.00
940.9750, 24675.00
942.0970, 24302.00
943.2180, 24114.00
944.3400, 24014.00
945.4610, 24103.00
946.5820, 24091.00
947.7030, 23741.00
948.8240, 23857.00
949.9450, 23783.00
951.0650, 23927.00
952.1860, 23849.00
953.3060, 24042.00
954.4260, 23956.00
955.5460, 24069.00
956.6650, 23998.00
957.7850, 24116.00
958.9040, 24252.00
960.0230, 24088.00
961.1420, 24037.00
962.2610, 24297.00
963.3800, 24167.00
964.4990, 24257.00
965.6170, 24307.00
966.7350, 24491.56
967.8530, 24828.00
968.9710, 25089.00
970.0890, 25550.00
971.2070, 26053.00
972.3240, 26569.00
973.4410, 27348.00
974.5580, 28116.00
975.6750, 28725.00
976.7920, 29789.00
977.9090, 30331.00
979.0250, 30524.00
980.1410, 30630.00
981.2580, 30130.00
982.3740, 29653.00
983.4890, 28988.00
984.6050, 28114.00
985.7200, 27212.00
986.8360, 26711.00
987.9510, 25873.00
989.0660, 25290.00
990.1810, 25014.00
991.2950, 24425.00
992.4100, 24345.00
993.5240, 24054.00
994.6390, 23753.00
995.7530, 23726.00
996.8660, 23511.00
997.9800, 23572.00
999.0940, 23362.00
1000.207, 23602.00
1001.320, 23660.00
1002.433, 23396.00
1003.546, 23259.00
1004.659, 22986.00
1005.772, 23155.00
1006.884, 22953.00
1007.996, 22986.00
1009.108, 23002.00
1010.220, 22913.00
1011.332, 23113.00
1012.444, 23031.00
1013.555, 23276.00
1014.666, 23151.00
1015.777, 23409.00
1016.888, 23589.00
1017.999, 23585.00
1019.110, 23735.00
1020.220, 23773.00
1021.331, 23938.00
1022.441, 24059.00
1023.551, 24139.00
1024.661, 24300.52
1025.770, 24408.76
1026.880, 24571.00
1027.989, 24773.00
1029.098, 24907.00
1030.207, 25320.00
1031.316, 25712.00
1032.425, 26231.00
1033.533, 26583.00
1034.642, 27132.00
1035.750, 27553.00
1036.858, 28102.00
1037.966, 28505.00
1039.073, 28687.00
1040.181, 29032.00
1041.288, 28752.00
1042.396, 28593.00
1043.503, 28515.00
1044.610, 28142.00
1045.716, 27823.00
1046.823, 27474.00
1047.929, 27212.00
1049.036, 26773.00
1050.142, 26665.00
1051.248, 26275.00
1052.353, 26562.00
1053.459, 26523.00
1054.564, 26297.00
1055.670, 26859.00
1056.775, 26782.00
1057.880, 27194.00
1058.985, 27425.00
1060.089, 27563.00
1061.194, 27764.00
1062.298, 27515.00
1063.402, 27385.00
1064.506, 27254.00
1065.610, 27013.00
1066.713, 26903.00
1067.817, 26776.00
1068.920, 26871.74
1070.023, 26975.00
1071.126, 27338.00
1072.229, 27641.00
1073.332, 28203.00
1074.435, 28975.00
1075.537, 29687.00
1076.639, 30838.00
1077.741, 31967.00
1078.843, 33668.00
1079.945, 35578.00
1081.046, 37250.00
1082.148, 39366.00
1083.249, 40654.00
1084.350, 41231.00
1085.451, 41064.00
1086.551, 40122.00
1087.652, 38626.00
1088.752, 36242.00
1089.853, 34252.00
1090.953, 32399.00
1092.053, 30575.00
1093.152, 29105.00
1094.252, 27939.00
1095.351, 26996.00
1096.451, 25992.00
1097.550, 25635.00
1098.649, 25248.00
1099.748, 24862.00
1100.846, 24668.00
1101.945, 24677.00
1103.043, 24285.00
1104.141, 24232.00
1105.239, 24000.00
1106.337, 24128.00
1107.434, 24033.00
1108.532, 23921.00
1109.629, 23945.00
1110.726, 23992.00
1111.823, 23812.00
1112.920, 23939.00
1114.017, 23745.00
1115.113, 23831.00
1116.210, 23651.00
1117.306, 23983.00
1118.402, 23705.00
1119.498, 23795.00
1120.593, 23844.00
1121.689, 23626.00
1122.784, 23636.00
1123.879, 23844.00
1124.974, 23848.00
1126.069, 23772.00
1127.164, 23600.00
1128.259, 23809.00
1129.353, 23755.00
1130.447, 23512.00
1131.541, 23584.00
1132.635, 23501.00
1133.729, 23562.00
1134.822, 23421.00
1135.916, 23447.00
1137.009, 23281.00
1138.102, 23476.00
1139.195, 23406.00
1140.288, 23424.00
1141.380, 23444.00
1142.473, 23436.00
1143.565, 23219.00
1144.657, 23322.00
1145.749, 23203.00
1146.841, 23241.00
1147.932, 23225.00
1149.024, 23357.00
1150.115, 23268.00
1151.206, 23310.00
1152.297, 23206.00
1153.388, 23354.00
1154.479, 23403.00
1155.569, 23397.00
1156.659, 23422.00
1157.750, 23473.00
1158.839, 23435.00
1159.929, 23421.00
1161.019, 23442.00
1162.108, 23524.00
1163.198, 23507.07
1164.287, 23522.89
1165.376, 23554.00
1166.465, 23456.00
1167.553, 23517.00
1168.642, 23384.00
1169.730, 23537.00
1170.818, 23657.00
1171.906, 23850.00
1172.994, 23629.00
1174.082, 23386.00
1175.170, 23610.00
1176.257, 23659.00
1177.344, 23492.00
1178.431, 23467.00
1179.518, 23586.00
1180.605, 23688.00
1181.691, 23459.00
1182.778, 23639.00
1183.864, 23415.00
1184.950, 23666.00
1186.036, 23309.00
1187.122, 23589.00
1188.207, 23625.00
1189.292, 23854.00
1190.378, 23827.00
1191.463, 23777.00
1192.548, 23683.00
1193.632, 23506.00
1194.717, 23613.00
1195.801, 23620.00
1196.886, 23738.00
1197.970, 23867.00
1199.054, 23680.00
1200.137, 23773.00
1201.221, 23684.00
1202.305, 23760.00
1203.388, 23734.00
1204.471, 23650.00
1205.554, 23886.00
1206.637, 23995.00
1207.719, 23994.00
1208.802, 23766.00
1209.884, 23857.00
1210.966, 23681.00
1212.048, 23859.00
1213.130, 23935.00
1214.212, 23918.00
1215.293, 23970.00
1216.374, 23921.00
1217.456, 23957.71
1218.536, 24078.00
1219.617, 23958.00
1220.698, 23962.00
1221.778, 23874.00
1222.859, 24002.00
1223.939, 23820.00
1225.019, 23983.00
1226.099, 23916.00
1227.178, 24011.00
1228.258, 23835.00
1229.337, 24128.00
1230.417, 24027.00
1231.496, 24172.00
1232.574, 23914.00
1233.653, 24200.00
1234.732, 24105.00
1235.810, 24155.00
