##NAMES=Epididymite
##RRUFFID=R060773
##IDEAL CHEMISTRY=Na_2_Be_2_Si_6_O_15_&#183;H_2_O
##LOCALITY=unknown
##OWNER=RRUFF
##SOURCE=Michael Scott
##DESCRIPTION=Colorless platy crystals forming a pseudohexagonal aggregate
##STATUS=The identification of this mineral has been confirmed by single-crystal X-ray diffraction.
##URL=rruff.info/R060773
##PIN_ID=M00395
##ORIENTATION=Laser parallel to b* (0 1 0). Fiducial mark perpendicular to laser is parallel to -c [0 0 -1]
102.1160, 16487.00
103.3490, 16770.99
104.5820, 16998.00
105.8150, 17185.00
107.0470, 17304.00
108.2800, 17397.00
109.5120, 17253.00
110.7440, 16650.00
111.9760, 16576.00
113.2080, 16576.00
114.4400, 16768.00
115.6710, 17011.46
116.9030, 17398.00
118.1340, 17889.00
119.3650, 18374.00
120.5960, 19117.00
121.8270, 19763.00
123.0580, 20884.00
124.2880, 21432.00
125.5190, 21359.00
126.7490, 21356.00
127.9790, 21514.00
129.2090, 22354.00
130.4390, 23449.00
131.6680, 25054.00
132.8980, 26680.00
134.1270, 27741.00
135.3560, 27423.00
136.5850, 25417.00
137.8140, 22920.00
139.0430, 20648.00
140.2710, 19230.00
141.5000, 18307.00
142.7280, 17776.00
143.9560, 17482.00
145.1840, 17339.00
146.4120, 17613.00
147.6390, 17783.00
148.8670, 17974.00
150.0940, 18001.00
151.3210, 18497.00
152.5490, 18590.00
153.7750, 18225.00
155.0020, 17927.00
156.2290, 17459.00
157.4550, 16877.00
158.6810, 16739.00
159.9080, 16394.00
161.1340, 16251.00
162.3590, 16249.00
163.5850, 16196.00
164.8110, 16358.00
166.0360, 16257.00
167.2610, 16296.00
168.4860, 16243.00
169.7110, 16494.00
170.9360, 16382.00
172.1610, 16398.00
173.3850, 16361.00
174.6100, 16327.00
175.8340, 16353.00
177.0580, 16358.12
178.2820, 16373.37
179.5050, 16439.00
180.7290, 16447.00
181.9520, 16516.00
183.1760, 16602.02
184.3990, 16575.00
185.6220, 16865.00
186.8450, 16959.00
188.0670, 17150.00
189.2900, 17166.00
190.5120, 17523.00
191.7340, 17582.00
192.9560, 18161.00
194.1780, 18274.00
195.4000, 18625.00
196.6220, 18768.00
197.8430, 19067.00
199.0640, 19221.00
200.2860, 19492.00
201.5070, 19352.00
202.7270, 19278.00
203.9480, 18707.00
205.1690, 18482.00
206.3890, 18026.00
207.6090, 17878.00
208.8290, 17800.00
210.0490, 17605.00
211.2690, 17329.00
212.4890, 17227.00
213.7080, 17233.00
214.9280, 17407.00
216.1470, 17266.00
217.3660, 17368.00
218.5850, 17334.00
219.8030, 17452.00
221.0220, 17441.00
222.2400, 17509.00
223.4590, 17699.00
224.6770, 17630.00
225.8950, 17882.00
227.1120, 17857.00
228.3300, 18112.00
229.5480, 18607.00
230.7650, 18934.00
231.9820, 19264.00
233.1990, 19828.00
234.4160, 20512.00
235.6330, 21371.00
236.8490, 22188.00
238.0660, 23000.00
239.2820, 23994.00
240.4980, 24985.00
241.7140, 25644.00
242.9300, 26067.00
244.1460, 25725.00
245.3610, 25243.00
246.5770, 24260.00
247.7920, 23232.00
249.0070, 22598.00
250.2220, 22127.00
251.4370, 21547.00
252.6510, 21444.00
253.8660, 21196.00
255.0800, 21114.00
256.2940, 20901.00
257.5080, 20942.00
258.7220, 21259.00
259.9360, 21209.00
261.1490, 21057.00
262.3630, 21012.00
263.5760, 20866.00
264.7890, 20726.00
266.0020, 20752.00
267.2150, 20467.00
268.4270, 20273.00
269.6400, 20177.00
270.8520, 19668.00
272.0640, 19540.00
273.2760, 19037.00
274.4880, 19038.00
275.7000, 18509.00
276.9120, 18479.00
278.1230, 18435.00
279.3340, 18263.00
280.5450, 18194.00
281.7560, 18208.00
282.9670, 18219.00
284.1780, 18460.00
285.3880, 18315.00
286.5980, 18306.00
287.8090, 18044.00
289.0190, 18065.00
290.2290, 17866.00
291.4380, 17757.00
292.6480, 17873.00
293.8570, 17916.00
295.0670, 17634.00
296.2760, 17818.00
297.4850, 17730.00
298.6930, 17890.00
299.9020, 17707.00
301.1110, 17807.00
302.3190, 17740.00
303.5270, 17908.00
304.7350, 17981.00
305.9430, 17925.00
307.1510, 18115.00
308.3580, 18048.00
309.5660, 18143.10
310.7730, 18192.00
311.9800, 18271.00
313.1870, 18305.00
314.3940, 18340.00
315.6010, 18347.00
316.8070, 18294.00
318.0130, 18327.00
319.2200, 18479.00
320.4260, 18701.00
321.6310, 18717.00
322.8370, 18668.00
324.0430, 18726.00
325.2480, 18787.00
326.4540, 19045.00
327.6590, 19003.00
328.8640, 19152.00
330.0680, 18981.00
331.2730, 19401.00
332.4780, 19391.00
333.6820, 19568.00
334.8860, 19757.00
336.0900, 20009.00
337.2940, 20205.00
338.4980, 20471.00
339.7010, 20697.00
340.9050, 21060.00
342.1080, 21603.00
343.3110, 22200.00
344.5140, 23296.00
345.7170, 23717.00
346.9200, 23848.00
348.1220, 23489.00
349.3240, 22867.00
350.5270, 22123.00
351.7290, 21406.00
352.9310, 20849.00
354.1320, 20591.00
355.3340, 20587.00
356.5350, 20234.00
357.7370, 20276.00
358.9380, 20068.00
360.1390, 20045.00
361.3400, 20121.00
362.5400, 20050.00
363.7410, 20246.00
364.9410, 20274.00
366.1410, 20180.00
367.3410, 20300.00
368.5410, 20490.00
369.7410, 20593.00
370.9400, 20894.00
372.1400, 21109.00
373.3390, 21655.00
374.5380, 21903.00
375.7370, 22557.00
376.9360, 23234.00
378.1350, 24042.00
379.3330, 24989.00
380.5310, 26057.00
381.7300, 26737.00
382.9280, 26425.00
384.1260, 26187.00
385.3230, 25217.00
386.5210, 24493.00
387.7180, 23699.00
388.9160, 22832.00
390.1130, 22325.00
391.3100, 21726.00
392.5060, 21278.00
393.7030, 20893.00
394.9000, 20691.00
396.0960, 20893.00
397.2920, 20892.00
398.4880, 21359.00
399.6840, 21645.00
400.8800, 21909.00
402.0750, 23020.00
403.2710, 23749.00
404.4660, 25391.00
405.6610, 27538.00
406.8560, 30011.00
408.0510, 32248.00
409.2450, 33175.00
410.4400, 31951.00
411.6340, 29527.00
412.8280, 26426.00
414.0220, 23843.00
415.2160, 22216.00
416.4100, 21168.00
417.6030, 20792.00
418.7970, 20292.00
419.9900, 20084.00
421.1830, 19847.00
422.3760, 19890.00
423.5690, 19711.00
424.7610, 19736.00
425.9540, 19609.00
427.1460, 19541.00
428.3380, 19576.00
429.5300, 19572.00
430.7220, 19684.00
431.9140, 19564.00
433.1050, 19571.00
434.2970, 19796.00
435.4880, 19798.00
436.6790, 20080.00
437.8700, 19853.00
439.0610, 19938.00
440.2510, 20041.00
441.4420, 19885.00
442.6320, 19794.00
443.8220, 19959.00
445.0120, 19993.00
446.2020, 19995.00
447.3910, 20099.00
448.5810, 20046.00
449.7700, 20145.00
450.9600, 20015.00
452.1490, 20149.00
453.3370, 20190.00
454.5260, 20258.00
455.7150, 20378.00
456.9030, 20535.00
458.0910, 20622.00
459.2800, 20686.00
460.4670, 20909.00
461.6550, 21164.00
462.8430, 21281.84
464.0300, 21184.00
465.2180, 21627.00
466.4050, 21852.00
467.5920, 22043.00
468.7790, 22722.00
469.9650, 23375.00
471.1520, 24179.00
472.3380, 25673.00
473.5250, 26765.00
474.7110, 28407.00
475.8970, 29484.00
477.0820, 29961.00
478.2680, 29320.00
479.4540, 27911.00
480.6390, 26188.00
481.8240, 24802.00
483.0090, 23974.00
484.1940, 23694.00
485.3780, 23511.00
486.5630, 23346.00
487.7470, 23266.00
488.9320, 22762.00
490.1160, 22485.00
491.3000, 22057.00
492.4830, 21981.00
493.6670, 21697.00
494.8500, 21734.00
496.0340, 21914.00
497.2170, 21813.00
498.4000, 21768.00
499.5820, 22127.00
500.7650, 22219.00
501.9480, 22155.00
503.1300, 22679.00
504.3120, 23121.00
505.4940, 23493.00
506.6760, 24149.00
507.8580, 25099.00
509.0390, 26038.00
510.2210, 27413.00
511.4020, 29434.00
512.5830, 31831.00
513.7640, 34987.00
514.9450, 39538.00
516.1250, 44695.00
517.3060, 51464.00
518.4860, 58572.00
519.6660, 64481.00
520.8460, 65535.00
522.0260, 64134.00
523.2060, 58426.00
524.3850, 50294.00
525.5650, 42627.00
526.7440, 36850.00
527.9230, 32803.00
529.1020, 29870.00
530.2810, 28010.00
531.4590, 26657.00
532.6380, 25665.00
533.8160, 24747.00
534.9940, 24266.00
536.1720, 23769.00
537.3500, 23470.00
538.5270, 23118.00
539.7050, 22936.00
540.8820, 22923.00
542.0590, 22730.00
543.2360, 22829.00
544.4130, 22597.00
545.5900, 22366.00
546.7660, 22395.00
547.9430, 22527.00
549.1190, 22355.00
550.2950, 22326.00
551.4710, 22261.00
552.6470, 22349.00
553.8220, 22340.00
554.9980, 22302.73
556.1730, 22061.00
557.3480, 22271.00
558.5230, 22257.00
559.6980, 22338.00
560.8730, 21994.00
562.0470, 22246.00
563.2220, 22223.00
564.3960, 22100.00
565.5700, 22269.00
566.7440, 22269.00
567.9170, 22200.00
569.0910, 22429.00
570.2640, 22462.00
571.4380, 22410.00
572.6110, 22643.00
573.7840, 22663.00
574.9570, 22904.00
576.1290, 22924.00
577.3020, 23321.00
578.4740, 23569.00
579.6460, 23957.00
580.8180, 24551.00
581.9900, 25239.00
583.1620, 26105.00
584.3330, 26549.00
585.5040, 27117.00
586.6760, 26575.00
587.8470, 25927.00
589.0180, 24979.00
590.1880, 24469.00
591.3590, 23996.00
592.5290, 23756.00
593.7000, 23365.00
594.8700, 23321.00
596.0400, 23376.00
597.2090, 22998.00
598.3790, 23060.00
599.5490, 23093.00
600.7180, 23093.00
601.8870, 23054.00
603.0560, 22803.00
604.2250, 22960.00
605.3940, 22961.00
606.5620, 22811.00
607.7300, 23110.00
608.8990, 23068.00
610.0670, 23010.00
611.2350, 22917.00
612.4020, 22968.00
613.5700, 23093.00
614.7370, 23109.00
615.9050, 23300.00
617.0720, 23413.00
618.2390, 23607.00
619.4060, 23649.00
620.5720, 23899.00
621.7390, 23975.00
622.9050, 24506.00
624.0710, 24713.00
625.2370, 24723.00
626.4030, 24786.00
627.5690, 24950.00
628.7340, 24866.00
629.9000, 24747.00
631.0650, 24445.00
632.2300, 24730.00
633.3950, 24595.00
634.5600, 24589.00
635.7240, 24691.00
636.8890, 24706.00
638.0530, 24457.00
639.2170, 24232.00
640.3810, 24249.00
641.5450, 24127.00
642.7080, 24119.00
643.8720, 24347.00
645.0350, 24325.00
646.1980, 24231.00
647.3610, 24554.00
648.5240, 24371.00
649.6870, 24450.00
650.8490, 24449.00
652.0120, 24327.00
653.1740, 24482.00
654.3360, 24213.00
655.4980, 24095.00
656.6600, 24219.00
657.8210, 23820.00
658.9830, 23796.00
660.1440, 23777.00
661.3050, 23814.00
662.4660, 23768.95
663.6270, 23653.00
664.7870, 23710.00
665.9480, 23750.00
667.1080, 23711.00
668.2680, 23482.00
669.4280, 23348.00
670.5880, 23499.00
671.7480, 23570.00
672.9070, 23458.00
674.0670, 23407.00
675.2260, 23578.00
676.3850, 23521.00
677.5440, 23593.10
678.7030, 23491.00
679.8610, 23623.00
681.0200, 23528.00
682.1780, 23384.00
683.3360, 23551.00
684.4940, 23496.00
685.6520, 23490.00
686.8090, 23530.00
687.9670, 23613.00
689.1240, 23617.00
690.2810, 23513.00
691.4380, 23616.00
692.5950, 23789.00
693.7520, 23544.00
694.9080, 23723.00
696.0650, 23839.00
697.2210, 23732.00
698.3770, 23738.00
699.5330, 23751.00
700.6880, 23814.00
701.8440, 23816.00
702.9990, 23824.00
704.1550, 23674.00
705.3100, 23959.00
706.4650, 23784.00
707.6190, 23772.00
708.7740, 23873.00
709.9290, 23872.00
711.0830, 24029.00
712.2370, 23944.00
713.3910, 23982.00
714.5450, 23881.00
715.6980, 24028.00
716.8520, 24272.00
718.0050, 24032.00
719.1580, 24056.00
720.3110, 24405.00
721.4640, 24143.00
722.6170, 24330.00
723.7700, 24386.00
724.9220, 24331.00
726.0740, 24378.00
727.2260, 24535.00
728.3780, 24669.00
729.5300, 24602.00
730.6810, 24544.00
731.8330, 24495.00
732.9840, 24618.00
734.1350, 24636.00
735.2860, 24676.00
736.4370, 24829.00
737.5880, 24723.00
738.7380, 24932.00
739.8880, 24678.00
741.0390, 24824.00
742.1890, 24912.00
743.3380, 24799.00
744.4880, 24845.00
745.6380, 25026.00
746.7870, 25207.00
747.9360, 25152.00
749.0850, 25434.00
750.2340, 25313.00
751.3830, 25386.00
752.5310, 25582.00
753.6800, 25504.00
754.8280, 25873.00
755.9760, 25775.00
757.1240, 25626.00
758.2720, 25869.00
759.4190, 25859.00
760.5670, 25808.00
761.7140, 25708.00
762.8610, 25664.00
764.0080, 25737.00
765.1550, 25749.00
766.3020, 25869.00
767.4480, 25566.00
768.5950, 25597.00
769.7410, 25656.00
770.8870, 25943.00
772.0330, 25661.00
773.1780, 25898.00
774.3240, 25560.00
775.4690, 25788.00
776.6140, 25549.00
777.7590, 25742.00
778.9040, 25748.00
780.0490, 25857.00
781.1940, 25955.00
782.3380, 25923.00
783.4820, 25821.00
784.6260, 25850.00
785.7700, 25739.00
786.9140, 25954.00
788.0580, 25892.00
789.2010, 26127.00
790.3450, 26126.00
791.4880, 26454.00
792.6310, 26368.00
793.7730, 26606.00
794.9160, 26410.00
796.0590, 26538.00
797.2010, 26703.00
798.3430, 26781.00
799.4850, 26827.66
800.6270, 26698.00
801.7690, 26845.00
802.9100, 26642.00
804.0520, 26619.00
805.1930, 26745.00
806.3340, 26428.00
807.4750, 26665.00
808.6160, 26604.00
809.7560, 26735.00
810.8970, 26586.00
812.0370, 26666.00
813.1770, 26805.00
814.3170, 26990.00
815.4570, 26930.00
816.5960, 27048.00
817.7360, 27148.00
818.8750, 27066.00
820.0140, 27100.00
821.1530, 27027.00
822.2920, 27099.00
823.4310, 27303.00
824.5690, 27203.00
825.7070, 27195.00
826.8460, 27165.00
827.9840, 26912.00
829.1220, 27248.00
830.2590, 26959.00
831.3970, 27331.00
832.5340, 27284.00
833.6710, 27161.00
834.8080, 27263.00
835.9450, 27221.00
837.0820, 27281.00
838.2190, 27239.00
839.3550, 27533.00
840.4910, 27473.00
841.6270, 27750.00
842.7630, 27668.00
843.8990, 27642.00
845.0350, 27970.00
846.1700, 27516.00
847.3060, 27878.00
848.4410, 27857.00
849.5760, 27992.00
850.7100, 27886.00
851.8450, 28164.00
852.9800, 28058.00
854.1140, 28333.00
855.2480, 28332.00
856.3820, 28539.00
857.5160, 28776.00
858.6500, 28685.00
859.7830, 28537.00
860.9170, 28987.00
862.0500, 28775.00
863.1830, 28769.00
864.3160, 28702.00
865.4480, 28742.00
866.5810, 28682.00
867.7130, 28615.96
868.8460, 28477.00
869.9780, 28490.00
871.1100, 28406.00
872.2410, 28419.00
873.3730, 28393.00
874.5050, 28364.77
875.6360, 28361.00
876.7670, 28356.00
877.8980, 28368.00
879.0290, 28413.71
880.1590, 28374.75
881.2900, 28462.00
882.4200, 28356.00
883.5500, 28397.00
884.6800, 28470.00
885.8100, 28393.00
886.9400, 28410.00
888.0690, 28298.00
889.1990, 28503.00
890.3280, 28419.00
891.4570, 28528.00
892.5860, 28599.00
893.7140, 28646.00
894.8430, 28610.00
895.9710, 28458.00
897.1000, 28484.00
898.2280, 28872.00
899.3560, 28653.00
900.4830, 28685.00
901.6110, 28491.00
902.7380, 28724.00
903.8660, 28619.00
904.9930, 28661.00
906.1200, 28938.00
907.2460, 28899.00
908.3730, 28804.00
909.5000, 28926.00
910.6260, 28717.00
911.7520, 28832.00
912.8780, 28685.00
914.0040, 28654.00
915.1290, 28869.00
916.2550, 28811.00
917.3800, 28589.00
918.5050, 28679.00
919.6300, 28791.00
920.7550, 28509.00
921.8800, 28642.00
923.0040, 28664.00
924.1290, 28688.00
925.2530, 28627.00
926.3770, 28665.00
927.5010, 28847.00
928.6250, 28770.00
929.7480, 29015.00
930.8720, 29286.00
931.9950, 28867.00
933.1180, 29085.00
934.2410, 29006.00
935.3640, 28781.00
936.4860, 28936.00
937.6090, 28914.00
938.7310, 29136.00
939.8530, 28947.00
940.9750, 28991.00
942.0970, 29093.00
943.2180, 29092.00
944.3400, 29211.00
945.4610, 29082.00
946.5820, 29241.00
947.7030, 29421.00
948.8240, 29094.00
949.9450, 29128.00
951.0650, 29241.00
952.1860, 29474.00
953.3060, 29352.00
954.4260, 29258.00
955.5460, 29366.00
956.6650, 29102.00
957.7850, 29340.00
958.9040, 29119.00
960.0230, 29534.00
961.1420, 29410.00
962.2610, 29217.00
963.3800, 29501.00
964.4990, 29310.00
965.6170, 29493.00
966.7350, 29392.00
967.8530, 29391.00
968.9710, 29467.00
970.0890, 29586.00
971.2070, 29556.00
972.3240, 29540.00
973.4410, 29523.00
974.5580, 29440.00
975.6750, 29476.00
976.7920, 29340.00
977.9090, 29421.00
979.0250, 29522.00
980.1410, 29533.90
981.2580, 29740.00
982.3740, 29642.00
983.4890, 29755.00
984.6050, 29688.00
985.7200, 29689.00
986.8360, 30006.00
987.9510, 29984.00
989.0660, 29986.00
990.1810, 30098.00
991.2950, 29993.00
992.4100, 30003.00
993.5240, 29907.00
994.6390, 30129.00
995.7530, 30355.00
996.8660, 30314.00
997.9800, 30561.00
999.0940, 30585.00
1000.207, 31095.00
1001.320, 31363.00
1002.433, 31873.00
1003.546, 31893.00
1004.659, 31733.00
1005.772, 31578.00
1006.884, 31195.00
1007.996, 31156.00
1009.108, 31045.00
1010.220, 31023.00
1011.332, 31119.00
1012.444, 30974.00
1013.555, 30888.00
1014.666, 30943.00
1015.777, 31057.00
1016.888, 30766.00
1017.999, 30982.00
1019.110, 30990.00
1020.220, 31049.00
1021.331, 31295.00
1022.441, 31091.00
1023.551, 31053.00
1024.661, 31218.00
1025.770, 31074.00
1026.880, 30907.00
1027.989, 30928.00
1029.098, 31038.00
1030.207, 30934.00
1031.316, 30994.00
1032.425, 31011.43
1033.533, 31086.00
1034.642, 31067.00
1035.750, 31091.00
1036.858, 31143.00
1037.966, 31186.00
1039.073, 31244.00
1040.181, 31373.00
1041.288, 31488.00
1042.396, 31657.00
1043.503, 31627.00
1044.610, 31722.00
1045.716, 31815.05
1046.823, 32056.00
1047.929, 32011.00
1049.036, 32061.00
1050.142, 32196.00
1051.248, 32138.00
1052.353, 32503.00
1053.459, 32112.00
1054.564, 32302.00
1055.670, 31976.00
1056.775, 32165.00
1057.880, 32093.00
1058.985, 32160.00
1060.089, 32129.00
1061.194, 32071.00
1062.298, 31973.00
1063.402, 32100.00
1064.506, 32059.00
1065.610, 32004.00
1066.713, 32082.00
1067.817, 32410.00
1068.920, 32296.00
1070.023, 32313.00
1071.126, 32458.00
1072.229, 32346.00
1073.332, 32527.00
1074.435, 32506.00
1075.537, 32510.00
1076.639, 32484.00
1077.741, 32516.00
1078.843, 32548.62
1079.945, 32654.00
1081.046, 32633.00
1082.148, 32593.00
1083.249, 32587.52
1084.350, 32698.00
1085.451, 32584.00
1086.551, 32569.00
1087.652, 32488.00
1088.752, 32317.00
1089.853, 32411.00
1090.953, 32530.00
1092.053, 32371.00
1093.152, 32385.00
1094.252, 32361.00
1095.351, 32489.00
1096.451, 32499.55
1097.550, 32497.00
1098.649, 32637.00
1099.748, 32625.46
1100.846, 32732.00
1101.945, 32760.00
1103.043, 32701.00
1104.141, 32742.00
1105.239, 32984.00
1106.337, 32871.00
1107.434, 33303.00
1108.532, 33200.00
1109.629, 33348.00
1110.726, 33223.00
1111.823, 33419.00
1112.920, 33268.00
1114.017, 33583.00
1115.113, 33645.00
1116.210, 33892.00
1117.306, 34157.00
1118.402, 34520.00
1119.498, 34308.00
1120.593, 34369.00
1121.689, 34617.00
1122.784, 34721.00
1123.879, 34950.00
1124.974, 35198.00
1126.069, 35616.00
1127.164, 36008.00
1128.259, 36311.80
1129.353, 36551.00
1130.447, 37061.00
1131.541, 37490.00
1132.635, 38036.00
1133.729, 38636.00
1134.822, 39410.00
1135.916, 40224.00
1137.009, 40086.00
1138.102, 40119.00
1139.195, 40546.00
1140.288, 39886.00
1141.380, 40091.00
1142.473, 39762.00
1143.565, 39091.00
1144.657, 38727.00
1145.749, 37885.00
1146.841, 37055.00
1147.932, 36777.00
1149.024, 36398.00
1150.115, 35795.00
1151.206, 35421.00
1152.297, 35143.00
1153.388, 34874.00
1154.479, 34734.00
1155.569, 34422.00
1156.659, 34322.00
1157.750, 34318.00
1158.839, 34245.00
1159.929, 34118.00
1161.019, 34026.00
1162.108, 34041.00
1163.198, 34038.00
1164.287, 33880.00
1165.376, 33833.00
1166.465, 33739.00
1167.553, 34126.00
1168.642, 33830.00
1169.730, 34069.00
1170.818, 33883.00
1171.906, 33950.00
1172.994, 33831.00
1174.082, 33749.00
1175.170, 33861.00
1176.257, 33933.00
1177.344, 33712.00
1178.431, 33993.00
1179.518, 33883.00
1180.605, 33694.00
1181.691, 33926.00
1182.778, 33937.00
1183.864, 33862.00
1184.950, 33900.00
1186.036, 34045.00
1187.122, 34196.00
1188.207, 33927.00
1189.292, 34137.00
1190.378, 33869.00
1191.463, 33815.00
1192.548, 33870.00
1193.632, 33689.00
1194.717, 33933.00
1195.801, 33893.00
1196.886, 33873.00
1197.970, 33847.00
1199.054, 33863.00
1200.137, 34242.00
1201.221, 34133.00
1202.305, 34136.00
1203.388, 34178.00
1204.471, 33995.00
1205.554, 34271.00
1206.637, 34094.00
1207.719, 34087.00
1208.802, 34026.00
1209.884, 34181.00
1210.966, 34168.61
1212.048, 34103.00
1213.130, 34301.00
1214.212, 34355.00
1215.293, 34466.00
1216.374, 34476.00
1217.456, 34336.00
1218.536, 34602.00
1219.617, 34276.00
1220.698, 34573.00
1221.778, 34306.00
1222.859, 34382.00
1223.939, 34312.00
1225.019, 34285.00
1226.099, 34452.00
1227.178, 34460.00
1228.258, 34527.00
1229.337, 34619.00
1230.417, 34785.00
1231.496, 34773.00
1232.574, 34834.00
1233.653, 34815.00
1234.732, 35012.00
1235.810, 34986.00
1236.888, 35057.00
1237.966, 34963.00
1239.044, 35053.00
1240.122, 35231.00
1241.199, 35025.00
1242.277, 35143.00
1243.354, 34968.00
1244.431, 35272.00
1245.508, 35048.00
1246.585, 35145.00
1247.661, 35081.00
1248.738, 35158.00
1249.814, 35282.00
1250.890, 35320.00
1251.966, 35539.00
1253.042, 35416.00
1254.117, 34947.00
1255.193, 35402.00
1256.268, 35289.00
1257.343, 35311.00
1258.418, 35528.00
1259.493, 35342.00
1260.567, 35606.00
1261.642, 35672.22
1262.716, 35977.00
1263.790, 35919.00
1264.864, 35912.00
1265.938, 35994.00
1267.011, 35741.00
1268.085, 35925.00
1269.158, 36282.00
1270.231, 36144.00
1271.304, 36149.00
1272.377, 36094.00
1273.450, 36209.00
1274.522, 36110.00
1275.594, 36448.00
1276.666, 36052.00
1277.738, 36089.00
1278.810, 36256.00
1279.882, 36067.00
1280.953, 36107.00
1282.025, 35906.00
1283.096, 35984.00
1284.167, 35982.00
1285.238, 35831.00
1286.308, 36038.00
