##NAMES=Epidote
##RRUFFID=R050303
##IDEAL CHEMISTRY=Ca_2_Fe^3+^Al_2_(Si_2_O_7_)(SiO_4_)O(OH)
##LOCALITY=San Martin mine, Zacatecas, Mexico
##OWNER=RRUFF
##SOURCE=Eugene Schlepp
##DESCRIPTION=Green elongated prismatic crystals
##STATUS=The identification of this mineral has been confirmed by X-ray diffraction and chemical analysis
##URL=rruff.info/R050303
##MEASURED CHEMISTRY=Ca_2.00_Al_2.00_(Fe^3+^_0.97_Al_0.03_)(SiO_4_)(Si_2_O_7_)O(OH)
##PIN_ID=L01647
##ORIENTATION=Laser parallel to (1 0 1). Fiducial mark perpendicular to laser is parallel to b [0 1 0]
53.91000, 575.0000
55.14900, 575.0000
56.38700, 578.0000
57.62600, 597.0000
58.86400, 633.0000
60.10300, 630.0000
61.34100, 677.0000
62.57900, 692.0000
63.81700, 735.0000
65.05400, 839.0000
66.29200, 910.0000
67.52900, 1117.000
68.76700, 1404.000
70.00400, 1719.000
71.24100, 1798.000
72.47700, 2010.000
73.71400, 2485.000
74.95100, 3110.000
76.18700, 3863.000
77.42300, 4693.000
78.65900, 5817.000
79.89500, 7320.000
81.13100, 9340.000
82.36700, 11068.00
83.60200, 13025.00
84.83700, 14560.00
86.07200, 15364.00
87.30800, 16135.00
88.54200, 16481.00
89.77700, 16135.00
91.01200, 15537.00
92.24600, 14816.00
93.48000, 13444.00
94.71400, 12260.00
95.94800, 11216.00
97.18200, 10215.00
98.41600, 9468.000
99.64900, 8921.000
100.8830, 8364.000
102.1160, 7785.000
103.3490, 7601.000
104.5820, 7587.000
105.8150, 7779.000
107.0470, 8791.000
108.2800, 8003.759
109.5120, 8884.000
110.7440, 7080.000
111.9760, 6639.000
113.2080, 6516.000
114.4400, 6723.000
115.6710, 6673.000
116.9030, 6647.000
118.1340, 6426.000
119.3650, 6303.000
120.5960, 6272.000
121.8270, 6256.000
123.0580, 6385.000
124.2880, 6229.000
125.5190, 6129.000
126.7490, 5972.000
127.9790, 6106.000
129.2090, 6212.000
130.4390, 6253.000
131.6680, 6255.000
132.8980, 6321.000
134.1270, 6356.000
135.3560, 6472.000
136.5850, 6566.000
137.8140, 6718.000
139.0430, 6759.652
140.2710, 6954.000
141.5000, 6873.000
142.7280, 6912.000
143.9560, 7000.000
145.1840, 7154.000
146.4120, 7312.000
147.6390, 7622.000
148.8670, 7911.691
150.0940, 8276.000
151.3210, 8731.000
152.5490, 9327.000
153.7750, 9952.000
155.0020, 11007.00
156.2290, 11967.00
157.4550, 13313.00
158.6810, 15031.00
159.9080, 17249.00
161.1340, 19242.00
162.3590, 21186.00
163.5850, 22748.00
164.8110, 23714.00
166.0360, 23813.00
167.2610, 23597.00
168.4860, 22904.00
169.7110, 22081.00
170.9360, 20650.00
172.1610, 19168.00
173.3850, 17835.00
174.6100, 16365.00
175.8340, 15337.00
177.0580, 14119.00
178.2820, 13255.00
179.5050, 12187.00
180.7290, 11525.00
181.9520, 10677.00
183.1760, 10277.00
184.3990, 10016.00
185.6220, 9775.000
186.8450, 9524.000
188.0670, 9412.000
189.2900, 9396.000
190.5120, 9521.000
191.7340, 9619.000
192.9560, 9826.000
194.1780, 9880.000
195.4000, 9797.000
196.6220, 9695.000
197.8430, 9853.000
199.0640, 9698.000
200.2860, 9764.000
201.5070, 9586.000
202.7270, 9600.000
203.9480, 9428.000
205.1690, 9232.000
206.3890, 9171.000
207.6090, 9304.000
208.8290, 9560.000
210.0490, 9890.000
211.2690, 10328.00
212.4890, 10978.00
213.7080, 11694.00
214.9280, 12535.00
216.1470, 13652.00
217.3660, 14922.00
218.5850, 16100.00
219.8030, 17216.00
221.0220, 18037.00
222.2400, 18708.00
223.4590, 19064.00
224.6770, 19422.00
225.8950, 19570.00
227.1120, 19680.00
228.3300, 19728.00
229.5480, 19930.00
230.7650, 20144.00
231.9820, 20190.00
233.1990, 19985.00
234.4160, 19599.00
235.6330, 18904.00
236.8490, 18375.00
238.0660, 16970.00
239.2820, 15723.00
240.4980, 14569.00
241.7140, 13580.00
242.9300, 12652.00
244.1460, 11795.00
245.3610, 11004.00
246.5770, 10238.00
247.7920, 9671.000
249.0070, 9249.000
250.2220, 9005.000
251.4370, 8647.000
252.6510, 8502.000
253.8660, 8497.000
255.0800, 8485.000
256.2940, 8680.000
257.5080, 9282.000
258.7220, 9491.467
259.9360, 10396.00
261.1490, 10484.00
262.3630, 10996.00
263.5760, 11779.00
264.7890, 12897.00
266.0020, 13437.00
267.2150, 13791.00
268.4270, 13887.00
269.6400, 13413.00
270.8520, 12974.00
272.0640, 12469.00
273.2760, 11886.00
274.4880, 11216.00
275.7000, 10782.00
276.9120, 10340.00
278.1230, 9747.000
279.3340, 9608.000
280.5450, 9383.000
281.7560, 9223.000
282.9670, 9213.000
284.1780, 9196.000
285.3880, 9225.000
286.5980, 9271.000
287.8090, 9356.000
289.0190, 9486.000
290.2290, 9508.000
291.4380, 9531.000
292.6480, 9462.000
293.8570, 9479.000
295.0670, 9413.000
296.2760, 9516.000
297.4850, 9400.000
298.6930, 9273.000
299.9020, 9327.000
301.1110, 9428.000
302.3190, 9286.000
303.5270, 9293.000
304.7350, 9206.000
305.9430, 9174.000
307.1510, 9324.000
308.3580, 9289.000
309.5660, 9509.000
310.7730, 9369.000
311.9800, 9375.000
313.1870, 9534.000
314.3940, 9472.000
315.6010, 9600.000
316.8070, 9535.000
318.0130, 9601.000
319.2200, 9453.000
320.4260, 9500.000
321.6310, 9597.000
322.8370, 9620.000
324.0430, 9707.000
325.2480, 9783.000
326.4540, 9967.000
327.6590, 10175.00
328.8640, 10440.00
330.0680, 10921.00
331.2730, 11511.00
332.4780, 12292.00
333.6820, 13325.67
334.8860, 14342.00
336.0900, 15884.00
337.2940, 17582.00
338.4980, 19256.00
339.7010, 20941.00
340.9050, 22613.00
342.1080, 23527.00
343.3110, 24410.00
344.5140, 24384.00
345.7170, 23810.00
346.9200, 22823.00
348.1220, 21851.00
349.3240, 20580.00
350.5270, 19104.00
351.7290, 17635.00
352.9310, 16255.00
354.1320, 14859.00
355.3340, 13627.00
356.5350, 12707.00
357.7370, 11717.00
358.9380, 10961.00
360.1390, 10307.00
361.3400, 9654.000
362.5400, 9257.000
363.7410, 8864.000
364.9410, 8660.000
366.1410, 8251.000
367.3410, 8137.000
368.5410, 7945.000
369.7410, 7889.000
370.9400, 7818.000
372.1400, 7762.000
373.3390, 7859.000
374.5380, 7995.000
375.7370, 8237.000
376.9360, 8549.000
378.1350, 8868.000
379.3330, 9198.000
380.5310, 9494.000
381.7300, 9622.000
382.9280, 9589.000
384.1260, 9703.000
385.3230, 9418.000
386.5210, 9114.000
387.7180, 8925.000
388.9160, 8792.000
390.1130, 8579.000
391.3100, 8191.000
392.5060, 8145.000
393.7030, 7914.000
394.9000, 7812.000
396.0960, 7687.000
397.2920, 7676.000
398.4880, 7505.000
399.6840, 7549.000
400.8800, 7575.000
402.0750, 7647.000
403.2710, 7862.000
404.4660, 8082.000
405.6610, 8278.000
406.8560, 8517.000
408.0510, 9056.000
409.2450, 9649.000
410.4400, 10309.00
411.6340, 11291.00
412.8280, 12370.00
414.0220, 13472.00
415.2160, 14877.00
416.4100, 16090.00
417.6030, 17614.00
418.7970, 19177.00
419.9900, 20910.00
421.1830, 22992.00
422.3760, 25755.00
423.5690, 28966.00
424.7610, 32414.00
425.9540, 35191.00
427.1460, 37541.00
428.3380, 38759.00
429.5300, 39162.00
430.7220, 38429.00
431.9140, 37136.00
433.1050, 35493.00
434.2970, 33589.00
435.4880, 32167.00
436.6790, 30934.00
437.8700, 30063.00
439.0610, 29615.00
440.2510, 29310.00
441.4420, 29166.00
442.6320, 29340.00
443.8220, 29655.00
445.0120, 29713.00
446.2020, 29498.00
447.3910, 29118.00
448.5810, 28579.00
449.7700, 27585.00
450.9600, 25995.00
452.1490, 24239.00
453.3370, 22539.00
454.5260, 20713.00
455.7150, 18962.00
456.9030, 17387.00
458.0910, 15908.39
459.2800, 14631.00
460.4670, 13354.47
461.6550, 12333.89
462.8430, 11415.00
464.0300, 10670.00
465.2180, 10078.00
466.4050, 9525.000
467.5920, 9155.000
468.7790, 8854.000
469.9650, 8553.000
471.1520, 8358.000
472.3380, 8214.000
473.5250, 8196.000
474.7110, 8066.000
475.8970, 8163.000
477.0820, 8182.000
478.2680, 8178.000
479.4540, 8527.000
480.6390, 8489.000
481.8240, 8630.000
483.0090, 9019.000
484.1940, 9483.000
485.3780, 9951.000
486.5630, 10545.00
487.7470, 11221.00
488.9320, 11878.00
490.1160, 12641.00
491.3000, 13211.00
492.4830, 13810.00
493.6670, 13968.00
494.8500, 14462.00
496.0340, 14695.00
497.2170, 15043.00
498.4000, 15338.00
499.5820, 15953.00
500.7650, 16266.00
501.9480, 16325.00
503.1300, 16236.11
504.3120, 15934.00
505.4940, 15379.00
506.6760, 14651.00
507.8580, 13786.00
509.0390, 12855.00
510.2210, 12198.00
511.4020, 11185.00
512.5830, 10448.00
513.7640, 9839.000
514.9450, 9147.000
516.1250, 8620.000
517.3060, 8243.000
518.4860, 7920.000
519.6660, 7529.000
520.8460, 7327.000
522.0260, 7213.000
523.2060, 7048.000
524.3850, 6983.000
525.5650, 6920.860
526.7440, 6898.000
527.9230, 6885.000
529.1020, 6880.000
530.2810, 6912.000
531.4590, 7024.000
532.6380, 6907.000
533.8160, 6907.000
534.9940, 6970.000
536.1720, 7115.000
537.3500, 7253.000
538.5270, 7392.000
539.7050, 7500.287
540.8820, 7627.000
542.0590, 7700.000
543.2360, 7847.000
544.4130, 7939.000
545.5900, 8328.000
546.7660, 8640.000
547.9430, 8833.000
549.1190, 9205.000
550.2950, 9941.000
551.4710, 10617.00
552.6470, 11804.00
553.8220, 13259.00
554.9980, 14598.00
556.1730, 15848.00
557.3480, 16714.00
558.5230, 17045.00
559.6980, 16872.00
560.8730, 16505.00
562.0470, 15666.00
563.2220, 14801.00
564.3960, 14162.00
565.5700, 13524.00
566.7440, 13181.00
567.9170, 12893.00
569.0910, 12718.00
570.2640, 12877.00
571.4380, 13119.00
572.6110, 13768.00
573.7840, 14359.00
574.9570, 15402.00
576.1290, 16586.00
577.3020, 17742.00
578.4740, 18996.00
579.6460, 20311.37
580.8180, 21856.00
581.9900, 23123.00
583.1620, 24587.00
584.3330, 26187.00
585.5040, 27630.00
586.6760, 29534.00
587.8470, 31746.00
589.0180, 33980.00
590.1880, 35456.00
591.3590, 36797.00
592.5290, 37462.00
593.7000, 37491.00
594.8700, 36950.00
596.0400, 35983.00
597.2090, 34759.00
598.3790, 33436.00
599.5490, 32527.00
600.7180, 31480.00
601.8870, 30418.00
603.0560, 29831.00
604.2250, 29110.00
605.3940, 28355.00
606.5620, 27782.00
607.7300, 26804.00
608.8990, 25693.00
610.0670, 24387.00
611.2350, 23008.00
612.4020, 21476.00
613.5700, 20098.00
614.7370, 18364.00
615.9050, 17258.00
617.0720, 15770.00
618.2390, 14459.00
619.4060, 13523.00
620.5720, 12662.00
621.7390, 11724.00
622.9050, 11076.00
624.0710, 10438.00
625.2370, 9846.000
626.4030, 9454.000
627.5690, 9191.000
628.7340, 8768.000
629.9000, 8465.000
631.0650, 8324.000
632.2300, 8084.000
633.3950, 7890.000
634.5600, 7626.000
635.7240, 7467.000
636.8890, 7301.261
638.0530, 7169.000
639.2170, 7059.000
640.3810, 6943.000
641.5450, 6895.000
642.7080, 6749.000
643.8720, 6606.000
645.0350, 6503.000
646.1980, 6328.000
647.3610, 6202.000
648.5240, 6173.000
649.6870, 6048.000
650.8490, 6039.000
652.0120, 6014.000
653.1740, 5830.000
654.3360, 5784.000
655.4980, 5777.000
656.6600, 5623.000
657.8210, 5514.000
658.9830, 5613.000
660.1440, 5443.000
661.3050, 5482.000
662.4660, 5373.000
663.6270, 5317.000
664.7870, 5441.000
665.9480, 5365.000
667.1080, 5399.000
668.2680, 5461.000
669.4280, 5377.000
670.5880, 5363.000
671.7480, 5379.000
672.9070, 5348.000
674.0670, 5363.000
675.2260, 5291.000
676.3850, 5264.000
677.5440, 5239.000
678.7030, 5316.000
679.8610, 5215.000
681.0200, 5249.000
682.1780, 5171.000
683.3360, 5262.000
684.4940, 5158.000
685.6520, 5141.000
686.8090, 5264.000
687.9670, 5096.000
689.1240, 5144.000
690.2810, 5136.000
691.4380, 5155.000
692.5950, 5113.000
693.7520, 5123.000
694.9080, 5099.000
696.0650, 5107.000
697.2210, 5081.266
698.3770, 5049.000
699.5330, 5039.000
700.6880, 4986.000
701.8440, 4981.000
702.9990, 4902.000
704.1550, 4970.000
705.3100, 4941.000
706.4650, 4999.000
707.6190, 4922.000
708.7740, 4825.000
709.9290, 4860.000
711.0830, 4781.000
712.2370, 4883.000
713.3910, 4762.000
714.5450, 4874.000
715.6980, 4835.000
716.8520, 4838.000
718.0050, 4756.000
719.1580, 4787.000
720.3110, 4959.000
721.4640, 4818.441
722.6170, 4852.396
723.7700, 4741.000
724.9220, 4744.000
726.0740, 4856.000
727.2260, 4807.000
728.3780, 4761.000
729.5300, 4745.000
730.6810, 4750.105
731.8330, 4781.078
732.9840, 4741.000
734.1350, 4725.105
735.2860, 4735.000
736.4370, 4676.000
737.5880, 4655.000
738.7380, 4696.000
739.8880, 4697.000
741.0390, 4725.000
742.1890, 4777.000
743.3380, 4670.000
744.4880, 4680.000
745.6380, 4642.000
746.7870, 4719.000
747.9360, 4650.000
749.0850, 4725.000
750.2340, 4676.000
751.3830, 4679.000
752.5310, 4714.000
753.6800, 4727.000
754.8280, 4743.467
755.9760, 4745.328
757.1240, 4767.000
758.2720, 4738.000
759.4190, 4725.000
760.5670, 4729.000
761.7140, 4731.000
762.8610, 4706.000
764.0080, 4753.000
765.1550, 4758.000
766.3020, 4713.000
767.4480, 4736.000
768.5950, 4699.000
769.7410, 4807.000
770.8870, 4710.000
772.0330, 4762.000
773.1780, 4853.000
774.3240, 4813.000
775.4690, 4829.000
776.6140, 4842.000
777.7590, 4894.000
778.9040, 4953.000
780.0490, 4806.000
781.1940, 4870.000
782.3380, 4932.000
783.4820, 4923.000
784.6260, 4993.000
785.7700, 4999.000
786.9140, 4927.000
788.0580, 5007.000
789.2010, 4986.000
790.3450, 4997.000
791.4880, 5009.000
792.6310, 5088.000
793.7730, 5112.000
794.9160, 5185.000
796.0590, 5075.000
797.2010, 5164.000
798.3430, 5139.000
799.4850, 5247.000
800.6270, 5343.000
801.7690, 5390.000
802.9100, 5475.361
804.0520, 5462.000
805.1930, 5572.000
806.3340, 5572.000
807.4750, 5557.000
808.6160, 5681.000
809.7560, 5704.000
810.8970, 5955.000
812.0370, 6102.000
813.1770, 6161.000
814.3170, 6343.000
815.4570, 6345.000
816.5960, 6512.000
817.7360, 6611.000
818.8750, 6809.000
820.0140, 7078.000
821.1530, 7176.000
822.2920, 7429.000
823.4310, 7523.000
824.5690, 7706.000
825.7070, 7858.000
826.8460, 7892.000
827.9840, 8054.000
829.1220, 8052.000
830.2590, 8102.000
831.3970, 8130.000
832.5340, 8197.000
833.6710, 8247.000
834.8080, 8295.000
835.9450, 8352.383
837.0820, 8379.146
838.2190, 8439.000
839.3550, 8450.000
840.4910, 8453.000
841.6270, 8523.000
842.7630, 8564.237
843.8990, 8723.000
845.0350, 8769.000
846.1700, 8947.000
847.3060, 9205.000
848.4410, 9272.000
849.5760, 9526.000
850.7100, 9795.000
851.8450, 10413.00
852.9800, 10912.00
854.1140, 10923.00
855.2480, 10800.00
856.3820, 10940.00
857.5160, 11180.00
858.6500, 11393.00
859.7830, 11570.00
860.9170, 11733.00
862.0500, 11881.00
863.1830, 11915.00
864.3160, 12077.00
865.4480, 12275.00
866.5810, 12756.00
867.7130, 12889.00
868.8460, 13435.00
869.9780, 13999.00
871.1100, 14388.00
872.2410, 15034.00
873.3730, 15965.00
874.5050, 16554.00
875.6360, 17512.00
876.7670, 18116.00
877.8980, 18849.00
879.0290, 19433.00
880.1590, 19937.00
881.2900, 20366.00
882.4200, 20522.00
883.5500, 20722.00
884.6800, 20797.00
885.8100, 20867.00
886.9400, 20829.00
888.0690, 21058.00
889.1990, 21225.00
890.3280, 21640.00
891.4570, 21897.00
892.5860, 22852.00
893.7140, 23524.00
894.8430, 24688.00
895.9710, 25809.00
897.1000, 27171.00
898.2280, 28896.00
899.3560, 30704.00
900.4830, 32856.00
901.6110, 35492.00
902.7380, 38339.00
903.8660, 41291.00
904.9930, 44450.00
906.1200, 49569.00
907.2460, 50669.00
908.3730, 52941.00
909.5000, 54848.00
910.6260, 55866.00
911.7520, 55564.00
912.8780, 54297.00
914.0040, 51843.00
915.1290, 49108.00
916.2550, 45554.00
917.3800, 41827.00
918.5050, 38225.00
919.6300, 34655.00
920.7550, 31352.00
921.8800, 28288.00
923.0040, 25604.00
924.1290, 23187.00
925.2530, 21032.00
926.3770, 19226.00
927.5010, 17672.00
928.6250, 16550.00
929.7480, 15271.00
930.8720, 14390.00
931.9950, 13466.00
933.1180, 12668.00
934.2410, 12109.00
935.3640, 11525.00
936.4860, 10944.00
937.6090, 10614.00
938.7310, 10219.00
939.8530, 9910.000
940.9750, 9664.000
942.0970, 9481.000
943.2180, 9218.000
944.3400, 9063.000
945.4610, 8747.000
946.5820, 8664.000
947.7030, 8499.000
948.8240, 8388.000
949.9450, 8277.000
951.0650, 8086.000
952.1860, 8072.000
953.3060, 8045.000
954.4260, 7944.000
955.5460, 7816.000
956.6650, 7868.000
957.7850, 7762.000
958.9040, 7620.000
960.0230, 7637.000
961.1420, 7625.000
962.2610, 7757.000
963.3800, 7684.000
964.4990, 7728.000
965.6170, 7749.000
966.7350, 7972.000
967.8530, 7999.000
968.9710, 8029.000
970.0890, 8208.000
971.2070, 8223.000
972.3240, 8476.000
973.4410, 8318.000
974.5580, 8400.000
975.6750, 8325.000
976.7920, 8209.000
977.9090, 8027.000
979.0250, 7951.000
980.1410, 7705.000
981.2580, 7467.000
982.3740, 7357.000
983.4890, 7121.000
984.6050, 7015.000
985.7200, 6904.000
986.8360, 6760.000
987.9510, 6675.829
989.0660, 6603.433
990.1810, 6507.000
991.2950, 6514.000
992.4100, 6482.000
993.5240, 6471.000
994.6390, 6465.000
995.7530, 6421.000
996.8660, 6474.000
997.9800, 6426.000
999.0940, 6505.000
1000.207, 6422.000
1001.320, 6523.000
1002.433, 6513.000
1003.546, 6647.000
1004.659, 6658.000
1005.772, 6797.000
1006.884, 6846.000
1007.996, 7104.000
1009.108, 7091.000
1010.220, 7380.000
1011.332, 7356.000
1012.444, 7368.000
1013.555, 7478.000
1014.666, 7404.000
1015.777, 7497.000
1016.888, 7404.000
1017.999, 7391.000
1019.110, 7352.000
1020.220, 7271.000
1021.331, 7349.000
1022.441, 7213.000
1023.551, 7248.000
1024.661, 7286.000
1025.770, 7419.000
1026.880, 7536.000
1027.989, 7459.000
1029.098, 7570.000
1030.207, 7809.000
1031.316, 7895.000
1032.425, 7866.000
1033.533, 7972.000
1034.642, 7927.000
1035.750, 8078.000
1036.858, 7889.000
1037.966, 7974.000
1039.073, 7868.000
1040.181, 7848.000
1041.288, 7797.000
1042.396, 7722.000
1043.503, 7656.000
1044.610, 7569.311
1045.716, 7495.506
1046.823, 7427.000
1047.929, 7326.000
1049.036, 7347.000
1050.142, 7248.000
1051.248, 7314.000
1052.353, 7346.000
1053.459, 7324.000
1054.564, 7248.000
1055.670, 7232.000
1056.775, 7180.000
1057.880, 7246.000
1058.985, 7177.000
1060.089, 7245.000
1061.194, 7086.000
1062.298, 7234.000
1063.402, 7295.000
1064.506, 7202.000
1065.610, 7424.000
1066.713, 7508.000
1067.817, 7650.000
1068.920, 7861.000
1070.023, 8128.000
1071.126, 8404.000
1072.229, 8861.000
1073.332, 9390.000
1074.435, 10071.00
1075.537, 10914.00
1076.639, 11861.00
1077.741, 12978.00
1078.843, 13732.00
1079.945, 14315.00
1081.046, 14483.23
1082.148, 14645.00
1083.249, 14037.00
1084.350, 13359.00
1085.451, 12517.00
1086.551, 11700.00
1087.652, 10919.00
1088.752, 10043.00
1089.853, 9429.000
1090.953, 8828.000
1092.053, 8489.000
1093.152, 7985.000
1094.252, 7777.000
1095.351, 7523.000
1096.451, 7278.000
1097.550, 7171.000
1098.649, 7034.000
1099.748, 6829.000
1100.846, 6912.000
1101.945, 6801.000
1103.043, 6693.000
1104.141, 6719.000
1105.239, 6509.000
1106.337, 6427.000
1107.434, 6418.000
1108.532, 6508.000
1109.629, 6419.000
1110.726, 6322.000
1111.823, 6327.000
1112.920, 6226.000
1114.017, 6231.000
1115.113, 6341.000
1116.210, 6241.000
1117.306, 6171.000
1118.402, 6276.000
1119.498, 6318.000
1120.593, 6246.000
1121.689, 6209.000
1122.784, 6151.000
1123.879, 6138.000
1124.974, 6226.000
1126.069, 6177.000
1127.164, 6206.000
1128.259, 6107.000
1129.353, 6117.000
1130.447, 6113.000
1131.541, 6099.000
1132.635, 6054.000
1133.729, 6014.000
1134.822, 6016.559
1135.916, 6016.000
1137.009, 6033.000
1138.102, 6033.000
1139.195, 6076.000
1140.288, 6030.000
1141.380, 5997.000
1142.473, 6035.000
1143.565, 6023.000
1144.657, 5908.000
1145.749, 5891.000
1146.841, 5882.000
1147.932, 5907.000
1149.024, 5935.000
1150.115, 5914.000
1151.206, 5971.000
1152.297, 5921.000
1153.388, 5907.000
1154.479, 5952.000
1155.569, 5961.000
1156.659, 5899.000
1157.750, 5867.000
1158.839, 5933.000
1159.929, 5990.000
1161.019, 5951.000
1162.108, 5922.000
1163.198, 5867.000
1164.287, 5955.000
1165.376, 5930.000
1166.465, 5994.000
1167.553, 5949.000
1168.642, 6074.000
1169.730, 5936.000
1170.818, 6019.000
1171.906, 5929.000
1172.994, 6035.000
1174.082, 6051.000
1175.170, 6017.000
1176.257, 6031.000
1177.344, 5999.000
1178.431, 6018.000
1179.518, 5991.868
1180.605, 6031.000
1181.691, 5979.000
1182.778, 5974.000
1183.864, 6035.000
1184.950, 5971.000
1186.036, 5961.000
1187.122, 5959.000
1188.207, 5968.000
1189.292, 6004.000
1190.378, 5950.000
1191.463, 5918.000
1192.548, 5992.000
1193.632, 5882.000
1194.717, 5988.000
1195.801, 5873.000
1196.886, 5926.000
1197.970, 5810.000
1199.054, 5850.000
1200.137, 5848.000
1201.221, 5885.000
1202.305, 5855.000
1203.388, 5832.855
1204.471, 5799.000
1205.554, 5763.000
1206.637, 5723.000
1207.719, 5716.000
1208.802, 5851.000
1209.884, 5979.000
1210.966, 5888.401
1212.048, 5671.000
1213.130, 5776.000
1214.212, 5645.000
1215.293, 5662.000
1216.374, 5672.000
1217.456, 5680.000
1218.536, 5621.000
1219.617, 5610.000
1220.698, 5655.000
1221.778, 5527.000
1222.859, 5585.000
1223.939, 5594.000
1225.019, 5590.000
1226.099, 5599.000
1227.178, 5534.000
1228.258, 5527.000
1229.337, 5468.000
1230.417, 5501.000
1231.496, 5488.000
1232.574, 5488.000
1233.653, 5572.000
1234.732, 5581.000
1235.810, 5501.000
1236.888, 5463.000
1237.966, 5511.000
1239.044, 5553.000
