##NAMES=Epidote
##RRUFFID=R050191
##IDEAL CHEMISTRY=Ca_2_Fe^3+^Al_2_(Si_2_O_7_)(SiO_4_)O(OH)
##LOCALITY=Pampa Blanca, Castrovirreyna Province, Huancavelica Department, Peru
##OWNER=RRUFF
##SOURCE=Dave Bunk Minerals
##DESCRIPTION=Cluster of green elongated prismatic crystals
##STATUS=The identification of this mineral has been confirmed by X-ray diffraction and chemical analysis
##URL=rruff.info/R050191
##MEASURED CHEMISTRY=Ca_2.00_Al_2.00_(Fe^3+^_0.84_Al_0.16_)(SiO_4_)(Si_2_O_7_)O(OH)
##PIN_ID=L01410
##ORIENTATION=Laser parallel to c* (0 0 1). Fiducial mark perpendicular to laser is parallel to -a [-1 0 0]
53.91000, 514.0000
55.14900, 514.0000
56.38700, 516.0000
57.62600, 536.0000
58.86400, 559.0000
60.10300, 616.0000
61.34100, 634.0000
62.57900, 660.0000
63.81700, 781.0000
65.05400, 837.0000
66.29200, 965.0000
67.52900, 1149.000
68.76700, 1398.000
70.00400, 1718.000
71.24100, 2015.000
72.47700, 2471.000
73.71400, 3232.000
74.95100, 4321.000
76.18700, 5667.000
77.42300, 7473.000
78.65900, 9902.000
79.89500, 12892.00
81.13100, 16480.00
82.36700, 20565.00
83.60200, 24649.00
84.83700, 28468.00
86.07200, 30454.00
87.30800, 30662.00
88.54200, 28586.00
89.77700, 25371.00
91.01200, 22229.00
92.24600, 19336.00
93.48000, 16868.00
94.71400, 14658.00
95.94800, 12758.00
97.18200, 11171.00
98.41600, 9957.000
99.64900, 8993.000
100.8830, 8239.000
102.1160, 7698.966
103.3490, 7531.000
104.5820, 7346.000
105.8150, 7424.000
107.0470, 7245.896
108.2800, 6989.404
109.5120, 7043.000
110.7440, 6488.000
111.9760, 6279.000
113.2080, 6273.000
114.4400, 6526.000
115.6710, 6482.000
116.9030, 6704.000
118.1340, 6998.000
119.3650, 7456.000
120.5960, 8370.000
121.8270, 9257.000
123.0580, 10446.00
124.2880, 11511.00
125.5190, 12766.00
126.7490, 14358.00
127.9790, 15224.00
129.2090, 15679.00
130.4390, 14659.00
131.6680, 13187.00
132.8980, 11765.00
134.1270, 10506.00
135.3560, 9723.000
136.5850, 9017.000
137.8140, 8381.000
139.0430, 8042.000
140.2710, 7543.000
141.5000, 7308.000
142.7280, 7036.000
143.9560, 6919.000
145.1840, 6661.000
146.4120, 6492.000
147.6390, 6417.000
148.8670, 6357.000
150.0940, 6467.000
151.3210, 6512.000
152.5490, 6727.000
153.7750, 7062.000
155.0020, 7392.000
156.2290, 7943.000
157.4550, 8605.000
158.6810, 9227.000
159.9080, 9904.000
161.1340, 10777.00
162.3590, 11323.00
163.5850, 11408.00
164.8110, 11223.00
166.0360, 10817.00
167.2610, 10208.00
168.4860, 9570.000
169.7110, 9064.000
170.9360, 8483.000
172.1610, 7801.000
173.3850, 7419.000
174.6100, 7098.000
175.8340, 6831.000
177.0580, 6697.000
178.2820, 6645.000
179.5050, 6675.000
180.7290, 6651.000
181.9520, 6629.000
183.1760, 6750.000
184.3990, 6914.000
185.6220, 7012.000
186.8450, 7065.000
188.0670, 7480.000
189.2900, 7849.000
190.5120, 8241.000
191.7340, 8792.000
192.9560, 9416.000
194.1780, 9901.000
195.4000, 10704.00
196.6220, 11362.00
197.8430, 11892.00
199.0640, 12248.80
200.2860, 12665.00
201.5070, 12577.00
202.7270, 12576.00
203.9480, 12469.00
205.1690, 12400.00
206.3890, 12418.00
207.6090, 12718.00
208.8290, 13086.00
210.0490, 13556.00
211.2690, 14512.00
212.4890, 15458.00
213.7080, 16467.00
214.9280, 18066.00
216.1470, 19966.00
217.3660, 21743.00
218.5850, 23789.00
219.8030, 25497.00
221.0220, 27305.00
222.2400, 28683.00
223.4590, 29686.00
224.6770, 29393.00
225.8950, 28983.00
227.1120, 27174.00
228.3300, 24628.00
229.5480, 22226.00
230.7650, 20139.00
231.9820, 18602.00
233.1990, 17368.00
234.4160, 16545.00
235.6330, 16123.00
236.8490, 15821.00
238.0660, 15667.00
239.2820, 15621.00
240.4980, 15066.00
241.7140, 14366.00
242.9300, 13559.00
244.1460, 12639.00
245.3610, 11768.00
246.5770, 11080.00
247.7920, 10413.00
249.0070, 9845.960
250.2220, 9386.232
251.4370, 8987.000
252.6510, 8711.000
253.8660, 8528.000
255.0800, 8430.000
256.2940, 8515.000
257.5080, 8925.000
258.7220, 9415.000
259.9360, 9840.000
261.1490, 10590.00
262.3630, 11881.00
263.5760, 13676.00
264.7890, 15772.00
266.0020, 18317.00
267.2150, 20744.00
268.4270, 23193.00
269.6400, 25572.00
270.8520, 27448.00
272.0640, 27345.00
273.2760, 25578.00
274.4880, 22822.00
275.7000, 19623.00
276.9120, 17216.00
278.1230, 15202.00
279.3340, 13385.00
280.5450, 12067.00
281.7560, 10908.00
282.9670, 10101.00
284.1780, 9549.000
285.3880, 9237.000
286.5980, 9242.000
287.8090, 9448.000
289.0190, 9799.000
290.2290, 10011.00
291.4380, 10305.00
292.6480, 10678.00
293.8570, 10865.00
295.0670, 10988.00
296.2760, 10907.00
297.4850, 10507.00
298.6930, 10319.00
299.9020, 9726.000
301.1110, 9568.000
302.3190, 9193.000
303.5270, 8936.000
304.7350, 8639.000
305.9430, 8321.000
307.1510, 8059.000
308.3580, 7871.000
309.5660, 7773.386
310.7730, 7764.053
311.9800, 7802.000
313.1870, 7993.000
314.3940, 8219.000
315.6010, 8531.000
316.8070, 9048.000
318.0130, 9463.000
319.2200, 9929.000
320.4260, 10066.00
321.6310, 10108.00
322.8370, 9711.000
324.0430, 9145.000
325.2480, 8239.000
326.4540, 7562.000
327.6590, 6971.000
328.8640, 6421.000
330.0680, 5993.000
331.2730, 5489.000
332.4780, 5303.000
333.6820, 4955.000
334.8860, 4942.000
336.0900, 4818.000
337.2940, 4796.000
338.4980, 4826.000
339.7010, 4889.000
340.9050, 5020.000
342.1080, 5127.000
343.3110, 5275.000
344.5140, 5365.000
345.7170, 5470.000
346.9200, 5464.000
348.1220, 5588.000
349.3240, 5576.000
350.5270, 5606.691
351.7290, 5690.000
352.9310, 5612.000
354.1320, 5599.000
355.3340, 5560.000
356.5350, 5520.522
357.7370, 5496.193
358.9380, 5491.000
360.1390, 5462.000
361.3400, 5516.000
362.5400, 5567.000
363.7410, 5495.000
364.9410, 5564.000
366.1410, 5479.000
367.3410, 5638.000
368.5410, 5849.000
369.7410, 5765.000
370.9400, 6027.000
372.1400, 6168.000
373.3390, 6413.000
374.5380, 6702.000
375.7370, 7207.000
376.9360, 7765.000
378.1350, 8568.000
379.3330, 9246.000
380.5310, 10082.00
381.7300, 10831.00
382.9280, 11636.00
384.1260, 12313.00
385.3230, 12557.00
386.5210, 12773.00
387.7180, 12223.00
388.9160, 11510.00
390.1130, 10699.00
391.3100, 9919.000
392.5060, 9405.000
393.7030, 8992.000
394.9000, 8722.000
396.0960, 8302.000
397.2920, 8198.000
398.4880, 8041.000
399.6840, 8124.000
400.8800, 8223.000
402.0750, 8505.000
403.2710, 8884.000
404.4660, 9345.000
405.6610, 9815.000
406.8560, 10483.00
408.0510, 11536.00
409.2450, 13072.00
410.4400, 14688.00
411.6340, 17215.00
412.8280, 20274.00
414.0220, 23824.00
415.2160, 28389.00
416.4100, 32906.00
417.6030, 37743.00
418.7970, 42397.00
419.9900, 45612.00
421.1830, 47342.00
422.3760, 46354.00
423.5690, 44193.00
424.7610, 41047.00
425.9540, 37808.00
427.1460, 34661.00
428.3380, 32335.00
429.5300, 29855.00
430.7220, 27752.00
431.9140, 25558.00
433.1050, 23995.00
434.2970, 22684.00
435.4880, 21762.00
436.6790, 21196.00
437.8700, 21153.00
439.0610, 22063.00
440.2510, 23432.00
441.4420, 25010.00
442.6320, 26885.00
443.8220, 29565.00
445.0120, 31604.00
446.2020, 33535.00
447.3910, 34297.00
448.5810, 34608.00
449.7700, 33950.00
450.9600, 33199.00
452.1490, 32518.00
453.3370, 31456.00
454.5260, 29514.00
455.7150, 27384.00
456.9030, 25229.00
458.0910, 23233.00
459.2800, 20996.00
460.4670, 19034.00
461.6550, 17317.00
462.8430, 15680.00
464.0300, 14475.00
465.2180, 13382.00
466.4050, 12514.00
467.5920, 11571.00
468.7790, 11129.00
469.9650, 10385.00
471.1520, 9975.000
472.3380, 9839.000
473.5250, 9530.000
474.7110, 9497.000
475.8970, 9404.000
477.0820, 9373.000
478.2680, 9538.000
479.4540, 9720.000
480.6390, 9817.000
481.8240, 10027.00
483.0090, 10349.00
484.1940, 10718.66
485.3780, 11194.00
486.5630, 11711.00
487.7470, 12374.00
488.9320, 13003.00
490.1160, 13635.00
491.3000, 14472.00
492.4830, 15542.00
493.6670, 16229.00
494.8500, 17095.00
496.0340, 17742.00
497.2170, 18191.00
498.4000, 18728.00
499.5820, 19116.00
500.7650, 19555.00
501.9480, 20109.00
503.1300, 20765.00
504.3120, 21171.00
505.4940, 21766.00
506.6760, 22003.00
507.8580, 22073.00
509.0390, 22196.00
510.2210, 22644.00
511.4020, 23374.00
512.5830, 24860.00
513.7640, 26407.00
514.9450, 28530.00
516.1250, 30425.00
517.3060, 32544.00
518.4860, 33191.00
519.6660, 33076.00
520.8460, 30949.00
522.0260, 27984.00
523.2060, 24622.00
524.3850, 21885.00
525.5650, 18910.00
526.7440, 16865.00
527.9230, 15041.00
529.1020, 13297.00
530.2810, 12107.00
531.4590, 11299.00
532.6380, 10470.00
533.8160, 10063.00
534.9940, 9704.000
536.1720, 9597.000
537.3500, 9396.000
538.5270, 9385.000
539.7050, 9421.000
540.8820, 9485.000
542.0590, 9707.000
543.2360, 10030.50
544.4130, 10462.00
545.5900, 10919.00
546.7660, 11553.00
547.9430, 12101.00
549.1190, 13236.00
550.2950, 14564.00
551.4710, 16438.00
552.6470, 19229.00
553.8220, 22832.00
554.9980, 27641.00
556.1730, 33449.00
557.3480, 39480.00
558.5230, 45550.00
559.6980, 51382.00
560.8730, 55060.00
562.0470, 55515.00
563.2220, 51713.00
564.3960, 44809.00
565.5700, 38416.00
566.7440, 32825.00
567.9170, 28263.00
569.0910, 24694.00
570.2640, 21726.00
571.4380, 19625.00
572.6110, 18250.00
573.7840, 17586.00
574.9570, 17509.00
576.1290, 17808.00
577.3020, 18278.00
578.4740, 19161.00
579.6460, 20516.00
580.8180, 21597.00
581.9900, 22938.00
583.1620, 24212.00
584.3330, 25316.00
585.5040, 26632.00
586.6760, 28300.00
587.8470, 30018.00
589.0180, 32332.00
590.1880, 34574.00
591.3590, 36819.00
592.5290, 39435.00
593.7000, 40661.00
594.8700, 41534.00
596.0400, 41506.00
597.2090, 39947.00
598.3790, 37674.00
599.5490, 35636.00
600.7180, 32709.00
601.8870, 30328.00
603.0560, 28478.00
604.2250, 26348.00
605.3940, 24665.00
606.5620, 23315.00
607.7300, 22147.00
608.8990, 21012.00
610.0670, 19830.00
611.2350, 18484.00
612.4020, 17297.00
613.5700, 16232.00
614.7370, 14849.00
615.9050, 13704.00
617.0720, 12779.00
618.2390, 11656.00
619.4060, 10934.00
620.5720, 10318.00
621.7390, 9730.000
622.9050, 9116.000
624.0710, 8662.000
625.2370, 8362.000
626.4030, 7965.000
627.5690, 7612.000
628.7340, 7492.000
629.9000, 7266.000
631.0650, 6953.000
632.2300, 6863.000
633.3950, 6544.000
634.5600, 6398.000
635.7240, 6275.000
636.8890, 6239.000
638.0530, 6191.000
639.2170, 6008.000
640.3810, 5874.000
641.5450, 5850.000
642.7080, 5740.000
643.8720, 5705.000
645.0350, 5719.000
646.1980, 5657.000
647.3610, 5591.000
648.5240, 5712.000
649.6870, 5717.000
650.8490, 5629.000
652.0120, 5668.000
653.1740, 5644.000
654.3360, 5788.000
655.4980, 5793.000
656.6600, 5870.000
657.8210, 5902.000
658.9830, 5869.000
660.1440, 5838.000
661.3050, 5886.215
662.4660, 5959.000
663.6270, 5934.000
664.7870, 5956.000
665.9480, 5920.000
667.1080, 5954.000
668.2680, 5922.000
669.4280, 5992.000
670.5880, 6041.000
671.7480, 6089.042
672.9070, 6153.758
674.0670, 6240.000
675.2260, 6234.000
676.3850, 6320.000
677.5440, 6280.000
678.7030, 6311.000
679.8610, 6413.000
681.0200, 6402.000
682.1780, 6500.000
683.3360, 6461.000
684.4940, 6391.000
685.6520, 6300.000
686.8090, 6192.000
687.9670, 5968.000
689.1240, 5767.000
690.2810, 5544.000
691.4380, 5386.000
692.5950, 5185.000
693.7520, 5010.000
694.9080, 4873.000
696.0650, 4746.000
697.2210, 4671.000
698.3770, 4563.000
699.5330, 4499.000
700.6880, 4414.000
701.8440, 4363.762
702.9990, 4285.000
704.1550, 4294.000
705.3100, 4230.000
706.4650, 4222.000
707.6190, 4155.000
708.7740, 4132.548
709.9290, 4102.000
711.0830, 4105.000
712.2370, 4021.000
713.3910, 4061.000
714.5450, 4025.000
715.6980, 4077.000
716.8520, 3989.000
718.0050, 3971.000
719.1580, 3980.000
720.3110, 3945.000
721.4640, 3956.000
722.6170, 3921.000
723.7700, 3895.000
724.9220, 3936.000
726.0740, 3885.000
727.2260, 3900.000
728.3780, 3947.000
729.5300, 3909.000
730.6810, 3901.000
731.8330, 3930.000
732.9840, 3907.000
734.1350, 3826.000
735.2860, 3858.000
736.4370, 3841.000
737.5880, 3957.000
738.7380, 3880.000
739.8880, 3836.000
741.0390, 3958.000
742.1890, 3922.000
743.3380, 3864.000
744.4880, 3873.000
745.6380, 3870.226
746.7870, 3968.000
747.9360, 3926.000
749.0850, 3942.000
750.2340, 3996.000
751.3830, 4000.000
752.5310, 4003.000
753.6800, 4007.000
754.8280, 4009.000
755.9760, 4101.000
757.1240, 4184.000
758.2720, 4121.000
759.4190, 4192.000
760.5670, 4210.000
761.7140, 4199.000
762.8610, 4244.000
764.0080, 4186.000
765.1550, 4207.953
766.3020, 4275.000
767.4480, 4212.000
768.5950, 4230.000
769.7410, 4244.000
770.8870, 4232.000
772.0330, 4205.000
773.1780, 4207.000
774.3240, 4194.000
775.4690, 4164.000
776.6140, 4216.000
777.7590, 4186.000
778.9040, 4196.000
780.0490, 4141.000
781.1940, 4201.000
782.3380, 4197.000
783.4820, 4281.000
784.6260, 4288.000
785.7700, 4329.000
786.9140, 4331.000
788.0580, 4424.000
789.2010, 4412.000
790.3450, 4432.000
791.4880, 4475.000
792.6310, 4467.000
793.7730, 4540.000
794.9160, 4569.000
796.0590, 4664.000
797.2010, 4703.000
798.3430, 4731.000
799.4850, 4843.000
800.6270, 4862.000
801.7690, 4947.000
802.9100, 4991.000
804.0520, 5148.000
805.1930, 5256.000
806.3340, 5327.000
807.4750, 5471.000
808.6160, 5602.000
809.7560, 5802.000
810.8970, 5911.000
812.0370, 6052.000
813.1770, 6308.000
814.3170, 6688.000
815.4570, 6975.000
816.5960, 7383.785
817.7360, 7728.000
818.8750, 8227.000
820.0140, 8809.000
821.1530, 9254.000
822.2920, 9952.000
823.4310, 10407.00
824.5690, 11092.00
825.7070, 11384.00
826.8460, 11458.00
827.9840, 11536.00
829.1220, 11367.00
830.2590, 11088.00
831.3970, 10683.00
832.5340, 10265.00
833.6710, 9773.000
834.8080, 9270.000
835.9450, 8859.000
837.0820, 8599.000
838.2190, 8265.000
839.3550, 8141.000
840.4910, 7859.000
841.6270, 7910.000
842.7630, 7864.000
843.8990, 7794.000
845.0350, 7789.000
846.1700, 7935.000
847.3060, 7948.000
848.4410, 8209.000
849.5760, 8381.000
850.7100, 8637.000
851.8450, 8847.000
852.9800, 9263.000
854.1140, 9446.000
855.2480, 9636.000
856.3820, 10124.00
857.5160, 10525.00
858.6500, 10885.00
859.7830, 11281.00
860.9170, 11715.34
862.0500, 12148.00
863.1830, 12605.00
864.3160, 12978.00
865.4480, 13423.00
866.5810, 13839.00
867.7130, 14014.00
868.8460, 13887.00
869.9780, 13798.00
871.1100, 13386.00
872.2410, 13313.00
873.3730, 12845.00
874.5050, 12410.00
875.6360, 12132.00
876.7670, 11662.00
877.8980, 11422.00
879.0290, 11314.00
880.1590, 11090.00
881.2900, 11057.00
882.4200, 10909.00
883.5500, 10979.00
884.6800, 11171.00
885.8100, 11318.00
886.9400, 11724.00
888.0690, 12064.00
889.1990, 12603.00
890.3280, 13172.00
891.4570, 13905.00
892.5860, 14692.00
893.7140, 15803.00
894.8430, 16893.00
895.9710, 18218.00
897.1000, 19827.00
898.2280, 21412.00
899.3560, 23244.00
900.4830, 25649.00
901.6110, 27883.00
902.7380, 30787.00
903.8660, 33697.00
904.9930, 37285.00
906.1200, 40823.00
907.2460, 44835.00
908.3730, 48909.00
909.5000, 52913.00
910.6260, 56009.00
911.7520, 58315.00
912.8780, 60093.00
914.0040, 59063.00
915.1290, 57730.00
916.2550, 54657.00
917.3800, 50620.00
918.5050, 46168.00
919.6300, 41393.00
920.7550, 37349.00
921.8800, 33112.00
923.0040, 29253.00
924.1290, 26026.00
925.2530, 23118.97
926.3770, 20824.00
927.5010, 18674.00
928.6250, 17007.00
929.7480, 15723.00
930.8720, 14453.00
931.9950, 13647.00
933.1180, 12715.00
934.2410, 11913.00
935.3640, 11427.00
936.4860, 10760.00
937.6090, 10374.00
938.7310, 9996.000
939.8530, 9761.000
940.9750, 9460.000
942.0970, 9372.000
943.2180, 9107.000
944.3400, 9028.000
945.4610, 8854.000
946.5820, 8820.000
947.7030, 8842.000
948.8240, 8711.000
949.9450, 8802.000
951.0650, 8784.000
952.1860, 8763.000
953.3060, 8898.000
954.4260, 9031.000
955.5460, 8981.000
956.6650, 8888.000
957.7850, 8789.000
958.9040, 8819.000
960.0230, 8872.000
961.1420, 8851.000
962.2610, 8853.000
963.3800, 8942.000
964.4990, 8956.000
965.6170, 9049.000
966.7350, 9360.000
967.8530, 9853.000
968.9710, 10359.00
970.0890, 11107.00
971.2070, 11982.00
972.3240, 12874.00
973.4410, 14121.00
974.5580, 15267.00
975.6750, 16256.00
976.7920, 17009.00
977.9090, 17410.00
979.0250, 17021.00
980.1410, 16159.00
981.2580, 15249.00
982.3740, 14073.00
983.4890, 12992.00
984.6050, 11832.00
985.7200, 10993.00
986.8360, 10047.00
987.9510, 9431.000
989.0660, 8845.000
990.1810, 8307.000
991.2950, 7871.000
992.4100, 7599.000
993.5240, 7264.000
994.6390, 7035.000
995.7530, 6767.000
996.8660, 6577.000
997.9800, 6323.000
999.0940, 6237.000
1000.207, 6168.000
1001.320, 5910.000
1002.433, 5891.000
1003.546, 5743.000
1004.659, 5682.000
1005.772, 5512.000
1006.884, 5563.000
1007.996, 5465.000
1009.108, 5466.000
1010.220, 5560.000
1011.332, 5436.000
1012.444, 5546.000
1013.555, 5553.000
1014.666, 5583.000
1015.777, 5611.000
1016.888, 5703.000
1017.999, 5854.000
1019.110, 5784.000
1020.220, 5946.000
1021.331, 5984.000
1022.441, 6169.000
1023.551, 6376.000
1024.661, 6672.000
1025.770, 6858.000
1026.880, 7161.417
1027.989, 7424.000
1029.098, 7797.000
1030.207, 8261.000
1031.316, 8698.000
1032.425, 9233.000
1033.533, 9684.000
1034.642, 10299.00
1035.750, 10710.00
1036.858, 11109.00
1037.966, 11399.00
1039.073, 11617.00
1040.181, 11551.00
1041.288, 11472.00
1042.396, 11040.00
1043.503, 10875.00
1044.610, 10590.00
1045.716, 10278.00
1046.823, 9876.000
1047.929, 9681.000
1049.036, 9779.000
1050.142, 9541.000
1051.248, 9713.000
1052.353, 9795.000
1053.459, 10254.00
1054.564, 10776.00
1055.670, 11196.00
1056.775, 11565.00
1057.880, 12089.00
1058.985, 12335.00
1060.089, 12205.00
1061.194, 11966.00
1062.298, 11637.00
1063.402, 11276.00
1064.506, 11088.00
1065.610, 10986.00
1066.713, 10830.00
1067.817, 10980.00
1068.920, 11173.00
1070.023, 11495.00
1071.126, 12214.00
1072.229, 12983.00
1073.332, 13902.00
1074.435, 15170.00
1075.537, 16848.00
1076.639, 18625.00
1077.741, 20615.00
1078.843, 23139.00
1079.945, 25818.00
1081.046, 28780.00
1082.148, 31606.00
1083.249, 32881.00
1084.350, 33042.00
1085.451, 31681.00
1086.551, 29141.00
1087.652, 25574.00
1088.752, 22159.00
1089.853, 18917.00
1090.953, 16028.00
1092.053, 13556.00
1093.152, 11508.00
1094.252, 10015.00
1095.351, 8945.000
1096.451, 8021.000
1097.550, 7379.000
1098.649, 6938.000
1099.748, 6490.000
1100.846, 6223.000
1101.945, 5973.000
1103.043, 5773.000
1104.141, 5630.000
1105.239, 5480.572
1106.337, 5386.112
1107.434, 5283.000
1108.532, 5273.000
1109.629, 5210.000
1110.726, 5219.000
1111.823, 5219.000
1112.920, 5125.000
1114.017, 5097.000
1115.113, 5212.000
1116.210, 5384.000
1117.306, 5427.000
1118.402, 5450.000
1119.498, 5500.000
1120.593, 5528.000
1121.689, 5495.000
1122.784, 5495.000
1123.879, 5378.000
1124.974, 5320.000
1126.069, 5170.000
1127.164, 5034.000
1128.259, 4897.000
1129.353, 4834.000
1130.447, 4747.000
1131.541, 4572.000
1132.635, 4522.000
1133.729, 4555.000
1134.822, 4430.000
1135.916, 4525.000
1137.009, 4473.000
1138.102, 4396.000
1139.195, 4354.000
1140.288, 4361.000
1141.380, 4277.000
1142.473, 4269.000
1143.565, 4293.000
1144.657, 4277.000
1145.749, 4220.000
1146.841, 4248.000
1147.932, 4235.000
1149.024, 4198.000
1150.115, 4107.000
1151.206, 4160.000
1152.297, 4115.000
1153.388, 4022.000
1154.479, 4162.000
1155.569, 4064.000
1156.659, 4129.000
1157.750, 4094.000
1158.839, 4130.000
1159.929, 4092.000
1161.019, 4044.000
1162.108, 4036.000
1163.198, 4054.000
1164.287, 4023.000
1165.376, 4058.000
1166.465, 4006.000
1167.553, 4014.718
1168.642, 3977.000
1169.730, 4011.000
1170.818, 4033.000
1171.906, 4046.000
1172.994, 4028.935
1174.082, 4046.000
1175.170, 3968.000
1176.257, 3966.000
1177.344, 3933.000
1178.431, 3924.355
1179.518, 3978.000
1180.605, 3947.000
1181.691, 3998.000
1182.778, 4043.000
1183.864, 4001.000
1184.950, 3934.000
1186.036, 3962.000
1187.122, 3922.000
1188.207, 3942.000
1189.292, 3972.000
1190.378, 3888.000
1191.463, 3863.000
1192.548, 3924.000
1193.632, 3929.000
1194.717, 3947.000
1195.801, 3958.915
1196.886, 3966.000
1197.970, 3944.000
1199.054, 3941.000
1200.137, 3906.000
1201.221, 4008.000
1202.305, 3990.000
1203.388, 3965.000
1204.471, 3912.000
1205.554, 3947.000
1206.637, 3948.000
1207.719, 3983.000
1208.802, 3953.000
1209.884, 4035.000
1210.966, 4006.000
1212.048, 4014.000
1213.130, 3989.000
1214.212, 3942.000
1215.293, 3976.000
1216.374, 3914.000
1217.456, 4012.000
1218.536, 3946.000
1219.617, 3937.000
1220.698, 3975.000
1221.778, 3892.000
1222.859, 3987.000
1223.939, 3999.000
1225.019, 3989.000
1226.099, 4010.000
1227.178, 3985.755
1228.258, 3998.000
1229.337, 3940.000
1230.417, 3954.000
1231.496, 3930.000
1232.574, 3863.000
1233.653, 3924.000
1234.732, 3970.000
1235.810, 3976.000
