##NAMES=Epidote
##RRUFFID=R050191
##IDEAL CHEMISTRY=Ca_2_Fe^3+^Al_2_(Si_2_O_7_)(SiO_4_)O(OH)
##LOCALITY=Pampa Blanca, Castrovirreyna Province, Huancavelica Department, Peru
##OWNER=RRUFF
##SOURCE=Dave Bunk Minerals
##DESCRIPTION=Cluster of green elongated prismatic crystals
##STATUS=The identification of this mineral has been confirmed by X-ray diffraction and chemical analysis
##URL=rruff.info/R050191
##MEASURED CHEMISTRY=Ca_2.00_Al_2.00_(Fe^3+^_0.84_Al_0.16_)(SiO_4_)(Si_2_O_7_)O(OH)
##PIN_ID=L01410
##ORIENTATION=Laser parallel to c* (0 0 1). Fiducial mark perpendicular to laser is parallel to -a [-1 0 0]
53.91000, 574.0000
55.14900, 580.0000
56.38700, 569.0000
57.62600, 612.0000
58.86400, 652.0000
60.10300, 684.0000
61.34100, 744.0000
62.57900, 796.0000
63.81700, 854.0000
65.05400, 1031.000
66.29200, 1174.000
67.52900, 1349.000
68.76700, 1762.000
70.00400, 2059.000
71.24100, 2389.000
72.47700, 2875.000
73.71400, 3456.000
74.95100, 4363.000
76.18700, 5445.000
77.42300, 6879.000
78.65900, 8746.000
79.89500, 10984.00
81.13100, 13913.00
82.36700, 17165.00
83.60200, 20977.00
84.83700, 24920.00
86.07200, 28049.00
87.30800, 30833.00
88.54200, 31496.00
89.77700, 31208.00
91.01200, 30858.00
92.24600, 30744.00
93.48000, 30346.00
94.71400, 29206.00
95.94800, 26939.00
97.18200, 23589.00
98.41600, 20437.00
99.64900, 17712.00
100.8830, 15339.00
102.1160, 13390.00
103.3490, 12003.00
104.5820, 11180.00
105.8150, 10636.00
107.0470, 11010.00
108.2800, 11152.00
109.5120, 9891.000
110.7440, 8988.000
111.9760, 8560.000
113.2080, 8462.000
114.4400, 8559.000
115.6710, 8494.000
116.9030, 8467.000
118.1340, 8421.000
119.3650, 8647.000
120.5960, 9152.000
121.8270, 9627.000
123.0580, 10239.00
124.2880, 10630.00
125.5190, 11256.00
126.7490, 12124.00
127.9790, 12901.00
129.2090, 13338.00
130.4390, 13287.00
131.6680, 12976.00
132.8980, 12171.00
134.1270, 11656.00
135.3560, 11021.00
136.5850, 10492.00
137.8140, 10107.00
139.0430, 9694.544
140.2710, 9407.000
141.5000, 9183.000
142.7280, 8998.000
143.9560, 8981.000
145.1840, 8978.000
146.4120, 8661.000
147.6390, 8871.000
148.8670, 8883.000
150.0940, 9024.000
151.3210, 9200.000
152.5490, 9455.000
153.7750, 9611.000
155.0020, 10092.00
156.2290, 10578.00
157.4550, 11217.00
158.6810, 11847.00
159.9080, 12699.00
161.1340, 13635.00
162.3590, 14611.00
163.5850, 15635.00
164.8110, 16502.00
166.0360, 17117.00
167.2610, 17711.00
168.4860, 17896.00
169.7110, 18017.00
170.9360, 17874.00
172.1610, 16934.00
173.3850, 16039.00
174.6100, 15096.00
175.8340, 14174.00
177.0580, 13471.00
178.2820, 12739.00
179.5050, 12287.00
180.7290, 11979.00
181.9520, 11914.00
183.1760, 11888.00
184.3990, 11822.00
185.6220, 11710.33
186.8450, 11631.42
188.0670, 11452.00
189.2900, 11458.00
190.5120, 11460.41
191.7340, 11512.68
192.9560, 11651.00
194.1780, 11829.00
195.4000, 12083.00
196.6220, 12422.00
197.8430, 12960.00
199.0640, 13214.00
200.2860, 13500.00
201.5070, 13670.00
202.7270, 13689.00
203.9480, 13300.00
205.1690, 13197.00
206.3890, 13131.00
207.6090, 13202.00
208.8290, 13275.00
210.0490, 13481.00
211.2690, 14006.00
212.4890, 14506.00
213.7080, 15297.00
214.9280, 16152.00
216.1470, 17314.00
217.3660, 18517.00
218.5850, 20088.00
219.8030, 21588.00
221.0220, 23122.00
222.2400, 24643.00
223.4590, 25924.00
224.6770, 27064.00
225.8950, 27471.00
227.1120, 27368.00
228.3300, 26316.00
229.5480, 25035.00
230.7650, 23392.00
231.9820, 22112.00
233.1990, 20871.00
234.4160, 20066.00
235.6330, 19259.00
236.8490, 19081.00
238.0660, 19258.00
239.2820, 18934.00
240.4980, 18823.00
241.7140, 18373.00
242.9300, 17779.00
244.1460, 17181.00
245.3610, 16366.00
246.5770, 15645.00
247.7920, 15112.00
249.0070, 14848.00
250.2220, 14683.00
251.4370, 14426.00
252.6510, 14228.00
253.8660, 14004.00
255.0800, 13728.00
256.2940, 13354.00
257.5080, 13387.00
258.7220, 13647.00
259.9360, 13305.00
261.1490, 13216.00
262.3630, 13723.00
263.5760, 14581.00
264.7890, 15771.00
266.0020, 17108.00
267.2150, 18426.00
268.4270, 20459.00
269.6400, 22366.00
270.8520, 24259.00
272.0640, 25088.00
273.2760, 24923.00
274.4880, 23781.00
275.7000, 21977.00
276.9120, 19966.00
278.1230, 18252.00
279.3340, 16708.00
280.5450, 15324.00
281.7560, 14301.00
282.9670, 13455.00
284.1780, 12832.00
285.3880, 12618.00
286.5980, 12228.00
287.8090, 12362.00
289.0190, 12486.00
290.2290, 12572.00
291.4380, 12947.00
292.6480, 13000.00
293.8570, 13251.00
295.0670, 13191.00
296.2760, 13401.00
297.4850, 13347.00
298.6930, 13234.00
299.9020, 12969.00
301.1110, 12938.00
302.3190, 12656.00
303.5270, 12716.00
304.7350, 12733.00
305.9430, 12832.00
307.1510, 12833.00
308.3580, 12968.00
309.5660, 13018.00
310.7730, 12977.00
311.9800, 12995.00
313.1870, 12802.00
314.3940, 12603.00
315.6010, 12475.00
316.8070, 12475.00
318.0130, 12466.00
319.2200, 12591.00
320.4260, 12503.00
321.6310, 12568.00
322.8370, 12425.00
324.0430, 12103.48
325.2480, 11807.00
326.4540, 11300.00
327.6590, 10863.00
328.8640, 10435.00
330.0680, 10155.00
331.2730, 9998.000
332.4780, 9893.000
333.6820, 9920.000
334.8860, 10092.00
336.0900, 10260.00
337.2940, 10517.00
338.4980, 11090.00
339.7010, 11477.00
340.9050, 12285.00
342.1080, 13133.00
343.3110, 14092.00
344.5140, 14856.00
345.7170, 15415.00
346.9200, 15634.96
348.1220, 15933.00
349.3240, 15394.00
350.5270, 14792.00
351.7290, 14060.00
352.9310, 13459.00
354.1320, 12710.00
355.3340, 12040.00
356.5350, 11363.00
357.7370, 11007.00
358.9380, 10608.00
360.1390, 10258.00
361.3400, 10053.00
362.5400, 10086.00
363.7410, 9845.000
364.9410, 9750.000
366.1410, 9608.000
367.3410, 9588.000
368.5410, 9523.000
369.7410, 9498.000
370.9400, 9430.000
372.1400, 9538.000
373.3390, 9528.000
374.5380, 9722.000
375.7370, 9846.000
376.9360, 10287.00
378.1350, 10717.00
379.3330, 11093.00
380.5310, 11820.00
381.7300, 12320.00
382.9280, 13110.00
384.1260, 13693.00
385.3230, 14245.00
386.5210, 14541.00
387.7180, 14325.00
388.9160, 14075.00
390.1130, 13651.00
391.3100, 12955.00
392.5060, 12377.00
393.7030, 11915.00
394.9000, 11459.00
396.0960, 11123.00
397.2920, 10783.00
398.4880, 10736.00
399.6840, 10585.00
400.8800, 10691.00
402.0750, 10635.00
403.2710, 10856.00
404.4660, 11080.00
405.6610, 11311.00
406.8560, 11767.00
408.0510, 12301.00
409.2450, 13018.00
410.4400, 14104.00
411.6340, 15283.00
412.8280, 17110.00
414.0220, 19152.00
415.2160, 21610.00
416.4100, 24798.00
417.6030, 28240.00
418.7970, 31463.00
419.9900, 34582.00
421.1830, 36895.00
422.3760, 37950.00
423.5690, 38042.00
424.7610, 37095.00
425.9540, 36334.00
427.1460, 35178.00
428.3380, 34493.00
429.5300, 33844.00
430.7220, 33414.00
431.9140, 33051.00
433.1050, 32226.00
434.2970, 31122.00
435.4880, 29615.00
436.6790, 28202.00
437.8700, 27457.00
439.0610, 26819.00
440.2510, 26784.00
441.4420, 26802.00
442.6320, 28010.00
443.8220, 29212.00
445.0120, 30784.00
446.2020, 32292.00
447.3910, 33897.00
448.5810, 34239.00
449.7700, 34434.00
450.9600, 34269.00
452.1490, 33977.00
453.3370, 32948.00
454.5260, 31773.00
455.7150, 30436.00
456.9030, 28298.00
458.0910, 26365.00
459.2800, 24595.00
460.4670, 22369.00
461.6550, 20643.00
462.8430, 19504.00
464.0300, 17719.00
465.2180, 17018.00
466.4050, 15994.00
467.5920, 15349.00
468.7790, 14671.00
469.9650, 13869.00
471.1520, 13530.00
472.3380, 12905.00
473.5250, 12618.00
474.7110, 12353.00
475.8970, 12126.00
477.0820, 11965.00
478.2680, 11955.70
479.4540, 11962.00
480.6390, 12128.00
481.8240, 12301.00
483.0090, 12529.00
484.1940, 12595.00
485.3780, 13002.00
486.5630, 13409.00
487.7470, 13684.00
488.9320, 14342.00
490.1160, 14992.00
491.3000, 15683.00
492.4830, 16503.00
493.6670, 17428.00
494.8500, 18395.00
496.0340, 19274.00
497.2170, 20179.00
498.4000, 20936.00
499.5820, 21423.00
500.7650, 21934.00
501.9480, 22266.00
503.1300, 22486.00
504.3120, 22900.00
505.4940, 23301.00
506.6760, 23372.00
507.8580, 23161.00
509.0390, 22979.00
510.2210, 22497.00
511.4020, 22291.00
512.5830, 22440.00
513.7640, 22647.00
514.9450, 23189.00
516.1250, 24089.00
517.3060, 24884.00
518.4860, 25620.00
519.6660, 25843.00
520.8460, 25018.00
522.0260, 23817.00
523.2060, 21795.00
524.3850, 20020.00
525.5650, 18248.00
526.7440, 16666.00
527.9230, 15322.00
529.1020, 14210.00
530.2810, 13431.00
531.4590, 12593.00
532.6380, 12148.00
533.8160, 11829.00
534.9940, 11513.00
536.1720, 11411.00
537.3500, 11326.00
538.5270, 11386.00
539.7050, 11488.00
540.8820, 11521.00
542.0590, 11567.00
543.2360, 11591.00
544.4130, 11919.00
545.5900, 12222.00
546.7660, 12785.00
547.9430, 13178.00
549.1190, 13625.00
550.2950, 14548.00
551.4710, 15675.00
552.6470, 17138.00
553.8220, 19200.00
554.9980, 21855.00
556.1730, 25356.00
557.3480, 29367.00
558.5230, 33205.00
559.6980, 37726.00
560.8730, 41950.00
562.0470, 43965.00
563.2220, 43348.00
564.3960, 40364.00
565.5700, 35983.00
566.7440, 31721.00
567.9170, 27696.00
569.0910, 24641.00
570.2640, 22212.00
571.4380, 20049.00
572.6110, 19132.00
573.7840, 18534.00
574.9570, 18534.00
576.1290, 18686.00
577.3020, 19301.00
578.4740, 19950.00
579.6460, 21358.00
580.8180, 22555.00
581.9900, 23642.00
583.1620, 25094.00
584.3330, 26546.00
585.5040, 27810.00
586.6760, 29366.00
587.8470, 30757.00
589.0180, 32822.00
590.1880, 34982.00
591.3590, 37286.00
592.5290, 40004.00
593.7000, 42082.00
594.8700, 43554.00
596.0400, 44255.00
597.2090, 43959.00
598.3790, 42630.00
599.5490, 40830.00
600.7180, 38359.00
601.8870, 36192.00
603.0560, 33810.00
604.2250, 31956.00
605.3940, 30223.00
606.5620, 29015.00
607.7300, 27923.00
608.8990, 27166.00
610.0670, 26135.00
611.2350, 25009.00
612.4020, 24082.00
613.5700, 22658.00
614.7370, 21264.00
615.9050, 19945.00
617.0720, 18524.00
618.2390, 17301.00
619.4060, 15998.00
620.5720, 15251.00
621.7390, 14245.00
622.9050, 13564.00
624.0710, 13058.00
625.2370, 12606.00
626.4030, 12166.00
627.5690, 11786.90
628.7340, 11488.00
629.9000, 11159.00
631.0650, 10996.00
632.2300, 10841.00
633.3950, 10607.59
634.5600, 10469.07
635.7240, 10256.00
636.8890, 10138.00
638.0530, 10003.00
639.2170, 9828.000
640.3810, 9781.000
641.5450, 9605.000
642.7080, 9602.000
643.8720, 9401.000
645.0350, 9357.000
646.1980, 9365.000
647.3610, 9397.000
648.5240, 9293.000
649.6870, 9252.000
650.8490, 9199.000
652.0120, 9184.000
653.1740, 9312.000
654.3360, 9193.000
655.4980, 9287.000
656.6600, 9205.000
657.8210, 9326.000
658.9830, 9296.000
660.1440, 9410.000
661.3050, 9326.000
662.4660, 9283.000
663.6270, 9230.000
664.7870, 9307.000
665.9480, 9270.792
667.1080, 9314.000
668.2680, 9310.000
669.4280, 9288.000
670.5880, 9343.000
671.7480, 9341.233
672.9070, 9316.000
674.0670, 9387.000
675.2260, 9385.000
676.3850, 9404.000
677.5440, 9544.000
678.7030, 9541.000
679.8610, 9686.000
681.0200, 9616.000
682.1780, 9606.000
683.3360, 9559.000
684.4940, 9614.000
685.6520, 9537.023
686.8090, 9444.190
687.9670, 9398.000
689.1240, 9214.000
690.2810, 9073.000
691.4380, 9005.000
692.5950, 8829.151
693.7520, 8742.000
694.9080, 8526.000
696.0650, 8622.000
697.2210, 8436.000
698.3770, 8454.000
699.5330, 8273.000
700.6880, 8344.000
701.8440, 8219.000
702.9990, 8163.000
704.1550, 8231.000
705.3100, 7949.000
706.4650, 8130.000
707.6190, 8114.000
708.7740, 8129.000
709.9290, 8016.000
711.0830, 8017.919
712.2370, 7851.000
713.3910, 7958.000
714.5450, 7919.000
715.6980, 7918.000
716.8520, 7828.000
718.0050, 7843.000
719.1580, 7882.000
720.3110, 7789.000
721.4640, 7869.000
722.6170, 7790.000
723.7700, 7789.000
724.9220, 7800.000
726.0740, 7770.000
727.2260, 7777.920
728.3780, 7765.000
729.5300, 7777.000
730.6810, 7736.000
731.8330, 7746.000
732.9840, 7813.000
734.1350, 7791.000
735.2860, 7877.000
736.4370, 7805.000
737.5880, 7679.000
738.7380, 7810.000
739.8880, 7781.000
741.0390, 7828.000
742.1890, 7846.000
743.3380, 7811.000
744.4880, 7818.000
745.6380, 7819.000
746.7870, 7817.000
747.9360, 7836.000
749.0850, 7902.000
750.2340, 7864.000
751.3830, 7958.000
752.5310, 7928.000
753.6800, 7893.000
754.8280, 8029.000
755.9760, 7928.000
757.1240, 8129.000
758.2720, 8094.000
759.4190, 8089.000
760.5670, 8120.000
761.7140, 8181.000
762.8610, 8141.000
764.0080, 8258.000
765.1550, 8185.000
766.3020, 8252.000
767.4480, 8247.000
768.5950, 8255.000
769.7410, 8260.000
770.8870, 8221.000
772.0330, 8261.000
773.1780, 8160.000
774.3240, 8205.000
775.4690, 8318.000
776.6140, 8055.000
777.7590, 8125.000
778.9040, 8138.000
780.0490, 8202.000
781.1940, 8213.000
782.3380, 8243.000
783.4820, 8270.189
784.6260, 8212.000
785.7700, 8268.000
786.9140, 8304.000
788.0580, 8220.000
789.2010, 8339.000
790.3450, 8270.000
791.4880, 8369.000
792.6310, 8316.000
793.7730, 8337.000
794.9160, 8390.000
796.0590, 8368.000
797.2010, 8525.000
798.3430, 8587.000
799.4850, 8665.000
800.6270, 8763.000
801.7690, 8749.000
802.9100, 8859.000
804.0520, 8979.000
805.1930, 8942.000
806.3340, 9033.000
807.4750, 9155.000
808.6160, 9239.000
809.7560, 9346.000
810.8970, 9500.000
812.0370, 9827.000
813.1770, 9790.000
814.3170, 9877.000
815.4570, 10232.00
816.5960, 10367.00
817.7360, 10711.00
818.8750, 10989.00
820.0140, 11335.00
821.1530, 11678.07
822.2920, 12071.73
823.4310, 12395.00
824.5690, 12885.00
825.7070, 13272.00
826.8460, 13613.00
827.9840, 13705.00
829.1220, 13797.00
830.2590, 13695.00
831.3970, 13563.00
832.5340, 13228.00
833.6710, 12873.00
834.8080, 12734.00
835.9450, 12527.00
837.0820, 12193.00
838.2190, 11961.00
839.3550, 11778.00
840.4910, 11641.00
841.6270, 11597.99
842.7630, 11546.00
843.8990, 11635.00
845.0350, 11676.00
846.1700, 11742.00
847.3060, 11856.00
848.4410, 11935.00
849.5760, 12130.00
850.7100, 12248.00
851.8450, 12450.00
852.9800, 12521.00
854.1140, 13044.00
855.2480, 13118.00
856.3820, 13481.00
857.5160, 13746.00
858.6500, 14031.00
859.7830, 14399.00
860.9170, 14689.00
862.0500, 14999.00
863.1830, 15308.00
864.3160, 15572.00
865.4480, 15976.00
866.5810, 16115.00
867.7130, 16229.00
868.8460, 16577.00
869.9780, 16483.00
871.1100, 16509.00
872.2410, 16468.00
873.3730, 16352.00
874.5050, 16170.00
875.6360, 16096.00
876.7670, 16010.55
877.8980, 15912.86
879.0290, 15941.00
880.1590, 15827.00
881.2900, 15875.00
882.4200, 15953.21
883.5500, 16113.40
884.6800, 16351.00
885.8100, 16591.00
886.9400, 16849.00
888.0690, 17086.00
889.1990, 17442.00
890.3280, 17871.00
891.4570, 18418.00
892.5860, 19217.00
893.7140, 20260.00
894.8430, 21031.00
895.9710, 22227.00
897.1000, 23360.00
898.2280, 24805.00
899.3560, 26766.00
900.4830, 28527.00
901.6110, 30962.00
902.7380, 33462.00
903.8660, 36319.00
904.9930, 39426.00
906.1200, 42989.00
907.2460, 46863.00
908.3730, 50636.00
909.5000, 54669.00
910.6260, 58374.00
911.7520, 61233.00
912.8780, 63531.00
914.0040, 64253.00
915.1290, 63779.00
916.2550, 61859.00
917.3800, 58624.00
918.5050, 54538.00
919.6300, 50208.00
920.7550, 45443.00
921.8800, 40808.00
923.0040, 36632.00
924.1290, 33347.00
925.2530, 30036.00
926.3770, 27645.00
927.5010, 24941.00
928.6250, 23095.00
929.7480, 21761.00
930.8720, 20067.00
931.9950, 18921.00
933.1180, 18002.00
934.2410, 17101.00
935.3640, 16412.00
936.4860, 15796.00
937.6090, 15272.00
938.7310, 14815.00
939.8530, 14485.00
940.9750, 14062.00
942.0970, 13891.00
943.2180, 13798.00
944.3400, 13638.00
945.4610, 13537.95
946.5820, 13377.00
947.7030, 13345.00
948.8240, 13311.00
949.9450, 13234.00
951.0650, 13448.00
952.1860, 13387.00
953.3060, 13557.00
954.4260, 13605.00
955.5460, 13776.00
956.6650, 13763.00
957.7850, 13696.00
958.9040, 13720.00
960.0230, 13497.00
961.1420, 13441.00
962.2610, 13311.00
963.3800, 13192.00
964.4990, 13066.00
965.6170, 13116.00
966.7350, 13345.00
967.8530, 13375.00
968.9710, 13789.00
970.0890, 14057.00
971.2070, 14482.00
972.3240, 15247.00
973.4410, 15948.00
974.5580, 16756.00
975.6750, 17629.00
976.7920, 18121.00
977.9090, 18677.00
979.0250, 18903.00
980.1410, 18247.00
981.2580, 17841.00
982.3740, 17021.00
983.4890, 16112.00
984.6050, 15291.00
985.7200, 14373.00
986.8360, 13775.00
987.9510, 13105.00
989.0660, 12748.00
990.1810, 12266.00
991.2950, 11961.00
992.4100, 11754.00
993.5240, 11460.00
994.6390, 11210.00
995.7530, 11136.00
996.8660, 10922.00
997.9800, 10825.00
999.0940, 10758.00
1000.207, 10642.00
1001.320, 10476.00
1002.433, 10537.00
1003.546, 10429.00
1004.659, 10158.00
1005.772, 10115.00
1006.884, 10300.00
1007.996, 10127.00
1009.108, 10251.00
1010.220, 10194.00
1011.332, 10097.00
1012.444, 10213.00
1013.555, 10329.00
1014.666, 10268.00
1015.777, 10409.00
1016.888, 10403.00
1017.999, 10414.00
1019.110, 10463.00
1020.220, 10577.00
1021.331, 10713.00
1022.441, 10804.00
1023.551, 10977.00
1024.661, 11096.89
1025.770, 11346.00
1026.880, 11436.00
1027.989, 11683.00
1029.098, 11993.00
1030.207, 12427.00
1031.316, 12664.00
1032.425, 13007.00
1033.533, 13570.00
1034.642, 13886.00
1035.750, 14171.00
1036.858, 14778.00
1037.966, 14885.00
1039.073, 14991.00
1040.181, 15057.00
1041.288, 15020.00
1042.396, 14937.00
1043.503, 14638.00
1044.610, 14315.00
1045.716, 14185.00
1046.823, 13972.00
1047.929, 13658.00
1049.036, 13570.00
1050.142, 13480.00
1051.248, 13478.00
1052.353, 13664.00
1053.459, 13690.00
1054.564, 13893.00
1055.670, 14067.00
1056.775, 14460.00
1057.880, 14596.00
1058.985, 14958.00
1060.089, 14909.00
1061.194, 14670.00
1062.298, 14677.00
1063.402, 14429.00
1064.506, 14330.00
1065.610, 14055.00
1066.713, 14047.00
1067.817, 14097.00
1068.920, 14143.00
1070.023, 14371.00
1071.126, 14782.00
1072.229, 15249.00
1073.332, 15994.00
1074.435, 16858.26
1075.537, 17743.00
1076.639, 19116.00
1077.741, 20588.00
1078.843, 22151.00
1079.945, 24365.00
1081.046, 26685.00
1082.148, 29034.00
1083.249, 30643.00
1084.350, 31559.00
1085.451, 31729.00
1086.551, 30401.00
1087.652, 28049.00
1088.752, 25474.00
1089.853, 22782.00
1090.953, 20248.00
1092.053, 17997.00
1093.152, 16106.00
1094.252, 14717.00
1095.351, 13711.00
1096.451, 12696.00
1097.550, 12167.00
1098.649, 11769.00
1099.748, 11477.00
1100.846, 11249.00
1101.945, 10915.00
1103.043, 10918.00
1104.141, 10686.00
1105.239, 10774.00
1106.337, 10364.00
1107.434, 10334.00
1108.532, 10253.00
1109.629, 10309.00
1110.726, 10312.00
1111.823, 10297.35
1112.920, 10118.00
1114.017, 10309.00
1115.113, 10345.00
1116.210, 10368.00
1117.306, 10677.00
1118.402, 10863.00
1119.498, 10721.00
1120.593, 10826.00
1121.689, 10829.00
1122.784, 10810.00
1123.879, 10806.00
1124.974, 10635.00
1126.069, 10517.00
1127.164, 10232.00
1128.259, 10204.00
1129.353, 9985.000
1130.447, 9743.000
1131.541, 9695.000
1132.635, 9702.000
1133.729, 9609.000
1134.822, 9607.000
1135.916, 9567.000
1137.009, 9641.000
1138.102, 9596.000
1139.195, 9619.000
1140.288, 9379.000
1141.380, 9426.000
1142.473, 9397.000
1143.565, 9498.000
1144.657, 9386.000
1145.749, 9317.000
1146.841, 9331.000
1147.932, 9402.000
1149.024, 9365.000
1150.115, 9364.000
1151.206, 9351.000
1152.297, 9241.000
1153.388, 9324.000
1154.479, 9267.000
1155.569, 9233.000
1156.659, 9289.000
1157.750, 9265.000
1158.839, 9312.000
1159.929, 9225.000
1161.019, 9253.000
1162.108, 9238.000
1163.198, 9163.000
1164.287, 9265.000
1165.376, 9213.000
1166.465, 9344.000
1167.553, 9254.000
1168.642, 9266.000
1169.730, 9354.000
1170.818, 9330.000
1171.906, 9293.000
1172.994, 9236.000
1174.082, 9296.000
1175.170, 9225.000
1176.257, 9308.000
1177.344, 9227.000
1178.431, 9285.000
1179.518, 9093.000
1180.605, 9273.000
1181.691, 9132.000
1182.778, 9339.000
1183.864, 9188.000
1184.950, 9261.000
1186.036, 9493.000
1187.122, 9240.000
1188.207, 9264.000
1189.292, 9158.000
1190.378, 9165.000
1191.463, 9336.000
1192.548, 9272.000
1193.632, 9227.000
1194.717, 9341.000
1195.801, 9197.000
1196.886, 9305.000
1197.970, 9280.000
1199.054, 9211.000
1200.137, 9473.000
1201.221, 9114.000
1202.305, 9242.000
1203.388, 9321.000
1204.471, 9227.000
1205.554, 9220.000
1206.637, 9241.000
1207.719, 9202.116
1208.802, 9308.000
1209.884, 9183.000
1210.966, 9313.000
1212.048, 9289.000
1213.130, 9318.000
1214.212, 9224.000
1215.293, 9255.000
1216.374, 9283.000
1217.456, 9252.000
1218.536, 9195.000
1219.617, 9308.000
1220.698, 9312.000
1221.778, 9413.000
1222.859, 9400.757
1223.939, 9381.127
1225.019, 9330.000
1226.099, 9301.000
1227.178, 9308.062
1228.258, 9148.000
1229.337, 9297.000
1230.417, 9287.000
1231.496, 9204.000
1232.574, 9293.000
1233.653, 9319.000
1234.732, 9237.000
1235.810, 9359.000
