##NAMES=Erionite-Ca
##RRUFFID=R060836
##IDEAL CHEMISTRY=Ca_5_(Si_26_Al_10_O_72_)&#183;30H_2_O
##LOCALITY=Moeraki, Otago, South Island, New Zealand
##OWNER=RRUFF
##SOURCE=Michael Scott
##DESCRIPTION=Radiating group of colorless acicular hexagonal prisms
##STATUS=The identification of this mineral is confirmed by single-crystal X-ray diffraction and chemical analysis.
##URL=rruff.info/R060836
##MEASURED CHEMISTRY=(Ca_2.08_K_1.21_Na_0.94_Mg_0.77_Fe^3+^_0.41_Cr_0.10_)_Σ=5.51_(Si_26.62_Al_9.38_)O_72_·23.41H_2_O; H_2_O estimated by difference
##PIN_ID=M00444
##ORIENTATION=Laser parallel to c* (0 0 1). Fiducial mark perpendicular to laser is parallel to a [1 0 0]
230.7650, 24719.00
231.9820, 24630.00
233.1990, 24810.00
234.4160, 24723.82
235.6330, 24359.00
236.8490, 24662.00
238.0660, 24440.00
239.2820, 24345.00
240.4980, 24440.00
241.7140, 24338.00
242.9300, 24397.00
244.1460, 24337.00
245.3610, 24341.00
246.5770, 24242.00
247.7920, 24429.00
249.0070, 24368.00
250.2220, 24418.00
251.4370, 24339.00
252.6510, 24390.00
253.8660, 24588.00
255.0800, 24405.00
256.2940, 24639.00
257.5080, 24862.00
258.7220, 25448.00
259.9360, 25715.00
261.1490, 25437.00
262.3630, 24820.00
263.5760, 24956.00
264.7890, 24933.00
266.0020, 25016.00
267.2150, 25088.00
268.4270, 25231.00
269.6400, 24949.00
270.8520, 25004.00
272.0640, 24986.00
273.2760, 25048.00
274.4880, 24988.00
275.7000, 24796.00
276.9120, 24714.00
278.1230, 24712.00
279.3340, 24612.00
280.5450, 24618.00
281.7560, 24561.00
282.9670, 24445.00
284.1780, 24689.00
285.3880, 24582.00
286.5980, 24419.00
287.8090, 24417.00
289.0190, 24633.00
290.2290, 24507.00
291.4380, 24702.00
292.6480, 24543.00
293.8570, 24608.00
295.0670, 24929.00
296.2760, 24969.00
297.4850, 25093.00
298.6930, 25148.00
299.9020, 25426.00
301.1110, 25429.00
302.3190, 25739.00
303.5270, 26047.00
304.7350, 26175.00
305.9430, 26565.00
307.1510, 26737.00
308.3580, 27062.00
309.5660, 27198.00
310.7730, 27640.00
311.9800, 27907.00
313.1870, 28157.00
314.3940, 28420.41
315.6010, 28592.73
316.8070, 28796.00
318.0130, 28869.00
319.2200, 29001.00
320.4260, 29035.28
321.6310, 29256.00
322.8370, 28950.00
324.0430, 29234.00
325.2480, 28761.00
326.4540, 28876.00
327.6590, 28731.00
328.8640, 28662.00
330.0680, 28453.00
331.2730, 28546.00
332.4780, 28182.00
333.6820, 28404.00
334.8860, 28167.00
336.0900, 28107.00
337.2940, 28004.00
338.4980, 28037.00
339.7010, 27825.00
340.9050, 27919.00
342.1080, 27967.00
343.3110, 28366.00
344.5140, 28290.00
345.7170, 28416.00
346.9200, 28636.00
348.1220, 28526.00
349.3240, 28497.00
350.5270, 28905.00
351.7290, 28804.00
352.9310, 28825.00
354.1320, 28948.00
355.3340, 28482.00
356.5350, 28616.00
357.7370, 28472.00
358.9380, 28219.00
360.1390, 28100.00
361.3400, 27986.00
362.5400, 27736.80
363.7410, 27315.00
364.9410, 27277.00
366.1410, 26986.00
367.3410, 26704.00
368.5410, 26537.00
369.7410, 26250.00
370.9400, 25893.00
372.1400, 25882.00
373.3390, 25543.00
374.5380, 25444.00
375.7370, 25004.00
376.9360, 24993.00
378.1350, 24898.00
379.3330, 24772.00
380.5310, 24662.00
381.7300, 24363.00
382.9280, 24372.00
384.1260, 24203.00
385.3230, 24296.00
386.5210, 24045.00
387.7180, 24125.00
388.9160, 23890.00
390.1130, 23852.00
391.3100, 24056.00
392.5060, 23939.00
393.7030, 23757.00
394.9000, 23834.00
396.0960, 23790.00
397.2920, 23774.00
398.4880, 23751.00
399.6840, 23812.00
400.8800, 23835.00
402.0750, 23774.00
403.2710, 23967.00
404.4660, 23991.00
405.6610, 24066.00
406.8560, 24234.00
408.0510, 24459.00
409.2450, 24229.00
410.4400, 24581.00
411.6340, 24846.00
412.8280, 25026.00
414.0220, 25464.00
415.2160, 25661.00
416.4100, 25828.00
417.6030, 26311.00
418.7970, 26829.00
419.9900, 27162.00
421.1830, 27451.00
422.3760, 28055.00
423.5690, 28276.00
424.7610, 28624.00
425.9540, 29135.00
427.1460, 29327.00
428.3380, 29587.00
429.5300, 29937.00
430.7220, 29871.00
431.9140, 30015.00
433.1050, 29919.00
434.2970, 29914.00
435.4880, 29559.00
436.6790, 29534.00
437.8700, 29520.00
439.0610, 29633.00
440.2510, 29634.00
441.4420, 29698.00
442.6320, 30072.00
443.8220, 30357.00
445.0120, 30495.00
446.2020, 30838.00
447.3910, 31568.00
448.5810, 31813.00
449.7700, 32560.00
450.9600, 33076.00
452.1490, 34003.00
453.3370, 34600.00
454.5260, 35499.00
455.7150, 36500.00
456.9030, 37555.00
458.0910, 38364.00
459.2800, 39366.42
460.4670, 39964.00
461.6550, 41173.00
462.8430, 41800.00
464.0300, 42595.00
465.2180, 43072.00
466.4050, 43525.00
467.5920, 44032.00
468.7790, 44719.00
469.9650, 45275.00
471.1520, 45863.00
472.3380, 46440.00
473.5250, 47371.00
474.7110, 48092.00
475.8970, 48884.00
477.0820, 49816.00
478.2680, 50630.00
479.4540, 51914.00
480.6390, 52645.00
481.8240, 53959.00
483.0090, 54367.00
484.1940, 55040.00
485.3780, 55517.00
486.5630, 55354.00
487.7470, 55069.00
488.9320, 53878.00
490.1160, 53027.00
491.3000, 51933.00
492.4830, 50707.00
493.6670, 48801.00
494.8500, 47276.00
496.0340, 45448.00
497.2170, 43760.00
498.4000, 42017.00
499.5820, 40548.00
500.7650, 38981.00
501.9480, 37671.00
503.1300, 36235.00
504.3120, 34939.00
505.4940, 33763.00
506.6760, 32617.00
507.8580, 31562.00
509.0390, 30807.00
510.2210, 30004.00
511.4020, 29175.00
512.5830, 28468.00
513.7640, 28028.00
514.9450, 27598.00
516.1250, 26887.00
517.3060, 26492.00
518.4860, 25982.00
519.6660, 25851.00
520.8460, 25442.00
522.0260, 25487.00
523.2060, 25109.00
524.3850, 24921.00
525.5650, 25003.00
526.7440, 24964.00
527.9230, 24648.00
529.1020, 24738.00
530.2810, 24572.00
531.4590, 24288.00
532.6380, 24440.00
533.8160, 24290.00
534.9940, 24440.00
536.1720, 24689.00
537.3500, 24657.00
538.5270, 24666.00
539.7050, 24575.00
540.8820, 24718.00
542.0590, 24908.00
543.2360, 24563.00
544.4130, 25023.00
545.5900, 25145.00
546.7660, 24898.00
547.9430, 25150.00
549.1190, 25226.00
550.2950, 25690.00
551.4710, 25645.00
552.6470, 25798.00
553.8220, 26137.00
554.9980, 26556.00
556.1730, 26608.00
557.3480, 27005.00
558.5230, 27541.00
559.6980, 27837.00
560.8730, 27857.00
562.0470, 28064.00
563.2220, 28309.00
564.3960, 28637.00
565.5700, 28505.00
566.7440, 28576.00
567.9170, 28425.00
569.0910, 28483.00
570.2640, 28275.00
571.4380, 27824.00
572.6110, 27326.00
573.7840, 27155.00
574.9570, 26832.00
576.1290, 26627.00
577.3020, 26300.00
578.4740, 26253.00
579.6460, 26164.00
580.8180, 26031.00
581.9900, 26046.70
583.1620, 25884.00
584.3330, 26009.00
585.5040, 25983.00
586.6760, 25887.00
587.8470, 25863.00
589.0180, 26014.00
590.1880, 26227.00
591.3590, 26188.00
592.5290, 26443.00
593.7000, 26428.00
594.8700, 26445.00
596.0400, 26421.00
597.2090, 26535.00
598.3790, 26457.00
599.5490, 26642.00
600.7180, 26650.00
601.8870, 26564.00
603.0560, 26537.00
604.2250, 26573.00
605.3940, 26496.00
606.5620, 26625.00
607.7300, 26459.00
608.8990, 26320.00
610.0670, 26168.00
611.2350, 26198.00
612.4020, 25983.00
613.5700, 25806.00
614.7370, 25775.00
615.9050, 25854.00
617.0720, 25595.00
618.2390, 25674.00
619.4060, 25737.00
620.5720, 25541.00
621.7390, 25557.00
622.9050, 25309.00
624.0710, 25368.00
625.2370, 25324.00
626.4030, 25187.00
627.5690, 25156.00
628.7340, 25262.00
629.9000, 25207.00
631.0650, 25152.00
632.2300, 25019.00
633.3950, 25170.00
634.5600, 24953.00
635.7240, 25095.00
636.8890, 24921.00
638.0530, 25020.00
639.2170, 25032.00
640.3810, 25220.00
641.5450, 25153.00
642.7080, 25168.00
643.8720, 25220.00
645.0350, 25119.00
646.1980, 25127.00
647.3610, 25249.00
648.5240, 25259.00
649.6870, 25367.00
650.8490, 25313.00
652.0120, 25280.00
653.1740, 25146.00
654.3360, 25308.00
655.4980, 25190.00
656.6600, 25351.00
657.8210, 25000.00
658.9830, 25212.00
660.1440, 25107.00
661.3050, 25112.00
662.4660, 24995.00
663.6270, 24955.00
664.7870, 24814.00
665.9480, 24941.00
667.1080, 25020.00
668.2680, 24552.00
669.4280, 24915.00
670.5880, 24697.00
671.7480, 24758.00
672.9070, 24638.00
674.0670, 24581.00
675.2260, 24738.00
676.3850, 24783.00
677.5440, 24499.00
678.7030, 24624.00
679.8610, 24266.00
681.0200, 24513.00
682.1780, 24335.00
683.3360, 24511.00
684.4940, 24339.00
685.6520, 24510.00
686.8090, 24467.00
687.9670, 24353.00
689.1240, 24380.00
690.2810, 24334.79
691.4380, 24350.00
692.5950, 24333.00
693.7520, 24308.00
694.9080, 24336.00
696.0650, 24509.00
697.2210, 24340.00
698.3770, 24479.00
699.5330, 24574.00
700.6880, 24380.00
701.8440, 24583.00
702.9990, 24467.00
704.1550, 24435.00
705.3100, 24626.00
706.4650, 24299.00
707.6190, 24366.00
708.7740, 24376.00
709.9290, 24349.00
711.0830, 24410.00
712.2370, 24478.00
713.3910, 24676.00
714.5450, 24444.00
715.6980, 24539.01
716.8520, 24587.00
718.0050, 24461.00
719.1580, 24383.00
720.3110, 24318.00
721.4640, 24791.00
722.6170, 24750.00
723.7700, 24712.00
724.9220, 24585.00
726.0740, 24940.00
727.2260, 24808.00
728.3780, 24858.00
729.5300, 25092.00
730.6810, 25040.00
731.8330, 24933.00
732.9840, 25044.00
734.1350, 24745.00
735.2860, 24990.00
736.4370, 24977.00
737.5880, 24767.00
738.7380, 24906.00
739.8880, 24886.00
741.0390, 24828.00
742.1890, 24922.00
743.3380, 24971.00
744.4880, 24918.00
745.6380, 25007.00
746.7870, 25001.00
747.9360, 25112.00
749.0850, 25156.55
750.2340, 25140.00
751.3830, 25278.00
752.5310, 25344.00
753.6800, 25397.00
754.8280, 25462.00
755.9760, 25446.00
757.1240, 25516.36
758.2720, 25648.00
759.4190, 25622.00
760.5670, 25691.00
761.7140, 25779.00
762.8610, 25809.00
764.0080, 25976.00
765.1550, 25904.00
766.3020, 25960.00
767.4480, 26252.00
768.5950, 26191.00
769.7410, 26130.00
770.8870, 26273.00
772.0330, 26484.00
773.1780, 26547.00
774.3240, 26464.00
775.4690, 26642.00
776.6140, 26494.00
777.7590, 26668.00
778.9040, 26732.00
780.0490, 27009.00
781.1940, 26905.00
782.3380, 27075.00
783.4820, 26971.00
784.6260, 26865.00
785.7700, 27022.00
786.9140, 26951.00
788.0580, 27019.00
789.2010, 27126.00
790.3450, 27048.00
791.4880, 27052.00
792.6310, 27033.00
793.7730, 26988.00
794.9160, 27036.00
796.0590, 26987.00
797.2010, 26916.00
798.3430, 27007.00
799.4850, 27260.00
800.6270, 27392.00
801.7690, 27709.00
802.9100, 28110.00
804.0520, 28333.00
805.1930, 28627.00
806.3340, 28774.00
807.4750, 28914.53
808.6160, 28986.77
809.7560, 28961.00
810.8970, 28973.00
812.0370, 28702.00
813.1770, 28593.00
814.3170, 28396.00
815.4570, 28172.00
816.5960, 27730.00
817.7360, 27470.00
818.8750, 27379.00
820.0140, 27280.00
821.1530, 27142.00
822.2920, 26908.00
823.4310, 27016.00
824.5690, 26774.00
825.7070, 26786.00
826.8460, 26739.00
827.9840, 26764.00
829.1220, 26744.00
830.2590, 26663.00
831.3970, 26642.00
832.5340, 26639.74
833.6710, 26652.99
834.8080, 26710.00
835.9450, 26796.00
837.0820, 26947.00
838.2190, 27143.00
839.3550, 27230.00
840.4910, 27281.00
841.6270, 27794.00
842.7630, 27883.00
843.8990, 28434.00
845.0350, 29060.00
846.1700, 29390.00
847.3060, 30348.00
848.4410, 30858.00
849.5760, 31559.00
850.7100, 32208.00
851.8450, 32731.00
852.9800, 33254.00
854.1140, 33572.00
855.2480, 33946.00
856.3820, 33934.00
857.5160, 33753.00
858.6500, 33526.00
859.7830, 33019.00
860.9170, 32836.00
862.0500, 32030.00
863.1830, 31487.00
864.3160, 30785.00
865.4480, 30488.00
866.5810, 29943.00
867.7130, 29393.00
868.8460, 29235.00
869.9780, 28869.00
871.1100, 28637.00
872.2410, 28358.00
873.3730, 28031.00
874.5050, 27894.00
875.6360, 27690.00
876.7670, 27660.00
877.8980, 27502.00
879.0290, 27333.00
880.1590, 27376.00
881.2900, 27212.00
882.4200, 27194.00
883.5500, 27270.00
884.6800, 27048.00
885.8100, 26760.00
886.9400, 26963.00
888.0690, 26874.00
889.1990, 26712.00
890.3280, 26867.00
891.4570, 26760.00
892.5860, 26830.00
893.7140, 27134.00
894.8430, 26796.00
895.9710, 26869.00
897.1000, 26648.00
898.2280, 26734.00
899.3560, 27017.00
900.4830, 26640.00
901.6110, 27101.00
902.7380, 27105.00
903.8660, 26981.00
904.9930, 26929.00
906.1200, 26957.00
907.2460, 26974.00
908.3730, 26939.00
909.5000, 27124.00
910.6260, 27060.00
911.7520, 26836.00
912.8780, 26947.00
914.0040, 27002.00
915.1290, 26975.00
916.2550, 27131.00
917.3800, 26870.00
918.5050, 27010.00
919.6300, 27068.00
920.7550, 26954.00
921.8800, 27032.00
923.0040, 27186.00
924.1290, 27284.00
925.2530, 26984.00
926.3770, 27152.00
927.5010, 27291.00
928.6250, 27075.00
929.7480, 27254.00
930.8720, 27213.00
931.9950, 27393.00
933.1180, 27395.95
934.2410, 27451.00
935.3640, 27479.00
936.4860, 27417.00
937.6090, 27557.00
938.7310, 27565.00
939.8530, 27599.04
940.9750, 27529.00
942.0970, 27675.00
943.2180, 27626.00
944.3400, 27651.60
945.4610, 27991.00
946.5820, 27991.00
947.7030, 27901.00
948.8240, 27834.00
949.9450, 28093.00
951.0650, 28209.00
952.1860, 28195.00
953.3060, 28345.00
954.4260, 28536.00
955.5460, 28579.00
956.6650, 28761.00
957.7850, 28841.00
958.9040, 28964.00
960.0230, 29062.42
961.1420, 28856.00
962.2610, 29217.00
963.3800, 29250.00
964.4990, 29300.00
965.6170, 29585.00
966.7350, 29446.00
967.8530, 29444.00
968.9710, 29277.00
970.0890, 29425.00
971.2070, 29635.00
972.3240, 29788.00
973.4410, 29625.00
974.5580, 29502.00
975.6750, 29613.00
976.7920, 29900.00
977.9090, 30099.00
979.0250, 30063.00
980.1410, 30301.00
981.2580, 30274.00
982.3740, 30242.00
983.4890, 30554.00
984.6050, 30718.00
985.7200, 30885.00
986.8360, 30712.00
987.9510, 30886.00
989.0660, 30979.00
990.1810, 31161.00
991.2950, 31184.00
992.4100, 31219.00
993.5240, 31575.00
994.6390, 31772.00
995.7530, 31839.00
996.8660, 31936.00
997.9800, 32036.00
999.0940, 32236.00
1000.207, 32196.00
1001.320, 32119.00
1002.433, 32749.00
1003.546, 32530.00
1004.659, 32717.00
1005.772, 32608.00
1006.884, 32762.00
1007.996, 32891.00
1009.108, 32341.00
1010.220, 32457.00
1011.332, 32581.00
1012.444, 32832.00
1013.555, 32516.00
1014.666, 32654.00
1015.777, 32618.00
1016.888, 32515.00
1017.999, 32932.00
1019.110, 32666.00
1020.220, 32886.00
1021.331, 32920.00
1022.441, 32856.00
1023.551, 32846.00
1024.661, 32876.00
1025.770, 32971.00
1026.880, 32960.00
1027.989, 33076.00
1029.098, 33180.00
1030.207, 33248.00
1031.316, 33305.53
1032.425, 33386.00
1033.533, 33369.00
1034.642, 33349.00
1035.750, 33365.00
1036.858, 33329.00
1037.966, 33417.00
1039.073, 33195.00
1040.181, 33364.00
1041.288, 33188.00
1042.396, 33275.00
1043.503, 33204.00
1044.610, 33157.00
1045.716, 33170.00
1046.823, 32857.00
1047.929, 32914.00
1049.036, 32784.83
1050.142, 32772.13
1051.248, 32695.00
1052.353, 32698.00
1053.459, 32800.00
1054.564, 32469.00
1055.670, 32375.00
1056.775, 32436.00
1057.880, 32435.00
1058.985, 32208.00
1060.089, 32404.00
1061.194, 32538.00
1062.298, 32410.00
1063.402, 32582.00
1064.506, 32453.00
1065.610, 32478.00
1066.713, 32508.00
1067.817, 32462.00
1068.920, 32546.00
1070.023, 32713.00
1071.126, 32483.00
1072.229, 32531.00
1073.332, 32707.00
1074.435, 32708.00
1075.537, 32822.00
1076.639, 32882.00
1077.741, 33011.00
1078.843, 32870.00
1079.945, 33093.00
1081.046, 33156.00
1082.148, 33600.00
1083.249, 33576.00
1084.350, 33748.00
1085.451, 34079.00
1086.551, 34101.00
1087.652, 34101.00
1088.752, 34337.00
1089.853, 34449.00
1090.953, 34658.00
1092.053, 34930.50
1093.152, 35263.00
1094.252, 35495.00
1095.351, 35661.00
1096.451, 35911.00
1097.550, 36230.00
1098.649, 36319.00
1099.748, 36514.00
1100.846, 36798.00
1101.945, 36959.00
1103.043, 37072.00
1104.141, 37337.82
1105.239, 37504.12
1106.337, 37761.00
1107.434, 37945.00
1108.532, 38116.00
1109.629, 38362.00
1110.726, 38518.00
1111.823, 38711.00
1112.920, 38479.00
1114.017, 38382.00
1115.113, 37975.00
1116.210, 38040.00
1117.306, 37914.00
1118.402, 37689.00
1119.498, 37493.00
1120.593, 37233.00
1121.689, 36938.00
1122.784, 37162.00
1123.879, 36623.00
1124.974, 36640.00
1126.069, 36349.00
1127.164, 36041.00
1128.259, 35882.00
1129.353, 35795.00
1130.447, 35685.00
1131.541, 35613.39
1132.635, 35552.00
1133.729, 35539.00
1134.822, 35509.00
1135.916, 35546.50
1137.009, 35469.00
1138.102, 35619.00
1139.195, 35603.00
1140.288, 35757.00
1141.380, 35631.00
1142.473, 35888.00
1143.565, 35654.00
1144.657, 35640.00
1145.749, 35817.00
1146.841, 35662.00
1147.932, 36194.00
1149.024, 35944.00
1150.115, 36239.00
1151.206, 35921.00
1152.297, 36208.00
1153.388, 36173.00
1154.479, 36001.00
1155.569, 36002.00
1156.659, 36161.00
1157.750, 36004.00
1158.839, 35969.00
1159.929, 35776.00
1161.019, 35982.00
1162.108, 36016.00
1163.198, 35855.00
1164.287, 35911.00
1165.376, 35513.00
1166.465, 35451.00
1167.553, 35335.00
1168.642, 35192.00
1169.730, 35268.00
1170.818, 35181.00
1171.906, 35077.00
1172.994, 35046.72
1174.082, 34934.00
1175.170, 34852.00
1176.257, 34719.00
1177.344, 34559.00
1178.431, 34492.00
1179.518, 34598.00
1180.605, 34385.70
1181.691, 34337.05
1182.778, 34125.00
1183.864, 34080.00
1184.950, 33980.00
1186.036, 33853.00
1187.122, 33958.00
1188.207, 33586.00
1189.292, 33535.00
1190.378, 33590.00
1191.463, 33397.00
1192.548, 33420.48
1193.632, 33350.00
1194.717, 33350.00
1195.801, 33254.00
1196.886, 33221.00
1197.970, 33240.00
1199.054, 33152.91
1200.137, 33162.75
1201.221, 33083.00
1202.305, 33121.00
1203.388, 33174.00
1204.471, 33126.00
1205.554, 33188.00
1206.637, 33165.00
1207.719, 33181.00
1208.802, 33053.00
1209.884, 32942.00
1210.966, 33137.00
1212.048, 33039.00
1213.130, 33060.00
1214.212, 32861.00
1215.293, 32865.00
1216.374, 33017.00
1217.456, 33153.00
1218.536, 33103.00
1219.617, 33207.00
1220.698, 33121.00
1221.778, 33268.00
1222.859, 33175.00
1223.939, 33172.00
1225.019, 33213.00
1226.099, 33284.58
1227.178, 33327.00
1228.258, 33574.00
1229.337, 33533.00
1230.417, 33738.00
1231.496, 33448.00
1232.574, 33747.00
1233.653, 33498.00
1234.732, 33738.00
1235.810, 33606.00
1236.888, 33869.00
1237.966, 33904.00
1239.044, 33757.00
1240.122, 33748.00
1241.199, 33740.00
1242.277, 34257.00
1243.354, 34030.00
1244.431, 34098.00
1245.508, 34415.00
1246.585, 34127.00
1247.661, 34204.00
1248.738, 34378.00
1249.814, 34227.00
1250.890, 34192.00
1251.966, 34245.00
1253.042, 34354.00
1254.117, 34338.41
1255.193, 34360.54
1256.268, 34396.00
1257.343, 34308.00
1258.418, 34340.00
1259.493, 34275.00
1260.567, 34255.00
1261.642, 34730.00
1262.716, 34638.00
1263.790, 34939.00
1264.864, 34867.00
1265.938, 35119.00
1267.011, 34931.00
1268.085, 34893.00
1269.158, 35062.00
1270.231, 34867.00
1271.304, 35021.00
1272.377, 35206.00
1273.450, 35557.00
1274.522, 35067.00
1275.594, 35442.00
1276.666, 34884.00
1277.738, 34913.00
1278.810, 35060.00
1279.882, 34938.00
1280.953, 34903.00
1282.025, 34870.00
1283.096, 34601.00
1284.167, 34694.00
1285.238, 34837.00
1286.308, 34822.00
1287.379, 34565.00
1288.449, 34711.00
1289.519, 34634.00
1290.589, 34714.00
1291.659, 34557.00
1292.729, 34680.00
1293.798, 34630.00
1294.868, 34835.00
1295.937, 34831.00
1297.006, 34827.00
1298.075, 34723.00
1299.143, 34969.00
1300.212, 34850.00
1301.280, 34891.56
1302.348, 34872.00
1303.416, 34854.00
1304.484, 34788.00
1305.552, 34695.00
1306.620, 34710.00
1307.687, 34808.00
1308.754, 34776.00
1309.821, 34497.00
1310.888, 34823.00
1311.955, 34936.00
1313.021, 34503.00
1314.088, 34571.00
1315.154, 34909.00
1316.220, 34924.00
1317.286, 35033.00
1318.352, 35013.00
1319.417, 34979.00
1320.483, 35157.00
1321.548, 35060.00
1322.613, 35118.00
1323.678, 35199.00
1324.743, 34991.00
1325.807, 35059.00
1326.872, 35188.00
1327.936, 35336.00
1329.000, 35349.00
1330.064, 35080.00
1331.128, 35068.00
1332.191, 34843.00
1333.255, 35054.00
1334.318, 35120.00
1335.381, 35050.00
1336.444, 35365.00
1337.507, 35330.00
1338.569, 35077.00
1339.632, 34991.00
1340.694, 34979.00
1341.756, 34973.00
1342.818, 35027.00
1343.880, 35138.00
1344.941, 35262.00
1346.003, 35174.00
1347.064, 35433.00
1348.125, 35244.00
1349.186, 35233.00
1350.247, 35016.00
1351.308, 35353.00
1352.368, 35147.00
1353.428, 35315.00
1354.489, 35070.00
1355.549, 35270.00
1356.608, 35441.00
1357.668, 35460.00
1358.727, 35524.00
1359.787, 35684.00
1360.846, 35439.00
1361.905, 35350.00
1362.964, 35560.00
1364.022, 35702.00
1365.081, 35624.00
1366.139, 35609.00
1367.197, 35642.42
1368.255, 35615.00
1369.313, 35645.00
1370.371, 35590.00
1371.428, 35603.00
1372.486, 35866.00
1373.543, 35737.00
1374.600, 35902.00
1375.657, 35901.59
1376.713, 35672.00
1377.770, 35848.00
1378.826, 35829.00
1379.882, 35712.00
1380.938, 36047.00
1381.994, 35870.00
1383.050, 35964.00
1384.106, 35930.00
1385.161, 36022.00
1386.216, 36257.00
