##NAMES=Erionite-Ca
##RRUFFID=R060836
##IDEAL CHEMISTRY=Ca_5_(Si_26_Al_10_O_72_)&#183;30H_2_O
##LOCALITY=Moeraki, Otago, South Island, New Zealand
##OWNER=RRUFF
##SOURCE=Michael Scott
##DESCRIPTION=Radiating group of colorless acicular hexagonal prisms
##STATUS=The identification of this mineral is confirmed by single-crystal X-ray diffraction and chemical analysis.
##URL=rruff.info/R060836
##MEASURED CHEMISTRY=(Ca_2.08_K_1.21_Na_0.94_Mg_0.77_Fe^3+^_0.41_Cr_0.10_)_Σ=5.51_(Si_26.62_Al_9.38_)O_72_·23.41H_2_O; H_2_O estimated by difference
##PIN_ID=M00444
##ORIENTATION=Laser parallel to c* (0 0 1). Fiducial mark perpendicular to laser is parallel to a [1 0 0]
223.4590, 28490.00
224.6770, 28558.00
225.8950, 28537.00
227.1120, 28520.25
228.3300, 28516.00
229.5480, 28487.00
230.7650, 28327.00
231.9820, 28258.00
233.1990, 28492.00
234.4160, 28281.00
235.6330, 28175.00
236.8490, 28345.00
238.0660, 28083.00
239.2820, 28312.00
240.4980, 28373.00
241.7140, 28165.00
242.9300, 28095.00
244.1460, 28189.00
245.3610, 28150.00
246.5770, 28411.00
247.7920, 28291.00
249.0070, 28427.00
250.2220, 28596.00
251.4370, 28548.00
252.6510, 28775.00
253.8660, 28854.00
255.0800, 28860.00
256.2940, 29064.00
257.5080, 29012.00
258.7220, 29379.00
259.9360, 29306.60
261.1490, 29587.00
262.3630, 29303.00
263.5760, 29322.00
264.7890, 29337.00
266.0020, 29284.00
267.2150, 29425.00
268.4270, 29512.00
269.6400, 29500.00
270.8520, 29334.00
272.0640, 29597.00
273.2760, 29244.00
274.4880, 29299.00
275.7000, 29292.00
276.9120, 29219.00
278.1230, 29244.00
279.3340, 29050.00
280.5450, 29012.00
281.7560, 29146.00
282.9670, 29079.00
284.1780, 28802.00
285.3880, 28955.00
286.5980, 29048.00
287.8090, 28954.00
289.0190, 29099.00
290.2290, 28957.00
291.4380, 28992.00
292.6480, 29058.00
293.8570, 29075.00
295.0670, 29180.00
296.2760, 29439.00
297.4850, 29562.00
298.6930, 29708.00
299.9020, 29936.00
301.1110, 30043.00
302.3190, 30135.00
303.5270, 30432.26
304.7350, 30923.00
305.9430, 31052.00
307.1510, 31420.00
308.3580, 31885.00
309.5660, 32207.00
310.7730, 32391.00
311.9800, 32933.00
313.1870, 32989.00
314.3940, 33176.00
315.6010, 33488.00
316.8070, 33401.00
318.0130, 33872.00
319.2200, 33715.00
320.4260, 33609.00
321.6310, 33665.00
322.8370, 33701.00
324.0430, 33420.00
325.2480, 33261.00
326.4540, 33035.00
327.6590, 33150.00
328.8640, 32933.00
330.0680, 32765.47
331.2730, 32524.00
332.4780, 32356.00
333.6820, 32009.00
334.8860, 31826.00
336.0900, 31790.00
337.2940, 31696.00
338.4980, 31340.00
339.7010, 31343.00
340.9050, 31201.00
342.1080, 31110.00
343.3110, 31083.69
344.5140, 30855.00
345.7170, 30888.00
346.9200, 30833.00
348.1220, 30753.18
349.3240, 30890.00
350.5270, 30654.00
351.7290, 30688.00
352.9310, 30601.00
354.1320, 30695.00
355.3340, 30456.00
356.5350, 30351.00
357.7370, 30237.00
358.9380, 29863.00
360.1390, 29911.00
361.3400, 29534.00
362.5400, 29785.00
363.7410, 29625.00
364.9410, 29290.00
366.1410, 29536.00
367.3410, 29353.00
368.5410, 29271.00
369.7410, 28858.00
370.9400, 28928.00
372.1400, 28883.00
373.3390, 28874.00
374.5380, 28709.00
375.7370, 28467.00
376.9360, 28753.00
378.1350, 28528.00
379.3330, 28476.00
380.5310, 28586.00
381.7300, 28438.00
382.9280, 28299.00
384.1260, 28294.00
385.3230, 28072.00
386.5210, 28132.00
387.7180, 28367.00
388.9160, 28199.00
390.1130, 28038.00
391.3100, 28407.00
392.5060, 28175.00
393.7030, 28367.00
394.9000, 28215.00
396.0960, 28183.00
397.2920, 28138.00
398.4880, 28299.00
399.6840, 28413.00
400.8800, 28256.00
402.0750, 28474.00
403.2710, 28430.00
404.4660, 28524.00
405.6610, 28775.00
406.8560, 28850.00
408.0510, 29024.00
409.2450, 29236.00
410.4400, 29386.00
411.6340, 29697.00
412.8280, 29829.00
414.0220, 30237.00
415.2160, 30589.00
416.4100, 30757.00
417.6030, 31560.00
418.7970, 31769.00
419.9900, 32395.00
421.1830, 32865.00
422.3760, 33166.00
423.5690, 33708.00
424.7610, 34351.00
425.9540, 34628.00
427.1460, 34960.00
428.3380, 35289.00
429.5300, 35289.00
430.7220, 35500.00
431.9140, 35473.00
433.1050, 35298.00
434.2970, 35152.00
435.4880, 35014.00
436.6790, 35021.00
437.8700, 34788.00
439.0610, 34649.00
440.2510, 34674.00
441.4420, 34709.00
442.6320, 34863.00
443.8220, 35336.00
445.0120, 35642.00
446.2020, 36025.00
447.3910, 36415.00
448.5810, 36912.45
449.7700, 37333.00
450.9600, 38096.00
452.1490, 38854.00
453.3370, 39685.00
454.5260, 40390.00
455.7150, 41167.00
456.9030, 42096.00
458.0910, 42708.00
459.2800, 43584.00
460.4670, 44355.00
461.6550, 45254.00
462.8430, 45910.07
464.0300, 46428.00
465.2180, 47146.00
466.4050, 47539.00
467.5920, 47981.00
468.7790, 48673.00
469.9650, 49133.00
471.1520, 49576.00
472.3380, 50095.00
473.5250, 51052.00
474.7110, 51852.00
475.8970, 52293.00
477.0820, 53572.00
478.2680, 54139.00
479.4540, 55363.00
480.6390, 56331.00
481.8240, 57366.00
483.0090, 57962.00
484.1940, 58314.00
485.3780, 58622.00
486.5630, 58530.00
487.7470, 58029.00
488.9320, 57179.00
490.1160, 56500.00
491.3000, 55535.00
492.4830, 53860.00
493.6670, 52376.00
494.8500, 50953.00
496.0340, 48886.00
497.2170, 47256.00
498.4000, 45631.00
499.5820, 44165.00
500.7650, 42168.00
501.9480, 41049.00
503.1300, 39582.00
504.3120, 38364.00
505.4940, 37487.00
506.6760, 36368.00
507.8580, 35586.00
509.0390, 34838.00
510.2210, 34253.00
511.4020, 33496.00
512.5830, 32886.00
513.7640, 32407.00
514.9450, 32049.00
516.1250, 31475.00
517.3060, 31312.00
518.4860, 31195.00
519.6660, 30882.00
520.8460, 30572.00
522.0260, 30552.01
523.2060, 30280.00
524.3850, 30369.00
525.5650, 30033.00
526.7440, 29727.00
527.9230, 29991.00
529.1020, 29822.00
530.2810, 29946.00
531.4590, 29775.00
532.6380, 29597.00
533.8160, 29705.00
534.9940, 29552.00
536.1720, 29587.00
537.3500, 29747.00
538.5270, 29706.00
539.7050, 29803.00
540.8820, 29779.00
542.0590, 29807.92
543.2360, 29784.00
544.4130, 29897.00
545.5900, 29918.00
546.7660, 30061.00
547.9430, 30232.00
549.1190, 30437.00
550.2950, 30696.00
551.4710, 30804.00
552.6470, 31058.00
553.8220, 31335.00
554.9980, 31465.00
556.1730, 32228.00
557.3480, 32521.00
558.5230, 32695.00
559.6980, 32810.00
560.8730, 32934.00
562.0470, 33435.00
563.2220, 33767.00
564.3960, 33836.00
565.5700, 33739.00
566.7440, 33584.00
567.9170, 33411.00
569.0910, 33236.63
570.2640, 33072.00
571.4380, 32784.00
572.6110, 32641.00
573.7840, 32319.00
574.9570, 31961.00
576.1290, 31782.00
577.3020, 31305.00
578.4740, 31251.00
579.6460, 31172.00
580.8180, 30964.00
581.9900, 30680.00
583.1620, 30629.00
584.3330, 30529.00
585.5040, 30504.00
586.6760, 30397.00
587.8470, 30388.00
589.0180, 30392.00
590.1880, 30277.00
591.3590, 30258.00
592.5290, 30491.00
593.7000, 30488.00
594.8700, 30511.00
596.0400, 30129.00
597.2090, 30381.00
598.3790, 30478.00
599.5490, 30154.00
600.7180, 30573.00
601.8870, 30389.00
603.0560, 30268.00
604.2250, 30593.00
605.3940, 30355.00
606.5620, 30211.00
607.7300, 30533.00
608.8990, 30372.00
610.0670, 30213.00
611.2350, 30494.00
612.4020, 30091.00
613.5700, 30140.00
614.7370, 30353.00
615.9050, 30069.00
617.0720, 30188.00
618.2390, 30313.00
619.4060, 30371.00
620.5720, 30274.00
621.7390, 30111.00
622.9050, 30240.00
624.0710, 30226.00
625.2370, 29872.00
626.4030, 30097.00
627.5690, 30323.00
628.7340, 29901.00
629.9000, 30048.00
631.0650, 29880.00
632.2300, 29939.00
633.3950, 29910.00
634.5600, 29946.00
635.7240, 30111.00
636.8890, 30020.00
638.0530, 29923.00
639.2170, 30085.00
640.3810, 30061.00
641.5450, 30083.00
642.7080, 30021.00
643.8720, 30082.59
645.0350, 30112.00
646.1980, 30186.00
647.3610, 30235.00
648.5240, 30290.15
649.6870, 30062.00
650.8490, 30282.00
652.0120, 30123.00
653.1740, 30029.00
654.3360, 30226.00
655.4980, 30092.00
656.6600, 30155.00
657.8210, 29975.00
658.9830, 30013.00
660.1440, 30006.00
661.3050, 30004.00
662.4660, 29854.00
663.6270, 29827.00
664.7870, 29796.00
665.9480, 29849.00
667.1080, 30003.00
668.2680, 29989.00
669.4280, 29993.00
670.5880, 29438.00
671.7480, 29765.00
672.9070, 29804.00
674.0670, 29719.00
675.2260, 29966.00
676.3850, 29955.00
677.5440, 29942.00
678.7030, 29601.00
679.8610, 29635.00
681.0200, 29738.00
682.1780, 29799.00
683.3360, 29793.00
684.4940, 30027.00
685.6520, 29717.00
686.8090, 29956.00
687.9670, 29757.00
689.1240, 29744.00
690.2810, 29782.00
691.4380, 29687.00
692.5950, 29863.00
693.7520, 30110.00
694.9080, 29754.00
696.0650, 29722.00
697.2210, 29974.00
698.3770, 30200.00
699.5330, 30065.00
700.6880, 29873.00
701.8440, 29995.00
702.9990, 30125.00
704.1550, 30153.00
705.3100, 30043.00
706.4650, 30097.50
707.6190, 30002.00
708.7740, 30070.00
709.9290, 29950.00
711.0830, 29986.00
712.2370, 30072.00
713.3910, 29988.00
714.5450, 29991.00
715.6980, 30092.00
716.8520, 29858.00
718.0050, 29990.00
719.1580, 29932.00
720.3110, 30027.00
721.4640, 30027.00
722.6170, 29984.00
723.7700, 30204.00
724.9220, 30415.00
726.0740, 30004.00
727.2260, 30420.00
728.3780, 30350.00
729.5300, 30221.00
730.6810, 30326.00
731.8330, 30332.00
732.9840, 30263.00
734.1350, 30156.00
735.2860, 30068.00
736.4370, 30292.00
737.5880, 30492.00
738.7380, 30197.00
739.8880, 30344.00
741.0390, 30298.00
742.1890, 30382.00
743.3380, 30340.00
744.4880, 30619.00
745.6380, 30472.00
746.7870, 30234.00
747.9360, 30568.00
749.0850, 30733.00
750.2340, 30736.00
751.3830, 30536.00
752.5310, 30737.00
753.6800, 30571.00
754.8280, 30812.00
755.9760, 30665.00
757.1240, 30612.00
758.2720, 30643.00
759.4190, 30829.00
760.5670, 30680.00
761.7140, 30856.00
762.8610, 30800.00
764.0080, 31042.00
765.1550, 31150.00
766.3020, 31320.00
767.4480, 31072.00
768.5950, 31110.00
769.7410, 31526.00
770.8870, 31248.00
772.0330, 31476.00
773.1780, 31587.00
774.3240, 31745.00
775.4690, 31586.00
776.6140, 31807.00
777.7590, 31774.00
778.9040, 31792.00
780.0490, 31928.00
781.1940, 31862.00
782.3380, 31924.00
783.4820, 31967.00
784.6260, 31984.00
785.7700, 32015.00
786.9140, 32071.00
788.0580, 31912.00
789.2010, 32072.00
790.3450, 31856.00
791.4880, 31918.00
792.6310, 31975.00
793.7730, 31960.00
794.9160, 31986.00
796.0590, 31919.00
797.2010, 31911.63
798.3430, 32130.00
799.4850, 31897.00
800.6270, 31820.00
801.7690, 31916.00
802.9100, 32084.00
804.0520, 31939.00
805.1930, 32177.00
806.3340, 32023.00
807.4750, 31869.00
808.6160, 32143.00
809.7560, 31792.00
810.8970, 32272.00
812.0370, 32176.00
813.1770, 32160.00
814.3170, 31844.00
815.4570, 31842.00
816.5960, 31705.00
817.7360, 31817.00
818.8750, 31745.00
820.0140, 31822.00
821.1530, 31670.00
822.2920, 31716.00
823.4310, 31655.00
824.5690, 31627.00
825.7070, 31740.00
826.8460, 31722.00
827.9840, 31620.00
829.1220, 31596.00
830.2590, 31671.00
831.3970, 31601.00
832.5340, 31780.00
833.6710, 31802.00
834.8080, 31786.00
835.9450, 31806.00
837.0820, 31871.00
838.2190, 31870.00
839.3550, 32174.00
840.4910, 31958.00
841.6270, 32427.00
842.7630, 32210.00
843.8990, 32535.00
845.0350, 32801.00
846.1700, 33034.00
847.3060, 33260.00
848.4410, 33552.00
849.5760, 33842.00
850.7100, 34221.00
851.8450, 34499.00
852.9800, 34553.00
854.1140, 35120.00
855.2480, 34935.00
856.3820, 35194.00
857.5160, 35075.00
858.6500, 34926.00
859.7830, 34893.00
860.9170, 34635.00
862.0500, 34465.00
863.1830, 34231.37
864.3160, 34065.00
865.4480, 33699.00
866.5810, 33333.00
867.7130, 33088.00
868.8460, 33249.00
869.9780, 32989.00
871.1100, 32776.00
872.2410, 33165.00
873.3730, 32878.00
874.5050, 32890.00
875.6360, 32753.00
876.7670, 32778.00
877.8980, 32702.83
879.0290, 32778.00
880.1590, 32555.00
881.2900, 32464.00
882.4200, 32315.00
883.5500, 32642.00
884.6800, 32575.00
885.8100, 32445.00
886.9400, 32373.00
888.0690, 32268.00
889.1990, 32480.00
890.3280, 32429.00
891.4570, 32466.00
892.5860, 32467.00
893.7140, 32595.00
894.8430, 32508.00
895.9710, 32440.00
897.1000, 32762.00
898.2280, 32647.00
899.3560, 32459.00
900.4830, 32553.00
901.6110, 32748.00
902.7380, 32728.00
903.8660, 32724.00
904.9930, 32732.00
906.1200, 32736.00
907.2460, 32771.00
908.3730, 32732.00
909.5000, 33012.00
910.6260, 32825.00
911.7520, 33015.00
912.8780, 33099.00
914.0040, 32685.00
915.1290, 32864.00
916.2550, 32866.00
917.3800, 32813.00
918.5050, 33036.00
919.6300, 32770.00
920.7550, 32945.00
921.8800, 32930.00
923.0040, 33002.00
924.1290, 32946.00
925.2530, 33014.00
926.3770, 33166.00
927.5010, 32914.00
928.6250, 33206.00
929.7480, 33506.00
930.8720, 33354.00
931.9950, 33285.00
933.1180, 33237.00
934.2410, 33280.00
935.3640, 33103.00
936.4860, 33252.00
937.6090, 33118.00
938.7310, 33038.00
939.8530, 33330.00
940.9750, 33235.00
942.0970, 33390.00
943.2180, 33699.00
944.3400, 33552.00
945.4610, 33566.00
946.5820, 33629.00
947.7030, 33625.00
948.8240, 33549.00
949.9450, 33605.00
951.0650, 33760.00
952.1860, 33896.00
953.3060, 33812.00
954.4260, 33657.00
955.5460, 34005.00
956.6650, 34083.00
957.7850, 34119.00
958.9040, 34313.00
960.0230, 34149.00
961.1420, 34199.00
962.2610, 34239.00
963.3800, 34393.00
964.4990, 34491.00
965.6170, 34390.00
966.7350, 34491.00
967.8530, 34617.00
968.9710, 34523.00
970.0890, 34615.00
971.2070, 34653.00
972.3240, 34724.00
973.4410, 34733.00
974.5580, 34924.00
975.6750, 35162.00
976.7920, 34918.00
977.9090, 35224.00
979.0250, 35010.00
980.1410, 35387.00
981.2580, 35309.00
982.3740, 35583.00
983.4890, 35272.00
984.6050, 35437.00
985.7200, 35502.00
986.8360, 35680.00
987.9510, 35697.00
989.0660, 35980.00
990.1810, 35683.00
991.2950, 35797.00
992.4100, 35936.00
993.5240, 36070.00
994.6390, 36182.00
995.7530, 36170.00
996.8660, 36341.00
997.9800, 36219.00
999.0940, 36516.00
1000.207, 36705.00
1001.320, 36702.00
1002.433, 36893.00
1003.546, 37038.00
1004.659, 37019.00
1005.772, 37084.00
1006.884, 36932.00
1007.996, 37328.00
1009.108, 37200.00
1010.220, 37061.00
1011.332, 37291.00
1012.444, 37236.00
1013.555, 37283.00
1014.666, 37500.00
1015.777, 37530.00
1016.888, 37381.00
1017.999, 37404.00
1019.110, 37518.00
1020.220, 37530.00
1021.331, 37562.00
1022.441, 37588.41
1023.551, 37710.00
1024.661, 37642.00
1025.770, 37603.00
1026.880, 37734.00
1027.989, 37684.04
1029.098, 37520.00
1030.207, 37757.00
1031.316, 37864.00
1032.425, 37973.00
1033.533, 37812.00
1034.642, 38042.00
1035.750, 38020.00
1036.858, 37880.00
1037.966, 38115.00
1039.073, 37881.00
1040.181, 37879.00
1041.288, 37766.00
1042.396, 37976.00
1043.503, 37845.00
1044.610, 37952.00
1045.716, 37617.00
1046.823, 37775.00
1047.929, 37767.00
1049.036, 37672.00
1050.142, 37989.00
1051.248, 38044.00
1052.353, 37853.00
1053.459, 37962.00
1054.564, 37729.00
1055.670, 37693.00
1056.775, 37769.00
1057.880, 37994.00
1058.985, 38026.00
1060.089, 38068.00
1061.194, 37847.00
1062.298, 38083.00
1063.402, 37811.00
1064.506, 38037.00
1065.610, 38068.00
1066.713, 38191.00
1067.817, 38232.00
1068.920, 38248.29
1070.023, 38196.00
1071.126, 38314.00
1072.229, 38374.00
1073.332, 38539.00
1074.435, 38634.00
1075.537, 38492.00
1076.639, 38740.00
1077.741, 38710.00
1078.843, 38914.00
1079.945, 38937.00
1081.046, 38891.00
1082.148, 39142.00
1083.249, 39266.00
1084.350, 39471.00
1085.451, 39594.07
1086.551, 39678.59
1087.652, 39772.00
1088.752, 39856.00
1089.853, 39850.00
1090.953, 40030.00
1092.053, 40327.00
1093.152, 40299.00
1094.252, 40655.00
1095.351, 40526.00
1096.451, 40833.00
1097.550, 40703.00
1098.649, 40894.00
1099.748, 40924.00
1100.846, 41162.00
1101.945, 41149.00
1103.043, 41364.00
1104.141, 41464.00
1105.239, 41600.00
1106.337, 41632.00
1107.434, 41681.00
1108.532, 41748.00
1109.629, 41921.00
1110.726, 42075.00
1111.823, 42241.00
1112.920, 42285.00
1114.017, 42100.00
1115.113, 41938.00
1116.210, 42084.00
1117.306, 41803.00
1118.402, 42068.00
1119.498, 41979.00
1120.593, 41951.00
1121.689, 41991.00
1122.784, 41755.00
1123.879, 41927.00
1124.974, 41542.00
1126.069, 41384.00
1127.164, 41465.00
1128.259, 41230.00
1129.353, 41445.00
1130.447, 41210.00
1131.541, 41312.00
1132.635, 41188.00
1133.729, 41322.00
1134.822, 41216.00
1135.916, 41005.00
1137.009, 40951.00
1138.102, 41152.00
1139.195, 41326.00
1140.288, 41242.00
1141.380, 41252.00
1142.473, 41392.00
1143.565, 41228.00
1144.657, 41227.00
1145.749, 41453.00
1146.841, 41026.00
1147.932, 41209.00
1149.024, 41379.00
1150.115, 41033.00
1151.206, 41334.00
1152.297, 41603.00
1153.388, 41356.00
1154.479, 41672.00
1155.569, 41292.00
1156.659, 41226.00
1157.750, 41409.00
1158.839, 41493.00
1159.929, 41302.00
1161.019, 41216.00
1162.108, 41234.00
1163.198, 41262.00
1164.287, 41270.00
1165.376, 41230.00
1166.465, 41196.00
1167.553, 41175.00
1168.642, 41096.04
1169.730, 41022.69
1170.818, 40944.00
1171.906, 40870.00
1172.994, 40802.00
1174.082, 40817.00
1175.170, 40791.00
1176.257, 40660.00
1177.344, 40543.00
1178.431, 40751.00
1179.518, 40546.00
1180.605, 40568.00
1181.691, 40368.00
1182.778, 40388.00
1183.864, 40496.00
1184.950, 40394.00
1186.036, 40239.00
1187.122, 40038.00
1188.207, 40060.00
1189.292, 40244.00
1190.378, 40463.00
1191.463, 40055.00
1192.548, 40189.00
1193.632, 39846.00
1194.717, 40037.00
1195.801, 39874.00
1196.886, 39935.00
1197.970, 39783.00
1199.054, 39772.00
1200.137, 39755.00
1201.221, 39727.06
1202.305, 39653.00
1203.388, 39732.00
1204.471, 39841.00
1205.554, 39799.00
1206.637, 39817.00
1207.719, 39741.00
1208.802, 39824.00
1209.884, 39600.00
1210.966, 39799.00
1212.048, 39519.00
1213.130, 39645.00
1214.212, 39725.00
1215.293, 39917.00
1216.374, 39718.00
1217.456, 39740.00
1218.536, 39790.00
1219.617, 39595.00
1220.698, 39737.00
1221.778, 39736.00
1222.859, 39781.00
1223.939, 39761.00
1225.019, 39810.00
1226.099, 39641.00
1227.178, 39865.00
1228.258, 39736.00
1229.337, 39645.00
1230.417, 39992.00
1231.496, 39869.00
1232.574, 40038.00
1233.653, 39934.00
1234.732, 40022.31
1235.810, 39911.00
1236.888, 40111.00
1237.966, 40286.00
1239.044, 40210.00
1240.122, 40388.00
1241.199, 40284.00
1242.277, 40398.00
1243.354, 40440.00
1244.431, 40286.00
1245.508, 40509.00
1246.585, 40270.00
1247.661, 40408.00
1248.738, 40281.00
1249.814, 40385.00
1250.890, 40262.00
1251.966, 40499.00
1253.042, 40428.00
1254.117, 40426.00
1255.193, 40078.00
1256.268, 40337.00
1257.343, 40225.00
1258.418, 40302.00
1259.493, 40510.00
1260.567, 40709.00
1261.642, 40880.00
1262.716, 40825.00
1263.790, 40847.00
1264.864, 40765.00
1265.938, 40812.16
1267.011, 40854.00
1268.085, 40842.00
1269.158, 40891.00
1270.231, 40810.00
1271.304, 41027.00
1272.377, 41044.00
1273.450, 40833.00
1274.522, 41262.00
1275.594, 41293.00
1276.666, 41102.00
1277.738, 40992.00
1278.810, 41288.00
1279.882, 41262.00
1280.953, 41081.00
1282.025, 41169.00
1283.096, 41116.81
1284.167, 41199.00
1285.238, 41161.00
1286.308, 41217.00
1287.379, 41286.00
1288.449, 41366.00
1289.519, 41240.00
1290.589, 41054.00
1291.659, 41420.00
1292.729, 41509.00
1293.798, 41141.00
1294.868, 41499.00
1295.937, 41430.00
1297.006, 41112.00
1298.075, 41348.00
1299.143, 41298.00
1300.212, 41305.96
1301.280, 41473.00
1302.348, 41443.00
1303.416, 41504.00
1304.484, 41618.00
1305.552, 41382.00
1306.620, 41542.00
1307.687, 41267.00
1308.754, 41688.00
1309.821, 41735.00
1310.888, 41654.00
1311.955, 41699.00
1313.021, 41650.00
1314.088, 42024.00
1315.154, 41854.00
1316.220, 41646.00
1317.286, 42049.00
1318.352, 41958.00
1319.417, 42034.00
1320.483, 41748.00
1321.548, 41848.00
1322.613, 41894.00
1323.678, 42228.00
1324.743, 41936.00
1325.807, 41600.00
1326.872, 41897.00
1327.936, 42179.00
1329.000, 41887.00
1330.064, 42236.00
1331.128, 42084.00
1332.191, 42160.00
1333.255, 41888.00
1334.318, 42029.00
1335.381, 41965.00
1336.444, 42104.00
1337.507, 42202.00
1338.569, 42127.00
1339.632, 41864.00
1340.694, 42096.00
1341.756, 41989.00
1342.818, 42312.00
1343.880, 42255.00
1344.941, 42261.00
1346.003, 42416.00
1347.064, 42130.00
1348.125, 42157.00
1349.186, 42468.00
1350.247, 42292.00
1351.308, 42574.00
1352.368, 42175.00
1353.428, 42326.00
1354.489, 42462.00
1355.549, 42655.00
1356.608, 42576.00
1357.668, 42710.00
1358.727, 42666.00
1359.787, 42558.00
1360.846, 42778.00
1361.905, 42489.00
1362.964, 42683.00
1364.022, 42807.00
1365.081, 42661.00
1366.139, 42824.00
1367.197, 42636.00
1368.255, 42792.00
1369.313, 42976.00
1370.371, 42848.00
1371.428, 42985.00
1372.486, 42829.00
1373.543, 42768.00
1374.600, 42937.00
1375.657, 42742.00
1376.713, 43037.00
1377.770, 43096.00
1378.826, 43022.00
1379.882, 43348.00
