##NAMES=Erythrite
##RRUFFID=R050073
##IDEAL CHEMISTRY=Co^2+^_3_(As^5+^O_4_)_2_&#183;8H_2_O
##LOCALITY=Bou Azzer, Morocco
##OWNER=RRUFF
##SOURCE=Rock Currier
##DESCRIPTION=Crimson flattened crystals
##STATUS=The identification of this mineral has been confirmed by X-ray diffraction and chemical analysis
##URL=rruff.info/R050073
##MEASURED CHEMISTRY=(Co_0.65_Mg_0.35_)_3_(As_1.00_O_4_)_2_Â·8H_2_O
##PIN_ID=M00361
##ORIENTATION=Laser parallel to c* (0 0 1). Fiducial mark perpendicular to laser is parallel to -a [-1 0 0]
93.48000, 9027.000
94.71400, 9031.000
95.94800, 9085.000
97.18200, 9005.000
98.41600, 9240.000
99.64900, 9430.000
100.8830, 9704.000
102.1160, 10110.00
103.3490, 10842.00
104.5820, 12071.00
105.8150, 13492.00
107.0470, 14894.00
108.2800, 15290.00
109.5120, 15455.00
110.7440, 14663.00
111.9760, 14488.00
113.2080, 14339.00
114.4400, 14236.00
115.6710, 14266.00
116.9030, 13643.00
118.1340, 12882.00
119.3650, 11889.00
120.5960, 11172.00
121.8270, 11009.00
123.0580, 11048.00
124.2880, 10642.00
125.5190, 10365.00
126.7490, 10419.00
127.9790, 10727.00
129.2090, 10889.00
130.4390, 11231.00
131.6680, 11507.00
132.8980, 11756.00
134.1270, 12328.00
135.3560, 12973.00
136.5850, 13645.00
137.8140, 14501.00
139.0430, 15574.00
140.2710, 16840.00
141.5000, 17869.00
142.7280, 18908.00
143.9560, 19871.00
145.1840, 20746.00
146.4120, 21651.00
147.6390, 22757.00
148.8670, 23518.00
150.0940, 23818.00
151.3210, 23822.00
152.5490, 23461.00
153.7750, 22524.00
155.0020, 22033.00
156.2290, 20714.00
157.4550, 19729.00
158.6810, 18538.00
159.9080, 17472.00
161.1340, 16613.00
162.3590, 16000.46
163.5850, 15581.47
164.8110, 15344.00
166.0360, 15345.00
167.2610, 15519.00
168.4860, 15796.00
169.7110, 16302.00
170.9360, 16566.00
172.1610, 16657.00
173.3850, 16768.00
174.6100, 16690.00
175.8340, 16614.00
177.0580, 16532.00
178.2820, 16302.00
179.5050, 16171.95
180.7290, 15962.00
181.9520, 15885.00
183.1760, 15714.00
184.3990, 15784.00
185.6220, 15920.00
186.8450, 16043.00
188.0670, 16480.00
189.2900, 16826.00
190.5120, 17183.00
191.7340, 17799.00
192.9560, 18293.00
194.1780, 19031.00
195.4000, 19267.00
196.6220, 20070.00
197.8430, 20824.00
199.0640, 21370.00
200.2860, 22273.00
201.5070, 23011.00
202.7270, 23561.00
203.9480, 23312.00
205.1690, 22517.00
206.3890, 21975.00
207.6090, 21501.00
208.8290, 20871.00
210.0490, 20346.00
211.2690, 19551.00
212.4890, 18807.00
213.7080, 18073.00
214.9280, 17272.00
216.1470, 16591.00
217.3660, 15663.00
218.5850, 15225.00
219.8030, 14879.00
221.0220, 14561.00
222.2400, 14562.00
223.4590, 14525.00
224.6770, 14467.00
225.8950, 14421.00
227.1120, 14395.20
228.3300, 14467.00
229.5480, 14341.00
230.7650, 14461.00
231.9820, 14434.00
233.1990, 14150.00
234.4160, 14127.19
235.6330, 14112.00
236.8490, 13802.00
238.0660, 13700.00
239.2820, 13559.00
240.4980, 13711.00
241.7140, 13741.00
242.9300, 13860.00
244.1460, 14012.00
245.3610, 14227.00
246.5770, 14557.00
247.7920, 15017.00
249.0070, 15431.00
250.2220, 16025.00
251.4370, 16507.00
252.6510, 16870.00
253.8660, 17369.00
255.0800, 17792.00
256.2940, 17932.00
257.5080, 18317.00
258.7220, 18645.00
259.9360, 18469.10
261.1490, 18656.00
262.3630, 17980.00
263.5760, 17710.00
264.7890, 17209.00
266.0020, 16664.00
267.2150, 16278.00
268.4270, 15748.00
269.6400, 14828.00
270.8520, 14307.00
272.0640, 13818.00
273.2760, 13202.00
274.4880, 12855.00
275.7000, 12540.00
276.9120, 11981.00
278.1230, 11742.00
279.3340, 11482.00
280.5450, 11149.00
281.7560, 10879.00
282.9670, 10735.00
284.1780, 10545.00
285.3880, 10355.00
286.5980, 10330.00
287.8090, 10113.00
289.0190, 10109.00
290.2290, 10011.00
291.4380, 9910.000
292.6480, 9982.000
293.8570, 9872.000
295.0670, 9798.000
296.2760, 9760.000
297.4850, 9667.000
298.6930, 9723.000
299.9020, 9737.000
301.1110, 9698.000
302.3190, 9816.000
303.5270, 9658.000
304.7350, 9680.000
305.9430, 9714.000
307.1510, 9765.000
308.3580, 9755.000
309.5660, 9741.000
310.7730, 9824.000
311.9800, 9758.000
313.1870, 9784.000
314.3940, 9965.000
315.6010, 10103.00
316.8070, 10015.00
318.0130, 10071.00
319.2200, 10145.00
320.4260, 10059.00
321.6310, 10148.00
322.8370, 10148.00
324.0430, 10303.00
325.2480, 10314.00
326.4540, 10481.00
327.6590, 10454.00
328.8640, 10640.00
330.0680, 10665.00
331.2730, 10852.00
332.4780, 10841.00
333.6820, 10819.00
334.8860, 11086.00
336.0900, 11001.00
337.2940, 11068.00
338.4980, 11136.00
339.7010, 11850.00
340.9050, 11489.62
342.1080, 12002.00
343.3110, 11262.00
344.5140, 11132.00
345.7170, 11285.00
346.9200, 11216.70
348.1220, 11719.00
349.3240, 11750.00
350.5270, 11934.00
351.7290, 12277.00
352.9310, 12356.00
354.1320, 12837.00
355.3340, 13029.00
356.5350, 13097.00
357.7370, 13584.00
358.9380, 13935.00
360.1390, 14140.00
361.3400, 14351.00
362.5400, 14611.38
363.7410, 14909.00
364.9410, 15127.00
366.1410, 15304.00
367.3410, 15508.82
368.5410, 15702.00
369.7410, 15803.00
370.9400, 15910.00
372.1400, 15991.00
373.3390, 16192.00
374.5380, 16145.00
375.7370, 16297.00
376.9360, 16074.00
378.1350, 16242.00
379.3330, 16196.00
380.5310, 16324.00
381.7300, 16172.00
382.9280, 16183.00
384.1260, 16096.00
385.3230, 15940.00
386.5210, 15843.09
387.7180, 15814.00
388.9160, 15521.00
390.1130, 15390.00
391.3100, 15211.00
392.5060, 15147.00
393.7030, 14777.00
394.9000, 14549.00
396.0960, 14211.00
397.2920, 13884.00
398.4880, 13604.00
399.6840, 13426.00
400.8800, 13295.00
402.0750, 12905.00
403.2710, 12633.00
404.4660, 12372.00
405.6610, 12266.00
406.8560, 11973.00
408.0510, 11909.00
409.2450, 11727.00
410.4400, 11619.00
411.6340, 11553.00
412.8280, 11625.00
414.0220, 11392.00
415.2160, 11583.00
416.4100, 11754.00
417.6030, 11573.00
418.7970, 11574.00
419.9900, 11860.00
421.1830, 11899.00
422.3760, 12102.00
423.5690, 12234.00
424.7610, 12554.00
425.9540, 12707.80
427.1460, 12902.00
428.3380, 13141.00
429.5300, 13378.00
430.7220, 13658.00
431.9140, 13952.00
433.1050, 14166.00
434.2970, 14547.00
435.4880, 14683.00
436.6790, 14948.00
437.8700, 15020.00
439.0610, 15309.00
440.2510, 15174.00
441.4420, 15196.00
442.6320, 14889.00
443.8220, 14846.00
445.0120, 14593.00
446.2020, 14436.00
447.3910, 14066.00
448.5810, 13835.00
449.7700, 13597.00
450.9600, 13333.00
452.1490, 13154.00
453.3370, 12946.00
454.5260, 12603.00
455.7150, 12486.00
456.9030, 12129.00
458.0910, 12051.00
459.2800, 11864.00
460.4670, 11728.00
461.6550, 11514.00
462.8430, 11320.00
464.0300, 11351.00
465.2180, 11078.00
466.4050, 11118.00
467.5920, 10959.00
468.7790, 10837.00
469.9650, 10802.00
471.1520, 10782.00
472.3380, 10709.00
473.5250, 10695.08
474.7110, 10599.00
475.8970, 10621.00
477.0820, 10543.00
478.2680, 10462.00
479.4540, 10409.00
480.6390, 10456.00
481.8240, 10393.53
483.0090, 10532.00
484.1940, 10315.00
485.3780, 10466.00
486.5630, 10347.00
487.7470, 10420.00
488.9320, 10387.00
490.1160, 10401.00
491.3000, 10375.00
492.4830, 10312.00
493.6670, 10356.00
494.8500, 10375.00
496.0340, 10302.00
497.2170, 10464.00
498.4000, 10495.00
499.5820, 10453.00
500.7650, 10451.00
501.9480, 10379.00
503.1300, 10439.00
504.3120, 10403.00
505.4940, 10479.00
506.6760, 10476.00
507.8580, 10586.00
509.0390, 10437.00
510.2210, 10475.00
511.4020, 10498.00
512.5830, 10541.00
513.7640, 10560.00
514.9450, 10685.00
516.1250, 10604.00
517.3060, 10627.00
518.4860, 10739.00
519.6660, 10575.00
520.8460, 10603.00
522.0260, 10766.00
523.2060, 10767.00
524.3850, 10778.00
525.5650, 10632.00
526.7440, 10753.00
527.9230, 10652.00
529.1020, 10622.00
530.2810, 10731.00
531.4590, 10727.00
532.6380, 10687.00
533.8160, 10721.00
534.9940, 10685.00
536.1720, 10764.00
537.3500, 10740.00
538.5270, 10802.00
539.7050, 10926.00
540.8820, 10919.00
542.0590, 10786.00
543.2360, 10851.00
544.4130, 10705.00
545.5900, 10725.00
546.7660, 10929.00
547.9430, 10863.00
549.1190, 10915.00
550.2950, 10956.00
551.4710, 10913.00
552.6470, 10949.00
553.8220, 10902.00
554.9980, 10888.00
556.1730, 10961.00
557.3480, 11038.00
558.5230, 10941.00
559.6980, 11054.00
560.8730, 11094.00
562.0470, 11003.00
563.2220, 10968.00
564.3960, 10967.00
565.5700, 10924.00
566.7440, 10870.00
567.9170, 11086.00
569.0910, 11064.00
570.2640, 11086.00
571.4380, 10881.00
572.6110, 11039.00
573.7840, 11086.00
574.9570, 11006.00
576.1290, 11132.00
577.3020, 10975.00
578.4740, 10921.00
579.6460, 11068.00
580.8180, 10987.00
581.9900, 11073.00
583.1620, 11050.00
584.3330, 11113.00
585.5040, 11083.00
586.6760, 10990.00
587.8470, 11098.00
589.0180, 11024.00
590.1880, 11160.00
591.3590, 11063.00
592.5290, 11147.00
593.7000, 11257.00
594.8700, 11106.00
596.0400, 11125.00
597.2090, 11283.00
598.3790, 11191.00
599.5490, 11414.00
600.7180, 11319.00
601.8870, 11361.00
603.0560, 11295.00
604.2250, 11356.00
605.3940, 11365.00
606.5620, 11343.00
607.7300, 11544.00
608.8990, 11582.00
610.0670, 11521.00
611.2350, 11602.00
612.4020, 11583.00
613.5700, 11612.00
614.7370, 11745.00
615.9050, 11649.00
617.0720, 11766.00
618.2390, 11875.00
619.4060, 11899.00
620.5720, 11872.00
621.7390, 11955.00
622.9050, 12024.00
624.0710, 12113.00
625.2370, 12165.00
626.4030, 12196.00
627.5690, 12255.00
628.7340, 12355.00
629.9000, 12239.00
631.0650, 12269.00
632.2300, 12200.00
633.3950, 12377.00
634.5600, 12361.00
635.7240, 12527.00
636.8890, 12516.00
638.0530, 12515.00
639.2170, 12559.00
640.3810, 12514.00
641.5450, 12729.00
642.7080, 12563.00
643.8720, 12846.00
645.0350, 12750.00
646.1980, 12813.00
647.3610, 12937.00
648.5240, 12854.00
649.6870, 12867.00
650.8490, 12908.00
652.0120, 12874.00
653.1740, 12849.83
654.3360, 12836.00
655.4980, 12814.00
656.6600, 12819.84
657.8210, 12847.00
658.9830, 12813.00
660.1440, 12817.00
661.3050, 12761.00
662.4660, 12739.00
663.6270, 12751.00
664.7870, 12723.00
665.9480, 12643.00
667.1080, 12734.00
668.2680, 12658.00
669.4280, 12715.00
670.5880, 12705.00
671.7480, 12718.00
672.9070, 12613.00
674.0670, 12820.00
675.2260, 12790.00
676.3850, 12691.00
677.5440, 12798.00
678.7030, 12922.00
679.8610, 12818.00
681.0200, 12669.00
682.1780, 12835.00
683.3360, 12833.00
684.4940, 12790.00
685.6520, 12887.00
686.8090, 12935.00
687.9670, 12881.00
689.1240, 12962.00
690.2810, 12957.00
691.4380, 13040.00
692.5950, 13210.00
693.7520, 13057.00
694.9080, 13018.00
696.0650, 13249.00
697.2210, 13194.00
698.3770, 13231.00
699.5330, 13150.00
700.6880, 13350.00
701.8440, 13218.00
702.9990, 13408.00
704.1550, 13536.00
705.3100, 13577.00
706.4650, 13476.00
707.6190, 13423.00
708.7740, 13576.00
709.9290, 13653.00
711.0830, 13574.00
712.2370, 13698.00
713.3910, 13764.00
714.5450, 13705.00
715.6980, 13696.00
716.8520, 13834.00
718.0050, 13907.00
719.1580, 13997.00
720.3110, 14016.00
721.4640, 14092.00
722.6170, 14238.00
723.7700, 14184.00
724.9220, 14125.00
726.0740, 14234.00
727.2260, 14331.00
728.3780, 14263.00
729.5300, 14248.00
730.6810, 14430.00
731.8330, 14553.00
732.9840, 14554.00
734.1350, 14707.00
735.2860, 14660.00
736.4370, 14620.00
737.5880, 14733.00
738.7380, 14791.32
739.8880, 14976.00
741.0390, 15014.00
742.1890, 15113.00
743.3380, 15143.00
744.4880, 15359.00
745.6380, 15249.00
746.7870, 15539.00
747.9360, 15633.00
749.0850, 15809.00
750.2340, 15812.00
751.3830, 16178.00
752.5310, 16190.00
753.6800, 16399.00
754.8280, 16637.00
755.9760, 16861.00
757.1240, 17060.00
758.2720, 17207.00
759.4190, 17444.00
760.5670, 17888.00
761.7140, 18270.00
762.8610, 18745.00
764.0080, 19228.00
765.1550, 19761.00
766.3020, 20321.00
767.4480, 20931.00
768.5950, 21788.00
769.7410, 22608.00
770.8870, 23414.00
772.0330, 24865.00
773.1780, 26167.00
774.3240, 27621.00
775.4690, 29446.00
776.6140, 31142.00
777.7590, 33328.00
778.9040, 36072.00
780.0490, 39039.00
781.1940, 42154.00
782.3380, 45659.00
783.4820, 48889.00
784.6260, 52577.00
785.7700, 55685.00
786.9140, 58918.00
788.0580, 61587.00
789.2010, 63769.00
790.3450, 64844.00
791.4880, 65535.00
792.6310, 65535.00
793.7730, 64865.00
794.9160, 63621.00
796.0590, 62023.00
797.2010, 59762.00
798.3430, 56774.00
799.4850, 53686.00
800.6270, 50838.00
801.7690, 47670.00
802.9100, 44816.00
804.0520, 41668.00
805.1930, 39146.00
806.3340, 36644.00
807.4750, 34572.00
808.6160, 32575.78
809.7560, 30724.00
810.8970, 29238.00
812.0370, 27961.00
813.1770, 26751.00
814.3170, 25659.15
815.4570, 24573.00
816.5960, 23801.00
817.7360, 23134.00
818.8750, 22423.00
820.0140, 21973.00
821.1530, 21570.00
822.2920, 20908.00
823.4310, 20497.00
824.5690, 20159.00
825.7070, 20176.00
826.8460, 19663.00
827.9840, 19464.00
829.1220, 19092.00
830.2590, 18964.00
831.3970, 18861.00
832.5340, 18543.00
833.6710, 18400.00
834.8080, 18424.00
835.9450, 18290.00
837.0820, 18321.00
838.2190, 18057.00
839.3550, 17856.00
840.4910, 17864.00
841.6270, 18016.00
842.7630, 18073.00
843.8990, 18207.51
845.0350, 18579.00
846.1700, 18453.00
847.3060, 18838.00
848.4410, 18885.00
849.5760, 19170.00
850.7100, 19216.00
851.8450, 19400.00
852.9800, 19484.00
854.1140, 19153.00
855.2480, 18996.00
856.3820, 18905.00
857.5160, 18571.00
858.6500, 18397.00
859.7830, 18107.00
860.9170, 17538.00
862.0500, 17360.00
863.1830, 16986.00
864.3160, 16759.00
865.4480, 16522.00
866.5810, 16215.00
867.7130, 15973.00
868.8460, 15919.00
869.9780, 15806.00
871.1100, 15639.47
872.2410, 15468.00
873.3730, 15424.00
874.5050, 15401.00
875.6360, 15441.00
876.7670, 15137.00
877.8980, 15190.00
879.0290, 15088.00
880.1590, 15130.00
881.2900, 15156.00
882.4200, 15016.00
883.5500, 15029.00
884.6800, 14975.00
885.8100, 15127.00
886.9400, 15178.00
888.0690, 14999.00
889.1990, 15090.00
890.3280, 15064.00
891.4570, 15068.00
892.5860, 15214.00
893.7140, 15255.00
894.8430, 15218.00
895.9710, 15036.00
897.1000, 15295.00
898.2280, 15261.00
899.3560, 15175.00
900.4830, 15313.00
901.6110, 15246.00
902.7380, 15272.00
903.8660, 15347.00
904.9930, 15126.00
906.1200, 15217.00
907.2460, 15162.00
908.3730, 15217.00
909.5000, 15182.00
910.6260, 15164.00
911.7520, 15166.38
912.8780, 15162.02
914.0040, 15114.00
915.1290, 15172.00
916.2550, 15111.00
917.3800, 15086.00
918.5050, 14951.00
919.6300, 14910.00
920.7550, 14894.00
921.8800, 14754.00
923.0040, 14758.00
924.1290, 14704.00
925.2530, 14659.85
926.3770, 14769.00
927.5010, 14626.00
928.6250, 14672.00
929.7480, 14690.00
930.8720, 14565.00
931.9950, 14531.00
933.1180, 14547.00
934.2410, 14419.00
935.3640, 14594.00
936.4860, 14479.00
937.6090, 14559.00
938.7310, 14578.26
939.8530, 14351.00
940.9750, 14581.00
942.0970, 14404.00
943.2180, 14345.00
944.3400, 14402.00
945.4610, 14470.00
946.5820, 14411.00
947.7030, 14413.00
948.8240, 14449.00
949.9450, 14388.00
951.0650, 14550.00
952.1860, 14533.00
953.3060, 14357.00
954.4260, 14507.00
955.5460, 14295.00
956.6650, 14448.00
957.7850, 14426.00
958.9040, 14353.00
960.0230, 14360.00
961.1420, 14580.00
962.2610, 14397.00
963.3800, 14497.00
964.4990, 14436.00
965.6170, 14431.00
966.7350, 14434.00
967.8530, 14512.00
968.9710, 14475.98
970.0890, 14496.00
971.2070, 14459.00
972.3240, 14469.00
973.4410, 14471.00
974.5580, 14432.00
975.6750, 14394.00
976.7920, 14409.00
977.9090, 14290.00
979.0250, 14430.00
980.1410, 14436.00
981.2580, 14326.00
982.3740, 14302.00
983.4890, 14307.00
984.6050, 14525.00
985.7200, 14455.00
986.8360, 14326.00
987.9510, 14387.00
989.0660, 14118.00
990.1810, 14460.00
991.2950, 14236.00
992.4100, 14421.00
993.5240, 14424.00
994.6390, 14295.00
995.7530, 14459.00
996.8660, 14357.00
997.9800, 14336.00
999.0940, 14264.00
1000.207, 14270.00
1001.320, 14265.00
1002.433, 14209.25
1003.546, 14441.00
1004.659, 14192.00
1005.772, 14355.00
1006.884, 14505.00
1007.996, 14344.00
1009.108, 14421.00
1010.220, 14315.00
1011.332, 14302.00
1012.444, 14370.00
1013.555, 14352.00
1014.666, 14280.00
1015.777, 14363.00
1016.888, 14396.00
1017.999, 14423.00
1019.110, 14525.00
1020.220, 14400.00
1021.331, 14280.00
1022.441, 14402.00
1023.551, 14467.00
1024.661, 14368.00
1025.770, 14506.00
1026.880, 14381.00
1027.989, 14524.00
1029.098, 14301.00
1030.207, 14421.00
1031.316, 14326.00
1032.425, 14401.00
1033.533, 14462.00
1034.642, 14648.00
1035.750, 14385.00
1036.858, 14531.00
1037.966, 14379.00
1039.073, 14389.00
1040.181, 14536.00
1041.288, 14499.00
1042.396, 14610.00
1043.503, 14527.00
1044.610, 14553.00
1045.716, 14560.00
1046.823, 14522.00
1047.929, 14493.00
1049.036, 14608.00
1050.142, 14623.00
1051.248, 14641.00
1052.353, 14590.00
1053.459, 14562.00
1054.564, 14585.41
1055.670, 14624.00
1056.775, 14643.00
1057.880, 14681.00
1058.985, 14756.23
1060.089, 14804.00
1061.194, 14813.00
1062.298, 14798.00
1063.402, 14782.00
1064.506, 14800.00
1065.610, 14762.00
1066.713, 14802.00
1067.817, 14790.00
1068.920, 14650.00
1070.023, 14673.00
1071.126, 14697.00
1072.229, 14672.88
1073.332, 14701.74
1074.435, 14728.00
1075.537, 14751.00
1076.639, 14791.00
1077.741, 14872.00
1078.843, 14858.00
1079.945, 14787.00
1081.046, 14925.00
1082.148, 14902.00
1083.249, 14744.00
1084.350, 14774.00
1085.451, 14910.00
1086.551, 14953.00
1087.652, 14971.00
1088.752, 14846.00
1089.853, 14854.00
1090.953, 14931.00
1092.053, 14871.00
1093.152, 15024.00
1094.252, 14937.00
1095.351, 15127.00
1096.451, 14868.00
1097.550, 14935.00
1098.649, 14972.02
1099.748, 14920.72
1100.846, 15033.00
1101.945, 15015.00
1103.043, 14976.00
1104.141, 15085.00
1105.239, 15034.00
1106.337, 15140.00
1107.434, 15207.00
1108.532, 15334.00
1109.629, 15176.00
1110.726, 15194.00
1111.823, 15183.00
1112.920, 15084.00
1114.017, 15067.00
1115.113, 15219.00
1116.210, 15346.00
1117.306, 15216.00
1118.402, 15280.00
1119.498, 15190.00
1120.593, 15320.00
1121.689, 15331.00
1122.784, 15327.00
1123.879, 15386.00
1124.974, 15338.00
1126.069, 15308.00
1127.164, 15292.96
1128.259, 15283.47
1129.353, 15278.96
1130.447, 15298.00
1131.541, 15309.00
1132.635, 15328.00
1133.729, 15392.00
1134.822, 15329.00
1135.916, 15321.00
1137.009, 15225.00
1138.102, 15360.00
1139.195, 15378.00
1140.288, 15437.00
1141.380, 15454.34
1142.473, 15464.00
1143.565, 15421.00
1144.657, 15485.00
1145.749, 15431.00
1146.841, 15464.00
1147.932, 15478.00
1149.024, 15481.00
1150.115, 15480.00
1151.206, 15506.31
1152.297, 15391.00
1153.388, 15522.00
1154.479, 15592.00
1155.569, 15534.00
1156.659, 15460.00
1157.750, 15599.00
1158.839, 15412.00
1159.929, 15540.00
1161.019, 15549.00
1162.108, 15543.00
1163.198, 15527.00
1164.287, 15677.00
1165.376, 15521.00
1166.465, 15719.00
1167.553, 15432.00
1168.642, 15626.00
1169.730, 15757.00
1170.818, 15727.00
1171.906, 15633.00
1172.994, 15621.00
1174.082, 15764.00
1175.170, 15628.00
1176.257, 15743.00
1177.344, 15560.00
1178.431, 15777.00
1179.518, 15781.00
1180.605, 15684.00
1181.691, 15784.00
1182.778, 15804.00
1183.864, 15808.00
1184.950, 15918.00
1186.036, 15819.00
1187.122, 15770.00
1188.207, 15829.00
1189.292, 15765.00
1190.378, 15854.00
1191.463, 15874.00
1192.548, 15918.00
1193.632, 16009.00
1194.717, 15903.00
1195.801, 16016.00
1196.886, 16047.00
1197.970, 16048.00
1199.054, 15963.00
1200.137, 15953.00
1201.221, 15870.00
1202.305, 15896.00
1203.388, 16075.00
1204.471, 16000.00
1205.554, 16107.00
1206.637, 16066.00
1207.719, 16117.00
1208.802, 16149.00
1209.884, 16183.00
1210.966, 16035.00
1212.048, 16217.00
1213.130, 16086.00
1214.212, 16262.00
1215.293, 16193.00
1216.374, 16269.00
1217.456, 16116.00
1218.536, 16098.00
1219.617, 16177.00
1220.698, 16406.00
1221.778, 16249.81
1222.859, 16332.00
1223.939, 16137.00
1225.019, 16179.00
1226.099, 16313.00
1227.178, 16367.00
1228.258, 16396.00
1229.337, 17079.00
1230.417, 16770.19
1231.496, 17165.00
1232.574, 16535.00
1233.653, 16457.00
1234.732, 16344.00
1235.810, 16434.00
1236.888, 16388.00
1237.966, 16625.00
1239.044, 16456.00
1240.122, 16553.00
1241.199, 16357.00
1242.277, 16583.00
1243.354, 16509.00
1244.431, 16605.00
1245.508, 16551.00
1246.585, 16706.00
1247.661, 16545.00
1248.738, 17019.00
1249.814, 17425.00
1250.890, 16918.00
1251.966, 16572.00
1253.042, 16702.00
1254.117, 16611.00
1255.193, 16677.00
1256.268, 16643.00
1257.343, 16700.00
1258.418, 16631.00
1259.493, 16719.00
1260.567, 16685.00
1261.642, 16666.00
1262.716, 16898.00
1263.790, 16767.00
1264.864, 16668.00
1265.938, 16850.00
1267.011, 16732.00
1268.085, 16743.00
1269.158, 16757.00
1270.231, 16788.00
1271.304, 16782.69
1272.377, 16920.00
1273.450, 16839.00
1274.522, 16878.00
1275.594, 17032.00
