##NAMES=Eudialyte
##RRUFFID=R050230
##IDEAL CHEMISTRY=Na_15_Ca_6_Fe^2+^_3_Zr^4+^_3_Si(Si_25_O_73_)(O,OH,H_2_O)_3_(Cl,OH)_2_
##LOCALITY=Kipawa alkaline complex, near Sheffield Lake, Villedieu Township, Temiscamingue County, Quebec, Canada
##OWNER=RRUFF
##SOURCE=Marcus Origlieri
##DESCRIPTION=Massive aggregate of red crystals
##STATUS=The identification of this mineral has been confirmed by X-ray diffraction and chemical analysis
##URL=rruff.info/R050230
##MEASURED CHEMISTRY=(Na_14.50_K_0.35_Ca_0.15_)_Σ=15_Ca_6.00_(Fe_1.86_Mn_1.01_Mg_0.13_)_Σ=3_(Zr_2.91_Ti_0.09_)_3_(Si_0.94_Nb_0.06_)_Σ=1.00_(Si_25.00_O_73_)(OH)_1.10_(H_2_O)_1.90_)_Σ=3_(Cl_1.17_(OH)_0.83_)_Σ=2_
##PIN_ID=M00176
##ORIENTATION=Laser parallel to a* (1 0 0). Fiducial mark perpendicular to laser is parallel to c [0 0 1]
118.1340, 21241.00
119.3650, 21113.00
120.5960, 20964.00
121.8270, 21124.00
123.0580, 21074.65
124.2880, 21268.00
125.5190, 21329.00
126.7490, 21490.00
127.9790, 21867.00
129.2090, 22433.00
130.4390, 22774.00
131.6680, 23099.00
132.8980, 23373.00
134.1270, 23716.00
135.3560, 24025.00
136.5850, 24245.00
137.8140, 24819.00
139.0430, 25067.00
140.2710, 25241.00
141.5000, 25467.00
142.7280, 25510.00
143.9560, 25646.00
145.1840, 25241.00
146.4120, 25416.00
147.6390, 25398.00
148.8670, 24912.00
150.0940, 24846.00
151.3210, 24575.00
152.5490, 24458.00
153.7750, 24045.00
155.0020, 23897.00
156.2290, 23708.00
157.4550, 23519.00
158.6810, 23413.00
159.9080, 23194.00
161.1340, 23098.00
162.3590, 23399.00
163.5850, 23049.00
164.8110, 23138.00
166.0360, 22881.00
167.2610, 23023.00
168.4860, 22839.00
169.7110, 22752.00
170.9360, 22732.00
172.1610, 22316.00
173.3850, 22230.00
174.6100, 22242.00
175.8340, 22212.00
177.0580, 22178.00
178.2820, 22211.00
179.5050, 22332.00
180.7290, 22485.00
181.9520, 22540.00
183.1760, 22776.25
184.3990, 22775.00
185.6220, 23209.00
186.8450, 23291.00
188.0670, 23475.00
189.2900, 24039.00
190.5120, 23996.00
191.7340, 24472.00
192.9560, 24652.00
194.1780, 24832.00
195.4000, 25281.00
196.6220, 25505.00
197.8430, 25779.00
199.0640, 25993.00
200.2860, 26161.96
201.5070, 26438.00
202.7270, 26459.00
203.9480, 26555.00
205.1690, 26692.00
206.3890, 26816.00
207.6090, 26979.00
208.8290, 27202.00
210.0490, 27101.00
211.2690, 27102.00
212.4890, 27166.00
213.7080, 26981.58
214.9280, 26873.00
216.1470, 26654.00
217.3660, 26402.00
218.5850, 26173.00
219.8030, 25670.00
221.0220, 25456.00
222.2400, 25115.00
223.4590, 24963.00
224.6770, 24563.00
225.8950, 23961.00
227.1120, 23616.00
228.3300, 23008.00
229.5480, 22930.00
230.7650, 22425.00
231.9820, 22291.00
233.1990, 21874.00
234.4160, 21736.00
235.6330, 21639.00
236.8490, 21471.00
238.0660, 21343.00
239.2820, 21146.00
240.4980, 21330.00
241.7140, 21163.00
242.9300, 21266.00
244.1460, 21342.00
245.3610, 21452.00
246.5770, 21510.00
247.7920, 21610.69
249.0070, 21703.88
250.2220, 21798.00
251.4370, 21897.00
252.6510, 22000.00
253.8660, 22099.00
255.0800, 22228.00
256.2940, 22418.00
257.5080, 22618.00
258.7220, 22653.99
259.9360, 22686.00
261.1490, 22730.00
262.3630, 22520.00
263.5760, 22526.00
264.7890, 22770.00
266.0020, 22973.00
267.2150, 22839.00
268.4270, 23162.00
269.6400, 23168.00
270.8520, 23386.00
272.0640, 23585.00
273.2760, 23831.00
274.4880, 23823.00
275.7000, 24728.00
276.9120, 24295.00
278.1230, 24518.00
279.3340, 24976.00
280.5450, 24648.00
281.7560, 25331.00
282.9670, 25095.00
284.1780, 25122.00
285.3880, 25135.00
286.5980, 25552.00
287.8090, 25424.00
289.0190, 25412.00
290.2290, 25682.00
291.4380, 25673.00
292.6480, 25637.00
293.8570, 25732.00
295.0670, 25669.20
296.2760, 25654.28
297.4850, 25572.00
298.6930, 25609.00
299.9020, 25472.00
301.1110, 25531.00
302.3190, 25340.00
303.5270, 25431.24
304.7350, 25536.00
305.9430, 25582.00
307.1510, 25563.00
308.3580, 25662.00
309.5660, 25878.00
310.7730, 25760.00
311.9800, 25629.00
313.1870, 25685.00
314.3940, 26197.00
315.6010, 25989.00
316.8070, 26248.00
318.0130, 26243.00
319.2200, 26476.00
320.4260, 26433.00
321.6310, 26393.00
322.8370, 26488.00
324.0430, 26565.00
325.2480, 26547.00
326.4540, 26601.00
327.6590, 26777.00
328.8640, 26944.00
330.0680, 27059.00
331.2730, 27323.00
332.4780, 27532.00
333.6820, 27855.00
334.8860, 28088.00
336.0900, 28321.00
337.2940, 28590.00
338.4980, 28497.00
339.7010, 28539.00
340.9050, 28457.00
342.1080, 28607.00
343.3110, 28248.00
344.5140, 27954.00
345.7170, 27397.00
346.9200, 27112.00
348.1220, 26724.00
349.3240, 26424.00
350.5270, 26073.00
351.7290, 25774.00
352.9310, 25494.00
354.1320, 25153.00
355.3340, 24698.00
356.5350, 24711.00
357.7370, 24524.00
358.9380, 24133.00
360.1390, 23934.00
361.3400, 23472.00
362.5400, 23398.00
363.7410, 23088.00
364.9410, 22657.00
366.1410, 22595.00
367.3410, 22041.00
368.5410, 21909.00
369.7410, 21509.00
370.9400, 21360.00
372.1400, 20942.00
373.3390, 20887.73
374.5380, 20918.00
375.7370, 20670.00
376.9360, 20518.00
378.1350, 20184.00
379.3330, 20265.00
380.5310, 20020.00
381.7300, 20189.00
382.9280, 19910.00
384.1260, 19852.00
385.3230, 19953.00
386.5210, 19879.00
387.7180, 19832.00
388.9160, 20076.00
390.1130, 20106.00
391.3100, 20184.00
392.5060, 20245.00
393.7030, 20269.00
394.9000, 20414.00
396.0960, 20441.00
397.2920, 20510.00
398.4880, 20702.00
399.6840, 20559.00
400.8800, 20764.00
402.0750, 20731.00
403.2710, 20638.00
404.4660, 20695.00
405.6610, 20750.00
406.8560, 20502.00
408.0510, 20471.00
409.2450, 20219.00
410.4400, 20265.00
411.6340, 20092.00
412.8280, 20191.00
414.0220, 19845.00
415.2160, 19890.00
416.4100, 19826.00
417.6030, 19760.00
418.7970, 19604.00
419.9900, 19423.00
421.1830, 19377.00
422.3760, 19175.00
423.5690, 19067.37
424.7610, 18730.00
425.9540, 18807.00
427.1460, 18524.00
428.3380, 18372.00
429.5300, 18288.00
430.7220, 18177.00
431.9140, 18097.00
433.1050, 17929.00
434.2970, 17937.00
435.4880, 17493.00
436.6790, 17525.00
437.8700, 17365.00
439.0610, 17427.00
440.2510, 17284.00
441.4420, 17136.00
442.6320, 17131.00
443.8220, 17009.00
445.0120, 16773.00
446.2020, 16723.00
447.3910, 16505.00
448.5810, 16611.00
449.7700, 16495.00
450.9600, 16463.00
452.1490, 16505.00
453.3370, 16315.00
454.5260, 16267.00
455.7150, 16114.00
456.9030, 16136.00
458.0910, 16048.00
459.2800, 16186.00
460.4670, 15887.00
461.6550, 16042.00
462.8430, 15850.00
464.0300, 15883.00
465.2180, 15793.00
466.4050, 15934.00
467.5920, 15753.00
468.7790, 15741.00
469.9650, 15783.00
471.1520, 15578.00
472.3380, 15631.00
473.5250, 15601.59
474.7110, 15546.00
475.8970, 15654.00
477.0820, 15697.00
478.2680, 15813.00
479.4540, 15792.00
480.6390, 15618.00
481.8240, 15798.00
483.0090, 15803.00
484.1940, 15604.00
485.3780, 15860.00
486.5630, 15726.00
487.7470, 15862.00
488.9320, 15927.00
490.1160, 15854.00
491.3000, 15979.00
492.4830, 16233.00
493.6670, 16374.00
494.8500, 16290.00
496.0340, 16543.00
497.2170, 16468.00
498.4000, 16667.00
499.5820, 16766.00
500.7650, 17080.00
501.9480, 17090.00
503.1300, 17181.00
504.3120, 17300.00
505.4940, 17457.00
506.6760, 17608.00
507.8580, 17745.00
509.0390, 17791.00
510.2210, 17835.00
511.4020, 17911.99
512.5830, 17932.00
513.7640, 18019.00
514.9450, 18037.59
516.1250, 18086.53
517.3060, 18097.00
518.4860, 18155.00
519.6660, 18211.11
520.8460, 18217.00
522.0260, 18317.00
523.2060, 18354.00
524.3850, 18432.00
525.5650, 18621.00
526.7440, 18711.00
527.9230, 18889.00
529.1020, 18959.08
530.2810, 19037.00
531.4590, 19134.00
532.6380, 19207.00
533.8160, 19382.00
534.9940, 19677.00
536.1720, 19800.00
537.3500, 20130.00
538.5270, 20516.00
539.7050, 20759.00
540.8820, 21421.00
542.0590, 21595.00
543.2360, 22136.00
544.4130, 22422.00
545.5900, 23290.00
546.7660, 23771.00
547.9430, 24523.00
549.1190, 25311.00
550.2950, 26049.00
551.4710, 26905.04
552.6470, 27715.00
553.8220, 28657.00
554.9980, 29595.00
556.1730, 30554.00
557.3480, 31491.00
558.5230, 32334.00
559.6980, 33506.00
560.8730, 34074.00
562.0470, 34778.00
563.2220, 35517.00
564.3960, 35781.00
565.5700, 36476.00
566.7440, 36848.00
567.9170, 37066.00
569.0910, 37079.00
570.2640, 36672.00
571.4380, 36106.37
572.6110, 35267.00
573.7840, 33987.00
574.9570, 32659.00
576.1290, 30716.00
577.3020, 29323.00
578.4740, 27622.00
579.6460, 26483.00
580.8180, 25079.00
581.9900, 24289.00
583.1620, 23420.00
584.3330, 22845.00
585.5040, 22320.00
586.6760, 21866.00
587.8470, 21657.00
589.0180, 21695.00
590.1880, 21358.00
591.3590, 21573.00
592.5290, 21647.00
593.7000, 22203.00
594.8700, 22251.00
596.0400, 22746.00
597.2090, 22842.00
598.3790, 23327.00
599.5490, 23704.00
600.7180, 23969.00
601.8870, 24267.00
603.0560, 24600.00
604.2250, 24756.00
605.3940, 24879.00
606.5620, 24956.00
607.7300, 24731.00
608.8990, 24691.00
610.0670, 24356.00
611.2350, 24237.00
612.4020, 23635.00
613.5700, 23327.00
614.7370, 22861.00
615.9050, 22534.00
617.0720, 22088.00
618.2390, 21740.00
619.4060, 21572.00
620.5720, 21220.00
621.7390, 21133.00
622.9050, 20950.00
624.0710, 20989.00
625.2370, 20793.00
626.4030, 20869.00
627.5690, 20634.00
628.7340, 20750.00
629.9000, 20823.00
631.0650, 20852.00
632.2300, 20793.00
633.3950, 20615.00
634.5600, 20563.00
635.7240, 20447.00
636.8890, 20477.00
638.0530, 20299.00
639.2170, 20335.00
640.3810, 20343.00
641.5450, 20507.00
642.7080, 20547.00
643.8720, 20394.00
645.0350, 20487.00
646.1980, 20524.00
647.3610, 20770.00
648.5240, 20906.00
649.6870, 21020.88
650.8490, 21316.00
652.0120, 21342.00
653.1740, 21609.00
654.3360, 21924.00
655.4980, 21982.00
656.6600, 22414.00
657.8210, 22506.00
658.9830, 22755.00
660.1440, 23208.00
661.3050, 23640.00
662.4660, 23818.00
663.6270, 24265.00
664.7870, 24435.00
665.9480, 24796.00
667.1080, 24900.00
668.2680, 25319.55
669.4280, 25801.00
670.5880, 26195.00
671.7480, 26657.00
672.9070, 27281.00
674.0670, 27498.00
675.2260, 27780.00
676.3850, 27915.00
677.5440, 28495.00
678.7030, 28835.00
679.8610, 29336.00
681.0200, 29792.00
682.1780, 30181.00
683.3360, 30495.00
684.4940, 31120.00
685.6520, 31320.00
686.8090, 31760.00
687.9670, 32343.00
689.1240, 32583.00
690.2810, 32668.00
691.4380, 33487.00
692.5950, 33613.00
693.7520, 33953.00
694.9080, 34706.00
696.0650, 35060.00
697.2210, 35215.00
698.3770, 35702.00
699.5330, 35961.00
700.6880, 36068.00
701.8440, 35925.00
702.9990, 36072.00
704.1550, 35891.00
705.3100, 35290.00
706.4650, 34839.00
707.6190, 34215.00
708.7740, 33350.00
709.9290, 32477.00
711.0830, 31703.00
712.2370, 30548.00
713.3910, 29845.00
714.5450, 28719.00
715.6980, 27940.00
716.8520, 27501.00
718.0050, 26928.00
719.1580, 26422.00
720.3110, 26231.00
721.4640, 25971.00
722.6170, 25920.00
723.7700, 26084.00
724.9220, 26053.00
726.0740, 25992.00
727.2260, 26352.00
728.3780, 26481.00
729.5300, 26878.00
730.6810, 27049.00
731.8330, 27267.00
732.9840, 27615.00
734.1350, 27818.00
735.2860, 28018.00
736.4370, 28499.00
737.5880, 28567.00
738.7380, 28833.00
739.8880, 29088.00
741.0390, 29146.00
742.1890, 29370.00
743.3380, 29541.00
744.4880, 29516.00
745.6380, 29454.00
746.7870, 29380.00
747.9360, 29128.00
749.0850, 28603.00
750.2340, 28538.00
751.3830, 28231.00
752.5310, 28022.00
753.6800, 27863.00
754.8280, 27684.00
755.9760, 27200.00
757.1240, 26899.00
758.2720, 26898.00
759.4190, 26422.00
760.5670, 26505.00
761.7140, 26125.00
762.8610, 25952.00
764.0080, 25727.00
765.1550, 25501.00
766.3020, 25277.00
767.4480, 25084.00
768.5950, 24772.00
769.7410, 24609.00
770.8870, 24403.00
772.0330, 24147.00
773.1780, 24038.00
774.3240, 23711.00
775.4690, 23322.00
776.6140, 23115.00
777.7590, 22891.00
778.9040, 22712.00
780.0490, 22516.00
781.1940, 22213.00
782.3380, 22241.00
783.4820, 22084.00
784.6260, 21827.00
785.7700, 21661.00
786.9140, 21393.00
788.0580, 21285.00
789.2010, 21108.00
790.3450, 20826.00
791.4880, 20720.00
792.6310, 20456.00
793.7730, 20325.00
794.9160, 20076.00
796.0590, 19950.00
797.2010, 19820.00
798.3430, 19641.62
799.4850, 19528.00
800.6270, 19390.00
801.7690, 19358.00
802.9100, 19326.00
804.0520, 19159.00
805.1930, 19077.00
806.3340, 19092.00
807.4750, 18913.00
808.6160, 18898.07
809.7560, 18846.69
810.8970, 18773.00
812.0370, 18753.00
813.1770, 18675.00
814.3170, 18592.00
815.4570, 18482.00
816.5960, 18533.00
817.7360, 18457.00
818.8750, 18480.00
820.0140, 18455.00
821.1530, 18321.00
822.2920, 18247.00
823.4310, 18105.00
824.5690, 18213.00
825.7070, 18123.00
826.8460, 18180.00
827.9840, 18094.00
829.1220, 17985.00
830.2590, 18203.00
831.3970, 18249.00
832.5340, 17985.00
833.6710, 18118.00
834.8080, 18138.00
835.9450, 18043.00
837.0820, 17883.00
838.2190, 18073.00
839.3550, 18001.00
840.4910, 18117.00
841.6270, 18067.00
842.7630, 17882.00
843.8990, 17937.00
845.0350, 17954.00
846.1700, 18031.00
847.3060, 17986.00
848.4410, 18020.00
849.5760, 18154.00
850.7100, 18161.00
851.8450, 18129.00
852.9800, 17975.00
854.1140, 18339.00
855.2480, 18086.00
856.3820, 18299.00
857.5160, 18405.00
858.6500, 18513.00
859.7830, 18475.00
860.9170, 18542.00
862.0500, 18513.00
863.1830, 18568.00
864.3160, 18651.00
865.4480, 18692.00
866.5810, 18898.00
867.7130, 19026.00
868.8460, 18958.00
869.9780, 19059.00
871.1100, 19038.00
872.2410, 19286.00
873.3730, 19336.00
874.5050, 19339.00
875.6360, 19599.00
876.7670, 19601.00
877.8980, 19619.00
879.0290, 19688.00
880.1590, 19737.00
881.2900, 19851.00
882.4200, 19898.20
883.5500, 19831.00
884.6800, 20018.00
885.8100, 20061.00
886.9400, 20100.00
888.0690, 20297.00
889.1990, 20349.00
890.3280, 20529.00
891.4570, 20763.00
892.5860, 20743.00
893.7140, 21039.00
894.8430, 21283.00
895.9710, 21414.00
897.1000, 21814.00
898.2280, 22030.00
899.3560, 22103.00
900.4830, 22208.00
901.6110, 22718.00
902.7380, 23089.00
903.8660, 23313.00
904.9930, 23476.00
906.1200, 23780.00
907.2460, 23800.00
908.3730, 24150.00
909.5000, 24216.00
910.6260, 24534.00
911.7520, 24576.00
912.8780, 24995.00
914.0040, 25136.00
915.1290, 25490.00
916.2550, 25732.00
917.3800, 25984.00
918.5050, 26207.00
919.6300, 26691.00
920.7550, 27012.00
921.8800, 27277.00
923.0040, 27469.00
924.1290, 27975.00
925.2530, 28046.00
926.3770, 28397.00
927.5010, 28378.00
928.6250, 28419.00
929.7480, 28521.00
930.8720, 28545.42
931.9950, 28539.00
933.1180, 28655.00
934.2410, 28726.00
935.3640, 28738.00
936.4860, 28759.00
937.6090, 28714.00
938.7310, 28851.00
939.8530, 28888.00
940.9750, 28992.00
942.0970, 29075.00
943.2180, 29174.00
944.3400, 29284.00
945.4610, 29542.00
946.5820, 29795.00
947.7030, 29727.00
948.8240, 29661.00
949.9450, 30080.00
951.0650, 29953.00
952.1860, 30179.00
953.3060, 30354.00
954.4260, 30068.00
955.5460, 30388.00
956.6650, 30381.00
957.7850, 30136.00
958.9040, 30318.00
960.0230, 29989.00
961.1420, 29883.00
962.2610, 29737.00
963.3800, 29584.67
964.4990, 29426.00
965.6170, 29387.00
966.7350, 29339.95
967.8530, 29377.00
968.9710, 29365.00
970.0890, 29463.00
971.2070, 29497.00
972.3240, 29560.00
973.4410, 29596.00
974.5580, 29847.00
975.6750, 29780.00
976.7920, 29745.00
977.9090, 29584.00
979.0250, 30029.00
980.1410, 30153.00
981.2580, 30170.00
982.3740, 30449.00
983.4890, 30434.00
984.6050, 30623.00
985.7200, 30925.00
986.8360, 31056.00
987.9510, 31505.00
989.0660, 31541.00
990.1810, 31908.00
991.2950, 31939.00
992.4100, 32385.00
993.5240, 32764.00
994.6390, 32866.00
995.7530, 33114.00
996.8660, 33082.00
997.9800, 33499.00
999.0940, 33588.00
1000.207, 34092.00
1001.320, 33777.00
1002.433, 33710.00
1003.546, 33628.00
1004.659, 33824.00
1005.772, 33707.00
1006.884, 33434.00
1007.996, 33616.00
1009.108, 33258.00
1010.220, 33207.00
1011.332, 32841.00
1012.444, 32986.00
1013.555, 32793.00
1014.666, 32908.00
1015.777, 32645.00
1016.888, 32673.00
1017.999, 32853.00
1019.110, 32577.00
1020.220, 32771.00
1021.331, 32698.00
1022.441, 32901.00
1023.551, 32791.00
1024.661, 33039.00
1025.770, 32871.00
1026.880, 32945.00
1027.989, 33277.00
1029.098, 33387.00
1030.207, 33332.00
1031.316, 33562.00
1032.425, 33837.00
1033.533, 33781.00
1034.642, 33842.00
1035.750, 33833.00
1036.858, 33921.00
1037.966, 34061.00
1039.073, 34461.00
1040.181, 34551.00
1041.288, 34827.00
1042.396, 34705.00
1043.503, 35035.00
1044.610, 35348.00
1045.716, 35747.00
1046.823, 36084.00
1047.929, 36437.00
1049.036, 36730.00
1050.142, 37193.52
1051.248, 37471.00
1052.353, 38132.00
1053.459, 38545.00
1054.564, 39047.00
1055.670, 39390.00
1056.775, 40436.00
1057.880, 41198.00
1058.985, 41818.00
1060.089, 42448.00
1061.194, 43474.00
1062.298, 44127.00
1063.402, 44657.00
1064.506, 45668.00
1065.610, 45868.00
1066.713, 46521.00
1067.817, 46662.00
1068.920, 46792.00
1070.023, 47051.00
1071.126, 46510.00
1072.229, 46738.00
1073.332, 46757.00
1074.435, 47076.00
1075.537, 47392.00
1076.639, 47451.00
1077.741, 47935.00
1078.843, 48256.00
1079.945, 48551.00
1081.046, 48890.00
1082.148, 49037.00
1083.249, 49411.00
1084.350, 49650.00
1085.451, 50013.00
1086.551, 50248.00
1087.652, 49882.00
1088.752, 49586.00
1089.853, 48485.00
1090.953, 48265.00
1092.053, 47252.00
1093.152, 46654.00
1094.252, 45656.00
1095.351, 45393.00
1096.451, 44338.00
1097.550, 43511.00
1098.649, 42568.00
1099.748, 41678.00
1100.846, 40848.00
1101.945, 40127.00
1103.043, 39593.00
1104.141, 39085.00
1105.239, 38495.72
1106.337, 37970.00
1107.434, 37450.00
1108.532, 37017.00
1109.629, 36508.00
1110.726, 36372.00
1111.823, 35820.00
1112.920, 35817.00
1114.017, 35616.00
1115.113, 35347.00
1116.210, 35310.00
1117.306, 35222.00
1118.402, 35022.00
1119.498, 34977.00
1120.593, 35009.00
1121.689, 34942.00
1122.784, 35017.00
1123.879, 35048.02
1124.974, 35156.00
1126.069, 35062.00
1127.164, 35301.00
1128.259, 35083.00
1129.353, 34902.00
1130.447, 34581.00
1131.541, 34392.00
1132.635, 34247.00
1133.729, 33826.00
1134.822, 33177.00
1135.916, 33061.00
1137.009, 32351.00
1138.102, 32038.00
1139.195, 31374.00
1140.288, 31102.00
1141.380, 30908.00
1142.473, 30368.00
1143.565, 30328.00
1144.657, 30348.00
1145.749, 29942.00
1146.841, 30070.00
1147.932, 30136.00
1149.024, 30313.00
1150.115, 30561.00
1151.206, 30831.00
1152.297, 30990.00
1153.388, 31199.00
1154.479, 31627.00
1155.569, 32298.00
1156.659, 32773.00
1157.750, 33398.00
1158.839, 33784.00
1159.929, 34511.00
1161.019, 35205.00
1162.108, 36107.00
1163.198, 36335.00
1164.287, 37147.00
1165.376, 37611.00
1166.465, 38231.00
1167.553, 39129.00
1168.642, 39597.00
1169.730, 39971.66
1170.818, 40247.00
1171.906, 40401.00
1172.994, 40445.00
1174.082, 40526.00
1175.170, 40449.00
1176.257, 40440.00
1177.344, 40278.00
1178.431, 40277.00
1179.518, 40174.00
1180.605, 39861.00
1181.691, 39610.00
1182.778, 39450.00
1183.864, 39187.00
1184.950, 38962.00
1186.036, 39077.00
1187.122, 38695.00
1188.207, 38762.00
1189.292, 38362.00
1190.378, 38371.00
1191.463, 38157.00
1192.548, 37753.00
1193.632, 37362.00
1194.717, 37237.00
1195.801, 36734.00
1196.886, 36275.00
1197.970, 35672.00
1199.054, 35552.00
1200.137, 34831.00
1201.221, 34372.00
1202.305, 34180.00
1203.388, 33377.00
1204.471, 33181.00
1205.554, 32755.00
1206.637, 32404.00
1207.719, 31795.00
1208.802, 31493.00
1209.884, 31254.00
1210.966, 30986.00
1212.048, 30710.00
1213.130, 30444.00
1214.212, 30092.00
1215.293, 30168.00
1216.374, 29943.00
1217.456, 29691.00
1218.536, 29910.00
1219.617, 29560.00
1220.698, 29552.00
1221.778, 29544.00
1222.859, 29398.00
1223.939, 29610.00
1225.019, 29544.00
1226.099, 29419.00
1227.178, 29528.00
1228.258, 29516.00
1229.337, 29339.00
1230.417, 29704.00
1231.496, 29488.00
1232.574, 29510.00
1233.653, 29638.00
1234.732, 29547.00
1235.810, 29480.00
1236.888, 29365.00
1237.966, 29331.80
1239.044, 29328.00
1240.122, 29209.00
1241.199, 29250.00
1242.277, 29098.00
1243.354, 28820.00
1244.431, 28791.00
1245.508, 28702.00
1246.585, 28544.00
1247.661, 28409.00
1248.738, 28177.00
1249.814, 28197.00
1250.890, 28131.00
1251.966, 28166.00
1253.042, 27920.00
1254.117, 27809.00
1255.193, 27917.00
1256.268, 27661.00
1257.343, 27726.00
1258.418, 27758.00
1259.493, 27972.00
1260.567, 27745.00
1261.642, 27684.00
1262.716, 27791.00
1263.790, 27966.00
1264.864, 27997.00
1265.938, 27798.00
1267.011, 27944.00
1268.085, 27549.00
1269.158, 27756.00
1270.231, 27623.00
1271.304, 27556.00
1272.377, 27375.00
1273.450, 27409.00
1274.522, 27398.00
1275.594, 27163.00
1276.666, 26943.00
1277.738, 26878.00
1278.810, 26666.00
1279.882, 26675.00
1280.953, 26614.00
1282.025, 26565.00
