##NAMES=Eudialyte
##RRUFFID=R050230
##IDEAL CHEMISTRY=Na_15_Ca_6_Fe^2+^_3_Zr^4+^_3_Si(Si_25_O_73_)(O,OH,H_2_O)_3_(Cl,OH)_2_
##LOCALITY=Kipawa alkaline complex, near Sheffield Lake, Villedieu Township, Temiscamingue County, Quebec, Canada
##OWNER=RRUFF
##SOURCE=Marcus Origlieri
##DESCRIPTION=Massive aggregate of red crystals
##STATUS=The identification of this mineral has been confirmed by X-ray diffraction and chemical analysis
##URL=rruff.info/R050230
##MEASURED CHEMISTRY=(Na_14.50_K_0.35_Ca_0.15_)_Σ=15_Ca_6.00_(Fe_1.86_Mn_1.01_Mg_0.13_)_Σ=3_(Zr_2.91_Ti_0.09_)_3_(Si_0.94_Nb_0.06_)_Σ=1.00_(Si_25.00_O_73_)(OH)_1.10_(H_2_O)_1.90_)_Σ=3_(Cl_1.17_(OH)_0.83_)_Σ=2_
##PIN_ID=M00176
##ORIENTATION=Laser parallel to a* (1 0 0). Fiducial mark perpendicular to laser is parallel to c [0 0 1]
118.1340, 23963.00
119.3650, 23771.00
120.5960, 23668.00
121.8270, 23654.00
123.0580, 23791.00
124.2880, 23672.00
125.5190, 23476.00
126.7490, 23629.00
127.9790, 24044.00
129.2090, 24132.00
130.4390, 24508.00
131.6680, 24555.00
132.8980, 24761.00
134.1270, 25095.00
135.3560, 25438.00
136.5850, 25599.07
137.8140, 25689.00
139.0430, 25845.00
140.2710, 26013.00
141.5000, 25868.00
142.7280, 25951.00
143.9560, 25979.00
145.1840, 26224.00
146.4120, 26066.00
147.6390, 26121.00
148.8670, 26386.00
150.0940, 26105.00
151.3210, 26635.00
152.5490, 26340.00
153.7750, 26089.00
155.0020, 26317.00
156.2290, 26429.00
157.4550, 26585.00
158.6810, 26559.00
159.9080, 26526.00
161.1340, 26799.00
162.3590, 26971.00
163.5850, 26927.00
164.8110, 27068.26
166.0360, 26898.00
167.2610, 27044.00
168.4860, 26937.00
169.7110, 26760.00
170.9360, 26734.00
172.1610, 26759.00
173.3850, 26625.00
174.6100, 26477.00
175.8340, 26408.00
177.0580, 26654.00
178.2820, 26846.00
179.5050, 26937.00
180.7290, 27188.00
181.9520, 27268.00
183.1760, 27937.00
184.3990, 28209.00
185.6220, 28793.00
186.8450, 29039.00
188.0670, 29606.00
189.2900, 30238.00
190.5120, 30646.00
191.7340, 31608.00
192.9560, 32186.00
194.1780, 32944.00
195.4000, 33485.00
196.6220, 34293.00
197.8430, 34976.00
199.0640, 35794.00
200.2860, 36521.00
201.5070, 37204.00
202.7270, 37472.00
203.9480, 38288.00
205.1690, 38427.00
206.3890, 38812.00
207.6090, 39043.00
208.8290, 39355.00
210.0490, 39483.88
211.2690, 39725.00
212.4890, 39495.00
213.7080, 39256.00
214.9280, 38852.00
216.1470, 38291.00
217.3660, 37708.00
218.5850, 37043.00
219.8030, 36025.00
221.0220, 35421.00
222.2400, 34409.00
223.4590, 33768.00
224.6770, 32932.00
225.8950, 31859.00
227.1120, 30864.00
228.3300, 30157.00
229.5480, 29298.00
230.7650, 28547.00
231.9820, 27874.00
233.1990, 27424.00
234.4160, 26683.00
235.6330, 26365.00
236.8490, 25883.00
238.0660, 25317.00
239.2820, 25430.00
240.4980, 25432.00
241.7140, 24989.00
242.9300, 24938.00
244.1460, 25150.00
245.3610, 25006.06
246.5770, 25367.00
247.7920, 25188.00
249.0070, 25190.00
250.2220, 25355.00
251.4370, 25499.00
252.6510, 25625.00
253.8660, 25310.00
255.0800, 25612.00
256.2940, 25812.00
257.5080, 26706.00
258.7220, 26922.00
259.9360, 26750.00
261.1490, 25800.00
262.3630, 26045.00
263.5760, 26011.00
264.7890, 25919.00
266.0020, 26040.00
267.2150, 26295.00
268.4270, 26181.00
269.6400, 26411.00
270.8520, 26571.00
272.0640, 26664.00
273.2760, 26703.00
274.4880, 27006.00
275.7000, 26936.00
276.9120, 27208.00
278.1230, 27220.00
279.3340, 27483.00
280.5450, 27689.00
281.7560, 27757.00
282.9670, 27707.00
284.1780, 28043.00
285.3880, 27867.00
286.5980, 28351.00
287.8090, 28342.00
289.0190, 28105.00
290.2290, 28553.00
291.4380, 28331.00
292.6480, 28568.00
293.8570, 28791.00
295.0670, 28795.00
296.2760, 28834.00
297.4850, 29069.00
298.6930, 29064.00
299.9020, 28961.00
301.1110, 29289.00
302.3190, 29703.00
303.5270, 29611.18
304.7350, 29709.00
305.9430, 29680.00
307.1510, 29901.00
308.3580, 29968.00
309.5660, 30480.00
310.7730, 30294.00
311.9800, 30671.00
313.1870, 30881.00
314.3940, 31036.00
315.6010, 31255.00
316.8070, 31472.37
318.0130, 31496.00
319.2200, 31947.00
320.4260, 31916.00
321.6310, 32159.86
322.8370, 31791.00
324.0430, 32197.00
325.2480, 32185.00
326.4540, 31962.00
327.6590, 32327.00
328.8640, 32248.00
330.0680, 32556.00
331.2730, 32378.00
332.4780, 32856.00
333.6820, 33201.00
334.8860, 33267.00
336.0900, 33422.00
337.2940, 33633.00
338.4980, 33706.00
339.7010, 33435.00
340.9050, 33430.00
342.1080, 32881.00
343.3110, 32178.00
344.5140, 31799.00
345.7170, 31186.00
346.9200, 30565.00
348.1220, 29930.00
349.3240, 29281.00
350.5270, 28804.00
351.7290, 28324.51
352.9310, 28272.00
354.1320, 27629.00
355.3340, 27385.00
356.5350, 27270.00
357.7370, 26925.00
358.9380, 26820.00
360.1390, 26625.00
361.3400, 26315.00
362.5400, 25928.00
363.7410, 25853.00
364.9410, 25284.00
366.1410, 25081.00
367.3410, 24898.00
368.5410, 24475.00
369.7410, 24115.00
370.9400, 23920.00
372.1400, 23566.00
373.3390, 23491.00
374.5380, 23320.00
375.7370, 23346.00
376.9360, 22660.00
378.1350, 22539.00
379.3330, 22583.00
380.5310, 22400.00
381.7300, 22340.00
382.9280, 22341.00
384.1260, 22396.00
385.3230, 22096.00
386.5210, 22346.00
387.7180, 21988.00
388.9160, 22351.00
390.1130, 22340.00
391.3100, 22326.00
392.5060, 22495.00
393.7030, 22342.00
394.9000, 22313.00
396.0960, 22417.00
397.2920, 22466.00
398.4880, 22505.00
399.6840, 22420.00
400.8800, 22396.01
402.0750, 22473.00
403.2710, 22266.00
404.4660, 22289.00
405.6610, 22302.00
406.8560, 21980.00
408.0510, 22104.00
409.2450, 22061.00
410.4400, 21899.00
411.6340, 21706.00
412.8280, 21661.00
414.0220, 21523.70
415.2160, 21692.00
416.4100, 21370.00
417.6030, 21349.00
418.7970, 21316.00
419.9900, 20971.00
421.1830, 20835.00
422.3760, 20832.00
423.5690, 20690.00
424.7610, 20356.00
425.9540, 20428.00
427.1460, 20028.00
428.3380, 20065.00
429.5300, 19741.00
430.7220, 19759.00
431.9140, 19611.00
433.1050, 19603.00
434.2970, 19537.00
435.4880, 19247.00
436.6790, 19263.00
437.8700, 19321.00
439.0610, 19118.00
440.2510, 18923.00
441.4420, 18963.00
442.6320, 18782.00
443.8220, 18724.00
445.0120, 18589.00
446.2020, 18570.00
447.3910, 18403.00
448.5810, 18313.00
449.7700, 18032.00
450.9600, 17898.00
452.1490, 17856.00
453.3370, 17856.00
454.5260, 17707.00
455.7150, 17720.00
456.9030, 17534.00
458.0910, 17478.00
459.2800, 17302.00
460.4670, 17231.00
461.6550, 17305.00
462.8430, 17209.00
464.0300, 17289.00
465.2180, 17215.00
466.4050, 17087.00
467.5920, 17146.00
468.7790, 17126.00
469.9650, 16972.00
471.1520, 16980.00
472.3380, 17130.00
473.5250, 17161.00
474.7110, 16976.00
475.8970, 16966.00
477.0820, 17156.00
478.2680, 17010.00
479.4540, 17092.00
480.6390, 16920.00
481.8240, 17275.00
483.0090, 17140.00
484.1940, 17239.00
485.3780, 17171.00
486.5630, 17402.00
487.7470, 17425.00
488.9320, 17367.00
490.1160, 17444.00
491.3000, 17540.00
492.4830, 17572.00
493.6670, 17672.00
494.8500, 17736.00
496.0340, 17938.00
497.2170, 17978.00
498.4000, 18163.57
499.5820, 18228.00
500.7650, 18493.00
501.9480, 18591.00
503.1300, 18729.00
504.3120, 18801.00
505.4940, 18882.00
506.6760, 19208.00
507.8580, 19191.00
509.0390, 19285.00
510.2210, 19689.00
511.4020, 19740.00
512.5830, 19961.00
513.7640, 20027.00
514.9450, 20098.00
516.1250, 20289.00
517.3060, 20352.00
518.4860, 20426.00
519.6660, 20823.00
520.8460, 20849.00
522.0260, 20942.00
523.2060, 21084.00
524.3850, 21085.00
525.5650, 21429.00
526.7440, 21411.00
527.9230, 21716.00
529.1020, 21822.00
530.2810, 22141.00
531.4590, 22494.00
532.6380, 22954.00
533.8160, 23207.00
534.9940, 23601.00
536.1720, 24067.00
537.3500, 24722.00
538.5270, 25291.61
539.7050, 26008.00
540.8820, 26709.00
542.0590, 27660.00
543.2360, 28529.00
544.4130, 29374.00
545.5900, 30238.00
546.7660, 31184.00
547.9430, 32273.00
549.1190, 33136.00
550.2950, 34181.24
551.4710, 35458.00
552.6470, 36149.00
553.8220, 37262.00
554.9980, 38170.00
556.1730, 39418.00
557.3480, 40285.00
558.5230, 41147.00
559.6980, 41820.00
560.8730, 42351.15
562.0470, 42654.00
563.2220, 43062.00
564.3960, 43186.00
565.5700, 43250.00
566.7440, 43445.00
567.9170, 43573.00
569.0910, 43718.00
570.2640, 43751.00
571.4380, 42523.00
572.6110, 41758.00
573.7840, 40443.00
574.9570, 38603.00
576.1290, 36480.00
577.3020, 34525.00
578.4740, 32677.00
579.6460, 30961.00
580.8180, 29123.00
581.9900, 27668.00
583.1620, 26544.00
584.3330, 25531.00
585.5040, 24990.00
586.6760, 24283.00
587.8470, 24006.00
589.0180, 23772.00
590.1880, 23234.00
591.3590, 23273.00
592.5290, 23543.00
593.7000, 23479.00
594.8700, 23991.00
596.0400, 24267.00
597.2090, 24456.00
598.3790, 24662.00
599.5490, 25183.00
600.7180, 25675.00
601.8870, 25984.00
603.0560, 26307.00
604.2250, 26321.00
605.3940, 26555.00
606.5620, 26536.00
607.7300, 26570.00
608.8990, 26487.00
610.0670, 26231.00
611.2350, 25750.00
612.4020, 25773.00
613.5700, 25285.00
614.7370, 24901.00
615.9050, 24808.00
617.0720, 24337.00
618.2390, 24383.00
619.4060, 23972.00
620.5720, 24078.00
621.7390, 23893.00
622.9050, 24066.00
624.0710, 24089.00
625.2370, 24147.00
626.4030, 24205.21
627.5690, 24127.00
628.7340, 24222.00
629.9000, 24312.00
631.0650, 24252.00
632.2300, 24058.00
633.3950, 23984.00
634.5600, 23874.00
635.7240, 23837.00
636.8890, 23468.00
638.0530, 23606.00
639.2170, 23507.00
640.3810, 23178.00
641.5450, 23443.00
642.7080, 23231.00
643.8720, 23274.00
645.0350, 25037.00
646.1980, 24343.00
647.3610, 24335.00
648.5240, 24957.00
649.6870, 23670.00
650.8490, 23929.00
652.0120, 24157.00
653.1740, 24250.00
654.3360, 24470.00
655.4980, 24728.00
656.6600, 24968.97
657.8210, 25448.00
658.9830, 25587.00
660.1440, 25947.00
661.3050, 26299.59
662.4660, 26484.00
663.6270, 27121.00
664.7870, 27442.00
665.9480, 27762.00
667.1080, 28176.00
668.2680, 28866.00
669.4280, 29124.00
670.5880, 29238.00
671.7480, 29900.00
672.9070, 30014.00
674.0670, 30742.00
675.2260, 31118.00
676.3850, 31439.00
677.5440, 31994.00
678.7030, 32399.00
679.8610, 32854.00
681.0200, 33320.00
682.1780, 33447.00
683.3360, 33870.00
684.4940, 34308.00
685.6520, 34607.00
686.8090, 35127.00
687.9670, 35358.00
689.1240, 35636.00
690.2810, 36176.00
691.4380, 36466.00
692.5950, 37105.00
693.7520, 37562.00
694.9080, 37888.00
696.0650, 38404.00
697.2210, 38716.00
698.3770, 39045.00
699.5330, 39535.00
700.6880, 39449.00
701.8440, 39329.00
702.9990, 39548.00
704.1550, 38978.00
705.3100, 39089.00
706.4650, 38321.00
707.6190, 37621.00
708.7740, 36622.00
709.9290, 36239.00
711.0830, 35628.00
712.2370, 33766.00
713.3910, 33331.00
714.5450, 32284.00
715.6980, 31598.00
716.8520, 30884.00
718.0050, 30375.00
719.1580, 29872.00
720.3110, 29761.00
721.4640, 29813.00
722.6170, 29279.00
723.7700, 29648.00
724.9220, 29632.00
726.0740, 29768.00
727.2260, 30044.00
728.3780, 30596.00
729.5300, 31025.00
730.6810, 31136.00
731.8330, 31560.00
732.9840, 31986.14
734.1350, 32858.00
735.2860, 32764.00
736.4370, 33588.00
737.5880, 33634.00
738.7380, 34114.00
739.8880, 34452.00
741.0390, 34554.00
742.1890, 34759.00
743.3380, 34643.00
744.4880, 34834.00
745.6380, 34877.00
746.7870, 34601.00
747.9360, 34503.00
749.0850, 34131.00
750.2340, 33722.00
751.3830, 33418.00
752.5310, 33284.00
753.6800, 32817.00
754.8280, 32619.00
755.9760, 32147.00
757.1240, 31994.00
758.2720, 31751.00
759.4190, 31635.00
760.5670, 31203.00
761.7140, 31003.00
762.8610, 30646.00
764.0080, 30580.00
765.1550, 30356.00
766.3020, 29959.00
767.4480, 29646.00
768.5950, 29293.00
769.7410, 29208.00
770.8870, 28839.00
772.0330, 28387.00
773.1780, 28199.00
774.3240, 27608.00
775.4690, 27376.00
776.6140, 27253.00
777.7590, 26813.00
778.9040, 26716.00
780.0490, 26339.00
781.1940, 26191.00
782.3380, 25759.00
783.4820, 25495.00
784.6260, 25283.00
785.7700, 24907.00
786.9140, 24640.00
788.0580, 24428.00
789.2010, 24252.00
790.3450, 23990.00
791.4880, 23809.00
792.6310, 23291.00
793.7730, 23089.00
794.9160, 22958.00
796.0590, 22534.00
797.2010, 22401.00
798.3430, 22157.00
799.4850, 21829.00
800.6270, 21564.00
801.7690, 21415.00
802.9100, 21427.00
804.0520, 21180.00
805.1930, 21292.00
806.3340, 21035.00
807.4750, 20943.00
808.6160, 20872.00
809.7560, 20775.00
810.8970, 20628.00
812.0370, 20443.00
813.1770, 20352.00
814.3170, 20469.00
815.4570, 20495.00
816.5960, 20375.24
817.7360, 20332.36
818.8750, 20126.00
820.0140, 20188.00
821.1530, 20033.00
822.2920, 20232.00
823.4310, 19915.00
824.5690, 20065.00
825.7070, 19881.00
826.8460, 20024.00
827.9840, 19798.00
829.1220, 19715.00
830.2590, 19981.00
831.3970, 19814.00
832.5340, 19741.00
833.6710, 19586.00
834.8080, 19576.44
835.9450, 19780.00
837.0820, 19625.00
838.2190, 19713.00
839.3550, 19851.00
840.4910, 19811.00
841.6270, 19571.00
842.7630, 19588.00
843.8990, 19474.00
845.0350, 19481.44
846.1700, 19484.73
847.3060, 19590.00
848.4410, 19577.00
849.5760, 19673.00
850.7100, 19840.00
851.8450, 19657.00
852.9800, 19699.00
854.1140, 19846.00
855.2480, 19904.00
856.3820, 19881.00
857.5160, 19799.00
858.6500, 19794.00
859.7830, 19938.00
860.9170, 19939.00
862.0500, 20153.00
863.1830, 20079.00
864.3160, 20144.00
865.4480, 20317.00
866.5810, 20167.00
867.7130, 20430.00
868.8460, 20499.05
869.9780, 20509.27
871.1100, 20719.00
872.2410, 20588.00
873.3730, 20538.00
874.5050, 20549.00
875.6360, 20843.00
876.7670, 20808.00
877.8980, 20890.00
879.0290, 20833.00
880.1590, 21180.00
881.2900, 20969.00
882.4200, 21077.00
883.5500, 21408.00
884.6800, 21284.00
885.8100, 21531.00
886.9400, 21599.00
888.0690, 21542.00
889.1990, 21770.00
890.3280, 21939.00
891.4570, 22118.00
892.5860, 22239.00
893.7140, 22345.00
894.8430, 22674.00
895.9710, 22780.00
897.1000, 23048.00
898.2280, 23278.00
899.3560, 23532.57
900.4830, 23913.00
901.6110, 24117.00
902.7380, 24331.00
903.8660, 24614.00
904.9930, 25037.00
906.1200, 25157.00
907.2460, 25583.00
908.3730, 25918.00
909.5000, 25920.00
910.6260, 26181.00
911.7520, 26540.00
912.8780, 26803.00
914.0040, 26963.00
915.1290, 27445.00
916.2550, 27587.00
917.3800, 28170.00
918.5050, 28764.00
919.6300, 28894.00
920.7550, 29610.00
921.8800, 29670.00
923.0040, 30034.00
924.1290, 30472.00
925.2530, 30596.00
926.3770, 30734.00
927.5010, 31008.00
928.6250, 31113.00
929.7480, 31150.00
930.8720, 31135.00
931.9950, 30963.00
933.1180, 30935.00
934.2410, 30765.00
935.3640, 30729.00
936.4860, 30628.00
937.6090, 30402.00
938.7310, 30211.00
939.8530, 30144.00
940.9750, 30031.00
942.0970, 30014.00
943.2180, 29982.00
944.3400, 30059.00
945.4610, 30028.00
946.5820, 30000.00
947.7030, 30092.00
948.8240, 30121.00
949.9450, 30071.00
951.0650, 30251.00
952.1860, 30047.00
953.3060, 30077.00
954.4260, 30208.00
955.5460, 30069.00
956.6650, 29999.00
957.7850, 29899.00
958.9040, 29769.67
960.0230, 29733.00
961.1420, 29506.00
962.2610, 29410.00
963.3800, 29251.00
964.4990, 29243.00
965.6170, 29109.00
966.7350, 28837.00
967.8530, 28940.00
968.9710, 28985.00
970.0890, 28843.00
971.2070, 29214.00
972.3240, 29053.00
973.4410, 29048.00
974.5580, 29067.00
975.6750, 29276.00
976.7920, 29242.00
977.9090, 29540.00
979.0250, 29624.00
980.1410, 29885.00
981.2580, 30124.00
982.3740, 30113.00
983.4890, 30371.00
984.6050, 30418.00
985.7200, 30759.00
986.8360, 30971.00
987.9510, 31417.00
989.0660, 31337.00
990.1810, 31608.00
991.2950, 31806.00
992.4100, 31986.00
993.5240, 31984.00
994.6390, 32334.00
995.7530, 32315.00
996.8660, 32686.00
997.9800, 32775.00
999.0940, 32557.00
1000.207, 32676.00
1001.320, 32763.00
1002.433, 33009.00
1003.546, 32836.00
1004.659, 32700.00
1005.772, 32516.00
1006.884, 32306.00
1007.996, 32606.00
1009.108, 32669.00
1010.220, 32506.00
1011.332, 32267.00
1012.444, 32604.00
1013.555, 32551.00
1014.666, 32546.00
1015.777, 32697.00
1016.888, 32526.00
1017.999, 32623.00
1019.110, 32542.00
1020.220, 32695.00
1021.331, 32659.00
1022.441, 32979.00
1023.551, 32709.00
1024.661, 33185.00
1025.770, 33119.00
1026.880, 33365.00
1027.989, 33215.00
1029.098, 33470.00
1030.207, 33458.00
1031.316, 33452.00
1032.425, 33490.00
1033.533, 33573.16
1034.642, 33686.59
1035.750, 33798.00
1036.858, 34076.00
1037.966, 34201.00
1039.073, 34566.00
1040.181, 34606.00
1041.288, 34772.00
1042.396, 35153.00
1043.503, 35298.00
1044.610, 35049.00
1045.716, 35556.00
1046.823, 35871.00
1047.929, 35816.00
1049.036, 36431.00
1050.142, 36746.00
1051.248, 37138.00
1052.353, 37413.00
1053.459, 37920.00
1054.564, 38104.00
1055.670, 38725.00
1056.775, 39507.00
1057.880, 40226.00
1058.985, 41506.00
1060.089, 42362.00
1061.194, 43156.00
1062.298, 43617.00
1063.402, 45134.00
1064.506, 45794.00
1065.610, 46385.00
1066.713, 46679.00
1067.817, 46855.00
1068.920, 46955.00
1070.023, 46590.00
1071.126, 46476.00
1072.229, 46141.00
1073.332, 45997.00
1074.435, 46152.00
1075.537, 46390.00
1076.639, 46546.00
1077.741, 46846.00
1078.843, 47080.00
1079.945, 47528.90
1081.046, 48233.00
1082.148, 48549.00
1083.249, 49418.00
1084.350, 50040.00
1085.451, 50682.00
1086.551, 51589.00
1087.652, 51470.00
1088.752, 51144.00
1089.853, 49998.00
1090.953, 49512.00
1092.053, 49251.00
1093.152, 48752.00
1094.252, 48344.00
1095.351, 47767.00
1096.451, 47443.00
1097.550, 46666.00
1098.649, 46051.00
1099.748, 45595.00
1100.846, 44973.00
1101.945, 44384.67
1103.043, 43962.00
1104.141, 43228.03
1105.239, 42732.79
1106.337, 42315.00
1107.434, 41763.00
1108.532, 41492.00
1109.629, 41123.00
1110.726, 40750.00
1111.823, 40368.00
1112.920, 40209.00
1114.017, 40044.00
1115.113, 39829.00
1116.210, 39548.00
1117.306, 39778.00
1118.402, 39461.00
1119.498, 39211.00
1120.593, 39224.00
1121.689, 39489.00
1122.784, 39038.00
1123.879, 39406.00
1124.974, 39238.00
1126.069, 39276.00
1127.164, 39084.00
1128.259, 38896.00
1129.353, 38779.00
1130.447, 38390.00
1131.541, 38380.00
1132.635, 37753.00
1133.729, 37166.00
1134.822, 36952.00
1135.916, 36430.00
1137.009, 35738.00
1138.102, 34834.00
1139.195, 34332.00
1140.288, 34112.00
1141.380, 33415.00
1142.473, 33025.00
1143.565, 32580.00
1144.657, 32361.34
1145.749, 32209.00
1146.841, 32210.00
1147.932, 32146.00
1149.024, 32243.00
1150.115, 32541.00
1151.206, 32579.00
1152.297, 32846.00
1153.388, 33121.00
1154.479, 33806.00
1155.569, 34247.00
1156.659, 34654.00
1157.750, 35236.00
1158.839, 35725.99
1159.929, 36280.86
1161.019, 36859.00
1162.108, 37457.00
1163.198, 38081.08
1164.287, 38726.00
1165.376, 39361.00
1166.465, 39826.00
1167.553, 40567.00
1168.642, 41231.00
1169.730, 41247.00
1170.818, 41664.00
1171.906, 41873.00
1172.994, 42149.00
1174.082, 41898.00
1175.170, 42227.00
1176.257, 41563.00
1177.344, 41457.00
1178.431, 41164.00
1179.518, 40979.00
1180.605, 40654.00
1181.691, 40484.00
1182.778, 40082.00
1183.864, 39898.00
1184.950, 39463.00
1186.036, 39259.00
1187.122, 39240.00
1188.207, 38696.00
1189.292, 38691.00
1190.378, 38433.00
1191.463, 38136.00
1192.548, 37939.00
1193.632, 37535.00
1194.717, 37316.00
1195.801, 36925.00
1196.886, 36608.00
1197.970, 36212.00
1199.054, 35883.00
1200.137, 35494.00
1201.221, 34726.00
1202.305, 34773.00
1203.388, 34170.00
1204.471, 33808.00
1205.554, 33603.00
1206.637, 33329.00
1207.719, 33047.00
1208.802, 32476.00
1209.884, 32420.00
1210.966, 32058.00
1212.048, 31965.00
1213.130, 31707.00
1214.212, 31523.31
1215.293, 31450.52
1216.374, 31381.00
1217.456, 31269.00
1218.536, 31306.56
1219.617, 31496.00
1220.698, 31460.00
1221.778, 31662.00
1222.859, 31925.00
1223.939, 31690.00
1225.019, 32030.00
1226.099, 32050.00
1227.178, 32035.00
1228.258, 32304.00
1229.337, 32593.00
1230.417, 32157.00
1231.496, 32271.00
1232.574, 32664.00
1233.653, 32642.00
1234.732, 32828.00
1235.810, 32370.00
1236.888, 32617.00
1237.966, 32463.00
1239.044, 32318.00
1240.122, 32160.00
1241.199, 32042.00
1242.277, 31989.00
1243.354, 31889.00
1244.431, 31674.61
1245.508, 31569.00
1246.585, 31229.00
1247.661, 31007.00
1248.738, 30818.00
1249.814, 30860.00
1250.890, 30722.00
1251.966, 30706.00
1253.042, 30541.00
1254.117, 30283.00
1255.193, 30430.00
1256.268, 30364.00
1257.343, 30456.00
1258.418, 30499.00
1259.493, 30530.00
1260.567, 30359.00
1261.642, 30725.00
1262.716, 30690.00
1263.790, 30609.00
1264.864, 30426.00
1265.938, 30505.00
1267.011, 30397.00
1268.085, 30461.00
1269.158, 30316.00
1270.231, 30165.00
1271.304, 29884.00
1272.377, 29854.00
1273.450, 29707.00
1274.522, 29623.00
1275.594, 29443.94
1276.666, 29345.00
1277.738, 29077.00
1278.810, 28829.00
1279.882, 28707.00
1280.953, 28655.00
1282.025, 28453.00
