##NAMES=Eudialyte
##RRUFFID=R060206
##IDEAL CHEMISTRY=Na_15_Ca_6_Fe^2+^_3_Zr^4+^_3_Si(Si_25_O_73_)(O,OH,H_2_O)_3_(Cl,OH)_2_
##LOCALITY=Desourdy Quarry, Mont Saint-Hilaire, Rouville County, Quebec, Canada
##OWNER=RRUFF
##SOURCE=Royal Ontario Museum
##DESCRIPTION=Yellowish-brown gemmy fragment
##STATUS=The identification of this mineral is confirmed by single-crystal X-ray diffraction and chemical analysis.
##URL=rruff.info/R060206
##MEASURED CHEMISTRY=(Na_13.12_Ca_1.62_K_0.26_)_Σ=15_(Ca_4.47_Mn_1.00_Ce_0.32_La_0.21_)_Σ=6_(Fe_2.91_Mn_0.09_)_Σ=3_Zr_3.00_(Si_0.85_Nb_0.15_)_Σ=1_Si_25.00_O_73_((OH)_2.70_O_0.30_)_Σ=3_(Cl_1.20_(OH)_0.80_)_Σ=2_
##PIN_ID=M00202
##ORIENTATION=Laser parallel to -c* (0 0 -1). Fiducial mark perpendicular to laser is parallel to a [1 0 0]
116.9030, 21123.00
118.1340, 21238.00
119.3650, 20933.00
120.5960, 21216.00
121.8270, 21180.00
123.0580, 21658.00
124.2880, 21588.00
125.5190, 21439.00
126.7490, 21855.00
127.9790, 22140.00
129.2090, 22646.00
130.4390, 22996.00
131.6680, 23425.00
132.8980, 23870.00
134.1270, 24382.00
135.3560, 24730.94
136.5850, 25069.00
137.8140, 25410.00
139.0430, 25620.00
140.2710, 25829.00
141.5000, 25626.00
142.7280, 25064.00
143.9560, 24723.00
145.1840, 24314.00
146.4120, 23762.00
147.6390, 23652.00
148.8670, 22889.00
150.0940, 22731.00
151.3210, 22656.00
152.5490, 22137.00
153.7750, 21641.00
155.0020, 21790.00
156.2290, 21416.00
157.4550, 21411.00
158.6810, 21427.00
159.9080, 21337.00
161.1340, 21501.00
162.3590, 21684.00
163.5850, 21969.00
164.8110, 22071.00
166.0360, 22276.00
167.2610, 22424.00
168.4860, 22565.00
169.7110, 22783.00
170.9360, 23053.00
172.1610, 23416.00
173.3850, 23829.00
174.6100, 24343.92
175.8340, 24946.24
177.0580, 25574.00
178.2820, 26378.00
179.5050, 27146.00
180.7290, 28020.00
181.9520, 29112.00
183.1760, 30017.00
184.3990, 31276.00
185.6220, 32349.00
186.8450, 34039.00
188.0670, 35619.00
189.2900, 36961.00
190.5120, 38501.00
191.7340, 40360.00
192.9560, 41913.00
194.1780, 43738.00
195.4000, 45624.00
196.6220, 47209.00
197.8430, 48560.00
199.0640, 49729.00
200.2860, 50959.00
201.5070, 51179.00
202.7270, 51887.00
203.9480, 51523.00
205.1690, 51206.00
206.3890, 49711.00
207.6090, 48309.00
208.8290, 46687.00
210.0490, 45194.00
211.2690, 43204.00
212.4890, 41107.00
213.7080, 39505.00
214.9280, 37186.00
216.1470, 35367.00
217.3660, 33654.00
218.5850, 31739.00
219.8030, 30279.00
221.0220, 28613.00
222.2400, 27459.00
223.4590, 26075.00
224.6770, 25125.00
225.8950, 24455.00
227.1120, 23298.00
228.3300, 22597.00
229.5480, 21894.00
230.7650, 21008.00
231.9820, 20640.00
233.1990, 20063.00
234.4160, 19500.00
235.6330, 18995.00
236.8490, 18541.47
238.0660, 18158.00
239.2820, 17742.00
240.4980, 17348.00
241.7140, 17009.00
242.9300, 16775.00
244.1460, 16454.00
245.3610, 16188.00
246.5770, 16117.00
247.7920, 15956.72
249.0070, 15856.00
250.2220, 15911.00
251.4370, 15774.00
252.6510, 15888.00
253.8660, 15656.00
255.0800, 15867.00
256.2940, 16045.00
257.5080, 16448.00
258.7220, 16552.00
259.9360, 16772.18
261.1490, 16917.00
262.3630, 17163.00
263.5760, 17419.00
264.7890, 17768.00
266.0020, 18280.00
267.2150, 18631.00
268.4270, 19176.00
269.6400, 19580.18
270.8520, 19985.00
272.0640, 20353.00
273.2760, 20618.00
274.4880, 20808.00
275.7000, 20935.00
276.9120, 21081.00
278.1230, 21078.00
279.3340, 20953.00
280.5450, 21234.00
281.7560, 21042.00
282.9670, 21466.00
284.1780, 21339.00
285.3880, 21582.00
286.5980, 21540.00
287.8090, 22049.00
289.0190, 22040.00
290.2290, 22113.00
291.4380, 22360.00
292.6480, 22248.00
293.8570, 22317.00
295.0670, 22388.88
296.2760, 22472.00
297.4850, 22478.00
298.6930, 22491.17
299.9020, 22493.34
301.1110, 22448.00
302.3190, 22421.00
303.5270, 22394.00
304.7350, 22294.00
305.9430, 22101.00
307.1510, 21872.00
308.3580, 21755.00
309.5660, 21100.00
310.7730, 21061.00
311.9800, 20525.00
313.1870, 20140.00
314.3940, 19687.00
315.6010, 19216.00
316.8070, 19034.00
318.0130, 18758.00
319.2200, 18455.00
320.4260, 18657.00
321.6310, 18488.00
322.8370, 18651.00
324.0430, 18748.00
325.2480, 18936.00
326.4540, 19498.00
327.6590, 19384.00
328.8640, 20072.00
330.0680, 20531.00
331.2730, 20798.00
332.4780, 20899.00
333.6820, 21182.00
334.8860, 20977.00
336.0900, 21099.00
337.2940, 20647.00
338.4980, 20384.00
339.7010, 19914.00
340.9050, 19537.00
342.1080, 19138.00
343.3110, 18901.00
344.5140, 18321.00
345.7170, 18137.00
346.9200, 17932.00
348.1220, 17781.00
349.3240, 17626.00
350.5270, 17553.00
351.7290, 17690.00
352.9310, 17744.00
354.1320, 17701.00
355.3340, 17672.00
356.5350, 17771.00
357.7370, 17478.00
358.9380, 17332.00
360.1390, 17347.00
361.3400, 16933.00
362.5400, 16534.00
363.7410, 16392.00
364.9410, 16066.02
366.1410, 15920.00
367.3410, 15633.00
368.5410, 15559.00
369.7410, 15355.00
370.9400, 15341.00
372.1400, 15235.00
373.3390, 15296.00
374.5380, 15135.00
375.7370, 15213.00
376.9360, 15284.00
378.1350, 15472.00
379.3330, 15789.00
380.5310, 16042.00
381.7300, 16177.00
382.9280, 16590.00
384.1260, 17069.00
385.3230, 17348.00
386.5210, 17897.00
387.7180, 18471.00
388.9160, 18645.00
390.1130, 18997.00
391.3100, 19206.00
392.5060, 19389.00
393.7030, 19097.00
394.9000, 19126.00
396.0960, 18700.00
397.2920, 18429.00
398.4880, 18154.00
399.6840, 17664.00
400.8800, 17132.00
402.0750, 16678.00
403.2710, 16205.00
404.4660, 15849.00
405.6610, 15480.02
406.8560, 15178.03
408.0510, 14887.00
409.2450, 14697.00
410.4400, 14507.00
411.6340, 14360.00
412.8280, 14205.00
414.0220, 14070.00
415.2160, 13909.86
416.4100, 13817.00
417.6030, 13563.00
418.7970, 13370.00
419.9900, 13119.00
421.1830, 12770.00
422.3760, 12445.00
423.5690, 12216.00
424.7610, 11811.00
425.9540, 11485.00
427.1460, 11182.00
428.3380, 11003.00
429.5300, 10740.00
430.7220, 10511.00
431.9140, 10427.00
433.1050, 10218.00
434.2970, 10201.00
435.4880, 10102.00
436.6790, 10200.00
437.8700, 10378.00
439.0610, 10200.00
440.2510, 10271.00
441.4420, 10347.00
442.6320, 10267.00
443.8220, 9950.000
445.0120, 9939.000
446.2020, 9697.000
447.3910, 9554.000
448.5810, 9445.000
449.7700, 9338.000
450.9600, 9191.000
452.1490, 9051.000
453.3370, 9010.000
454.5260, 8745.000
455.7150, 8739.000
456.9030, 8567.000
458.0910, 8589.000
459.2800, 8416.000
460.4670, 8407.000
461.6550, 8613.000
462.8430, 8662.000
464.0300, 8391.000
465.2180, 8271.000
466.4050, 8352.000
467.5920, 8217.000
468.7790, 8202.000
469.9650, 8175.000
471.1520, 8238.000
472.3380, 8276.000
473.5250, 8155.000
474.7110, 8233.000
475.8970, 8171.000
477.0820, 8163.000
478.2680, 8131.000
479.4540, 8089.000
480.6390, 8020.000
481.8240, 7998.000
483.0090, 8028.000
484.1940, 8067.000
485.3780, 8037.271
486.5630, 8112.000
487.7470, 8022.000
488.9320, 8019.000
490.1160, 8051.000
491.3000, 8164.000
492.4830, 8163.000
493.6670, 8173.000
494.8500, 8230.000
496.0340, 8256.000
497.2170, 8378.000
498.4000, 8480.878
499.5820, 8702.000
500.7650, 8812.000
501.9480, 8992.000
503.1300, 9280.000
504.3120, 9358.000
505.4940, 9603.000
506.6760, 9822.000
507.8580, 10007.00
509.0390, 10236.00
510.2210, 10554.00
511.4020, 10682.00
512.5830, 11115.00
513.7640, 11439.00
514.9450, 11878.00
516.1250, 12110.00
517.3060, 12495.00
518.4860, 13079.00
519.6660, 13657.00
520.8460, 13926.00
522.0260, 14356.00
523.2060, 14931.00
524.3850, 15280.00
525.5650, 15605.00
526.7440, 15914.00
527.9230, 16151.00
529.1020, 16457.00
530.2810, 16880.00
531.4590, 17331.00
532.6380, 17652.00
533.8160, 18339.00
534.9940, 19338.00
536.1720, 20147.00
537.3500, 20753.00
538.5270, 21789.00
539.7050, 22455.00
540.8820, 23532.00
542.0590, 24283.00
543.2360, 24905.00
544.4130, 25686.00
545.5900, 26771.00
546.7660, 28057.00
547.9430, 29231.00
549.1190, 30974.00
550.2950, 33304.00
551.4710, 35721.00
552.6470, 38580.00
553.8220, 41593.00
554.9980, 44712.00
556.1730, 46802.00
557.3480, 48288.00
558.5230, 49404.00
559.6980, 49136.00
560.8730, 49252.00
562.0470, 49709.00
563.2220, 51093.00
564.3960, 52822.00
565.5700, 54371.00
566.7440, 54949.00
567.9170, 53898.00
569.0910, 49988.00
570.2640, 45280.00
571.4380, 39991.00
572.6110, 34866.00
573.7840, 30344.00
574.9570, 26227.00
576.1290, 23328.00
577.3020, 20756.00
578.4740, 19077.00
579.6460, 17281.00
580.8180, 16064.00
581.9900, 15036.00
583.1620, 14212.00
584.3330, 13396.00
585.5040, 12899.00
586.6760, 13143.00
587.8470, 12506.00
589.0180, 12596.00
590.1880, 12376.00
591.3590, 12500.00
592.5290, 12537.00
593.7000, 13110.00
594.8700, 13410.00
596.0400, 14034.00
597.2090, 14593.00
598.3790, 15285.00
599.5490, 16243.00
600.7180, 16951.00
601.8870, 17956.00
603.0560, 18852.00
604.2250, 19775.00
605.3940, 20593.00
606.5620, 21241.00
607.7300, 22050.00
608.8990, 22248.31
610.0670, 22380.08
611.2350, 22353.00
612.4020, 22006.00
613.5700, 21623.00
614.7370, 21154.00
615.9050, 20589.00
617.0720, 20072.00
618.2390, 19532.00
619.4060, 19162.00
620.5720, 18803.00
621.7390, 19010.00
622.9050, 19083.00
624.0710, 19085.00
625.2370, 19329.00
626.4030, 19403.00
627.5690, 19067.00
628.7340, 19085.00
629.9000, 18547.00
631.0650, 18278.00
632.2300, 17686.00
633.3950, 16769.00
634.5600, 16322.00
635.7240, 15735.00
636.8890, 15344.00
638.0530, 15068.00
639.2170, 14733.00
640.3810, 14447.00
641.5450, 14306.00
642.7080, 13999.00
643.8720, 13842.00
645.0350, 13775.00
646.1980, 13650.00
647.3610, 13556.00
648.5240, 13490.00
649.6870, 13536.93
650.8490, 13666.00
652.0120, 13714.00
653.1740, 13802.00
654.3360, 13903.90
655.4980, 14166.00
656.6600, 14221.00
657.8210, 14417.00
658.9830, 14522.00
660.1440, 14702.00
661.3050, 14972.00
662.4660, 15077.00
663.6270, 15295.00
664.7870, 15381.00
665.9480, 15720.00
667.1080, 16124.00
668.2680, 16512.00
669.4280, 16638.00
670.5880, 17185.00
671.7480, 17760.00
672.9070, 18065.00
674.0670, 19023.00
675.2260, 19412.00
676.3850, 20104.00
677.5440, 20738.00
678.7030, 21515.00
679.8610, 22283.00
681.0200, 22980.00
682.1780, 23713.00
683.3360, 24497.00
684.4940, 25287.00
685.6520, 25855.00
686.8090, 26419.00
687.9670, 27332.00
689.1240, 28258.00
690.2810, 29149.00
691.4380, 29796.00
692.5950, 30945.00
693.7520, 31943.00
694.9080, 33034.00
696.0650, 34544.00
697.2210, 35820.00
698.3770, 37300.00
699.5330, 38599.00
700.6880, 39966.00
701.8440, 41748.00
702.9990, 42733.00
704.1550, 44145.00
705.3100, 45030.00
706.4650, 46013.00
707.6190, 46025.00
708.7740, 46002.00
709.9290, 45267.00
711.0830, 43759.00
712.2370, 42537.00
713.3910, 40753.00
714.5450, 39407.00
715.6980, 37770.00
716.8520, 37394.00
718.0050, 36701.00
719.1580, 36950.00
720.3110, 37227.00
721.4640, 38106.00
722.6170, 39204.00
723.7700, 40377.00
724.9220, 42033.00
726.0740, 43584.00
727.2260, 45677.00
728.3780, 47650.00
729.5300, 49503.00
730.6810, 51480.00
731.8330, 53310.00
732.9840, 55134.00
734.1350, 56668.00
735.2860, 58170.00
736.4370, 59889.00
737.5880, 60579.00
738.7380, 61187.00
739.8880, 61846.00
741.0390, 61487.00
742.1890, 61496.00
743.3380, 61080.00
744.4880, 60420.00
745.6380, 59225.00
746.7870, 58606.00
747.9360, 57263.00
749.0850, 56255.00
750.2340, 55783.00
751.3830, 54997.00
752.5310, 54870.00
753.6800, 54343.00
754.8280, 54220.00
755.9760, 53722.00
757.1240, 52961.00
758.2720, 52723.00
759.4190, 51980.00
760.5670, 51127.00
761.7140, 49849.00
762.8610, 48820.00
764.0080, 47501.43
765.1550, 46069.00
766.3020, 44715.00
767.4480, 42985.00
768.5950, 41476.00
769.7410, 39989.00
770.8870, 38466.00
772.0330, 36898.00
773.1780, 35261.00
774.3240, 33871.00
775.4690, 32334.00
776.6140, 31019.00
777.7590, 29728.00
778.9040, 28681.00
780.0490, 27409.00
781.1940, 26229.00
782.3380, 25344.00
783.4820, 24547.00
784.6260, 23592.00
785.7700, 22921.00
786.9140, 22119.00
788.0580, 21668.00
789.2010, 21024.00
790.3450, 20252.00
791.4880, 19573.00
792.6310, 18945.00
793.7730, 18378.00
794.9160, 18005.00
796.0590, 17412.00
797.2010, 16975.00
798.3430, 16717.00
799.4850, 16315.00
800.6270, 16055.00
801.7690, 16110.00
802.9100, 15845.00
804.0520, 15989.00
805.1930, 15938.00
806.3340, 16181.00
807.4750, 16250.00
808.6160, 16402.00
809.7560, 16775.00
810.8970, 17200.00
812.0370, 17390.00
813.1770, 17906.00
814.3170, 18196.00
815.4570, 18552.00
816.5960, 18729.00
817.7360, 18618.00
818.8750, 18895.00
820.0140, 18749.00
821.1530, 18425.00
822.2920, 18073.00
823.4310, 17724.00
824.5690, 17169.00
825.7070, 16685.00
826.8460, 16217.00
827.9840, 15785.87
829.1220, 15411.90
830.2590, 15035.00
831.3970, 14739.00
832.5340, 14455.00
833.6710, 14152.00
834.8080, 14009.00
835.9450, 13725.00
837.0820, 13408.00
838.2190, 13021.00
839.3550, 12765.00
840.4910, 12419.22
841.6270, 12075.00
842.7630, 11819.00
843.8990, 11581.00
845.0350, 11353.00
846.1700, 11034.00
847.3060, 10880.00
848.4410, 10592.00
849.5760, 10521.00
850.7100, 10464.00
851.8450, 10175.00
852.9800, 9984.000
854.1140, 9863.000
855.2480, 9859.000
856.3820, 9806.000
857.5160, 9660.000
858.6500, 9587.000
859.7830, 9455.000
860.9170, 9514.000
862.0500, 9435.000
863.1830, 9496.000
864.3160, 9616.000
865.4480, 9472.000
866.5810, 9481.000
867.7130, 9531.000
868.8460, 9507.000
869.9780, 9570.000
871.1100, 9566.000
872.2410, 9773.000
873.3730, 9671.000
874.5050, 9955.000
875.6360, 9874.000
876.7670, 9974.000
877.8980, 10017.00
879.0290, 10049.00
880.1590, 10126.00
881.2900, 10292.00
882.4200, 10442.00
883.5500, 10633.00
884.6800, 10828.80
885.8100, 11097.00
886.9400, 11256.00
888.0690, 11493.00
889.1990, 11718.00
890.3280, 11750.00
891.4570, 12083.00
892.5860, 12457.00
893.7140, 12765.00
894.8430, 12648.00
895.9710, 13145.00
897.1000, 13271.00
898.2280, 13445.00
899.3560, 13834.00
900.4830, 13834.00
901.6110, 14135.00
902.7380, 14544.00
903.8660, 14707.00
904.9930, 15179.00
906.1200, 15443.00
907.2460, 15610.00
908.3730, 15962.00
909.5000, 16429.00
910.6260, 16581.00
911.7520, 16876.00
912.8780, 17064.00
914.0040, 17375.00
915.1290, 17718.00
916.2550, 17944.00
917.3800, 18422.00
918.5050, 18974.00
919.6300, 19418.00
920.7550, 20125.00
921.8800, 20888.79
923.0040, 21854.00
924.1290, 22681.00
925.2530, 23668.00
926.3770, 24705.00
927.5010, 25406.00
928.6250, 26321.00
929.7480, 27211.00
930.8720, 27827.00
931.9950, 28504.00
933.1180, 28507.00
934.2410, 28838.00
935.3640, 29067.00
936.4860, 28630.00
937.6090, 28459.00
938.7310, 27776.00
939.8530, 27242.00
940.9750, 26807.00
942.0970, 25937.00
943.2180, 25044.00
944.3400, 24540.00
945.4610, 23939.00
946.5820, 23051.00
947.7030, 22444.00
948.8240, 21769.00
949.9450, 20964.00
951.0650, 20463.00
952.1860, 19700.00
953.3060, 19020.00
954.4260, 18221.00
955.5460, 17829.00
956.6650, 17442.00
957.7850, 17249.00
958.9040, 16888.00
960.0230, 16788.00
961.1420, 16745.00
962.2610, 16576.00
963.3800, 16640.00
964.4990, 16665.00
965.6170, 16801.00
966.7350, 16850.00
967.8530, 16946.00
968.9710, 17150.00
970.0890, 17213.00
971.2070, 17393.44
972.3240, 17649.00
973.4410, 17702.00
974.5580, 17860.00
975.6750, 17984.00
976.7920, 18162.00
977.9090, 18303.00
979.0250, 18461.00
980.1410, 18731.00
981.2580, 18807.00
982.3740, 19018.00
983.4890, 19196.00
984.6050, 19775.00
985.7200, 20071.00
986.8360, 20599.00
987.9510, 21095.00
989.0660, 21389.00
990.1810, 22214.00
991.2950, 22685.00
992.4100, 23494.00
993.5240, 23956.00
994.6390, 24715.00
995.7530, 25153.00
996.8660, 25596.00
997.9800, 26244.00
999.0940, 26566.00
1000.207, 26506.00
1001.320, 26873.00
1002.433, 27127.00
1003.546, 27017.00
1004.659, 27370.00
1005.772, 27312.00
1006.884, 27083.00
1007.996, 27273.00
1009.108, 27117.00
1010.220, 27008.00
1011.332, 27007.00
1012.444, 26837.00
1013.555, 26761.00
1014.666, 26689.00
1015.777, 26718.00
1016.888, 26394.00
1017.999, 26310.00
1019.110, 26200.00
1020.220, 25914.00
1021.331, 25962.00
1022.441, 25566.00
1023.551, 25471.00
1024.661, 25408.00
1025.770, 25277.00
1026.880, 25000.00
1027.989, 24850.00
1029.098, 24717.00
1030.207, 24326.00
1031.316, 24134.00
1032.425, 23742.00
1033.533, 23552.00
1034.642, 22971.00
1035.750, 22796.00
1036.858, 22382.00
1037.966, 21919.00
1039.073, 21779.00
1040.181, 21323.00
1041.288, 21020.00
1042.396, 20757.00
1043.503, 20478.00
1044.610, 20327.00
1045.716, 20145.00
1046.823, 20275.00
1047.929, 20487.00
1049.036, 20554.00
1050.142, 20739.00
1051.248, 21136.00
1052.353, 21538.00
1053.459, 22060.00
1054.564, 22432.00
1055.670, 23102.86
1056.775, 23908.00
1057.880, 24593.00
1058.985, 25640.00
1060.089, 26720.00
1061.194, 28029.00
1062.298, 29212.00
1063.402, 30862.00
1064.506, 32639.00
1065.610, 34863.00
1066.713, 36969.00
1067.817, 38789.00
1068.920, 38943.00
1070.023, 38514.00
1071.126, 38146.00
1072.229, 37749.00
1073.332, 37067.00
1074.435, 36177.00
1075.537, 35277.00
1076.639, 34562.00
1077.741, 33398.00
1078.843, 32369.00
1079.945, 31145.00
1081.046, 30327.00
1082.148, 29659.00
1083.249, 28800.00
1084.350, 28237.00
1085.451, 27794.00
1086.551, 27429.00
1087.652, 27355.00
1088.752, 26957.00
1089.853, 26781.00
1090.953, 26392.00
1092.053, 26240.00
1093.152, 26038.00
1094.252, 25326.00
1095.351, 25194.00
1096.451, 24462.00
1097.550, 23948.00
1098.649, 23309.00
1099.748, 22475.00
1100.846, 21362.00
1101.945, 20636.00
1103.043, 19798.00
1104.141, 18412.00
1105.239, 17759.00
1106.337, 17082.00
1107.434, 16306.00
1108.532, 15760.00
1109.629, 15165.00
1110.726, 14642.00
1111.823, 14131.00
1112.920, 14019.00
1114.017, 13741.00
1115.113, 13610.00
1116.210, 13353.00
1117.306, 13310.00
1118.402, 13148.00
1119.498, 12916.00
1120.593, 13002.00
1121.689, 12856.00
1122.784, 12701.00
1123.879, 12682.00
1124.974, 12595.00
1126.069, 12409.00
1127.164, 12270.00
1128.259, 12197.00
1129.353, 12003.00
1130.447, 11900.00
1131.541, 11972.00
1132.635, 11749.00
1133.729, 11587.00
1134.822, 11680.00
1135.916, 11459.00
1137.009, 11441.00
1138.102, 11374.00
1139.195, 11382.00
1140.288, 11165.00
1141.380, 11091.00
1142.473, 10941.00
1143.565, 10729.00
1144.657, 10864.00
1145.749, 10671.00
1146.841, 10610.00
1147.932, 10502.00
1149.024, 10356.00
1150.115, 10380.00
1151.206, 10135.00
1152.297, 10044.00
1153.388, 10144.00
1154.479, 10056.00
1155.569, 9904.000
1156.659, 9889.000
1157.750, 9838.000
1158.839, 9862.000
1159.929, 9859.000
1161.019, 9831.000
1162.108, 9681.000
1163.198, 9706.000
1164.287, 9838.000
1165.376, 9672.000
1166.465, 9823.000
1167.553, 9682.000
1168.642, 9723.000
1169.730, 9769.000
1170.818, 9714.000
1171.906, 9751.000
1172.994, 9728.000
1174.082, 9714.000
1175.170, 9643.000
1176.257, 9658.000
1177.344, 9448.000
1178.431, 9675.000
1179.518, 9516.000
1180.605, 9422.000
1181.691, 9479.000
1182.778, 9318.000
1183.864, 9457.000
1184.950, 9350.000
1186.036, 9329.000
1187.122, 9337.000
1188.207, 9306.000
1189.292, 9333.000
1190.378, 9292.847
1191.463, 9197.000
1192.548, 9213.000
1193.632, 9183.000
1194.717, 9113.000
1195.801, 9216.000
1196.886, 9115.000
1197.970, 9104.000
1199.054, 9033.000
1200.137, 9027.000
1201.221, 9025.000
1202.305, 9165.000
1203.388, 9116.000
1204.471, 9047.000
1205.554, 8993.000
1206.637, 8875.000
1207.719, 8880.000
1208.802, 8896.000
1209.884, 8852.000
1210.966, 8928.000
1212.048, 9002.000
1213.130, 8935.000
1214.212, 8887.000
1215.293, 8958.000
1216.374, 8898.000
1217.456, 8837.000
1218.536, 8893.000
1219.617, 8898.000
1220.698, 8999.000
1221.778, 9011.000
1222.859, 8871.000
1223.939, 9055.000
1225.019, 8875.000
1226.099, 8961.000
1227.178, 9035.000
1228.258, 9058.000
1229.337, 9069.000
1230.417, 9030.000
1231.496, 8956.000
1232.574, 8992.000
1233.653, 8969.797
1234.732, 9091.000
1235.810, 9007.000
1236.888, 9069.000
1237.966, 9114.000
1239.044, 9025.000
1240.122, 9141.000
1241.199, 9094.000
1242.277, 9010.000
1243.354, 9101.000
1244.431, 8953.000
1245.508, 9055.000
1246.585, 9053.000
1247.661, 8945.000
1248.738, 8986.000
1249.814, 9055.000
1250.890, 8978.000
1251.966, 8879.000
1253.042, 9102.000
1254.117, 8947.000
1255.193, 8833.000
1256.268, 8913.000
1257.343, 8912.000
1258.418, 8826.000
1259.493, 8913.000
1260.567, 8955.000
1261.642, 8916.000
1262.716, 8922.000
1263.790, 8961.000
1264.864, 8948.859
1265.938, 9113.000
1267.011, 8979.000
1268.085, 9005.000
1269.158, 9031.000
1270.231, 8940.000
1271.304, 8976.000
1272.377, 9001.000
1273.450, 8949.000
1274.522, 9013.000
1275.594, 8954.000
1276.666, 8948.000
1277.738, 8884.000
1278.810, 8889.000
1279.882, 8945.000
1280.953, 8930.000
1282.025, 8915.000
