##NAMES=Eudialyte
##RRUFFID=R050230
##IDEAL CHEMISTRY=Na_15_Ca_6_Fe^2+^_3_Zr^4+^_3_Si(Si_25_O_73_)(O,OH,H_2_O)_3_(Cl,OH)_2_
##LOCALITY=Kipawa alkaline complex, near Sheffield Lake, Villedieu Township, Temiscamingue County, Quebec, Canada
##OWNER=RRUFF
##SOURCE=Marcus Origlieri
##DESCRIPTION=Massive aggregate of red crystals
##STATUS=The identification of this mineral has been confirmed by X-ray diffraction and chemical analysis
##URL=rruff.info/R050230
##MEASURED CHEMISTRY=(Na_14.50_K_0.35_Ca_0.15_)_Σ=15_Ca_6.00_(Fe_1.86_Mn_1.01_Mg_0.13_)_Σ=3_(Zr_2.91_Ti_0.09_)_3_(Si_0.94_Nb_0.06_)_Σ=1.00_(Si_25.00_O_73_)(OH)_1.10_(H_2_O)_1.90_)_Σ=3_(Cl_1.17_(OH)_0.83_)_Σ=2_
##PIN_ID=M00392
##ORIENTATION=Laser parallel to c* (0 0 1). Fiducial mark perpendicular to laser is parallel to -a [-1 0 0]
118.1340, 29814.00
119.3650, 29479.00
120.5960, 29525.00
121.8270, 29728.00
123.0580, 29881.00
124.2880, 29908.00
125.5190, 29865.00
126.7490, 30104.38
127.9790, 30217.00
129.2090, 30643.00
130.4390, 30982.00
131.6680, 31567.00
132.8980, 31839.00
134.1270, 32351.54
135.3560, 32786.00
136.5850, 33392.00
137.8140, 34084.00
139.0430, 34840.00
140.2710, 35421.00
141.5000, 35778.00
142.7280, 35829.00
143.9560, 35642.00
145.1840, 35396.00
146.4120, 35115.00
147.6390, 34685.00
148.8670, 34387.00
150.0940, 34541.00
151.3210, 34500.00
152.5490, 34479.00
153.7750, 34189.00
155.0020, 34672.00
156.2290, 34704.00
157.4550, 35150.00
158.6810, 35358.00
159.9080, 35841.00
161.1340, 35904.00
162.3590, 36300.00
163.5850, 36126.00
164.8110, 36203.00
166.0360, 36157.00
167.2610, 35716.00
168.4860, 35385.00
169.7110, 35172.00
170.9360, 34836.00
172.1610, 34280.00
173.3850, 33949.00
174.6100, 33847.00
175.8340, 33386.00
177.0580, 33452.00
178.2820, 33567.00
179.5050, 33710.91
180.7290, 34137.00
181.9520, 34551.00
183.1760, 35250.00
184.3990, 36010.00
185.6220, 36665.00
186.8450, 37817.00
188.0670, 38617.00
189.2900, 39493.00
190.5120, 40608.00
191.7340, 41589.21
192.9560, 42828.00
194.1780, 43887.00
195.4000, 45177.00
196.6220, 46515.00
197.8430, 47924.00
199.0640, 49172.00
200.2860, 50812.00
201.5070, 51971.00
202.7270, 53008.00
203.9480, 54203.00
205.1690, 54213.00
206.3890, 55565.00
207.6090, 55597.00
208.8290, 56315.00
210.0490, 56045.00
211.2690, 56038.00
212.4890, 55822.00
213.7080, 54937.00
214.9280, 54340.00
216.1470, 53204.00
217.3660, 52043.00
218.5850, 50881.00
219.8030, 49347.00
221.0220, 47748.00
222.2400, 46001.00
223.4590, 44538.00
224.6770, 42955.00
225.8950, 41075.00
227.1120, 39656.00
228.3300, 38168.00
229.5480, 36671.00
230.7650, 35494.00
231.9820, 34597.00
233.1990, 33415.00
234.4160, 32405.00
235.6330, 31929.00
236.8490, 31126.00
238.0660, 30702.00
239.2820, 30486.00
240.4980, 30531.00
241.7140, 30197.00
242.9300, 30190.00
244.1460, 30138.00
245.3610, 30315.00
246.5770, 30452.00
247.7920, 30914.00
249.0070, 31065.00
250.2220, 31304.00
251.4370, 31843.00
252.6510, 31789.00
253.8660, 31806.00
255.0800, 32066.00
256.2940, 32237.00
257.5080, 32518.00
258.7220, 32334.51
259.9360, 32297.70
261.1490, 31959.00
262.3630, 31898.00
263.5760, 31850.00
264.7890, 31717.00
266.0020, 31774.00
267.2150, 31728.00
268.4270, 31883.00
269.6400, 32085.62
270.8520, 32240.00
272.0640, 32721.00
273.2760, 32555.00
274.4880, 33022.00
275.7000, 32984.00
276.9120, 33309.00
278.1230, 33591.00
279.3340, 33849.00
280.5450, 34094.00
281.7560, 34471.00
282.9670, 34552.00
284.1780, 35010.00
285.3880, 35285.00
286.5980, 35385.00
287.8090, 35710.00
289.0190, 36023.00
290.2290, 36005.00
291.4380, 36438.00
292.6480, 36667.00
293.8570, 37103.00
295.0670, 37446.00
296.2760, 37751.00
297.4850, 38052.00
298.6930, 38215.00
299.9020, 38418.00
301.1110, 38701.00
302.3190, 38625.00
303.5270, 39061.00
304.7350, 39147.00
305.9430, 39308.00
307.1510, 39671.00
308.3580, 39576.00
309.5660, 40412.00
310.7730, 40465.00
311.9800, 40934.00
313.1870, 41463.00
314.3940, 42086.00
315.6010, 42641.00
316.8070, 43051.00
318.0130, 43438.00
319.2200, 43432.00
320.4260, 43250.00
321.6310, 43137.00
322.8370, 43017.00
324.0430, 42863.00
325.2480, 42792.00
326.4540, 42906.00
327.6590, 43044.00
328.8640, 43307.00
330.0680, 43875.00
331.2730, 44559.00
332.4780, 45141.00
333.6820, 46390.00
334.8860, 46674.00
336.0900, 46968.00
337.2940, 46695.00
338.4980, 46844.00
339.7010, 45905.00
340.9050, 45131.00
342.1080, 43393.00
343.3110, 42325.00
344.5140, 40507.00
345.7170, 39483.00
346.9200, 37983.00
348.1220, 36782.00
349.3240, 35604.00
350.5270, 34814.00
351.7290, 33946.00
352.9310, 33427.00
354.1320, 32853.00
355.3340, 32233.00
356.5350, 31889.00
357.7370, 31288.65
358.9380, 31041.00
360.1390, 30312.00
361.3400, 29955.00
362.5400, 29577.00
363.7410, 29195.00
364.9410, 28465.00
366.1410, 28045.00
367.3410, 27509.00
368.5410, 26885.00
369.7410, 26402.00
370.9400, 25954.00
372.1400, 25511.97
373.3390, 25291.00
374.5380, 24817.00
375.7370, 24554.00
376.9360, 24342.00
378.1350, 23986.00
379.3330, 23720.00
380.5310, 23512.00
381.7300, 23367.63
382.9280, 23305.47
384.1260, 23267.00
385.3230, 23307.00
386.5210, 23383.00
387.7180, 23397.00
388.9160, 23571.00
390.1130, 23480.00
391.3100, 23525.00
392.5060, 23676.00
393.7030, 23940.00
394.9000, 23922.92
396.0960, 23948.00
397.2920, 23950.00
398.4880, 23807.00
399.6840, 23697.00
400.8800, 23778.00
402.0750, 23526.00
403.2710, 23509.00
404.4660, 23264.00
405.6610, 23335.00
406.8560, 22842.00
408.0510, 22902.00
409.2450, 22785.00
410.4400, 22532.00
411.6340, 22322.00
412.8280, 22016.00
414.0220, 21775.00
415.2160, 21606.00
416.4100, 21274.00
417.6030, 21041.00
418.7970, 20775.00
419.9900, 20726.00
421.1830, 20248.00
422.3760, 20033.00
423.5690, 20059.00
424.7610, 19923.00
425.9540, 19330.00
427.1460, 18924.00
428.3380, 18862.00
429.5300, 18602.00
430.7220, 18244.00
431.9140, 18269.00
433.1050, 17997.00
434.2970, 17786.00
435.4880, 17589.00
436.6790, 17419.00
437.8700, 17376.00
439.0610, 17029.00
440.2510, 16965.00
441.4420, 16820.00
442.6320, 16587.00
443.8220, 16355.00
445.0120, 16080.00
446.2020, 15843.00
447.3910, 15775.00
448.5810, 15522.00
449.7700, 15293.00
450.9600, 15241.00
452.1490, 14967.00
453.3370, 14827.00
454.5260, 14443.00
455.7150, 14461.00
456.9030, 14215.00
458.0910, 14087.00
459.2800, 13873.00
460.4670, 13653.00
461.6550, 13566.00
462.8430, 13198.00
464.0300, 13282.00
465.2180, 12973.00
466.4050, 12848.00
467.5920, 12653.00
468.7790, 12669.00
469.9650, 12575.00
471.1520, 12513.00
472.3380, 12546.00
473.5250, 12506.00
474.7110, 12464.00
475.8970, 12350.00
477.0820, 12430.00
478.2680, 12448.00
479.4540, 12431.28
480.6390, 12496.00
481.8240, 12448.00
483.0090, 12467.00
484.1940, 12457.00
485.3780, 12535.00
486.5630, 12616.00
487.7470, 12635.00
488.9320, 12746.00
490.1160, 12720.00
491.3000, 12946.00
492.4830, 13097.00
493.6670, 13154.00
494.8500, 13070.00
496.0340, 13301.00
497.2170, 13338.00
498.4000, 13681.00
499.5820, 13760.00
500.7650, 14049.00
501.9480, 14185.00
503.1300, 14378.00
504.3120, 14655.00
505.4940, 15005.00
506.6760, 15297.00
507.8580, 15543.00
509.0390, 15846.00
510.2210, 16040.00
511.4020, 16276.00
512.5830, 16608.00
513.7640, 16894.00
514.9450, 17060.00
516.1250, 17462.00
517.3060, 17611.00
518.4860, 17878.00
519.6660, 18143.00
520.8460, 18163.00
522.0260, 18581.00
523.2060, 18725.00
524.3850, 19069.00
525.5650, 19451.00
526.7440, 19639.00
527.9230, 19847.00
529.1020, 20198.00
530.2810, 20507.00
531.4590, 21079.00
532.6380, 21491.00
533.8160, 22244.00
534.9940, 23312.00
536.1720, 24187.00
537.3500, 25131.00
538.5270, 26048.00
539.7050, 27325.00
540.8820, 28507.00
542.0590, 29961.00
543.2360, 31228.00
544.4130, 32486.00
545.5900, 33743.00
546.7660, 35364.00
547.9430, 36738.00
549.1190, 38751.00
550.2950, 40416.00
551.4710, 42296.00
552.6470, 44272.00
553.8220, 46210.00
554.9980, 48114.00
556.1730, 49228.00
557.3480, 50646.00
558.5230, 51118.00
559.6980, 51311.00
560.8730, 52018.00
562.0470, 52592.27
563.2220, 53129.00
564.3960, 54062.00
565.5700, 54882.00
566.7440, 55690.00
567.9170, 56241.00
569.0910, 56531.00
570.2640, 55173.00
571.4380, 53620.00
572.6110, 51113.00
573.7840, 48369.00
574.9570, 44615.00
576.1290, 41458.00
577.3020, 38153.00
578.4740, 34785.00
579.6460, 32095.00
580.8180, 29573.00
581.9900, 27617.00
583.1620, 25764.40
584.3330, 24300.00
585.5040, 23097.00
586.6760, 22189.00
587.8470, 21628.00
589.0180, 21193.00
590.1880, 20923.00
591.3590, 20900.00
592.5290, 20944.06
593.7000, 21332.00
594.8700, 21568.00
596.0400, 22117.00
597.2090, 22806.00
598.3790, 23312.00
599.5490, 24081.00
600.7180, 24694.00
601.8870, 25177.00
603.0560, 25874.00
604.2250, 26033.00
605.3940, 26208.00
606.5620, 26390.00
607.7300, 26210.00
608.8990, 25968.00
610.0670, 25568.00
611.2350, 24925.00
612.4020, 24744.00
613.5700, 24073.00
614.7370, 23409.00
615.9050, 23146.00
617.0720, 22372.00
618.2390, 22197.00
619.4060, 22173.00
620.5720, 21927.00
621.7390, 22119.00
622.9050, 22311.00
624.0710, 22557.00
625.2370, 22592.00
626.4030, 22815.00
627.5690, 22739.00
628.7340, 22984.00
629.9000, 22939.00
631.0650, 22790.00
632.2300, 22733.00
633.3950, 22613.00
634.5600, 22346.00
635.7240, 22209.00
636.8890, 21892.00
638.0530, 21768.00
639.2170, 21827.00
640.3810, 21584.00
641.5450, 21410.00
642.7080, 21497.00
643.8720, 21475.00
645.0350, 21534.00
646.1980, 21499.00
647.3610, 21642.00
648.5240, 21804.00
649.6870, 22106.00
650.8490, 22591.00
652.0120, 22690.00
653.1740, 23235.00
654.3360, 23769.00
655.4980, 24116.00
656.6600, 24562.00
657.8210, 25160.00
658.9830, 25501.00
660.1440, 26153.00
661.3050, 26960.00
662.4660, 27704.00
663.6270, 28026.00
664.7870, 28651.00
665.9480, 29417.00
667.1080, 29689.00
668.2680, 30478.00
669.4280, 31167.00
670.5880, 31627.00
671.7480, 32474.00
672.9070, 33204.00
674.0670, 33927.00
675.2260, 34571.30
676.3850, 35051.00
677.5440, 35670.00
678.7030, 36259.00
679.8610, 36626.00
681.0200, 37383.00
682.1780, 38145.00
683.3360, 38575.00
684.4940, 39048.00
685.6520, 39763.00
686.8090, 40523.00
687.9670, 40924.00
689.1240, 41121.00
690.2810, 42091.00
691.4380, 42483.00
692.5950, 42761.00
693.7520, 43752.00
694.9080, 44280.00
696.0650, 44838.00
697.2210, 45662.00
698.3770, 46049.00
699.5330, 46382.00
700.6880, 46930.00
701.8440, 46624.00
702.9990, 46835.00
704.1550, 46416.00
705.3100, 45433.00
706.4650, 44337.00
707.6190, 43225.00
708.7740, 41842.00
709.9290, 40364.00
711.0830, 38699.00
712.2370, 36990.00
713.3910, 35698.00
714.5450, 34393.00
715.6980, 33231.00
716.8520, 32080.00
718.0050, 31410.00
719.1580, 30846.00
720.3110, 30578.00
721.4640, 30252.00
722.6170, 30282.00
723.7700, 30323.00
724.9220, 30195.00
726.0740, 30953.00
727.2260, 31304.00
728.3780, 31638.00
729.5300, 32428.00
730.6810, 33115.00
731.8330, 33555.00
732.9840, 33979.00
734.1350, 34685.84
735.2860, 35605.00
736.4370, 35938.00
737.5880, 36597.00
738.7380, 37111.00
739.8880, 37547.00
741.0390, 37850.00
742.1890, 37958.00
743.3380, 37971.36
744.4880, 37833.45
745.6380, 37574.00
746.7870, 37197.00
747.9360, 36726.00
749.0850, 36312.80
750.2340, 35685.00
751.3830, 35280.00
752.5310, 34717.10
753.6800, 34089.00
754.8280, 33692.00
755.9760, 33095.00
757.1240, 32613.00
758.2720, 32358.00
759.4190, 31783.00
760.5670, 31420.00
761.7140, 31077.00
762.8610, 30486.00
764.0080, 30335.00
765.1550, 29668.00
766.3020, 29498.00
767.4480, 28766.00
768.5950, 28398.00
769.7410, 27781.00
770.8870, 27296.00
772.0330, 26722.00
773.1780, 26257.00
774.3240, 25775.00
775.4690, 25496.00
776.6140, 24911.00
777.7590, 24585.00
778.9040, 24133.00
780.0490, 23734.00
781.1940, 23418.00
782.3380, 23112.00
783.4820, 22756.00
784.6260, 22350.74
785.7700, 21922.67
786.9140, 21459.00
788.0580, 20932.00
789.2010, 20423.00
790.3450, 19825.00
791.4880, 19180.00
792.6310, 18680.00
793.7730, 18364.00
794.9160, 17716.00
796.0590, 17427.00
797.2010, 16986.00
798.3430, 16650.00
799.4850, 16221.00
800.6270, 15989.00
801.7690, 15623.00
802.9100, 15472.00
804.0520, 15120.00
805.1930, 14999.00
806.3340, 14810.00
807.4750, 14662.00
808.6160, 14524.10
809.7560, 14358.24
810.8970, 14254.00
812.0370, 14097.00
813.1770, 13977.00
814.3170, 13935.00
815.4570, 13747.00
816.5960, 13568.00
817.7360, 13665.00
818.8750, 13504.00
820.0140, 13589.00
821.1530, 13519.00
822.2920, 13358.00
823.4310, 13117.00
824.5690, 13166.00
825.7070, 12926.00
826.8460, 12985.00
827.9840, 12788.00
829.1220, 12619.00
830.2590, 12612.00
831.3970, 12438.00
832.5340, 12426.00
833.6710, 12305.54
834.8080, 12243.81
835.9450, 12147.00
837.0820, 12135.00
838.2190, 12193.00
839.3550, 12147.00
840.4910, 12115.00
841.6270, 12071.00
842.7630, 11933.00
843.8990, 12004.00
845.0350, 11907.00
846.1700, 11925.00
847.3060, 11823.00
848.4410, 11782.00
849.5760, 11823.00
850.7100, 11742.00
851.8450, 11858.00
852.9800, 11791.00
854.1140, 11756.00
855.2480, 11748.00
856.3820, 11806.00
857.5160, 11750.00
858.6500, 11859.00
859.7830, 11874.00
860.9170, 11851.00
862.0500, 11873.00
863.1830, 12026.00
864.3160, 12110.00
865.4480, 12187.00
866.5810, 12185.00
867.7130, 12280.00
868.8460, 12349.00
869.9780, 12336.00
871.1100, 12610.00
872.2410, 12411.00
873.3730, 12682.00
874.5050, 12601.00
875.6360, 12715.00
876.7670, 12772.00
877.8980, 12971.00
879.0290, 12826.00
880.1590, 13000.00
881.2900, 13163.00
882.4200, 13054.00
883.5500, 13399.00
884.6800, 13376.00
885.8100, 13489.00
886.9400, 13790.00
888.0690, 13858.00
889.1990, 14089.00
890.3280, 14453.00
891.4570, 14646.00
892.5860, 15013.00
893.7140, 15330.00
894.8430, 15658.00
895.9710, 16006.00
897.1000, 16255.00
898.2280, 16746.00
899.3560, 17220.00
900.4830, 17406.00
901.6110, 17711.00
902.7380, 18173.00
903.8660, 18602.00
904.9930, 18829.00
906.1200, 19543.00
907.2460, 19749.00
908.3730, 20227.00
909.5000, 20824.00
910.6260, 21308.00
911.7520, 21659.00
912.8780, 22394.00
914.0040, 23132.00
915.1290, 23509.00
916.2550, 24337.00
917.3800, 25065.00
918.5050, 25746.00
919.6300, 26377.00
920.7550, 26986.00
921.8800, 27715.00
923.0040, 28258.00
924.1290, 28265.00
925.2530, 28809.00
926.3770, 29289.00
927.5010, 29094.00
928.6250, 29245.00
929.7480, 29284.00
930.8720, 28976.00
931.9950, 28716.00
933.1180, 28420.00
934.2410, 27927.00
935.3640, 27633.00
936.4860, 27269.00
937.6090, 26921.00
938.7310, 26196.00
939.8530, 26088.00
940.9750, 25668.00
942.0970, 25561.00
943.2180, 25248.00
944.3400, 25193.00
945.4610, 25035.00
946.5820, 24846.00
947.7030, 24484.00
948.8240, 24591.00
949.9450, 24355.00
951.0650, 24462.00
952.1860, 24318.00
953.3060, 24187.00
954.4260, 23990.00
955.5460, 23717.00
956.6650, 23885.00
957.7850, 23865.00
958.9040, 23524.00
960.0230, 23289.00
961.1420, 23258.00
962.2610, 23203.00
963.3800, 23036.00
964.4990, 22897.00
965.6170, 22947.00
966.7350, 23136.00
967.8530, 22820.00
968.9710, 22919.00
970.0890, 22879.00
971.2070, 23323.00
972.3240, 23285.00
973.4410, 23545.00
974.5580, 23751.00
975.6750, 23902.46
976.7920, 23973.00
977.9090, 24338.00
979.0250, 24642.00
980.1410, 24870.00
981.2580, 25366.00
982.3740, 25707.00
983.4890, 26174.00
984.6050, 26427.00
985.7200, 26863.00
986.8360, 27169.00
987.9510, 27479.00
989.0660, 27956.00
990.1810, 28097.00
991.2950, 28360.00
992.4100, 28674.00
993.5240, 29004.00
994.6390, 29165.00
995.7530, 29316.43
996.8660, 29221.00
997.9800, 29414.00
999.0940, 29451.00
1000.207, 29399.00
1001.320, 29504.00
1002.433, 29419.00
1003.546, 29217.00
1004.659, 29121.00
1005.772, 28999.18
1006.884, 28846.00
1007.996, 28794.00
1009.108, 28608.00
1010.220, 28537.00
1011.332, 28289.00
1012.444, 28187.00
1013.555, 28298.00
1014.666, 27991.00
1015.777, 28087.00
1016.888, 28290.00
1017.999, 28231.00
1019.110, 28236.00
1020.220, 28302.00
1021.331, 28294.00
1022.441, 28335.00
1023.551, 28505.00
1024.661, 28608.00
1025.770, 28691.00
1026.880, 28897.00
1027.989, 28756.00
1029.098, 29039.00
1030.207, 28961.00
1031.316, 29387.00
1032.425, 29404.00
1033.533, 29558.00
1034.642, 29827.00
1035.750, 29987.00
1036.858, 30399.00
1037.966, 30486.00
1039.073, 30804.00
1040.181, 31047.00
1041.288, 31211.00
1042.396, 31668.00
1043.503, 31973.00
1044.610, 32371.00
1045.716, 32572.00
1046.823, 33053.00
1047.929, 33535.00
1049.036, 33989.22
1050.142, 34643.49
1051.248, 35151.00
1052.353, 35938.00
1053.459, 36695.00
1054.564, 37269.00
1055.670, 38312.00
1056.775, 39382.00
1057.880, 40697.00
1058.985, 42028.00
1060.089, 43661.00
1061.194, 45480.00
1062.298, 47299.00
1063.402, 48523.00
1064.506, 50084.00
1065.610, 50928.00
1066.713, 51702.00
1067.817, 51812.00
1068.920, 51728.00
1070.023, 51266.00
1071.126, 50861.00
1072.229, 50761.00
1073.332, 50566.00
1074.435, 51109.00
1075.537, 51462.00
1076.639, 52639.00
1077.741, 53309.00
1078.843, 54111.00
1079.945, 55263.00
1081.046, 55492.00
1082.148, 56674.00
1083.249, 57314.00
1084.350, 57857.00
1085.451, 58783.00
1086.551, 58769.00
1087.652, 58851.00
1088.752, 59278.00
1089.853, 59212.00
1090.953, 59255.70
1092.053, 59058.00
1093.152, 58968.00
1094.252, 58559.00
1095.351, 58080.00
1096.451, 57429.00
1097.550, 56291.00
1098.649, 55036.00
1099.748, 54687.00
1100.846, 53174.00
1101.945, 52498.00
1103.043, 51638.00
1104.141, 51195.00
1105.239, 50184.00
1106.337, 49449.00
1107.434, 48744.00
1108.532, 47861.00
1109.629, 47485.00
1110.726, 46739.00
1111.823, 46208.00
1112.920, 45846.00
1114.017, 45008.00
1115.113, 44541.00
1116.210, 44088.00
1117.306, 43731.00
1118.402, 43270.00
1119.498, 43181.00
1120.593, 42945.00
1121.689, 42789.00
1122.784, 42441.00
1123.879, 42679.00
1124.974, 42754.00
1126.069, 42422.00
1127.164, 42504.00
1128.259, 42442.00
1129.353, 41746.00
1130.447, 41425.00
1131.541, 40905.00
1132.635, 40066.00
1133.729, 39069.00
1134.822, 38059.00
1135.916, 36792.00
1137.009, 35583.00
1138.102, 34414.00
1139.195, 33128.00
1140.288, 32097.00
1141.380, 30954.00
1142.473, 30051.00
1143.565, 29610.00
1144.657, 29246.00
1145.749, 28417.00
1146.841, 28347.00
1147.932, 28229.00
1149.024, 28152.00
1150.115, 28224.00
1151.206, 28411.00
1152.297, 28666.00
1153.388, 29100.00
1154.479, 29904.00
1155.569, 30162.00
1156.659, 30943.00
1157.750, 31531.00
1158.839, 32095.00
1159.929, 33104.00
1161.019, 33728.00
1162.108, 34543.00
1163.198, 35347.00
1164.287, 36209.00
1165.376, 36757.00
1166.465, 37829.00
1167.553, 38347.00
1168.642, 38928.00
1169.730, 39282.00
1170.818, 39453.00
1171.906, 39779.00
1172.994, 39449.00
1174.082, 39314.00
1175.170, 38756.00
1176.257, 38448.00
1177.344, 37947.00
1178.431, 37315.00
1179.518, 36727.00
1180.605, 36081.00
1181.691, 35386.00
1182.778, 34666.00
1183.864, 34089.00
1184.950, 33683.00
1186.036, 33003.00
1187.122, 32651.00
1188.207, 31978.00
1189.292, 31592.00
1190.378, 31082.00
1191.463, 30568.00
1192.548, 30195.08
1193.632, 30048.00
1194.717, 29467.00
1195.801, 29069.00
1196.886, 28852.00
1197.970, 28351.00
1199.054, 27714.00
1200.137, 27389.00
1201.221, 26846.00
1202.305, 26573.00
1203.388, 26138.00
1204.471, 25755.00
1205.554, 25267.00
1206.637, 24919.00
1207.719, 24651.00
1208.802, 24532.00
1209.884, 24275.00
1210.966, 24213.00
1212.048, 24115.00
1213.130, 23919.00
1214.212, 23970.00
1215.293, 24211.00
1216.374, 24332.00
1217.456, 24356.00
1218.536, 24486.00
1219.617, 24855.00
1220.698, 25325.00
1221.778, 25524.00
1222.859, 25896.00
1223.939, 26264.00
1225.019, 26590.00
1226.099, 27102.00
1227.178, 27384.00
1228.258, 27545.00
1229.337, 28046.00
1230.417, 28134.00
1231.496, 28230.00
1232.574, 28451.00
1233.653, 28489.00
1234.732, 28425.00
1235.810, 28599.00
1236.888, 28230.00
1237.966, 28349.00
1239.044, 27961.00
1240.122, 27655.00
1241.199, 27552.00
1242.277, 27205.00
1243.354, 26823.00
1244.431, 26536.17
1245.508, 26209.00
1246.585, 25748.00
1247.661, 25402.00
1248.738, 24922.00
1249.814, 24879.00
1250.890, 24537.00
1251.966, 24517.00
1253.042, 24302.00
1254.117, 24287.00
1255.193, 24103.00
1256.268, 24263.00
1257.343, 24182.00
1258.418, 24371.00
1259.493, 24591.00
1260.567, 24451.00
1261.642, 24436.00
1262.716, 24283.00
1263.790, 24477.00
1264.864, 24488.00
1265.938, 24368.00
1267.011, 24016.00
1268.085, 23992.00
1269.158, 23362.00
1270.231, 23238.00
1271.304, 22897.00
1272.377, 22611.00
1273.450, 22444.00
1274.522, 21949.00
1275.594, 21857.00
1276.666, 21315.00
1277.738, 20962.00
1278.810, 20792.00
1279.882, 20420.00
1280.953, 20148.00
1282.025, 19889.65
