##NAMES=Eudialyte
##RRUFFID=R050230
##IDEAL CHEMISTRY=Na_15_Ca_6_Fe^2+^_3_Zr^4+^_3_Si(Si_25_O_73_)(O,OH,H_2_O)_3_(Cl,OH)_2_
##LOCALITY=Kipawa alkaline complex, near Sheffield Lake, Villedieu Township, Temiscamingue County, Quebec, Canada
##OWNER=RRUFF
##SOURCE=Marcus Origlieri
##DESCRIPTION=Massive aggregate of red crystals
##STATUS=The identification of this mineral has been confirmed by X-ray diffraction and chemical analysis
##URL=rruff.info/R050230
##MEASURED CHEMISTRY=(Na_14.50_K_0.35_Ca_0.15_)_Σ=15_Ca_6.00_(Fe_1.86_Mn_1.01_Mg_0.13_)_Σ=3_(Zr_2.91_Ti_0.09_)_3_(Si_0.94_Nb_0.06_)_Σ=1.00_(Si_25.00_O_73_)(OH)_1.10_(H_2_O)_1.90_)_Σ=3_(Cl_1.17_(OH)_0.83_)_Σ=2_
##PIN_ID=M00176
##ORIENTATION=Laser parallel to a* (1 0 0). Fiducial mark perpendicular to laser is parallel to c [0 0 1]
118.1340, 22697.00
119.3650, 22530.00
120.5960, 22631.00
121.8270, 22724.00
123.0580, 22606.00
124.2880, 22823.00
125.5190, 22764.00
126.7490, 22971.00
127.9790, 23116.00
129.2090, 23355.00
130.4390, 23712.00
131.6680, 24002.00
132.8980, 24312.00
134.1270, 24346.00
135.3560, 24656.00
136.5850, 24993.00
137.8140, 25604.00
139.0430, 25688.00
140.2710, 25865.00
141.5000, 25740.00
142.7280, 25719.00
143.9560, 25872.00
145.1840, 25950.00
146.4120, 25740.00
147.6390, 25569.00
148.8670, 25484.00
150.0940, 25384.00
151.3210, 25248.38
152.5490, 25118.67
153.7750, 24998.00
155.0020, 24786.00
156.2290, 24626.00
157.4550, 24396.00
158.6810, 24578.00
159.9080, 24604.00
161.1340, 24472.00
162.3590, 24803.00
163.5850, 24538.00
164.8110, 24459.00
166.0360, 24451.00
167.2610, 24496.00
168.4860, 24275.00
169.7110, 24093.00
170.9360, 24042.00
172.1610, 23682.00
173.3850, 23835.00
174.6100, 23642.00
175.8340, 23488.00
177.0580, 23702.00
178.2820, 23626.00
179.5050, 23672.00
180.7290, 23511.00
181.9520, 23829.00
183.1760, 24153.00
184.3990, 24222.00
185.6220, 24539.00
186.8450, 25028.00
188.0670, 25263.00
189.2900, 25455.00
190.5120, 26013.00
191.7340, 26008.00
192.9560, 26497.00
194.1780, 26760.00
195.4000, 27149.00
196.6220, 27270.00
197.8430, 27399.00
199.0640, 27818.00
200.2860, 28238.00
201.5070, 28323.00
202.7270, 28500.00
203.9480, 28770.00
205.1690, 28734.00
206.3890, 28988.00
207.6090, 29137.00
208.8290, 29097.00
210.0490, 29293.00
211.2690, 29301.00
212.4890, 29286.00
213.7080, 29065.00
214.9280, 28788.00
216.1470, 28500.00
217.3660, 28045.00
218.5850, 27846.00
219.8030, 27206.00
221.0220, 27098.00
222.2400, 26789.00
223.4590, 26435.00
224.6770, 25836.00
225.8950, 25663.00
227.1120, 25362.00
228.3300, 24710.00
229.5480, 24305.00
230.7650, 23701.00
231.9820, 23442.00
233.1990, 23275.00
234.4160, 23000.00
235.6330, 22647.00
236.8490, 22735.00
238.0660, 22354.00
239.2820, 22488.00
240.4980, 22140.00
241.7140, 22198.00
242.9300, 22286.00
244.1460, 22432.00
245.3610, 22443.00
246.5770, 22556.00
247.7920, 22576.00
249.0070, 22766.00
250.2220, 22977.00
251.4370, 23002.00
252.6510, 23180.00
253.8660, 23188.00
255.0800, 23328.00
256.2940, 23474.00
257.5080, 23945.00
258.7220, 23856.67
259.9360, 24375.00
261.1490, 23911.00
262.3630, 23677.00
263.5760, 23782.00
264.7890, 24130.00
266.0020, 24076.00
267.2150, 24416.00
268.4270, 24410.00
269.6400, 24548.00
270.8520, 24730.00
272.0640, 24976.00
273.2760, 25235.00
274.4880, 25499.00
275.7000, 25807.12
276.9120, 25857.00
278.1230, 26417.00
279.3340, 26546.00
280.5450, 26768.00
281.7560, 27181.00
282.9670, 27051.00
284.1780, 27444.00
285.3880, 27806.00
286.5980, 27776.00
287.8090, 27721.00
289.0190, 28242.00
290.2290, 27996.00
291.4380, 28320.00
292.6480, 28168.00
293.8570, 28522.00
295.0670, 28420.00
296.2760, 28793.00
297.4850, 28613.00
298.6930, 28752.00
299.9020, 28726.00
301.1110, 28641.00
302.3190, 28872.00
303.5270, 28866.00
304.7350, 28982.00
305.9430, 29253.00
307.1510, 29140.00
308.3580, 29011.00
309.5660, 29195.00
310.7730, 29467.00
311.9800, 29326.00
313.1870, 29705.00
314.3940, 29589.00
315.6010, 29639.00
316.8070, 29750.00
318.0130, 29891.00
319.2200, 29856.00
320.4260, 29935.00
321.6310, 30191.00
322.8370, 30139.00
324.0430, 30221.00
325.2480, 30137.00
326.4540, 30578.00
327.6590, 30497.00
328.8640, 30730.00
330.0680, 31222.00
331.2730, 31173.00
332.4780, 31576.00
333.6820, 31822.00
334.8860, 32162.00
336.0900, 32743.00
337.2940, 33085.00
338.4980, 33265.00
339.7010, 33192.00
340.9050, 33052.00
342.1080, 32862.00
343.3110, 32613.00
344.5140, 32097.00
345.7170, 31668.00
346.9200, 31203.00
348.1220, 30417.00
349.3240, 30019.00
350.5270, 29465.00
351.7290, 28811.00
352.9310, 28314.00
354.1320, 27889.00
355.3340, 27535.00
356.5350, 26935.00
357.7370, 26544.00
358.9380, 26115.00
360.1390, 25677.00
361.3400, 25469.00
362.5400, 25075.00
363.7410, 24615.00
364.9410, 24183.00
366.1410, 23691.00
367.3410, 23723.00
368.5410, 23192.00
369.7410, 22952.00
370.9400, 22455.00
372.1400, 22214.00
373.3390, 22125.00
374.5380, 21709.00
375.7370, 21517.00
376.9360, 21135.00
378.1350, 21114.00
379.3330, 20937.00
380.5310, 20839.00
381.7300, 20793.00
382.9280, 20801.00
384.1260, 20642.00
385.3230, 20875.00
386.5210, 20811.00
387.7180, 20952.00
388.9160, 20883.00
390.1130, 21190.00
391.3100, 21067.00
392.5060, 21389.00
393.7030, 21394.00
394.9000, 21497.00
396.0960, 21623.00
397.2920, 21824.00
398.4880, 22042.00
399.6840, 21906.00
400.8800, 22233.00
402.0750, 22130.00
403.2710, 22201.00
404.4660, 22182.00
405.6610, 22354.00
406.8560, 22402.00
408.0510, 22274.00
409.2450, 21988.00
410.4400, 21966.00
411.6340, 21877.00
412.8280, 22003.00
414.0220, 21731.00
415.2160, 21639.00
416.4100, 21457.00
417.6030, 21140.00
418.7970, 21013.00
419.9900, 20920.00
421.1830, 20652.00
422.3760, 20626.00
423.5690, 20323.00
424.7610, 19930.00
425.9540, 19979.00
427.1460, 19736.00
428.3380, 19584.00
429.5300, 19169.00
430.7220, 19165.00
431.9140, 18959.00
433.1050, 18819.00
434.2970, 18569.00
435.4880, 18367.00
436.6790, 18219.80
437.8700, 18104.00
439.0610, 17921.00
440.2510, 17858.00
441.4420, 17732.00
442.6320, 17358.00
443.8220, 17281.00
445.0120, 17092.00
446.2020, 16958.00
447.3910, 16938.00
448.5810, 16702.00
449.7700, 16811.00
450.9600, 16574.00
452.1490, 16529.00
453.3370, 16355.00
454.5260, 16292.00
455.7150, 16238.00
456.9030, 16105.00
458.0910, 15963.00
459.2800, 15936.00
460.4670, 15832.07
461.6550, 15759.00
462.8430, 15748.00
464.0300, 15736.00
465.2180, 15665.92
466.4050, 15621.00
467.5920, 15550.00
468.7790, 15506.00
469.9650, 15446.00
471.1520, 15463.00
472.3380, 15365.00
473.5250, 15365.00
474.7110, 15313.00
475.8970, 15242.00
477.0820, 15199.00
478.2680, 15215.00
479.4540, 15391.00
480.6390, 15290.00
481.8240, 15358.00
483.0090, 15370.00
484.1940, 15371.00
485.3780, 15700.00
486.5630, 15526.00
487.7470, 15659.00
488.9320, 15765.00
490.1160, 15695.00
491.3000, 15942.00
492.4830, 16037.00
493.6670, 16277.00
494.8500, 16412.00
496.0340, 16737.00
497.2170, 16885.00
498.4000, 17130.00
499.5820, 17235.00
500.7650, 17542.00
501.9480, 17572.00
503.1300, 17907.00
504.3120, 17789.00
505.4940, 18153.00
506.6760, 18372.00
507.8580, 18429.00
509.0390, 18494.00
510.2210, 18576.84
511.4020, 18564.00
512.5830, 18624.00
513.7640, 18560.00
514.9450, 18526.00
516.1250, 18508.47
517.3060, 18478.13
518.4860, 18507.00
519.6660, 18460.00
520.8460, 18635.00
522.0260, 18662.00
523.2060, 18669.00
524.3850, 18641.00
525.5650, 18711.00
526.7440, 18743.21
527.9230, 18799.00
529.1020, 18886.00
530.2810, 18953.00
531.4590, 19054.40
532.6380, 19202.54
533.8160, 19358.00
534.9940, 19578.00
536.1720, 19798.00
537.3500, 20090.00
538.5270, 20444.00
539.7050, 20601.00
540.8820, 21020.00
542.0590, 21535.00
543.2360, 21735.00
544.4130, 22385.00
545.5900, 22851.00
546.7660, 23512.00
547.9430, 24246.00
549.1190, 24735.00
550.2950, 25661.00
551.4710, 26553.00
552.6470, 27148.00
553.8220, 27859.00
554.9980, 28842.00
556.1730, 29621.00
557.3480, 30365.00
558.5230, 31189.74
559.6980, 32183.00
560.8730, 32603.00
562.0470, 33262.00
563.2220, 33777.00
564.3960, 34129.00
565.5700, 34632.00
566.7440, 34751.00
567.9170, 35005.00
569.0910, 35110.00
570.2640, 34866.00
571.4380, 34288.00
572.6110, 33318.00
573.7840, 32057.00
574.9570, 30554.00
576.1290, 29042.00
577.3020, 27725.00
578.4740, 26177.00
579.6460, 24964.00
580.8180, 23894.00
581.9900, 23047.00
583.1620, 22138.00
584.3330, 21554.00
585.5040, 21020.33
586.6760, 21635.00
587.8470, 20594.00
589.0180, 20392.00
590.1880, 20937.00
591.3590, 20251.00
592.5290, 20494.00
593.7000, 20587.00
594.8700, 20805.00
596.0400, 21299.00
597.2090, 21405.00
598.3790, 21883.00
599.5490, 21986.00
600.7180, 22400.00
601.8870, 22605.14
603.0560, 22869.00
604.2250, 22960.00
605.3940, 23147.00
606.5620, 23191.00
607.7300, 23060.00
608.8990, 23025.00
610.0670, 22745.00
611.2350, 22455.00
612.4020, 22047.00
613.5700, 21779.84
614.7370, 21375.00
615.9050, 21152.00
617.0720, 20880.00
618.2390, 20558.00
619.4060, 20429.00
620.5720, 20109.00
621.7390, 20059.00
622.9050, 19986.00
624.0710, 19777.00
625.2370, 19798.00
626.4030, 19841.00
627.5690, 20041.00
628.7340, 20003.00
629.9000, 19946.00
631.0650, 19862.00
632.2300, 19765.00
633.3950, 19800.00
634.5600, 19712.00
635.7240, 19626.00
636.8890, 19483.00
638.0530, 19466.00
639.2170, 19452.00
640.3810, 19627.00
641.5450, 19579.00
642.7080, 19556.00
643.8720, 19460.00
645.0350, 19678.00
646.1980, 19637.00
647.3610, 19861.00
648.5240, 19940.00
649.6870, 20122.00
650.8490, 20420.00
652.0120, 20476.00
653.1740, 20608.00
654.3360, 20794.00
655.4980, 21243.00
656.6600, 21379.00
657.8210, 21735.00
658.9830, 21928.00
660.1440, 22083.00
661.3050, 22372.00
662.4660, 22589.00
663.6270, 22986.73
664.7870, 23324.51
665.9480, 23819.00
667.1080, 24121.00
668.2680, 24469.00
669.4280, 24873.00
670.5880, 25170.00
671.7480, 25587.00
672.9070, 25980.55
674.0670, 26352.49
675.2260, 26736.46
676.3850, 27131.00
677.5440, 27462.00
678.7030, 27810.00
679.8610, 28153.25
681.0200, 28581.00
682.1780, 28812.00
683.3360, 29205.00
684.4940, 29474.00
685.6520, 29971.00
686.8090, 30271.00
687.9670, 30680.00
689.1240, 31088.82
690.2810, 31298.00
691.4380, 31862.00
692.5950, 32226.00
693.7520, 32564.00
694.9080, 32833.00
696.0650, 33126.00
697.2210, 33599.00
698.3770, 33767.00
699.5330, 34064.00
700.6880, 34181.00
701.8440, 34317.00
702.9990, 34163.00
704.1550, 33998.00
705.3100, 33698.00
706.4650, 33215.00
707.6190, 32649.00
708.7740, 31963.86
709.9290, 31298.68
711.0830, 30357.00
712.2370, 29729.00
713.3910, 28936.00
714.5450, 27996.00
715.6980, 27262.00
716.8520, 26898.00
718.0050, 26255.00
719.1580, 26001.00
720.3110, 25746.00
721.4640, 25370.00
722.6170, 25580.00
723.7700, 25560.00
724.9220, 25505.00
726.0740, 25569.00
727.2260, 25879.00
728.3780, 25857.00
729.5300, 25975.00
730.6810, 26405.00
731.8330, 26583.00
732.9840, 27094.00
734.1350, 27389.00
735.2860, 27809.00
736.4370, 28060.07
737.5880, 28214.00
738.7380, 28438.00
739.8880, 28504.00
741.0390, 28548.00
742.1890, 28628.46
743.3380, 28671.45
744.4880, 28653.00
745.6380, 28760.00
746.7870, 28740.00
747.9360, 28758.00
749.0850, 28287.00
750.2340, 28141.00
751.3830, 27805.00
752.5310, 27354.00
753.6800, 27250.00
754.8280, 26990.00
755.9760, 26723.00
757.1240, 26505.00
758.2720, 26307.00
759.4190, 25983.00
760.5670, 25911.00
761.7140, 25667.00
762.8610, 25467.00
764.0080, 25192.00
765.1550, 25020.00
766.3020, 24807.00
767.4480, 24541.00
768.5950, 24497.00
769.7410, 23997.00
770.8870, 23748.00
772.0330, 23508.00
773.1780, 22856.00
774.3240, 22848.00
775.4690, 22539.00
776.6140, 22482.00
777.7590, 22176.00
778.9040, 22038.00
780.0490, 21662.00
781.1940, 21648.00
782.3380, 21363.26
783.4820, 21091.00
784.6260, 20792.00
785.7700, 20845.00
786.9140, 20295.00
788.0580, 20341.00
789.2010, 19991.00
790.3450, 19848.00
791.4880, 19717.00
792.6310, 19229.00
793.7730, 19139.00
794.9160, 18926.00
796.0590, 18793.00
797.2010, 18661.00
798.3430, 18493.00
799.4850, 18317.00
800.6270, 18316.00
801.7690, 17985.00
802.9100, 18054.00
804.0520, 17891.00
805.1930, 17693.00
806.3340, 17664.00
807.4750, 17540.00
808.6160, 17466.00
809.7560, 17357.00
810.8970, 17458.00
812.0370, 17355.00
813.1770, 17281.00
814.3170, 17227.00
815.4570, 17010.00
816.5960, 16868.00
817.7360, 16903.00
818.8750, 16925.00
820.0140, 16892.00
821.1530, 16789.00
822.2920, 16760.32
823.4310, 16691.83
824.5690, 16635.00
825.7070, 16588.00
826.8460, 16569.00
827.9840, 16555.00
829.1220, 16599.00
830.2590, 16529.00
831.3970, 16767.00
832.5340, 16425.00
833.6710, 16612.00
834.8080, 16435.00
835.9450, 16647.00
837.0820, 16283.00
838.2190, 16437.00
839.3550, 16317.00
840.4910, 16416.00
841.6270, 16500.00
842.7630, 16498.00
843.8990, 16587.32
845.0350, 16562.00
846.1700, 16661.00
847.3060, 16550.00
848.4410, 16503.00
849.5760, 16707.00
850.7100, 16546.00
851.8450, 16595.00
852.9800, 16629.00
854.1140, 16690.00
855.2480, 16805.00
856.3820, 17012.00
857.5160, 16902.00
858.6500, 16983.00
859.7830, 17305.00
860.9170, 17057.00
862.0500, 17108.00
863.1830, 17403.00
864.3160, 17339.00
865.4480, 17652.00
866.5810, 17797.00
867.7130, 17736.00
868.8460, 17822.00
869.9780, 18024.00
871.1100, 18177.00
872.2410, 18174.00
873.3730, 18280.00
874.5050, 18348.00
875.6360, 18522.00
876.7670, 18568.00
877.8980, 18671.00
879.0290, 18856.00
880.1590, 18902.00
881.2900, 19080.00
882.4200, 19238.00
883.5500, 19304.00
884.6800, 19458.00
885.8100, 19641.00
886.9400, 19817.57
888.0690, 20055.01
889.1990, 20260.00
890.3280, 20497.00
891.4570, 20727.00
892.5860, 20815.00
893.7140, 21194.00
894.8430, 21514.00
895.9710, 21901.00
897.1000, 22310.00
898.2280, 22472.00
899.3560, 22748.00
900.4830, 23144.00
901.6110, 23601.00
902.7380, 24142.00
903.8660, 24308.00
904.9930, 24500.00
906.1200, 24804.00
907.2460, 25266.00
908.3730, 25437.00
909.5000, 25759.00
910.6260, 26132.00
911.7520, 26259.00
912.8780, 26680.00
914.0040, 27172.00
915.1290, 27924.00
916.2550, 28122.00
917.3800, 28565.00
918.5050, 28984.00
919.6300, 29163.00
920.7550, 29813.00
921.8800, 30429.00
923.0040, 30638.00
924.1290, 31132.00
925.2530, 31406.00
926.3770, 31840.00
927.5010, 31997.00
928.6250, 32322.00
929.7480, 32440.00
930.8720, 32263.00
931.9950, 32282.00
933.1180, 32377.00
934.2410, 32423.00
935.3640, 32347.00
936.4860, 32349.00
937.6090, 32046.00
938.7310, 32269.00
939.8530, 32332.00
940.9750, 32255.00
942.0970, 32687.00
943.2180, 32626.00
944.3400, 33057.00
945.4610, 33142.00
946.5820, 33423.00
947.7030, 34010.00
948.8240, 33882.00
949.9450, 34265.00
951.0650, 34361.00
952.1860, 34320.00
953.3060, 34370.00
954.4260, 34483.00
955.5460, 34140.00
956.6650, 34386.00
957.7850, 34012.00
958.9040, 33899.00
960.0230, 33531.00
961.1420, 32994.00
962.2610, 32688.00
963.3800, 32420.00
964.4990, 32193.13
965.6170, 32050.65
966.7350, 31790.00
967.8530, 31580.21
968.9710, 31333.00
970.0890, 31175.00
971.2070, 30984.00
972.3240, 30919.00
973.4410, 30945.00
974.5580, 30961.00
975.6750, 30962.00
976.7920, 31005.00
977.9090, 31118.00
979.0250, 31140.00
980.1410, 30953.00
981.2580, 31342.00
982.3740, 31330.00
983.4890, 31654.00
984.6050, 31959.00
985.7200, 32234.00
986.8360, 32236.00
987.9510, 32523.00
989.0660, 32905.00
990.1810, 32843.00
991.2950, 33346.00
992.4100, 33348.00
993.5240, 33935.00
994.6390, 33953.00
995.7530, 34165.00
996.8660, 34228.00
997.9800, 34389.00
999.0940, 34480.00
1000.207, 34548.00
1001.320, 34753.00
1002.433, 34618.00
1003.546, 34501.00
1004.659, 34796.00
1005.772, 34463.00
1006.884, 34509.00
1007.996, 34317.00
1009.108, 34134.00
1010.220, 34256.00
1011.332, 34115.00
1012.444, 33964.00
1013.555, 33818.00
1014.666, 33968.00
1015.777, 33786.00
1016.888, 34060.00
1017.999, 33939.00
1019.110, 33864.00
1020.220, 33859.00
1021.331, 33980.00
1022.441, 34013.00
1023.551, 34192.00
1024.661, 34228.00
1025.770, 34390.00
1026.880, 34463.00
1027.989, 34252.00
1029.098, 34428.00
1030.207, 34633.00
1031.316, 34391.00
1032.425, 34551.00
1033.533, 34770.00
1034.642, 34563.00
1035.750, 34634.00
1036.858, 34734.00
1037.966, 34942.00
1039.073, 35007.00
1040.181, 35094.00
1041.288, 35229.00
1042.396, 35410.00
1043.503, 35358.00
1044.610, 35760.00
1045.716, 35815.00
1046.823, 36216.00
1047.929, 36372.00
1049.036, 36700.00
1050.142, 36853.00
1051.248, 37402.00
1052.353, 37775.00
1053.459, 38191.00
1054.564, 38673.00
1055.670, 39290.00
1056.775, 39910.00
1057.880, 40547.18
1058.985, 41312.00
1060.089, 41937.00
1061.194, 42520.00
1062.298, 43245.00
1063.402, 44052.00
1064.506, 44738.00
1065.610, 45110.00
1066.713, 45620.00
1067.817, 45922.00
1068.920, 45981.00
1070.023, 45917.00
1071.126, 45901.00
1072.229, 45918.00
1073.332, 45695.00
1074.435, 46160.00
1075.537, 46331.00
1076.639, 46724.00
1077.741, 46506.00
1078.843, 46971.00
1079.945, 47282.00
1081.046, 47439.00
1082.148, 48030.00
1083.249, 47826.00
1084.350, 48178.00
1085.451, 48387.00
1086.551, 48307.00
1087.652, 48230.00
1088.752, 47749.00
1089.853, 47411.00
1090.953, 46648.00
1092.053, 46010.00
1093.152, 45613.00
1094.252, 45018.00
1095.351, 44210.00
1096.451, 43928.00
1097.550, 42604.00
1098.649, 41911.00
1099.748, 41324.00
1100.846, 40584.00
1101.945, 39865.00
1103.043, 39300.46
1104.141, 38621.00
1105.239, 38142.00
1106.337, 37547.00
1107.434, 36994.00
1108.532, 37078.00
1109.629, 36308.00
1110.726, 36248.00
1111.823, 35817.00
1112.920, 35482.00
1114.017, 34895.00
1115.113, 35126.00
1116.210, 34871.00
1117.306, 34939.00
1118.402, 34725.00
1119.498, 34695.00
1120.593, 34380.00
1121.689, 34700.00
1122.784, 34594.00
1123.879, 34387.00
1124.974, 34572.00
1126.069, 34645.00
1127.164, 34353.00
1128.259, 34564.00
1129.353, 34395.00
1130.447, 34166.00
1131.541, 33960.00
1132.635, 33531.00
1133.729, 33233.00
1134.822, 32647.00
1135.916, 32223.00
1137.009, 31611.00
1138.102, 31188.00
1139.195, 30487.00
1140.288, 30279.00
1141.380, 29582.00
1142.473, 29372.00
1143.565, 29324.00
1144.657, 29080.00
1145.749, 28849.00
1146.841, 28719.00
1147.932, 28578.00
1149.024, 28955.00
1150.115, 29241.00
1151.206, 29461.00
1152.297, 29918.00
1153.388, 30363.00
1154.479, 30683.00
1155.569, 31129.00
1156.659, 31645.00
1157.750, 32104.00
1158.839, 33070.00
1159.929, 33672.00
1161.019, 34608.00
1162.108, 35265.00
1163.198, 35843.00
1164.287, 36939.00
1165.376, 37521.00
1166.465, 38201.00
1167.553, 38634.00
1168.642, 39608.00
1169.730, 39702.00
1170.818, 40373.00
1171.906, 40538.00
1172.994, 40335.00
1174.082, 40810.00
1175.170, 40619.00
1176.257, 40443.00
1177.344, 40693.00
1178.431, 40139.00
1179.518, 40098.00
1180.605, 39894.00
1181.691, 39533.00
1182.778, 39312.00
1183.864, 39179.00
1184.950, 38954.00
1186.036, 38663.00
1187.122, 38607.00
1188.207, 38236.00
1189.292, 37886.00
1190.378, 37776.00
1191.463, 37460.00
1192.548, 37275.00
1193.632, 37040.00
1194.717, 36209.00
1195.801, 36006.00
1196.886, 35367.00
1197.970, 35115.00
1199.054, 34649.00
1200.137, 34051.00
1201.221, 33497.00
1202.305, 32878.00
1203.388, 32340.51
1204.471, 31879.00
1205.554, 31339.00
1206.637, 30821.00
1207.719, 30511.00
1208.802, 30031.00
1209.884, 29773.00
1210.966, 29597.00
1212.048, 29219.00
1213.130, 29081.00
1214.212, 28742.00
1215.293, 28391.00
1216.374, 28212.00
1217.456, 28060.00
1218.536, 27971.00
1219.617, 27902.03
1220.698, 27897.51
1221.778, 27850.00
1222.859, 27948.00
1223.939, 27933.00
1225.019, 27914.00
1226.099, 28057.00
1227.178, 28208.00
1228.258, 28025.00
1229.337, 27918.00
1230.417, 28065.00
1231.496, 28129.00
1232.574, 28075.00
1233.653, 28171.00
1234.732, 28045.00
1235.810, 28163.00
1236.888, 28095.00
1237.966, 27888.00
1239.044, 28042.00
1240.122, 27651.00
1241.199, 27606.00
1242.277, 27521.00
1243.354, 27224.00
1244.431, 27172.00
1245.508, 26864.00
1246.585, 26818.00
1247.661, 26496.00
1248.738, 26450.00
1249.814, 26427.00
1250.890, 26304.00
1251.966, 26247.46
1253.042, 25962.00
1254.117, 26057.00
1255.193, 25945.00
1256.268, 25826.00
1257.343, 25879.00
1258.418, 25900.00
1259.493, 25904.00
1260.567, 25986.65
1261.642, 25802.00
1262.716, 26066.00
1263.790, 25988.00
1264.864, 25870.00
1265.938, 26011.00
1267.011, 25913.00
1268.085, 25962.00
1269.158, 25859.00
1270.231, 25518.00
1271.304, 25350.00
1272.377, 25360.00
1273.450, 25203.00
1274.522, 25192.00
1275.594, 25038.00
1276.666, 24852.00
1277.738, 24729.96
1278.810, 24548.06
1279.882, 24367.00
1280.953, 24232.00
1282.025, 24037.00
