##NAMES=Eudialyte
##RRUFFID=R050230
##IDEAL CHEMISTRY=Na_15_Ca_6_Fe^2+^_3_Zr^4+^_3_Si(Si_25_O_73_)(O,OH,H_2_O)_3_(Cl,OH)_2_
##LOCALITY=Kipawa alkaline complex, near Sheffield Lake, Villedieu Township, Temiscamingue County, Quebec, Canada
##OWNER=RRUFF
##SOURCE=Marcus Origlieri
##DESCRIPTION=Massive aggregate of red crystals
##STATUS=The identification of this mineral has been confirmed by X-ray diffraction and chemical analysis
##URL=rruff.info/R050230
##MEASURED CHEMISTRY=(Na_14.50_K_0.35_Ca_0.15_)_Σ=15_Ca_6.00_(Fe_1.86_Mn_1.01_Mg_0.13_)_Σ=3_(Zr_2.91_Ti_0.09_)_3_(Si_0.94_Nb_0.06_)_Σ=1.00_(Si_25.00_O_73_)(OH)_1.10_(H_2_O)_1.90_)_Σ=3_(Cl_1.17_(OH)_0.83_)_Σ=2_
##PIN_ID=M00392
##ORIENTATION=Laser parallel to c* (0 0 1). Fiducial mark perpendicular to laser is parallel to -a [-1 0 0]
118.1340, 32449.00
119.3650, 31836.00
120.5960, 31737.00
121.8270, 31836.00
123.0580, 31778.00
124.2880, 31719.00
125.5190, 31519.00
126.7490, 31233.00
127.9790, 31603.00
129.2090, 31758.00
130.4390, 32288.00
131.6680, 32421.00
132.8980, 32399.00
134.1270, 32918.00
135.3560, 33236.00
136.5850, 33885.00
137.8140, 34478.00
139.0430, 34686.00
140.2710, 35159.00
141.5000, 35077.00
142.7280, 34894.00
143.9560, 35122.00
145.1840, 35332.00
146.4120, 34897.00
147.6390, 35099.00
148.8670, 34857.00
150.0940, 35151.00
151.3210, 35243.00
152.5490, 35176.00
153.7750, 35274.00
155.0020, 35598.00
156.2290, 35719.00
157.4550, 36264.00
158.6810, 36404.00
159.9080, 36642.00
161.1340, 36731.00
162.3590, 37008.00
163.5850, 36899.33
164.8110, 36743.65
166.0360, 36522.00
167.2610, 36129.00
168.4860, 35596.00
169.7110, 35196.00
170.9360, 34660.00
172.1610, 34192.00
173.3850, 33701.00
174.6100, 33467.07
175.8340, 33361.00
177.0580, 33216.00
178.2820, 33119.00
179.5050, 33278.00
180.7290, 33647.00
181.9520, 33955.00
183.1760, 34454.00
184.3990, 35017.00
185.6220, 35749.18
186.8450, 36643.00
188.0670, 37604.00
189.2900, 38288.00
190.5120, 39537.00
191.7340, 40191.00
192.9560, 41349.00
194.1780, 42233.00
195.4000, 43322.00
196.6220, 44390.00
197.8430, 45518.00
199.0640, 46883.00
200.2860, 48121.00
201.5070, 49253.00
202.7270, 50116.00
203.9480, 50897.98
205.1690, 51467.20
206.3890, 51883.00
207.6090, 52070.00
208.8290, 52055.00
210.0490, 51844.88
211.2690, 51436.00
212.4890, 51144.00
213.7080, 50290.00
214.9280, 49670.00
216.1470, 48531.00
217.3660, 47337.00
218.5850, 46095.00
219.8030, 44899.00
221.0220, 43140.00
222.2400, 41801.00
223.4590, 40292.00
224.6770, 38954.00
225.8950, 37600.00
227.1120, 36039.00
228.3300, 34849.00
229.5480, 33850.00
230.7650, 32629.00
231.9820, 31760.00
233.1990, 30741.00
234.4160, 30316.00
235.6330, 29881.00
236.8490, 29345.00
238.0660, 29058.00
239.2820, 28881.00
240.4980, 28833.00
241.7140, 28953.00
242.9300, 28973.00
244.1460, 29012.00
245.3610, 29536.00
246.5770, 29656.00
247.7920, 29970.00
249.0070, 30442.00
250.2220, 30721.00
251.4370, 31076.00
252.6510, 31097.00
253.8660, 31417.00
255.0800, 31305.00
256.2940, 31427.00
257.5080, 31791.00
258.7220, 31532.78
259.9360, 32225.00
261.1490, 31438.00
262.3630, 31121.00
263.5760, 31450.00
264.7890, 31318.00
266.0020, 31112.00
267.2150, 31630.00
268.4270, 31361.00
269.6400, 31771.00
270.8520, 31815.00
272.0640, 32161.00
273.2760, 32040.00
274.4880, 32322.00
275.7000, 32466.00
276.9120, 32735.00
278.1230, 32793.00
279.3340, 33149.00
280.5450, 33487.00
281.7560, 33333.00
282.9670, 33437.00
284.1780, 34017.00
285.3880, 34208.00
286.5980, 34266.00
287.8090, 34851.00
289.0190, 34987.00
290.2290, 34933.00
291.4380, 35271.00
292.6480, 35530.00
293.8570, 35678.00
295.0670, 36107.00
296.2760, 36562.00
297.4850, 36416.00
298.6930, 36595.00
299.9020, 36509.00
301.1110, 36893.00
302.3190, 37413.00
303.5270, 37295.00
304.7350, 37379.00
305.9430, 37756.00
307.1510, 37725.00
308.3580, 38292.00
309.5660, 39003.00
310.7730, 39226.00
311.9800, 39776.00
313.1870, 39961.00
314.3940, 40838.00
315.6010, 41690.00
316.8070, 41747.00
318.0130, 41853.00
319.2200, 42133.00
320.4260, 41913.00
321.6310, 41679.00
322.8370, 41299.00
324.0430, 41245.00
325.2480, 40986.00
326.4540, 41224.00
327.6590, 41338.00
328.8640, 41842.00
330.0680, 42278.00
331.2730, 42898.00
332.4780, 43759.00
333.6820, 44458.00
334.8860, 44885.00
336.0900, 44945.00
337.2940, 44541.00
338.4980, 43845.00
339.7010, 42654.00
340.9050, 41410.00
342.1080, 40333.00
343.3110, 39102.00
344.5140, 37538.00
345.7170, 36196.00
346.9200, 34754.00
348.1220, 33740.00
349.3240, 32692.00
350.5270, 32175.00
351.7290, 31536.00
352.9310, 31115.00
354.1320, 30637.03
355.3340, 30350.00
356.5350, 29832.00
357.7370, 29533.00
358.9380, 29205.00
360.1390, 28826.00
361.3400, 28463.69
362.5400, 27896.00
363.7410, 27564.00
364.9410, 27133.00
366.1410, 26446.00
367.3410, 26016.00
368.5410, 25777.00
369.7410, 25111.00
370.9400, 24702.00
372.1400, 24284.00
373.3390, 23877.27
374.5380, 23713.00
375.7370, 23279.00
376.9360, 23171.00
378.1350, 22997.00
379.3330, 22551.00
380.5310, 22539.00
381.7300, 22577.00
382.9280, 22443.00
384.1260, 22497.00
385.3230, 22508.00
386.5210, 22346.00
387.7180, 22496.00
388.9160, 22841.00
390.1130, 22726.00
391.3100, 22876.00
392.5060, 22704.00
393.7030, 22803.00
394.9000, 22963.00
396.0960, 22804.00
397.2920, 22734.00
398.4880, 22651.00
399.6840, 22436.00
400.8800, 22508.00
402.0750, 22299.00
403.2710, 21993.00
404.4660, 21865.00
405.6610, 21881.00
406.8560, 21575.00
408.0510, 21214.00
409.2450, 21301.00
410.4400, 21019.00
411.6340, 20990.00
412.8280, 20466.00
414.0220, 20307.00
415.2160, 20027.00
416.4100, 19810.00
417.6030, 19550.00
418.7970, 19388.00
419.9900, 19087.00
421.1830, 18961.00
422.3760, 18766.00
423.5690, 18428.00
424.7610, 18259.00
425.9540, 17935.00
427.1460, 17926.00
428.3380, 17561.00
429.5300, 17528.00
430.7220, 17519.00
431.9140, 17361.00
433.1050, 17141.00
434.2970, 16921.00
435.4880, 16850.00
436.6790, 16686.00
437.8700, 16420.00
439.0610, 16353.00
440.2510, 16141.00
441.4420, 15866.00
442.6320, 15808.00
443.8220, 15539.00
445.0120, 15366.00
446.2020, 15285.00
447.3910, 15176.00
448.5810, 14901.00
449.7700, 14964.00
450.9600, 14857.00
452.1490, 14631.00
453.3370, 14350.00
454.5260, 14176.00
455.7150, 14048.00
456.9030, 13780.00
458.0910, 13539.00
459.2800, 13587.00
460.4670, 13227.00
461.6550, 13019.00
462.8430, 12784.00
464.0300, 12826.00
465.2180, 12706.00
466.4050, 12571.00
467.5920, 12319.00
468.7790, 12464.00
469.9650, 12355.00
471.1520, 12246.00
472.3380, 12255.00
473.5250, 12224.00
474.7110, 12266.00
475.8970, 12333.00
477.0820, 12134.00
478.2680, 12221.00
479.4540, 12283.00
480.6390, 12364.00
481.8240, 12141.00
483.0090, 12316.00
484.1940, 12279.00
485.3780, 12266.00
486.5630, 12541.00
487.7470, 12419.00
488.9320, 12578.00
490.1160, 12610.00
491.3000, 12752.00
492.4830, 12745.00
493.6670, 12993.00
494.8500, 12975.00
496.0340, 13134.00
497.2170, 13141.00
498.4000, 13351.82
499.5820, 13760.00
500.7650, 13750.00
501.9480, 14172.00
503.1300, 14298.00
504.3120, 14521.00
505.4940, 14834.00
506.6760, 14996.00
507.8580, 15191.00
509.0390, 15373.00
510.2210, 15585.00
511.4020, 15835.00
512.5830, 16105.00
513.7640, 16296.07
514.9450, 16608.00
516.1250, 16676.00
517.3060, 16830.00
518.4860, 16957.00
519.6660, 17248.00
520.8460, 17259.00
522.0260, 17607.00
523.2060, 17739.00
524.3850, 18033.00
525.5650, 18225.00
526.7440, 18350.00
527.9230, 18364.00
529.1020, 18618.00
530.2810, 19309.00
531.4590, 19602.00
532.6380, 20230.00
533.8160, 20918.00
534.9940, 21532.00
536.1720, 22594.00
537.3500, 23899.00
538.5270, 24804.00
539.7050, 25811.00
540.8820, 26892.00
542.0590, 27818.00
543.2360, 28975.00
544.4130, 30227.00
545.5900, 31367.00
546.7660, 32683.00
547.9430, 33907.00
549.1190, 35239.00
550.2950, 37675.00
551.4710, 39304.00
552.6470, 41039.00
553.8220, 42721.00
554.9980, 43972.00
556.1730, 44955.00
557.3480, 45825.00
558.5230, 45861.00
559.6980, 45848.00
560.8730, 45879.00
562.0470, 46661.00
563.2220, 47709.00
564.3960, 48423.00
565.5700, 50199.00
566.7440, 50625.00
567.9170, 50893.00
569.0910, 50010.00
570.2640, 48723.00
571.4380, 46584.00
572.6110, 43906.00
573.7840, 41123.00
574.9570, 37709.00
576.1290, 35139.00
577.3020, 32340.00
578.4740, 29649.00
579.6460, 27555.00
580.8180, 25664.00
581.9900, 23937.00
583.1620, 22839.00
584.3330, 21502.00
585.5040, 20894.00
586.6760, 20039.00
587.8470, 19615.00
589.0180, 19442.00
590.1880, 19562.00
591.3590, 19472.00
592.5290, 19574.00
593.7000, 19930.00
594.8700, 20392.00
596.0400, 20916.00
597.2090, 21562.00
598.3790, 21983.00
599.5490, 22910.00
600.7180, 23182.00
601.8870, 23555.00
603.0560, 24088.00
604.2250, 24256.00
605.3940, 24234.00
606.5620, 24354.00
607.7300, 24177.00
608.8990, 23727.00
610.0670, 23387.00
611.2350, 22898.00
612.4020, 22373.00
613.5700, 21818.00
614.7370, 21432.00
615.9050, 21094.05
617.0720, 20867.00
618.2390, 20679.00
619.4060, 20630.00
620.5720, 20656.00
621.7390, 20781.00
622.9050, 21056.00
624.0710, 21206.00
625.2370, 21492.00
626.4030, 21547.00
627.5690, 21551.00
628.7340, 21530.00
629.9000, 21424.00
631.0650, 21457.00
632.2300, 21369.00
633.3950, 21042.00
634.5600, 20731.00
635.7240, 20692.00
636.8890, 20628.00
638.0530, 20377.00
639.2170, 20627.00
640.3810, 20428.00
641.5450, 20503.00
642.7080, 20605.00
643.8720, 20550.00
645.0350, 20698.14
646.1980, 20797.67
647.3610, 20960.00
648.5240, 21107.00
649.6870, 21353.00
650.8490, 21571.00
652.0120, 22060.00
653.1740, 22579.00
654.3360, 22894.00
655.4980, 23264.00
656.6600, 23713.00
657.8210, 24167.46
658.9830, 24686.55
660.1440, 25276.00
661.3050, 25798.00
662.4660, 26531.00
663.6270, 27099.00
664.7870, 27639.00
665.9480, 28286.00
667.1080, 28770.00
668.2680, 29323.00
669.4280, 29975.00
670.5880, 30276.00
671.7480, 31067.00
672.9070, 31465.00
674.0670, 32138.00
675.2260, 32771.00
676.3850, 33402.00
677.5440, 33986.82
678.7030, 34511.00
679.8610, 35116.00
681.0200, 35585.68
682.1780, 36142.00
683.3360, 36502.00
684.4940, 37082.00
685.6520, 37387.00
686.8090, 37933.00
687.9670, 38429.00
689.1240, 38988.00
690.2810, 39325.00
691.4380, 39858.00
692.5950, 40264.00
693.7520, 41149.00
694.9080, 41363.00
696.0650, 42298.00
697.2210, 42931.00
698.3770, 43051.00
699.5330, 43567.00
700.6880, 43689.00
701.8440, 43465.00
702.9990, 43526.00
704.1550, 43125.00
705.3100, 42353.00
706.4650, 41111.00
707.6190, 39859.00
708.7740, 38588.00
709.9290, 37022.00
711.0830, 35876.00
712.2370, 34302.00
713.3910, 33302.00
714.5450, 32195.00
715.6980, 31151.00
716.8520, 30552.00
718.0050, 29970.00
719.1580, 29421.00
720.3110, 29125.00
721.4640, 29253.00
722.6170, 29044.00
723.7700, 29212.00
724.9220, 29596.00
726.0740, 29881.00
727.2260, 30228.63
728.3780, 30739.00
729.5300, 31094.00
730.6810, 31601.00
731.8330, 32277.00
732.9840, 32940.00
734.1350, 33449.00
735.2860, 33893.00
736.4370, 34388.00
737.5880, 34642.00
738.7380, 35302.00
739.8880, 35662.00
741.0390, 35911.00
742.1890, 36001.00
743.3380, 35935.00
744.4880, 35671.00
745.6380, 35578.00
746.7870, 35226.00
747.9360, 34448.00
749.0850, 34139.00
750.2340, 33668.00
751.3830, 33390.00
752.5310, 32504.00
753.6800, 32186.00
754.8280, 31622.00
755.9760, 31286.00
757.1240, 30767.00
758.2720, 30669.00
759.4190, 30109.00
760.5670, 29748.00
761.7140, 29545.00
762.8610, 29001.00
764.0080, 28642.00
765.1550, 28358.00
766.3020, 27959.00
767.4480, 27645.00
768.5950, 27019.00
769.7410, 26636.00
770.8870, 26191.00
772.0330, 26018.00
773.1780, 25480.00
774.3240, 25104.00
775.4690, 24582.00
776.6140, 24480.00
777.7590, 23996.00
778.9040, 23933.00
780.0490, 23386.00
781.1940, 23069.00
782.3380, 22925.00
783.4820, 22541.00
784.6260, 22121.00
785.7700, 21686.00
786.9140, 21224.60
788.0580, 20739.00
789.2010, 20260.00
790.3450, 19731.00
791.4880, 19253.00
792.6310, 18789.00
793.7730, 18215.00
794.9160, 17663.00
796.0590, 17375.00
797.2010, 16827.00
798.3430, 16693.00
799.4850, 16059.00
800.6270, 15880.00
801.7690, 15400.00
802.9100, 15315.00
804.0520, 15093.00
805.1930, 14823.00
806.3340, 14741.00
807.4750, 14597.00
808.6160, 14251.00
809.7560, 14146.00
810.8970, 13985.00
812.0370, 13950.00
813.1770, 13746.00
814.3170, 13683.00
815.4570, 13478.00
816.5960, 13569.00
817.7360, 13247.00
818.8750, 13121.00
820.0140, 13111.00
821.1530, 13168.00
822.2920, 12953.00
823.4310, 12919.00
824.5690, 12787.00
825.7070, 12661.00
826.8460, 12736.00
827.9840, 12504.00
829.1220, 12547.00
830.2590, 12338.00
831.3970, 12075.00
832.5340, 12293.00
833.6710, 12179.00
834.8080, 12185.00
835.9450, 12109.00
837.0820, 11984.00
838.2190, 11948.00
839.3550, 11840.00
840.4910, 11796.00
841.6270, 11903.00
842.7630, 11664.00
843.8990, 11853.00
845.0350, 11614.00
846.1700, 11657.51
847.3060, 11606.00
848.4410, 11592.00
849.5760, 11640.00
850.7100, 11430.00
851.8450, 11466.00
852.9800, 11661.00
854.1140, 11558.00
855.2480, 11435.00
856.3820, 11582.00
857.5160, 11510.00
858.6500, 11486.00
859.7830, 11431.00
860.9170, 11593.00
862.0500, 11540.00
863.1830, 11720.00
864.3160, 11593.00
865.4480, 11590.00
866.5810, 11683.00
867.7130, 11703.00
868.8460, 11843.00
869.9780, 11780.00
871.1100, 12048.00
872.2410, 11993.00
873.3730, 12055.00
874.5050, 12013.00
875.6360, 12277.00
876.7670, 12211.00
877.8980, 12246.00
879.0290, 12402.00
880.1590, 12354.00
881.2900, 12422.00
882.4200, 12549.00
883.5500, 12680.00
884.6800, 12690.00
885.8100, 12781.00
886.9400, 13031.00
888.0690, 13101.00
889.1990, 13422.00
890.3280, 13450.00
891.4570, 13652.00
892.5860, 14087.00
893.7140, 14114.00
894.8430, 14520.00
895.9710, 14597.00
897.1000, 15115.00
898.2280, 15041.00
899.3560, 15615.00
900.4830, 16063.00
901.6110, 16077.00
902.7380, 16415.00
903.8660, 16821.00
904.9930, 17196.00
906.1200, 17528.81
907.2460, 17713.00
908.3730, 18169.00
909.5000, 18417.00
910.6260, 18667.00
911.7520, 19185.00
912.8780, 19415.00
914.0040, 19914.00
915.1290, 20523.00
916.2550, 20896.00
917.3800, 21494.00
918.5050, 22076.00
919.6300, 22512.00
920.7550, 22882.00
921.8800, 23255.00
923.0040, 23500.00
924.1290, 23908.00
925.2530, 24183.00
926.3770, 24347.00
927.5010, 24418.00
928.6250, 24431.00
929.7480, 24423.00
930.8720, 24256.00
931.9950, 23991.00
933.1180, 23661.00
934.2410, 23401.00
935.3640, 22940.00
936.4860, 22588.00
937.6090, 22271.00
938.7310, 21900.43
939.8530, 21821.00
940.9750, 21305.00
942.0970, 21180.00
943.2180, 21010.00
944.3400, 20414.00
945.4610, 20460.00
946.5820, 20314.00
947.7030, 20327.00
948.8240, 19876.00
949.9450, 19923.00
951.0650, 19853.00
952.1860, 19968.00
953.3060, 19834.00
954.4260, 19623.00
955.5460, 19560.00
956.6650, 19398.00
957.7850, 19575.00
958.9040, 19526.00
960.0230, 19390.00
961.1420, 19562.00
962.2610, 19561.00
963.3800, 19479.00
964.4990, 19655.00
965.6170, 19682.00
966.7350, 19737.00
967.8530, 19883.00
968.9710, 19940.00
970.0890, 20061.00
971.2070, 20444.00
972.3240, 20277.00
973.4410, 20747.00
974.5580, 20992.00
975.6750, 21113.00
976.7920, 21257.00
977.9090, 21481.00
979.0250, 21774.00
980.1410, 22182.00
981.2580, 22327.00
982.3740, 22873.00
983.4890, 22948.00
984.6050, 23292.00
985.7200, 23551.00
986.8360, 23872.00
987.9510, 24164.96
989.0660, 24471.49
990.1810, 24790.00
991.2950, 25107.00
992.4100, 25510.00
993.5240, 25847.00
994.6390, 25620.00
995.7530, 25964.00
996.8660, 26319.00
997.9800, 25954.00
999.0940, 26164.00
1000.207, 26256.00
1001.320, 26315.00
1002.433, 26239.00
1003.546, 26166.00
1004.659, 26153.29
1005.772, 25983.00
1006.884, 25997.00
1007.996, 25898.00
1009.108, 25689.00
1010.220, 25708.00
1011.332, 25339.00
1012.444, 25771.00
1013.555, 25612.53
1014.666, 25870.00
1015.777, 25549.00
1016.888, 26127.00
1017.999, 25854.00
1019.110, 26035.00
1020.220, 26206.00
1021.331, 26258.00
1022.441, 26262.00
1023.551, 26460.00
1024.661, 26406.00
1025.770, 26718.00
1026.880, 26889.00
1027.989, 27121.00
1029.098, 27274.00
1030.207, 27283.00
1031.316, 27529.00
1032.425, 27869.00
1033.533, 28398.00
1034.642, 28394.00
1035.750, 28706.00
1036.858, 28947.00
1037.966, 29268.00
1039.073, 29724.00
1040.181, 30134.00
1041.288, 30423.00
1042.396, 30636.00
1043.503, 31183.00
1044.610, 31567.00
1045.716, 32056.00
1046.823, 32537.00
1047.929, 33020.00
1049.036, 33449.00
1050.142, 33974.00
1051.248, 34583.31
1052.353, 35241.64
1053.459, 36059.00
1054.564, 36869.00
1055.670, 37998.00
1056.775, 39167.00
1057.880, 40186.00
1058.985, 41877.00
1060.089, 43098.00
1061.194, 44743.00
1062.298, 46581.00
1063.402, 47834.00
1064.506, 49193.00
1065.610, 49653.00
1066.713, 50117.00
1067.817, 50005.00
1068.920, 49853.00
1070.023, 49216.00
1071.126, 49205.00
1072.229, 49206.00
1073.332, 49897.00
1074.435, 50283.00
1075.537, 51111.00
1076.639, 52024.00
1077.741, 53021.00
1078.843, 54075.00
1079.945, 55002.00
1081.046, 56216.00
1082.148, 57190.00
1083.249, 57829.00
1084.350, 58586.00
1085.451, 58902.00
1086.551, 59091.00
1087.652, 58899.00
1088.752, 58885.00
1089.853, 59054.00
1090.953, 59317.00
1092.053, 58982.00
1093.152, 58748.00
1094.252, 58511.00
1095.351, 57978.00
1096.451, 56948.00
1097.550, 56468.00
1098.649, 55737.00
1099.748, 55050.00
1100.846, 54102.00
1101.945, 53406.00
1103.043, 52656.66
1104.141, 51656.00
1105.239, 51216.00
1106.337, 50375.00
1107.434, 49634.00
1108.532, 49082.00
1109.629, 48348.00
1110.726, 47718.00
1111.823, 47070.00
1112.920, 46940.00
1114.017, 46044.00
1115.113, 45879.00
1116.210, 45066.00
1117.306, 45081.00
1118.402, 44591.00
1119.498, 44228.00
1120.593, 44207.00
1121.689, 44126.00
1122.784, 43916.00
1123.879, 43875.00
1124.974, 43680.00
1126.069, 43893.00
1127.164, 43320.00
1128.259, 43487.00
1129.353, 42965.00
1130.447, 42610.00
1131.541, 41747.00
1132.635, 40633.00
1133.729, 40009.00
1134.822, 38483.00
1135.916, 37552.00
1137.009, 36016.00
1138.102, 34854.00
1139.195, 33739.00
1140.288, 32568.00
1141.380, 31845.00
1142.473, 31039.00
1143.565, 30161.00
1144.657, 29673.00
1145.749, 29424.00
1146.841, 29229.00
1147.932, 29083.00
1149.024, 29207.00
1150.115, 29183.00
1151.206, 29628.00
1152.297, 29936.00
1153.388, 30411.00
1154.479, 30880.00
1155.569, 31383.00
1156.659, 32252.00
1157.750, 32880.00
1158.839, 33619.00
1159.929, 34595.00
1161.019, 35474.00
1162.108, 36256.00
1163.198, 37009.00
1164.287, 37865.00
1165.376, 38641.00
1166.465, 39468.00
1167.553, 40230.00
1168.642, 40504.00
1169.730, 40958.00
1170.818, 41320.00
1171.906, 41287.00
1172.994, 41324.00
1174.082, 40877.00
1175.170, 40318.00
1176.257, 39742.00
1177.344, 39020.00
1178.431, 38309.00
1179.518, 37688.51
1180.605, 37067.00
1181.691, 36489.00
1182.778, 35719.00
1183.864, 35334.00
1184.950, 34851.00
1186.036, 34145.00
1187.122, 33542.00
1188.207, 33073.29
1189.292, 32668.00
1190.378, 32157.00
1191.463, 31747.00
1192.548, 31366.00
1193.632, 31027.00
1194.717, 30372.00
1195.801, 29720.00
1196.886, 29590.00
1197.970, 29027.00
1199.054, 28880.00
1200.137, 28172.00
1201.221, 27863.00
1202.305, 27281.00
1203.388, 26917.00
1204.471, 26298.00
1205.554, 26217.00
1206.637, 25961.00
1207.719, 25815.00
1208.802, 25139.00
1209.884, 25196.00
1210.966, 24892.00
1212.048, 24883.00
1213.130, 24902.00
1214.212, 24884.00
1215.293, 25012.10
1216.374, 25187.00
1217.456, 25366.00
1218.536, 25674.00
1219.617, 26034.00
1220.698, 26382.00
1221.778, 26695.00
1222.859, 27126.00
1223.939, 27674.00
1225.019, 27692.00
1226.099, 28439.00
1227.178, 28832.00
1228.258, 28979.00
1229.337, 28963.00
1230.417, 29376.00
1231.496, 29534.00
1232.574, 29737.00
1233.653, 29670.00
1234.732, 29835.00
1235.810, 29868.00
1236.888, 29477.00
1237.966, 29248.00
1239.044, 29201.00
1240.122, 28674.00
1241.199, 28555.00
1242.277, 28024.00
1243.354, 27833.00
1244.431, 27533.00
1245.508, 27375.00
1246.585, 26752.00
1247.661, 26327.00
1248.738, 26091.00
1249.814, 25582.00
1250.890, 25469.00
1251.966, 25385.00
1253.042, 25183.00
1254.117, 25181.00
1255.193, 25294.00
1256.268, 25325.00
1257.343, 25173.00
1258.418, 25250.00
1259.493, 25463.00
1260.567, 25213.00
1261.642, 25435.00
1262.716, 25256.00
1263.790, 25335.00
1264.864, 25051.00
1265.938, 25073.00
1267.011, 25039.00
1268.085, 24803.00
1269.158, 24382.00
1270.231, 24036.00
1271.304, 23776.00
1272.377, 23432.00
1273.450, 23113.00
1274.522, 22625.00
1275.594, 22321.00
1276.666, 22025.00
1277.738, 21640.00
1278.810, 21377.00
1279.882, 20790.00
1280.953, 20725.00
1282.025, 20216.00
