##NAMES=Eudialyte
##RRUFFID=R050230
##IDEAL CHEMISTRY=Na_15_Ca_6_Fe^2+^_3_Zr^4+^_3_Si(Si_25_O_73_)(O,OH,H_2_O)_3_(Cl,OH)_2_
##LOCALITY=Kipawa alkaline complex, near Sheffield Lake, Villedieu Township, Temiscamingue County, Quebec, Canada
##OWNER=RRUFF
##SOURCE=Marcus Origlieri
##DESCRIPTION=Massive aggregate of red crystals
##STATUS=The identification of this mineral has been confirmed by X-ray diffraction and chemical analysis
##URL=rruff.info/R050230
##MEASURED CHEMISTRY=(Na_14.50_K_0.35_Ca_0.15_)_Σ=15_Ca_6.00_(Fe_1.86_Mn_1.01_Mg_0.13_)_Σ=3_(Zr_2.91_Ti_0.09_)_3_(Si_0.94_Nb_0.06_)_Σ=1.00_(Si_25.00_O_73_)(OH)_1.10_(H_2_O)_1.90_)_Σ=3_(Cl_1.17_(OH)_0.83_)_Σ=2_
##PIN_ID=M00392
##ORIENTATION=Laser parallel to c* (0 0 1). Fiducial mark perpendicular to laser is parallel to -a [-1 0 0]
118.1340, 27445.00
119.3650, 27300.00
120.5960, 27208.00
121.8270, 27041.00
123.0580, 27407.00
124.2880, 27698.00
125.5190, 27206.00
126.7490, 27641.00
127.9790, 27890.00
129.2090, 28290.00
130.4390, 28488.00
131.6680, 28836.00
132.8980, 29245.00
134.1270, 29526.00
135.3560, 30150.00
136.5850, 30718.00
137.8140, 31483.00
139.0430, 32316.00
140.2710, 32836.00
141.5000, 33192.00
142.7280, 33147.00
143.9560, 33097.00
145.1840, 32675.00
146.4120, 32072.00
147.6390, 31563.00
148.8670, 31762.00
150.0940, 31345.00
151.3210, 31515.00
152.5490, 31478.00
153.7750, 31450.00
155.0020, 31602.00
156.2290, 31864.00
157.4550, 31858.00
158.6810, 32306.00
159.9080, 32656.00
161.1340, 32978.00
162.3590, 33170.00
163.5850, 33247.00
164.8110, 33286.00
166.0360, 32808.00
167.2610, 32559.00
168.4860, 32510.00
169.7110, 32013.00
170.9360, 31934.00
172.1610, 31206.00
173.3850, 31187.00
174.6100, 30668.00
175.8340, 30530.00
177.0580, 30970.00
178.2820, 30642.00
179.5050, 30992.00
180.7290, 31221.00
181.9520, 31637.00
183.1760, 32092.00
184.3990, 32760.62
185.6220, 33766.00
186.8450, 34377.00
188.0670, 35322.00
189.2900, 36276.30
190.5120, 37122.54
191.7340, 38476.00
192.9560, 39217.00
194.1780, 40344.00
195.4000, 41829.00
196.6220, 42819.00
197.8430, 43863.00
199.0640, 45166.00
200.2860, 46688.00
201.5070, 47831.00
202.7270, 48726.00
203.9480, 49459.00
205.1690, 50117.00
206.3890, 50800.00
207.6090, 51492.00
208.8290, 51340.00
210.0490, 51692.00
211.2690, 51243.00
212.4890, 50964.00
213.7080, 50196.00
214.9280, 49447.00
216.1470, 48452.00
217.3660, 47501.00
218.5850, 46015.00
219.8030, 44922.00
221.0220, 43333.00
222.2400, 41963.00
223.4590, 40556.00
224.6770, 38842.00
225.8950, 37265.00
227.1120, 35961.00
228.3300, 34480.00
229.5480, 33441.00
230.7650, 32151.00
231.9820, 31367.00
233.1990, 30197.00
234.4160, 29530.00
235.6330, 28688.00
236.8490, 28322.00
238.0660, 27882.00
239.2820, 27553.00
240.4980, 27387.70
241.7140, 27505.00
242.9300, 27275.00
244.1460, 27457.00
245.3610, 27673.00
246.5770, 27850.00
247.7920, 28047.49
249.0070, 28240.00
250.2220, 28438.00
251.4370, 28726.00
252.6510, 28943.00
253.8660, 29109.00
255.0800, 29050.00
256.2940, 29023.00
257.5080, 29427.00
258.7220, 29261.37
259.9360, 29287.30
261.1490, 29147.00
262.3630, 29103.00
263.5760, 28854.00
264.7890, 28735.00
266.0020, 28918.00
267.2150, 28631.00
268.4270, 28811.00
269.6400, 29107.00
270.8520, 29068.25
272.0640, 29283.00
273.2760, 29419.00
274.4880, 29511.00
275.7000, 29868.00
276.9120, 29928.00
278.1230, 30031.00
279.3340, 30351.00
280.5450, 30408.00
281.7560, 30960.00
282.9670, 30923.00
284.1780, 31168.00
285.3880, 31513.00
286.5980, 31457.00
287.8090, 31936.00
289.0190, 32143.00
290.2290, 32401.00
291.4380, 32679.00
292.6480, 32661.00
293.8570, 32781.00
295.0670, 33047.00
296.2760, 33573.00
297.4850, 33605.00
298.6930, 33866.00
299.9020, 34034.00
301.1110, 34078.00
302.3190, 34452.00
303.5270, 34433.00
304.7350, 34570.00
305.9430, 34730.00
307.1510, 35009.00
308.3580, 35298.00
309.5660, 35606.00
310.7730, 35965.00
311.9800, 36489.00
313.1870, 37044.00
314.3940, 37476.00
315.6010, 38030.00
316.8070, 38268.00
318.0130, 38545.00
319.2200, 38876.00
320.4260, 38386.00
321.6310, 38580.00
322.8370, 38177.00
324.0430, 37952.00
325.2480, 38261.00
326.4540, 37916.00
327.6590, 38092.00
328.8640, 38492.00
330.0680, 39188.00
331.2730, 39504.00
332.4780, 40330.00
333.6820, 41105.00
334.8860, 41515.00
336.0900, 41514.00
337.2940, 41484.00
338.4980, 40966.00
339.7010, 40578.00
340.9050, 39413.00
342.1080, 38047.00
343.3110, 36871.00
344.5140, 35516.00
345.7170, 34343.00
346.9200, 33398.00
348.1220, 32285.00
349.3240, 31480.00
350.5270, 30750.00
351.7290, 30117.00
352.9310, 29609.00
354.1320, 29215.00
355.3340, 28891.00
356.5350, 28719.00
357.7370, 28164.00
358.9380, 27967.00
360.1390, 27618.00
361.3400, 27073.00
362.5400, 26865.00
363.7410, 26273.00
364.9410, 25860.00
366.1410, 25129.00
367.3410, 25143.00
368.5410, 24627.00
369.7410, 24038.00
370.9400, 23618.00
372.1400, 23277.00
373.3390, 22745.00
374.5380, 22700.00
375.7370, 22304.00
376.9360, 22120.00
378.1350, 21931.00
379.3330, 21497.00
380.5310, 21580.00
381.7300, 21383.00
382.9280, 21487.00
384.1260, 21456.00
385.3230, 21433.00
386.5210, 21354.00
387.7180, 21442.00
388.9160, 21461.00
390.1130, 21448.00
391.3100, 21617.00
392.5060, 21565.00
393.7030, 21539.00
394.9000, 21726.00
396.0960, 21617.00
397.2920, 21537.00
398.4880, 21661.00
399.6840, 21456.00
400.8800, 21398.00
402.0750, 21189.00
403.2710, 21038.00
404.4660, 20973.00
405.6610, 20821.00
406.8560, 20641.00
408.0510, 20528.00
409.2450, 20338.00
410.4400, 20291.00
411.6340, 20198.00
412.8280, 19809.00
414.0220, 19728.00
415.2160, 19381.00
416.4100, 19284.00
417.6030, 18930.00
418.7970, 18827.00
419.9900, 18571.00
421.1830, 18266.00
422.3760, 18167.00
423.5690, 18048.00
424.7610, 17618.00
425.9540, 17265.00
427.1460, 17441.00
428.3380, 17095.00
429.5300, 17044.00
430.7220, 16930.00
431.9140, 16622.00
433.1050, 16563.00
434.2970, 16285.00
435.4880, 16273.00
436.6790, 16160.00
437.8700, 16065.00
439.0610, 15879.00
440.2510, 15677.00
441.4420, 15512.00
442.6320, 15355.00
443.8220, 15079.00
445.0120, 15008.00
446.2020, 14854.00
447.3910, 14680.00
448.5810, 14732.00
449.7700, 14468.00
450.9600, 14253.00
452.1490, 14192.00
453.3370, 13864.00
454.5260, 13848.00
455.7150, 13703.00
456.9030, 13663.00
458.0910, 13246.00
459.2800, 13080.00
460.4670, 13024.00
461.6550, 12777.00
462.8430, 12610.00
464.0300, 12602.00
465.2180, 12478.00
466.4050, 12373.00
467.5920, 12134.00
468.7790, 12133.00
469.9650, 12210.00
471.1520, 12006.00
472.3380, 12128.00
473.5250, 11896.00
474.7110, 12036.00
475.8970, 11938.00
477.0820, 12009.00
478.2680, 11941.00
479.4540, 12057.00
480.6390, 11968.00
481.8240, 12013.00
483.0090, 12085.00
484.1940, 11988.00
485.3780, 12068.00
486.5630, 12078.00
487.7470, 12095.00
488.9320, 12098.00
490.1160, 12269.00
491.3000, 12271.00
492.4830, 12441.00
493.6670, 12507.00
494.8500, 12577.00
496.0340, 12592.00
497.2170, 12695.00
498.4000, 12902.00
499.5820, 13158.00
500.7650, 13242.00
501.9480, 13381.00
503.1300, 13681.00
504.3120, 13942.00
505.4940, 14249.00
506.6760, 14348.00
507.8580, 14626.00
509.0390, 14793.00
510.2210, 15055.00
511.4020, 15376.00
512.5830, 15585.00
513.7640, 15859.00
514.9450, 15976.00
516.1250, 16405.00
517.3060, 16452.00
518.4860, 16702.00
519.6660, 16769.00
520.8460, 17135.00
522.0260, 17205.00
523.2060, 17549.00
524.3850, 17781.00
525.5650, 17988.00
526.7440, 18030.00
527.9230, 18458.00
529.1020, 18723.00
530.2810, 19150.00
531.4590, 19494.00
532.6380, 20133.00
533.8160, 20684.00
534.9940, 21521.00
536.1720, 22491.00
537.3500, 23550.00
538.5270, 24597.00
539.7050, 25761.32
540.8820, 26837.00
542.0590, 28188.00
543.2360, 29105.00
544.4130, 30339.00
545.5900, 31435.00
546.7660, 32930.00
547.9430, 34432.00
549.1190, 36038.00
550.2950, 37644.00
551.4710, 39403.00
552.6470, 41305.00
553.8220, 43165.00
554.9980, 44825.00
556.1730, 45906.00
557.3480, 46854.00
558.5230, 47457.00
559.6980, 47916.00
560.8730, 47965.00
562.0470, 48205.00
563.2220, 49033.00
564.3960, 49859.00
565.5700, 50983.00
566.7440, 51842.00
567.9170, 51941.00
569.0910, 51538.14
570.2640, 50952.00
571.4380, 49048.00
572.6110, 46816.00
573.7840, 44121.00
574.9570, 41181.00
576.1290, 38013.00
577.3020, 34755.00
578.4740, 32002.00
579.6460, 29585.00
580.8180, 27328.00
581.9900, 25505.60
583.1620, 23931.00
584.3330, 22616.00
585.5040, 21612.00
586.6760, 20777.00
587.8470, 20182.21
589.0180, 19920.00
590.1880, 19616.00
591.3590, 19689.00
592.5290, 19845.00
593.7000, 20134.00
594.8700, 20448.00
596.0400, 20945.00
597.2090, 21379.00
598.3790, 22329.00
599.5490, 22656.00
600.7180, 23263.00
601.8870, 23713.00
603.0560, 24147.00
604.2250, 24467.00
605.3940, 24486.00
606.5620, 24568.16
607.7300, 24428.05
608.8990, 24208.00
610.0670, 23927.00
611.2350, 23377.00
612.4020, 23043.00
613.5700, 22386.00
614.7370, 21827.00
615.9050, 21616.00
617.0720, 21188.00
618.2390, 20785.00
619.4060, 20816.00
620.5720, 20727.00
621.7390, 20827.00
622.9050, 21235.00
624.0710, 21282.00
625.2370, 21469.00
626.4030, 21725.00
627.5690, 21739.00
628.7340, 21822.00
629.9000, 21879.00
631.0650, 21680.00
632.2300, 21383.00
633.3950, 21508.00
634.5600, 20953.00
635.7240, 20806.00
636.8890, 20765.00
638.0530, 20545.00
639.2170, 20424.00
640.3810, 20512.00
641.5450, 20350.00
642.7080, 20305.00
643.8720, 20244.00
645.0350, 20334.00
646.1980, 20421.00
647.3610, 20638.00
648.5240, 20737.00
649.6870, 20796.00
650.8490, 21128.00
652.0120, 21481.00
653.1740, 21606.00
654.3360, 22292.00
655.4980, 22447.00
656.6600, 23120.00
657.8210, 23483.00
658.9830, 23857.00
660.1440, 24676.00
661.3050, 25183.00
662.4660, 25597.00
663.6270, 26319.00
664.7870, 26690.00
665.9480, 27252.00
667.1080, 27760.00
668.2680, 28503.00
669.4280, 28969.00
670.5880, 29688.00
671.7480, 30300.00
672.9070, 30712.00
674.0670, 31420.00
675.2260, 31836.00
676.3850, 32413.00
677.5440, 33384.00
678.7030, 33606.00
679.8610, 34088.00
681.0200, 34801.00
682.1780, 35050.00
683.3360, 35763.00
684.4940, 36247.00
685.6520, 36616.00
686.8090, 37423.00
687.9670, 37776.00
689.1240, 38188.00
690.2810, 38687.00
691.4380, 39159.80
692.5950, 39778.00
693.7520, 40281.00
694.9080, 40903.00
696.0650, 41592.00
697.2210, 42058.00
698.3770, 42679.00
699.5330, 42708.00
700.6880, 43186.00
701.8440, 43228.00
702.9990, 42906.00
704.1550, 42423.00
705.3100, 41717.00
706.4650, 41026.00
707.6190, 39815.00
708.7740, 38449.00
709.9290, 37203.00
711.0830, 35619.00
712.2370, 34471.00
713.3910, 32779.00
714.5450, 31525.00
715.6980, 30578.00
716.8520, 29997.00
718.0050, 29263.00
719.1580, 28740.00
720.3110, 28389.00
721.4640, 28159.00
722.6170, 28217.00
723.7700, 28148.00
724.9220, 28529.00
726.0740, 28878.00
727.2260, 29442.00
728.3780, 29486.00
729.5300, 30248.00
730.6810, 30701.00
731.8330, 31390.00
732.9840, 32045.00
734.1350, 32813.00
735.2860, 33347.85
736.4370, 33908.76
737.5880, 34364.00
738.7380, 34820.00
739.8880, 35140.00
741.0390, 35319.54
742.1890, 35419.00
743.3380, 35389.00
744.4880, 35332.00
745.6380, 35098.00
746.7870, 34781.00
747.9360, 34201.00
749.0850, 33767.00
750.2340, 33487.00
751.3830, 32690.00
752.5310, 32320.00
753.6800, 31769.00
754.8280, 31341.00
755.9760, 30977.00
757.1240, 30721.00
758.2720, 30136.00
759.4190, 29861.00
760.5670, 29134.00
761.7140, 29247.00
762.8610, 28934.00
764.0080, 28375.00
765.1550, 27763.00
766.3020, 27676.00
767.4480, 26797.00
768.5950, 26752.00
769.7410, 26305.00
770.8870, 25465.00
772.0330, 25345.00
773.1780, 24763.00
774.3240, 24343.00
775.4690, 23922.00
776.6140, 23787.00
777.7590, 23114.00
778.9040, 22895.00
780.0490, 22395.00
781.1940, 22303.00
782.3380, 21977.00
783.4820, 21570.00
784.6260, 21433.00
785.7700, 20886.00
786.9140, 20251.00
788.0580, 19832.00
789.2010, 19305.40
790.3450, 19026.00
791.4880, 18412.00
792.6310, 18092.00
793.7730, 17724.00
794.9160, 17232.00
796.0590, 16798.00
797.2010, 16544.00
798.3430, 16031.00
799.4850, 15804.00
800.6270, 15448.00
801.7690, 15026.00
802.9100, 14882.00
804.0520, 14655.00
805.1930, 14591.00
806.3340, 14307.00
807.4750, 14331.00
808.6160, 14110.00
809.7560, 14018.00
810.8970, 13713.00
812.0370, 13819.00
813.1770, 13491.00
814.3170, 13664.00
815.4570, 13515.00
816.5960, 13495.00
817.7360, 13391.00
818.8750, 13273.00
820.0140, 13268.00
821.1530, 13128.00
822.2920, 13070.00
823.4310, 12895.00
824.5690, 12999.00
825.7070, 12782.00
826.8460, 12747.00
827.9840, 12680.00
829.1220, 12580.00
830.2590, 12439.00
831.3970, 12540.00
832.5340, 12323.00
833.6710, 12246.00
834.8080, 12231.00
835.9450, 12029.00
837.0820, 12109.00
838.2190, 12039.00
839.3550, 12022.00
840.4910, 11976.00
841.6270, 11942.35
842.7630, 11885.00
843.8990, 11898.00
845.0350, 11771.00
846.1700, 11769.00
847.3060, 11862.00
848.4410, 11709.00
849.5760, 11641.00
850.7100, 11703.00
851.8450, 11781.00
852.9800, 11706.00
854.1140, 11774.00
855.2480, 11814.00
856.3820, 11626.00
857.5160, 11644.00
858.6500, 11662.00
859.7830, 11808.00
860.9170, 11815.00
862.0500, 11764.00
863.1830, 11746.00
864.3160, 11719.00
865.4480, 11841.00
866.5810, 11869.00
867.7130, 11834.00
868.8460, 12023.00
869.9780, 12108.00
871.1100, 12152.00
872.2410, 12252.00
873.3730, 12361.00
874.5050, 12350.00
875.6360, 12439.43
876.7670, 12480.00
877.8980, 12501.00
879.0290, 12564.00
880.1590, 12533.00
881.2900, 12540.00
882.4200, 12628.00
883.5500, 12676.00
884.6800, 12885.00
885.8100, 12992.00
886.9400, 13130.00
888.0690, 13209.00
889.1990, 13590.00
890.3280, 13616.00
891.4570, 13914.00
892.5860, 13972.00
893.7140, 14247.00
894.8430, 14610.00
895.9710, 14965.00
897.1000, 15145.00
898.2280, 15500.00
899.3560, 15809.00
900.4830, 16168.00
901.6110, 16390.00
902.7380, 16865.00
903.8660, 17045.00
904.9930, 17343.00
906.1200, 17822.00
907.2460, 18092.00
908.3730, 18309.00
909.5000, 18829.00
910.6260, 19164.00
911.7520, 19432.00
912.8780, 20130.00
914.0040, 20489.00
915.1290, 21163.00
916.2550, 21741.00
917.3800, 22232.00
918.5050, 22680.00
919.6300, 23339.00
920.7550, 23846.00
921.8800, 24309.00
923.0040, 24813.00
924.1290, 24991.00
925.2530, 25456.00
926.3770, 25500.00
927.5010, 25787.00
928.6250, 25826.00
929.7480, 25747.00
930.8720, 25553.00
931.9950, 25534.00
933.1180, 25131.00
934.2410, 24758.00
935.3640, 24427.00
936.4860, 24054.00
937.6090, 23515.00
938.7310, 23490.00
939.8530, 22844.00
940.9750, 22583.00
942.0970, 22459.00
943.2180, 22007.00
944.3400, 22050.00
945.4610, 21726.00
946.5820, 21581.00
947.7030, 21607.00
948.8240, 21561.00
949.9450, 21433.25
951.0650, 21132.00
952.1860, 21157.00
953.3060, 21114.00
954.4260, 20891.00
955.5460, 21047.00
956.6650, 21035.00
957.7850, 20808.00
958.9040, 21097.00
960.0230, 20534.00
961.1420, 20595.00
962.2610, 20784.00
963.3800, 20698.00
964.4990, 20752.00
965.6170, 20651.00
966.7350, 20826.00
967.8530, 20806.00
968.9710, 20819.00
970.0890, 20876.00
971.2070, 21052.00
972.3240, 21256.00
973.4410, 21359.00
974.5580, 21575.00
975.6750, 21950.00
976.7920, 22075.60
977.9090, 22349.90
979.0250, 22554.00
980.1410, 22831.00
981.2580, 23198.00
982.3740, 23529.00
983.4890, 23865.00
984.6050, 24164.00
985.7200, 24454.00
986.8360, 24771.26
987.9510, 25020.87
989.0660, 25382.00
990.1810, 25596.00
991.2950, 25900.00
992.4100, 26346.00
993.5240, 26386.00
994.6390, 26663.00
995.7530, 26744.00
996.8660, 26725.00
997.9800, 27034.00
999.0940, 27015.00
1000.207, 27158.00
1001.320, 27004.00
1002.433, 26769.00
1003.546, 26654.00
1004.659, 26504.00
1005.772, 26567.00
1006.884, 26684.00
1007.996, 26313.00
1009.108, 26428.00
1010.220, 25974.00
1011.332, 26089.00
1012.444, 25918.00
1013.555, 26041.00
1014.666, 25809.00
1015.777, 26100.00
1016.888, 26069.00
1017.999, 26026.00
1019.110, 25933.00
1020.220, 26012.49
1021.331, 26217.00
1022.441, 26135.00
1023.551, 26349.00
1024.661, 26374.00
1025.770, 26621.00
1026.880, 26639.00
1027.989, 26886.00
1029.098, 26859.00
1030.207, 26852.00
1031.316, 27449.00
1032.425, 27486.00
1033.533, 27480.00
1034.642, 27645.00
1035.750, 27779.00
1036.858, 28208.00
1037.966, 28616.00
1039.073, 28608.00
1040.181, 29127.00
1041.288, 29038.00
1042.396, 29679.00
1043.503, 29801.00
1044.610, 30385.00
1045.716, 30652.00
1046.823, 31153.00
1047.929, 31305.00
1049.036, 31974.00
1050.142, 32226.00
1051.248, 32904.00
1052.353, 33616.00
1053.459, 34306.00
1054.564, 34895.00
1055.670, 36018.00
1056.775, 36748.00
1057.880, 37959.00
1058.985, 39045.00
1060.089, 40704.00
1061.194, 42607.00
1062.298, 44195.00
1063.402, 45478.00
1064.506, 47013.00
1065.610, 47943.00
1066.713, 48263.00
1067.817, 48225.00
1068.920, 48098.00
1070.023, 47818.00
1071.126, 47352.00
1072.229, 47289.00
1073.332, 47262.00
1074.435, 47592.00
1075.537, 48335.00
1076.639, 49097.00
1077.741, 49860.00
1078.843, 50971.00
1079.945, 51602.00
1081.046, 52585.00
1082.148, 53137.00
1083.249, 54113.00
1084.350, 54215.00
1085.451, 54862.00
1086.551, 55367.00
1087.652, 55612.00
1088.752, 55683.00
1089.853, 55949.00
1090.953, 55867.00
1092.053, 56038.00
1093.152, 55565.00
1094.252, 55050.00
1095.351, 54901.00
1096.451, 53933.00
1097.550, 53207.00
1098.649, 52078.00
1099.748, 51635.00
1100.846, 50548.00
1101.945, 49563.00
1103.043, 48824.00
1104.141, 48119.00
1105.239, 47591.00
1106.337, 46782.00
1107.434, 46002.00
1108.532, 45288.00
1109.629, 44841.00
1110.726, 44343.00
1111.823, 43851.00
1112.920, 43182.00
1114.017, 42869.00
1115.113, 42389.00
1116.210, 42187.00
1117.306, 41952.00
1118.402, 41435.00
1119.498, 41207.00
1120.593, 40648.00
1121.689, 41038.00
1122.784, 41200.00
1123.879, 41116.00
1124.974, 40901.00
1126.069, 40845.00
1127.164, 40430.00
1128.259, 40608.00
1129.353, 40102.00
1130.447, 39892.00
1131.541, 38585.00
1132.635, 38288.00
1133.729, 37371.00
1134.822, 36241.00
1135.916, 35204.00
1137.009, 33990.00
1138.102, 32898.00
1139.195, 31769.00
1140.288, 30789.00
1141.380, 29976.00
1142.473, 29129.00
1143.565, 28688.00
1144.657, 27945.00
1145.749, 27549.00
1146.841, 27253.00
1147.932, 27338.00
1149.024, 27334.00
1150.115, 27301.00
1151.206, 27682.00
1152.297, 27659.00
1153.388, 28170.00
1154.479, 28809.00
1155.569, 29517.00
1156.659, 29687.00
1157.750, 30418.00
1158.839, 30862.00
1159.929, 31717.00
1161.019, 32360.00
1162.108, 33265.00
1163.198, 33924.00
1164.287, 34622.00
1165.376, 35455.00
1166.465, 36343.00
1167.553, 36584.00
1168.642, 37231.00
1169.730, 37569.00
1170.818, 37523.00
1171.906, 37627.00
1172.994, 37610.00
1174.082, 37357.00
1175.170, 37294.00
1176.257, 36866.00
1177.344, 36390.00
1178.431, 35313.00
1179.518, 34972.00
1180.605, 34322.00
1181.691, 33766.00
1182.778, 33167.00
1183.864, 32629.00
1184.950, 32182.00
1186.036, 31539.00
1187.122, 30891.00
1188.207, 30666.00
1189.292, 30132.00
1190.378, 29988.00
1191.463, 29516.00
1192.548, 29014.00
1193.632, 28889.00
1194.717, 28448.00
1195.801, 27800.00
1196.886, 27954.00
1197.970, 27306.00
1199.054, 26836.00
1200.137, 26501.00
1201.221, 26046.00
1202.305, 25659.00
1203.388, 25487.00
1204.471, 24997.00
1205.554, 25072.00
1206.637, 24426.00
1207.719, 23976.00
1208.802, 23994.00
1209.884, 23694.00
1210.966, 23581.00
1212.048, 23473.00
1213.130, 23467.00
1214.212, 23534.00
1215.293, 23698.00
1216.374, 23884.00
1217.456, 24040.00
1218.536, 24151.00
1219.617, 24398.00
1220.698, 24757.00
1221.778, 25126.00
1222.859, 25494.00
1223.939, 25860.57
1225.019, 26179.00
1226.099, 26533.00
1227.178, 26763.00
1228.258, 26946.00
1229.337, 27348.00
1230.417, 27530.00
1231.496, 27664.00
1232.574, 27919.00
1233.653, 27856.00
1234.732, 27821.00
1235.810, 27958.00
1236.888, 27661.00
1237.966, 27624.00
1239.044, 27349.00
1240.122, 27173.00
1241.199, 26915.00
1242.277, 26681.00
1243.354, 26289.00
1244.431, 25968.00
1245.508, 25610.00
1246.585, 25345.00
1247.661, 25025.26
1248.738, 24793.00
1249.814, 24476.00
1250.890, 24264.00
1251.966, 24074.00
1253.042, 23932.69
1254.117, 23974.00
1255.193, 23839.00
1256.268, 23861.00
1257.343, 24005.00
1258.418, 23861.00
1259.493, 24201.00
1260.567, 24252.00
1261.642, 24304.00
1262.716, 24150.00
1263.790, 24251.00
1264.864, 24359.00
1265.938, 24015.00
1267.011, 24045.00
1268.085, 23824.00
1269.158, 23569.00
1270.231, 23127.00
1271.304, 23023.00
1272.377, 22621.00
1273.450, 22425.00
1274.522, 21888.00
1275.594, 21652.00
1276.666, 21119.00
1277.738, 21035.00
1278.810, 20565.00
1279.882, 20251.00
1280.953, 19997.00
1282.025, 19927.00
