##NAMES=Eudialyte
##RRUFFID=R060035
##IDEAL CHEMISTRY=Na_15_Ca_6_Fe^2+^_3_Zr^4+^_3_Si(Si_25_O_73_)(O,OH,H_2_O)_3_(Cl,OH)_2_
##LOCALITY=Chibini, Kola Peninsula, Russia
##OWNER=RRUFF
##SOURCE=University of Arizona Mineral Museum
##DESCRIPTION=Deep pink coarsely crystalline
##STATUS=The identification of this mineral has been confirmed by X-ray diffraction and chemical analysis
##URL=rruff.info/R060035
##MEASURED CHEMISTRY=(Na_14.86_K_0.14_)_Σ=15_Ca_6.00_(Fe_1.52_Mn_1.48_)_Σ=3_(Zr_2.82_Ti_0.18_)_Σ=3_(Si_0.93_Nb_0.07_)_Σ=1_(Si_25.00_O_73_)((OH)_1.01_(H_2_O)_1.99_)_Σ=3_(Cl_1.65_(OH)_0.35_)_Σ=2_
##PIN_ID=M00150
##ORIENTATION=Laser parallel to c* (0 0 1). Fiducial mark perpendicular to laser is parallel to b [0 1 0]
118.1340, 23536.00
119.3650, 23430.00
120.5960, 23650.00
121.8270, 23594.00
123.0580, 23904.00
124.2880, 23511.00
125.5190, 23682.00
126.7490, 23585.00
127.9790, 23639.00
129.2090, 23775.00
130.4390, 23984.73
131.6680, 24152.46
132.8980, 24375.94
134.1270, 24594.00
135.3560, 24918.00
136.5850, 25123.00
137.8140, 25549.00
139.0430, 25856.00
140.2710, 25788.00
141.5000, 25996.00
142.7280, 25718.00
143.9560, 25659.00
145.1840, 25848.00
146.4120, 25542.00
147.6390, 25414.00
148.8670, 25146.00
150.0940, 24877.00
151.3210, 24977.00
152.5490, 24757.00
153.7750, 24680.00
155.0020, 24339.00
156.2290, 24516.00
157.4550, 24242.00
158.6810, 24233.00
159.9080, 24198.00
161.1340, 24251.00
162.3590, 24422.00
163.5850, 24181.00
164.8110, 24470.00
166.0360, 24552.00
167.2610, 24409.00
168.4860, 24367.00
169.7110, 24619.00
170.9360, 24542.00
172.1610, 24688.00
173.3850, 24818.00
174.6100, 24988.00
175.8340, 25131.00
177.0580, 25224.00
178.2820, 25580.00
179.5050, 25714.00
180.7290, 26154.00
181.9520, 26308.00
183.1760, 26749.00
184.3990, 27076.00
185.6220, 27628.00
186.8450, 28097.00
188.0670, 28595.00
189.2900, 29148.00
190.5120, 29558.00
191.7340, 30717.00
192.9560, 31293.00
194.1780, 31768.00
195.4000, 32431.00
196.6220, 32875.00
197.8430, 33491.00
199.0640, 33931.00
200.2860, 34428.00
201.5070, 34337.00
202.7270, 34571.00
203.9480, 34710.00
205.1690, 34290.00
206.3890, 34211.00
207.6090, 33411.00
208.8290, 33346.00
210.0490, 32801.00
211.2690, 32533.00
212.4890, 32278.00
213.7080, 31972.00
214.9280, 31282.00
216.1470, 30685.00
217.3660, 30144.00
218.5850, 29841.00
219.8030, 29426.00
221.0220, 28561.00
222.2400, 28456.00
223.4590, 27868.00
224.6770, 27189.00
225.8950, 26973.00
227.1120, 26638.00
228.3300, 26529.00
229.5480, 26116.00
230.7650, 25598.00
231.9820, 25422.00
233.1990, 25124.00
234.4160, 24886.00
235.6330, 24693.91
236.8490, 24512.00
238.0660, 24324.00
239.2820, 24152.00
240.4980, 24021.33
241.7140, 24022.00
242.9300, 23875.00
244.1460, 24019.00
245.3610, 23951.00
246.5770, 23895.00
247.7920, 23812.00
249.0070, 24118.00
250.2220, 23923.00
251.4370, 24042.00
252.6510, 24225.00
253.8660, 24053.00
255.0800, 24374.00
256.2940, 24394.00
257.5080, 24966.00
258.7220, 25401.00
259.9360, 25087.00
261.1490, 24924.00
262.3630, 25071.00
263.5760, 25400.00
264.7890, 25396.00
266.0020, 25493.00
267.2150, 25665.00
268.4270, 25822.00
269.6400, 25768.00
270.8520, 25933.00
272.0640, 25934.00
273.2760, 26063.00
274.4880, 25874.00
275.7000, 25842.00
276.9120, 25870.00
278.1230, 25653.00
279.3340, 25486.00
280.5450, 25393.00
281.7560, 25643.00
282.9670, 25541.00
284.1780, 25706.00
285.3880, 25723.35
286.5980, 25506.00
287.8090, 25661.00
289.0190, 25632.00
290.2290, 25404.00
291.4380, 25538.00
292.6480, 25899.00
293.8570, 25827.00
295.0670, 25841.00
296.2760, 26087.00
297.4850, 26144.00
298.6930, 25941.00
299.9020, 26179.00
301.1110, 26269.00
302.3190, 26209.00
303.5270, 26551.00
304.7350, 26485.00
305.9430, 26464.00
307.1510, 26709.00
308.3580, 26716.00
309.5660, 26790.00
310.7730, 26611.00
311.9800, 26787.00
313.1870, 26757.00
314.3940, 26641.00
315.6010, 26676.00
316.8070, 26879.00
318.0130, 26624.00
319.2200, 26487.00
320.4260, 26787.00
321.6310, 26623.00
322.8370, 26813.00
324.0430, 26679.00
325.2480, 26669.00
326.4540, 26416.00
327.6590, 26899.00
328.8640, 26788.00
330.0680, 27124.00
331.2730, 27253.00
332.4780, 27140.00
333.6820, 27379.00
334.8860, 27375.00
336.0900, 27500.00
337.2940, 27487.00
338.4980, 27461.00
339.7010, 27620.00
340.9050, 27645.00
342.1080, 27653.00
343.3110, 27700.00
344.5140, 27520.00
345.7170, 27598.00
346.9200, 27535.00
348.1220, 27746.00
349.3240, 27541.00
350.5270, 27792.00
351.7290, 27743.00
352.9310, 27775.00
354.1320, 27843.00
355.3340, 27642.00
356.5350, 27742.00
357.7370, 27640.00
358.9380, 27412.00
360.1390, 27415.00
361.3400, 27036.00
362.5400, 26969.00
363.7410, 26961.00
364.9410, 26632.00
366.1410, 26616.00
367.3410, 26463.00
368.5410, 26490.00
369.7410, 26318.00
370.9400, 26267.00
372.1400, 26280.00
373.3390, 26075.00
374.5380, 26206.00
375.7370, 25995.00
376.9360, 25792.00
378.1350, 26071.00
379.3330, 25607.00
380.5310, 25538.00
381.7300, 25806.00
382.9280, 25749.00
384.1260, 25586.00
385.3230, 25871.00
386.5210, 25766.00
387.7180, 25975.00
388.9160, 26256.00
390.1130, 26380.00
391.3100, 26720.00
392.5060, 26698.00
393.7030, 26789.00
394.9000, 26875.00
396.0960, 26734.00
397.2920, 26885.00
398.4880, 26940.00
399.6840, 26829.00
400.8800, 26881.00
402.0750, 26530.00
403.2710, 26332.00
404.4660, 26214.00
405.6610, 26189.00
406.8560, 25843.00
408.0510, 25694.00
409.2450, 25618.00
410.4400, 25313.00
411.6340, 25304.00
412.8280, 25268.00
414.0220, 25416.00
415.2160, 25197.00
416.4100, 25212.00
417.6030, 25044.00
418.7970, 24901.00
419.9900, 24925.00
421.1830, 24996.00
422.3760, 24803.00
423.5690, 24673.00
424.7610, 24528.00
425.9540, 24383.00
427.1460, 24581.00
428.3380, 24520.00
429.5300, 24643.00
430.7220, 24666.00
431.9140, 24488.00
433.1050, 24597.00
434.2970, 24661.00
435.4880, 24743.00
436.6790, 24584.00
437.8700, 24833.00
439.0610, 25173.00
440.2510, 25313.00
441.4420, 25126.00
442.6320, 25372.00
443.8220, 25440.00
445.0120, 25419.00
446.2020, 25653.00
447.3910, 25650.00
448.5810, 25631.00
449.7700, 25762.00
450.9600, 25785.00
452.1490, 25847.00
453.3370, 25812.87
454.5260, 25842.00
455.7150, 25640.00
456.9030, 25543.00
458.0910, 25353.00
459.2800, 25378.00
460.4670, 25088.00
461.6550, 24897.00
462.8430, 24948.00
464.0300, 24625.00
465.2180, 24602.00
466.4050, 24857.00
467.5920, 24594.00
468.7790, 24498.00
469.9650, 24475.00
471.1520, 24406.60
472.3380, 24449.68
473.5250, 24437.00
474.7110, 24477.00
475.8970, 24483.00
477.0820, 24575.50
478.2680, 24608.84
479.4540, 24658.13
480.6390, 24722.00
481.8240, 24759.00
483.0090, 24810.00
484.1940, 24859.00
485.3780, 25018.00
486.5630, 25020.00
487.7470, 25226.00
488.9320, 25197.00
490.1160, 25254.00
491.3000, 25337.00
492.4830, 25416.00
493.6670, 25351.00
494.8500, 25673.00
496.0340, 25942.00
497.2170, 25968.00
498.4000, 26098.00
499.5820, 26006.00
500.7650, 26265.00
501.9480, 26256.00
503.1300, 26468.00
504.3120, 26415.00
505.4940, 26736.00
506.6760, 26764.00
507.8580, 27113.00
509.0390, 26980.00
510.2210, 27177.00
511.4020, 27324.00
512.5830, 27318.00
513.7640, 27441.00
514.9450, 27378.00
516.1250, 27390.00
517.3060, 27356.00
518.4860, 27377.76
519.6660, 27421.59
520.8460, 27468.00
522.0260, 27598.00
523.2060, 27712.00
524.3850, 27930.00
525.5650, 27913.00
526.7440, 27805.00
527.9230, 28059.00
529.1020, 28246.00
530.2810, 28575.00
531.4590, 28830.03
532.6380, 29139.88
533.8160, 29482.00
534.9940, 29971.00
536.1720, 30451.00
537.3500, 31257.00
538.5270, 32098.00
539.7050, 33036.00
540.8820, 33576.00
542.0590, 34606.00
543.2360, 35494.00
544.4130, 36493.00
545.5900, 37856.00
546.7660, 38541.00
547.9430, 39717.00
549.1190, 40961.00
550.2950, 42627.00
551.4710, 43667.00
552.6470, 45572.00
553.8220, 47180.00
554.9980, 48048.00
556.1730, 49352.00
557.3480, 50181.00
558.5230, 50712.00
559.6980, 50873.00
560.8730, 51297.00
562.0470, 51785.00
563.2220, 52088.00
564.3960, 52443.00
565.5700, 52009.00
566.7440, 51135.00
567.9170, 49153.00
569.0910, 46940.00
570.2640, 44586.00
571.4380, 41972.00
572.6110, 39478.00
573.7840, 37465.00
574.9570, 35603.00
576.1290, 33858.00
577.3020, 32800.00
578.4740, 31686.00
579.6460, 31051.00
580.8180, 30577.00
581.9900, 30087.00
583.1620, 29771.04
584.3330, 29432.00
585.5040, 29348.00
586.6760, 29354.00
587.8470, 29321.00
589.0180, 29676.00
590.1880, 29963.00
591.3590, 29789.00
592.5290, 29996.00
593.7000, 30139.00
594.8700, 30562.00
596.0400, 30646.00
597.2090, 30974.00
598.3790, 31458.00
599.5490, 31797.00
600.7180, 31870.00
601.8870, 32348.00
603.0560, 32511.00
604.2250, 32482.00
605.3940, 32402.00
606.5620, 32738.00
607.7300, 32423.00
608.8990, 32307.00
610.0670, 32405.00
611.2350, 32063.00
612.4020, 32029.00
613.5700, 31613.00
614.7370, 31161.00
615.9050, 31228.00
617.0720, 30767.00
618.2390, 30684.00
619.4060, 30776.00
620.5720, 30218.00
621.7390, 29960.00
622.9050, 30284.00
624.0710, 30221.00
625.2370, 30223.00
626.4030, 30212.00
627.5690, 30061.00
628.7340, 30143.00
629.9000, 30122.00
631.0650, 29897.00
632.2300, 29775.00
633.3950, 29350.00
634.5600, 29220.00
635.7240, 29151.00
636.8890, 28831.00
638.0530, 28765.00
639.2170, 28651.00
640.3810, 28300.00
641.5450, 28248.00
642.7080, 28234.00
643.8720, 28261.00
645.0350, 28198.00
646.1980, 28174.00
647.3610, 28173.25
648.5240, 28130.00
649.6870, 28162.00
650.8490, 28173.00
652.0120, 28181.00
653.1740, 28353.00
654.3360, 28536.00
655.4980, 28561.00
656.6600, 28751.00
657.8210, 28920.00
658.9830, 28707.00
660.1440, 28807.00
661.3050, 28956.00
662.4660, 29102.00
663.6270, 29136.00
664.7870, 29449.00
665.9480, 29499.00
667.1080, 29701.00
668.2680, 29782.00
669.4280, 30019.00
670.5880, 30055.00
671.7480, 30302.00
672.9070, 30506.00
674.0670, 30513.00
675.2260, 30897.00
676.3850, 31077.00
677.5440, 31613.00
678.7030, 31457.00
679.8610, 31960.00
681.0200, 32370.00
682.1780, 32813.00
683.3360, 33251.64
684.4940, 33761.00
685.6520, 34111.00
686.8090, 34662.00
687.9670, 35128.95
689.1240, 35758.00
690.2810, 36083.00
691.4380, 36735.00
692.5950, 37366.00
693.7520, 38091.00
694.9080, 38837.00
696.0650, 39718.00
697.2210, 40188.00
698.3770, 40859.00
699.5330, 41468.00
700.6880, 41912.00
701.8440, 42329.00
702.9990, 42859.00
704.1550, 43259.00
705.3100, 43159.00
706.4650, 43012.00
707.6190, 42680.00
708.7740, 42077.00
709.9290, 41254.00
711.0830, 40357.00
712.2370, 39472.00
713.3910, 38404.00
714.5450, 37401.00
715.6980, 36166.00
716.8520, 35123.00
718.0050, 34045.00
719.1580, 33731.00
720.3110, 33126.00
721.4640, 32732.00
722.6170, 32051.00
723.7700, 31828.00
724.9220, 31633.00
726.0740, 31741.00
727.2260, 31660.00
728.3780, 31754.00
729.5300, 31730.00
730.6810, 31852.00
731.8330, 32081.32
732.9840, 32402.00
734.1350, 32782.00
735.2860, 33161.00
736.4370, 33838.00
737.5880, 33788.00
738.7380, 34520.00
739.8880, 34778.00
741.0390, 34926.00
742.1890, 35157.00
743.3380, 35400.00
744.4880, 35207.00
745.6380, 35368.00
746.7870, 35195.00
747.9360, 35294.00
749.0850, 35237.00
750.2340, 34743.00
751.3830, 34818.00
752.5310, 34675.00
753.6800, 34588.00
754.8280, 34171.00
755.9760, 34200.00
757.1240, 34005.00
758.2720, 33974.00
759.4190, 33867.00
760.5670, 33751.00
761.7140, 33580.00
762.8610, 33750.00
764.0080, 33318.00
765.1550, 33507.00
766.3020, 33416.00
767.4480, 33348.00
768.5950, 33205.00
769.7410, 33090.00
770.8870, 33212.00
772.0330, 32886.00
773.1780, 33130.00
774.3240, 33164.00
775.4690, 33151.00
776.6140, 33197.00
777.7590, 33028.00
778.9040, 33064.00
780.0490, 32954.00
781.1940, 32860.00
782.3380, 32825.00
783.4820, 32459.00
784.6260, 32598.00
785.7700, 32233.00
786.9140, 32182.00
788.0580, 31839.00
789.2010, 31912.00
790.3450, 31469.00
791.4880, 31339.00
792.6310, 31076.00
793.7730, 30695.00
794.9160, 30720.00
796.0590, 30326.00
797.2010, 30450.00
798.3430, 30114.00
799.4850, 29857.00
800.6270, 29826.00
801.7690, 29784.00
802.9100, 30042.00
804.0520, 29656.00
805.1930, 29902.00
806.3340, 29854.00
807.4750, 29508.00
808.6160, 29764.00
809.7560, 29799.00
810.8970, 29708.00
812.0370, 29881.00
813.1770, 29786.00
814.3170, 29889.00
815.4570, 29926.00
816.5960, 29929.00
817.7360, 29817.00
818.8750, 29851.00
820.0140, 29961.00
821.1530, 29853.00
822.2920, 30036.00
823.4310, 29660.00
824.5690, 30017.00
825.7070, 29959.00
826.8460, 30156.00
827.9840, 30202.00
829.1220, 30164.00
830.2590, 30021.00
831.3970, 30066.00
832.5340, 30045.13
833.6710, 30089.00
834.8080, 30115.00
835.9450, 30255.00
837.0820, 30324.00
838.2190, 30364.00
839.3550, 30333.00
840.4910, 30372.40
841.6270, 30395.00
842.7630, 30387.00
843.8990, 30494.24
845.0350, 30527.00
846.1700, 30626.00
847.3060, 30688.00
848.4410, 30723.00
849.5760, 30603.00
850.7100, 30678.00
851.8450, 30623.00
852.9800, 30728.00
854.1140, 30860.00
855.2480, 30790.00
856.3820, 30810.00
857.5160, 30926.00
858.6500, 30973.00
859.7830, 30922.00
860.9170, 30975.00
862.0500, 31035.00
863.1830, 31120.00
864.3160, 31055.00
865.4480, 31324.00
866.5810, 31395.00
867.7130, 31804.00
868.8460, 31663.00
869.9780, 31718.00
871.1100, 31929.00
872.2410, 31963.00
873.3730, 32009.00
874.5050, 31882.00
875.6360, 32001.06
876.7670, 31993.00
877.8980, 32174.00
879.0290, 32180.00
880.1590, 32339.00
881.2900, 32408.00
882.4200, 32439.00
883.5500, 32531.00
884.6800, 32658.00
885.8100, 32714.00
886.9400, 32842.00
888.0690, 32749.00
889.1990, 32976.00
890.3280, 33031.00
891.4570, 33143.00
892.5860, 33341.00
893.7140, 33472.00
894.8430, 33881.00
895.9710, 34041.00
897.1000, 34202.00
898.2280, 34358.00
899.3560, 34452.00
900.4830, 34833.00
901.6110, 34750.00
902.7380, 35232.00
903.8660, 35260.00
904.9930, 35862.00
906.1200, 36002.00
907.2460, 35759.00
908.3730, 36349.00
909.5000, 36705.00
910.6260, 36742.00
911.7520, 36951.00
912.8780, 37373.00
914.0040, 37422.00
915.1290, 37869.00
916.2550, 37788.00
917.3800, 37933.00
918.5050, 38229.00
919.6300, 38400.00
920.7550, 38182.00
921.8800, 38594.00
923.0040, 38419.00
924.1290, 38601.00
925.2530, 38497.00
926.3770, 38117.00
927.5010, 38120.00
928.6250, 38125.00
929.7480, 37843.00
930.8720, 37463.00
931.9950, 37386.00
933.1180, 37187.00
934.2410, 37110.00
935.3640, 37026.29
936.4860, 36909.15
937.6090, 36895.00
938.7310, 36755.00
939.8530, 36678.65
940.9750, 36632.00
942.0970, 36477.00
943.2180, 36619.00
944.3400, 36370.00
945.4610, 36585.00
946.5820, 36506.00
947.7030, 36810.00
948.8240, 36750.00
949.9450, 36635.00
951.0650, 36783.00
952.1860, 36916.00
953.3060, 36682.00
954.4260, 36533.00
955.5460, 36609.00
956.6650, 36333.00
957.7850, 36271.00
958.9040, 36452.00
960.0230, 36417.00
961.1420, 36452.72
962.2610, 36311.00
963.3800, 36430.00
964.4990, 36601.00
965.6170, 36475.00
966.7350, 36520.00
967.8530, 36530.00
968.9710, 36311.00
970.0890, 36689.00
971.2070, 36488.00
972.3240, 36798.00
973.4410, 36927.00
974.5580, 37004.00
975.6750, 37418.00
976.7920, 37261.00
977.9090, 37635.00
979.0250, 37664.00
980.1410, 37660.00
981.2580, 37956.00
982.3740, 38099.00
983.4890, 38170.00
984.6050, 38421.02
985.7200, 38666.00
986.8360, 38816.00
987.9510, 38966.00
989.0660, 39205.00
990.1810, 39341.21
991.2950, 39496.21
992.4100, 39646.00
993.5240, 39765.00
994.6390, 39849.00
995.7530, 39972.00
996.8660, 39944.00
997.9800, 39864.00
999.0940, 39887.00
1000.207, 39770.10
1001.320, 39437.00
1002.433, 39544.00
1003.546, 39356.00
1004.659, 39183.00
1005.772, 39298.00
1006.884, 38832.00
1007.996, 38613.00
1009.108, 38767.00
1010.220, 38262.00
1011.332, 38220.00
1012.444, 37952.00
1013.555, 38074.00
1014.666, 38160.00
1015.777, 38162.00
1016.888, 38151.00
1017.999, 38122.00
1019.110, 38099.00
1020.220, 38381.00
1021.331, 38202.00
1022.441, 38285.00
1023.551, 38279.00
1024.661, 38091.00
1025.770, 38234.00
1026.880, 38040.00
1027.989, 38136.00
1029.098, 38393.00
1030.207, 38609.00
1031.316, 38341.00
1032.425, 38728.00
1033.533, 38589.00
1034.642, 38736.00
1035.750, 38596.00
1036.858, 38706.00
1037.966, 38643.00
1039.073, 38762.00
1040.181, 39148.00
1041.288, 39209.00
1042.396, 39283.53
1043.503, 39182.00
1044.610, 39287.00
1045.716, 39473.00
1046.823, 39481.00
1047.929, 39106.00
1049.036, 39178.00
1050.142, 39326.00
1051.248, 39621.00
1052.353, 39420.00
1053.459, 39829.00
1054.564, 39901.00
1055.670, 40129.00
1056.775, 40202.00
1057.880, 40480.00
1058.985, 40700.40
1060.089, 40986.00
1061.194, 41232.00
1062.298, 41476.00
1063.402, 41751.00
1064.506, 42027.00
1065.610, 42083.00
1066.713, 42809.00
1067.817, 42780.00
1068.920, 43030.00
1070.023, 43515.00
1071.126, 43579.00
1072.229, 43703.00
1073.332, 43793.00
1074.435, 44049.00
1075.537, 44300.00
1076.639, 44461.00
1077.741, 44854.00
1078.843, 45213.00
1079.945, 45408.00
1081.046, 45755.06
1082.148, 46083.64
1083.249, 46326.00
1084.350, 46771.00
1085.451, 47122.05
1086.551, 47451.37
1087.652, 47713.00
1088.752, 47876.00
1089.853, 48044.00
1090.953, 48068.00
1092.053, 48083.00
1093.152, 48024.00
1094.252, 47795.00
1095.351, 47604.00
1096.451, 47438.00
1097.550, 47100.00
1098.649, 46377.00
1099.748, 46095.00
1100.846, 45028.00
1101.945, 44866.00
1103.043, 44032.00
1104.141, 43468.00
1105.239, 43142.00
1106.337, 42665.00
1107.434, 42163.00
1108.532, 41984.00
1109.629, 41892.00
1110.726, 41883.00
1111.823, 41436.00
1112.920, 41466.00
1114.017, 40858.00
1115.113, 41089.00
1116.210, 40787.00
1117.306, 40720.00
1118.402, 40902.00
1119.498, 40480.00
1120.593, 40700.00
1121.689, 40787.00
1122.784, 41012.00
1123.879, 40732.00
1124.974, 40896.00
1126.069, 40806.00
1127.164, 40632.00
1128.259, 40797.00
1129.353, 40683.00
1130.447, 40657.00
1131.541, 40723.00
1132.635, 40295.00
1133.729, 40396.00
1134.822, 40475.00
1135.916, 40472.00
1137.009, 40161.00
1138.102, 40031.00
1139.195, 40144.00
1140.288, 39882.00
1141.380, 39879.00
1142.473, 39719.00
1143.565, 39430.00
1144.657, 39278.00
1145.749, 39264.00
1146.841, 39286.00
1147.932, 39092.00
1149.024, 39107.00
1150.115, 39221.00
1151.206, 39258.00
1152.297, 39271.92
1153.388, 39007.00
1154.479, 39210.00
1155.569, 39231.00
1156.659, 39044.00
1157.750, 39205.00
1158.839, 39343.00
1159.929, 39317.00
1161.019, 39349.00
1162.108, 39510.00
1163.198, 39491.00
1164.287, 39460.00
1165.376, 39336.00
1166.465, 39482.00
1167.553, 39721.00
1168.642, 39273.00
1169.730, 39503.00
1170.818, 39617.00
1171.906, 39263.00
1172.994, 39180.00
1174.082, 39312.00
1175.170, 39415.00
1176.257, 39318.00
1177.344, 39504.00
1178.431, 39460.00
1179.518, 39496.00
1180.605, 39273.00
1181.691, 39448.00
1182.778, 39160.00
1183.864, 39391.00
1184.950, 39282.00
1186.036, 39272.00
1187.122, 39460.00
1188.207, 39461.00
1189.292, 39560.18
1190.378, 39522.00
1191.463, 39693.00
1192.548, 39685.00
1193.632, 39665.00
1194.717, 39521.00
1195.801, 39430.00
1196.886, 39276.00
1197.970, 39229.00
1199.054, 39747.00
1200.137, 39692.00
1201.221, 39558.00
1202.305, 39729.00
1203.388, 39637.00
1204.471, 39594.00
1205.554, 39813.00
1206.637, 39983.00
1207.719, 40055.00
1208.802, 39843.00
1209.884, 39955.00
1210.966, 40094.00
1212.048, 39896.00
1213.130, 40049.00
1214.212, 39993.00
1215.293, 40073.00
1216.374, 40198.00
1217.456, 40164.00
1218.536, 40529.00
1219.617, 40492.00
1220.698, 40521.00
1221.778, 40818.00
1222.859, 40383.00
1223.939, 40476.00
1225.019, 40531.00
1226.099, 40455.00
1227.178, 40545.00
1228.258, 40724.00
1229.337, 40668.00
1230.417, 40885.00
1231.496, 40526.00
1232.574, 40754.00
1233.653, 40367.00
1234.732, 40566.00
1235.810, 40749.00
1236.888, 40522.00
1237.966, 40361.00
1239.044, 40736.00
1240.122, 40482.00
1241.199, 40768.00
1242.277, 40920.00
1243.354, 40992.00
1244.431, 41050.00
1245.508, 41274.00
1246.585, 41351.00
1247.661, 41105.00
1248.738, 41177.00
1249.814, 41021.00
1250.890, 41248.00
1251.966, 41446.00
1253.042, 41130.00
1254.117, 40961.00
1255.193, 41387.00
1256.268, 41349.00
1257.343, 41485.00
1258.418, 41460.00
1259.493, 41711.00
1260.567, 41688.00
1261.642, 41878.00
1262.716, 41706.00
1263.790, 41575.00
1264.864, 41624.00
1265.938, 41580.00
1267.011, 41606.00
1268.085, 41647.00
1269.158, 41713.77
1270.231, 41678.00
1271.304, 41855.00
1272.377, 41930.00
1273.450, 41869.00
1274.522, 41789.00
1275.594, 41867.00
1276.666, 42050.00
1277.738, 41889.00
1278.810, 42189.00
1279.882, 42145.00
1280.953, 41853.00
1282.025, 42018.00
1283.096, 42018.00
1284.167, 42190.00
1285.238, 42433.00
