##NAMES=Eudialyte
##RRUFFID=R050230
##IDEAL CHEMISTRY=Na_15_Ca_6_Fe^2+^_3_Zr^4+^_3_Si(Si_25_O_73_)(O,OH,H_2_O)_3_(Cl,OH)_2_
##LOCALITY=Kipawa alkaline complex, near Sheffield Lake, Villedieu Township, Temiscamingue County, Quebec, Canada
##OWNER=RRUFF
##SOURCE=Marcus Origlieri
##DESCRIPTION=Massive aggregate of red crystals
##STATUS=The identification of this mineral has been confirmed by X-ray diffraction and chemical analysis
##URL=rruff.info/R050230
##MEASURED CHEMISTRY=(Na_14.50_K_0.35_Ca_0.15_)_Σ=15_Ca_6.00_(Fe_1.86_Mn_1.01_Mg_0.13_)_Σ=3_(Zr_2.91_Ti_0.09_)_3_(Si_0.94_Nb_0.06_)_Σ=1.00_(Si_25.00_O_73_)(OH)_1.10_(H_2_O)_1.90_)_Σ=3_(Cl_1.17_(OH)_0.83_)_Σ=2_
##PIN_ID=M00392
##ORIENTATION=Laser parallel to c* (0 0 1). Fiducial mark perpendicular to laser is parallel to -a [-1 0 0]
118.1340, 32825.00
119.3650, 33208.00
120.5960, 32912.00
121.8270, 32962.00
123.0580, 33102.00
124.2880, 33186.00
125.5190, 33269.18
126.7490, 33371.21
127.9790, 33514.00
129.2090, 33689.00
130.4390, 33978.00
131.6680, 34309.67
132.8980, 34799.00
134.1270, 35147.00
135.3560, 35675.00
136.5850, 36165.00
137.8140, 36721.00
139.0430, 37220.00
140.2710, 37724.00
141.5000, 38094.00
142.7280, 37529.00
143.9560, 37717.00
145.1840, 37399.00
146.4120, 37308.00
147.6390, 37418.00
148.8670, 37351.00
150.0940, 37474.00
151.3210, 37516.00
152.5490, 37390.00
153.7750, 37309.00
155.0020, 37854.00
156.2290, 38139.00
157.4550, 38432.00
158.6810, 38926.00
159.9080, 39058.00
161.1340, 39356.00
162.3590, 39521.00
163.5850, 39554.00
164.8110, 39366.00
166.0360, 39382.00
167.2610, 38854.00
168.4860, 38297.00
169.7110, 37952.00
170.9360, 37411.00
172.1610, 37033.00
173.3850, 36530.00
174.6100, 36154.00
175.8340, 36232.00
177.0580, 36296.00
178.2820, 36237.00
179.5050, 36446.00
180.7290, 36803.00
181.9520, 37664.00
183.1760, 38062.00
184.3990, 38663.00
185.6220, 39940.00
186.8450, 40597.00
188.0670, 41334.00
189.2900, 42635.00
190.5120, 43762.00
191.7340, 44998.00
192.9560, 46109.00
194.1780, 47259.00
195.4000, 48360.00
196.6220, 50065.00
197.8430, 51205.00
199.0640, 52688.00
200.2860, 54023.00
201.5070, 55428.00
202.7270, 56301.00
203.9480, 57422.00
205.1690, 58170.00
206.3890, 58622.00
207.6090, 58782.00
208.8290, 58919.00
210.0490, 59109.00
211.2690, 58491.00
212.4890, 58442.00
213.7080, 57798.00
214.9280, 56654.00
216.1470, 55287.00
217.3660, 54423.00
218.5850, 52676.00
219.8030, 51586.00
221.0220, 49678.00
222.2400, 48157.00
223.4590, 46339.00
224.6770, 44559.00
225.8950, 42781.00
227.1120, 41277.00
228.3300, 39873.00
229.5480, 38614.00
230.7650, 37311.00
231.9820, 36257.98
233.1990, 35145.00
234.4160, 34479.00
235.6330, 33758.95
236.8490, 33344.00
238.0660, 32988.00
239.2820, 32724.53
240.4980, 32542.47
241.7140, 32570.00
242.9300, 32460.00
244.1460, 32570.00
245.3610, 32825.00
246.5770, 33266.00
247.7920, 33612.00
249.0070, 33805.00
250.2220, 34047.00
251.4370, 34492.00
252.6510, 34531.00
253.8660, 34540.00
255.0800, 34841.00
256.2940, 34857.00
257.5080, 35316.00
258.7220, 35902.00
259.9360, 35406.00
261.1490, 34788.00
262.3630, 34173.00
263.5760, 34190.00
264.7890, 34612.00
266.0020, 34629.00
267.2150, 34684.00
268.4270, 34723.00
269.6400, 34826.00
270.8520, 34906.00
272.0640, 35548.00
273.2760, 35639.00
274.4880, 35783.00
275.7000, 35998.00
276.9120, 36054.00
278.1230, 36451.00
279.3340, 36669.00
280.5450, 36770.00
281.7560, 37092.00
282.9670, 37364.00
284.1780, 37523.00
285.3880, 37774.00
286.5980, 38073.00
287.8090, 38482.00
289.0190, 38731.00
290.2290, 39076.00
291.4380, 39168.00
292.6480, 39618.00
293.8570, 39833.00
295.0670, 40173.00
296.2760, 40245.00
297.4850, 40560.00
298.6930, 40859.00
299.9020, 40714.00
301.1110, 41321.00
302.3190, 41113.00
303.5270, 41544.00
304.7350, 41594.00
305.9430, 42128.00
307.1510, 42247.00
308.3580, 42670.00
309.5660, 42891.00
310.7730, 43142.00
311.9800, 43942.00
313.1870, 45080.00
314.3940, 45706.00
315.6010, 45872.00
316.8070, 46299.00
318.0130, 46466.00
319.2200, 46386.00
320.4260, 46103.00
321.6310, 46234.00
322.8370, 45930.00
324.0430, 45287.00
325.2480, 45750.00
326.4540, 45535.00
327.6590, 45956.00
328.8640, 46245.00
330.0680, 47107.00
331.2730, 47846.00
332.4780, 48730.00
333.6820, 49223.00
334.8860, 50079.00
336.0900, 50225.00
337.2940, 50181.00
338.4980, 49108.00
339.7010, 48648.00
340.9050, 47038.00
342.1080, 45752.00
343.3110, 44252.00
344.5140, 42326.00
345.7170, 41157.00
346.9200, 39660.00
348.1220, 38593.00
349.3240, 37408.00
350.5270, 36611.00
351.7290, 35807.00
352.9310, 35459.00
354.1320, 34902.00
355.3340, 34332.00
356.5350, 34010.00
357.7370, 33766.00
358.9380, 33146.00
360.1390, 32607.00
361.3400, 32225.00
362.5400, 31647.00
363.7410, 31327.00
364.9410, 30514.00
366.1410, 29993.00
367.3410, 29497.00
368.5410, 29031.00
369.7410, 28437.00
370.9400, 28042.00
372.1400, 27797.00
373.3390, 27290.00
374.5380, 26980.00
375.7370, 26601.00
376.9360, 26128.00
378.1350, 25939.00
379.3330, 25642.50
380.5310, 25543.00
381.7300, 25364.00
382.9280, 25370.00
384.1260, 25510.00
385.3230, 25366.00
386.5210, 25723.00
387.7180, 25771.00
388.9160, 25784.00
390.1130, 25705.00
391.3100, 25786.00
392.5060, 25721.00
393.7030, 25911.00
394.9000, 25916.00
396.0960, 26040.00
397.2920, 25754.00
398.4880, 25789.00
399.6840, 25697.00
400.8800, 25423.00
402.0750, 25416.00
403.2710, 25364.00
404.4660, 25257.00
405.6610, 24948.00
406.8560, 24834.00
408.0510, 24725.00
409.2450, 24353.00
410.4400, 24251.00
411.6340, 23966.00
412.8280, 23695.00
414.0220, 23673.00
415.2160, 23435.00
416.4100, 23083.00
417.6030, 22714.00
418.7970, 22465.00
419.9900, 22232.00
421.1830, 22020.00
422.3760, 21482.00
423.5690, 21554.00
424.7610, 21103.00
425.9540, 21091.00
427.1460, 20537.00
428.3380, 20387.00
429.5300, 20331.00
430.7220, 20090.00
431.9140, 19990.00
433.1050, 19733.00
434.2970, 19675.00
435.4880, 19455.00
436.6790, 19340.00
437.8700, 19150.47
439.0610, 19054.00
440.2510, 18719.32
441.4420, 18481.00
442.6320, 18199.00
443.8220, 18104.00
445.0120, 17729.00
446.2020, 17599.00
447.3910, 17343.00
448.5810, 17169.00
449.7700, 16985.32
450.9600, 16751.00
452.1490, 16625.00
453.3370, 16467.00
454.5260, 16315.00
455.7150, 16183.00
456.9030, 15990.00
458.0910, 15675.00
459.2800, 15533.00
460.4670, 15458.00
461.6550, 15063.00
462.8430, 15043.00
464.0300, 14861.00
465.2180, 14776.00
466.4050, 14647.00
467.5920, 14567.27
468.7790, 14466.00
469.9650, 14478.00
471.1520, 14413.00
472.3380, 14446.91
473.5250, 14189.00
474.7110, 14398.00
475.8970, 14289.00
477.0820, 14125.00
478.2680, 14256.00
479.4540, 14361.00
480.6390, 14350.00
481.8240, 14317.00
483.0090, 14330.00
484.1940, 14283.00
485.3780, 14397.00
486.5630, 14536.00
487.7470, 14455.00
488.9320, 14631.00
490.1160, 14672.00
491.3000, 14685.00
492.4830, 14859.00
493.6670, 15011.00
494.8500, 14937.00
496.0340, 15197.00
497.2170, 15368.00
498.4000, 15450.00
499.5820, 15791.00
500.7650, 15932.00
501.9480, 16243.00
503.1300, 16335.00
504.3120, 16753.00
505.4940, 16962.00
506.6760, 17309.00
507.8580, 17356.00
509.0390, 17601.00
510.2210, 18208.00
511.4020, 18245.00
512.5830, 18743.00
513.7640, 18827.00
514.9450, 19090.00
516.1250, 19243.00
517.3060, 19379.00
518.4860, 19952.00
519.6660, 20165.00
520.8460, 20424.00
522.0260, 20462.00
523.2060, 20775.00
524.3850, 21140.00
525.5650, 21322.00
526.7440, 21616.00
527.9230, 21885.00
529.1020, 22313.00
530.2810, 22574.00
531.4590, 23451.00
532.6380, 23801.00
533.8160, 24319.00
534.9940, 25584.00
536.1720, 26301.00
537.3500, 27330.00
538.5270, 28734.00
539.7050, 30166.00
540.8820, 31336.00
542.0590, 32594.00
543.2360, 33926.00
544.4130, 34983.00
545.5900, 36623.00
546.7660, 38258.00
547.9430, 39670.00
549.1190, 41499.00
550.2950, 43391.00
551.4710, 46073.00
552.6470, 47567.00
553.8220, 49609.00
554.9980, 51111.00
556.1730, 52385.00
557.3480, 53429.00
558.5230, 54029.00
559.6980, 53936.00
560.8730, 54393.00
562.0470, 54929.00
563.2220, 56086.00
564.3960, 56797.00
565.5700, 58099.00
566.7440, 59068.00
567.9170, 59415.00
569.0910, 58924.00
570.2640, 57399.00
571.4380, 55542.00
572.6110, 52798.00
573.7840, 49579.00
574.9570, 45934.00
576.1290, 42445.00
577.3020, 39312.00
578.4740, 36195.00
579.6460, 33411.00
580.8180, 30897.00
581.9900, 29037.00
583.1620, 27295.00
584.3330, 26066.00
585.5040, 25004.00
586.6760, 24117.00
587.8470, 23556.00
589.0180, 23167.00
590.1880, 23054.00
591.3590, 22983.00
592.5290, 23370.00
593.7000, 23669.00
594.8700, 23961.00
596.0400, 24712.00
597.2090, 25341.00
598.3790, 26120.00
599.5490, 26794.00
600.7180, 27371.00
601.8870, 27603.00
603.0560, 28170.00
604.2250, 28311.00
605.3940, 28621.00
606.5620, 28541.00
607.7300, 28265.00
608.8990, 28088.63
610.0670, 27613.05
611.2350, 27204.00
612.4020, 26561.00
613.5700, 25878.00
614.7370, 25353.00
615.9050, 24973.00
617.0720, 24454.00
618.2390, 24320.00
619.4060, 24219.00
620.5720, 24373.00
621.7390, 24323.00
622.9050, 24812.00
624.0710, 24898.00
625.2370, 24998.00
626.4030, 25346.00
627.5690, 25499.00
628.7340, 25231.00
629.9000, 25251.00
631.0650, 25071.00
632.2300, 24794.00
633.3950, 24577.00
634.5600, 24405.00
635.7240, 24208.00
636.8890, 24069.86
638.0530, 23988.00
639.2170, 23836.00
640.3810, 23828.00
641.5450, 23769.00
642.7080, 23848.00
643.8720, 23885.71
645.0350, 23919.00
646.1980, 24083.00
647.3610, 24294.00
648.5240, 24466.00
649.6870, 24834.00
650.8490, 25087.00
652.0120, 25472.83
653.1740, 25697.00
654.3360, 26384.00
655.4980, 26842.00
656.6600, 27493.00
657.8210, 27793.00
658.9830, 28553.00
660.1440, 29064.00
661.3050, 29880.00
662.4660, 30190.00
663.6270, 31011.00
664.7870, 31259.00
665.9480, 32280.00
667.1080, 32892.00
668.2680, 33812.00
669.4280, 34127.00
670.5880, 34950.00
671.7480, 35746.00
672.9070, 36356.00
674.0670, 37120.00
675.2260, 37664.00
676.3850, 38451.00
677.5440, 38709.00
678.7030, 39487.00
679.8610, 40204.00
681.0200, 40660.00
682.1780, 41546.00
683.3360, 42074.00
684.4940, 42682.00
685.6520, 42954.00
686.8090, 43825.00
687.9670, 44338.00
689.1240, 44908.00
690.2810, 45451.00
691.4380, 46068.12
692.5950, 46340.00
693.7520, 47321.00
694.9080, 47963.00
696.0650, 48566.00
697.2210, 48878.00
698.3770, 49779.00
699.5330, 49971.00
700.6880, 50365.00
701.8440, 50247.00
702.9990, 50089.00
704.1550, 49514.00
705.3100, 48503.00
706.4650, 47402.00
707.6190, 45948.00
708.7740, 44518.00
709.9290, 42985.00
711.0830, 41090.00
712.2370, 39695.00
713.3910, 38234.00
714.5450, 37064.00
715.6980, 35707.00
716.8520, 34981.00
718.0050, 34395.00
719.1580, 33614.00
720.3110, 33379.00
721.4640, 33292.00
722.6170, 33270.00
723.7700, 33294.00
724.9220, 33943.00
726.0740, 34157.00
727.2260, 34667.00
728.3780, 35055.00
729.5300, 35592.00
730.6810, 36402.00
731.8330, 36916.00
732.9840, 37813.00
734.1350, 38644.00
735.2860, 38903.00
736.4370, 39644.00
737.5880, 40159.00
738.7380, 40868.00
739.8880, 41221.00
741.0390, 41631.00
742.1890, 41467.00
743.3380, 41647.00
744.4880, 40870.00
745.6380, 41210.00
746.7870, 40612.00
747.9360, 39871.00
749.0850, 39559.00
750.2340, 38769.00
751.3830, 38268.00
752.5310, 37637.00
753.6800, 37028.00
754.8280, 36718.00
755.9760, 36195.00
757.1240, 35651.00
758.2720, 35294.00
759.4190, 34946.00
760.5670, 34414.00
761.7140, 33934.00
762.8610, 33791.00
764.0080, 33132.00
765.1550, 32751.00
766.3020, 32219.00
767.4480, 31705.34
768.5950, 31211.46
769.7410, 30721.00
770.8870, 30166.00
772.0330, 29675.00
773.1780, 29198.00
774.3240, 28770.83
775.4690, 28384.00
776.6140, 28001.00
777.7590, 27670.00
778.9040, 27323.00
780.0490, 26801.00
781.1940, 26468.00
782.3380, 26017.00
783.4820, 25727.00
784.6260, 25289.00
785.7700, 24758.00
786.9140, 24212.00
788.0580, 23546.00
789.2010, 22992.00
790.3450, 22533.00
791.4880, 22059.00
792.6310, 21489.67
793.7730, 20930.00
794.9160, 20488.00
796.0590, 19807.00
797.2010, 19537.00
798.3430, 19125.00
799.4850, 18740.00
800.6270, 18511.00
801.7690, 18016.00
802.9100, 17905.00
804.0520, 17832.00
805.1930, 17376.00
806.3340, 17165.00
807.4750, 17117.00
808.6160, 16981.00
809.7560, 16776.00
810.8970, 16479.00
812.0370, 16527.00
813.1770, 16361.00
814.3170, 16286.00
815.4570, 16281.00
816.5960, 16138.00
817.7360, 15912.00
818.8750, 15795.00
820.0140, 15872.00
821.1530, 15598.00
822.2920, 15723.00
823.4310, 15366.00
824.5690, 15236.00
825.7070, 15346.00
826.8460, 15199.00
827.9840, 15085.00
829.1220, 14987.00
830.2590, 14883.28
831.3970, 14801.60
832.5340, 14744.00
833.6710, 14667.00
834.8080, 14666.00
835.9450, 14644.00
837.0820, 14619.00
838.2190, 14574.00
839.3550, 14364.00
840.4910, 14407.00
841.6270, 14327.00
842.7630, 14257.00
843.8990, 14288.00
845.0350, 14290.00
846.1700, 14132.00
847.3060, 14258.00
848.4410, 14151.00
849.5760, 14084.00
850.7100, 14062.00
851.8450, 14154.00
852.9800, 14094.00
854.1140, 14105.00
855.2480, 14173.00
856.3820, 14108.00
857.5160, 13969.00
858.6500, 14192.00
859.7830, 14123.00
860.9170, 14226.00
862.0500, 14335.00
863.1830, 14379.00
864.3160, 14285.00
865.4480, 14252.00
866.5810, 14425.00
867.7130, 14393.00
868.8460, 14497.00
869.9780, 14626.00
871.1100, 14709.00
872.2410, 14918.00
873.3730, 14900.00
874.5050, 14817.00
875.6360, 15083.00
876.7670, 15180.00
877.8980, 15183.00
879.0290, 15427.00
880.1590, 15255.00
881.2900, 15444.00
882.4200, 15467.00
883.5500, 15432.00
884.6800, 15570.00
885.8100, 15747.00
886.9400, 15930.00
888.0690, 16244.00
889.1990, 16596.00
890.3280, 16685.00
891.4570, 16844.00
892.5860, 17194.00
893.7140, 17280.00
894.8430, 17923.00
895.9710, 18366.00
897.1000, 18666.00
898.2280, 18989.00
899.3560, 19199.00
900.4830, 19585.00
901.6110, 19861.00
902.7380, 20297.17
903.8660, 20873.00
904.9930, 21222.00
906.1200, 21817.00
907.2460, 22299.00
908.3730, 22636.00
909.5000, 23165.00
910.6260, 23627.00
911.7520, 24024.00
912.8780, 24584.00
914.0040, 25212.00
915.1290, 25734.00
916.2550, 26576.00
917.3800, 27112.54
918.5050, 28187.00
919.6300, 28391.00
920.7550, 29128.00
921.8800, 29853.00
923.0040, 30295.00
924.1290, 30763.50
925.2530, 31052.00
926.3770, 31270.00
927.5010, 31397.83
928.6250, 31317.00
929.7480, 31358.00
930.8720, 31098.00
931.9950, 30718.00
933.1180, 30445.00
934.2410, 29708.00
935.3640, 29593.00
936.4860, 28914.00
937.6090, 28556.00
938.7310, 28514.00
939.8530, 27665.00
940.9750, 27790.00
942.0970, 27220.00
943.2180, 27048.00
944.3400, 26918.00
945.4610, 26589.00
946.5820, 26369.00
947.7030, 26418.00
948.8240, 26281.00
949.9450, 26080.00
951.0650, 26192.00
952.1860, 26115.00
953.3060, 25979.00
954.4260, 25803.00
955.5460, 25655.00
956.6650, 25311.00
957.7850, 25492.00
958.9040, 25401.00
960.0230, 25124.00
961.1420, 25154.00
962.2610, 25032.00
963.3800, 25083.00
964.4990, 24971.00
965.6170, 25191.00
966.7350, 24933.00
967.8530, 24985.00
968.9710, 25180.00
970.0890, 25222.00
971.2070, 25378.00
972.3240, 25462.00
973.4410, 25700.00
974.5580, 25955.00
975.6750, 26253.00
976.7920, 26577.00
977.9090, 26990.00
979.0250, 27160.00
980.1410, 27600.00
981.2580, 27772.00
982.3740, 28301.00
983.4890, 28611.00
984.6050, 28950.00
985.7200, 29521.00
986.8360, 29745.00
987.9510, 30166.00
989.0660, 30425.00
990.1810, 30786.00
991.2950, 31099.00
992.4100, 31471.00
993.5240, 31513.00
994.6390, 31672.00
995.7530, 31942.00
996.8660, 32152.00
997.9800, 32151.00
999.0940, 31852.00
1000.207, 32169.00
1001.320, 32187.00
1002.433, 31665.00
1003.546, 32086.00
1004.659, 31952.00
1005.772, 31707.00
1006.884, 31359.00
1007.996, 31285.00
1009.108, 31220.00
1010.220, 31088.00
1011.332, 31175.00
1012.444, 30922.00
1013.555, 31066.00
1014.666, 30961.00
1015.777, 31074.00
1016.888, 30919.00
1017.999, 31055.00
1019.110, 31135.00
1020.220, 31098.00
1021.331, 31333.00
1022.441, 31407.00
1023.551, 31683.00
1024.661, 31339.00
1025.770, 31491.00
1026.880, 31692.00
1027.989, 31893.00
1029.098, 31864.00
1030.207, 32230.00
1031.316, 32405.00
1032.425, 32460.00
1033.533, 32808.00
1034.642, 33136.00
1035.750, 33244.00
1036.858, 33662.00
1037.966, 33817.00
1039.073, 34252.00
1040.181, 34470.00
1041.288, 34988.00
1042.396, 35232.00
1043.503, 35751.00
1044.610, 35965.00
1045.716, 36431.00
1046.823, 37220.00
1047.929, 37379.00
1049.036, 37999.00
1050.142, 38610.00
1051.248, 39177.00
1052.353, 39873.00
1053.459, 40538.00
1054.564, 41370.00
1055.670, 42797.00
1056.775, 43691.00
1057.880, 44917.00
1058.985, 46445.00
1060.089, 48386.00
1061.194, 50137.00
1062.298, 52120.00
1063.402, 53738.00
1064.506, 54834.00
1065.610, 55660.08
1066.713, 56317.00
1067.817, 56111.00
1068.920, 55898.00
1070.023, 55276.00
1071.126, 55167.00
1072.229, 55125.00
1073.332, 55360.00
1074.435, 55820.00
1075.537, 56829.00
1076.639, 57851.00
1077.741, 58644.00
1078.843, 59686.00
1079.945, 60808.00
1081.046, 62023.00
1082.148, 62660.00
1083.249, 63586.00
1084.350, 63982.00
1085.451, 64538.00
1086.551, 64458.00
1087.652, 64542.00
1088.752, 64453.00
1089.853, 64693.00
1090.953, 64806.00
1092.053, 64565.00
1093.152, 64196.00
1094.252, 63625.00
1095.351, 63364.00
1096.451, 62447.00
1097.550, 61495.00
1098.649, 60708.00
1099.748, 59938.00
1100.846, 59071.23
1101.945, 58058.00
1103.043, 57414.00
1104.141, 56510.00
1105.239, 55618.00
1106.337, 54919.00
1107.434, 53931.00
1108.532, 53357.00
1109.629, 52904.00
1110.726, 52017.00
1111.823, 51447.00
1112.920, 50906.00
1114.017, 50413.00
1115.113, 49785.00
1116.210, 49044.00
1117.306, 48892.00
1118.402, 48540.00
1119.498, 48210.00
1120.593, 48157.00
1121.689, 47904.00
1122.784, 47897.00
1123.879, 47672.00
1124.974, 48084.00
1126.069, 47960.00
1127.164, 47491.00
1128.259, 47602.00
1129.353, 47066.00
1130.447, 46406.00
1131.541, 45831.00
1132.635, 44680.00
1133.729, 43783.00
1134.822, 42609.00
1135.916, 41165.00
1137.009, 39921.00
1138.102, 38967.00
1139.195, 37723.00
1140.288, 36179.00
1141.380, 35216.00
1142.473, 34190.00
1143.565, 33857.00
1144.657, 33113.00
1145.749, 32716.00
1146.841, 32328.00
1147.932, 32125.00
1149.024, 32299.00
1150.115, 32447.77
1151.206, 32812.00
1152.297, 33257.00
1153.388, 33734.00
1154.479, 34189.00
1155.569, 34984.00
1156.659, 35673.00
1157.750, 36099.00
1158.839, 37062.00
1159.929, 37516.00
1161.019, 38345.00
1162.108, 39644.00
1163.198, 40443.00
1164.287, 41313.00
1165.376, 41989.00
1166.465, 42806.00
1167.553, 43183.00
1168.642, 44042.00
1169.730, 44376.00
1170.818, 44696.00
1171.906, 44736.00
1172.994, 44438.00
1174.082, 44135.00
1175.170, 43719.96
1176.257, 43241.00
1177.344, 42457.00
1178.431, 41837.00
1179.518, 40826.00
1180.605, 40331.00
1181.691, 39846.00
1182.778, 39029.00
1183.864, 38521.00
1184.950, 38069.00
1186.036, 37346.00
1187.122, 36687.00
1188.207, 36261.00
1189.292, 35635.00
1190.378, 35477.00
1191.463, 34804.00
1192.548, 34533.00
1193.632, 34076.00
1194.717, 33722.00
1195.801, 33088.00
1196.886, 32673.00
1197.970, 32238.00
1199.054, 31866.00
1200.137, 31411.00
1201.221, 30838.00
1202.305, 30539.00
1203.388, 29888.00
1204.471, 29789.00
1205.554, 29213.00
1206.637, 28740.00
1207.719, 28465.00
1208.802, 28389.00
1209.884, 28261.00
1210.966, 28074.00
1212.048, 28038.00
1213.130, 28065.00
1214.212, 28075.00
1215.293, 28202.00
1216.374, 28225.00
1217.456, 28389.00
1218.536, 28561.00
1219.617, 29076.00
1220.698, 29502.00
1221.778, 29796.00
1222.859, 30215.00
1223.939, 30419.00
1225.019, 30956.00
1226.099, 31442.00
1227.178, 31914.00
1228.258, 32102.00
1229.337, 32327.00
1230.417, 32562.00
1231.496, 32750.00
1232.574, 32952.00
1233.653, 32832.00
1234.732, 32820.00
1235.810, 32887.00
1236.888, 32622.00
1237.966, 32763.00
1239.044, 32315.00
1240.122, 31805.00
1241.199, 31613.00
1242.277, 31197.96
1243.354, 30840.00
1244.431, 30531.00
1245.508, 30178.07
1246.585, 29905.00
1247.661, 29525.00
1248.738, 29226.00
1249.814, 28852.00
1250.890, 28593.00
1251.966, 28427.09
1253.042, 28392.00
1254.117, 28282.00
1255.193, 28240.00
1256.268, 28386.00
1257.343, 28388.00
1258.418, 28388.00
1259.493, 28292.00
1260.567, 28293.00
1261.642, 28405.00
1262.716, 28608.00
1263.790, 28587.00
1264.864, 28502.84
1265.938, 28293.00
1267.011, 28062.00
1268.085, 27845.00
1269.158, 27418.00
1270.231, 27023.00
1271.304, 27021.00
1272.377, 26488.00
1273.450, 26176.00
1274.522, 25928.00
1275.594, 25407.00
1276.666, 25162.00
1277.738, 24739.00
1278.810, 24393.00
1279.882, 24113.00
1280.953, 23764.00
1282.025, 23165.00
