##NAMES=Fayalite
##RRUFFID=R070293
##IDEAL CHEMISTRY=Fe^2+^_2_SiO_4_
##LOCALITY=Pike's Peak, Teller County, Colorado, USA
##OWNER=RRUFF
##SOURCE=Michael Scott
##DESCRIPTION=Black single crystal fragment with internal hints of red and green
##STATUS=The identification of this mineral has been confirmed by X-ray diffraction and chemical analysis
##URL=rruff.info/R070293
##MEASURED CHEMISTRY=(Fe^2+^_1.87_Mn^2+^_0.13_)_Î£=2_Si_1.00_O_4_ ; trace amounts of Mg
##PIN_ID=L01491
##ORIENTATION=Laser parallel to a* (1 0 0). Fiducial mark perpendicular to laser is parallel to b [0 1 0]
59.13700, 1236.000
60.37200, 1558.000
61.60700, 1569.000
62.84200, 1260.000
64.07700, 1072.000
65.31200, 1051.000
66.54600, 1050.000
67.78100, 1176.000
69.01500, 1290.000
70.24900, 1258.000
71.48300, 1262.000
72.71700, 1433.000
73.95100, 1435.000
75.18500, 1393.000
76.41800, 1559.000
77.65100, 1332.000
78.88500, 1112.000
80.11800, 1136.000
81.35100, 1178.000
82.58300, 1263.000
83.81600, 1238.044
85.04900, 1216.269
86.28100, 1231.000
87.51300, 1128.000
88.74500, 1151.000
89.97700, 1189.000
91.20900, 1345.000
92.44100, 1471.000
93.67200, 1403.000
94.90400, 1353.000
96.13500, 1381.000
97.36600, 1247.000
98.59700, 1307.000
99.82800, 1355.000
101.0590, 1328.000
102.2900, 1295.000
103.5200, 1320.000
104.7500, 1390.000
105.9810, 1545.000
107.2110, 1725.000
108.4410, 1784.000
109.6700, 1629.000
110.9000, 1534.000
112.1300, 1539.000
113.3590, 1595.000
114.5880, 1747.000
115.8170, 1764.000
117.0460, 1775.000
118.2750, 1783.000
119.5040, 1696.000
120.7320, 1651.000
121.9610, 1653.000
123.1890, 1652.000
124.4170, 1651.000
125.6450, 1408.000
126.8730, 1404.351
128.1010, 1268.000
129.3280, 1276.000
130.5560, 1235.000
131.7830, 1301.000
133.0100, 1204.000
134.2380, 1174.000
135.4640, 1143.000
136.6910, 1148.000
137.9180, 1176.000
139.1440, 1180.825
140.3710, 1188.746
141.5970, 1226.000
142.8230, 1205.000
144.0490, 1212.000
145.2750, 1236.000
146.5000, 1294.000
147.7260, 1399.000
148.9510, 1421.000
150.1770, 1470.000
151.4020, 1585.000
152.6270, 1793.000
153.8520, 2074.000
155.0760, 2292.000
156.3010, 2422.000
157.5250, 2208.000
158.7500, 1907.000
159.9740, 1632.000
161.1980, 1527.000
162.4220, 1516.000
163.6450, 1535.000
164.8690, 1570.000
166.0920, 1688.000
167.3160, 1819.833
168.5390, 1898.000
169.7620, 2231.000
170.9850, 2523.000
172.2080, 2847.000
173.4300, 2908.000
174.6530, 2708.000
175.8750, 2238.000
177.0970, 1841.000
178.3190, 1610.000
179.5410, 1462.000
180.7630, 1316.000
181.9850, 1347.000
183.2060, 1280.000
184.4270, 1263.000
185.6490, 1311.000
186.8700, 1309.000
188.0910, 1328.000
189.3110, 1342.000
190.5320, 1356.771
191.7530, 1384.885
192.9730, 1399.000
194.1930, 1436.000
195.4130, 1466.000
196.6330, 1479.000
197.8530, 1452.000
199.0730, 1414.000
200.2920, 1433.000
201.5120, 1335.000
202.7310, 1258.000
203.9500, 1101.000
205.1690, 1037.000
206.3880, 977.0000
207.6070, 997.0000
208.8250, 1002.000
210.0440, 974.0000
211.2620, 982.0000
212.4800, 979.0000
213.6980, 973.0000
214.9160, 998.0000
216.1340, 995.0000
217.3510, 1014.000
218.5690, 1022.000
219.7860, 1038.872
221.0030, 1068.000
222.2200, 1077.000
223.4370, 1125.000
224.6540, 1143.000
225.8700, 1193.000
227.0870, 1209.000
228.3030, 1269.000
229.5190, 1388.000
230.7350, 1460.000
231.9510, 1570.000
233.1670, 1652.000
234.3820, 1807.000
235.5980, 1952.000
236.8130, 2119.000
238.0280, 2236.000
239.2430, 2378.000
240.4580, 2412.000
241.6730, 2417.000
242.8880, 2306.000
244.1020, 2147.000
245.3160, 2030.000
246.5300, 1827.000
247.7450, 1731.000
248.9580, 1668.000
250.1720, 1536.000
251.3860, 1478.000
252.5990, 1459.000
253.8130, 1399.000
255.0260, 1415.000
256.2390, 1303.000
257.4520, 1333.000
258.6640, 1313.000
259.8770, 1310.000
261.0890, 1364.000
262.3020, 1340.000
263.5140, 1352.000
264.7260, 1309.000
265.9380, 1330.000
267.1500, 1362.000
268.3610, 1406.000
269.5730, 1422.000
270.7840, 1539.000
271.9950, 1551.000
273.2060, 1625.000
274.4170, 1747.000
275.6280, 1773.000
276.8390, 1985.000
278.0490, 2097.000
279.2590, 2191.000
280.4690, 2231.000
281.6800, 2394.000
282.8890, 2467.000
284.0990, 2520.000
285.3090, 2537.000
286.5180, 2498.000
287.7280, 2528.000
288.9370, 2454.000
290.1460, 2336.000
291.3550, 2318.000
292.5630, 2235.000
293.7720, 2124.000
294.9800, 1984.000
296.1890, 1926.000
297.3970, 1867.000
298.6050, 1747.000
299.8130, 1688.000
301.0200, 1661.000
302.2280, 1677.000
303.4360, 1641.000
304.6430, 1655.000
305.8500, 1635.000
307.0570, 1652.000
308.2640, 1634.000
309.4710, 1695.000
310.6770, 1666.000
311.8840, 1641.000
313.0900, 1636.000
314.2960, 1575.000
315.5020, 1525.000
316.7080, 1486.000
317.9140, 1410.000
319.1190, 1352.000
320.3250, 1322.000
321.5300, 1298.000
322.7350, 1280.000
323.9400, 1249.000
325.1450, 1202.000
326.3500, 1192.000
327.5540, 1178.000
328.7580, 1173.000
329.9630, 1132.000
331.1670, 1155.000
332.3710, 1140.000
333.5750, 1086.000
334.7780, 1110.000
335.9820, 1109.000
337.1850, 1113.000
338.3880, 1076.000
339.5920, 1134.000
340.7950, 1093.000
341.9970, 1089.000
343.2000, 1161.000
344.4030, 1108.000
345.6050, 1142.000
346.8070, 1135.000
348.0090, 1162.000
349.2110, 1146.000
350.4130, 1179.000
351.6150, 1178.000
352.8160, 1186.000
354.0170, 1238.000
355.2190, 1255.000
356.4200, 1269.000
357.6210, 1298.000
358.8210, 1310.000
360.0220, 1336.965
361.2220, 1409.000
362.4230, 1407.000
363.6230, 1419.000
364.8230, 1494.000
366.0230, 1522.000
367.2230, 1539.000
368.4220, 1590.000
369.6220, 1607.000
370.8210, 1555.000
372.0200, 1605.000
373.2190, 1563.000
374.4180, 1595.000
375.6170, 1605.000
376.8150, 1587.000
378.0140, 1581.000
379.2120, 1559.000
380.4100, 1593.000
381.6080, 1519.000
382.8060, 1527.000
384.0040, 1467.000
385.2010, 1494.000
386.3980, 1508.000
387.5960, 1501.000
388.7930, 1441.000
389.9900, 1390.000
391.1870, 1396.000
392.3830, 1284.000
393.5800, 1309.000
394.7760, 1259.000
395.9720, 1282.000
397.1680, 1204.000
398.3640, 1224.000
399.5600, 1206.000
400.7560, 1173.000
401.9510, 1162.000
403.1460, 1166.000
404.3420, 1122.000
405.5370, 1139.000
406.7320, 1121.000
407.9260, 1132.000
409.1210, 1132.000
410.3150, 1057.000
411.5100, 1100.000
412.7040, 1061.000
413.8980, 1014.000
415.0920, 1008.000
416.2850, 1017.000
417.4790, 1018.000
418.6720, 981.0000
419.8650, 1018.000
421.0590, 1000.000
422.2510, 1023.000
423.4440, 991.0000
424.6370, 977.0000
425.8290, 984.0000
427.0220, 987.0000
428.2140, 943.0000
429.4060, 932.0000
430.5980, 937.0000
431.7900, 939.0000
432.9810, 945.0000
434.1730, 937.0000
435.3640, 930.0000
436.5550, 934.9998
437.7460, 936.0000
438.9370, 932.0000
440.1280, 946.0000
441.3190, 929.0000
442.5090, 956.0000
443.6990, 932.0000
444.8890, 899.0000
446.0790, 937.0000
447.2690, 950.0000
448.4590, 959.0000
449.6480, 936.0000
450.8380, 956.0000
452.0270, 934.0000
453.2160, 960.0000
454.4050, 938.0000
455.5940, 937.0000
456.7820, 961.0000
457.9710, 954.0000
459.1590, 950.0000
460.3470, 935.0000
461.5350, 937.0000
462.7230, 963.0000
463.9110, 923.0000
465.0990, 957.0000
466.2860, 963.0000
467.4730, 963.0000
468.6600, 948.0000
469.8470, 972.0000
471.0340, 974.0000
472.2210, 978.0000
473.4070, 975.0000
474.5940, 949.0000
475.7800, 954.0000
476.9660, 1007.000
478.1520, 971.0000
479.3380, 1004.000
480.5230, 973.0000
481.7090, 1013.000
482.8940, 1023.000
484.0790, 1018.000
485.2650, 1016.000
486.4490, 1013.000
487.6340, 1000.000
488.8190, 1017.000
490.0030, 1021.187
491.1870, 1057.000
492.3720, 1051.000
493.5550, 1098.000
494.7390, 1119.000
495.9230, 1126.000
497.1060, 1192.000
498.2900, 1237.000
499.4730, 1263.000
500.6560, 1325.000
501.8390, 1361.000
503.0220, 1400.000
504.2040, 1510.000
505.3870, 1552.000
506.5690, 1511.000
507.7510, 1543.000
508.9330, 1512.000
510.1150, 1441.000
511.2970, 1408.000
512.4780, 1306.000
513.6600, 1324.000
514.8410, 1222.000
516.0220, 1223.000
517.2030, 1182.000
518.3840, 1182.000
519.5650, 1138.000
520.7450, 1152.000
521.9250, 1109.000
523.1060, 1122.000
524.2860, 1108.000
525.4660, 1089.000
526.6450, 1082.000
527.8250, 1078.880
529.0040, 1085.000
530.1840, 1084.000
531.3630, 1081.000
532.5420, 1087.000
533.7200, 1085.000
534.8990, 1095.000
536.0780, 1097.000
537.2560, 1105.000
538.4340, 1104.000
539.6120, 1110.000
540.7900, 1160.000
541.9680, 1169.000
543.1460, 1185.000
544.3230, 1195.000
545.5000, 1199.000
546.6770, 1217.000
547.8540, 1243.000
549.0310, 1246.000
550.2080, 1279.000
551.3840, 1259.000
552.5610, 1297.000
553.7370, 1276.000
554.9130, 1284.000
556.0890, 1274.000
557.2650, 1209.000
558.4400, 1267.000
559.6160, 1216.000
560.7910, 1221.000
561.9660, 1212.000
563.1410, 1187.000
564.3160, 1222.000
565.4910, 1200.000
566.6650, 1227.000
567.8400, 1193.000
569.0140, 1242.000
570.1880, 1157.000
571.3620, 1167.000
572.5360, 1189.000
573.7090, 1185.000
574.8830, 1145.000
576.0560, 1166.000
577.2290, 1194.000
578.4020, 1150.000
579.5750, 1174.000
580.7480, 1191.000
581.9200, 1148.000
583.0930, 1128.000
584.2650, 1154.000
585.4370, 1137.000
586.6090, 1129.000
587.7810, 1134.000
588.9520, 1145.000
590.1240, 1179.000
591.2950, 1131.000
592.4660, 1150.000
593.6370, 1135.000
594.8080, 1103.000
595.9790, 1134.000
597.1500, 1121.000
598.3200, 1085.000
599.4900, 1084.000
600.6600, 1104.000
601.8300, 1052.000
603.0000, 1042.000
604.1700, 1064.000
605.3390, 1044.000
606.5080, 1075.000
607.6770, 1019.000
608.8460, 1030.000
610.0150, 1001.000
611.1840, 1001.000
612.3520, 990.0000
613.5210, 989.0000
614.6890, 988.3664
615.8570, 981.0000
617.0250, 991.0000
618.1930, 981.0000
619.3600, 984.0000
620.5280, 1001.000
621.6950, 1000.000
622.8620, 965.0000
624.0290, 996.0000
625.1960, 971.0000
626.3630, 982.0000
627.5290, 996.0000
628.6960, 978.0000
629.8620, 959.0000
631.0280, 1013.000
632.1940, 993.0000
633.3600, 1003.000
634.5250, 977.0000
635.6910, 973.0000
636.8560, 968.0000
638.0210, 1018.000
639.1860, 978.0000
640.3510, 938.0000
641.5150, 1014.000
642.6800, 1001.000
643.8440, 984.0000
645.0080, 1001.000
646.1720, 995.0000
647.3360, 980.0000
648.5000, 1001.000
649.6640, 997.0000
650.8270, 982.0000
651.9900, 990.0000
653.1530, 1020.000
654.3160, 1013.000
655.4790, 1010.000
656.6420, 1016.000
657.8040, 1005.000
658.9660, 1020.000
660.1290, 1033.000
661.2910, 1012.000
662.4520, 1012.000
663.6140, 1025.000
664.7760, 1029.000
665.9370, 1000.000
667.0980, 1051.000
668.2590, 1061.000
669.4200, 1015.000
670.5810, 1039.000
671.7420, 997.0000
672.9020, 1018.000
674.0620, 991.0000
675.2220, 1040.000
676.3820, 1011.000
677.5420, 1037.000
678.7020, 1061.000
679.8610, 1028.000
681.0210, 1040.000
682.1800, 1047.000
683.3390, 1054.000
684.4980, 1068.000
685.6560, 1084.000
686.8150, 1075.000
687.9730, 1075.000
689.1320, 1087.000
690.2900, 1070.000
691.4480, 1088.621
692.6050, 1136.000
693.7630, 1099.000
694.9200, 1101.000
696.0780, 1073.000
697.2350, 1090.000
698.3920, 1101.000
699.5490, 1111.000
700.7050, 1087.000
701.8620, 1093.000
703.0180, 1095.689
704.1740, 1104.000
705.3300, 1106.000
706.4860, 1109.000
707.6420, 1111.000
708.7970, 1091.000
709.9530, 1119.000
711.1080, 1067.166
712.2630, 1192.000
713.4180, 1092.000
714.5730, 1163.000
715.7280, 1142.340
716.8820, 1144.000
718.0360, 1100.000
719.1900, 1118.000
720.3440, 1105.000
721.4980, 1163.000
722.6520, 1174.000
723.8050, 1142.000
724.9590, 1184.000
726.1120, 1187.000
727.2650, 1165.000
728.4180, 1187.000
729.5700, 1149.000
730.7230, 1185.000
731.8750, 1192.000
733.0280, 1184.000
734.1800, 1178.000
735.3320, 1192.000
736.4830, 1185.000
737.6350, 1215.000
738.7860, 1223.000
739.9380, 1220.000
741.0890, 1209.000
742.2400, 1240.000
743.3910, 1233.000
744.5410, 1242.000
745.6920, 1242.000
746.8420, 1236.835
747.9920, 1253.000
749.1420, 1232.000
750.2920, 1281.000
751.4420, 1294.000
752.5910, 1245.000
753.7410, 1298.000
754.8900, 1305.000
756.0390, 1339.000
757.1880, 1301.000
758.3370, 1314.000
759.4850, 1312.000
760.6340, 1322.000
761.7820, 1332.000
762.9300, 1377.000
764.0780, 1395.000
765.2260, 1391.000
766.3730, 1362.000
767.5210, 1373.000
768.6680, 1397.000
769.8150, 1397.000
770.9620, 1451.000
772.1090, 1398.000
773.2560, 1432.000
774.4020, 1423.000
775.5490, 1458.000
776.6950, 1488.000
777.8410, 1485.000
778.9870, 1500.000
780.1330, 1517.000
781.2780, 1535.000
782.4230, 1573.000
783.5690, 1626.000
784.7140, 1650.000
785.8590, 1708.000
787.0030, 1740.000
788.1480, 1789.000
789.2920, 1795.000
790.4370, 1893.000
791.5810, 1912.000
792.7250, 2016.000
793.8690, 2101.000
795.0120, 2170.000
796.1560, 2327.000
797.2990, 2480.000
798.4420, 2635.000
799.5850, 2825.000
800.7280, 3100.000
801.8710, 3378.000
803.0130, 3785.000
804.1550, 4191.000
805.2980, 4776.000
806.4400, 5407.000
807.5810, 6212.000
808.7230, 7267.000
809.8650, 8276.000
811.0060, 9301.000
812.1470, 10235.00
813.2880, 11254.00
814.4290, 11733.00
815.5700, 11879.00
816.7110, 11652.00
817.8510, 11311.00
818.9910, 10846.00
820.1310, 10419.00
821.2710, 9830.000
822.4110, 9478.000
823.5510, 9000.000
824.6900, 8641.000
825.8290, 8614.000
826.9680, 8377.000
828.1070, 8263.000
829.2460, 8318.000
830.3850, 8345.000
831.5230, 8474.000
832.6620, 8397.000
833.8000, 8506.000
834.9380, 8678.000
836.0760, 8636.000
837.2130, 8555.000
838.3510, 8730.000
839.4880, 8699.000
840.6250, 8584.000
841.7620, 8504.000
842.8990, 8255.000
844.0360, 7992.000
845.1720, 7775.000
846.3090, 7376.000
847.4450, 6936.000
848.5810, 6563.000
849.7170, 6293.000
850.8530, 5893.000
851.9880, 5608.000
853.1240, 5243.000
854.2590, 5006.000
855.3940, 4736.000
856.5290, 4566.000
857.6640, 4265.000
858.7980, 4093.000
859.9330, 3896.000
861.0670, 3700.000
862.2010, 3603.000
863.3350, 3488.000
864.4690, 3360.000
865.6030, 3177.000
866.7360, 3097.000
867.8690, 3091.000
869.0020, 2922.000
870.1350, 2874.000
871.2680, 2832.000
872.4010, 2759.000
873.5330, 2683.000
874.6660, 2662.000
875.7980, 2567.000
876.9300, 2555.000
878.0620, 2514.000
879.1930, 2507.000
880.3250, 2495.629
881.4560, 2490.000
882.5870, 2507.000
883.7180, 2512.000
884.8490, 2563.000
885.9800, 2545.000
887.1100, 2572.000
888.2410, 2644.000
889.3710, 2640.000
890.5010, 2697.000
891.6310, 2772.000
892.7610, 2901.000
893.8900, 2954.000
895.0200, 3171.000
896.1490, 3260.000
897.2780, 3472.000
898.4070, 3641.000
899.5360, 3795.000
900.6640, 3942.000
901.7920, 4111.000
902.9210, 4075.839
904.0490, 4070.000
905.1770, 3901.000
906.3040, 3687.000
907.4320, 3436.000
908.5600, 3245.000
909.6870, 3096.000
910.8140, 2982.000
911.9410, 2830.000
913.0680, 2751.000
914.1940, 2662.000
915.3210, 2554.000
916.4470, 2526.000
917.5730, 2489.260
918.6990, 2519.000
919.8250, 2506.000
920.9500, 2451.000
922.0760, 2510.000
923.2010, 2496.254
924.3260, 2476.000
925.4510, 2500.000
926.5760, 2476.000
927.7010, 2398.000
928.8250, 2458.000
929.9500, 2447.000
931.0740, 2357.000
932.1980, 2381.000
933.3220, 2298.000
934.4450, 2337.000
935.5690, 2286.000
936.6920, 2240.000
937.8150, 2243.000
938.9380, 2241.000
940.0610, 2162.000
941.1840, 2098.000
942.3060, 2172.000
943.4290, 2132.000
944.5510, 2104.000
945.6730, 2069.000
946.7950, 2040.000
947.9160, 2130.000
949.0380, 2122.000
950.1590, 2090.000
951.2800, 2054.000
952.4010, 2026.000
953.5220, 1938.000
954.6430, 1973.000
955.7630, 1943.000
956.8840, 1973.000
958.0040, 1982.000
959.1240, 1924.000
960.2440, 1948.000
961.3640, 1885.000
962.4830, 1873.000
963.6030, 1891.000
964.7220, 1884.000
965.8410, 1879.000
966.9600, 1853.000
968.0780, 1851.210
969.1970, 1841.168
970.3150, 1838.000
971.4340, 1836.000
972.5520, 1838.000
973.6700, 1851.000
974.7870, 1799.000
975.9050, 1823.000
977.0220, 1800.000
978.1390, 1772.000
979.2560, 1782.000
980.3730, 1796.000
981.4900, 1779.000
982.6070, 1739.000
983.7230, 1781.000
984.8390, 1810.000
985.9550, 1705.000
987.0710, 1744.000
988.1870, 1710.000
989.3030, 1727.000
990.4180, 1738.000
991.5330, 1747.000
992.6480, 1728.000
993.7630, 1689.000
994.8780, 1678.000
995.9930, 1660.000
997.1070, 1679.000
998.2210, 1660.768
999.3350, 1691.000
1000.449, 1667.000
1001.563, 1648.000
1002.677, 1693.000
1003.790, 1653.000
1004.903, 1695.000
1006.016, 1656.000
1007.129, 1695.000
1008.242, 1674.000
1009.355, 1629.000
1010.467, 1651.000
1011.579, 1663.000
1012.691, 1613.000
1013.803, 1604.000
1014.915, 1605.000
1016.027, 1621.000
1017.138, 1644.000
1018.249, 1598.000
1019.360, 1589.000
1020.471, 1640.000
1021.582, 1600.000
1022.693, 1599.000
1023.803, 1604.000
1024.913, 1602.000
1026.023, 1557.000
1027.133, 1594.000
1028.243, 1535.000
1029.353, 1608.000
1030.462, 1549.000
1031.571, 1586.000
1032.680, 1584.000
1033.789, 1596.000
1034.898, 1577.000
1036.007, 1611.000
1037.115, 1528.000
1038.223, 1643.000
1039.331, 1556.000
1040.439, 1576.000
1041.547, 1551.000
1042.655, 1556.000
1043.762, 1555.174
1044.869, 1559.734
1045.976, 1555.000
1047.083, 1581.000
1048.190, 1590.000
1049.297, 1593.000
1050.403, 1575.000
1051.509, 1587.000
1052.615, 1557.000
1053.721, 1582.000
1054.827, 1542.000
1055.933, 1571.000
1057.038, 1548.000
1058.143, 1599.000
1059.248, 1576.000
1060.353, 1581.000
1061.458, 1569.000
1062.563, 1557.000
1063.667, 1619.000
1064.771, 1531.000
1065.875, 1602.000
1066.979, 1566.000
1068.083, 1615.000
1069.186, 1585.000
1070.290, 1584.000
1071.393, 1573.000
1072.496, 1569.000
1073.599, 1550.000
1074.702, 1553.000
1075.804, 1601.000
1076.907, 1549.000
1078.009, 1588.000
1079.111, 1596.000
1080.213, 1576.000
1081.315, 1570.000
1082.416, 1606.000
1083.517, 1574.000
1084.619, 1555.000
1085.720, 1589.000
1086.821, 1583.000
1087.921, 1611.000
1089.022, 1575.000
1090.122, 1577.000
1091.222, 1559.000
1092.322, 1549.990
1093.422, 1567.000
1094.522, 1541.000
1095.622, 1524.000
1096.721, 1521.258
1097.820, 1562.000
1098.919, 1523.000
1100.018, 1576.000
1101.117, 1558.000
1102.215, 1594.000
1103.314, 1571.000
1104.412, 1560.000
1105.510, 1577.000
1106.608, 1549.000
1107.705, 1532.000
1108.803, 1584.000
1109.900, 1533.000
1110.997, 1577.000
1112.094, 1590.000
1113.191, 1535.000
1114.288, 1551.000
1115.384, 1531.000
1116.481, 1584.000
1117.577, 1572.000
1118.673, 1569.000
1119.769, 1543.000
1120.864, 1562.000
1121.960, 1554.496
1123.055, 1595.000
1124.150, 1561.000
1125.245, 1579.000
1126.340, 1581.000
1127.434, 1595.000
1128.529, 1587.000
1129.623, 1559.000
1130.717, 1558.000
1131.811, 1576.000
1132.905, 1565.000
1133.999, 1615.000
1135.092, 1592.000
1136.185, 1599.000
1137.279, 1629.000
1138.371, 1596.000
1139.464, 1572.000
1140.557, 1584.000
1141.649, 1600.000
1142.742, 1592.000
1143.834, 1594.000
1144.926, 1562.000
1146.017, 1560.000
1147.109, 1549.000
1148.200, 1534.000
1149.292, 1538.867
1150.383, 1541.530
1151.474, 1539.000
1152.564, 1564.000
1153.655, 1556.000
1154.745, 1567.000
1155.835, 1548.000
1156.925, 1520.000
1158.015, 1513.000
1159.105, 1519.000
1160.195, 1516.000
1161.284, 1522.000
1162.373, 1523.033
1163.462, 1505.000
1164.551, 1518.000
1165.640, 1500.000
1166.728, 1477.000
1167.817, 1509.000
1168.905, 1477.000
1169.993, 1477.000
1171.081, 1474.000
1172.168, 1476.456
1173.256, 1482.236
1174.343, 1492.000
1175.430, 1501.000
1176.517, 1489.000
1177.604, 1503.000
1178.691, 1452.000
1179.777, 1457.000
1180.864, 1433.000
1181.950, 1435.000
1183.036, 1432.249
1184.121, 1432.325
1185.207, 1435.000
1186.293, 1450.000
1187.378, 1459.000
1188.463, 1477.000
1189.548, 1465.418
1190.633, 1454.000
1191.717, 1434.000
1192.802, 1444.000
1193.886, 1418.000
1194.970, 1408.000
1196.054, 1470.000
1197.138, 1418.000
1198.221, 1395.000
1199.305, 1451.000
1200.388, 1401.000
1201.471, 1427.000
1202.554, 1380.000
1203.637, 1418.000
1204.719, 1383.000
1205.801, 1408.000
1206.884, 1403.000
1207.966, 1403.000
1209.048, 1437.000
1210.129, 1394.000
1211.211, 1432.000
1212.292, 1435.000
1213.373, 1438.000
1214.454, 1399.000
1215.535, 1384.000
1216.616, 1435.000
1217.696, 1391.000
1218.777, 1457.000
1219.857, 1435.000
1220.937, 1401.000
1222.017, 1403.000
1223.096, 1410.000
1224.176, 1403.472
1225.255, 1412.000
1226.334, 1406.000
1227.413, 1413.000
1228.492, 1393.000
1229.570, 1386.000
1230.649, 1389.361
1231.727, 1398.000
1232.805, 1396.000
1233.883, 1405.000
1234.961, 1414.000
1236.038, 1411.000
1237.116, 1417.000
1238.193, 1397.000
1239.270, 1425.000
1240.347, 1386.000
1241.424, 1422.000
1242.500, 1425.000
