##NAMES=Fayalite
##RRUFFID=R070157
##IDEAL CHEMISTRY=Fe^2+^_2_SiO_4_
##LOCALITY=Coso Hot Springs, Inyo County, California, USA
##OWNER=RRUFF
##SOURCE=James Shigley
##DESCRIPTION=Brown transparent tabular crystals associated with fine grained quartz
##STATUS=The identification of this mineral is confirmed by single-crystal X-ray diffraction and chemical analysis.
##URL=rruff.info/R070157
##MEASURED CHEMISTRY=(Fe^2+^_1.88_Mn_0.11_Zn_0.01_)_Î£=2_Si_1.00_O_4_ ; trace amounts of Mg
##PIN_ID=M01904
##ORIENTATION=Laser parallel to a* (1 0 0). Fiducial mark perpendicular to laser is parallel to b [0 1 0]
140.0920, 26569.00
141.3240, 26496.00
142.5560, 26129.00
143.7880, 26358.00
145.0190, 26146.00
146.2510, 26530.00
147.4820, 26441.00
148.7130, 26458.00
149.9440, 26727.00
151.1750, 26973.00
152.4050, 27381.00
153.6360, 27444.00
154.8660, 28012.00
156.0960, 28480.00
157.3260, 29099.00
158.5560, 30436.00
159.7850, 32344.00
161.0150, 35128.00
162.2440, 38124.00
163.4730, 40438.00
164.7020, 42769.00
165.9310, 46192.00
167.1590, 51173.00
168.3880, 58312.00
169.6160, 65542.00
170.8440, 72785.00
172.0720, 77998.00
173.3000, 78971.00
174.5280, 75981.00
175.7550, 67945.00
176.9820, 57741.00
178.2100, 47959.00
179.4370, 40735.00
180.6630, 35012.00
181.8900, 31971.00
183.1170, 29817.00
184.3430, 28676.00
185.5690, 28052.00
186.7950, 27358.00
188.0210, 26789.00
189.2470, 26498.00
190.4720, 26172.00
191.6970, 26268.00
192.9230, 25915.00
194.1480, 26031.00
195.3730, 25879.00
196.5970, 25898.00
197.8220, 25991.00
199.0460, 25817.00
200.2700, 25962.00
201.4940, 26049.00
202.7180, 25778.00
203.9420, 25642.00
205.1660, 25554.00
206.3890, 25562.15
207.6120, 25604.00
208.8350, 25788.00
210.0580, 25869.00
211.2810, 26083.00
212.5040, 26692.00
213.7260, 26621.00
214.9480, 27102.00
216.1700, 27719.00
217.3920, 28011.00
218.6140, 28675.00
219.8360, 29661.00
221.0570, 30273.00
222.2790, 31180.00
223.5000, 32336.00
224.7210, 33717.00
225.9410, 35346.00
227.1620, 37063.00
228.3820, 38788.00
229.6030, 41506.00
230.8230, 43698.00
232.0430, 46735.00
233.2630, 49841.00
234.4820, 53326.00
235.7020, 56466.00
236.9210, 59965.00
238.1400, 62552.00
239.3590, 64159.00
240.5780, 63989.00
241.7970, 63063.00
243.0150, 60861.00
244.2340, 57479.00
245.4520, 54181.00
246.6700, 50357.00
247.8880, 47095.00
249.1060, 44015.00
250.3230, 41850.00
251.5400, 39557.00
252.7580, 37710.00
253.9750, 36625.00
255.1920, 35071.00
256.4080, 34186.00
257.6250, 33636.00
258.8410, 32979.00
260.0580, 32129.00
261.2740, 31058.00
262.4900, 30523.00
263.7050, 30072.00
264.9210, 29568.00
266.1360, 29308.00
267.3520, 29078.00
268.5670, 29255.00
269.7820, 28741.00
270.9960, 28949.00
272.2110, 28608.00
273.4250, 28839.00
274.6400, 28778.00
275.8540, 28841.00
277.0680, 28953.00
278.2810, 29071.00
279.4950, 29270.00
280.7090, 29150.00
281.9220, 29542.00
283.1350, 29344.00
284.3480, 29497.00
285.5610, 29506.00
286.7730, 29550.00
287.9860, 29325.00
289.1980, 29351.00
290.4100, 29070.00
291.6220, 28810.00
292.8340, 28734.00
294.0460, 28037.00
295.2570, 28085.00
296.4690, 27399.00
297.6800, 27081.00
298.8910, 26702.00
300.1020, 26588.00
301.3120, 26235.00
302.5230, 26206.00
303.7330, 26290.00
304.9440, 26073.00
306.1540, 25809.00
307.3630, 25715.00
308.5730, 25798.00
309.7830, 25399.00
310.9920, 25629.00
312.2010, 25510.00
313.4100, 25343.00
314.6190, 25402.00
315.8280, 25112.00
317.0370, 25365.00
318.2450, 25060.00
319.4530, 25000.00
320.6610, 24958.00
321.8690, 24854.00
323.0770, 24884.00
324.2850, 24700.00
325.4920, 24698.00
326.6990, 24714.00
327.9060, 24713.00
329.1130, 24784.00
330.3200, 24758.00
331.5270, 24890.58
332.7330, 24858.14
333.9390, 25109.00
335.1450, 24839.00
336.3510, 24832.00
337.5570, 24811.00
338.7630, 25059.00
339.9680, 25042.00
341.1740, 25015.00
342.3790, 25014.00
343.5840, 24996.00
344.7890, 25169.00
345.9930, 24845.00
347.1980, 25010.00
348.4020, 25206.00
349.6060, 25103.00
350.8100, 25339.00
352.0140, 25175.00
353.2180, 25382.00
354.4210, 25331.00
355.6250, 25566.00
356.8280, 25667.00
358.0310, 25732.00
359.2340, 26013.00
360.4360, 25960.00
361.6390, 26455.00
362.8410, 26731.00
364.0430, 26753.00
365.2450, 26850.00
366.4470, 27023.00
367.6490, 27123.00
368.8510, 27187.00
370.0520, 27269.61
371.2530, 27372.44
372.4540, 27375.00
373.6550, 27368.00
374.8560, 27459.00
376.0560, 27530.00
377.2570, 27446.54
378.4570, 27303.49
379.6570, 27178.00
380.8570, 26939.00
382.0570, 26560.00
383.2560, 26587.00
384.4560, 26600.00
385.6550, 26385.00
386.8540, 26504.00
388.0530, 26502.00
389.2520, 26390.00
390.4510, 26465.00
391.6490, 26517.00
392.8470, 26436.76
394.0450, 26535.00
395.2430, 26427.00
396.4410, 26447.00
397.6390, 26624.00
398.8360, 26722.00
400.0340, 26934.00
401.2310, 27030.00
402.4280, 27168.00
403.6250, 27172.00
404.8210, 27306.00
406.0180, 27431.00
407.2140, 27697.00
408.4100, 27705.00
409.6060, 27789.73
410.8020, 27875.79
411.9980, 27759.00
413.1930, 27811.00
414.3890, 27676.00
415.5840, 27326.00
416.7790, 27179.00
417.9740, 27093.00
419.1680, 26862.00
420.3630, 26650.00
421.5570, 26469.00
422.7510, 26361.00
423.9450, 26047.00
425.1390, 25996.55
426.3330, 26072.00
427.5270, 25670.00
428.7200, 25723.00
429.9130, 25280.00
431.1060, 25291.00
432.2990, 25319.00
433.4920, 25152.00
434.6840, 25260.00
435.8770, 24944.00
437.0690, 25182.00
438.2610, 24852.00
439.4530, 24848.00
440.6450, 24742.00
441.8360, 24827.00
443.0280, 24856.00
444.2190, 24587.00
445.4100, 24770.00
446.6010, 24984.00
447.7920, 25041.00
448.9820, 24692.00
450.1730, 24940.00
451.3630, 24902.00
452.5530, 24704.00
453.7430, 24786.00
454.9330, 24841.00
456.1230, 24849.00
457.3120, 24988.00
458.5010, 25135.00
459.6910, 25046.00
460.8800, 25021.00
462.0680, 25227.00
463.2570, 25163.58
464.4460, 25135.00
465.6340, 25100.00
466.8220, 25127.00
468.0100, 25123.47
469.1980, 24959.00
470.3860, 25184.00
471.5730, 25089.00
472.7600, 25148.00
473.9480, 25330.00
475.1350, 25145.00
476.3210, 25383.99
477.5080, 25381.00
478.6950, 25617.00
479.8810, 25460.00
481.0670, 25401.00
482.2530, 25491.00
483.4390, 25437.00
484.6250, 25783.00
485.8100, 25742.00
486.9960, 25928.00
488.1810, 25867.00
489.3660, 26050.00
490.5510, 26308.00
491.7360, 26461.00
492.9200, 26489.00
494.1050, 26847.00
495.2890, 26977.00
496.4730, 27159.00
497.6570, 27528.00
498.8400, 27567.00
500.0240, 27858.00
501.2070, 28139.00
502.3910, 28590.00
503.5740, 28677.00
504.7570, 28782.00
505.9400, 29021.00
507.1220, 28973.00
508.3050, 28970.00
509.4870, 29113.00
510.6690, 28680.00
511.8510, 28271.00
513.0330, 28215.00
514.2140, 27926.00
515.3960, 27717.00
516.5770, 27594.55
517.7580, 27386.50
518.9390, 27295.00
520.1200, 27114.00
521.3010, 26960.00
522.4810, 26879.00
523.6610, 26794.00
524.8420, 26821.00
526.0220, 26755.00
527.2010, 26678.00
528.3810, 26608.00
529.5610, 26449.00
530.7400, 26524.00
531.9190, 26572.00
533.0980, 26269.00
534.2770, 26448.00
535.4560, 26566.00
536.6340, 26413.00
537.8120, 26150.00
538.9910, 26205.00
540.1690, 26324.00
541.3460, 26088.00
542.5240, 26488.00
543.7020, 26555.00
544.8790, 26547.00
546.0560, 26419.00
547.2330, 26395.00
548.4100, 26607.00
549.5870, 26739.00
550.7630, 26719.00
551.9400, 26845.87
553.1160, 26645.00
554.2920, 26929.00
555.4680, 26853.00
556.6440, 26877.00
557.8190, 27056.00
558.9950, 27472.00
560.1700, 27154.00
561.3450, 27088.00
562.5200, 27340.00
563.6950, 27162.00
564.8690, 27169.00
566.0440, 27311.00
567.2180, 27369.00
568.3920, 27293.00
569.5660, 27581.00
570.7400, 27305.00
571.9130, 27586.00
573.0870, 27633.00
574.2600, 27722.00
575.4330, 27603.00
576.6060, 27597.00
577.7790, 27604.00
578.9520, 27680.00
580.1240, 27306.00
581.2960, 26991.00
582.4690, 27093.00
583.6410, 27068.00
584.8120, 27086.00
585.9840, 26930.00
587.1560, 27049.00
588.3270, 26913.00
589.4980, 26939.00
590.6690, 26982.00
591.8400, 27042.00
593.0110, 27107.00
594.1810, 27272.00
595.3510, 27284.00
596.5220, 27236.00
597.6920, 27233.00
598.8610, 27390.00
600.0310, 27485.00
601.2010, 27379.00
602.3700, 27268.00
603.5390, 27275.00
604.7080, 27341.00
605.8770, 27282.00
607.0460, 27371.00
608.2140, 27146.29
609.3830, 26954.00
610.5510, 26831.00
611.7190, 26797.00
612.8870, 26977.00
614.0550, 26884.00
615.2220, 26925.00
616.3900, 27145.00
617.5570, 27044.00
618.7240, 27234.00
619.8910, 27356.00
621.0580, 27198.00
622.2240, 27450.00
623.3910, 27452.82
624.5570, 27578.00
625.7230, 27588.00
626.8890, 27306.00
628.0550, 27283.00
629.2200, 27277.00
630.3860, 27108.00
631.5510, 27134.00
632.7160, 26735.00
633.8810, 26756.00
635.0460, 26623.00
636.2100, 26605.00
637.3750, 26617.00
638.5390, 26599.00
639.7030, 26729.00
640.8670, 26776.00
642.0310, 26842.00
643.1950, 26933.00
644.3580, 27105.00
645.5210, 27221.00
646.6850, 27320.00
647.8480, 27204.00
649.0100, 27299.00
650.1730, 27243.00
651.3350, 27538.00
652.4980, 27402.00
653.6600, 27411.00
654.8220, 27240.00
655.9840, 27062.00
657.1450, 27181.00
658.3070, 27222.00
659.4680, 26849.00
660.6300, 27017.00
661.7910, 26879.00
662.9510, 26737.00
664.1120, 26904.00
665.2730, 26651.00
666.4330, 26699.00
667.5930, 26622.00
668.7530, 26642.00
669.9130, 26725.00
671.0730, 26385.00
672.2320, 26549.00
673.3920, 26412.00
674.5510, 26284.00
675.7100, 26289.00
676.8690, 26253.00
678.0280, 26268.00
679.1860, 26104.00
680.3450, 26112.00
681.5030, 26176.00
682.6610, 25930.00
683.8190, 26062.00
684.9770, 25934.00
686.1340, 25823.00
687.2920, 25708.00
688.4490, 25586.29
689.6060, 25608.00
690.7630, 25427.00
691.9200, 25506.00
693.0760, 25611.00
694.2330, 25631.00
695.3890, 25437.00
696.5450, 25595.00
697.7010, 25851.00
698.8570, 25639.00
700.0130, 25964.00
701.1680, 25965.00
702.3230, 25550.00
703.4780, 25456.00
704.6330, 25601.00
705.7880, 25505.92
706.9430, 25539.57
708.0970, 25790.00
709.2520, 25498.00
710.4060, 25786.00
711.5600, 25655.00
712.7140, 25502.74
713.8670, 25677.70
715.0210, 25791.58
716.1740, 25847.61
717.3270, 25672.61
718.4800, 25795.93
719.6330, 25799.70
720.7860, 25798.56
721.9380, 25963.84
723.0910, 25822.45
724.2430, 26253.00
725.3950, 26369.00
726.5470, 26340.00
727.6980, 26389.00
728.8500, 26487.00
730.0010, 26515.00
731.1530, 26521.00
732.3040, 26914.00
733.4550, 27142.00
734.6050, 27132.00
735.7560, 27302.00
736.9060, 27349.00
738.0560, 27470.19
739.2060, 27686.27
740.3560, 27694.00
741.5060, 28054.00
742.6560, 28110.00
743.8050, 28108.00
744.9540, 28130.00
746.1030, 28148.00
747.2520, 27950.00
748.4010, 27808.00
749.5500, 27833.00
750.6980, 27620.00
751.8460, 27669.00
752.9950, 27353.00
754.1420, 27273.00
755.2900, 27175.00
756.4380, 27305.00
757.5850, 27105.00
758.7330, 27187.00
759.8800, 27256.00
761.0270, 27242.00
762.1730, 27189.00
763.3200, 27316.00
764.4670, 27330.00
765.6130, 27338.75
766.7590, 27554.00
767.9050, 27424.00
769.0510, 27390.00
770.1960, 27560.00
771.3420, 27784.00
772.4870, 27838.00
773.6320, 27699.00
774.7770, 28088.00
775.9220, 28026.00
777.0670, 28143.00
778.2110, 28245.00
779.3560, 28549.00
780.5000, 28608.00
781.6440, 29020.00
782.7880, 29162.00
783.9320, 29458.00
785.0750, 29639.00
786.2180, 29798.00
787.3620, 30547.00
788.5050, 30961.00
789.6480, 31154.00
790.7900, 31554.00
791.9330, 32390.00
793.0750, 32886.00
794.2170, 33583.00
795.3590, 34201.00
796.5010, 35191.00
797.6430, 36010.00
798.7850, 37798.00
799.9260, 39407.00
801.0670, 40680.00
802.2080, 43636.00
803.3490, 46346.00
804.4900, 49387.00
805.6310, 53660.00
806.7710, 58805.00
807.9110, 63488.00
809.0510, 68942.00
810.1910, 75062.00
811.3310, 80699.00
812.4710, 86552.00
813.6100, 91186.00
814.7490, 94043.00
815.8880, 95771.00
817.0270, 96146.00
818.1660, 95069.00
819.3050, 94344.00
820.4430, 93127.00
821.5820, 91069.00
822.7200, 90641.00
823.8580, 90163.00
824.9950, 90357.00
826.1330, 90792.00
827.2710, 92108.00
828.4080, 93895.00
829.5450, 96632.00
830.6820, 99629.00
831.8190, 102646.0
832.9560, 106207.0
834.0920, 110197.0
835.2280, 113752.0
836.3650, 117808.0
837.5010, 121433.0
838.6360, 124652.0
839.7720, 126855.0
840.9080, 128353.0
842.0430, 128837.0
843.1780, 128234.0
844.3130, 126275.0
845.4480, 123897.0
846.5830, 120274.0
847.7170, 116717.0
848.8520, 112466.0
849.9860, 107798.0
851.1200, 102837.0
852.2540, 98389.00
853.3870, 93566.00
854.5210, 89778.00
855.6540, 85124.00
856.7880, 81937.00
857.9210, 78063.00
859.0540, 75007.00
860.1860, 72390.00
861.3190, 69536.00
862.4510, 67101.00
863.5840, 64701.00
864.7160, 62403.00
865.8480, 60740.00
866.9790, 58915.00
868.1110, 57325.00
869.2420, 55886.00
870.3740, 54589.00
871.5050, 53455.40
872.6360, 52474.00
873.7660, 51679.00
874.8970, 50906.00
876.0280, 50481.00
877.1580, 49463.00
878.2880, 49189.00
879.4180, 48625.00
880.5480, 48211.00
881.6770, 47964.19
882.8070, 47642.00
883.9360, 47509.00
885.0650, 47416.00
886.1940, 47288.00
887.3230, 47123.00
888.4520, 47092.00
889.5800, 47238.00
890.7090, 46901.00
891.8370, 47030.00
892.9650, 47653.00
894.0930, 48011.00
895.2200, 48790.00
896.3480, 48907.11
897.4750, 49403.00
898.6020, 49377.00
899.7290, 50157.00
900.8560, 50791.00
901.9830, 50638.00
903.1090, 51022.00
904.2360, 51177.00
905.3620, 51166.00
906.4880, 50934.00
907.6140, 50374.00
908.7400, 49870.00
909.8650, 50109.00
910.9900, 49867.00
912.1160, 49868.00
913.2410, 49559.00
914.3660, 49469.00
915.4900, 49766.00
916.6150, 49409.00
917.7390, 49460.00
918.8640, 49457.00
919.9880, 49309.00
921.1120, 49301.00
922.2350, 48821.00
923.3590, 48602.00
924.4820, 48315.00
925.6060, 47602.00
926.7290, 47224.00
927.8520, 46429.00
928.9740, 45660.00
930.0970, 44723.00
931.2190, 43901.00
932.3420, 43082.00
933.4640, 42155.00
934.5860, 41268.00
935.7080, 40384.00
936.8290, 39485.63
937.9510, 38662.98
939.0720, 37788.00
940.1930, 37049.00
941.3140, 36369.00
942.4350, 35626.00
943.5560, 35203.00
944.6760, 34374.00
945.7960, 34126.00
946.9170, 33596.00
948.0370, 33052.00
949.1560, 32974.00
950.2760, 32513.00
951.3960, 32258.00
952.5150, 31997.00
953.6340, 31761.00
954.7530, 31600.00
955.8720, 31283.00
956.9910, 31069.00
958.1090, 30974.00
959.2280, 30660.00
960.3460, 30505.14
961.4640, 30153.00
962.5820, 30128.00
963.6990, 30059.00
964.8170, 29947.00
965.9340, 29688.00
967.0510, 29670.00
968.1690, 29613.00
969.2850, 29294.00
970.4020, 29495.00
971.5190, 29073.00
972.6350, 29293.00
973.7510, 28898.00
974.8670, 29098.00
975.9830, 28730.00
977.0990, 28974.00
978.2150, 28807.66
979.3300, 28791.50
980.4450, 28553.00
981.5600, 28789.00
982.6750, 28589.00
983.7900, 28552.00
984.9050, 28583.00
986.0190, 28604.00
987.1340, 28412.00
988.2480, 28250.00
989.3620, 28661.00
990.4750, 28374.00
991.5890, 28485.00
992.7020, 28137.00
993.8160, 28168.00
994.9290, 28245.00
996.0420, 28374.00
997.1550, 28537.00
998.2670, 28665.18
999.3800, 28662.00
1000.492, 29036.00
1001.604, 29351.00
1002.716, 29667.00
1003.828, 29480.00
1004.940, 29324.00
1006.051, 28846.00
1007.163, 28503.00
1008.274, 28060.00
1009.385, 28184.00
1010.496, 27795.00
1011.606, 27814.00
1012.717, 27568.00
1013.827, 27591.24
1014.937, 27808.00
1016.047, 27714.00
1017.157, 27967.00
1018.267, 28043.00
1019.377, 28028.00
1020.486, 28129.00
1021.595, 28231.00
1022.704, 28239.00
1023.813, 28168.00
1024.922, 28179.46
1026.030, 28123.44
1027.139, 28077.16
1028.247, 28043.57
1029.355, 27983.00
1030.463, 27985.00
1031.571, 27911.00
1032.678, 27790.00
1033.786, 27797.68
1034.893, 27566.00
1036.000, 27472.79
1037.107, 27630.22
1038.214, 27726.54
1039.321, 27765.03
1040.427, 27572.49
1041.533, 27678.26
1042.639, 27664.48
1043.745, 27645.79
1044.851, 27793.55
1045.957, 27634.61
1047.062, 27779.71
1048.168, 27821.00
1049.273, 27760.00
1050.378, 27709.00
1051.482, 27731.47
1052.587, 27806.00
1053.692, 27802.00
1054.796, 27824.00
1055.900, 27776.00
1057.004, 27941.00
1058.108, 27971.00
1059.212, 28000.00
1060.315, 27763.00
1061.418, 27844.00
1062.522, 27838.00
1063.625, 27809.00
1064.728, 27976.00
1065.830, 27866.00
1066.933, 28089.00
1068.035, 27975.00
1069.137, 28159.00
1070.239, 27952.00
1071.341, 28260.00
1072.443, 28388.00
1073.545, 28102.00
1074.646, 28157.00
1075.747, 28326.00
1076.848, 28285.00
1077.949, 28504.00
1079.050, 28498.00
1080.150, 28636.00
1081.251, 28730.00
1082.351, 28628.00
1083.451, 29009.00
1084.551, 29007.00
1085.651, 28955.00
1086.750, 28752.00
1087.850, 28817.00
1088.949, 28784.00
1090.048, 28645.00
1091.147, 28567.00
1092.246, 28537.00
1093.345, 28553.00
1094.443, 28532.10
1095.541, 28489.00
1096.639, 28588.00
1097.737, 28592.00
1098.835, 28698.47
1099.933, 28820.95
1101.030, 28882.35
1102.128, 28885.90
1103.225, 28658.45
1104.322, 28729.31
1105.419, 28680.62
1106.515, 28510.00
1107.612, 28730.00
1108.708, 28622.00
1109.804, 28461.00
1110.900, 28946.00
1111.996, 28713.00
1113.092, 28583.00
1114.187, 28572.00
1115.283, 28846.00
1116.378, 28537.00
1117.473, 28599.00
1118.568, 28653.00
1119.662, 28442.00
1120.757, 28681.00
1121.851, 28255.00
1122.946, 28450.00
1124.040, 28484.00
1125.134, 28668.00
1126.227, 28504.00
1127.321, 28474.00
1128.414, 28422.00
1129.508, 28620.00
1130.601, 28625.00
1131.693, 28655.00
1132.786, 28775.00
1133.879, 28622.00
1134.971, 28636.00
1136.064, 28576.00
1137.156, 28723.00
1138.248, 28631.00
1139.339, 28610.00
1140.431, 28320.00
1141.522, 28517.00
1142.614, 28401.00
1143.705, 28115.00
1144.796, 28065.00
1145.887, 28403.00
1146.977, 28152.00
1148.068, 28105.00
1149.158, 28290.00
1150.248, 27981.00
1151.338, 28180.00
1152.428, 28099.00
1153.518, 27988.00
1154.607, 27793.00
1155.696, 27822.56
1156.785, 27904.00
1157.874, 27783.00
1158.963, 28019.00
1160.052, 27907.00
1161.141, 27728.00
1162.229, 28124.00
1163.317, 27854.00
1164.405, 27788.00
1165.493, 27799.00
1166.581, 27507.00
1167.668, 27804.00
1168.756, 27770.00
1169.843, 27981.00
1170.930, 27648.00
1172.017, 27479.00
1173.103, 27390.00
1174.190, 27647.00
1175.276, 27657.00
1176.363, 27611.00
1177.449, 27732.00
1178.535, 27530.00
1179.620, 27430.00
1180.706, 27408.00
1181.791, 27368.85
1182.877, 27663.00
1183.962, 27494.00
1185.047, 27455.00
1186.131, 27645.00
1187.216, 27533.00
1188.300, 27425.00
1189.385, 27447.00
1190.469, 27242.00
1191.553, 27140.00
1192.637, 27364.00
1193.720, 27230.00
1194.804, 27328.00
1195.887, 27178.00
1196.970, 27215.00
1198.053, 26918.00
1199.136, 27054.00
1200.219, 27154.00
1201.301, 27372.00
1202.383, 27205.00
1203.465, 27103.00
1204.547, 27299.00
1205.629, 27035.00
1206.711, 27045.00
1207.792, 27149.00
1208.874, 27149.00
1209.955, 27259.00
1211.036, 27097.00
1212.117, 27101.00
1213.198, 27336.00
1214.278, 27052.00
1215.359, 27190.00
1216.439, 27170.00
1217.519, 27372.00
1218.599, 27367.00
1219.678, 27201.00
1220.758, 27313.00
1221.837, 27256.00
1222.917, 27087.00
1223.996, 27276.00
1225.075, 27467.00
1226.153, 27509.00
1227.232, 27876.00
1228.310, 27642.00
1229.389, 27234.00
1230.467, 27443.00
1231.545, 27662.00
1232.622, 27475.00
1233.700, 27773.00
1234.777, 27600.00
1235.855, 27728.00
1236.932, 28025.00
1238.009, 27864.85
1239.086, 28051.00
1240.162, 27919.00
1241.239, 27607.00
1242.315, 27871.00
1243.391, 27922.00
1244.467, 27874.00
1245.543, 28208.00
1246.619, 28176.00
1247.694, 28058.00
1248.769, 27861.13
1249.844, 28031.48
1250.919, 28140.72
1251.994, 28192.13
1253.069, 28012.53
1254.144, 28131.24
1255.218, 28130.37
1256.292, 28124.59
1257.366, 28234.00
1258.440, 28289.00
1259.514, 28188.00
1260.587, 28420.00
1261.661, 28487.00
1262.734, 28459.00
1263.807, 28667.00
1264.880, 28782.00
1265.952, 28901.00
1267.025, 28808.00
1268.097, 28906.00
1269.170, 29027.00
1270.242, 29239.00
1271.314, 29100.00
1272.385, 29188.00
1273.457, 29258.00
1274.528, 29401.00
1275.600, 29250.00
1276.671, 29429.00
1277.742, 29446.00
1278.812, 29209.00
1279.883, 29397.00
1280.954, 29470.00
1282.024, 29486.00
1283.094, 29245.00
1284.164, 29375.00
1285.234, 29380.00
1286.303, 29345.00
1287.373, 29448.03
1288.442, 29571.00
1289.511, 29553.00
1290.580, 29628.00
1291.649, 29654.00
1292.718, 29752.00
1293.786, 29911.00
1294.855, 29986.00
1295.923, 30019.00
1296.991, 30154.00
1298.059, 30178.00
1299.126, 30231.00
1300.194, 30215.00
1301.261, 30559.00
1302.328, 30470.00
1303.395, 30786.00
1304.462, 30524.00
1305.529, 30703.00
1306.596, 30733.00
1307.662, 30682.00
1308.728, 31024.00
1309.794, 31152.00
1310.860, 31014.00
