##NAMES=Fayalite
##RRUFFID=R070157
##IDEAL CHEMISTRY=Fe^2+^_2_SiO_4_
##LOCALITY=Coso Hot Springs, Inyo County, California, USA
##OWNER=RRUFF
##SOURCE=James Shigley
##DESCRIPTION=Brown transparent tabular crystals associated with fine grained quartz
##STATUS=The identification of this mineral is confirmed by single-crystal X-ray diffraction and chemical analysis.
##URL=rruff.info/R070157
##MEASURED CHEMISTRY=(Fe^2+^_1.88_Mn_0.11_Zn_0.01_)_Î£=2_Si_1.00_O_4_ ; trace amounts of Mg
##PIN_ID=M01904
##ORIENTATION=Laser parallel to a* (1 0 0). Fiducial mark perpendicular to laser is parallel to b [0 1 0]
140.0920, 26549.00
141.3240, 26440.00
142.5560, 25978.00
143.7880, 26148.00
145.0190, 26066.00
146.2510, 26269.00
147.4820, 26329.71
148.7130, 26281.00
149.9440, 26367.00
151.1750, 26619.00
152.4050, 26301.00
153.6360, 26796.00
154.8660, 26613.00
156.0960, 26483.00
157.3260, 26487.00
158.5560, 26501.00
159.7850, 26495.00
161.0150, 26583.65
162.2440, 26844.00
163.4730, 26799.00
164.7020, 27023.00
165.9310, 27200.00
167.1590, 27326.00
168.3880, 27643.00
169.6160, 28209.00
170.8440, 28897.00
172.0720, 28995.00
173.3000, 29120.00
174.5280, 28823.00
175.7550, 28492.00
176.9820, 27695.00
178.2100, 27517.00
179.4370, 27023.00
180.6630, 26705.00
181.8900, 26651.00
183.1170, 26705.00
184.3430, 26635.00
185.5690, 26929.00
186.7950, 26788.00
188.0210, 26783.00
189.2470, 26748.00
190.4720, 26655.00
191.6970, 26618.00
192.9230, 26682.00
194.1480, 26759.00
195.3730, 26602.00
196.5970, 26726.00
197.8220, 26797.00
199.0460, 26962.00
200.2700, 26877.00
201.4940, 26787.00
202.7180, 26760.00
203.9420, 26441.00
205.1660, 26586.00
206.3890, 26121.00
207.6120, 26230.00
208.8350, 26424.00
210.0580, 26257.00
211.2810, 26306.00
212.5040, 26491.00
213.7260, 26381.00
214.9480, 26468.00
216.1700, 26853.00
217.3920, 26822.00
218.6140, 26782.00
219.8360, 27196.00
221.0570, 27159.00
222.2790, 27371.00
223.5000, 27624.00
224.7210, 27802.00
225.9410, 28090.00
227.1620, 28284.00
228.3820, 28431.00
229.6030, 28603.00
230.8230, 28981.00
232.0430, 29537.00
233.2630, 29798.00
234.4820, 30562.00
235.7020, 30785.00
236.9210, 31742.00
238.1400, 31842.00
239.3590, 31787.00
240.5780, 31664.00
241.7970, 31135.00
243.0150, 30883.00
244.2340, 30632.00
245.4520, 30386.00
246.6700, 29807.00
247.8880, 29263.00
249.1060, 28989.00
250.3230, 28744.00
251.5400, 28379.00
252.7580, 28348.00
253.9750, 28135.00
255.1920, 28145.00
256.4080, 28132.00
257.6250, 28002.50
258.8410, 27937.10
260.0580, 27826.00
261.2740, 27779.00
262.4900, 27664.00
263.7050, 27773.00
264.9210, 27412.00
266.1360, 27547.00
267.3520, 27654.00
268.5670, 27806.00
269.7820, 27589.00
270.9960, 27566.00
272.2110, 27786.00
273.4250, 28027.00
274.6400, 27929.00
275.8540, 28420.00
277.0680, 28194.00
278.2810, 28693.00
279.4950, 28701.97
280.7090, 28812.00
281.9220, 28965.00
283.1350, 29051.00
284.3480, 29456.00
285.5610, 29677.00
286.7730, 29748.00
287.9860, 29844.00
289.1980, 29842.00
290.4100, 29931.00
291.6220, 30123.00
292.8340, 29790.00
294.0460, 30048.00
295.2570, 29736.00
296.4690, 30506.00
297.6800, 29900.00
298.8910, 29704.00
300.1020, 29622.00
301.3120, 29202.00
302.5230, 29405.00
303.7330, 29245.00
304.9440, 29394.00
306.1540, 29257.00
307.3630, 29347.00
308.5730, 29405.00
309.7830, 29395.00
310.9920, 29709.00
312.2010, 29494.00
313.4100, 29549.00
314.6190, 29032.00
315.8280, 29324.00
317.0370, 29175.00
318.2450, 29199.00
319.4530, 29004.00
320.6610, 28985.00
321.8690, 28672.00
323.0770, 28774.00
324.2850, 28827.00
325.4920, 29040.00
326.6990, 29008.00
327.9060, 29022.00
329.1130, 28672.00
330.3200, 28923.00
331.5270, 28815.00
332.7330, 28878.00
333.9390, 28945.00
335.1450, 29019.00
336.3510, 29198.00
337.5570, 29379.00
338.7630, 29378.00
339.9680, 29608.00
341.1740, 29614.00
342.3790, 29774.00
343.5840, 29806.00
344.7890, 30412.00
345.9930, 30611.00
347.1980, 30851.00
348.4020, 31214.00
349.6060, 31446.01
350.8100, 31643.00
352.0140, 32009.00
353.2180, 32533.00
354.4210, 32797.00
355.6250, 33349.00
356.8280, 33891.00
358.0310, 34346.00
359.2340, 34790.00
360.4360, 35587.00
361.6390, 35968.00
362.8410, 36525.00
364.0430, 37444.00
365.2450, 37745.00
366.4470, 38254.00
367.6490, 38396.00
368.8510, 38741.00
370.0520, 38759.00
371.2530, 38490.00
372.4540, 38199.00
373.6550, 37987.00
374.8560, 37272.00
376.0560, 36561.00
377.2570, 35913.00
378.4570, 35149.00
379.6570, 34268.00
380.8570, 33847.00
382.0570, 33077.58
383.2560, 32394.00
384.4560, 31924.00
385.6550, 31387.00
386.8540, 31020.00
388.0530, 30881.00
389.2520, 30406.00
390.4510, 30121.00
391.6490, 30094.00
392.8470, 29722.00
394.0450, 29722.00
395.2430, 29601.00
396.4410, 29295.00
397.6390, 29497.00
398.8360, 29472.00
400.0340, 29608.00
401.2310, 29555.00
402.4280, 29586.00
403.6250, 29626.00
404.8210, 29607.76
406.0180, 29649.00
407.2140, 29643.00
408.4100, 29820.00
409.6060, 29898.00
410.8020, 29804.00
411.9980, 29772.00
413.1930, 29710.00
414.3890, 29461.00
415.5840, 29365.00
416.7790, 29324.00
417.9740, 29067.00
419.1680, 29182.00
420.3630, 28927.00
421.5570, 28449.00
422.7510, 28468.00
423.9450, 28418.00
425.1390, 28247.73
426.3330, 28438.00
427.5270, 28160.00
428.7200, 28226.00
429.9130, 28236.00
431.1060, 28132.00
432.2990, 27993.00
433.4920, 28116.00
434.6840, 28081.00
435.8770, 28264.00
437.0690, 28074.00
438.2610, 27967.00
439.4530, 28073.00
440.6450, 27995.00
441.8360, 27869.00
443.0280, 27872.00
444.2190, 27765.00
445.4100, 27667.00
446.6010, 27704.45
447.7920, 27837.00
448.9820, 27721.00
450.1730, 27725.00
451.3630, 27671.20
452.5530, 27716.15
453.7430, 27660.00
454.9330, 27876.00
456.1230, 27829.00
457.3120, 27947.00
458.5010, 27742.00
459.6910, 28081.00
460.8800, 27941.00
462.0680, 27933.00
463.2570, 28101.00
464.4460, 28183.00
465.6340, 28182.00
466.8220, 28245.00
468.0100, 28276.22
469.1980, 28185.00
470.3860, 28303.00
471.5730, 28268.00
472.7600, 28199.00
473.9480, 28406.00
475.1350, 28417.00
476.3210, 28548.00
477.5080, 28762.00
478.6950, 28731.00
479.8810, 28654.00
481.0670, 28970.00
482.2530, 28988.00
483.4390, 29226.00
484.6250, 29155.00
485.8100, 29422.00
486.9960, 29728.00
488.1810, 29867.00
489.3660, 30220.00
490.5510, 30543.96
491.7360, 30818.00
492.9200, 31335.00
494.1050, 31849.00
495.2890, 32362.00
496.4730, 33363.00
497.6570, 34212.00
498.8400, 34916.00
500.0240, 36207.00
501.2070, 37473.00
502.3910, 38415.00
503.5740, 39363.00
504.7570, 40254.00
505.9400, 40836.00
507.1220, 41214.00
508.3050, 40664.00
509.4870, 40260.00
510.6690, 39380.00
511.8510, 38240.00
513.0330, 37678.00
514.2140, 36572.38
515.3960, 35616.00
516.5770, 34756.00
517.7580, 34021.00
518.9390, 33415.00
520.1200, 33102.00
521.3010, 32580.00
522.4810, 32449.00
523.6610, 32216.00
524.8420, 31823.00
526.0220, 31912.00
527.2010, 31580.00
528.3810, 31568.00
529.5610, 31539.00
530.7400, 31153.00
531.9190, 31328.00
533.0980, 31258.00
534.2770, 31160.00
535.4560, 31096.00
536.6340, 31178.00
537.8120, 31295.00
538.9910, 31305.00
540.1690, 31403.00
541.3460, 31419.00
542.5240, 31504.00
543.7020, 31742.00
544.8790, 31652.00
546.0560, 31989.00
547.2330, 31976.00
548.4100, 32118.00
549.5870, 32581.00
550.7630, 32696.00
551.9400, 33089.00
553.1160, 33387.00
554.2920, 33638.00
555.4680, 33886.00
556.6440, 33984.00
557.8190, 34339.00
558.9950, 34752.00
560.1700, 34882.00
561.3450, 35045.00
562.5200, 35330.00
563.6950, 35136.00
564.8690, 35125.00
566.0440, 35075.00
567.2180, 35081.00
568.3920, 35041.00
569.5660, 34660.00
570.7400, 34521.00
571.9130, 34140.00
573.0870, 34006.00
574.2600, 33505.00
575.4330, 33148.00
576.6060, 32724.00
577.7790, 32451.00
578.9520, 32186.00
580.1240, 31893.36
581.2960, 31583.00
582.4690, 31495.00
583.6410, 31260.00
584.8120, 31244.00
585.9840, 31237.00
587.1560, 31031.00
588.3270, 30952.00
589.4980, 30874.00
590.6690, 30832.00
591.8400, 30814.00
593.0110, 30761.00
594.1810, 30797.00
595.3510, 30879.00
596.5220, 30833.00
597.6920, 30848.00
598.8610, 30747.00
600.0310, 30780.59
601.2010, 30757.31
602.3700, 30865.00
603.5390, 30704.00
604.7080, 30855.00
605.8770, 30737.00
607.0460, 30720.00
608.2140, 30851.00
609.3830, 30922.00
610.5510, 30683.00
611.7190, 30503.00
612.8870, 30668.00
614.0550, 30624.00
615.2220, 30607.00
616.3900, 30843.00
617.5570, 31008.00
618.7240, 30987.00
619.8910, 31078.00
621.0580, 30950.00
622.2240, 31253.00
623.3910, 31436.00
624.5570, 31377.00
625.7230, 31602.00
626.8890, 31412.00
628.0550, 31366.00
629.2200, 31301.00
630.3860, 31024.00
631.5510, 30995.00
632.7160, 30966.00
633.8810, 30799.00
635.0460, 30792.27
636.2100, 30749.15
637.3750, 30693.00
638.5390, 30754.00
639.7030, 30737.00
640.8670, 30810.00
642.0310, 30743.00
643.1950, 31220.00
644.3580, 31125.00
645.5210, 31124.00
646.6850, 31539.00
647.8480, 31480.00
649.0100, 31399.00
650.1730, 31232.00
651.3350, 31521.00
652.4980, 31508.00
653.6600, 31283.00
654.8220, 31628.00
655.9840, 31390.00
657.1450, 30739.57
658.3070, 31093.90
659.4680, 31291.09
660.6300, 31339.58
661.7910, 30794.02
662.9510, 31015.56
664.1120, 30929.69
665.2730, 30831.20
666.4330, 31160.71
667.5930, 30976.00
668.7530, 30770.00
669.9130, 31034.00
671.0730, 30619.00
672.2320, 30868.00
673.3920, 30596.00
674.5510, 31066.00
675.7100, 30676.00
676.8690, 30833.00
678.0280, 30653.00
679.1860, 30759.00
680.3450, 31137.00
681.5030, 30691.00
682.6610, 30828.83
683.8190, 30791.00
684.9770, 30615.00
686.1340, 30821.00
687.2920, 30740.00
688.4490, 30541.00
689.6060, 30820.00
690.7630, 30619.00
691.9200, 30459.00
693.0760, 30403.00
694.2330, 30389.00
695.3890, 30573.00
696.5450, 30472.00
697.7010, 30663.00
698.8570, 30651.00
700.0130, 30736.00
701.1680, 30772.00
702.3230, 30830.00
703.4780, 30763.61
704.6330, 30725.00
705.7880, 30629.00
706.9430, 30609.00
708.0970, 30634.00
709.2520, 30782.00
710.4060, 30716.00
711.5600, 30831.85
712.7140, 30909.00
713.8670, 30973.00
715.0210, 31087.00
716.1740, 31148.00
717.3270, 31084.00
718.4800, 31345.00
719.6330, 31459.00
720.7860, 30995.00
721.9380, 31400.00
723.0910, 31338.00
724.2430, 31354.00
725.3950, 31479.00
726.5470, 31513.87
727.6980, 31607.00
728.8500, 31735.00
730.0010, 31788.00
731.1530, 31924.13
732.3040, 31962.00
733.4550, 32236.00
734.6050, 32366.00
735.7560, 32276.00
736.9060, 32264.00
738.0560, 32704.00
739.2060, 32572.00
740.3560, 32593.00
741.5060, 33047.00
742.6560, 32615.00
743.8050, 32958.00
744.9540, 32858.00
746.1030, 33024.00
747.2520, 32727.00
748.4010, 32656.00
749.5500, 32812.00
750.6980, 32785.00
751.8460, 32978.00
752.9950, 33101.53
754.1420, 32829.00
755.2900, 33398.00
756.4380, 32791.00
757.5850, 32811.00
758.7330, 32856.00
759.8800, 32643.00
761.0270, 33088.00
762.1730, 33072.00
763.3200, 33336.00
764.4670, 33351.00
765.6130, 33424.00
766.7590, 33515.00
767.9050, 33680.00
769.0510, 33870.00
770.1960, 33942.37
771.3420, 33963.00
772.4870, 34154.00
773.6320, 34332.00
774.7770, 34493.00
775.9220, 34698.94
777.0670, 34809.00
778.2110, 35111.00
779.3560, 35088.00
780.5000, 35306.00
781.6440, 35664.00
782.7880, 36000.00
783.9320, 36533.00
785.0750, 36984.00
786.2180, 37479.00
787.3620, 37865.00
788.5050, 38336.00
789.6480, 39217.00
790.7900, 40119.00
791.9330, 41234.00
793.0750, 42314.00
794.2170, 43653.00
795.3590, 45018.00
796.5010, 46981.00
797.6430, 49124.00
798.7850, 51822.00
799.9260, 55021.00
801.0670, 58900.00
802.2080, 64134.00
803.3490, 69934.00
804.4900, 77262.00
805.6310, 85728.00
806.7710, 95226.00
807.9110, 105719.0
809.0510, 117655.0
810.1910, 129220.0
811.3310, 139814.0
812.4710, 149145.0
813.6100, 156697.0
814.7490, 159923.0
815.8880, 160646.0
817.0270, 157688.0
818.1660, 152793.0
819.3050, 146729.0
820.4430, 140821.0
821.5820, 133742.0
822.7200, 127649.0
823.8580, 122033.0
824.9950, 117924.0
826.1330, 114031.0
827.2710, 110723.0
828.4080, 108482.0
829.5450, 106350.0
830.6820, 105204.0
831.8190, 104017.0
832.9560, 102973.0
834.0920, 101428.0
835.2280, 101412.0
836.3650, 99959.00
837.5010, 98800.00
838.6360, 97071.00
839.7720, 95127.00
840.9080, 92734.05
842.0430, 90103.00
843.1780, 86824.00
844.3130, 83616.00
845.4480, 79729.00
846.5830, 76342.00
847.7170, 72234.00
848.8520, 68768.00
849.9860, 65068.00
851.1200, 61942.00
852.2540, 58769.00
853.3870, 56193.00
854.5210, 53957.00
855.6540, 51563.00
856.7880, 49837.00
857.9210, 48229.00
859.0540, 46876.00
860.1860, 45326.00
861.3190, 44255.00
862.4510, 43196.00
863.5840, 42357.00
864.7160, 41365.00
865.8480, 40623.00
866.9790, 39834.00
868.1110, 39186.00
869.2420, 38713.00
870.3740, 38275.00
871.5050, 37902.01
872.6360, 37701.00
873.7660, 37391.00
874.8970, 37326.00
876.0280, 37233.00
877.1580, 37106.00
878.2880, 36976.00
879.4180, 36855.00
880.5480, 37026.00
881.6770, 37150.00
882.8070, 37131.00
883.9360, 37221.00
885.0650, 37399.00
886.1940, 37524.00
887.3230, 37724.00
888.4520, 37791.00
889.5800, 38087.00
890.7090, 38245.00
891.8370, 38483.48
892.9650, 38787.00
894.0930, 38993.00
895.2200, 39435.00
896.3480, 39698.00
897.4750, 39989.00
898.6020, 40488.00
899.7290, 40735.00
900.8560, 41166.00
901.9830, 41434.00
903.1090, 41373.00
904.2360, 40909.00
905.3620, 40659.00
906.4880, 40241.00
907.6140, 39845.00
908.7400, 39603.00
909.8650, 39259.00
910.9900, 38923.00
912.1160, 39029.00
913.2410, 38967.00
914.3660, 39112.00
915.4900, 39042.00
916.6150, 39389.00
917.7390, 39661.00
918.8640, 39775.00
919.9880, 40214.00
921.1120, 40482.00
922.2350, 41021.00
923.3590, 40900.00
924.4820, 41428.00
925.6060, 41693.00
926.7290, 42030.00
927.8520, 42577.00
928.9740, 42723.00
930.0970, 42931.00
931.2190, 43218.00
932.3420, 43335.00
933.4640, 43227.00
934.5860, 43545.00
935.7080, 43524.00
936.8290, 43193.00
937.9510, 43106.00
939.0720, 42901.00
940.1930, 42797.77
941.3140, 42979.00
942.4350, 42630.00
943.5560, 42617.00
944.6760, 42468.00
945.7960, 42222.00
946.9170, 42109.01
948.0370, 41878.00
949.1560, 41792.00
950.2760, 41462.00
951.3960, 41425.00
952.5150, 41064.00
953.6340, 41367.00
954.7530, 41244.00
955.8720, 40929.00
956.9910, 40927.00
958.1090, 40440.00
959.2280, 40203.32
960.3460, 40303.06
961.4640, 40311.14
962.5820, 40232.48
963.6990, 39807.38
964.8170, 39829.66
965.9340, 39672.70
967.0510, 39508.40
968.1690, 39593.66
969.2850, 39219.07
970.4020, 39300.46
971.5190, 39359.00
972.6350, 39199.00
973.7510, 38858.00
974.8670, 39015.00
975.9830, 38970.00
977.0990, 38929.00
978.2150, 38658.00
979.3300, 38901.00
980.4450, 38588.00
981.5600, 38703.00
982.6750, 38576.00
983.7900, 38410.00
984.9050, 38401.00
986.0190, 38502.00
987.1340, 38703.00
988.2480, 38526.00
989.3620, 38300.00
990.4750, 38103.00
991.5890, 38207.00
992.7020, 38243.00
993.8160, 38134.00
994.9290, 38165.07
996.0420, 38063.00
997.1550, 38148.00
998.2670, 38193.00
999.3800, 38352.00
1000.492, 38677.00
1001.604, 39163.00
1002.716, 39411.00
1003.828, 39285.00
1004.940, 38717.00
1006.051, 38231.00
1007.163, 37841.00
1008.274, 37625.00
1009.385, 37401.00
1010.496, 36970.00
1011.606, 37076.53
1012.717, 36971.83
1013.827, 37182.00
1014.937, 37161.00
1016.047, 37136.00
1017.157, 37343.00
1018.267, 37154.00
1019.377, 37009.00
1020.486, 37122.00
1021.595, 37034.71
1022.704, 37276.00
1023.813, 37137.00
1024.922, 36966.00
1026.030, 37090.00
1027.139, 37004.00
1028.247, 37028.00
1029.355, 36693.00
1030.463, 36796.00
1031.571, 36866.00
1032.678, 36502.00
1033.786, 36385.00
1034.893, 36647.00
1036.000, 36503.00
1037.107, 36656.00
1038.214, 36334.00
1039.321, 36425.00
1040.427, 36414.00
1041.533, 36223.00
1042.639, 36293.00
1043.745, 36135.00
1044.851, 36423.00
1045.957, 36295.00
1047.062, 36484.00
1048.168, 36481.00
1049.273, 36312.00
1050.378, 36326.00
1051.482, 36612.00
1052.587, 36209.00
1053.692, 36265.00
1054.796, 36353.00
1055.900, 35952.00
1057.004, 36266.00
1058.108, 36351.00
1059.212, 36188.70
1060.315, 36271.49
1061.418, 36168.00
1062.522, 36043.00
1063.625, 36279.00
1064.728, 36068.00
1065.830, 36408.00
1066.933, 36132.00
1068.035, 36201.00
1069.137, 36404.00
1070.239, 36391.00
1071.341, 36275.00
1072.443, 36022.00
1073.545, 36046.00
1074.646, 36260.00
1075.747, 36013.00
1076.848, 36287.00
1077.949, 36557.00
1079.050, 36407.00
1080.150, 36431.00
1081.251, 36385.00
1082.351, 36389.00
1083.451, 36828.00
1084.551, 36789.00
1085.651, 36696.00
1086.750, 36180.00
1087.850, 36286.00
1088.949, 36200.00
1090.048, 36368.00
1091.147, 36139.00
1092.246, 36125.00
1093.345, 36122.00
1094.443, 35851.00
1095.541, 35971.00
1096.639, 36201.00
1097.737, 35968.00
1098.835, 35911.00
1099.933, 35719.00
1101.030, 35820.00
1102.128, 35657.00
1103.225, 35848.00
1104.322, 35792.00
1105.419, 35845.00
1106.515, 35938.00
1107.612, 35881.00
1108.708, 36051.00
1109.804, 36320.00
1110.900, 36079.00
1111.996, 35741.00
1113.092, 35685.00
1114.187, 35883.00
1115.283, 35894.00
1116.378, 35838.00
1117.473, 36079.00
1118.568, 35753.00
1119.662, 35769.00
1120.757, 35980.00
1121.851, 35734.00
1122.946, 35661.00
1124.040, 35759.00
1125.134, 36055.00
1126.227, 36056.00
1127.321, 36003.00
1128.414, 36026.00
1129.508, 36232.00
1130.601, 35951.00
1131.693, 36321.00
1132.786, 36095.00
1133.879, 36144.00
1134.971, 35795.00
1136.064, 35983.00
1137.156, 35806.00
1138.248, 35948.00
1139.339, 35751.00
1140.431, 36020.00
1141.522, 35855.00
1142.614, 35971.00
1143.705, 35930.00
1144.796, 35669.00
1145.887, 35704.00
1146.977, 35449.00
1148.068, 35648.00
1149.158, 35789.00
1150.248, 35511.00
1151.338, 35769.00
1152.428, 35692.00
1153.518, 35579.00
1154.607, 35287.00
1155.696, 35545.00
1156.785, 35467.00
1157.874, 35296.00
1158.963, 35290.00
1160.052, 35190.70
1161.141, 35307.00
1162.229, 35145.00
1163.317, 35216.00
1164.405, 35364.00
1165.493, 35209.00
1166.581, 35129.00
1167.668, 35181.00
1168.756, 35234.00
1169.843, 35358.00
1170.930, 34949.00
1172.017, 35378.00
1173.103, 35153.00
1174.190, 35141.00
1175.276, 35386.00
1176.363, 35081.00
1177.449, 34937.00
1178.535, 35423.00
1179.620, 34965.00
1180.706, 35007.00
1181.791, 35052.00
1182.877, 35124.00
1183.962, 35291.00
1185.047, 35127.00
1186.131, 35009.00
1187.216, 35129.00
1188.300, 34876.00
1189.385, 34761.00
1190.469, 34923.00
1191.553, 35135.00
1192.637, 34728.00
1193.720, 34812.00
1194.804, 34653.00
1195.887, 34727.00
1196.970, 34777.00
1198.053, 34684.00
1199.136, 34653.00
1200.219, 34877.00
1201.301, 34915.00
1202.383, 34829.00
1203.465, 34748.00
1204.547, 34780.54
1205.629, 34793.63
1206.711, 34833.00
1207.792, 34818.00
1208.874, 34920.00
1209.955, 34898.33
1211.036, 34912.00
1212.117, 34856.00
1213.198, 34945.00
1214.278, 34829.00
1215.359, 34782.00
1216.439, 34867.24
1217.519, 35076.86
1218.599, 35194.82
1219.678, 35226.04
1220.758, 34910.72
1221.837, 35042.88
1222.917, 34995.72
1223.996, 34941.20
1225.075, 35136.34
1226.153, 34871.43
1227.232, 35062.61
1228.310, 35071.73
1229.389, 35164.18
1230.467, 35076.19
1231.545, 35163.00
1232.622, 35189.00
1233.700, 35318.00
1234.777, 35420.00
1235.855, 35509.00
1236.932, 35523.00
1238.009, 35591.77
1239.086, 35554.00
1240.162, 35629.00
1241.239, 35555.00
1242.315, 35498.00
1243.391, 35538.00
1244.467, 35765.00
1245.543, 35397.00
1246.619, 35706.00
1247.694, 35891.00
1248.769, 35806.00
1249.844, 35986.00
1250.919, 35560.00
1251.994, 35607.00
1253.069, 35783.38
1254.144, 35861.00
1255.218, 36142.00
1256.292, 35896.00
1257.366, 35837.00
1258.440, 35750.00
1259.514, 35932.00
1260.587, 36145.00
1261.661, 36021.00
1262.734, 36318.00
1263.807, 36295.00
1264.880, 36240.00
1265.952, 36453.00
1267.025, 36753.00
1268.097, 36745.00
1269.170, 36831.00
1270.242, 36724.00
1271.314, 36843.00
1272.385, 36962.00
1273.457, 37215.00
1274.528, 37161.00
1275.600, 36964.00
1276.671, 36984.00
1277.742, 36906.00
1278.812, 36910.00
1279.883, 37017.00
1280.954, 36665.00
1282.024, 36617.00
1283.094, 36897.00
1284.164, 36717.00
1285.234, 36848.00
1286.303, 36973.00
1287.373, 36877.00
1288.442, 37001.00
1289.511, 37094.00
1290.580, 37345.00
1291.649, 37434.00
1292.718, 37288.00
1293.786, 37487.00
1294.855, 37561.00
1295.923, 37429.00
1296.991, 37660.00
1298.059, 37552.00
1299.126, 37627.74
1300.194, 38055.00
1301.261, 37804.00
1302.328, 37769.00
1303.395, 38006.00
1304.462, 37849.00
1305.529, 38072.00
1306.596, 37909.00
1307.662, 38062.00
1308.728, 37931.00
1309.794, 38097.00
1310.860, 38256.00
