##NAMES=Fayalite
##RRUFFID=R070157
##IDEAL CHEMISTRY=Fe^2+^_2_SiO_4_
##LOCALITY=Coso Hot Springs, Inyo County, California, USA
##OWNER=RRUFF
##SOURCE=James Shigley
##DESCRIPTION=Brown transparent tabular crystals associated with fine grained quartz
##STATUS=The identification of this mineral is confirmed by single-crystal X-ray diffraction and chemical analysis.
##URL=rruff.info/R070157
##MEASURED CHEMISTRY=(Fe^2+^_1.88_Mn_0.11_Zn_0.01_)_Î£=2_Si_1.00_O_4_ ; trace amounts of Mg
##PIN_ID=M01904
##ORIENTATION=Laser parallel to a* (1 0 0). Fiducial mark perpendicular to laser is parallel to b [0 1 0]
140.0920, 23983.00
141.3240, 23811.00
142.5560, 23404.00
143.7880, 23426.00
145.0190, 23269.00
146.2510, 23319.00
147.4820, 23523.00
148.7130, 23524.00
149.9440, 23431.00
151.1750, 23572.00
152.4050, 23799.00
153.6360, 23972.00
154.8660, 24104.00
156.0960, 24348.00
157.3260, 24301.00
158.5560, 25362.00
159.7850, 25448.00
161.0150, 26594.00
162.2440, 27995.00
163.4730, 28936.00
164.7020, 29982.00
165.9310, 31151.00
167.1590, 32982.00
168.3880, 35762.00
169.6160, 38821.00
170.8440, 42094.00
172.0720, 44435.00
173.3000, 45764.00
174.5280, 44769.00
175.7550, 42107.00
176.9820, 38469.00
178.2100, 33382.00
179.4370, 29697.00
180.6630, 27478.00
181.8900, 25857.00
183.1170, 25027.00
184.3430, 24305.00
185.5690, 24187.00
186.7950, 23813.00
188.0210, 23755.00
189.2470, 23321.00
190.4720, 23389.00
191.6970, 23277.00
192.9230, 22996.00
194.1480, 23241.00
195.3730, 22899.00
196.5970, 22919.00
197.8220, 22890.00
199.0460, 22818.00
200.2700, 22823.00
201.4940, 22736.00
202.7180, 22837.00
203.9420, 22499.00
205.1660, 22231.00
206.3890, 22106.00
207.6120, 22167.00
208.8350, 22224.00
210.0580, 22037.00
211.2810, 22753.00
212.5040, 22905.00
213.7260, 22717.00
214.9480, 22709.00
216.1700, 22963.00
217.3920, 23571.00
218.6140, 23679.00
219.8360, 24033.00
221.0570, 24379.00
222.2790, 24730.00
223.5000, 25281.00
224.7210, 25932.00
225.9410, 26599.00
227.1620, 27459.00
228.3820, 28302.00
229.6030, 29359.00
230.8230, 30438.00
232.0430, 31625.00
233.2630, 32965.00
234.4820, 34563.00
235.7020, 36081.00
236.9210, 37680.00
238.1400, 38952.00
239.3590, 39375.00
240.5780, 40034.00
241.7970, 39328.00
243.0150, 38626.00
244.2340, 37486.00
245.4520, 35659.00
246.6700, 34317.00
247.8880, 32494.00
249.1060, 31213.00
250.3230, 30090.00
251.5400, 29079.00
252.7580, 28232.00
253.9750, 27506.00
255.1920, 27017.00
256.4080, 26595.61
257.6250, 26421.34
258.8410, 26186.22
260.0580, 25893.03
261.2740, 25369.08
262.4900, 25143.44
263.7050, 25027.00
264.9210, 24992.00
266.1360, 24928.00
267.3520, 24882.00
268.5670, 25060.55
269.7820, 25501.00
270.9960, 25580.00
272.2110, 25920.00
273.4250, 26420.00
274.6400, 26755.00
275.8540, 27164.00
277.0680, 27448.00
278.2810, 28191.00
279.4950, 28650.00
280.7090, 28988.00
281.9220, 29330.00
283.1350, 29583.00
284.3480, 29687.00
285.5610, 29550.00
286.7730, 29441.00
287.9860, 29194.86
289.1980, 28735.00
290.4100, 28416.00
291.6220, 27865.00
292.8340, 27202.00
294.0460, 26882.00
295.2570, 26361.00
296.4690, 26008.00
297.6800, 25665.00
298.8910, 25329.66
300.1020, 25091.00
301.3120, 24796.00
302.5230, 24638.00
303.7330, 24409.00
304.9440, 24347.00
306.1540, 24246.00
307.3630, 24042.00
308.5730, 24027.00
309.7830, 24089.00
310.9920, 23941.00
312.2010, 23880.00
313.4100, 23919.00
314.6190, 23569.00
315.8280, 23660.00
317.0370, 23634.00
318.2450, 23437.00
319.4530, 23289.00
320.6610, 23230.00
321.8690, 23050.00
323.0770, 23078.00
324.2850, 23131.00
325.4920, 23000.00
326.6990, 22966.00
327.9060, 22868.25
329.1130, 22686.00
330.3200, 22741.00
331.5270, 22807.00
332.7330, 22996.00
333.9390, 22953.00
335.1450, 22998.00
336.3510, 22926.00
337.5570, 22907.00
338.7630, 22915.00
339.9680, 23102.00
341.1740, 23096.00
342.3790, 23210.00
343.5840, 23162.00
344.7890, 23325.00
345.9930, 23506.00
347.1980, 23511.00
348.4020, 23782.00
349.6060, 23916.00
350.8100, 23836.00
352.0140, 24070.00
353.2180, 24187.00
354.4210, 24565.00
355.6250, 24682.00
356.8280, 24656.00
358.0310, 24997.00
359.2340, 25430.00
360.4360, 25618.00
361.6390, 26329.00
362.8410, 26347.00
364.0430, 26776.00
365.2450, 26883.00
366.4470, 26924.00
367.6490, 27352.00
368.8510, 27383.00
370.0520, 27705.00
371.2530, 27611.00
372.4540, 27456.00
373.6550, 27293.00
374.8560, 27077.64
376.0560, 26723.00
377.2570, 26527.00
378.4570, 26177.38
379.6570, 25769.00
380.8570, 25544.00
382.0570, 25242.00
383.2560, 24911.00
384.4560, 24752.00
385.6550, 24565.00
386.8540, 24352.00
388.0530, 24295.00
389.2520, 24144.00
390.4510, 23751.00
391.6490, 24018.00
392.8470, 23753.00
394.0450, 23849.00
395.2430, 23726.00
396.4410, 23696.00
397.6390, 23634.00
398.8360, 23927.00
400.0340, 23742.00
401.2310, 23971.00
402.4280, 24015.00
403.6250, 24079.00
404.8210, 24164.00
406.0180, 24435.00
407.2140, 24662.00
408.4100, 24716.00
409.6060, 24751.00
410.8020, 24750.00
411.9980, 24684.16
413.1930, 24660.00
414.3890, 24423.00
415.5840, 24302.00
416.7790, 24031.00
417.9740, 23912.00
419.1680, 23817.00
420.3630, 23763.00
421.5570, 23527.00
422.7510, 23213.00
423.9450, 23235.00
425.1390, 23146.00
426.3330, 23113.00
427.5270, 22783.00
428.7200, 22798.00
429.9130, 22744.00
431.1060, 22815.00
432.2990, 22723.77
433.4920, 22643.00
434.6840, 22622.00
435.8770, 22532.00
437.0690, 22573.00
438.2610, 22438.00
439.4530, 22516.00
440.6450, 22469.00
441.8360, 22233.00
443.0280, 22312.00
444.2190, 22192.00
445.4100, 22301.00
446.6010, 22179.00
447.7920, 22182.83
448.9820, 22212.88
450.1730, 22153.00
451.3630, 22206.00
452.5530, 22213.00
453.7430, 22113.00
454.9330, 22179.00
456.1230, 22100.00
457.3120, 22264.00
458.5010, 22377.00
459.6910, 22381.00
460.8800, 22119.00
462.0680, 22267.00
463.2570, 22211.00
464.4460, 22422.00
465.6340, 22373.54
466.8220, 22419.00
468.0100, 22351.00
469.1980, 22359.00
470.3860, 22373.00
471.5730, 22490.00
472.7600, 22547.52
473.9480, 22908.00
475.1350, 22699.80
476.3210, 22762.00
477.5080, 22719.00
478.6950, 22734.08
479.8810, 22671.00
481.0670, 22886.00
482.2530, 23000.00
483.4390, 23147.40
484.6250, 23010.00
485.8100, 23287.00
486.9960, 23417.00
488.1810, 23256.00
489.3660, 23538.00
490.5510, 23562.00
491.7360, 23938.00
492.9200, 24053.00
494.1050, 24483.00
495.2890, 24789.00
496.4730, 25303.00
497.6570, 25453.00
498.8400, 26196.00
500.0240, 26560.00
501.2070, 27202.00
502.3910, 27828.00
503.5740, 28306.00
504.7570, 28713.00
505.9400, 29158.00
507.1220, 29152.78
508.3050, 29216.00
509.4870, 28926.00
510.6690, 28529.00
511.8510, 28189.00
513.0330, 27810.00
514.2140, 27148.00
515.3960, 26607.00
516.5770, 26308.00
517.7580, 25816.00
518.9390, 25568.02
520.1200, 25368.00
521.3010, 25161.00
522.4810, 25016.00
523.6610, 24853.35
524.8420, 24771.00
526.0220, 24608.00
527.2010, 24448.00
528.3810, 24382.11
529.5610, 24421.00
530.7400, 24336.00
531.9190, 24238.00
533.0980, 24324.00
534.2770, 24087.00
535.4560, 24181.00
536.6340, 24127.00
537.8120, 24107.00
538.9910, 24358.00
540.1690, 24605.00
541.3460, 24548.72
542.5240, 24321.00
543.7020, 24544.00
544.8790, 24519.00
546.0560, 24532.00
547.2330, 24694.95
548.4100, 24725.00
549.5870, 24886.00
550.7630, 25008.00
551.9400, 25007.00
553.1160, 25367.00
554.2920, 25439.00
555.4680, 25750.00
556.6440, 25860.00
557.8190, 25823.00
558.9950, 26035.00
560.1700, 26219.00
561.3450, 26251.00
562.5200, 26433.00
563.6950, 26466.00
564.8690, 26445.19
566.0440, 26361.00
567.2180, 26335.00
568.3920, 26414.00
569.5660, 26355.00
570.7400, 26399.00
571.9130, 26200.00
573.0870, 25928.00
574.2600, 25955.00
575.4330, 25962.00
576.6060, 25370.00
577.7790, 25493.00
578.9520, 25093.00
580.1240, 24953.00
581.2960, 24945.00
582.4690, 24743.00
583.6410, 24603.00
584.8120, 24612.00
585.9840, 24538.00
587.1560, 24483.00
588.3270, 24598.00
589.4980, 24405.00
590.6690, 24388.00
591.8400, 24435.00
593.0110, 24589.00
594.1810, 24578.00
595.3510, 24639.00
596.5220, 24623.00
597.6920, 24769.00
598.8610, 24671.00
600.0310, 24612.00
601.2010, 24619.00
602.3700, 24866.00
603.5390, 24810.00
604.7080, 24625.00
605.8770, 24386.00
607.0460, 24470.60
608.2140, 24570.82
609.3830, 24609.90
610.5510, 24591.18
611.7190, 24341.45
612.8870, 24390.03
614.0550, 24415.00
615.2220, 24507.00
616.3900, 24426.00
617.5570, 24555.04
618.7240, 24789.00
619.8910, 24742.00
621.0580, 24842.00
622.2240, 24951.00
623.3910, 24992.00
624.5570, 25261.00
625.7230, 25063.00
626.8890, 25196.00
628.0550, 25089.00
629.2200, 24880.26
630.3860, 24979.00
631.5510, 24525.98
632.7160, 24600.81
633.8810, 24614.53
635.0460, 24570.42
636.2100, 24295.35
637.3750, 24235.00
638.5390, 24266.00
639.7030, 24489.00
640.8670, 24537.00
642.0310, 24497.00
643.1950, 24623.00
644.3580, 24826.00
645.5210, 24774.00
646.6850, 24929.00
647.8480, 25163.00
649.0100, 24858.00
650.1730, 25162.00
651.3350, 24958.00
652.4980, 24900.00
653.6600, 24842.00
654.8220, 24903.00
655.9840, 25097.00
657.1450, 25017.00
658.3070, 24905.00
659.4680, 24778.00
660.6300, 24596.00
661.7910, 24542.00
662.9510, 24596.00
664.1120, 24335.00
665.2730, 24451.00
666.4330, 24479.00
667.5930, 24651.00
668.7530, 24470.00
669.9130, 24309.00
671.0730, 24313.00
672.2320, 24429.00
673.3920, 24290.00
674.5510, 24149.00
675.7100, 24209.00
676.8690, 24116.00
678.0280, 24133.00
679.1860, 23972.00
680.3450, 24090.00
681.5030, 24294.00
682.6610, 23943.00
683.8190, 24112.00
684.9770, 23999.00
686.1340, 23854.00
687.2920, 23966.00
688.4490, 23848.00
689.6060, 23718.00
690.7630, 23986.00
691.9200, 23801.00
693.0760, 23692.00
694.2330, 23642.00
695.3890, 23704.00
696.5450, 23837.00
697.7010, 23813.00
698.8570, 23730.00
700.0130, 23725.00
701.1680, 23898.00
702.3230, 23670.00
703.4780, 23787.09
704.6330, 23955.00
705.7880, 23824.00
706.9430, 23766.00
708.0970, 23767.00
709.2520, 23717.00
710.4060, 23755.07
711.5600, 23783.09
712.7140, 23865.00
713.8670, 23911.00
715.0210, 24015.00
716.1740, 24128.00
717.3270, 24199.00
718.4800, 23924.00
719.6330, 24084.00
720.7860, 24559.00
721.9380, 24326.65
723.0910, 24542.00
724.2430, 24352.00
725.3950, 24314.00
726.5470, 24467.00
727.6980, 24448.00
728.8500, 24516.00
730.0010, 24568.00
731.1530, 24990.00
732.3040, 24873.00
733.4550, 24984.00
734.6050, 24875.00
735.7560, 25118.00
736.9060, 24913.00
738.0560, 25479.00
739.2060, 25441.00
740.3560, 25528.00
741.5060, 25766.00
742.6560, 25454.00
743.8050, 25668.00
744.9540, 25840.00
746.1030, 25845.00
747.2520, 25629.00
748.4010, 25691.00
749.5500, 25680.00
750.6980, 25621.00
751.8460, 25593.00
752.9950, 25347.00
754.1420, 25484.00
755.2900, 25378.00
756.4380, 25411.00
757.5850, 25414.00
758.7330, 25344.00
759.8800, 25541.00
761.0270, 25614.00
762.1730, 25868.45
763.3200, 25862.38
764.4670, 25863.39
765.6130, 25841.00
766.7590, 25818.00
767.9050, 25717.00
769.0510, 25881.00
770.1960, 25765.00
771.3420, 25914.00
772.4870, 25899.00
773.6320, 26208.00
774.7770, 26513.00
775.9220, 26466.00
777.0670, 26650.00
778.2110, 26565.00
779.3560, 26937.00
780.5000, 26907.00
781.6440, 27149.00
782.7880, 27146.00
783.9320, 27745.00
785.0750, 28200.00
786.2180, 28292.00
787.3620, 28809.00
788.5050, 29219.00
789.6480, 29605.00
790.7900, 30154.00
791.9330, 30801.82
793.0750, 31433.00
794.2170, 32316.00
795.3590, 33108.00
796.5010, 33972.00
797.6430, 35450.00
798.7850, 36928.00
799.9260, 39003.00
801.0670, 41345.00
802.2080, 43767.00
803.3490, 46851.00
804.4900, 51019.00
805.6310, 55920.00
806.7710, 61466.00
807.9110, 68094.00
809.0510, 74848.00
810.1910, 83119.00
811.3310, 89580.00
812.4710, 95645.00
813.6100, 101512.0
814.7490, 104919.0
815.8880, 106557.0
817.0270, 106469.0
818.1660, 104209.0
819.3050, 101507.0
820.4430, 98481.00
821.5820, 94542.00
822.7200, 92170.00
823.8580, 89177.00
824.9950, 87237.00
826.1330, 85895.00
827.2710, 84862.00
828.4080, 84615.00
829.5450, 84551.00
830.6820, 85210.00
831.8190, 86325.00
832.9560, 87473.00
834.0920, 88390.00
835.2280, 89542.00
836.3650, 90642.00
837.5010, 92335.00
838.6360, 93099.00
839.7720, 93570.00
840.9080, 93364.00
842.0430, 92907.00
843.1780, 91021.00
844.3130, 88833.00
845.4480, 86330.00
846.5830, 83815.00
847.7170, 80654.00
848.8520, 77342.00
849.9860, 73939.00
851.1200, 70954.00
852.2540, 67385.00
853.3870, 64336.00
854.5210, 61804.00
855.6540, 58824.00
856.7880, 56560.00
857.9210, 54530.00
859.0540, 52471.00
860.1860, 50686.73
861.3190, 49133.00
862.4510, 47444.00
863.5840, 46044.00
864.7160, 44723.00
865.8480, 43548.00
866.9790, 42612.00
868.1110, 41736.00
869.2420, 40858.55
870.3740, 40139.00
871.5050, 39456.00
872.6360, 38817.00
873.7660, 38413.00
874.8970, 38064.00
876.0280, 37708.00
877.1580, 37611.00
878.2880, 37495.00
879.4180, 37171.00
880.5480, 36883.00
881.6770, 37009.00
882.8070, 37006.00
883.9360, 36946.00
885.0650, 37245.00
886.1940, 37334.05
887.3230, 37793.00
888.4520, 37788.00
889.5800, 37972.00
890.7090, 38218.00
891.8370, 38805.00
892.9650, 39516.00
894.0930, 40337.00
895.2200, 41312.00
896.3480, 42081.00
897.4750, 43263.00
898.6020, 44190.00
899.7290, 45559.00
900.8560, 46193.00
901.9830, 46830.00
903.1090, 47159.00
904.2360, 46971.00
905.3620, 46175.00
906.4880, 45082.00
907.6140, 44208.00
908.7400, 42944.00
909.8650, 41701.00
910.9900, 40904.00
912.1160, 40060.00
913.2410, 39778.00
914.3660, 39169.00
915.4900, 39157.00
916.6150, 39468.00
917.7390, 38739.00
918.8640, 38963.00
919.9880, 38939.00
921.1120, 38934.00
922.2350, 38833.00
923.3590, 38767.61
924.4820, 38550.00
925.6060, 38508.00
926.7290, 38394.00
927.8520, 38145.00
928.9740, 37977.00
930.0970, 37651.44
931.2190, 37309.00
932.3420, 36921.00
933.4640, 36503.00
934.5860, 36068.00
935.7080, 35531.00
936.8290, 35377.00
937.9510, 35128.00
939.0720, 34633.00
940.1930, 33881.00
941.3140, 33697.00
942.4350, 33346.00
943.5560, 32928.00
944.6760, 32747.00
945.7960, 32669.00
946.9170, 32309.00
948.0370, 32047.00
949.1560, 31866.00
950.2760, 31635.00
951.3960, 31386.00
952.5150, 31326.00
953.6340, 31123.00
954.7530, 31063.00
955.8720, 30852.00
956.9910, 30649.00
958.1090, 30487.00
959.2280, 30380.00
960.3460, 30151.00
961.4640, 29889.00
962.5820, 29847.00
963.6990, 29867.00
964.8170, 29748.00
965.9340, 29837.00
967.0510, 29717.00
968.1690, 29625.23
969.2850, 29574.00
970.4020, 29341.70
971.5190, 29287.83
972.6350, 29070.00
973.7510, 29200.00
974.8670, 28889.00
975.9830, 28913.00
977.0990, 28905.00
978.2150, 28816.00
979.3300, 28803.65
980.4450, 28679.00
981.5600, 28693.00
982.6750, 28521.00
983.7900, 28448.00
984.9050, 28624.00
986.0190, 28474.00
987.1340, 28690.00
988.2480, 28490.00
989.3620, 28551.00
990.4750, 28485.00
991.5890, 28455.00
992.7020, 28219.00
993.8160, 28277.00
994.9290, 28284.00
996.0420, 28407.00
997.1550, 28345.00
998.2670, 28571.00
999.3800, 28525.00
1000.492, 28714.00
1001.604, 29410.00
1002.716, 29559.00
1003.828, 29230.00
1004.940, 29382.00
1006.051, 28802.00
1007.163, 28363.00
1008.274, 27907.00
1009.385, 28000.00
1010.496, 27780.00
1011.606, 27894.00
1012.717, 27705.00
1013.827, 27865.00
1014.937, 27871.00
1016.047, 27864.00
1017.157, 27793.00
1018.267, 27685.00
1019.377, 27950.00
1020.486, 27767.00
1021.595, 27860.00
1022.704, 27831.00
1023.813, 28066.00
1024.922, 28062.00
1026.030, 27993.00
1027.139, 27777.00
1028.247, 27914.00
1029.355, 27778.00
1030.463, 27587.00
1031.571, 27507.00
1032.678, 27298.00
1033.786, 27464.00
1034.893, 27550.00
1036.000, 27667.00
1037.107, 27486.00
1038.214, 27472.00
1039.321, 27376.00
1040.427, 27487.00
1041.533, 27379.00
1042.639, 27448.00
1043.745, 27220.00
1044.851, 27313.00
1045.957, 27273.00
1047.062, 27453.00
1048.168, 27308.00
1049.273, 27401.00
1050.378, 27503.00
1051.482, 27421.00
1052.587, 27547.00
1053.692, 27223.00
1054.796, 27441.00
1055.900, 27390.00
1057.004, 27141.00
1058.108, 27472.00
1059.212, 27429.00
1060.315, 27429.00
1061.418, 27250.00
1062.522, 27240.00
1063.625, 27503.00
1064.728, 27405.00
1065.830, 27546.00
1066.933, 27423.00
1068.035, 27424.00
1069.137, 27353.00
1070.239, 27346.57
1071.341, 27324.71
1072.443, 27381.00
1073.545, 27382.00
1074.646, 27441.00
1075.747, 27528.62
1076.848, 27596.97
1077.949, 27739.00
1079.050, 27788.00
1080.150, 27904.00
1081.251, 27984.00
1082.351, 27887.00
1083.451, 27991.00
1084.551, 27903.00
1085.651, 27956.00
1086.750, 27853.00
1087.850, 27959.00
1088.949, 27680.00
1090.048, 27801.00
1091.147, 27799.00
1092.246, 27712.00
1093.345, 27737.00
1094.443, 27604.00
1095.541, 27404.00
1096.639, 27711.00
1097.737, 27841.00
1098.835, 27696.00
1099.933, 27551.00
1101.030, 27565.00
1102.128, 27443.00
1103.225, 27948.00
1104.322, 28359.00
1105.419, 28407.00
1106.515, 28640.00
1107.612, 28791.49
1108.708, 28574.00
1109.804, 28800.00
1110.900, 28562.00
1111.996, 27790.81
1113.092, 27888.24
1114.187, 27924.60
1115.283, 27903.10
1116.378, 27650.61
1117.473, 27696.44
1118.568, 27622.72
1119.662, 27544.14
1120.757, 27631.96
1121.851, 27916.00
1122.946, 27813.00
1124.040, 27700.00
1125.134, 27567.00
1126.227, 27561.00
1127.321, 27639.00
1128.414, 27439.00
1129.508, 27907.00
1130.601, 27776.00
1131.693, 27678.00
1132.786, 27805.00
1133.879, 27647.00
1134.971, 27573.00
1136.064, 27536.00
1137.156, 27471.00
1138.248, 27708.00
1139.339, 27457.00
1140.431, 27644.00
1141.522, 27582.80
1142.614, 27492.00
1143.705, 27566.00
1144.796, 27371.00
1145.887, 27475.00
1146.977, 27207.00
1148.068, 27412.00
1149.158, 27303.00
1150.248, 27357.00
1151.338, 27359.00
1152.428, 27213.00
1153.518, 27216.00
1154.607, 27134.00
1155.696, 27176.00
1156.785, 27227.00
1157.874, 27312.00
1158.963, 27165.00
1160.052, 27205.00
1161.141, 27020.00
1162.229, 27211.00
1163.317, 27134.00
1164.405, 27089.00
1165.493, 27007.00
1166.581, 27006.00
1167.668, 27095.00
1168.756, 27035.07
1169.843, 27092.44
1170.930, 27009.00
1172.017, 27080.00
1173.103, 27048.05
1174.190, 26889.00
1175.276, 26921.00
1176.363, 26926.00
1177.449, 26886.00
1178.535, 26872.00
1179.620, 26931.00
1180.706, 26860.34
1181.791, 26827.00
1182.877, 26756.00
1183.962, 26822.00
1185.047, 26736.00
1186.131, 26685.00
1187.216, 26795.00
1188.300, 26634.00
1189.385, 26709.00
1190.469, 26797.00
1191.553, 26908.00
1192.637, 26837.40
1193.720, 26707.00
1194.804, 26735.00
1195.887, 26589.00
1196.970, 26646.00
1198.053, 26781.00
1199.136, 26445.00
1200.219, 26475.00
1201.301, 26666.00
1202.383, 26666.00
1203.465, 26710.00
1204.547, 26844.00
1205.629, 27006.00
1206.711, 26888.54
1207.792, 26796.51
1208.874, 26724.00
1209.955, 26451.00
1211.036, 26469.00
1212.117, 26511.00
1213.198, 26719.00
1214.278, 26449.00
1215.359, 26746.00
1216.439, 26612.00
1217.519, 26706.00
1218.599, 26710.00
1219.678, 26694.00
1220.758, 26937.00
1221.837, 26724.14
1222.917, 26820.00
1223.996, 26521.00
1225.075, 26659.00
1226.153, 26783.00
1227.232, 26783.00
1228.310, 26769.00
1229.389, 26767.00
1230.467, 26798.55
1231.545, 26964.00
1232.622, 26830.00
1233.700, 27019.00
1234.777, 26956.00
1235.855, 26902.00
1236.932, 27060.00
1238.009, 27025.04
1239.086, 27229.00
1240.162, 27140.00
1241.239, 27234.00
1242.315, 27332.00
1243.391, 27128.00
1244.467, 27267.00
1245.543, 27436.00
1246.619, 27361.00
1247.694, 27412.00
1248.769, 27484.00
1249.844, 27731.00
1250.919, 27397.00
1251.994, 27357.00
1253.069, 27476.00
1254.144, 27681.00
1255.218, 27649.00
1256.292, 27620.00
1257.366, 27484.00
1258.440, 27672.00
1259.514, 27825.00
1260.587, 27904.00
1261.661, 27942.62
1262.734, 27957.00
1263.807, 27899.00
1264.880, 28043.00
1265.952, 28005.00
1267.025, 28030.00
1268.097, 28134.00
1269.170, 28195.00
1270.242, 28383.00
1271.314, 28515.00
1272.385, 28541.27
1273.457, 28640.00
1274.528, 28536.00
1275.600, 28568.00
1276.671, 28437.00
1277.742, 28596.00
1278.812, 28512.00
1279.883, 28731.00
1280.954, 28645.00
1282.024, 28718.00
1283.094, 28642.00
1284.164, 28626.00
1285.234, 28588.00
1286.303, 28648.00
1287.373, 28674.00
1288.442, 28617.00
1289.511, 28915.00
1290.580, 28638.00
1291.649, 28973.00
1292.718, 28892.00
1293.786, 29274.00
1294.855, 29449.00
1295.923, 29447.00
1296.991, 29400.00
1298.059, 29406.00
1299.126, 29365.00
1300.194, 29271.00
1301.261, 29511.00
1302.328, 29479.00
1303.395, 29656.00
1304.462, 29814.00
1305.529, 29809.00
1306.596, 29840.00
1307.662, 29996.00
1308.728, 30154.00
1309.794, 29970.00
1310.860, 30195.00
