##NAMES=Fayalite
##RRUFFID=R070374
##IDEAL CHEMISTRY=Fe^2+^_2_SiO_4_
##LOCALITY=Little Lake, Lake County, California, USA
##OWNER=RRUFF
##SOURCE=Michael Scott
##DESCRIPTION=Large dark brown crystal fragment
##STATUS=The identification of this mineral has been confirmed by X-ray diffraction and chemical analysis
##URL=rruff.info/R070374
##MEASURED CHEMISTRY=(Fe^2+^_1.89_Mn^2+^_0.11_)_Î£=2_Si_1.00_O_4_ ; trace amounts of Mg
##PIN_ID=M01107
##ORIENTATION=Laser parallel to b* (0 1 0). Fiducial mark perpendicular to laser is parallel to c [0 0 1]
78.28300, 11708.00
79.52300, 11757.00
80.76300, 11638.00
82.00300, 12131.00
83.24300, 12278.00
84.48300, 11507.00
85.72200, 10904.00
86.96100, 10996.00
88.20000, 11087.00
89.43900, 10953.00
90.67800, 11008.00
91.91600, 11288.00
93.15500, 10978.00
94.39300, 11016.00
95.63100, 10818.00
96.86900, 10612.00
98.10600, 10519.00
99.34400, 10462.00
100.5810, 10373.00
101.8190, 10466.00
103.0560, 10182.00
104.2930, 10471.00
105.5290, 10530.00
106.7660, 10677.00
108.0020, 10344.00
109.2390, 10551.00
110.4750, 10320.00
111.7110, 10230.00
112.9460, 10276.00
114.1820, 10393.00
115.4170, 10290.00
116.6530, 10253.00
117.8880, 9932.000
119.1230, 9905.000
120.3580, 9678.000
121.5920, 9566.000
122.8270, 9404.641
124.0610, 9270.485
125.2950, 9213.000
126.5290, 9077.000
127.7630, 9333.000
128.9970, 9354.000
130.2300, 9289.000
131.4640, 9111.000
132.6970, 8898.000
133.9300, 9055.000
135.1630, 8738.000
136.3950, 8892.000
137.6280, 8804.000
138.8600, 9172.000
140.0920, 9048.000
141.3240, 8842.000
142.5560, 8754.000
143.7880, 8650.000
145.0190, 8454.000
146.2510, 8534.000
147.4820, 8368.000
148.7130, 8470.000
149.9440, 8508.000
151.1750, 8529.000
152.4050, 8478.000
153.6360, 8363.000
154.8660, 8525.000
156.0960, 8311.000
157.3260, 8405.000
158.5560, 8120.000
159.7850, 7917.000
161.0150, 8063.000
162.2440, 8129.000
163.4730, 8307.000
164.7020, 8141.000
165.9310, 8140.000
167.1590, 8139.000
168.3880, 8117.000
169.6160, 7967.000
170.8440, 8165.000
172.0720, 7814.000
173.3000, 7931.000
174.5280, 7826.000
175.7550, 7949.000
176.9820, 7840.000
178.2100, 7866.000
179.4370, 7630.000
180.6630, 7885.000
181.8900, 7713.000
183.1170, 7823.000
184.3430, 7685.000
185.5690, 7719.000
186.7950, 7620.000
188.0210, 7644.000
189.2470, 7777.000
190.4720, 7762.000
191.6970, 7813.000
192.9230, 7523.000
194.1480, 7654.000
195.3730, 7873.000
196.5970, 7569.000
197.8220, 7692.000
199.0460, 7754.000
200.2700, 7566.000
201.4940, 7619.000
202.7180, 7292.000
203.9420, 7106.000
205.1660, 7089.000
206.3890, 7013.000
207.6120, 7083.000
208.8350, 6969.000
210.0580, 6927.000
211.2810, 6973.000
212.5040, 6934.000
213.7260, 7026.000
214.9480, 7033.000
216.1700, 7073.000
217.3920, 7073.000
218.6140, 6846.000
219.8360, 6822.000
221.0570, 6669.000
222.2790, 6858.000
223.5000, 6787.000
224.7210, 6869.000
225.9410, 6835.000
227.1620, 6917.000
228.3820, 6903.000
229.6030, 6706.000
230.8230, 6715.000
232.0430, 6658.000
233.2630, 6512.000
234.4820, 6599.000
235.7020, 6548.000
236.9210, 6732.000
238.1400, 6832.000
239.3590, 6850.000
240.5780, 6707.000
241.7970, 6696.000
243.0150, 6611.000
244.2340, 6599.713
245.4520, 6490.000
246.6700, 6582.000
247.8880, 6581.000
249.1060, 6511.000
250.3230, 6555.000
251.5400, 6495.000
252.7580, 6559.000
253.9750, 6408.000
255.1920, 6452.000
256.4080, 6505.000
257.6250, 6559.000
258.8410, 6531.000
260.0580, 6586.000
261.2740, 6541.000
262.4900, 6656.000
263.7050, 6640.000
264.9210, 6605.000
266.1360, 6695.000
267.3520, 6723.000
268.5670, 6815.000
269.7820, 6758.000
270.9960, 6887.000
272.2110, 6825.000
273.4250, 7073.000
274.6400, 7195.000
275.8540, 7316.000
277.0680, 7522.000
278.2810, 7860.000
279.4950, 8014.000
280.7090, 8129.000
281.9220, 8473.000
283.1350, 8630.000
284.3480, 8870.000
285.5610, 9020.000
286.7730, 9050.000
287.9860, 9366.000
289.1980, 9186.000
290.4100, 9261.000
291.6220, 9029.000
292.8340, 8913.000
294.0460, 8620.000
295.2570, 8217.000
296.4690, 7893.000
297.6800, 7731.000
298.8910, 7576.000
300.1020, 7290.000
301.3120, 7073.000
302.5230, 6924.000
303.7330, 6861.000
304.9440, 6814.000
306.1540, 6632.000
307.3630, 6676.000
308.5730, 6588.000
309.7830, 6443.000
310.9920, 6332.000
312.2010, 6377.000
313.4100, 6292.000
314.6190, 6170.000
315.8280, 6150.000
317.0370, 6017.000
318.2450, 5955.000
319.4530, 5840.000
320.6610, 6010.000
321.8690, 5940.000
323.0770, 5896.000
324.2850, 5768.000
325.4920, 5760.417
326.6990, 5697.355
327.9060, 5725.000
329.1130, 5650.000
330.3200, 5661.000
331.5270, 5704.000
332.7330, 5753.000
333.9390, 5787.000
335.1450, 5852.000
336.3510, 5744.000
337.5570, 5767.000
338.7630, 5773.000
339.9680, 5841.000
341.1740, 5751.000
342.3790, 5684.000
343.5840, 5831.000
344.7890, 5690.000
345.9930, 5690.000
347.1980, 5879.000
348.4020, 5830.000
349.6060, 5878.000
350.8100, 5869.000
352.0140, 5999.000
353.2180, 6047.000
354.4210, 6029.000
355.6250, 6152.000
356.8280, 6349.000
358.0310, 6410.000
359.2340, 6487.000
360.4360, 6458.000
361.6390, 6602.000
362.8410, 6742.000
364.0430, 6951.000
365.2450, 6910.000
366.4470, 6965.000
367.6490, 6987.000
368.8510, 6900.000
370.0520, 7090.000
371.2530, 7054.000
372.4540, 7036.000
373.6550, 6891.000
374.8560, 6863.000
376.0560, 6796.000
377.2570, 6658.000
378.4570, 6643.000
379.6570, 6455.000
380.8570, 6404.000
382.0570, 6355.000
383.2560, 6246.000
384.4560, 6213.000
385.6550, 6102.000
386.8540, 6011.000
388.0530, 5969.376
389.2520, 5963.000
390.4510, 5902.000
391.6490, 5885.699
392.8470, 5931.000
394.0450, 5847.000
395.2430, 5705.000
396.4410, 5794.000
397.6390, 5703.000
398.8360, 5663.000
400.0340, 5633.000
401.2310, 5667.000
402.4280, 5611.000
403.6250, 5594.458
404.8210, 5609.000
406.0180, 5502.000
407.2140, 5440.000
408.4100, 5343.000
409.6060, 5425.000
410.8020, 5378.000
411.9980, 5321.000
413.1930, 5311.000
414.3890, 5232.000
415.5840, 5247.000
416.7790, 5200.408
417.9740, 5196.000
419.1680, 5160.000
420.3630, 5144.000
421.5570, 5170.000
422.7510, 5149.000
423.9450, 5039.000
425.1390, 5140.000
426.3330, 5171.000
427.5270, 5071.000
428.7200, 5016.000
429.9130, 5062.000
431.1060, 5024.000
432.2990, 5019.000
433.4920, 4985.000
434.6840, 5000.000
435.8770, 4979.000
437.0690, 4971.000
438.2610, 4884.000
439.4530, 4950.000
440.6450, 4872.000
441.8360, 4932.000
443.0280, 4944.000
444.2190, 4824.000
445.4100, 4880.000
446.6010, 4879.000
447.7920, 4846.000
448.9820, 4815.000
450.1730, 4814.000
451.3630, 4781.000
452.5530, 4806.000
453.7430, 4776.411
454.9330, 4813.000
456.1230, 4740.000
457.3120, 4747.000
458.5010, 4731.593
459.6910, 4807.000
460.8800, 4769.000
462.0680, 4793.000
463.2570, 4816.000
464.4460, 4764.000
465.6340, 4754.000
466.8220, 4796.572
468.0100, 4778.270
469.1980, 4852.000
470.3860, 4846.000
471.5730, 4795.000
472.7600, 4908.000
473.9480, 4738.000
475.1350, 4777.000
476.3210, 4783.000
477.5080, 4814.000
478.6950, 4859.000
479.8810, 4815.000
481.0670, 4762.000
482.2530, 4818.000
483.4390, 4767.645
484.6250, 4767.000
485.8100, 4766.000
486.9960, 4801.000
488.1810, 4855.000
489.3660, 4781.000
490.5510, 4771.000
491.7360, 4868.000
492.9200, 4800.000
494.1050, 4782.000
495.2890, 4774.000
496.4730, 4845.000
497.6570, 4798.000
498.8400, 4846.000
500.0240, 4807.000
501.2070, 4862.000
502.3910, 4841.000
503.5740, 4880.000
504.7570, 4837.000
505.9400, 4804.000
507.1220, 4804.000
508.3050, 4766.000
509.4870, 4776.160
510.6690, 4811.000
511.8510, 4809.000
513.0330, 4855.000
514.2140, 4909.000
515.3960, 4797.000
516.5770, 4792.000
517.7580, 4829.000
518.9390, 4870.000
520.1200, 4803.000
521.3010, 4778.000
522.4810, 4832.000
523.6610, 4872.000
524.8420, 4770.000
526.0220, 4859.000
527.2010, 4801.000
528.3810, 4779.000
529.5610, 4893.000
530.7400, 4814.000
531.9190, 4856.000
533.0980, 4974.000
534.2770, 4845.000
535.4560, 4879.000
536.6340, 5014.000
537.8120, 5081.000
538.9910, 4971.000
540.1690, 5051.000
541.3460, 5071.000
542.5240, 5123.000
543.7020, 5103.000
544.8790, 5170.000
546.0560, 5235.000
547.2330, 5248.000
548.4100, 5372.000
549.5870, 5454.000
550.7630, 5529.000
551.9400, 5592.000
553.1160, 5557.000
554.2920, 5635.000
555.4680, 5662.000
556.6440, 5739.000
557.8190, 5797.000
558.9950, 5862.000
560.1700, 5857.000
561.3450, 6016.000
562.5200, 5952.000
563.6950, 6014.000
564.8690, 5989.000
566.0440, 5927.000
567.2180, 5837.000
568.3920, 5868.000
569.5660, 5708.000
570.7400, 5724.000
571.9130, 5636.000
573.0870, 5573.000
574.2600, 5529.000
575.4330, 5520.000
576.6060, 5410.000
577.7790, 5476.000
578.9520, 5381.000
580.1240, 5410.000
581.2960, 5370.000
582.4690, 5313.000
583.6410, 5265.000
584.8120, 5275.000
585.9840, 5210.000
587.1560, 5278.000
588.3270, 5213.000
589.4980, 5237.000
590.6690, 5129.000
591.8400, 5120.000
593.0110, 5118.000
594.1810, 5111.000
595.3510, 5150.000
596.5220, 5043.000
597.6920, 5091.000
598.8610, 5078.000
600.0310, 5126.000
601.2010, 5100.000
602.3700, 5163.000
603.5390, 5130.000
604.7080, 5128.000
605.8770, 5118.256
607.0460, 5091.000
608.2140, 5050.000
609.3830, 5085.000
610.5510, 5027.000
611.7190, 4948.000
612.8870, 5069.000
614.0550, 5028.000
615.2220, 4967.000
616.3900, 4985.000
617.5570, 4983.000
618.7240, 4987.000
619.8910, 5006.000
621.0580, 5049.000
622.2240, 4985.000
623.3910, 4994.000
624.5570, 4998.000
625.7230, 4942.000
626.8890, 5059.000
628.0550, 5054.000
629.2200, 4985.000
630.3860, 4911.000
631.5510, 4980.000
632.7160, 4931.000
633.8810, 4872.000
635.0460, 5003.000
636.2100, 4871.000
637.3750, 4915.000
638.5390, 4990.000
639.7030, 4951.000
640.8670, 4900.000
642.0310, 4941.000
643.1950, 4870.000
644.3580, 4894.000
645.5210, 4827.000
646.6850, 4899.000
647.8480, 4829.000
649.0100, 4911.000
650.1730, 4884.000
651.3350, 4899.000
652.4980, 4895.000
653.6600, 4901.000
654.8220, 4868.000
655.9840, 4889.000
657.1450, 4855.000
658.3070, 4882.000
659.4680, 4836.000
660.6300, 4814.000
661.7910, 4808.000
662.9510, 4814.000
664.1120, 4799.000
665.2730, 4814.091
666.4330, 4865.000
667.5930, 4848.000
668.7530, 4835.000
669.9130, 4869.000
671.0730, 4745.000
672.2320, 4745.000
673.3920, 4805.000
674.5510, 4770.000
675.7100, 4808.000
676.8690, 4781.000
678.0280, 4756.000
679.1860, 4817.000
680.3450, 4791.000
681.5030, 4861.000
682.6610, 4818.000
683.8190, 4753.000
684.9770, 4674.000
686.1340, 4653.000
687.2920, 4793.000
688.4490, 4638.000
689.6060, 4735.000
690.7630, 4644.000
691.9200, 4695.000
693.0760, 4662.000
694.2330, 4636.000
695.3890, 4646.000
696.5450, 4596.000
697.7010, 4648.000
698.8570, 4662.000
700.0130, 4538.000
701.1680, 4581.000
702.3230, 4556.000
703.4780, 4530.000
704.6330, 4617.000
705.7880, 4536.000
706.9430, 4467.000
708.0970, 4574.000
709.2520, 4517.000
710.4060, 4516.000
711.5600, 4544.000
712.7140, 4533.000
713.8670, 4505.000
715.0210, 4418.000
716.1740, 4423.003
717.3270, 4391.518
718.4800, 4386.000
719.6330, 4383.000
720.7860, 4365.000
721.9380, 4385.000
723.0910, 4425.000
724.2430, 4339.000
725.3950, 4397.000
726.5470, 4373.000
727.6980, 4348.000
728.8500, 4295.000
730.0010, 4282.000
731.1530, 4324.000
732.3040, 4266.000
733.4550, 4266.000
734.6050, 4225.000
735.7560, 4274.000
736.9060, 4255.000
738.0560, 4260.000
739.2060, 4205.000
740.3560, 4227.000
741.5060, 4246.000
742.6560, 4171.000
743.8050, 4151.000
744.9540, 4187.000
746.1030, 4181.000
747.2520, 4230.000
748.4010, 4142.000
749.5500, 4097.000
750.6980, 4269.000
751.8460, 4100.000
752.9950, 4128.000
754.1420, 4175.000
755.2900, 4166.000
756.4380, 4205.000
757.5850, 4089.000
758.7330, 4156.000
759.8800, 4190.000
761.0270, 4267.000
762.1730, 4190.000
763.3200, 4211.000
764.4670, 4221.000
765.6130, 4241.000
766.7590, 4237.000
767.9050, 4250.000
769.0510, 4359.000
770.1960, 4338.000
771.3420, 4395.000
772.4870, 4392.000
773.6320, 4469.000
774.7770, 4413.000
775.9220, 4460.000
777.0670, 4566.000
778.2110, 4638.000
779.3560, 4712.000
780.5000, 4777.000
781.6440, 4870.430
782.7880, 4965.000
783.9320, 5051.000
785.0750, 5148.000
786.2180, 5285.520
787.3620, 5381.000
788.5050, 5605.000
789.6480, 5753.000
790.7900, 5975.000
791.9330, 6165.000
793.0750, 6530.000
794.2170, 6869.000
795.3590, 7194.000
796.5010, 7688.000
797.6430, 8289.000
798.7850, 8950.000
799.9260, 9799.000
801.0670, 10638.00
802.2080, 11858.00
803.3490, 13221.00
804.4900, 14877.00
805.6310, 16348.00
806.7710, 18052.00
807.9110, 19901.00
809.0510, 21346.00
810.1910, 22810.00
811.3310, 23499.00
812.4710, 23817.00
813.6100, 23764.00
814.7490, 23180.00
815.8880, 22360.00
817.0270, 21215.00
818.1660, 20014.00
819.3050, 18811.00
820.4430, 17692.00
821.5820, 16625.00
822.7200, 15995.00
823.8580, 15334.00
824.9950, 15064.00
826.1330, 14566.00
827.2710, 14363.00
828.4080, 14286.00
829.5450, 14236.00
830.6820, 14214.00
831.8190, 14106.23
832.9560, 14104.57
834.0920, 14080.97
835.2280, 14036.57
836.3650, 13909.01
837.5010, 13888.82
838.6360, 13825.67
839.7720, 13748.00
840.9080, 13263.00
842.0430, 12782.00
843.1780, 12404.00
844.3130, 11830.00
845.4480, 11257.00
846.5830, 10677.00
847.7170, 10168.00
848.8520, 9632.996
849.9860, 9120.000
851.1200, 8640.000
852.2540, 8129.000
853.3870, 7670.000
854.5210, 7279.000
855.6540, 6961.000
856.7880, 6663.000
857.9210, 6335.000
859.0540, 6178.000
860.1860, 5917.000
861.3190, 5803.000
862.4510, 5547.000
863.5840, 5408.000
864.7160, 5236.000
865.8480, 5108.000
866.9790, 4958.000
868.1110, 4861.000
869.2420, 4728.000
870.3740, 4644.000
871.5050, 4596.000
872.6360, 4579.000
873.7660, 4487.000
874.8970, 4427.000
876.0280, 4312.000
877.1580, 4356.000
878.2880, 4292.000
879.4180, 4294.000
880.5480, 4243.000
881.6770, 4188.000
882.8070, 4196.000
883.9360, 4123.000
885.0650, 4066.000
886.1940, 4101.000
887.3230, 4110.000
888.4520, 4056.000
889.5800, 4000.000
890.7090, 4006.000
891.8370, 3983.000
892.9650, 3990.000
894.0930, 4007.000
895.2200, 3979.620
896.3480, 4003.000
897.4750, 3949.000
898.6020, 3927.000
899.7290, 3923.000
900.8560, 3906.000
901.9830, 3874.000
903.1090, 3914.000
904.2360, 3924.000
905.3620, 3892.000
906.4880, 3857.000
907.6140, 3870.000
908.7400, 3859.000
909.8650, 3875.000
910.9900, 3910.000
912.1160, 3931.000
913.2410, 3938.000
914.3660, 3935.000
915.4900, 3948.000
916.6150, 3868.000
917.7390, 3906.000
918.8640, 3915.000
919.9880, 3920.000
921.1120, 4016.000
922.2350, 4047.000
923.3590, 4010.000
924.4820, 4071.000
925.6060, 4019.000
926.7290, 4119.000
927.8520, 4138.000
928.9740, 4126.000
930.0970, 4131.000
931.2190, 4118.000
932.3420, 4102.000
933.4640, 4136.000
934.5860, 4230.000
935.7080, 4153.000
936.8290, 4178.000
937.9510, 4052.000
939.0720, 4232.000
940.1930, 4147.000
941.3140, 4124.000
942.4350, 4236.000
943.5560, 4120.000
944.6760, 4119.000
945.7960, 4098.000
946.9170, 4111.000
948.0370, 4105.000
949.1560, 4091.000
950.2760, 4112.000
951.3960, 4115.000
952.5150, 4150.000
953.6340, 4056.000
954.7530, 4048.000
955.8720, 4095.000
956.9910, 4025.000
958.1090, 4081.000
959.2280, 4048.000
960.3460, 3973.000
961.4640, 4052.000
962.5820, 4039.000
963.6990, 4086.000
964.8170, 4097.000
965.9340, 4041.000
967.0510, 4108.000
968.1690, 4088.000
969.2850, 4004.000
970.4020, 4050.000
971.5190, 4072.000
972.6350, 4008.000
973.7510, 4006.000
974.8670, 3982.000
975.9830, 3943.000
977.0990, 4015.000
978.2150, 4013.000
979.3300, 4063.000
980.4450, 4053.000
981.5600, 4008.000
982.6750, 4008.000
983.7900, 3988.000
984.9050, 4028.000
986.0190, 4004.000
987.1340, 4058.000
988.2480, 4024.823
989.3620, 3942.000
990.4750, 3962.000
991.5890, 3996.000
992.7020, 3950.000
993.8160, 3981.000
994.9290, 3962.000
996.0420, 4036.000
997.1550, 3945.000
998.2670, 4028.000
999.3800, 3994.000
1000.492, 4069.000
1001.604, 4066.000
1002.716, 3995.000
1003.828, 3995.000
1004.940, 3953.000
1006.051, 3877.000
1007.163, 3928.000
1008.274, 3946.000
1009.385, 3856.000
1010.496, 3875.000
1011.606, 3880.000
1012.717, 3930.000
1013.827, 3906.756
1014.937, 3833.000
1016.047, 3867.000
1017.157, 3858.000
1018.267, 3817.000
1019.377, 3822.000
1020.486, 3796.000
1021.595, 3889.000
1022.704, 3829.000
1023.813, 3831.000
1024.922, 3825.000
1026.030, 3802.000
1027.139, 3824.000
1028.247, 3821.000
1029.355, 3819.000
1030.463, 3881.000
1031.571, 3728.000
1032.678, 3830.000
1033.786, 3800.000
1034.893, 3724.000
1036.000, 3779.000
1037.107, 3804.000
1038.214, 3765.000
1039.321, 3810.000
1040.427, 3791.000
1041.533, 3839.000
1042.639, 3745.000
1043.745, 3830.000
1044.851, 3735.000
1045.957, 3793.000
1047.062, 3835.000
1048.168, 3776.000
1049.273, 3739.000
1050.378, 3875.000
1051.482, 3796.000
1052.587, 3856.000
1053.692, 3765.000
1054.796, 3747.000
1055.900, 3844.000
1057.004, 3806.000
1058.108, 3838.000
1059.212, 3834.000
1060.315, 3813.000
1061.418, 3796.000
1062.522, 3730.000
1063.625, 3734.000
1064.728, 3848.000
1065.830, 3799.000
1066.933, 3872.000
1068.035, 3790.000
1069.137, 3823.000
1070.239, 3809.000
1071.341, 3891.000
1072.443, 3798.000
1073.545, 3837.000
1074.646, 3827.000
1075.747, 3876.000
1076.848, 3810.000
1077.949, 3757.000
1079.050, 3825.000
1080.150, 3881.000
1081.251, 3872.000
1082.351, 3855.000
1083.451, 3903.000
1084.551, 3868.000
1085.651, 3873.000
1086.750, 3977.000
1087.850, 3908.000
1088.949, 3903.000
1090.048, 3808.000
1091.147, 3790.000
1092.246, 3892.000
1093.345, 3865.000
1094.443, 3896.000
1095.541, 3845.000
1096.639, 3916.000
1097.737, 3842.000
1098.835, 3782.000
1099.933, 3853.000
1101.030, 3861.000
1102.128, 3889.000
1103.225, 3912.000
1104.322, 3851.000
1105.419, 3905.000
1106.515, 3880.000
1107.612, 3884.000
1108.708, 3930.000
1109.804, 3856.000
1110.900, 3927.000
1111.996, 3896.000
1113.092, 3941.000
1114.187, 3964.000
1115.283, 3946.000
1116.378, 3985.000
1117.473, 3971.197
1118.568, 3962.245
1119.662, 3961.000
1120.757, 3954.000
1121.851, 3952.000
1122.946, 3998.000
1124.040, 3951.000
1125.134, 4012.000
1126.227, 3965.000
1127.321, 3920.000
1128.414, 3995.000
1129.508, 4023.000
1130.601, 3963.000
1131.693, 4016.000
1132.786, 4040.000
1133.879, 3985.000
1134.971, 4003.864
1136.064, 3996.780
1137.156, 3958.000
1138.248, 4015.000
1139.339, 3989.000
1140.431, 4035.000
1141.522, 4048.000
1142.614, 4013.000
1143.705, 4007.000
1144.796, 3984.000
1145.887, 3984.000
1146.977, 4033.000
1148.068, 3941.000
1149.158, 3997.000
1150.248, 4064.000
1151.338, 4050.000
1152.428, 3989.000
1153.518, 4026.000
1154.607, 4019.000
1155.696, 3964.000
1156.785, 3996.000
1157.874, 3961.000
1158.963, 3936.000
1160.052, 3945.259
1161.141, 3915.126
1162.229, 3928.000
1163.317, 3924.000
1164.405, 3894.548
1165.493, 3980.000
1166.581, 3913.000
1167.668, 3910.000
1168.756, 3997.000
1169.843, 3983.000
1170.930, 3983.000
1172.017, 3917.000
1173.103, 4000.000
1174.190, 4005.000
1175.276, 3906.000
1176.363, 4032.000
1177.449, 3961.000
1178.535, 3939.000
1179.620, 3936.000
1180.706, 3968.000
1181.791, 4018.000
1182.877, 4012.000
1183.962, 4001.000
1185.047, 3967.000
1186.131, 4002.000
1187.216, 3973.000
1188.300, 3974.000
1189.385, 3973.000
1190.469, 3975.000
1191.553, 4002.000
1192.637, 4001.000
1193.720, 4004.000
1194.804, 3952.000
1195.887, 3982.000
1196.970, 3963.000
1198.053, 3956.000
1199.136, 3996.000
1200.219, 4053.000
1201.301, 4002.000
1202.383, 3993.000
1203.465, 4077.000
1204.547, 4029.000
1205.629, 4037.000
1206.711, 3917.000
1207.792, 3980.000
1208.874, 4011.000
1209.955, 3931.000
1211.036, 4001.000
1212.117, 3973.000
1213.198, 4031.000
1214.278, 4023.000
1215.359, 3954.000
1216.439, 4055.000
1217.519, 4022.000
1218.599, 4039.000
1219.678, 4117.000
1220.758, 4049.000
1221.837, 4074.000
1222.917, 4036.000
1223.996, 4053.000
1225.075, 4085.000
1226.153, 4014.000
1227.232, 4126.000
1228.310, 4078.000
1229.389, 4086.000
1230.467, 4011.000
1231.545, 4059.000
1232.622, 4081.000
1233.700, 4126.000
1234.777, 4080.000
1235.855, 4068.000
1236.932, 4142.000
1238.009, 4082.000
1239.086, 4159.000
1240.162, 4119.000
1241.239, 4117.000
1242.315, 4108.000
1243.391, 4177.000
1244.467, 4109.000
1245.543, 4095.000
1246.619, 4051.000
1247.694, 4199.000
1248.769, 4095.000
1249.844, 4144.000
1250.919, 4112.000
1251.994, 4101.000
1253.069, 4189.000
1254.144, 4161.000
1255.218, 4165.000
1256.292, 4198.000
1257.366, 4201.000
1258.440, 4192.659
1259.514, 4187.000
1260.587, 4187.000
