##NAMES=Ferberite
##RRUFFID=R050090
##IDEAL CHEMISTRY=Fe^2+^W^6+^O_4_
##LOCALITY=Yaogangxian mine, Cheng Zhu City, South Hunan, China
##OWNER=RRUFF
##SOURCE=Rock Currier
##DESCRIPTION=Dark gray tabular crystal
##STATUS=The identification of this mineral has been confirmed by X-ray diffraction and chemical analysis
##URL=rruff.info/R050090
##MEASURED CHEMISTRY=(Fe^2+^_0.56_Mn_0.44_)W_1.00_O_4_
##PIN_ID=L01590
##ORIENTATION=Laser parallel to (1 0 1). Fiducial mark perpendicular to laser is parallel to b [0 1 0]
98.41600, 3448.000
99.64900, 3244.000
100.8830, 3350.000
102.1160, 3425.000
103.3490, 3220.000
104.5820, 3024.812
105.8150, 3172.127
107.0470, 3272.971
108.2800, 3329.906
109.5120, 3211.253
110.7440, 3319.292
111.9760, 3336.483
113.2080, 3349.949
114.4400, 3489.894
115.6710, 3396.741
116.9030, 4170.000
118.1340, 4123.000
119.3650, 3894.000
120.5960, 3747.000
121.8270, 3703.000
123.0580, 4133.000
124.2880, 4138.687
125.5190, 4792.000
126.7490, 5044.000
127.9790, 5755.000
129.2090, 7238.000
130.4390, 9395.000
131.6680, 10300.00
132.8980, 9206.000
134.1270, 7431.000
135.3560, 5743.000
136.5850, 4886.000
137.8140, 4390.000
139.0430, 4087.000
140.2710, 4117.000
141.5000, 4239.000
142.7280, 4054.000
143.9560, 3862.000
145.1840, 3753.000
146.4120, 3716.000
147.6390, 3757.000
148.8670, 3803.000
150.0940, 3739.000
151.3210, 3692.000
152.5490, 3653.107
153.7750, 3625.099
155.0020, 3547.000
156.2290, 3531.000
157.4550, 3465.489
158.6810, 3364.000
159.9080, 3355.000
161.1340, 3333.000
162.3590, 3291.000
163.5850, 3380.000
164.8110, 3649.000
166.0360, 3904.000
167.2610, 4252.000
168.4860, 4367.000
169.7110, 4737.000
170.9360, 4792.284
172.1610, 5089.000
173.3850, 4808.000
174.6100, 4332.000
175.8340, 4052.000
177.0580, 3870.000
178.2820, 3849.000
179.5050, 3851.000
180.7290, 3779.000
181.9520, 3711.000
183.1760, 3708.000
184.3990, 3581.000
185.6220, 3575.000
186.8450, 3660.000
188.0670, 3816.000
189.2900, 3781.000
190.5120, 3875.000
191.7340, 3870.000
192.9560, 4053.000
194.1780, 4190.000
195.4000, 4162.000
196.6220, 4210.000
197.8430, 4328.000
199.0640, 4327.000
200.2860, 4432.000
201.5070, 4604.000
202.7270, 4962.000
203.9480, 5186.000
205.1690, 5002.000
206.3890, 4270.000
207.6090, 3698.000
208.8290, 3479.000
210.0490, 3391.000
211.2690, 3241.000
212.4890, 3203.000
213.7080, 3165.000
214.9280, 3053.375
216.1470, 3032.000
217.3660, 2894.000
218.5850, 2767.000
219.8030, 2700.452
221.0220, 2785.000
222.2400, 2649.000
223.4590, 2669.000
224.6770, 2723.000
225.8950, 2687.000
227.1120, 2679.000
228.3300, 2732.000
229.5480, 2675.000
230.7650, 2716.000
231.9820, 2736.000
233.1990, 2700.000
234.4160, 2706.000
235.6330, 2697.000
236.8490, 2656.000
238.0660, 2645.000
239.2820, 2645.009
240.4980, 2636.323
241.7140, 2662.000
242.9300, 2647.000
244.1460, 2666.000
245.3610, 2671.000
246.5770, 2673.000
247.7920, 2648.000
249.0070, 2647.000
250.2220, 2703.000
251.4370, 2700.000
252.6510, 2811.000
253.8660, 2687.114
255.0800, 2831.746
256.2940, 2929.940
257.5080, 2984.192
258.7220, 2862.889
259.9360, 2968.280
261.1490, 2982.790
262.3630, 2993.607
263.5760, 3130.871
264.7890, 3035.072
266.0020, 3151.000
267.2150, 3203.000
268.4270, 3249.000
269.6400, 3229.000
270.8520, 3195.000
272.0640, 3194.000
273.2760, 3155.000
274.4880, 3071.000
275.7000, 2968.000
276.9120, 3045.000
278.1230, 3064.000
279.3340, 3000.000
280.5450, 2976.000
281.7560, 2916.000
282.9670, 2889.000
284.1780, 2867.000
285.3880, 2761.577
286.5980, 2885.490
287.8090, 2962.981
289.0190, 2996.515
290.2290, 2854.494
291.4380, 2939.150
292.6480, 2932.973
293.8570, 2923.056
295.0670, 3021.000
296.2760, 3025.000
297.4850, 3110.000
298.6930, 3101.000
299.9020, 3066.000
301.1110, 2976.000
302.3190, 2946.000
303.5270, 2900.000
304.7350, 2895.000
305.9430, 2829.000
307.1510, 2887.000
308.3580, 2900.000
309.5660, 2880.000
310.7730, 2940.000
311.9800, 2873.000
313.1870, 2896.000
314.3940, 2964.000
315.6010, 2974.000
316.8070, 3021.000
318.0130, 3008.000
319.2200, 3128.000
320.4260, 3173.000
321.6310, 3201.000
322.8370, 3374.000
324.0430, 3425.000
325.2480, 3584.000
326.4540, 3599.000
327.6590, 3561.000
328.8640, 3614.000
330.0680, 3588.000
331.2730, 3580.000
332.4780, 3535.000
333.6820, 3438.000
334.8860, 3321.000
336.0900, 3345.000
337.2940, 3286.000
338.4980, 3243.000
339.7010, 3268.000
340.9050, 3234.000
342.1080, 3236.000
343.3110, 3203.000
344.5140, 3177.000
345.7170, 3207.000
346.9200, 3140.000
348.1220, 3224.000
349.3240, 3205.000
350.5270, 3186.000
351.7290, 3199.000
352.9310, 3212.000
354.1320, 3215.403
355.3340, 3216.000
356.5350, 3238.000
357.7370, 3279.000
358.9380, 3286.000
360.1390, 3261.000
361.3400, 3189.000
362.5400, 3131.000
363.7410, 3160.000
364.9410, 3126.000
366.1410, 3150.000
367.3410, 3162.000
368.5410, 3136.000
369.7410, 3142.855
370.9400, 3052.000
372.1400, 3104.000
373.3390, 3043.000
374.5380, 2987.000
375.7370, 3020.000
376.9360, 3061.000
378.1350, 3031.000
379.3330, 3056.000
380.5310, 3079.000
381.7300, 3051.000
382.9280, 3027.000
384.1260, 3029.000
385.3230, 3043.000
386.5210, 3048.000
387.7180, 3086.386
388.9160, 3214.000
390.1130, 3206.000
391.3100, 3302.000
392.5060, 3442.000
393.7030, 3487.000
394.9000, 3687.000
396.0960, 3913.000
397.2920, 4162.000
398.4880, 4295.000
399.6840, 4294.000
400.8800, 4299.000
402.0750, 4020.000
403.2710, 3853.000
404.4660, 3685.000
405.6610, 3617.000
406.8560, 3461.000
408.0510, 3396.000
409.2450, 3268.000
410.4400, 3287.000
411.6340, 3205.000
412.8280, 3152.000
414.0220, 3169.000
415.2160, 3054.000
416.4100, 3028.000
417.6030, 3039.000
418.7970, 2989.000
419.9900, 3009.000
421.1830, 2961.000
422.3760, 2979.000
423.5690, 2925.000
424.7610, 2890.000
425.9540, 2914.000
427.1460, 2892.000
428.3380, 2925.000
429.5300, 2863.000
430.7220, 2919.000
431.9140, 2879.000
433.1050, 2905.000
434.2970, 2852.000
435.4880, 2921.000
436.6790, 2890.000
437.8700, 2878.000
439.0610, 2845.000
440.2510, 2867.000
441.4420, 2828.000
442.6320, 2891.000
443.8220, 2878.000
445.0120, 2890.000
446.2020, 2901.726
447.3910, 2878.000
448.5810, 2898.000
449.7700, 2892.000
450.9600, 2887.000
452.1490, 2926.000
453.3370, 2946.000
454.5260, 2938.000
455.7150, 2984.000
456.9030, 2934.000
458.0910, 2932.000
459.2800, 2976.000
460.4670, 2953.000
461.6550, 2976.000
462.8430, 2968.000
464.0300, 2944.000
465.2180, 3011.000
466.4050, 3017.000
467.5920, 2922.000
468.7790, 3019.000
469.9650, 2986.000
471.1520, 2946.000
472.3380, 3024.000
473.5250, 2997.000
474.7110, 3011.000
475.8970, 3039.000
477.0820, 2950.000
478.2680, 3027.000
479.4540, 2961.000
480.6390, 3012.000
481.8240, 3027.000
483.0090, 3026.000
484.1940, 3080.962
485.3780, 3003.000
486.5630, 3148.000
487.7470, 3027.000
488.9320, 3010.000
490.1160, 3041.000
491.3000, 3030.000
492.4830, 3058.000
493.6670, 3037.000
494.8500, 3060.000
496.0340, 3060.000
497.2170, 3073.000
498.4000, 3110.000
499.5820, 3139.000
500.7650, 3057.000
501.9480, 3165.000
503.1300, 3081.000
504.3120, 3142.000
505.4940, 3202.000
506.6760, 3257.000
507.8580, 3297.000
509.0390, 3285.000
510.2210, 3294.000
511.4020, 3300.000
512.5830, 3260.000
513.7640, 3259.000
514.9450, 3289.000
516.1250, 3249.000
517.3060, 3205.000
518.4860, 3122.000
519.6660, 3127.114
520.8460, 3205.000
522.0260, 3125.000
523.2060, 3175.000
524.3850, 3193.000
525.5650, 3220.000
526.7440, 3180.000
527.9230, 3200.000
529.1020, 3212.000
530.2810, 3248.000
531.4590, 3328.000
532.6380, 3340.000
533.8160, 3323.158
534.9940, 3315.819
536.1720, 3261.000
537.3500, 3276.000
538.5270, 3286.000
539.7050, 3370.000
540.8820, 3306.000
542.0590, 3279.000
543.2360, 3369.000
544.4130, 3288.000
545.5900, 3241.000
546.7660, 3272.000
547.9430, 3270.000
549.1190, 3272.000
550.2950, 3275.000
551.4710, 3218.000
552.6470, 3199.000
553.8220, 3132.000
554.9980, 3099.000
556.1730, 3195.000
557.3480, 3117.000
558.5230, 3208.000
559.6980, 3060.000
560.8730, 3005.000
562.0470, 3072.000
563.2220, 3034.000
564.3960, 3106.000
565.5700, 3101.000
566.7440, 3005.000
567.9170, 3091.000
569.0910, 3045.000
570.2640, 3108.000
571.4380, 3086.000
572.6110, 3132.000
573.7840, 3068.000
574.9570, 3058.000
576.1290, 3067.000
577.3020, 3097.000
578.4740, 3015.000
579.6460, 3008.000
580.8180, 2990.000
581.9900, 2958.000
583.1620, 2977.000
584.3330, 2991.000
585.5040, 2977.000
586.6760, 2951.000
587.8470, 2970.000
589.0180, 2909.000
590.1880, 2992.000
591.3590, 3026.000
592.5290, 2945.000
593.7000, 3013.000
594.8700, 3023.000
596.0400, 3010.000
597.2090, 3009.000
598.3790, 3005.000
599.5490, 2988.000
600.7180, 2993.333
601.8870, 3030.000
603.0560, 2986.000
604.2250, 3015.000
605.3940, 2995.000
606.5620, 3041.000
607.7300, 3100.000
608.8990, 3050.000
610.0670, 3127.000
611.2350, 3042.000
612.4020, 3064.000
613.5700, 3031.000
614.7370, 3038.000
615.9050, 3095.000
617.0720, 3109.000
618.2390, 3070.000
619.4060, 3086.000
620.5720, 3057.000
621.7390, 3068.000
622.9050, 3120.000
624.0710, 3129.000
625.2370, 3206.000
626.4030, 3154.000
627.5690, 3092.000
628.7340, 3111.000
629.9000, 3171.000
631.0650, 3197.000
632.2300, 3164.000
633.3950, 3154.000
634.5600, 3160.640
635.7240, 3183.000
636.8890, 3171.000
638.0530, 3169.000
639.2170, 3194.000
640.3810, 3251.000
641.5450, 3223.000
642.7080, 3211.000
643.8720, 3223.000
645.0350, 3182.000
646.1980, 3255.000
647.3610, 3258.000
648.5240, 3269.000
649.6870, 3231.000
650.8490, 3329.000
652.0120, 3262.000
653.1740, 3300.000
654.3360, 3203.000
655.4980, 3344.000
656.6600, 3266.000
657.8210, 3446.000
658.9830, 3347.000
660.1440, 3454.000
661.3050, 3436.000
662.4660, 3377.000
663.6270, 3522.000
664.7870, 3512.000
665.9480, 3535.000
667.1080, 3640.000
668.2680, 3561.000
669.4280, 3622.000
670.5880, 3725.000
671.7480, 3743.000
672.9070, 3789.000
674.0670, 3786.000
675.2260, 3915.000
676.3850, 3933.000
677.5440, 3957.000
678.7030, 3953.000
679.8610, 4039.000
681.0200, 4041.000
682.1780, 3980.000
683.3360, 4069.000
684.4940, 4108.000
685.6520, 4124.000
686.8090, 4183.000
687.9670, 4208.000
689.1240, 4245.000
690.2810, 4249.000
691.4380, 4262.000
692.5950, 4252.000
693.7520, 4330.000
694.9080, 4276.000
696.0650, 4197.000
697.2210, 4223.000
698.3770, 4138.000
699.5330, 4116.000
700.6880, 4000.000
701.8440, 4001.000
702.9990, 3897.000
704.1550, 3921.000
705.3100, 3798.000
706.4650, 3786.000
707.6190, 3708.000
708.7740, 3675.000
709.9290, 3575.000
711.0830, 3535.000
712.2370, 3506.000
713.3910, 3515.000
714.5450, 3465.000
715.6980, 3405.000
716.8520, 3405.000
718.0050, 3386.000
719.1580, 3411.000
720.3110, 3389.000
721.4640, 3272.000
722.6170, 3273.000
723.7700, 3242.000
724.9220, 3222.506
726.0740, 3265.000
727.2260, 3232.000
728.3780, 3262.000
729.5300, 3266.000
730.6810, 3264.000
731.8330, 3279.000
732.9840, 3237.000
734.1350, 3142.450
735.2860, 3259.842
736.4370, 3330.796
737.5880, 3357.809
738.7380, 3209.256
739.8880, 3287.397
741.0390, 3274.699
742.1890, 3258.266
743.3380, 3368.302
744.4880, 3245.283
745.6380, 3353.000
746.7870, 3387.000
747.9360, 3435.000
749.0850, 3474.000
750.2340, 3470.000
751.3830, 3579.000
752.5310, 3623.000
753.6800, 3583.000
754.8280, 3598.000
755.9760, 3782.000
757.1240, 3783.000
758.2720, 3888.000
759.4190, 4078.000
760.5670, 4150.000
761.7140, 4225.000
762.8610, 4305.000
764.0080, 4427.000
765.1550, 4664.000
766.3020, 4784.000
767.4480, 4881.599
768.5950, 4962.000
769.7410, 5032.914
770.8870, 5198.000
772.0330, 5113.000
773.1780, 5184.000
774.3240, 5167.000
775.4690, 5041.000
776.6140, 5191.000
777.7590, 5097.000
778.9040, 4940.000
780.0490, 4852.000
781.1940, 4794.000
782.3380, 4729.000
783.4820, 4746.000
784.6260, 4591.000
785.7700, 4480.000
786.9140, 4490.000
788.0580, 4425.000
789.2010, 4329.000
790.3450, 4256.000
791.4880, 4234.000
792.6310, 4227.000
793.7730, 4167.000
794.9160, 4140.000
796.0590, 4098.007
797.2010, 4058.000
798.3430, 4004.000
799.4850, 3981.000
800.6270, 3928.000
801.7690, 3947.000
802.9100, 3855.000
804.0520, 3825.000
805.1930, 3799.000
806.3340, 3721.000
807.4750, 3725.000
808.6160, 3712.000
809.7560, 3680.000
810.8970, 3708.000
812.0370, 3659.000
813.1770, 3748.000
814.3170, 3670.000
815.4570, 3695.000
816.5960, 3712.000
817.7360, 3654.000
818.8750, 3664.000
820.0140, 3730.000
821.1530, 3672.000
822.2920, 3708.000
823.4310, 3730.000
824.5690, 3670.000
825.7070, 3728.000
826.8460, 3718.000
827.9840, 3774.000
829.1220, 3739.000
830.2590, 3862.000
831.3970, 3841.000
832.5340, 3910.000
833.6710, 3943.000
834.8080, 3862.000
835.9450, 3939.000
837.0820, 3983.000
838.2190, 4048.000
839.3550, 4127.000
840.4910, 4183.457
841.6270, 4286.000
842.7630, 4321.786
843.8990, 4394.523
845.0350, 4471.000
846.1700, 4506.000
847.3060, 4559.000
848.4410, 4681.000
849.5760, 4739.000
850.7100, 4855.000
851.8450, 5020.000
852.9800, 5168.000
854.1140, 5361.000
855.2480, 5653.078
856.3820, 5850.847
857.5160, 6249.000
858.6500, 6440.000
859.7830, 6627.000
860.9170, 7107.000
862.0500, 7397.000
863.1830, 7940.000
864.3160, 8434.000
865.4480, 9143.000
866.5810, 9743.000
867.7130, 10432.00
868.8460, 11269.00
869.9780, 12423.00
871.1100, 13765.00
872.2410, 14979.00
873.3730, 16562.00
874.5050, 18449.00
875.6360, 20308.00
876.7670, 22685.00
877.8980, 25247.00
879.0290, 27533.00
880.1590, 29698.00
881.2900, 31406.00
882.4200, 32568.00
883.5500, 32845.00
884.6800, 32344.00
885.8100, 30620.00
886.9400, 28136.00
888.0690, 25580.00
889.1990, 22924.00
890.3280, 20336.00
891.4570, 18875.00
892.5860, 16198.60
893.7140, 14344.00
894.8430, 12073.00
895.9710, 10693.00
897.1000, 9496.000
898.2280, 8594.000
899.3560, 7779.000
900.4830, 7246.000
901.6110, 6756.000
902.7380, 6333.000
903.8660, 5945.000
904.9930, 5724.000
906.1200, 5476.000
907.2460, 5165.000
908.3730, 4954.000
909.5000, 4927.000
910.6260, 4669.000
911.7520, 4657.000
912.8780, 4468.000
914.0040, 4417.000
915.1290, 4248.000
916.2550, 4116.000
917.3800, 4159.000
918.5050, 4192.000
919.6300, 4015.000
920.7550, 3927.000
921.8800, 3899.000
923.0040, 3900.000
924.1290, 3825.000
925.2530, 3813.000
926.3770, 3774.000
927.5010, 3809.000
928.6250, 3697.000
929.7480, 3693.000
930.8720, 3639.000
931.9950, 3663.000
933.1180, 3581.000
934.2410, 3591.000
935.3640, 3534.000
936.4860, 3536.000
937.6090, 3554.000
938.7310, 3536.000
939.8530, 3540.246
940.9750, 3559.000
942.0970, 3536.000
943.2180, 3480.000
944.3400, 3488.000
945.4610, 3515.000
946.5820, 3486.000
947.7030, 3536.000
948.8240, 3464.000
949.9450, 3539.000
951.0650, 3550.000
952.1860, 3487.000
953.3060, 3496.000
954.4260, 3514.000
955.5460, 3458.000
956.6650, 3441.000
957.7850, 3499.000
958.9040, 3438.000
960.0230, 3487.000
961.1420, 3414.000
962.2610, 3472.000
963.3800, 3531.000
964.4990, 3470.000
965.6170, 3533.000
966.7350, 3491.000
967.8530, 3496.000
968.9710, 3429.000
970.0890, 3466.000
971.2070, 3481.000
972.3240, 3483.000
973.4410, 3512.000
974.5580, 3561.000
975.6750, 3439.000
976.7920, 3447.000
977.9090, 3524.000
979.0250, 3459.000
980.1410, 3473.000
981.2580, 3530.000
982.3740, 3452.000
983.4890, 3480.000
984.6050, 3471.000
985.7200, 3441.000
986.8360, 3543.000
987.9510, 3546.000
989.0660, 3578.000
990.1810, 3508.000
991.2950, 3565.000
992.4100, 3558.000
993.5240, 3505.000
994.6390, 3561.000
995.7530, 3560.000
996.8660, 3523.209
997.9800, 3581.000
999.0940, 3498.000
1000.207, 3524.000
1001.320, 3605.000
1002.433, 3501.000
1003.546, 3464.000
1004.659, 3520.000
1005.772, 3529.000
1006.884, 3494.000
1007.996, 3567.000
1009.108, 3467.000
1010.220, 3539.000
1011.332, 3493.000
1012.444, 3518.000
1013.555, 3497.000
1014.666, 3493.000
1015.777, 3403.602
1016.888, 3512.837
1017.999, 3575.634
1019.110, 3594.489
1020.220, 3437.786
1021.331, 3507.779
1022.441, 3486.920
1023.551, 3462.337
1024.661, 3564.232
1025.770, 3433.061
1026.880, 3532.951
1027.989, 3540.604
1029.098, 3590.469
1030.207, 3548.927
1031.316, 3535.617
1032.425, 3613.746
1033.533, 3641.241
1034.642, 3589.176
1035.750, 3641.722
1036.858, 3507.355
1037.966, 3537.007
1039.073, 3637.424
1040.181, 3589.951
1041.288, 3644.166
1042.396, 3659.655
1043.503, 3499.133
1044.610, 3644.706
1045.716, 3657.900
1046.823, 3535.176
1047.929, 3670.258
1049.036, 3566.272
1050.142, 3547.616
1051.248, 3554.000
1052.353, 3584.000
1053.459, 3537.000
1054.564, 3621.000
1055.670, 3570.000
1056.775, 3572.000
1057.880, 3600.000
1058.985, 3577.000
1060.089, 3588.000
1061.194, 3581.000
1062.298, 3593.000
1063.402, 3622.000
1064.506, 3593.000
1065.610, 3604.000
1066.713, 3591.000
1067.817, 3659.000
1068.920, 3615.000
1070.023, 3554.000
1071.126, 3636.000
1072.229, 3696.000
1073.332, 3615.000
1074.435, 3549.000
1075.537, 3577.000
1076.639, 3581.000
1077.741, 3552.000
1078.843, 3624.000
1079.945, 3615.000
1081.046, 3628.000
1082.148, 3583.000
1083.249, 3588.000
1084.350, 3601.000
1085.451, 3482.000
1086.551, 3649.000
1087.652, 3570.000
1088.752, 3498.000
1089.853, 3494.000
1090.953, 3494.000
1092.053, 3455.000
1093.152, 3538.000
1094.252, 3554.000
1095.351, 3445.997
1096.451, 3547.353
1097.550, 3602.275
1098.649, 3613.256
1099.748, 3448.682
1100.846, 3510.805
1101.945, 3482.075
1103.043, 3449.625
1104.141, 3543.653
1105.239, 3404.617
1106.337, 3496.640
1107.434, 3496.433
1108.532, 3538.434
1109.629, 3489.031
1110.726, 3467.862
1111.823, 3538.130
1112.920, 3557.769
1114.017, 3497.844
1115.113, 3542.537
1116.210, 3400.313
1117.306, 3422.112
1118.402, 3514.678
1119.498, 3459.353
1120.593, 3505.722
1121.689, 3513.358
1122.784, 3344.989
1123.879, 3482.717
1124.974, 3488.068
1126.069, 3357.498
1127.164, 3484.737
1128.259, 3372.905
1129.353, 3346.411
1130.447, 3384.136
1131.541, 3354.915
1132.635, 3431.243
1133.729, 3405.888
1134.822, 3371.452
1135.916, 3376.659
1137.009, 3269.524
1138.102, 3370.814
1139.195, 3329.732
1140.288, 3359.420
1141.380, 3405.154
1142.473, 3328.057
1143.565, 3380.998
1144.657, 3232.288
1145.749, 3252.307
1146.841, 3254.157
1147.932, 3363.858
1149.024, 3349.000
1150.115, 3326.000
1151.206, 3308.000
1152.297, 3328.000
1153.388, 3241.000
1154.479, 3330.000
1155.569, 3293.000
1156.659, 3245.000
1157.750, 3273.000
1158.839, 3237.000
1159.929, 3277.000
1161.019, 3346.000
1162.108, 3259.000
1163.198, 3251.000
1164.287, 3244.000
1165.376, 3308.000
1166.465, 3256.000
1167.553, 3252.000
1168.642, 3257.000
1169.730, 3254.000
1170.818, 3251.550
1171.906, 3239.000
1172.994, 3245.000
1174.082, 3229.934
1175.170, 3226.000
1176.257, 3199.000
1177.344, 3202.000
1178.431, 3201.000
1179.518, 3251.000
1180.605, 3110.000
1181.691, 3204.000
1182.778, 3161.000
1183.864, 3157.000
1184.950, 3178.000
1186.036, 3161.000
1187.122, 3142.000
1188.207, 3188.000
1189.292, 3251.000
1190.378, 3252.000
1191.463, 3209.000
1192.548, 3215.000
1193.632, 3207.000
1194.717, 3236.000
1195.801, 3219.124
1196.886, 3235.000
1197.970, 3191.000
1199.054, 3204.000
1200.137, 3170.000
1201.221, 3157.000
1202.305, 3213.000
1203.388, 3189.000
1204.471, 3219.000
1205.554, 3198.000
1206.637, 3233.000
1207.719, 3186.000
1208.802, 3175.000
1209.884, 3155.000
1210.966, 3147.000
1212.048, 3247.000
1213.130, 3236.000
1214.212, 3220.000
1215.293, 3231.226
1216.374, 3172.000
1217.456, 3182.000
1218.536, 3190.000
1219.617, 3169.000
1220.698, 3235.000
1221.778, 3214.000
1222.859, 3213.000
1223.939, 3259.000
1225.019, 3171.000
1226.099, 3193.000
1227.178, 3222.000
1228.258, 3163.000
1229.337, 3242.000
1230.417, 3215.000
1231.496, 3195.000
1232.574, 3169.000
1233.653, 3177.761
1234.732, 3160.000
1235.810, 3168.858
1236.888, 3162.000
1237.966, 3191.000
1239.044, 3191.000
1240.122, 3203.000
1241.199, 3225.000
1242.277, 3223.000
1243.354, 3255.000
1244.431, 3266.000
1245.508, 3252.566
1246.585, 3247.000
1247.661, 3172.000
1248.738, 3250.000
1249.814, 3112.000
1250.890, 3217.000
1251.966, 3115.261
1253.042, 3221.813
1254.117, 3281.927
1255.193, 3298.099
1256.268, 3138.716
1257.343, 3206.025
1258.418, 3182.487
1259.493, 3155.223
1260.567, 3254.438
1261.642, 3120.589
1262.716, 3217.798
1263.790, 3222.772
1264.864, 3269.960
1265.938, 3225.740
1267.011, 3209.752
1268.085, 3285.202
1269.158, 3310.022
1270.231, 3255.279
1271.304, 3305.149
1272.377, 3168.107
1273.450, 3195.083
1274.522, 3292.827
1275.594, 3242.678
1276.666, 3294.220
1277.738, 3307.033
1278.810, 3143.837
1279.882, 3286.738
