##NAMES=Ferberite
##RRUFFID=R050090
##IDEAL CHEMISTRY=Fe^2+^W^6+^O_4_
##LOCALITY=Yaogangxian mine, Cheng Zhu City, South Hunan, China
##OWNER=RRUFF
##SOURCE=Rock Currier
##DESCRIPTION=Dark gray tabular crystal
##STATUS=The identification of this mineral has been confirmed by X-ray diffraction and chemical analysis
##URL=rruff.info/R050090
##MEASURED CHEMISTRY=(Fe^2+^_0.56_Mn_0.44_)W_1.00_O_4_
##PIN_ID=L01304
##ORIENTATION=Laser parallel to -b* (0 -1 0). Fiducial mark perpendicular to laser is parallel to c [0 0 1]
98.41600, 33055.00
99.64900, 32959.00
100.8830, 32548.00
102.1160, 32528.00
103.3490, 33321.00
104.5820, 33994.00
105.8150, 34429.00
107.0470, 34871.00
108.2800, 35399.00
109.5120, 35837.90
110.7440, 35897.03
111.9760, 36561.00
113.2080, 36019.00
114.4400, 35819.00
115.6710, 36144.00
116.9030, 38000.00
118.1340, 36487.00
119.3650, 36530.00
120.5960, 36035.00
121.8270, 34795.00
123.0580, 33298.00
124.2880, 33528.00
125.5190, 33779.00
126.7490, 33738.00
127.9790, 33288.00
129.2090, 33394.00
130.4390, 32972.00
131.6680, 32769.00
132.8980, 32566.00
134.1270, 31834.00
135.3560, 31746.00
136.5850, 31811.00
137.8140, 32628.00
139.0430, 32305.00
140.2710, 31625.00
141.5000, 32149.00
142.7280, 31423.00
143.9560, 31167.00
145.1840, 31285.00
146.4120, 30774.00
147.6390, 30681.00
148.8670, 30713.00
150.0940, 30907.00
151.3210, 30994.17
152.5490, 30991.00
153.7750, 31245.00
155.0020, 31108.00
156.2290, 30904.00
157.4550, 30529.00
158.6810, 30444.00
159.9080, 30764.00
161.1340, 30777.00
162.3590, 30723.87
163.5850, 30321.00
164.8110, 30642.00
166.0360, 30470.00
167.2610, 30584.00
168.4860, 30370.00
169.7110, 30744.00
170.9360, 30592.00
172.1610, 30979.00
173.3850, 31166.00
174.6100, 30617.00
175.8340, 30984.00
177.0580, 30914.00
178.2820, 30965.00
179.5050, 30868.00
180.7290, 30762.00
181.9520, 31054.00
183.1760, 30898.00
184.3990, 31112.00
185.6220, 31314.00
186.8450, 31405.00
188.0670, 31243.00
189.2900, 31542.00
190.5120, 31469.00
191.7340, 31846.00
192.9560, 32039.93
194.1780, 32678.00
195.4000, 32605.00
196.6220, 32885.00
197.8430, 33221.00
199.0640, 33971.00
200.2860, 34755.00
201.5070, 35339.00
202.7270, 36167.00
203.9480, 36602.00
205.1690, 37259.00
206.3890, 36630.00
207.6090, 35372.00
208.8290, 35110.00
210.0490, 33894.00
211.2690, 33217.00
212.4890, 32390.00
213.7080, 32181.00
214.9280, 31808.00
216.1470, 31394.00
217.3660, 30949.00
218.5850, 30448.00
219.8030, 30287.00
221.0220, 29970.00
222.2400, 30032.00
223.4590, 30011.00
224.6770, 29843.20
225.8950, 29901.00
227.1120, 29693.00
228.3300, 29664.00
229.5480, 29707.00
230.7650, 29418.00
231.9820, 29546.00
233.1990, 29393.00
234.4160, 29563.00
235.6330, 29125.00
236.8490, 29641.00
238.0660, 29709.00
239.2820, 29506.00
240.4980, 29290.00
241.7140, 29552.00
242.9300, 29631.00
244.1460, 29070.00
245.3610, 29528.00
246.5770, 29252.00
247.7920, 29044.00
249.0070, 29053.00
250.2220, 29093.00
251.4370, 29432.00
252.6510, 29675.00
253.8660, 29550.00
255.0800, 29428.00
256.2940, 29973.00
257.5080, 30089.00
258.7220, 30211.00
259.9360, 31141.49
261.1490, 31320.87
262.3630, 31453.87
263.5760, 31542.86
264.7890, 31456.30
266.0020, 31596.43
267.2150, 30822.00
268.4270, 30815.00
269.6400, 30510.00
270.8520, 30497.00
272.0640, 30388.00
273.2760, 30268.00
274.4880, 30102.00
275.7000, 30049.00
276.9120, 29936.00
278.1230, 29895.00
279.3340, 29678.00
280.5450, 29521.00
281.7560, 29434.00
282.9670, 29330.00
284.1780, 29248.00
285.3880, 29207.00
286.5980, 29156.96
287.8090, 29115.00
289.0190, 29124.00
290.2290, 29130.00
291.4380, 29146.00
292.6480, 29146.00
293.8570, 29347.00
295.0670, 29180.00
296.2760, 29303.00
297.4850, 29427.00
298.6930, 29182.00
299.9020, 28914.00
301.1110, 29209.00
302.3190, 29121.00
303.5270, 29112.00
304.7350, 29199.00
305.9430, 29051.00
307.1510, 29152.00
308.3580, 29235.00
309.5660, 29195.00
310.7730, 29323.00
311.9800, 29154.00
313.1870, 29325.00
314.3940, 29367.00
315.6010, 29636.00
316.8070, 29655.00
318.0130, 29604.00
319.2200, 29601.00
320.4260, 29650.00
321.6310, 29525.00
322.8370, 30098.00
324.0430, 29956.00
325.2480, 30116.00
326.4540, 30036.00
327.6590, 30056.00
328.8640, 30018.00
330.0680, 29891.00
331.2730, 29931.00
332.4780, 29775.00
333.6820, 29503.00
334.8860, 29751.00
336.0900, 29467.00
337.2940, 29529.00
338.4980, 29623.00
339.7010, 29452.00
340.9050, 29357.00
342.1080, 29492.00
343.3110, 29304.00
344.5140, 29460.00
345.7170, 29149.00
346.9200, 29201.00
348.1220, 29282.00
349.3240, 29293.04
350.5270, 29467.00
351.7290, 29434.00
352.9310, 29488.00
354.1320, 29264.00
355.3340, 29330.00
356.5350, 29361.00
357.7370, 29471.00
358.9380, 29450.00
360.1390, 29351.00
361.3400, 29297.00
362.5400, 29600.00
363.7410, 29309.00
364.9410, 29532.00
366.1410, 29353.00
367.3410, 29599.00
368.5410, 29435.00
369.7410, 29303.00
370.9400, 29459.00
372.1400, 29618.00
373.3390, 29465.00
374.5380, 29580.00
375.7370, 29343.00
376.9360, 29508.00
378.1350, 29331.00
379.3330, 29292.00
380.5310, 29292.00
381.7300, 29447.00
382.9280, 29242.00
384.1260, 29487.00
385.3230, 29340.00
386.5210, 29371.00
387.7180, 29464.00
388.9160, 29617.00
390.1130, 29716.04
391.3100, 29728.00
392.5060, 29969.00
393.7030, 30149.00
394.9000, 30209.21
396.0960, 30217.00
397.2920, 30210.00
398.4880, 30236.00
399.6840, 30186.00
400.8800, 30162.00
402.0750, 30033.00
403.2710, 30116.00
404.4660, 30121.00
405.6610, 29870.00
406.8560, 29648.00
408.0510, 29912.00
409.2450, 29823.00
410.4400, 29918.00
411.6340, 29910.30
412.8280, 29956.00
414.0220, 29873.00
415.2160, 29832.91
416.4100, 29936.13
417.6030, 29755.00
418.7970, 29906.00
419.9900, 29781.00
421.1830, 29813.00
422.3760, 29873.59
423.5690, 29847.00
424.7610, 29879.00
425.9540, 29996.00
427.1460, 29801.00
428.3380, 30248.00
429.5300, 29955.00
430.7220, 30257.00
431.9140, 30093.00
433.1050, 30287.00
434.2970, 30321.00
435.4880, 30643.00
436.6790, 30363.00
437.8700, 30273.00
439.0610, 30563.00
440.2510, 30293.00
441.4420, 30445.00
442.6320, 30518.00
443.8220, 30461.00
445.0120, 30577.00
446.2020, 30328.00
447.3910, 30414.00
448.5810, 30466.00
449.7700, 30273.00
450.9600, 30247.00
452.1490, 30360.00
453.3370, 30447.00
454.5260, 30405.71
455.7150, 30429.37
456.9030, 30384.00
458.0910, 30350.00
459.2800, 30395.00
460.4670, 30366.00
461.6550, 30394.14
462.8430, 30416.00
464.0300, 30442.00
465.2180, 30441.00
466.4050, 30458.27
467.5920, 30437.00
468.7790, 30561.00
469.9650, 30641.00
471.1520, 30665.00
472.3380, 30745.54
473.5250, 30604.00
474.7110, 30824.00
475.8970, 30638.00
477.0820, 30632.00
478.2680, 30705.00
479.4540, 30759.00
480.6390, 30708.00
481.8240, 30677.00
483.0090, 30720.95
484.1940, 30804.00
485.3780, 30759.00
486.5630, 30954.00
487.7470, 30947.00
488.9320, 30935.00
490.1160, 30834.00
491.3000, 30841.00
492.4830, 30859.00
493.6670, 31087.00
494.8500, 30969.00
496.0340, 30880.00
497.2170, 31106.00
498.4000, 30970.22
499.5820, 31013.00
500.7650, 30991.00
501.9480, 30975.00
503.1300, 31096.00
504.3120, 31045.00
505.4940, 31066.00
506.6760, 31263.00
507.8580, 31537.00
509.0390, 31429.00
510.2210, 31159.00
511.4020, 30989.00
512.5830, 31271.00
513.7640, 31236.00
514.9450, 31453.00
516.1250, 31470.00
517.3060, 31296.00
518.4860, 31315.00
519.6660, 31592.00
520.8460, 31720.00
522.0260, 31709.00
523.2060, 31837.00
524.3850, 31595.00
525.5650, 31613.00
526.7440, 31830.00
527.9230, 31798.00
529.1020, 31939.00
530.2810, 32000.00
531.4590, 31888.00
532.6380, 31728.00
533.8160, 31983.00
534.9940, 31927.00
536.1720, 31970.00
537.3500, 31952.00
538.5270, 31937.00
539.7050, 31778.00
540.8820, 32020.00
542.0590, 32137.00
543.2360, 32029.00
544.4130, 32289.00
545.5900, 32043.00
546.7660, 32393.00
547.9430, 32039.00
549.1190, 31876.00
550.2950, 32148.00
551.4710, 31854.00
552.6470, 31902.00
553.8220, 31998.00
554.9980, 32009.00
556.1730, 32021.89
557.3480, 32000.90
558.5230, 32061.00
559.6980, 31891.00
560.8730, 32037.00
562.0470, 31989.00
563.2220, 32046.00
564.3960, 31930.00
565.5700, 32051.00
566.7440, 31856.00
567.9170, 31958.00
569.0910, 32023.00
570.2640, 31983.64
571.4380, 32021.00
572.6110, 32009.00
573.7840, 32052.00
574.9570, 32000.00
576.1290, 31970.00
577.3020, 31650.00
578.4740, 31771.00
579.6460, 31779.00
580.8180, 31272.00
581.9900, 31198.00
583.1620, 30959.00
584.3330, 31175.00
585.5040, 31152.00
586.6760, 30964.00
587.8470, 30981.00
589.0180, 30942.00
590.1880, 30919.00
591.3590, 31078.00
592.5290, 30884.00
593.7000, 30646.00
594.8700, 30767.00
596.0400, 30799.00
597.2090, 30965.00
598.3790, 30821.00
599.5490, 30826.00
600.7180, 30882.00
601.8870, 31027.00
603.0560, 30995.00
604.2250, 31031.00
605.3940, 31055.00
606.5620, 31075.00
607.7300, 31037.00
608.8990, 30909.00
610.0670, 31189.00
611.2350, 30982.00
612.4020, 31114.00
613.5700, 31101.00
614.7370, 31201.00
615.9050, 31239.00
617.0720, 31304.00
618.2390, 31151.00
619.4060, 31345.00
620.5720, 31424.00
621.7390, 31483.00
622.9050, 31308.00
624.0710, 31513.00
625.2370, 31468.00
626.4030, 31270.00
627.5690, 31473.00
628.7340, 31482.00
629.9000, 31631.00
631.0650, 31406.00
632.2300, 31621.00
633.3950, 31500.00
634.5600, 31597.00
635.7240, 31495.00
636.8890, 31672.00
638.0530, 31477.00
639.2170, 31625.00
640.3810, 31732.00
641.5450, 31798.00
642.7080, 31635.00
643.8720, 31765.00
645.0350, 31665.00
646.1980, 31586.00
647.3610, 31639.00
648.5240, 31910.00
649.6870, 32087.00
650.8490, 31933.00
652.0120, 31919.00
653.1740, 32068.00
654.3360, 31896.00
655.4980, 31980.00
656.6600, 32027.00
657.8210, 32348.00
658.9830, 32302.00
660.1440, 32530.00
661.3050, 32520.00
662.4660, 32548.00
663.6270, 32606.00
664.7870, 32676.75
665.9480, 32814.65
667.1080, 32924.00
668.2680, 33201.00
669.4280, 33441.00
670.5880, 33771.00
671.7480, 33844.00
672.9070, 34113.00
674.0670, 34415.00
675.2260, 34793.00
676.3850, 35111.69
677.5440, 35442.00
678.7030, 35894.00
679.8610, 36339.00
681.0200, 36871.00
682.1780, 37290.00
683.3360, 37862.41
684.4940, 38354.00
685.6520, 38908.00
686.8090, 39433.93
687.9670, 39955.00
689.1240, 40458.00
690.2810, 40969.00
691.4380, 41418.00
692.5950, 41530.00
693.7520, 41668.00
694.9080, 41586.00
696.0650, 41711.00
697.2210, 41483.00
698.3770, 41340.45
699.5330, 40986.46
700.6880, 40837.00
701.8440, 40023.00
702.9990, 39664.00
704.1550, 39080.00
705.3100, 38777.00
706.4650, 38277.00
707.6190, 37591.00
708.7740, 37463.00
709.9290, 36737.00
711.0830, 36556.00
712.2370, 36080.00
713.3910, 35882.00
714.5450, 35413.00
715.6980, 35578.00
716.8520, 34913.00
718.0050, 34815.00
719.1580, 34283.00
720.3110, 34395.00
721.4640, 34386.00
722.6170, 33925.00
723.7700, 33762.00
724.9220, 33588.00
726.0740, 33951.00
727.2260, 33712.00
728.3780, 33720.00
729.5300, 33591.00
730.6810, 33119.00
731.8330, 33257.00
732.9840, 33306.00
734.1350, 32890.00
735.2860, 33072.00
736.4370, 33155.00
737.5880, 32955.00
738.7380, 33010.00
739.8880, 33062.00
741.0390, 32702.00
742.1890, 33178.00
743.3380, 32683.00
744.4880, 32711.00
745.6380, 32500.00
746.7870, 32627.00
747.9360, 32440.00
749.0850, 32618.00
750.2340, 32540.00
751.3830, 32536.00
752.5310, 32741.00
753.6800, 32765.30
754.8280, 32803.63
755.9760, 33055.00
757.1240, 32677.00
758.2720, 32843.00
759.4190, 32435.00
760.5670, 32806.00
761.7140, 32464.00
762.8610, 32724.00
764.0080, 32904.00
765.1550, 32743.00
766.3020, 32669.00
767.4480, 32650.00
768.5950, 32652.35
769.7410, 32669.76
770.8870, 32772.00
772.0330, 32713.00
773.1780, 32756.00
774.3240, 32663.00
775.4690, 32790.00
776.6140, 32732.60
777.7590, 32952.00
778.9040, 32723.00
780.0490, 32865.00
781.1940, 32925.00
782.3380, 32739.00
783.4820, 32684.00
784.6260, 32811.00
785.7700, 32539.00
786.9140, 32726.00
788.0580, 32689.00
789.2010, 32695.00
790.3450, 32751.00
791.4880, 32621.00
792.6310, 32624.00
793.7730, 32859.00
794.9160, 32811.00
796.0590, 32924.00
797.2010, 32872.00
798.3430, 32937.00
799.4850, 32888.00
800.6270, 32836.00
801.7690, 32855.00
802.9100, 32860.00
804.0520, 32957.00
805.1930, 32992.00
806.3340, 32998.00
807.4750, 32789.00
808.6160, 32981.00
809.7560, 33186.00
810.8970, 32819.00
812.0370, 32759.00
813.1770, 33119.00
814.3170, 33087.00
815.4570, 32785.00
816.5960, 33093.00
817.7360, 33028.00
818.8750, 33009.00
820.0140, 33042.00
821.1530, 32939.00
822.2920, 32992.13
823.4310, 33092.00
824.5690, 33043.00
825.7070, 33040.00
826.8460, 33075.00
827.9840, 33072.00
829.1220, 33166.00
830.2590, 33303.00
831.3970, 33114.00
832.5340, 33106.00
833.6710, 33263.00
834.8080, 33338.00
835.9450, 33353.00
837.0820, 33369.00
838.2190, 33457.00
839.3550, 33580.00
840.4910, 33602.00
841.6270, 33928.00
842.7630, 33853.00
843.8990, 34014.00
845.0350, 34371.00
846.1700, 34122.00
847.3060, 34250.00
848.4410, 34493.00
849.5760, 34865.00
850.7100, 35040.00
851.8450, 34824.00
852.9800, 35353.00
854.1140, 35645.00
855.2480, 35791.00
856.3820, 36319.00
857.5160, 36483.00
858.6500, 37065.00
859.7830, 37366.00
860.9170, 37885.00
862.0500, 38283.00
863.1830, 39041.00
864.3160, 39667.00
865.4480, 40779.00
866.5810, 41523.00
867.7130, 42309.00
868.8460, 43766.00
869.9780, 45161.00
871.1100, 46781.00
872.2410, 48399.00
873.3730, 50802.00
874.5050, 52804.00
875.6360, 55085.00
876.7670, 56875.00
877.8980, 58959.00
879.0290, 60367.00
880.1590, 61084.00
881.2900, 61146.90
882.4200, 60774.00
883.5500, 59250.00
884.6800, 57709.00
885.8100, 55138.00
886.9400, 52556.00
888.0690, 49880.00
889.1990, 47816.00
890.3280, 45627.00
891.4570, 43643.00
892.5860, 41775.00
893.7140, 40399.00
894.8430, 39526.00
895.9710, 38441.00
897.1000, 37636.00
898.2280, 36783.00
899.3560, 36170.00
900.4830, 35696.00
901.6110, 35548.00
902.7380, 35032.00
903.8660, 35144.00
904.9930, 34552.00
906.1200, 34189.00
907.2460, 34274.00
908.3730, 34061.00
909.5000, 34036.00
910.6260, 34020.00
911.7520, 33785.00
912.8780, 33666.00
914.0040, 33567.00
915.1290, 33377.00
916.2550, 33323.50
917.3800, 33372.00
918.5050, 33207.00
919.6300, 33164.00
920.7550, 33179.00
921.8800, 33042.00
923.0040, 32984.00
924.1290, 33164.00
925.2530, 32992.00
926.3770, 33172.00
927.5010, 33026.00
928.6250, 33004.00
929.7480, 32945.00
930.8720, 32916.00
931.9950, 32958.00
933.1180, 33000.00
934.2410, 33042.00
935.3640, 32792.00
936.4860, 32870.00
937.6090, 32824.00
938.7310, 32883.00
939.8530, 32919.73
940.9750, 32935.02
942.0970, 33001.00
943.2180, 32977.00
944.3400, 32994.29
945.4610, 32947.00
946.5820, 32859.00
947.7030, 32843.00
948.8240, 32834.47
949.9450, 32736.00
951.0650, 32862.00
952.1860, 32911.00
953.3060, 32924.00
954.4260, 32949.45
955.5460, 32892.00
956.6650, 32860.00
957.7850, 32957.00
958.9040, 32801.00
960.0230, 32914.00
961.1420, 33164.00
962.2610, 32784.00
963.3800, 32888.00
964.4990, 32739.00
965.6170, 32913.00
966.7350, 32639.00
967.8530, 32828.00
968.9710, 33020.00
970.0890, 32755.00
971.2070, 32813.00
972.3240, 32914.00
973.4410, 32913.00
974.5580, 32905.76
975.6750, 32970.00
976.7920, 32838.00
977.9090, 32771.00
979.0250, 32780.00
980.1410, 32694.00
981.2580, 32870.00
982.3740, 32968.00
983.4890, 32918.00
984.6050, 32847.00
985.7200, 32916.00
986.8360, 32882.20
987.9510, 32942.00
989.0660, 32893.00
990.1810, 32931.00
991.2950, 32894.00
992.4100, 32928.00
993.5240, 32920.80
994.6390, 32946.00
995.7530, 32986.00
996.8660, 33110.00
997.9800, 33302.00
999.0940, 33054.00
1000.207, 33069.00
1001.320, 33205.00
1002.433, 33065.00
1003.546, 32864.00
1004.659, 33180.00
1005.772, 32981.00
1006.884, 32827.00
1007.996, 33129.00
1009.108, 32995.00
1010.220, 33049.00
1011.332, 33165.00
1012.444, 33276.00
1013.555, 33295.39
1014.666, 33139.00
1015.777, 33318.00
1016.888, 33126.00
1017.999, 33056.00
1019.110, 33155.00
1020.220, 33137.00
1021.331, 33046.00
1022.441, 33058.00
1023.551, 33083.00
1024.661, 33215.00
1025.770, 33239.81
1026.880, 33215.00
1027.989, 33357.00
1029.098, 33317.00
1030.207, 33323.00
1031.316, 33243.00
1032.425, 33416.00
1033.533, 33448.00
1034.642, 33232.00
1035.750, 33509.00
1036.858, 33611.00
1037.966, 33436.00
1039.073, 33395.00
1040.181, 33386.00
1041.288, 33280.00
1042.396, 33516.00
1043.503, 33228.00
1044.610, 33489.00
1045.716, 33394.00
1046.823, 33573.00
1047.929, 33330.00
1049.036, 33505.00
1050.142, 33544.00
1051.248, 33988.00
1052.353, 33675.00
1053.459, 33724.00
1054.564, 33260.00
1055.670, 33673.00
1056.775, 33671.00
1057.880, 33544.52
1058.985, 33751.00
1060.089, 33423.00
1061.194, 33618.00
1062.298, 33558.00
1063.402, 33553.00
1064.506, 33695.00
1065.610, 33456.00
1066.713, 33452.00
1067.817, 33433.00
1068.920, 33450.00
1070.023, 33539.00
1071.126, 33628.00
1072.229, 33613.00
1073.332, 33624.00
1074.435, 33915.00
1075.537, 33589.00
1076.639, 33595.00
1077.741, 33448.00
1078.843, 33647.00
1079.945, 33327.00
1081.046, 33611.00
1082.148, 33530.00
1083.249, 33652.00
1084.350, 33499.00
1085.451, 33530.74
1086.551, 33390.00
1087.652, 33537.00
1088.752, 33577.00
1089.853, 33657.00
1090.953, 33534.00
1092.053, 33630.00
1093.152, 33391.00
1094.252, 33696.00
1095.351, 33713.00
1096.451, 33718.00
1097.550, 33548.00
1098.649, 33599.00
1099.748, 33460.00
1100.846, 33415.62
1101.945, 33449.00
1103.043, 33371.00
1104.141, 33467.00
1105.239, 33589.00
1106.337, 33566.00
1107.434, 33389.00
1108.532, 33545.00
1109.629, 33614.00
1110.726, 33404.00
1111.823, 33825.00
1112.920, 33706.00
1114.017, 33607.00
1115.113, 33463.00
1116.210, 33559.00
1117.306, 33674.00
1118.402, 33367.00
1119.498, 33484.00
1120.593, 33562.00
1121.689, 33514.00
1122.784, 33678.00
1123.879, 33518.00
1124.974, 33417.00
1126.069, 33532.00
1127.164, 33468.00
1128.259, 33584.00
1129.353, 33343.00
1130.447, 33298.00
1131.541, 33286.00
1132.635, 33224.70
1133.729, 33258.37
1134.822, 33286.00
1135.916, 33322.00
1137.009, 33425.00
1138.102, 33461.00
1139.195, 33377.00
1140.288, 33366.00
1141.380, 33080.00
1142.473, 33465.00
1143.565, 33328.00
1144.657, 33148.00
1145.749, 33312.00
1146.841, 33354.00
1147.932, 33325.00
1149.024, 33422.00
1150.115, 33375.00
1151.206, 33227.00
1152.297, 33501.00
1153.388, 33270.00
1154.479, 33399.05
1155.569, 33668.00
1156.659, 33539.00
1157.750, 33255.00
1158.839, 33319.00
1159.929, 33115.00
1161.019, 32958.00
1162.108, 33071.08
1163.198, 33004.00
1164.287, 33207.00
1165.376, 33053.00
1166.465, 33044.00
1167.553, 32911.00
1168.642, 33100.00
1169.730, 33350.00
1170.818, 33317.00
1171.906, 33233.00
1172.994, 33128.00
1174.082, 33121.00
1175.170, 33096.09
1176.257, 33166.00
1177.344, 33119.00
1178.431, 33063.00
1179.518, 33055.43
1180.605, 32999.00
1181.691, 33223.00
1182.778, 32954.00
1183.864, 33241.00
1184.950, 33196.00
1186.036, 33266.00
1187.122, 33344.00
1188.207, 33360.00
1189.292, 33372.00
1190.378, 33111.00
1191.463, 33334.00
1192.548, 33118.00
1193.632, 33404.00
1194.717, 33334.00
1195.801, 33083.00
1196.886, 33146.00
1197.970, 33058.66
1199.054, 33058.00
1200.137, 33075.00
1201.221, 33109.00
1202.305, 33202.00
1203.388, 33274.00
1204.471, 33263.39
1205.554, 33103.00
1206.637, 33234.00
1207.719, 33116.00
1208.802, 33080.00
1209.884, 33378.00
1210.966, 33170.00
1212.048, 33436.00
1213.130, 33188.00
1214.212, 33357.00
1215.293, 33306.00
1216.374, 33327.00
1217.456, 33424.00
1218.536, 33276.04
1219.617, 33327.00
1220.698, 33000.00
1221.778, 33240.00
1222.859, 33043.00
1223.939, 33124.00
1225.019, 33167.00
1226.099, 33228.00
1227.178, 33084.00
1228.258, 33053.00
1229.337, 33214.00
1230.417, 32954.00
1231.496, 33320.00
1232.574, 33306.00
1233.653, 33106.00
1234.732, 33352.00
1235.810, 33294.43
1236.888, 33391.39
1237.966, 33441.92
1239.044, 33448.50
1240.122, 33279.53
1241.199, 33337.26
1242.277, 33304.13
1243.354, 33267.29
1244.431, 33356.92
1245.508, 33213.49
1246.585, 33301.12
1247.661, 33296.52
1248.738, 33334.13
1249.814, 33280.34
1250.890, 33254.78
1251.966, 33320.66
1253.042, 33229.00
1254.117, 33490.00
1255.193, 33337.00
1256.268, 33130.00
1257.343, 33315.00
1258.418, 33134.00
1259.493, 33288.00
1260.567, 32982.00
1261.642, 33277.00
1262.716, 33255.00
1263.790, 33259.00
1264.864, 33332.00
1265.938, 33264.00
1267.011, 33105.00
1268.085, 33086.00
1269.158, 33130.00
1270.231, 33293.00
1271.304, 33065.00
1272.377, 33231.00
1273.450, 32954.00
1274.522, 33111.00
1275.594, 33150.00
1276.666, 33034.00
1277.738, 33156.00
1278.810, 33165.00
1279.882, 33148.00
