##NAMES=Ferberite
##RRUFFID=R040044
##IDEAL CHEMISTRY=Fe^2+^W^6+^O_4_
##LOCALITY=Chocote, Bolivia
##OWNER=RRUFF
##SOURCE=University of Arizona Mineral Museum
##DESCRIPTION=Black tabular single crystal
##STATUS=The identification of this mineral has been confirmed by X-ray diffraction and chemical analysis
##URL=rruff.info/R040044
##MEASURED CHEMISTRY=(Fe_0.82_Mn_0.08_Mg_0.07_Pb_0.03_)_Î£=1_W_1.00_O_4_
##PIN_ID=L01748
##ORIENTATION=Laser parallel to (1 0 1). Fiducial mark perpendicular to laser is parallel to b [0 1 0]
99.34400, 20731.00
100.5810, 21154.00
101.8190, 21081.00
103.0560, 21349.00
104.2930, 21524.00
105.5290, 22208.00
106.7660, 24146.00
108.0020, 23484.85
109.2390, 24909.00
110.4750, 23350.00
111.7110, 23028.00
112.9460, 23508.00
114.1820, 23695.00
115.4170, 24109.00
116.6530, 24213.00
117.8880, 24281.00
119.1230, 23178.00
120.3580, 22728.00
121.5920, 24698.00
122.8270, 23676.00
124.0610, 24136.00
125.2950, 24143.00
126.5290, 24600.00
127.7630, 25777.00
128.9970, 27282.00
130.2300, 29626.00
131.4640, 32446.00
132.6970, 34527.00
133.9300, 35431.00
135.1630, 34608.00
136.3950, 31940.00
137.6280, 29135.00
138.8600, 26607.00
140.0920, 25281.00
141.3240, 23731.00
142.5560, 22658.00
143.7880, 21890.00
145.0190, 21704.00
146.2510, 21438.00
147.4820, 21663.00
148.7130, 21349.00
149.9440, 21347.00
151.1750, 21575.00
152.4050, 21455.00
153.6360, 21337.00
154.8660, 21628.00
156.0960, 21412.00
157.3260, 21404.00
158.5560, 21417.00
159.7850, 21352.00
161.0150, 22020.00
162.2440, 21710.00
163.4730, 21945.00
164.7020, 21862.00
165.9310, 21772.00
167.1590, 21691.00
168.3880, 21788.00
169.6160, 21984.00
170.8440, 22105.00
172.0720, 21962.00
173.3000, 21967.00
174.5280, 21979.00
175.7550, 22147.00
176.9820, 22223.00
178.2100, 22282.90
179.4370, 22405.00
180.6630, 22347.00
181.8900, 22347.00
183.1170, 22236.00
184.3430, 22406.00
185.5690, 22415.00
186.7950, 22612.00
188.0210, 22780.00
189.2470, 22770.00
190.4720, 22958.00
191.6970, 22957.00
192.9230, 23234.00
194.1480, 23426.00
195.3730, 23545.00
196.5970, 23735.00
197.8220, 24112.00
199.0460, 24332.00
200.2700, 24428.00
201.4940, 25015.00
202.7180, 24828.00
203.9420, 24394.00
205.1660, 23760.00
206.3890, 23623.00
207.6120, 23651.00
208.8350, 23907.00
210.0580, 24297.00
211.2810, 24160.00
212.5040, 24238.00
213.7260, 24191.00
214.9480, 23994.00
216.1700, 23654.00
217.3920, 23547.00
218.6140, 23422.00
219.8360, 23013.00
221.0570, 23124.00
222.2790, 22706.00
223.5000, 22485.00
224.7210, 22569.00
225.9410, 22394.00
227.1620, 22360.00
228.3820, 22226.00
229.6030, 22300.00
230.8230, 22182.00
232.0430, 22416.00
233.2630, 22628.00
234.4820, 22312.00
235.7020, 22307.00
236.9210, 22227.00
238.1400, 22354.00
239.3590, 22282.00
240.5780, 22398.00
241.7970, 22326.94
243.0150, 22313.00
244.2340, 22205.00
245.4520, 22329.00
246.6700, 22313.00
247.8880, 22206.00
249.1060, 22248.00
250.3230, 22471.00
251.5400, 22284.00
252.7580, 22354.00
253.9750, 22591.00
255.1920, 22626.37
256.4080, 22601.00
257.6250, 22863.00
258.8410, 22864.85
260.0580, 22775.87
261.2740, 23003.00
262.4900, 22638.00
263.7050, 22573.00
264.9210, 22788.00
266.1360, 22726.00
267.3520, 22840.00
268.5670, 22770.00
269.7820, 22811.00
270.9960, 22751.00
272.2110, 22912.00
273.4250, 22852.00
274.6400, 22935.00
275.8540, 23074.00
277.0680, 22957.00
278.2810, 23088.00
279.4950, 22959.00
280.7090, 22974.00
281.9220, 23000.00
283.1350, 23224.00
284.3480, 23303.00
285.5610, 23173.00
286.7730, 23147.00
287.9860, 23005.00
289.1980, 23014.00
290.4100, 23191.00
291.6220, 23294.00
292.8340, 23223.00
294.0460, 23285.00
295.2570, 23421.00
296.4690, 23522.00
297.6800, 23679.00
298.8910, 23584.00
300.1020, 23719.00
301.3120, 23642.00
302.5230, 23684.00
303.7330, 23825.00
304.9440, 23934.00
306.1540, 24052.00
307.3630, 23867.00
308.5730, 24265.00
309.7830, 24132.00
310.9920, 24411.00
312.2010, 24360.00
313.4100, 24582.00
314.6190, 24562.00
315.8280, 24904.00
317.0370, 24959.00
318.2450, 25307.00
319.4530, 25681.00
320.6610, 25708.00
321.8690, 26162.00
323.0770, 26719.00
324.2850, 27159.00
325.4920, 27796.00
326.6990, 27923.00
327.9060, 28435.00
329.1130, 28573.00
330.3200, 28796.00
331.5270, 28673.00
332.7330, 29009.00
333.9390, 28648.00
335.1450, 28311.00
336.3510, 28221.00
337.5570, 27726.00
338.7630, 27600.00
339.9680, 27160.00
341.1740, 26720.00
342.3790, 26532.00
343.5840, 26274.00
344.7890, 25978.00
345.9930, 25723.00
347.1980, 25697.00
348.4020, 25586.00
349.6060, 25433.59
350.8100, 25301.00
352.0140, 25204.00
353.2180, 25074.00
354.4210, 24996.00
355.6250, 25006.00
356.8280, 24952.00
358.0310, 25116.00
359.2340, 24919.00
360.4360, 24916.00
361.6390, 24786.00
362.8410, 24983.00
364.0430, 24949.00
365.2450, 24985.00
366.4470, 24817.00
367.6490, 24855.75
368.8510, 24766.00
370.0520, 24859.00
371.2530, 24829.00
372.4540, 24892.00
373.6550, 24816.00
374.8560, 24862.00
376.0560, 24829.00
377.2570, 24809.00
378.4570, 24984.00
379.6570, 25023.00
380.8570, 25138.00
382.0570, 24972.00
383.2560, 25125.00
384.4560, 25261.00
385.6550, 25482.00
386.8540, 25418.00
388.0530, 25378.00
389.2520, 25502.48
390.4510, 25519.00
391.6490, 25774.00
392.8470, 25876.00
394.0450, 26330.00
395.2430, 26525.00
396.4410, 26959.00
397.6390, 27340.00
398.8360, 27859.00
400.0340, 28386.00
401.2310, 28831.00
402.4280, 29050.00
403.6250, 28754.00
404.8210, 28757.00
406.0180, 28402.00
407.2140, 27690.00
408.4100, 27555.00
409.6060, 27005.00
410.8020, 26665.00
411.9980, 26521.00
413.1930, 26037.00
414.3890, 25684.00
415.5840, 25942.00
416.7790, 25755.00
417.9740, 25627.00
419.1680, 25546.00
420.3630, 25414.00
421.5570, 25471.00
422.7510, 25391.83
423.9450, 25528.00
425.1390, 25345.00
426.3330, 25409.00
427.5270, 25376.00
428.7200, 25414.00
429.9130, 25266.00
431.1060, 25431.00
432.2990, 25428.00
433.4920, 25579.00
434.6840, 25521.00
435.8770, 25595.00
437.0690, 25500.00
438.2610, 25567.00
439.4530, 25553.00
440.6450, 25395.00
441.8360, 25620.00
443.0280, 25570.00
444.2190, 25767.00
445.4100, 25543.00
446.6010, 25594.00
447.7920, 25607.00
448.9820, 25750.00
450.1730, 25778.00
451.3630, 25683.00
452.5530, 25818.00
453.7430, 25661.00
454.9330, 25678.00
456.1230, 25934.00
457.3120, 25793.00
458.5010, 25921.00
459.6910, 25999.00
460.8800, 26012.00
462.0680, 25740.00
463.2570, 25860.00
464.4460, 25809.00
465.6340, 26104.00
466.8220, 25996.00
468.0100, 26032.00
469.1980, 26417.00
470.3860, 26172.00
471.5730, 26095.00
472.7600, 26276.00
473.9480, 26141.00
475.1350, 26193.00
476.3210, 26135.00
477.5080, 26306.00
478.6950, 26393.00
479.8810, 26488.00
481.0670, 26383.00
482.2530, 26577.00
483.4390, 26671.00
484.6250, 26499.00
485.8100, 26998.00
486.9960, 26766.00
488.1810, 26620.00
489.3660, 26943.00
490.5510, 26709.00
491.7360, 26910.00
492.9200, 26885.00
494.1050, 26845.00
495.2890, 26837.00
496.4730, 27167.00
497.6570, 27310.00
498.8400, 27166.00
500.0240, 27172.00
501.2070, 27133.00
502.3910, 27237.00
503.5740, 27471.00
504.7570, 27371.00
505.9400, 27672.00
507.1220, 27424.00
508.3050, 27557.00
509.4870, 27701.00
510.6690, 27855.00
511.8510, 27929.00
513.0330, 27937.00
514.2140, 28107.00
515.3960, 28064.00
516.5770, 28219.00
517.7580, 28317.34
518.9390, 28450.00
520.1200, 28517.00
521.3010, 28590.00
522.4810, 28606.00
523.6610, 28749.15
524.8420, 28862.00
526.0220, 29002.00
527.2010, 29225.00
528.3810, 29331.08
529.5610, 29581.00
530.7400, 29495.00
531.9190, 29569.00
533.0980, 29626.00
534.2770, 29782.00
535.4560, 29702.00
536.6340, 29828.00
537.8120, 29978.00
538.9910, 29841.00
540.1690, 29768.00
541.3460, 29831.00
542.5240, 29741.00
543.7020, 29574.00
544.8790, 29485.00
546.0560, 29410.00
547.2330, 29261.00
548.4100, 29229.54
549.5870, 29100.00
550.7630, 29090.00
551.9400, 28996.00
553.1160, 28832.00
554.2920, 28830.00
555.4680, 28640.00
556.6440, 28629.00
557.8190, 28524.00
558.9950, 28503.00
560.1700, 28205.00
561.3450, 28234.00
562.5200, 28448.00
563.6950, 28465.00
564.8690, 28219.00
566.0440, 28052.00
567.2180, 28130.00
568.3920, 28117.00
569.5660, 28043.00
570.7400, 27918.00
571.9130, 27900.00
573.0870, 27928.00
574.2600, 27621.00
575.4330, 27736.00
576.6060, 27400.00
577.7790, 27432.00
578.9520, 27108.00
580.1240, 27316.00
581.2960, 27217.00
582.4690, 27028.00
583.6410, 27100.00
584.8120, 26896.00
585.9840, 26968.00
587.1560, 26984.00
588.3270, 26683.00
589.4980, 26688.00
590.6690, 26931.00
591.8400, 26898.00
593.0110, 26605.00
594.1810, 26759.00
595.3510, 26803.00
596.5220, 26647.00
597.6920, 26824.00
598.8610, 26822.00
600.0310, 26651.00
601.2010, 27025.00
602.3700, 26965.00
603.5390, 27486.00
604.7080, 26797.00
605.8770, 26693.00
607.0460, 26831.00
608.2140, 26840.00
609.3830, 26716.00
610.5510, 26653.00
611.7190, 26742.00
612.8870, 26731.00
614.0550, 27020.00
615.2220, 27146.00
616.3900, 26977.00
617.5570, 26709.00
618.7240, 26965.00
619.8910, 26861.00
621.0580, 26896.00
622.2240, 26855.00
623.3910, 26757.00
624.5570, 26956.00
625.7230, 26927.00
626.8890, 26904.00
628.0550, 26958.00
629.2200, 27046.00
630.3860, 27147.00
631.5510, 27147.24
632.7160, 27069.00
633.8810, 27100.00
635.0460, 27158.00
636.2100, 27015.00
637.3750, 27203.00
638.5390, 27083.00
639.7030, 26976.00
640.8670, 27231.00
642.0310, 27044.00
643.1950, 27140.00
644.3580, 27168.00
645.5210, 26896.00
646.6850, 26968.00
647.8480, 27149.00
649.0100, 27119.00
650.1730, 27055.00
651.3350, 27007.00
652.4980, 27090.00
653.6600, 27168.00
654.8220, 27263.00
655.9840, 27245.00
657.1450, 26986.00
658.3070, 27213.00
659.4680, 26981.00
660.6300, 27241.00
661.7910, 27566.00
662.9510, 27141.00
664.1120, 27534.00
665.2730, 27248.00
666.4330, 27424.00
667.5930, 27545.00
668.7530, 27661.00
669.9130, 27780.00
671.0730, 27816.98
672.2320, 27678.00
673.3920, 27896.00
674.5510, 27762.00
675.7100, 27844.00
676.8690, 28102.00
678.0280, 27951.00
679.1860, 28190.00
680.3450, 28284.00
681.5030, 28067.00
682.6610, 28294.00
683.8190, 28554.00
684.9770, 28805.00
686.1340, 28847.00
687.2920, 28837.00
688.4490, 28709.00
689.6060, 29152.00
690.7630, 29081.00
691.9200, 29108.00
693.0760, 29363.00
694.2330, 29221.00
695.3890, 29311.00
696.5450, 29140.00
697.7010, 29102.00
698.8570, 28989.00
700.0130, 29043.00
701.1680, 28914.00
702.3230, 28749.00
703.4780, 29014.00
704.6330, 28666.00
705.7880, 28470.00
706.9430, 28535.00
708.0970, 28591.00
709.2520, 28446.00
710.4060, 28533.00
711.5600, 28372.00
712.7140, 28326.00
713.8670, 28314.00
715.0210, 28323.00
716.1740, 28132.00
717.3270, 27942.00
718.4800, 28142.00
719.6330, 27898.00
720.7860, 28090.00
721.9380, 28033.00
723.0910, 28047.00
724.2430, 27930.00
725.3950, 27952.00
726.5470, 27921.00
727.6980, 28071.00
728.8500, 27881.00
730.0010, 27990.00
731.1530, 27716.00
732.3040, 28012.00
733.4550, 27867.00
734.6050, 28029.00
735.7560, 27812.00
736.9060, 27943.00
738.0560, 27721.00
739.2060, 27889.00
740.3560, 27925.00
741.5060, 27942.00
742.6560, 27951.00
743.8050, 27824.00
744.9540, 27833.00
746.1030, 27971.00
747.2520, 27902.00
748.4010, 28013.00
749.5500, 28109.00
750.6980, 27825.00
751.8460, 27950.00
752.9950, 28019.00
754.1420, 28106.00
755.2900, 27992.00
756.4380, 28254.00
757.5850, 28113.00
758.7330, 28220.00
759.8800, 28240.00
761.0270, 28312.00
762.1730, 28205.00
763.3200, 28243.00
764.4670, 28228.00
765.6130, 28171.00
766.7590, 28310.00
767.9050, 28506.00
769.0510, 28404.00
770.1960, 28498.00
771.3420, 28490.00
772.4870, 28587.00
773.6320, 28517.00
774.7770, 28358.00
775.9220, 28458.00
777.0670, 28399.00
778.2110, 28480.00
779.3560, 28539.00
780.5000, 28515.00
781.6440, 28661.00
782.7880, 28688.00
783.9320, 28443.00
785.0750, 28660.00
786.2180, 28702.00
787.3620, 28883.00
788.5050, 29003.00
789.6480, 28559.00
790.7900, 28588.00
791.9330, 28680.00
793.0750, 28910.00
794.2170, 28543.00
795.3590, 28758.00
796.5010, 28662.00
797.6430, 28874.00
798.7850, 28759.00
799.9260, 28761.00
801.0670, 28943.00
802.2080, 28752.00
803.3490, 28893.00
804.4900, 28927.00
805.6310, 28856.00
806.7710, 28830.00
807.9110, 29044.00
809.0510, 29235.00
810.1910, 28965.00
811.3310, 28994.00
812.4710, 28878.00
813.6100, 29096.00
814.7490, 29153.00
815.8880, 29082.00
817.0270, 29302.00
818.1660, 29279.00
819.3050, 29215.00
820.4430, 29136.00
821.5820, 29240.00
822.7200, 29223.74
823.8580, 29420.00
824.9950, 29384.00
826.1330, 29388.00
827.2710, 29574.00
828.4080, 29601.48
829.5450, 29595.00
830.6820, 29770.00
831.8190, 29765.00
832.9560, 29724.37
834.0920, 30087.00
835.2280, 29911.00
836.3650, 29960.00
837.5010, 30225.00
838.6360, 30261.00
839.7720, 30427.00
840.9080, 30678.00
842.0430, 30642.00
843.1780, 30880.00
844.3130, 31165.00
845.4480, 31531.52
846.5830, 31688.87
847.7170, 31849.19
848.8520, 32029.00
849.9860, 32117.00
851.1200, 32206.00
852.2540, 32554.00
853.3870, 32946.00
854.5210, 33386.00
855.6540, 33890.12
856.7880, 34325.00
857.9210, 34955.26
859.0540, 35628.00
860.1860, 36093.00
861.3190, 36857.00
862.4510, 37691.00
863.5840, 38925.00
864.7160, 39985.00
865.8480, 41458.00
866.9790, 43137.00
868.1110, 44475.00
869.2420, 46735.00
870.3740, 49094.00
871.5050, 51304.00
872.6360, 53576.00
873.7660, 56176.00
874.8970, 58370.00
876.0280, 60745.00
877.1580, 62769.00
878.2880, 63953.00
879.4180, 64208.00
880.5480, 63997.00
881.6770, 63079.00
882.8070, 61729.00
883.9360, 59943.00
885.0650, 57645.00
886.1940, 55390.00
887.3230, 53018.00
888.4520, 50542.00
889.5800, 48517.00
890.7090, 46609.00
891.8370, 44166.00
892.9650, 42622.00
894.0930, 41058.00
895.2200, 39319.00
896.3480, 38218.00
897.4750, 36966.00
898.6020, 35859.00
899.7290, 35127.00
900.8560, 34266.00
901.9830, 33494.00
903.1090, 33033.00
904.2360, 32570.00
905.3620, 32132.00
906.4880, 31720.00
907.6140, 31716.00
908.7400, 31336.00
909.8650, 30971.00
910.9900, 30579.00
912.1160, 30358.00
913.2410, 30377.00
914.3660, 30226.00
915.4900, 30219.00
916.6150, 30066.00
917.7390, 29991.00
918.8640, 29850.00
919.9880, 29829.00
921.1120, 29634.00
922.2350, 29644.00
923.3590, 29391.00
924.4820, 29404.00
925.6060, 29506.00
926.7290, 29345.00
927.8520, 29230.00
928.9740, 29578.00
930.0970, 29092.00
931.2190, 29140.00
932.3420, 29301.00
933.4640, 29079.00
934.5860, 29186.00
935.7080, 29144.00
936.8290, 29177.00
937.9510, 29271.00
939.0720, 29193.00
940.1930, 29211.00
941.3140, 29350.00
942.4350, 29015.00
943.5560, 29089.00
944.6760, 29170.00
945.7960, 28906.00
946.9170, 29132.00
948.0370, 29170.00
949.1560, 29008.00
950.2760, 29121.00
951.3960, 29125.00
952.5150, 29008.00
953.6340, 29148.00
954.7530, 29084.00
955.8720, 29173.00
956.9910, 29116.00
958.1090, 29225.00
959.2280, 28940.00
960.3460, 29088.00
961.4640, 29025.00
962.5820, 29105.00
963.6990, 29326.00
964.8170, 29001.00
965.9340, 29197.00
967.0510, 29110.00
968.1690, 28994.00
969.2850, 28879.00
970.4020, 29191.00
971.5190, 28964.00
972.6350, 29020.00
973.7510, 28913.00
974.8670, 29185.00
975.9830, 28906.00
977.0990, 29156.00
978.2150, 29015.00
979.3300, 28977.00
980.4450, 28921.00
981.5600, 29080.00
982.6750, 29071.00
983.7900, 28958.00
984.9050, 28863.00
986.0190, 28990.00
987.1340, 29368.00
988.2480, 29003.00
989.3620, 29073.00
990.4750, 29072.00
991.5890, 28848.00
992.7020, 28908.00
993.8160, 28920.00
994.9290, 28851.00
996.0420, 28950.00
997.1550, 28895.00
998.2670, 29008.00
999.3800, 29058.00
1000.492, 29111.00
1001.604, 29189.00
1002.716, 28937.00
1003.828, 28983.00
1004.940, 29010.00
1006.051, 29205.00
1007.163, 29190.00
1008.274, 29148.00
1009.385, 29139.00
1010.496, 29152.00
1011.606, 29213.00
1012.717, 29193.00
1013.827, 29155.00
1014.937, 29234.00
1016.047, 29057.00
1017.157, 29118.00
1018.267, 29060.00
1019.377, 29164.00
1020.486, 29291.00
1021.595, 29113.00
1022.704, 29266.00
1023.813, 29283.00
1024.922, 29236.00
1026.030, 29054.00
1027.139, 29268.00
1028.247, 29150.00
1029.355, 29230.00
1030.463, 29166.00
1031.571, 29324.00
1032.678, 29170.00
1033.786, 29144.00
1034.893, 29322.00
1036.000, 29227.00
1037.107, 29452.00
1038.214, 29296.00
1039.321, 29594.00
1040.427, 29316.00
1041.533, 29679.00
1042.639, 29372.00
1043.745, 29423.00
1044.851, 29363.00
1045.957, 29373.00
1047.062, 29482.00
1048.168, 29332.00
1049.273, 29421.00
1050.378, 29249.00
1051.482, 29429.00
1052.587, 29449.00
1053.692, 29334.00
1054.796, 29385.00
1055.900, 29549.00
1057.004, 29314.00
1058.108, 29593.00
1059.212, 29367.00
1060.315, 29660.00
1061.418, 29510.00
1062.522, 29625.00
1063.625, 29577.00
1064.728, 29589.91
1065.830, 29553.00
1066.933, 29687.00
1068.035, 29544.00
1069.137, 29666.00
1070.239, 29701.00
1071.341, 29635.00
1072.443, 29718.00
1073.545, 29449.00
1074.646, 29518.00
1075.747, 29738.00
1076.848, 29644.00
1077.949, 29425.00
1079.050, 29505.00
1080.150, 29531.00
1081.251, 29563.00
1082.351, 29559.00
1083.451, 29578.00
1084.551, 29850.00
1085.651, 29615.00
1086.750, 29817.00
1087.850, 29600.00
1088.949, 29496.00
1090.048, 29644.00
1091.147, 29662.00
1092.246, 29663.00
1093.345, 29740.44
1094.443, 29584.00
1095.541, 29789.00
1096.639, 29779.00
1097.737, 29752.00
1098.835, 29872.04
1099.933, 29669.00
1101.030, 29869.00
1102.128, 29593.00
1103.225, 29306.00
1104.322, 29513.00
1105.419, 29704.00
1106.515, 29792.00
1107.612, 29870.78
1108.708, 29831.00
1109.804, 29811.00
1110.900, 29861.00
1111.996, 29615.00
1113.092, 29738.00
1114.187, 29489.00
1115.283, 29705.00
1116.378, 29630.00
1117.473, 29702.00
1118.568, 29645.00
1119.662, 29666.00
1120.757, 29581.00
1121.851, 29598.00
1122.946, 29572.00
1124.040, 29918.00
1125.134, 29652.00
1126.227, 29742.00
1127.321, 29517.00
1128.414, 29537.00
1129.508, 29683.00
1130.601, 29469.00
1131.693, 29185.00
1132.786, 29612.00
1133.879, 29477.00
1134.971, 29303.00
1136.064, 29582.00
1137.156, 29628.00
1138.248, 29367.00
1139.339, 29450.00
1140.431, 29497.00
1141.522, 29481.00
1142.614, 29367.00
1143.705, 29375.00
1144.796, 29374.83
1145.887, 29468.00
1146.977, 29484.00
1148.068, 29512.00
1149.158, 29538.47
1150.248, 29611.00
1151.338, 29553.00
1152.428, 29457.00
1153.518, 29458.77
1154.607, 29627.00
1155.696, 29456.00
1156.785, 29402.00
1157.874, 29386.00
1158.963, 29182.00
1160.052, 29365.00
1161.141, 29306.00
1162.229, 29295.00
1163.317, 29460.00
1164.405, 29405.00
1165.493, 29585.00
1166.581, 29348.00
1167.668, 29438.00
1168.756, 29346.00
1169.843, 29344.00
1170.930, 29509.00
1172.017, 29303.00
1173.103, 29396.00
1174.190, 29558.00
1175.276, 29333.00
1176.363, 29415.00
1177.449, 29617.00
1178.535, 29532.00
1179.620, 29424.00
1180.706, 29483.00
1181.791, 29622.00
1182.877, 29417.00
1183.962, 29393.00
1185.047, 29532.00
1186.131, 29260.00
1187.216, 29451.00
1188.300, 29429.00
1189.385, 29380.00
1190.469, 29385.00
1191.553, 29237.00
1192.637, 29277.57
1193.720, 29327.00
1194.804, 29373.00
1195.887, 29209.00
1196.970, 29419.00
1198.053, 29488.00
1199.136, 29593.00
1200.219, 29371.00
1201.301, 29296.00
1202.383, 29499.00
1203.465, 29268.00
1204.547, 29564.00
1205.629, 29386.00
1206.711, 29510.00
1207.792, 29266.00
1208.874, 29283.00
1209.955, 29421.00
1211.036, 29522.00
1212.117, 29415.00
1213.198, 29461.00
1214.278, 29364.00
1215.359, 29509.00
1216.439, 29508.72
1217.519, 29577.64
1218.599, 29576.00
1219.678, 29594.00
1220.758, 29538.00
1221.837, 29200.00
1222.917, 29313.00
1223.996, 29355.00
1225.075, 29229.00
1226.153, 29462.00
1227.232, 29545.00
1228.310, 29463.00
1229.389, 29416.00
1230.467, 29442.01
1231.545, 29576.00
1232.622, 29480.00
1233.700, 29544.00
1234.777, 29660.00
1235.855, 29666.00
1236.932, 29441.00
1238.009, 29446.00
1239.086, 29503.00
1240.162, 29218.00
1241.239, 29583.00
1242.315, 29334.00
1243.391, 29547.00
1244.467, 29566.00
1245.543, 29304.00
1246.619, 29599.00
1247.694, 29492.00
1248.769, 29283.00
1249.844, 29441.00
1250.919, 29375.00
1251.994, 29584.00
1253.069, 29377.00
1254.144, 29358.00
1255.218, 29448.00
1256.292, 29526.00
1257.366, 29488.00
1258.440, 29237.00
1259.514, 29270.00
1260.587, 29427.00
1261.661, 29583.00
1262.734, 29244.00
1263.807, 29445.00
1264.880, 29814.00
1265.952, 29449.00
1267.025, 29470.00
1268.097, 29206.00
1269.170, 29389.00
1270.242, 29359.00
1271.314, 29452.00
1272.385, 29368.00
1273.457, 29362.00
1274.528, 29746.00
1275.600, 29562.00
1276.671, 29562.00
1277.742, 29623.00
1278.812, 29419.00
1279.883, 29559.00
1280.954, 29564.00
