##NAMES=Ferberite
##RRUFFID=R040044
##IDEAL CHEMISTRY=Fe^2+^W^6+^O_4_
##LOCALITY=Chocote, Bolivia
##OWNER=RRUFF
##SOURCE=University of Arizona Mineral Museum
##DESCRIPTION=Black tabular single crystal
##STATUS=The identification of this mineral has been confirmed by X-ray diffraction and chemical analysis
##URL=rruff.info/R040044
##MEASURED CHEMISTRY=(Fe_0.82_Mn_0.08_Mg_0.07_Pb_0.03_)_Î£=1_W_1.00_O_4_
##PIN_ID=L01748
##ORIENTATION=Laser parallel to (1 0 1). Fiducial mark perpendicular to laser is parallel to b [0 1 0]
96.51900, 21970.02
97.76500, 21530.00
99.01100, 21990.00
100.2570, 21811.00
101.5030, 21629.00
102.7490, 21979.00
103.9940, 22707.00
105.2390, 24041.00
106.4840, 24269.64
107.7290, 24431.31
108.9740, 25174.00
110.2180, 24313.00
111.4620, 24377.00
112.7060, 24916.00
113.9500, 25519.00
115.1940, 25874.00
116.4370, 25794.00
117.6800, 24871.00
118.9230, 23755.00
120.1660, 22764.00
121.4090, 22734.00
122.6510, 23252.00
123.8940, 23483.00
125.1360, 22919.00
126.3770, 22972.00
127.6190, 23532.00
128.8600, 24612.00
130.1020, 25318.00
131.3430, 26945.00
132.5840, 27268.00
133.8240, 27818.00
135.0650, 26932.00
136.3050, 25980.00
137.5450, 25179.00
138.7850, 24380.00
140.0250, 23660.96
141.2640, 23027.00
142.5030, 22503.00
143.7430, 22217.00
144.9810, 22006.00
146.2200, 22150.00
147.4590, 22161.00
148.6970, 22358.00
149.9350, 22257.00
151.1730, 22636.00
152.4110, 22891.00
153.6480, 22411.00
154.8860, 22691.00
156.1230, 22657.00
157.3600, 22526.00
158.5960, 22423.00
159.8330, 22416.00
161.0690, 22637.00
162.3050, 22709.00
163.5410, 22984.00
164.7770, 22970.00
166.0130, 22773.00
167.2480, 22939.47
168.4830, 22832.24
169.7180, 22985.00
170.9530, 22797.00
172.1880, 22791.00
173.4220, 22795.00
174.6560, 22819.00
175.8900, 22976.27
177.1240, 23413.00
178.3580, 23452.00
179.5910, 23688.00
180.8250, 24146.00
182.0580, 23641.00
183.2900, 23660.00
184.5230, 23398.00
185.7560, 23683.00
186.9880, 23559.00
188.2200, 23680.00
189.4520, 23629.00
190.6830, 23952.00
191.9150, 23889.00
193.1460, 23687.00
194.3770, 24050.00
195.6080, 24260.00
196.8390, 24220.00
198.0700, 24364.00
199.3000, 24719.00
200.5300, 24984.00
201.7600, 25371.00
202.9900, 25093.00
204.2190, 24604.00
205.4490, 23833.00
206.6780, 23771.00
207.9070, 23746.00
209.1360, 23875.00
210.3640, 24067.00
211.5930, 24353.00
212.8210, 24505.00
214.0490, 24378.00
215.2770, 24061.00
216.5040, 23765.00
217.7320, 23762.00
218.9590, 23546.00
220.1860, 23588.00
221.4130, 23052.00
222.6400, 23059.00
223.8660, 22911.00
225.0920, 22907.00
226.3190, 22669.00
227.5450, 22786.00
228.7700, 22598.00
229.9960, 22459.00
231.2210, 22433.00
232.4460, 22538.00
233.6710, 22614.00
234.8960, 22563.00
236.1210, 22540.00
237.3450, 22548.00
238.5690, 22506.00
239.7930, 22569.00
241.0170, 22681.00
242.2410, 22292.00
243.4640, 22419.00
244.6870, 22481.00
245.9100, 22603.00
247.1330, 22552.00
248.3560, 22426.00
249.5780, 22522.00
250.8000, 22401.00
252.0230, 22515.00
253.2440, 22637.00
254.4660, 22632.00
255.6880, 22562.00
256.9090, 22799.00
258.1300, 23320.00
259.3510, 23156.78
260.5720, 23225.45
261.7920, 23063.00
263.0130, 23034.00
264.2330, 22812.00
265.4530, 22930.00
266.6730, 22977.00
267.8920, 23081.00
269.1120, 23064.00
270.3310, 23143.00
271.5500, 23237.00
272.7690, 23370.00
273.9880, 23445.00
275.2060, 23358.00
276.4240, 23579.00
277.6430, 23345.00
278.8600, 23581.00
280.0780, 23497.00
281.2960, 23547.00
282.5130, 23473.00
283.7300, 23310.00
284.9470, 23440.00
286.1640, 23243.00
287.3810, 23192.00
288.5970, 23372.00
289.8130, 23487.00
291.0290, 23344.00
292.2450, 23552.00
293.4610, 23476.00
294.6760, 23366.00
295.8910, 23530.00
297.1060, 23685.00
298.3210, 23896.00
299.5360, 23935.00
300.7510, 24152.00
301.9650, 24199.84
303.1790, 23943.00
304.3930, 24229.00
305.6070, 24088.00
306.8200, 23902.00
308.0340, 24078.00
309.2470, 23897.00
310.4600, 23847.00
311.6730, 23730.00
312.8850, 24014.00
314.0980, 23840.00
315.3100, 23955.00
316.5220, 23880.00
317.7340, 24121.00
318.9460, 24073.00
320.1570, 24188.00
321.3690, 24210.00
322.5800, 24612.00
323.7910, 24591.00
325.0010, 24817.00
326.2120, 24854.00
327.4220, 25124.00
328.6330, 25349.00
329.8430, 25359.00
331.0520, 25411.00
332.2620, 25523.00
333.4720, 25575.00
334.6810, 25303.00
335.8900, 25364.36
337.0990, 25208.33
338.3070, 25187.00
339.5160, 25030.00
340.7240, 24886.00
341.9320, 24953.00
343.1400, 24893.00
344.3480, 24990.00
345.5560, 24965.77
346.7630, 24666.00
347.9700, 24874.00
349.1770, 24960.00
350.3840, 24742.00
351.5910, 24882.00
352.7970, 24751.00
354.0040, 24743.00
355.2100, 24760.00
356.4160, 24659.29
357.6220, 24804.00
358.8270, 24592.00
360.0320, 24653.00
361.2380, 24752.00
362.4430, 24875.00
363.6470, 24814.00
364.8520, 24791.00
366.0560, 24804.00
367.2610, 24500.00
368.4650, 24754.00
369.6690, 24925.00
370.8720, 24564.00
372.0760, 24789.00
373.2790, 25007.00
374.4820, 24801.00
375.6850, 24720.00
376.8880, 24525.00
378.0910, 24594.00
379.2930, 24693.00
380.4950, 24539.00
381.6970, 24528.00
382.8990, 24750.00
384.1010, 24691.00
385.3020, 24576.00
386.5040, 24795.00
387.7050, 24687.00
388.9060, 24598.00
390.1060, 24579.00
391.3070, 24794.00
392.5070, 25009.00
393.7080, 25177.00
394.9080, 25227.00
396.1070, 25157.00
397.3070, 25351.00
398.5070, 25579.00
399.7060, 25657.00
400.9050, 26036.00
402.1040, 26214.00
403.3030, 26180.00
404.5010, 26453.00
405.7000, 26038.00
406.8980, 26249.00
408.0960, 25964.00
409.2940, 25413.00
410.4910, 25574.00
411.6890, 25455.00
412.8860, 25044.00
414.0830, 25269.00
415.2800, 25208.00
416.4770, 25223.00
417.6730, 25105.00
418.8690, 25002.00
420.0660, 25073.00
421.2620, 24944.00
422.4570, 25109.00
423.6530, 25200.00
424.8480, 25132.00
426.0440, 25159.00
427.2390, 24883.00
428.4340, 24881.00
429.6280, 25103.00
430.8230, 25093.00
432.0170, 25376.00
433.2110, 25067.00
434.4050, 25253.00
435.5990, 25176.00
436.7930, 25196.00
437.9860, 25222.42
439.1800, 25270.42
440.3730, 25264.50
441.5660, 25286.04
442.7580, 25292.00
443.9510, 25268.94
445.1430, 25339.05
446.3350, 25276.00
447.5270, 25409.00
448.7190, 25209.00
449.9110, 25362.00
451.1020, 25369.00
452.2930, 25423.00
453.4850, 25478.00
454.6750, 25502.20
455.8660, 25360.00
457.0570, 25569.00
458.2470, 25555.00
459.4370, 25571.00
460.6270, 25710.00
461.8170, 25511.00
463.0070, 25758.00
464.1960, 25664.00
465.3850, 25582.00
466.5750, 25505.00
467.7630, 25691.00
468.9520, 25775.00
470.1410, 25872.00
471.3290, 25825.00
472.5170, 25831.00
473.7050, 25865.00
474.8930, 25757.00
476.0810, 25811.00
477.2680, 25713.00
478.4560, 26006.00
479.6430, 26017.00
480.8300, 25936.00
482.0160, 25960.00
483.2030, 25905.00
484.3890, 26017.00
485.5760, 26015.00
486.7620, 25919.00
487.9480, 26105.00
489.1330, 26138.00
490.3190, 26280.00
491.5040, 26055.00
492.6890, 26349.00
493.8740, 26381.00
495.0590, 26324.00
496.2440, 26501.00
497.4280, 26227.00
498.6120, 26437.00
499.7960, 26526.00
500.9800, 26404.00
502.1640, 26651.00
503.3470, 26830.00
504.5310, 26770.00
505.7140, 26698.00
506.8970, 26843.00
508.0800, 26761.00
509.2620, 26799.00
510.4450, 26975.00
511.6270, 26954.00
512.8090, 27107.00
513.9910, 27017.00
515.1730, 27019.00
516.3550, 27154.00
517.5360, 27189.00
518.7170, 27302.00
519.8980, 27167.00
521.0790, 27211.00
522.2600, 27119.00
523.4400, 27409.00
524.6210, 27381.00
525.8010, 27455.00
526.9810, 27307.00
528.1610, 27556.00
529.3400, 27343.00
530.5200, 27529.00
531.6990, 27671.00
532.8780, 27462.00
534.0570, 27814.00
535.2360, 27641.62
536.4140, 27702.00
537.5930, 27551.00
538.7710, 27687.00
539.9490, 27796.00
541.1270, 27710.00
542.3040, 27737.00
543.4820, 27527.00
544.6590, 27563.00
545.8360, 27819.00
547.0130, 27645.00
548.1900, 27792.00
549.3670, 27679.00
550.5430, 27700.00
551.7190, 27543.00
552.8960, 27599.00
554.0710, 27592.00
555.2470, 27497.00
556.4230, 27728.00
557.5980, 27652.00
558.7730, 27710.00
559.9480, 27499.00
561.1230, 27498.00
562.2980, 27587.00
563.4720, 27297.00
564.6470, 27401.00
565.8210, 27575.00
566.9950, 27446.00
568.1690, 27471.00
569.3420, 27166.00
570.5160, 27409.00
571.6890, 27455.00
572.8620, 27513.00
574.0350, 27208.00
575.2080, 27243.00
576.3800, 27191.00
577.5530, 27262.00
578.7250, 27010.00
579.8970, 26952.00
581.0690, 26930.00
582.2410, 26752.00
583.4120, 26799.00
584.5830, 26823.00
585.7550, 26580.00
586.9260, 26691.00
588.0960, 26647.00
589.2670, 26489.00
590.4380, 26491.00
591.6080, 26467.00
592.7780, 26508.00
593.9480, 26484.00
595.1180, 26364.00
596.2870, 26481.00
597.4570, 26386.00
598.6260, 26503.00
599.7950, 26683.00
600.9640, 26545.00
602.1330, 26630.00
603.3010, 26652.11
604.4700, 26594.00
605.6380, 26717.00
606.8060, 26624.00
607.9740, 26705.00
609.1420, 26604.00
610.3090, 26710.00
611.4760, 26702.00
612.6440, 26754.00
613.8110, 26794.18
614.9770, 26729.00
616.1440, 26882.00
617.3110, 26730.00
618.4770, 26816.00
619.6430, 26866.00
620.8090, 26764.00
621.9750, 26837.00
623.1400, 26709.00
624.3060, 26839.00
625.4710, 26767.00
626.6360, 26854.24
627.8010, 26695.00
628.9660, 26993.00
630.1300, 26993.00
631.2950, 26953.00
632.4590, 26836.00
633.6230, 27006.00
634.7870, 27072.00
635.9510, 27074.00
637.1140, 27024.00
638.2780, 26925.00
639.4410, 27005.00
640.6040, 27053.00
641.7670, 27202.00
642.9290, 27012.00
644.0920, 26918.00
645.2540, 27052.00
646.4160, 27084.00
647.5780, 27142.90
648.7400, 27269.00
649.9020, 27297.00
651.0630, 27342.00
652.2250, 27370.00
653.3860, 27211.00
654.5470, 27369.00
655.7080, 27413.00
656.8680, 27301.00
658.0290, 27752.00
659.1890, 27541.00
660.3490, 27858.00
661.5090, 27705.00
662.6690, 27768.00
663.8280, 27842.00
664.9880, 28012.00
666.1470, 28010.00
667.3060, 28111.00
668.4650, 28217.20
669.6240, 28272.00
670.7820, 28410.00
671.9410, 28451.00
673.0990, 28524.00
674.2570, 28580.00
675.4150, 28747.00
676.5720, 28794.00
677.7300, 29041.00
678.8870, 29086.00
680.0450, 29441.00
681.2020, 29427.00
682.3590, 29696.00
683.5150, 29802.00
684.6720, 29919.00
685.8280, 30234.00
686.9840, 30567.00
688.1400, 30761.00
689.2960, 30866.00
690.4520, 30891.00
691.6070, 31081.00
692.7630, 31206.00
693.9180, 31381.00
695.0730, 31404.33
696.2280, 31395.00
697.3820, 31373.00
698.5370, 31239.00
699.6910, 31113.00
700.8450, 31416.00
701.9990, 31290.00
703.1530, 32119.00
704.3070, 31327.00
705.4600, 31415.00
706.6130, 30533.00
707.7660, 29889.00
708.9190, 29887.00
710.0720, 29585.00
711.2250, 29519.00
712.3770, 29496.00
713.5300, 29368.00
714.6820, 29143.00
715.8340, 29041.00
716.9850, 28888.00
718.1370, 28838.00
719.2880, 28713.00
720.4400, 28625.17
721.5910, 28529.44
722.7420, 28500.00
723.8930, 28369.00
725.0430, 28403.00
726.1940, 28433.00
727.3440, 28365.00
728.4940, 28184.00
729.6440, 28088.00
730.7940, 28126.00
731.9430, 28029.00
733.0930, 28203.00
734.2420, 28072.00
735.3910, 28205.00
736.5400, 28008.00
737.6890, 28082.00
738.8370, 28126.00
739.9860, 28142.00
741.1340, 28257.00
742.2820, 28222.50
743.4300, 28214.20
744.5780, 28120.00
745.7250, 28149.00
746.8730, 27940.00
748.0200, 27952.00
749.1670, 27861.00
750.3140, 28033.00
751.4610, 28173.00
752.6070, 27759.00
753.7540, 28023.00
754.9000, 27915.00
756.0460, 28560.00
757.1920, 28166.00
758.3380, 28200.00
759.4830, 28085.00
760.6280, 28086.00
761.7740, 28259.00
762.9190, 28000.00
764.0640, 28185.00
765.2080, 28188.00
766.3530, 28300.00
767.4970, 28431.00
768.6420, 28277.00
769.7860, 28282.00
770.9300, 28286.00
772.0730, 28362.00
773.2170, 28353.00
774.3600, 28489.00
775.5040, 28268.00
776.6470, 28552.00
777.7900, 28577.00
778.9320, 28424.00
780.0750, 28621.00
781.2170, 28689.00
782.3600, 28684.00
783.5020, 28635.00
784.6440, 28443.00
785.7850, 28581.00
786.9270, 28439.00
788.0680, 28442.00
789.2100, 28453.00
790.3510, 28728.00
791.4920, 28480.00
792.6320, 28634.00
793.7730, 28376.00
794.9130, 28343.00
796.0540, 28437.00
797.1940, 28424.00
798.3340, 28527.00
799.4730, 28617.00
800.6130, 28609.67
801.7520, 28639.00
802.8920, 28654.00
804.0310, 28664.00
805.1700, 28727.00
806.3090, 28771.00
807.4470, 28735.00
808.5860, 28404.00
809.7240, 28646.00
810.8620, 28480.00
812.0000, 28704.00
813.1380, 28675.00
814.2750, 28618.00
815.4130, 28776.00
816.5500, 28770.00
817.6870, 28734.00
818.8240, 28701.00
819.9610, 28832.00
821.0980, 29032.00
822.2340, 29047.00
823.3700, 28696.00
824.5070, 29026.00
825.6430, 28912.00
826.7780, 29071.00
827.9140, 29134.00
829.0500, 28866.00
830.1850, 29068.00
831.3200, 29038.00
832.4550, 29114.00
833.5900, 29240.00
834.7250, 29322.00
835.8590, 29389.00
836.9930, 29503.00
838.1280, 29384.00
839.2620, 29631.00
840.3950, 29469.00
841.5290, 29649.00
842.6630, 29646.00
843.7960, 29778.00
844.9290, 29895.00
846.0620, 29951.00
847.1950, 30183.26
848.3280, 30460.00
849.4600, 30605.00
850.5930, 30718.00
851.7250, 30883.88
852.8570, 30920.00
853.9890, 31325.00
855.1210, 31483.00
856.2520, 31785.00
857.3840, 32339.00
858.5150, 32577.00
859.6460, 32841.00
860.7770, 33366.00
861.9080, 33633.00
863.0380, 34580.00
864.1690, 35258.00
865.2990, 35962.00
866.4290, 37011.00
867.5590, 37780.00
868.6890, 38886.00
869.8190, 40032.00
870.9480, 41443.00
872.0770, 43035.00
873.2070, 44889.00
874.3360, 46557.00
875.4640, 48128.00
876.5930, 49704.00
877.7220, 50736.00
878.8500, 51549.00
879.9780, 51864.92
881.1060, 51714.24
882.2340, 51307.00
883.3620, 50392.00
884.4890, 49003.00
885.6170, 47706.00
886.7440, 45959.00
887.8710, 44537.00
888.9980, 42915.00
890.1240, 41486.00
891.2510, 40114.00
892.3770, 39017.00
893.5040, 37732.00
894.6300, 36731.00
895.7560, 35444.00
896.8810, 34866.00
898.0070, 34186.00
899.1330, 33576.00
900.2580, 32657.00
901.3830, 32183.00
902.5080, 31932.00
903.6330, 31479.00
904.7570, 31324.00
905.8820, 31062.00
907.0060, 30799.00
908.1300, 30515.00
909.2540, 30239.00
910.3780, 30022.00
911.5020, 30054.00
912.6250, 29928.00
913.7490, 29627.00
914.8720, 29874.00
915.9950, 29643.00
917.1180, 29459.00
918.2400, 29433.00
919.3630, 29175.00
920.4850, 29374.00
921.6080, 29174.00
922.7300, 29368.00
923.8520, 29178.00
924.9730, 29351.00
926.0950, 29070.00
927.2160, 29274.00
928.3380, 28969.00
929.4590, 29011.00
930.5800, 28886.00
931.7010, 28823.85
932.8210, 29011.00
933.9420, 28800.00
935.0620, 28804.00
936.1820, 28835.00
937.3020, 29052.00
938.4220, 28854.00
939.5420, 28867.00
940.6610, 28953.00
941.7810, 28813.00
942.9000, 28923.00
944.0190, 29013.00
945.1380, 29056.00
946.2570, 29017.00
947.3750, 28926.00
948.4940, 28887.00
949.6120, 28898.00
950.7300, 29078.00
951.8480, 28815.00
952.9660, 28733.00
954.0830, 29005.00
955.2010, 28864.00
956.3180, 28957.00
957.4350, 29025.00
958.5520, 28991.00
959.6690, 28998.00
960.7860, 28986.85
961.9020, 28996.00
963.0190, 28912.00
964.1350, 28870.00
965.2510, 28787.00
966.3670, 28753.00
967.4830, 28990.00
968.5980, 28702.00
969.7140, 28623.00
970.8290, 28935.00
971.9440, 28960.00
973.0590, 28928.00
974.1740, 29024.00
975.2880, 28831.00
976.4030, 28860.00
977.5170, 28676.00
978.6310, 28701.26
979.7450, 28827.00
980.8590, 28807.00
981.9730, 28830.00
983.0860, 29024.00
984.2000, 29044.00
985.3130, 28874.00
986.4260, 28990.00
987.5390, 29062.00
988.6520, 28920.00
989.7640, 28936.00
990.8770, 28990.00
991.9890, 28969.00
993.1010, 28794.00
994.2130, 29088.00
995.3250, 28973.00
996.4370, 29140.00
997.5480, 28915.00
998.6590, 29023.00
999.7710, 28735.00
1000.882, 28662.00
1001.993, 29028.00
1003.103, 28795.00
1004.214, 28936.00
1005.324, 28978.00
1006.434, 28854.00
1007.545, 28927.00
1008.655, 28985.00
1009.764, 29066.00
1010.874, 29132.00
1011.983, 29036.00
1013.093, 28974.00
1014.202, 28969.00
1015.311, 28927.00
1016.420, 28981.96
1017.528, 29094.00
1018.637, 29099.00
1019.745, 29126.00
1020.854, 29141.00
1021.962, 28944.00
1023.070, 28788.00
1024.177, 28859.00
1025.285, 29072.00
1026.392, 29124.00
1027.500, 29186.21
1028.607, 28885.00
1029.714, 29258.00
1030.821, 29131.00
1031.927, 29175.00
1033.034, 29299.00
1034.140, 29079.00
1035.246, 29150.00
1036.352, 29168.00
1037.458, 29188.00
1038.564, 29241.43
1039.670, 29341.00
1040.775, 29310.00
1041.880, 29403.00
1042.986, 29412.89
1044.090, 29287.00
1045.195, 29298.00
1046.300, 29257.00
1047.404, 29205.00
1048.509, 29245.00
1049.613, 29171.00
1050.717, 29203.79
1051.821, 29222.28
1052.925, 29315.00
1054.028, 29294.00
1055.132, 29313.55
1056.235, 29290.65
1057.338, 29317.00
1058.441, 29260.00
1059.544, 29295.00
1060.647, 29418.00
1061.749, 29350.00
1062.851, 29362.00
1063.954, 29316.00
1065.056, 29502.00
1066.158, 29569.00
1067.259, 29553.00
1068.361, 29428.00
1069.462, 29686.00
1070.564, 29621.00
1071.665, 29532.00
1072.766, 29640.00
1073.867, 29530.40
1074.967, 29484.00
1076.068, 29501.00
1077.168, 29396.00
1078.268, 29516.00
1079.368, 29794.00
1080.468, 29546.00
1081.568, 29669.00
1082.668, 29422.00
1083.767, 29530.00
1084.866, 29546.00
1085.966, 29620.00
1087.065, 29482.00
1088.163, 29461.00
1089.262, 29497.00
1090.361, 29608.00
1091.459, 29693.00
1092.557, 29664.00
1093.655, 29611.00
1094.753, 29606.00
1095.851, 29563.00
1096.949, 29543.00
1098.046, 29563.00
1099.143, 29668.00
1100.241, 29489.00
1101.338, 29523.00
1102.434, 29641.00
1103.531, 29406.00
1104.628, 29717.00
1105.724, 29710.00
1106.820, 29398.00
1107.916, 29450.00
1109.012, 29541.00
1110.108, 29622.00
1111.204, 29749.00
1112.299, 29526.00
1113.395, 29555.00
1114.490, 29438.00
1115.585, 29572.00
1116.680, 29629.00
1117.775, 29447.00
1118.869, 29735.00
1119.964, 29654.00
1121.058, 29633.00
1122.152, 29512.00
1123.246, 29605.00
1124.340, 29551.00
1125.434, 29521.00
1126.527, 29549.00
1127.620, 29495.00
1128.714, 29532.00
1129.807, 29478.00
1130.900, 29490.00
1131.992, 29395.00
1133.085, 29588.00
1134.178, 29581.00
1135.270, 29475.00
1136.362, 29315.00
1137.454, 29439.00
1138.546, 29716.00
1139.638, 29503.00
1140.729, 29246.00
1141.821, 29568.00
1142.912, 29304.00
1144.003, 29448.00
1145.094, 29446.02
1146.185, 29302.75
1147.276, 29454.00
1148.366, 29211.00
1149.456, 29269.00
1150.547, 29458.00
1151.637, 29396.00
1152.727, 29369.00
1153.816, 29355.00
1154.906, 29136.00
1155.995, 29161.00
1157.085, 29307.00
1158.174, 29150.00
1159.263, 29202.00
1160.352, 29424.00
1161.441, 29101.00
1162.529, 29339.00
1163.618, 29606.00
1164.706, 29300.00
1165.794, 29242.00
1166.882, 29434.00
1167.970, 29404.00
1169.058, 29366.00
1170.145, 29405.00
1171.232, 29283.00
1172.320, 29464.00
1173.407, 29437.00
1174.494, 29315.00
1175.580, 29387.00
1176.667, 29369.00
1177.754, 29595.00
1178.840, 29047.00
1179.926, 29412.00
1181.012, 29438.00
1182.098, 29144.00
1183.184, 29381.00
1184.269, 29348.00
1185.355, 29347.00
1186.440, 29280.00
1187.525, 29376.00
1188.610, 29202.00
1189.695, 29044.00
1190.780, 29248.00
1191.864, 29428.00
1192.949, 29225.00
1194.033, 29245.00
1195.117, 29239.00
1196.201, 29235.00
1197.285, 29547.00
1198.369, 29397.00
1199.452, 29584.00
1200.536, 29555.16
1201.619, 29394.00
1202.702, 29471.00
1203.785, 29358.00
1204.868, 29313.00
1205.950, 29329.86
1207.033, 29251.00
1208.115, 29335.00
1209.197, 29361.00
1210.279, 29398.00
1211.361, 29514.00
1212.443, 29337.00
1213.525, 29375.00
1214.606, 29406.00
1215.687, 29524.00
1216.769, 29513.55
1217.850, 29407.00
1218.930, 29522.00
1220.011, 29411.00
1221.092, 29362.00
1222.172, 29281.00
1223.252, 29308.00
1224.333, 29237.00
1225.413, 29321.00
1226.492, 29366.00
1227.572, 29500.00
1228.652, 29550.00
1229.731, 29513.00
1230.810, 29454.00
1231.889, 29432.00
1232.968, 29109.00
1234.047, 29333.00
1235.126, 29446.00
1236.204, 29288.00
1237.283, 29564.00
1238.361, 29408.00
1239.439, 29433.00
1240.517, 29408.00
1241.595, 29465.00
1242.673, 29268.00
1243.750, 29465.00
1244.827, 29389.00
1245.905, 29644.00
1246.982, 29463.00
1248.059, 29490.00
1249.135, 29278.00
1250.212, 29411.00
1251.288, 29303.00
1252.365, 29416.00
1253.441, 29236.00
1254.517, 29294.00
1255.593, 29321.00
1256.669, 29513.00
1257.744, 29699.00
1258.820, 29496.00
1259.895, 29320.00
1260.970, 29491.00
1262.045, 29344.00
1263.120, 29464.00
1264.195, 29340.00
1265.270, 29233.00
1266.344, 29449.00
1267.418, 29371.00
1268.492, 29588.00
1269.566, 29382.00
1270.640, 29228.00
1271.714, 29401.00
1272.788, 29435.00
1273.861, 29353.00
1274.934, 29353.00
1276.007, 29365.60
1277.080, 29429.00
1278.153, 29397.00
1279.226, 29422.00
