##NAMES=Ferberite
##RRUFFID=R050090
##IDEAL CHEMISTRY=Fe^2+^W^6+^O_4_
##LOCALITY=Yaogangxian mine, Cheng Zhu City, South Hunan, China
##OWNER=RRUFF
##SOURCE=Rock Currier
##DESCRIPTION=Dark gray tabular crystal
##STATUS=The identification of this mineral has been confirmed by X-ray diffraction and chemical analysis
##URL=rruff.info/R050090
##MEASURED CHEMISTRY=(Fe^2+^_0.56_Mn_0.44_)W_1.00_O_4_
##PIN_ID=L01304
##ORIENTATION=Laser parallel to -b* (0 -1 0). Fiducial mark perpendicular to laser is parallel to c [0 0 1]
98.41600, 20936.00
99.64900, 20789.00
100.8830, 20930.00
102.1160, 20608.00
103.3490, 20788.00
104.5820, 21283.00
105.8150, 21754.00
107.0470, 22694.00
108.2800, 23706.00
109.5120, 25096.00
110.7440, 24795.00
111.9760, 23535.00
113.2080, 23186.00
114.4400, 23561.00
115.6710, 24076.00
116.9030, 24314.00
118.1340, 24095.00
119.3650, 24163.00
120.5960, 23332.00
121.8270, 22666.00
123.0580, 22393.00
124.2880, 22607.00
125.5190, 23115.00
126.7490, 24042.00
127.9790, 24889.00
129.2090, 25572.00
130.4390, 25481.00
131.6680, 24680.00
132.8980, 23419.00
134.1270, 22520.00
135.3560, 21720.00
136.5850, 21227.00
137.8140, 21305.00
139.0430, 21167.00
140.2710, 20970.00
141.5000, 21140.00
142.7280, 20618.00
143.9560, 20425.00
145.1840, 20459.00
146.4120, 20448.00
147.6390, 20296.00
148.8670, 20368.00
150.0940, 20230.00
151.3210, 20416.00
152.5490, 20659.00
153.7750, 20723.00
155.0020, 20455.00
156.2290, 20206.00
157.4550, 20388.00
158.6810, 20301.00
159.9080, 20217.00
161.1340, 20461.00
162.3590, 20313.00
163.5850, 20296.00
164.8110, 20407.00
166.0360, 20524.00
167.2610, 20603.00
168.4860, 20502.00
169.7110, 20736.00
170.9360, 20678.00
172.1610, 20805.00
173.3850, 20647.00
174.6100, 20582.00
175.8340, 20804.00
177.0580, 20794.00
178.2820, 20651.00
179.5050, 20733.00
180.7290, 20616.00
181.9520, 20496.00
183.1760, 20746.00
184.3990, 20839.00
185.6220, 20957.00
186.8450, 21041.00
188.0670, 21193.00
189.2900, 21109.00
190.5120, 21326.00
191.7340, 21419.00
192.9560, 21713.00
194.1780, 21734.00
195.4000, 21745.00
196.6220, 21932.00
197.8430, 22418.00
199.0640, 22704.00
200.2860, 22918.00
201.5070, 23523.00
202.7270, 23896.00
203.9480, 24187.00
205.1690, 24150.00
206.3890, 23614.00
207.6090, 23111.00
208.8290, 22608.00
210.0490, 22243.00
211.2690, 21944.00
212.4890, 21593.00
213.7080, 21460.00
214.9280, 21250.00
216.1470, 21021.12
217.3660, 20930.00
218.5850, 20708.00
219.8030, 20607.00
221.0220, 20631.00
222.2400, 20538.00
223.4590, 20642.00
224.6770, 20767.00
225.8950, 20446.00
227.1120, 20592.00
228.3300, 20597.00
229.5480, 20468.00
230.7650, 20454.00
231.9820, 20500.00
233.1990, 20481.00
234.4160, 20633.00
235.6330, 20525.00
236.8490, 20566.00
238.0660, 20652.00
239.2820, 20463.00
240.4980, 20564.00
241.7140, 20499.00
242.9300, 20620.00
244.1460, 20427.00
245.3610, 20661.00
246.5770, 20490.00
247.7920, 20486.00
249.0070, 20677.00
250.2220, 20838.00
251.4370, 20660.00
252.6510, 20825.00
253.8660, 21023.00
255.0800, 21019.00
256.2940, 21158.00
257.5080, 21392.00
258.7220, 21540.00
259.9360, 22789.00
261.1490, 22302.53
262.3630, 22454.00
263.5760, 21938.00
264.7890, 21793.00
266.0020, 21639.00
267.2150, 21744.00
268.4270, 21529.00
269.6400, 21709.00
270.8520, 21380.00
272.0640, 21195.00
273.2760, 21136.00
274.4880, 21139.00
275.7000, 21060.00
276.9120, 21190.00
278.1230, 21229.00
279.3340, 21112.00
280.5450, 20997.00
281.7560, 20934.00
282.9670, 21044.00
284.1780, 21081.00
285.3880, 20998.00
286.5980, 20962.00
287.8090, 21008.00
289.0190, 20899.00
290.2290, 20937.00
291.4380, 21128.00
292.6480, 21128.00
293.8570, 20932.00
295.0670, 21083.00
296.2760, 21071.00
297.4850, 21357.00
298.6930, 21133.00
299.9020, 21300.00
301.1110, 21427.00
302.3190, 21420.00
303.5270, 21347.00
304.7350, 21491.00
305.9430, 21562.00
307.1510, 21691.00
308.3580, 21799.00
309.5660, 21936.00
310.7730, 22024.00
311.9800, 22359.00
313.1870, 22415.00
314.3940, 22636.00
315.6010, 23255.00
316.8070, 23393.00
318.0130, 23726.00
319.2200, 24277.00
320.4260, 24727.00
321.6310, 25216.00
322.8370, 25572.00
324.0430, 25665.00
325.2480, 25809.00
326.4540, 25941.00
327.6590, 25998.00
328.8640, 25669.00
330.0680, 25527.00
331.2730, 25222.00
332.4780, 24742.00
333.6820, 24475.00
334.8860, 24314.00
336.0900, 23785.00
337.2940, 23561.00
338.4980, 23405.00
339.7010, 23276.00
340.9050, 23101.00
342.1080, 22714.00
343.3110, 22738.00
344.5140, 22462.00
345.7170, 22390.00
346.9200, 22450.00
348.1220, 22204.00
349.3240, 22424.00
350.5270, 22434.00
351.7290, 22099.00
352.9310, 22273.00
354.1320, 22158.00
355.3340, 22165.00
356.5350, 22142.00
357.7370, 22081.00
358.9380, 22154.00
360.1390, 22021.00
361.3400, 22137.00
362.5400, 22095.00
363.7410, 21793.00
364.9410, 21949.00
366.1410, 22049.00
367.3410, 22183.00
368.5410, 21994.00
369.7410, 21908.00
370.9400, 21949.00
372.1400, 21922.00
373.3390, 21848.00
374.5380, 22022.00
375.7370, 22106.00
376.9360, 21876.00
378.1350, 21969.00
379.3330, 22091.00
380.5310, 21943.00
381.7300, 22018.00
382.9280, 22114.00
384.1260, 22172.00
385.3230, 21967.00
386.5210, 22316.00
387.7180, 22300.00
388.9160, 22528.00
390.1130, 22665.00
391.3100, 22850.00
392.5060, 23059.00
393.7030, 23248.00
394.9000, 23590.00
396.0960, 24039.00
397.2920, 23955.00
398.4880, 24047.00
399.6840, 23999.00
400.8800, 23800.00
402.0750, 23619.00
403.2710, 23442.00
404.4660, 22939.00
405.6610, 23044.00
406.8560, 22660.00
408.0510, 22552.00
409.2450, 22620.00
410.4400, 22647.00
411.6340, 22519.00
412.8280, 22531.00
414.0220, 22301.00
415.2160, 22490.00
416.4100, 22259.00
417.6030, 22323.00
418.7970, 22269.00
419.9900, 22385.00
421.1830, 22353.00
422.3760, 22264.00
423.5690, 22438.00
424.7610, 22266.00
425.9540, 22357.00
427.1460, 22235.00
428.3380, 22435.00
429.5300, 22378.00
430.7220, 22353.00
431.9140, 22530.00
433.1050, 22379.00
434.2970, 22438.00
435.4880, 22562.00
436.6790, 22485.00
437.8700, 22481.00
439.0610, 22579.00
440.2510, 22485.00
441.4420, 22427.00
442.6320, 22439.00
443.8220, 22718.00
445.0120, 22561.00
446.2020, 22648.00
447.3910, 22771.00
448.5810, 22690.00
449.7700, 22661.00
450.9600, 22669.00
452.1490, 22789.00
453.3370, 22642.00
454.5260, 22777.00
455.7150, 22771.00
456.9030, 22760.00
458.0910, 22723.00
459.2800, 22694.00
460.4670, 22623.00
461.6550, 22775.00
462.8430, 22772.00
464.0300, 22688.00
465.2180, 22873.00
466.4050, 22704.00
467.5920, 22753.00
468.7790, 22892.00
469.9650, 22759.00
471.1520, 22839.00
472.3380, 23057.00
473.5250, 22843.00
474.7110, 22865.00
475.8970, 22993.00
477.0820, 22883.00
478.2680, 22859.00
479.4540, 22955.00
480.6390, 23120.00
481.8240, 22954.00
483.0090, 22962.00
484.1940, 23165.00
485.3780, 22992.00
486.5630, 22810.00
487.7470, 23110.00
488.9320, 22996.00
490.1160, 23040.00
491.3000, 23228.00
492.4830, 23280.00
493.6670, 23155.00
494.8500, 23041.00
496.0340, 23017.00
497.2170, 23172.00
498.4000, 23282.00
499.5820, 23112.00
500.7650, 23040.00
501.9480, 23238.00
503.1300, 23219.00
504.3120, 23430.00
505.4940, 23340.00
506.6760, 23371.00
507.8580, 23111.00
509.0390, 23241.00
510.2210, 23355.00
511.4020, 23399.00
512.5830, 23425.00
513.7640, 23367.00
514.9450, 23517.00
516.1250, 23472.00
517.3060, 23534.00
518.4860, 23501.00
519.6660, 23428.00
520.8460, 23504.00
522.0260, 23472.00
523.2060, 23672.00
524.3850, 23588.00
525.5650, 23771.00
526.7440, 23775.00
527.9230, 23925.00
529.1020, 23684.00
530.2810, 23783.00
531.4590, 23815.00
532.6380, 23916.00
533.8160, 23824.00
534.9940, 23952.00
536.1720, 24083.00
537.3500, 24003.00
538.5270, 24122.00
539.7050, 23922.00
540.8820, 23879.00
542.0590, 24002.00
543.2360, 24087.00
544.4130, 23894.00
545.5900, 23986.10
546.7660, 24175.00
547.9430, 23966.00
549.1190, 23939.00
550.2950, 23982.00
551.4710, 23950.00
552.6470, 23887.00
553.8220, 23856.00
554.9980, 23925.00
556.1730, 23786.00
557.3480, 23915.00
558.5230, 23864.00
559.6980, 23889.00
560.8730, 23893.00
562.0470, 23893.00
563.2220, 23929.00
564.3960, 23972.00
565.5700, 23837.00
566.7440, 23949.00
567.9170, 23886.00
569.0910, 23731.00
570.2640, 23792.00
571.4380, 23804.00
572.6110, 23990.00
573.7840, 23713.00
574.9570, 23734.00
576.1290, 23669.00
577.3020, 23545.00
578.4740, 23748.00
579.6460, 23607.00
580.8180, 23732.00
581.9900, 23578.00
583.1620, 23539.00
584.3330, 23472.00
585.5040, 23443.00
586.6760, 23277.00
587.8470, 23247.00
589.0180, 23402.00
590.1880, 23320.00
591.3590, 23447.00
592.5290, 23340.00
593.7000, 23449.00
594.8700, 23368.00
596.0400, 23275.00
597.2090, 23491.00
598.3790, 23227.00
599.5490, 23663.00
600.7180, 23453.74
601.8870, 23814.00
603.0560, 23261.00
604.2250, 23475.00
605.3940, 23435.00
606.5620, 23374.00
607.7300, 23383.00
608.8990, 23513.00
610.0670, 23538.38
611.2350, 23572.00
612.4020, 23583.00
613.5700, 23720.00
614.7370, 23432.00
615.9050, 23716.00
617.0720, 23485.00
618.2390, 23493.00
619.4060, 23537.00
620.5720, 23560.00
621.7390, 23562.87
622.9050, 23572.00
624.0710, 23561.00
625.2370, 23583.00
626.4030, 23571.64
627.5690, 23619.62
628.7340, 23710.00
629.9000, 23722.00
631.0650, 23836.00
632.2300, 23898.00
633.3950, 23811.00
634.5600, 23858.00
635.7240, 23892.00
636.8890, 23772.00
638.0530, 23703.00
639.2170, 23805.00
640.3810, 23777.00
641.5450, 23948.00
642.7080, 23835.00
643.8720, 23832.00
645.0350, 23811.00
646.1980, 23960.00
647.3610, 24068.00
648.5240, 23898.00
649.6870, 24202.00
650.8490, 23956.00
652.0120, 23806.00
653.1740, 24035.00
654.3360, 24088.00
655.4980, 23847.00
656.6600, 24139.00
657.8210, 24137.00
658.9830, 24244.00
660.1440, 24280.00
661.3050, 24172.00
662.4660, 24183.00
663.6270, 24280.00
664.7870, 24384.00
665.9480, 24363.00
667.1080, 24599.00
668.2680, 24716.00
669.4280, 24587.00
670.5880, 24740.00
671.7480, 24766.00
672.9070, 24704.00
674.0670, 24946.00
675.2260, 25271.00
676.3850, 25322.00
677.5440, 25638.00
678.7030, 25750.00
679.8610, 25998.00
681.0200, 26028.00
682.1780, 26234.00
683.3360, 26549.00
684.4940, 26625.00
685.6520, 26847.00
686.8090, 26821.00
687.9670, 27211.00
689.1240, 27204.00
690.2810, 27304.00
691.4380, 27599.00
692.5950, 27512.00
693.7520, 27653.00
694.9080, 27538.00
696.0650, 27529.00
697.2210, 27626.00
698.3770, 27303.00
699.5330, 27147.00
700.6880, 27219.00
701.8440, 26743.00
702.9990, 26560.00
704.1550, 26543.00
705.3100, 26211.00
706.4650, 26108.00
707.6190, 25928.00
708.7740, 25718.00
709.9290, 25748.00
711.0830, 25331.00
712.2370, 25309.00
713.3910, 25472.00
714.5450, 25176.00
715.6980, 25033.00
716.8520, 24852.00
718.0050, 24750.00
719.1580, 24693.00
720.3110, 24830.00
721.4640, 24634.00
722.6170, 24727.00
723.7700, 24650.00
724.9220, 24554.00
726.0740, 24561.00
727.2260, 24382.00
728.3780, 24348.00
729.5300, 24269.00
730.6810, 24276.98
731.8330, 24362.00
732.9840, 24334.00
734.1350, 24285.00
735.2860, 24235.00
736.4370, 24347.00
737.5880, 24153.00
738.7380, 24082.00
739.8880, 24401.00
741.0390, 24213.00
742.1890, 24170.00
743.3380, 24358.00
744.4880, 24426.00
745.6380, 24275.00
746.7870, 24143.00
747.9360, 24439.00
749.0850, 24178.00
750.2340, 24370.00
751.3830, 24180.00
752.5310, 24434.00
753.6800, 24272.00
754.8280, 24232.00
755.9760, 24358.00
757.1240, 24597.00
758.2720, 24413.00
759.4190, 24450.00
760.5670, 24447.00
761.7140, 24442.00
762.8610, 24468.46
764.0080, 24481.98
765.1550, 24492.00
766.3020, 24519.00
767.4480, 24513.00
768.5950, 24493.00
769.7410, 24461.02
770.8870, 24553.00
772.0330, 24391.00
773.1780, 24466.00
774.3240, 24512.00
775.4690, 24754.00
776.6140, 24555.00
777.7590, 24642.00
778.9040, 24728.00
780.0490, 24533.00
781.1940, 24770.00
782.3380, 24600.00
783.4820, 24572.00
784.6260, 24518.00
785.7700, 24746.00
786.9140, 24423.00
788.0580, 24773.00
789.2010, 24641.00
790.3450, 24576.52
791.4880, 24678.60
792.6310, 24734.23
793.7730, 24745.93
794.9160, 24582.06
796.0590, 24644.89
797.2010, 24616.88
798.3430, 24585.14
799.4850, 24679.88
800.6270, 24541.55
801.7690, 24634.29
802.9100, 24634.79
804.0520, 24845.00
805.1930, 24792.00
806.3340, 25070.00
807.4750, 25018.22
808.6160, 24683.00
809.7560, 24940.00
810.8970, 24816.00
812.0370, 24713.00
813.1770, 24798.00
814.3170, 24731.00
815.4570, 25002.00
816.5960, 24751.00
817.7360, 24790.00
818.8750, 24950.00
820.0140, 24803.00
821.1530, 25031.00
822.2920, 25010.00
823.4310, 24976.00
824.5690, 25078.00
825.7070, 25181.00
826.8460, 25153.00
827.9840, 25152.00
829.1220, 25121.00
830.2590, 25307.00
831.3970, 25286.00
832.5340, 25277.00
833.6710, 25542.00
834.8080, 25391.00
835.9450, 25348.00
837.0820, 25711.00
838.2190, 25529.00
839.3550, 25716.00
840.4910, 26020.00
841.6270, 25794.00
842.7630, 26126.00
843.8990, 26131.79
845.0350, 26225.77
846.1700, 26289.00
847.3060, 26531.00
848.4410, 26683.00
849.5760, 26938.00
850.7100, 27206.00
851.8450, 27261.00
852.9800, 27806.00
854.1140, 28146.00
855.2480, 28320.00
856.3820, 28870.00
857.5160, 29208.00
858.6500, 29806.00
859.7830, 30324.00
860.9170, 31027.00
862.0500, 31669.00
863.1830, 32726.00
864.3160, 33519.00
865.4480, 34612.00
866.5810, 36003.00
867.7130, 37393.00
868.8460, 39036.00
869.9780, 40852.00
871.1100, 43469.00
872.2410, 45672.00
873.3730, 48161.00
874.5050, 50960.00
875.6360, 53743.00
876.7670, 56322.00
877.8980, 58550.00
879.0290, 60015.00
880.1590, 60783.00
881.2900, 60755.00
882.4200, 59962.00
883.5500, 57909.00
884.6800, 55476.00
885.8100, 52630.00
886.9400, 49270.00
888.0690, 46233.00
889.1990, 43066.00
890.3280, 40363.00
891.4570, 38488.00
892.5860, 36145.00
893.7140, 34739.00
894.8430, 33072.00
895.9710, 31959.00
897.1000, 30993.00
898.2280, 30191.00
899.3560, 29556.00
900.4830, 28865.00
901.6110, 28537.00
902.7380, 28129.00
903.8660, 27735.00
904.9930, 27560.00
906.1200, 27395.00
907.2460, 27186.00
908.3730, 26758.00
909.5000, 26663.00
910.6260, 26462.00
911.7520, 26396.00
912.8780, 26419.00
914.0040, 26287.00
915.1290, 26089.00
916.2550, 26078.00
917.3800, 25826.00
918.5050, 25762.00
919.6300, 25488.00
920.7550, 25513.00
921.8800, 25584.00
923.0040, 25423.00
924.1290, 25361.00
925.2530, 25403.00
926.3770, 25494.00
927.5010, 25305.00
928.6250, 25446.00
929.7480, 25313.00
930.8720, 25352.00
931.9950, 25240.00
933.1180, 25273.00
934.2410, 25312.00
935.3640, 25401.00
936.4860, 25404.00
937.6090, 25116.00
938.7310, 25070.00
939.8530, 25137.00
940.9750, 25282.00
942.0970, 25299.00
943.2180, 25135.00
944.3400, 25183.00
945.4610, 25219.00
946.5820, 25295.00
947.7030, 24985.00
948.8240, 25236.00
949.9450, 25076.00
951.0650, 25223.00
952.1860, 25169.00
953.3060, 25188.00
954.4260, 24982.00
955.5460, 25194.00
956.6650, 24930.00
957.7850, 25131.00
958.9040, 25101.00
960.0230, 25004.00
961.1420, 25065.00
962.2610, 25032.00
963.3800, 25084.00
964.4990, 24900.00
965.6170, 24835.00
966.7350, 24986.00
967.8530, 25124.00
968.9710, 25141.00
970.0890, 25066.00
971.2070, 25114.00
972.3240, 25105.00
973.4410, 25034.00
974.5580, 25110.00
975.6750, 24900.00
976.7920, 25071.00
977.9090, 24933.00
979.0250, 24988.00
980.1410, 25144.00
981.2580, 25100.00
982.3740, 25060.00
983.4890, 25083.00
984.6050, 25053.84
985.7200, 25046.66
986.8360, 25067.00
987.9510, 25040.00
989.0660, 25086.13
990.1810, 25113.00
991.2950, 25052.00
992.4100, 25124.00
993.5240, 25033.00
994.6390, 25054.00
995.7530, 25056.00
996.8660, 24907.00
997.9800, 25038.00
999.0940, 24960.00
1000.207, 25198.00
1001.320, 24768.00
1002.433, 25079.00
1003.546, 25006.00
1004.659, 25203.00
1005.772, 24932.00
1006.884, 25107.00
1007.996, 24869.00
1009.108, 25139.00
1010.220, 25116.00
1011.332, 24988.00
1012.444, 25165.00
1013.555, 25136.00
1014.666, 25149.00
1015.777, 25083.00
1016.888, 25041.00
1017.999, 25080.33
1019.110, 25308.00
1020.220, 25099.00
1021.331, 25117.00
1022.441, 25014.00
1023.551, 25246.00
1024.661, 25167.00
1025.770, 25050.00
1026.880, 25321.00
1027.989, 25195.00
1029.098, 25182.00
1030.207, 25152.00
1031.316, 25133.89
1032.425, 25269.00
1033.533, 25164.00
1034.642, 25231.00
1035.750, 25261.00
1036.858, 25169.00
1037.966, 25221.00
1039.073, 25206.00
1040.181, 25297.00
1041.288, 25295.67
1042.396, 25205.00
1043.503, 25328.00
1044.610, 25302.97
1045.716, 25310.65
1046.823, 25318.00
1047.929, 25378.00
1049.036, 25378.00
1050.142, 25323.00
1051.248, 25286.00
1052.353, 25239.00
1053.459, 25460.00
1054.564, 25313.00
1055.670, 25426.00
1056.775, 25280.00
1057.880, 25271.00
1058.985, 25410.00
1060.089, 25343.00
1061.194, 25318.00
1062.298, 25454.00
1063.402, 25509.00
1064.506, 25390.00
1065.610, 25343.00
1066.713, 25423.00
1067.817, 25455.00
1068.920, 25379.00
1070.023, 25429.00
1071.126, 25472.00
1072.229, 25239.00
1073.332, 25346.00
1074.435, 25297.00
1075.537, 25489.00
1076.639, 25439.00
1077.741, 25505.00
1078.843, 25431.00
1079.945, 25368.00
1081.046, 25317.00
1082.148, 25523.00
1083.249, 25498.00
1084.350, 25418.00
1085.451, 25644.00
1086.551, 25467.00
1087.652, 25466.00
1088.752, 25489.00
1089.853, 25519.00
1090.953, 25429.00
1092.053, 25488.00
1093.152, 25431.06
1094.252, 25468.00
1095.351, 25367.00
1096.451, 25379.00
1097.550, 25375.00
1098.649, 25388.00
1099.748, 25462.00
1100.846, 25433.00
1101.945, 25494.00
1103.043, 25413.00
1104.141, 25315.00
1105.239, 25254.00
1106.337, 25181.00
1107.434, 25180.00
1108.532, 25567.00
1109.629, 25476.00
1110.726, 25576.00
1111.823, 25366.00
1112.920, 25515.00
1114.017, 25387.00
1115.113, 25636.00
1116.210, 25527.00
1117.306, 25509.00
1118.402, 25371.00
1119.498, 25540.00
1120.593, 25412.00
1121.689, 25629.00
1122.784, 25364.00
1123.879, 25385.00
1124.974, 25641.00
1126.069, 25496.00
1127.164, 25564.00
1128.259, 25563.00
1129.353, 25474.00
1130.447, 25509.00
1131.541, 25185.00
1132.635, 25341.00
1133.729, 25237.00
1134.822, 25219.00
1135.916, 25396.00
1137.009, 25358.00
1138.102, 25236.00
1139.195, 25135.00
1140.288, 25323.00
1141.380, 25321.00
1142.473, 25068.00
1143.565, 25255.00
1144.657, 25179.00
1145.749, 25445.00
1146.841, 25200.00
1147.932, 25244.00
1149.024, 25236.00
1150.115, 25369.00
1151.206, 25268.00
1152.297, 25273.00
1153.388, 25150.00
1154.479, 25003.00
1155.569, 25080.00
1156.659, 25154.00
1157.750, 25216.00
1158.839, 25375.00
1159.929, 25132.00
1161.019, 25257.00
1162.108, 25116.00
1163.198, 25141.00
1164.287, 25318.00
1165.376, 24921.00
1166.465, 25293.00
1167.553, 25092.00
1168.642, 25226.00
1169.730, 25034.00
1170.818, 25314.00
1171.906, 25260.00
1172.994, 25093.00
1174.082, 25110.00
1175.170, 25167.00
1176.257, 25154.00
1177.344, 25149.00
1178.431, 25179.00
1179.518, 25090.00
1180.605, 25177.00
1181.691, 25135.00
1182.778, 25016.00
1183.864, 25066.00
1184.950, 24991.57
1186.036, 25009.00
1187.122, 24953.00
1188.207, 25090.00
1189.292, 25139.00
1190.378, 25254.00
1191.463, 25237.35
1192.548, 25112.00
1193.632, 25188.00
1194.717, 25152.00
1195.801, 25149.00
1196.886, 25132.00
1197.970, 25102.00
1199.054, 25239.00
1200.137, 24946.00
1201.221, 25194.00
1202.305, 25051.00
1203.388, 25152.00
1204.471, 25222.00
1205.554, 25144.00
1206.637, 25110.00
1207.719, 25119.53
1208.802, 25237.00
1209.884, 25098.00
1210.966, 25164.00
1212.048, 25167.00
1213.130, 25069.00
1214.212, 24992.00
1215.293, 25159.00
1216.374, 25217.00
1217.456, 25301.00
1218.536, 25274.70
1219.617, 25124.00
1220.698, 25153.00
1221.778, 25039.00
1222.859, 24986.00
1223.939, 25027.00
1225.019, 25035.63
1226.099, 25267.00
1227.178, 25210.00
1228.258, 25150.00
1229.337, 25293.00
1230.417, 25160.00
1231.496, 25091.00
1232.574, 25175.00
1233.653, 25186.00
1234.732, 25201.00
1235.810, 25275.00
1236.888, 25154.00
1237.966, 25399.00
1239.044, 25130.00
1240.122, 24984.00
1241.199, 25266.00
1242.277, 24979.00
1243.354, 25016.00
1244.431, 25056.00
1245.508, 25192.00
1246.585, 25002.00
1247.661, 25073.00
1248.738, 25041.00
1249.814, 24917.00
1250.890, 25151.00
1251.966, 25182.00
1253.042, 25118.00
1254.117, 25289.00
1255.193, 25122.00
1256.268, 25245.00
1257.343, 25150.00
1258.418, 25091.00
1259.493, 25268.00
1260.567, 25157.00
1261.642, 25379.00
1262.716, 25523.38
1263.790, 25804.00
1264.864, 25750.00
1265.938, 25383.00
1267.011, 25060.00
1268.085, 25123.00
1269.158, 25019.00
1270.231, 25117.00
1271.304, 25206.00
1272.377, 25126.00
1273.450, 25061.00
1274.522, 25166.00
1275.594, 25104.00
1276.666, 25200.00
1277.738, 25345.00
1278.810, 24879.00
1279.882, 25042.00
