##NAMES=Ferberite
##RRUFFID=R050632
##IDEAL CHEMISTRY=Fe^2+^W^6+^O_4_
##LOCALITY=Chance mine, Boulder, Colorado, USA
##OWNER=RRUFF
##SOURCE=University of Arizona Mineral Museum
##DESCRIPTION=Dark brown rectangular prismatic crystals
##STATUS=The identification of this mineral has been confirmed by X-ray diffraction and chemical analysis
##URL=rruff.info/R050632
##MEASURED CHEMISTRY=Fe^2+^_1.00_WO_4_
##PIN_ID=M00317
##ORIENTATION=Laser parallel to (1 0 1). Fiducial mark perpendicular to laser is parallel to b [0 1 0]
238.0660, 25156.00
239.2820, 25102.45
240.4980, 24928.00
241.7140, 24930.00
242.9300, 24953.00
244.1460, 24752.00
245.3610, 25076.00
246.5770, 25009.00
247.7920, 24892.00
249.0070, 25022.00
250.2220, 25247.00
251.4370, 25299.90
252.6510, 25377.00
253.8660, 25361.22
255.0800, 25648.11
256.2940, 25827.74
257.5080, 25905.89
258.7220, 25578.59
259.9360, 25774.85
261.1490, 25761.25
262.3630, 25739.09
263.5760, 26009.00
264.7890, 25740.64
266.0020, 26262.00
267.2150, 25937.00
268.4270, 26314.00
269.6400, 26425.00
270.8520, 26271.00
272.0640, 26314.00
273.2760, 26235.00
274.4880, 26289.00
275.7000, 26303.00
276.9120, 26298.00
278.1230, 26078.00
279.3340, 25997.00
280.5450, 25856.00
281.7560, 25679.00
282.9670, 25687.00
284.1780, 25529.00
285.3880, 25771.00
286.5980, 25553.00
287.8090, 25809.00
289.0190, 25617.00
290.2290, 25696.00
291.4380, 25700.00
292.6480, 25927.00
293.8570, 25853.00
295.0670, 25822.00
296.2760, 25820.00
297.4850, 26111.00
298.6930, 26097.00
299.9020, 26178.00
301.1110, 26247.00
302.3190, 26180.00
303.5270, 26117.00
304.7350, 26398.00
305.9430, 26530.00
307.1510, 26755.00
308.3580, 26884.18
309.5660, 26904.00
310.7730, 27115.00
311.9800, 27273.00
313.1870, 27400.00
314.3940, 27562.00
315.6010, 27945.00
316.8070, 28225.00
318.0130, 28183.00
319.2200, 28647.00
320.4260, 29300.00
321.6310, 29296.00
322.8370, 29898.00
324.0430, 29810.00
325.2480, 30189.00
326.4540, 30282.00
327.6590, 30384.00
328.8640, 30258.00
330.0680, 30209.00
331.2730, 29966.00
332.4780, 29942.00
333.6820, 29648.00
334.8860, 29267.00
336.0900, 29278.00
337.2940, 28879.00
338.4980, 28947.00
339.7010, 28658.45
340.9050, 28577.00
342.1080, 28135.00
343.3110, 28271.00
344.5140, 27941.00
345.7170, 28071.00
346.9200, 27769.00
348.1220, 27677.00
349.3240, 27751.00
350.5270, 27550.00
351.7290, 27429.00
352.9310, 27665.00
354.1320, 27098.12
355.3340, 27310.93
356.5350, 27416.53
357.7370, 27420.61
358.9380, 27019.27
360.1390, 27141.48
361.3400, 27053.88
362.5400, 26957.70
363.7410, 27153.60
364.9410, 26811.26
366.1410, 27086.00
367.3410, 27067.00
368.5410, 27036.00
369.7410, 27106.00
370.9400, 27017.00
372.1400, 27168.00
373.3390, 26984.00
374.5380, 27223.00
375.7370, 27121.00
376.9360, 27123.00
378.1350, 27038.00
379.3330, 27194.00
380.5310, 27125.00
381.7300, 27054.00
382.9280, 27378.00
384.1260, 27248.00
385.3230, 27318.00
386.5210, 27593.00
387.7180, 27557.00
388.9160, 27780.00
390.1130, 28045.00
391.3100, 28366.00
392.5060, 28382.00
393.7030, 28668.00
394.9000, 29040.00
396.0960, 29546.00
397.2920, 29849.00
398.4880, 30298.00
399.6840, 30423.00
400.8800, 30736.00
402.0750, 30536.00
403.2710, 30191.00
404.4660, 30389.00
405.6610, 29572.00
406.8560, 29249.00
408.0510, 28866.00
409.2450, 28689.00
410.4400, 28422.00
411.6340, 28415.00
412.8280, 28136.00
414.0220, 28069.00
415.2160, 28100.00
416.4100, 27832.00
417.6030, 27846.00
418.7970, 27893.00
419.9900, 27715.00
421.1830, 27739.00
422.3760, 27722.00
423.5690, 27577.00
424.7610, 27691.00
425.9540, 27587.00
427.1460, 27705.00
428.3380, 27750.00
429.5300, 27639.00
430.7220, 27781.00
431.9140, 27587.00
433.1050, 27641.76
434.2970, 27703.00
435.4880, 27689.00
436.6790, 27671.00
437.8700, 27778.00
439.0610, 27722.00
440.2510, 27738.00
441.4420, 27685.00
442.6320, 27724.93
443.8220, 27760.00
445.0120, 27883.00
446.2020, 27817.00
447.3910, 28048.00
448.5810, 27911.00
449.7700, 27911.00
450.9600, 28088.00
452.1490, 27831.00
453.3370, 27893.00
454.5260, 28192.00
455.7150, 28253.00
456.9030, 28091.00
458.0910, 28144.00
459.2800, 28187.00
460.4670, 28260.00
461.6550, 28262.00
462.8430, 28199.00
464.0300, 28106.00
465.2180, 28147.00
466.4050, 28291.00
467.5920, 28396.00
468.7790, 28082.00
469.9650, 28290.00
471.1520, 28270.00
472.3380, 28615.00
473.5250, 28505.00
474.7110, 28649.00
475.8970, 28626.00
477.0820, 28608.00
478.2680, 28577.00
479.4540, 28480.00
480.6390, 29090.00
481.8240, 29076.00
483.0090, 28995.00
484.1940, 28954.00
485.3780, 28960.85
486.5630, 28950.13
487.7470, 28966.00
488.9320, 29073.00
490.1160, 29050.00
491.3000, 29267.00
492.4830, 29022.00
493.6670, 29079.00
494.8500, 29196.00
496.0340, 29390.00
497.2170, 29506.00
498.4000, 29571.00
499.5820, 29519.00
500.7650, 29787.00
501.9480, 29750.00
503.1300, 30086.00
504.3120, 29858.00
505.4940, 29911.00
506.6760, 29790.00
507.8580, 29856.00
509.0390, 29981.00
510.2210, 29910.00
511.4020, 29832.00
512.5830, 30010.00
513.7640, 30191.00
514.9450, 30297.00
516.1250, 30273.00
517.3060, 30168.00
518.4860, 30464.00
519.6660, 30554.00
520.8460, 30533.00
522.0260, 30376.00
523.2060, 30506.00
524.3850, 30391.00
525.5650, 30248.00
526.7440, 30641.00
527.9230, 30615.00
529.1020, 30315.00
530.2810, 30384.00
531.4590, 30538.00
532.6380, 30390.00
533.8160, 30579.00
534.9940, 30501.00
536.1720, 30667.00
537.3500, 30761.00
538.5270, 30619.00
539.7050, 30696.00
540.8820, 30668.00
542.0590, 31077.00
543.2360, 30909.00
544.4130, 30946.00
545.5900, 31222.00
546.7660, 31006.00
547.9430, 31181.00
549.1190, 31067.00
550.2950, 31197.00
551.4710, 31434.00
552.6470, 31279.00
553.8220, 31586.00
554.9980, 31422.00
556.1730, 31593.00
557.3480, 31377.00
558.5230, 31532.00
559.6980, 31383.00
560.8730, 31603.00
562.0470, 31556.00
563.2220, 31366.00
564.3960, 31381.00
565.5700, 31207.00
566.7440, 31310.12
567.9170, 31485.00
569.0910, 31518.00
570.2640, 31565.00
571.4380, 31626.00
572.6110, 31354.00
573.7840, 31374.00
574.9570, 31172.00
576.1290, 31065.00
577.3020, 30917.00
578.4740, 30514.00
579.6460, 30212.00
580.8180, 30083.00
581.9900, 29890.00
583.1620, 29635.00
584.3330, 29294.00
585.5040, 29132.00
586.6760, 29263.00
587.8470, 28727.00
589.0180, 28934.00
590.1880, 28469.00
591.3590, 28940.00
592.5290, 28694.00
593.7000, 28557.00
594.8700, 28824.00
596.0400, 28869.00
597.2090, 28812.00
598.3790, 28832.00
599.5490, 28797.92
600.7180, 28799.24
601.8870, 28726.00
603.0560, 28771.00
604.2250, 28745.00
605.3940, 28648.00
606.5620, 28557.00
607.7300, 28686.00
608.8990, 28647.95
610.0670, 28700.00
611.2350, 28754.00
612.4020, 28864.00
613.5700, 28926.00
614.7370, 28762.00
615.9050, 28697.00
617.0720, 28863.00
618.2390, 28910.00
619.4060, 28699.00
620.5720, 28569.00
621.7390, 28560.00
622.9050, 28915.00
624.0710, 28802.00
625.2370, 28949.00
626.4030, 28845.00
627.5690, 28769.00
628.7340, 28780.00
629.9000, 28835.00
631.0650, 29016.00
632.2300, 28923.00
633.3950, 28835.00
634.5600, 29056.00
635.7240, 29011.00
636.8890, 28830.00
638.0530, 29231.00
639.2170, 29020.00
640.3810, 28960.00
641.5450, 29238.00
642.7080, 29184.00
643.8720, 29093.00
645.0350, 29409.00
646.1980, 29218.15
647.3610, 29108.00
648.5240, 28986.00
649.6870, 28987.95
650.8490, 28929.75
652.0120, 29076.39
653.1740, 29126.00
654.3360, 29195.00
655.4980, 29412.00
656.6600, 29520.00
657.8210, 29642.00
658.9830, 29595.00
660.1440, 29636.73
661.3050, 29643.18
662.4660, 29627.00
663.6270, 29626.00
664.7870, 29715.00
665.9480, 29722.00
667.1080, 29824.00
668.2680, 29898.00
669.4280, 29913.00
670.5880, 29995.00
671.7480, 30195.00
672.9070, 30017.00
674.0670, 30601.00
675.2260, 31143.00
676.3850, 30596.00
677.5440, 30720.00
678.7030, 30449.00
679.8610, 30642.00
681.0200, 30716.00
682.1780, 30829.00
683.3360, 31064.00
684.4940, 31172.00
685.6520, 31034.00
686.8090, 31179.00
687.9670, 31111.00
689.1240, 30883.00
690.2810, 31130.00
691.4380, 31018.00
692.5950, 31059.00
693.7520, 31012.00
694.9080, 30803.00
696.0650, 30549.00
697.2210, 30494.00
698.3770, 30494.00
699.5330, 30204.00
700.6880, 30341.00
701.8440, 29931.00
702.9990, 30057.00
704.1550, 29861.00
705.3100, 29877.00
706.4650, 29774.00
707.6190, 29513.00
708.7740, 29711.00
709.9290, 29651.00
711.0830, 29417.00
712.2370, 29490.00
713.3910, 29515.00
714.5450, 29510.00
715.6980, 29609.00
716.8520, 29359.00
718.0050, 29570.00
719.1580, 29333.00
720.3110, 29379.00
721.4640, 29371.00
722.6170, 29162.00
723.7700, 29215.00
724.9220, 29425.00
726.0740, 29372.00
727.2260, 29273.00
728.3780, 29506.00
729.5300, 29371.00
730.6810, 29457.00
731.8330, 29400.00
732.9840, 29587.00
734.1350, 29408.00
735.2860, 29454.00
736.4370, 29418.00
737.5880, 29448.00
738.7380, 29454.00
739.8880, 29340.00
741.0390, 29350.00
742.1890, 29484.00
743.3380, 29588.00
744.4880, 29528.00
745.6380, 29577.00
746.7870, 29720.00
747.9360, 29639.00
749.0850, 29749.00
750.2340, 29556.00
751.3830, 29881.00
752.5310, 29802.00
753.6800, 30175.00
754.8280, 29712.00
755.9760, 29940.00
757.1240, 29772.00
758.2720, 29915.00
759.4190, 29910.00
760.5670, 30167.00
761.7140, 29929.00
762.8610, 29877.00
764.0080, 29994.00
765.1550, 30231.00
766.3020, 30035.00
767.4480, 30102.00
768.5950, 30364.00
769.7410, 30360.00
770.8870, 30243.00
772.0330, 30152.00
773.1780, 30198.49
774.3240, 30415.00
775.4690, 30288.00
776.6140, 30330.00
777.7590, 30399.00
778.9040, 30174.00
780.0490, 30378.00
781.1940, 30311.00
782.3380, 30319.00
783.4820, 30329.62
784.6260, 30436.00
785.7700, 30241.00
786.9140, 30349.00
788.0580, 30308.00
789.2010, 30104.00
790.3450, 30159.00
791.4880, 30272.00
792.6310, 30040.00
793.7730, 30196.00
794.9160, 30065.00
796.0590, 30271.00
797.2010, 30106.00
798.3430, 30121.00
799.4850, 30234.00
800.6270, 30066.00
801.7690, 30059.00
802.9100, 30145.00
804.0520, 30221.00
805.1930, 30045.00
806.3340, 30086.00
807.4750, 30230.00
808.6160, 30069.00
809.7560, 30315.00
810.8970, 30308.00
812.0370, 30728.00
813.1770, 30748.00
814.3170, 30257.00
815.4570, 30459.00
816.5960, 30264.00
817.7360, 30280.00
818.8750, 30387.00
820.0140, 30420.00
821.1530, 30442.03
822.2920, 30502.00
823.4310, 30454.00
824.5690, 30342.00
825.7070, 30302.00
826.8460, 30919.00
827.9840, 30662.00
829.1220, 30847.68
830.2590, 31471.00
831.3970, 30950.00
832.5340, 30953.00
833.6710, 31107.00
834.8080, 30976.00
835.9450, 31024.00
837.0820, 31193.00
838.2190, 31180.00
839.3550, 31636.00
840.4910, 31666.00
841.6270, 31844.00
842.7630, 32010.87
843.8990, 32108.00
845.0350, 32265.00
846.1700, 32292.00
847.3060, 32542.00
848.4410, 32735.00
849.5760, 32982.34
850.7100, 33276.40
851.8450, 33656.00
852.9800, 33904.00
854.1140, 34393.00
855.2480, 34747.00
856.3820, 35036.00
857.5160, 35610.00
858.6500, 36310.00
859.7830, 36938.00
860.9170, 37726.00
862.0500, 38695.00
863.1830, 39715.00
864.3160, 40821.09
865.4480, 41997.00
866.5810, 43450.00
867.7130, 45065.00
868.8460, 46893.00
869.9780, 48614.00
871.1100, 51293.00
872.2410, 53583.00
873.3730, 55816.00
874.5050, 57796.00
875.6360, 59931.00
876.7670, 61128.20
877.8980, 62167.00
879.0290, 62752.00
880.1590, 62241.00
881.2900, 61809.00
882.4200, 60162.00
883.5500, 58525.00
884.6800, 56678.00
885.8100, 54357.00
886.9400, 52112.00
888.0690, 50343.00
889.1990, 48333.00
890.3280, 46677.00
891.4570, 44947.00
892.5860, 43303.00
893.7140, 42332.00
894.8430, 40873.00
895.9710, 39930.00
897.1000, 38872.00
898.2280, 38316.00
899.3560, 37678.00
900.4830, 36994.00
901.6110, 36442.00
902.7380, 35950.00
903.8660, 35566.33
904.9930, 35279.00
906.1200, 34985.00
907.2460, 34727.00
908.3730, 34463.00
909.5000, 34204.76
910.6260, 34032.00
911.7520, 33779.00
912.8780, 33583.00
914.0040, 33527.00
915.1290, 33549.00
916.2550, 33183.00
917.3800, 33041.00
918.5050, 33539.00
919.6300, 33135.00
920.7550, 32937.00
921.8800, 33017.00
923.0040, 32630.00
924.1290, 32477.00
925.2530, 32666.00
926.3770, 32507.00
927.5010, 32430.00
928.6250, 32395.00
929.7480, 32617.00
930.8720, 32447.00
931.9950, 32538.00
933.1180, 32371.00
934.2410, 32283.00
935.3640, 32327.00
936.4860, 32329.00
937.6090, 32177.00
938.7310, 32398.00
939.8530, 32331.00
940.9750, 32179.00
942.0970, 32106.00
943.2180, 32177.00
944.3400, 32122.00
945.4610, 32239.00
946.5820, 32142.00
947.7030, 32141.00
948.8240, 32170.00
949.9450, 31932.00
951.0650, 31874.00
952.1860, 32146.00
953.3060, 31741.00
954.4260, 31997.00
955.5460, 32485.00
956.6650, 32161.00
957.7850, 31934.00
958.9040, 31701.00
960.0230, 31812.00
961.1420, 31759.00
962.2610, 31975.00
963.3800, 31913.63
964.4990, 31711.00
965.6170, 31833.00
966.7350, 31731.00
967.8530, 31586.00
968.9710, 31674.00
970.0890, 31552.00
971.2070, 31744.00
972.3240, 31447.00
973.4410, 31720.00
974.5580, 31548.00
975.6750, 31728.00
976.7920, 31747.00
977.9090, 31522.00
979.0250, 31614.00
980.1410, 31485.00
981.2580, 31511.00
982.3740, 31754.00
983.4890, 31373.30
984.6050, 31614.88
985.7200, 31749.22
986.8360, 31782.07
987.9510, 31409.47
989.0660, 31560.43
990.1810, 31501.57
991.2950, 31434.11
992.4100, 31658.75
993.5240, 31345.13
994.6390, 31565.14
995.7530, 31572.13
996.8660, 31676.62
997.9800, 31570.00
999.0940, 31528.58
1000.207, 31698.34
1001.320, 31751.18
1002.433, 31620.25
1003.546, 31730.94
1004.659, 31409.95
1005.772, 31467.76
1006.884, 31689.01
1007.996, 31568.71
1009.108, 31683.26
1010.220, 31708.36
1011.332, 31572.00
1012.444, 31583.00
1013.555, 31244.00
1014.666, 31567.00
1015.777, 31660.00
1016.888, 31399.00
1017.999, 31546.00
1019.110, 31412.00
1020.220, 31270.00
1021.331, 31636.00
1022.441, 31602.00
1023.551, 31548.00
1024.661, 31349.00
1025.770, 31428.00
1026.880, 31470.00
1027.989, 31532.00
1029.098, 31532.00
1030.207, 31291.00
1031.316, 31577.00
1032.425, 31465.00
1033.533, 31679.00
1034.642, 31659.00
1035.750, 31478.00
1036.858, 31630.00
1037.966, 31407.00
1039.073, 31664.00
1040.181, 31426.00
1041.288, 31616.00
1042.396, 31707.00
1043.503, 31851.75
1044.610, 31822.12
1045.716, 31847.06
1046.823, 31693.00
1047.929, 31868.00
1049.036, 31795.00
1050.142, 32005.00
1051.248, 31646.00
1052.353, 31917.00
1053.459, 31689.00
1054.564, 32015.00
1055.670, 31830.00
1056.775, 31569.00
1057.880, 31713.00
1058.985, 31868.00
1060.089, 32120.00
1061.194, 32038.00
1062.298, 31865.00
1063.402, 31829.00
1064.506, 32040.00
1065.610, 31866.00
1066.713, 32008.00
1067.817, 31874.00
1068.920, 32045.00
1070.023, 31849.00
1071.126, 32035.00
1072.229, 31808.00
1073.332, 31821.00
1074.435, 31815.00
1075.537, 31962.00
1076.639, 31785.00
1077.741, 32122.00
1078.843, 31876.00
1079.945, 31971.00
1081.046, 31836.00
1082.148, 31735.00
1083.249, 31758.00
1084.350, 31723.70
1085.451, 31728.06
1086.551, 31775.00
1087.652, 31781.00
1088.752, 31780.00
1089.853, 31823.00
1090.953, 31978.00
1092.053, 31945.55
1093.152, 31807.00
1094.252, 31987.00
1095.351, 31933.00
1096.451, 31976.20
1097.550, 31731.00
1098.649, 31887.00
1099.748, 31684.00
1100.846, 31542.00
1101.945, 31614.00
1103.043, 31679.00
1104.141, 31729.00
1105.239, 31797.00
1106.337, 31630.00
1107.434, 31685.00
1108.532, 31730.00
1109.629, 31862.00
1110.726, 31612.00
1111.823, 31668.00
1112.920, 31915.00
1114.017, 31871.00
1115.113, 31579.00
1116.210, 31639.00
1117.306, 31674.00
1118.402, 31821.00
1119.498, 31840.33
1120.593, 31955.00
1121.689, 31890.00
1122.784, 31976.00
1123.879, 31894.00
1124.974, 31747.00
1126.069, 31656.00
1127.164, 31470.00
1128.259, 31553.00
1129.353, 31659.00
1130.447, 31698.00
1131.541, 31369.00
1132.635, 31280.00
1133.729, 31172.00
1134.822, 31330.00
1135.916, 31280.44
1137.009, 31539.00
1138.102, 31412.00
1139.195, 31397.79
1140.288, 31526.00
1141.380, 31492.00
1142.473, 31238.00
1143.565, 31338.02
1144.657, 31316.00
1145.749, 31336.00
1146.841, 31320.00
1147.932, 31394.00
1149.024, 31233.00
1150.115, 31351.00
1151.206, 31015.00
1152.297, 31190.00
1153.388, 31192.00
1154.479, 31428.00
1155.569, 31314.00
1156.659, 31125.00
1157.750, 31154.00
1158.839, 31216.00
1159.929, 30974.00
1161.019, 31218.00
1162.108, 31169.00
1163.198, 31151.00
1164.287, 31173.00
1165.376, 31167.00
1166.465, 31246.00
1167.553, 31177.00
1168.642, 31040.00
1169.730, 31096.00
1170.818, 31218.00
1171.906, 31221.00
1172.994, 31065.00
1174.082, 31175.00
1175.170, 31038.00
1176.257, 30929.00
1177.344, 31056.00
1178.431, 30937.00
1179.518, 30941.87
1180.605, 31068.00
1181.691, 30935.00
1182.778, 31112.00
1183.864, 31209.00
1184.950, 31198.00
1186.036, 30988.00
1187.122, 31641.00
1188.207, 31230.88
1189.292, 31331.00
1190.378, 31029.00
1191.463, 30930.00
1192.548, 31185.00
1193.632, 31087.00
1194.717, 31160.00
1195.801, 31250.00
1196.886, 31153.00
1197.970, 31014.00
1199.054, 31117.00
1200.137, 31140.00
1201.221, 31174.00
1202.305, 31078.00
1203.388, 31179.00
1204.471, 31102.00
1205.554, 31008.00
1206.637, 31094.00
1207.719, 31080.00
1208.802, 31153.00
1209.884, 31026.00
1210.966, 31070.00
1212.048, 30943.00
1213.130, 31105.00
1214.212, 31053.00
1215.293, 31161.00
1216.374, 31156.23
1217.456, 31083.00
1218.536, 31149.00
1219.617, 31060.00
1220.698, 31081.00
1221.778, 30870.00
1222.859, 31013.00
1223.939, 30939.00
1225.019, 31067.00
1226.099, 30992.00
1227.178, 31077.00
1228.258, 31261.00
1229.337, 30986.00
1230.417, 31110.00
1231.496, 30986.00
1232.574, 31124.00
1233.653, 31037.00
1234.732, 31162.00
1235.810, 31163.00
1236.888, 31116.00
1237.966, 31143.00
1239.044, 30969.00
1240.122, 31010.00
1241.199, 31170.00
1242.277, 30997.00
1243.354, 31181.00
1244.431, 31114.00
1245.508, 31074.00
1246.585, 30993.00
1247.661, 31088.00
1248.738, 31046.00
1249.814, 31165.00
1250.890, 31043.00
1251.966, 31133.00
1253.042, 31084.40
1254.117, 31044.00
1255.193, 30999.00
1256.268, 31126.00
1257.343, 31091.00
1258.418, 30952.00
1259.493, 31032.00
1260.567, 30742.00
1261.642, 30629.00
1262.716, 30929.00
1263.790, 30992.00
1264.864, 30858.00
1265.938, 30925.00
1267.011, 31064.00
1268.085, 31012.00
1269.158, 31062.13
1270.231, 31184.00
1271.304, 31080.00
1272.377, 31007.00
1273.450, 31082.00
1274.522, 31004.00
1275.594, 31191.00
1276.666, 31195.00
1277.738, 31161.00
1278.810, 31071.00
1279.882, 30998.00
1280.953, 31130.00
1282.025, 31073.00
1283.096, 31028.51
1284.167, 31234.00
1285.238, 30932.00
1286.308, 31135.00
1287.379, 31196.00
1288.449, 31151.00
1289.519, 31051.00
1290.589, 30923.00
1291.659, 30961.00
1292.729, 30882.62
1293.798, 30761.00
1294.868, 30892.00
1295.937, 30924.22
1297.006, 31039.00
1298.075, 31133.00
1299.143, 31125.42
1300.212, 31098.00
1301.280, 31109.00
1302.348, 31042.00
1303.416, 31007.00
1304.484, 31086.00
1305.552, 30888.00
1306.620, 31040.00
1307.687, 31019.00
1308.754, 31022.00
1309.821, 31080.00
1310.888, 30838.00
1311.955, 30955.38
1313.021, 31412.00
1314.088, 31045.00
1315.154, 31081.00
1316.220, 31180.00
1317.286, 30893.00
1318.352, 31088.00
1319.417, 31007.00
1320.483, 31058.57
1321.548, 31104.27
1322.613, 31193.00
1323.678, 31211.00
1324.743, 31166.00
1325.807, 31193.61
1326.872, 31149.00
1327.936, 31180.00
1329.000, 31217.00
1330.064, 31263.00
1331.128, 30999.00
1332.191, 30923.00
1333.255, 31041.00
1334.318, 31140.00
1335.381, 31274.00
1336.444, 31013.00
1337.507, 30978.00
1338.569, 31001.00
1339.632, 30824.00
1340.694, 31175.00
1341.756, 31321.00
1342.818, 31025.00
1343.880, 31055.00
1344.941, 30916.00
1346.003, 31002.00
1347.064, 31139.00
1348.125, 31129.00
1349.186, 31115.00
1350.247, 31219.00
1351.308, 31208.00
1352.368, 31120.00
1353.428, 31172.00
1354.489, 31231.00
1355.549, 31245.00
1356.608, 31275.61
1357.668, 31125.00
1358.727, 31288.00
1359.787, 31155.00
1360.846, 31121.00
1361.905, 31220.00
1362.964, 31359.00
1364.022, 31230.00
1365.081, 31277.00
1366.139, 31379.00
1367.197, 31364.70
1368.255, 31296.00
1369.313, 31405.00
1370.371, 31303.00
1371.428, 31152.00
1372.486, 31199.00
1373.543, 31001.00
1374.600, 31280.00
1375.657, 31111.00
1376.713, 31084.00
1377.770, 31156.00
1378.826, 31030.28
1379.882, 31109.00
1380.938, 31019.00
1381.994, 30900.00
1383.050, 31097.00
1384.106, 31297.00
1385.161, 31176.00
1386.216, 31115.00
1387.271, 31256.00
1388.326, 31252.00
1389.381, 31127.00
1390.435, 31076.00
1391.490, 31107.23
1392.544, 31233.00
1393.598, 31183.00
1394.652, 31244.00
1395.705, 31283.00
1396.759, 31348.00
1397.812, 31334.00
1398.866, 31346.41
1399.919, 31113.00
1400.972, 31210.00
