##NAMES=Ferberite
##RRUFFID=R040044
##IDEAL CHEMISTRY=Fe^2+^W^6+^O_4_
##LOCALITY=Chocote, Bolivia
##OWNER=RRUFF
##SOURCE=University of Arizona Mineral Museum
##DESCRIPTION=Black tabular single crystal
##STATUS=The identification of this mineral has been confirmed by X-ray diffraction and chemical analysis
##URL=rruff.info/R040044
##MEASURED CHEMISTRY=(Fe_0.82_Mn_0.08_Mg_0.07_Pb_0.03_)_Î£=1_W_1.00_O_4_
##PIN_ID=L01748
##ORIENTATION=Laser parallel to (1 0 1). Fiducial mark perpendicular to laser is parallel to b [0 1 0]
96.51900, 27584.76
97.76500, 27054.00
99.01100, 27609.00
100.2570, 27539.00
101.5030, 27243.00
102.7490, 27668.00
103.9940, 28521.00
105.2390, 30566.00
106.4840, 32734.00
107.7290, 33155.00
108.9740, 31084.00
110.2180, 29950.00
111.4620, 30415.00
112.7060, 30993.00
113.9500, 31713.00
115.1940, 31440.34
116.4370, 31601.00
117.6800, 30669.00
118.9230, 29537.00
120.1660, 28671.00
121.4090, 28687.00
122.6510, 29162.00
123.8940, 28819.00
125.1360, 28025.00
126.3770, 27814.00
127.6190, 27936.00
128.8600, 28596.00
130.1020, 28631.00
131.3430, 28258.00
132.5840, 28246.00
133.8240, 27856.00
135.0650, 27870.00
136.3050, 28446.00
137.5450, 28547.00
138.7850, 29024.00
140.0250, 29076.00
141.2640, 28426.00
142.5030, 27885.00
143.7430, 28120.00
144.9810, 28026.00
146.2200, 28054.00
147.4590, 29752.00
148.6970, 29651.00
149.9350, 29707.00
151.1730, 28236.00
152.4110, 28397.00
153.6480, 28500.00
154.8860, 28689.00
156.1230, 28591.00
157.3600, 28276.00
158.5960, 28311.00
159.8330, 28221.00
161.0690, 28618.00
162.3050, 28576.00
163.5410, 28856.00
164.7770, 29045.00
166.0130, 29156.00
167.2480, 29250.18
168.4830, 29212.00
169.7180, 29179.00
170.9530, 29338.00
172.1880, 29063.00
173.4220, 28967.00
174.6560, 29130.00
175.8900, 29259.00
177.1240, 29421.00
178.3580, 29244.00
179.5910, 29465.00
180.8250, 29243.00
182.0580, 29716.00
183.2900, 29357.00
184.5230, 29798.00
185.7560, 29661.00
186.9880, 29971.00
188.2200, 30204.00
189.4520, 30183.00
190.6830, 30297.00
191.9150, 30581.00
193.1460, 30513.00
194.3770, 30832.00
195.6080, 31125.00
196.8390, 31201.00
198.0700, 31438.00
199.3000, 31887.00
200.5300, 32042.00
201.7600, 32268.00
202.9900, 32222.00
204.2190, 31215.00
205.4490, 30522.00
206.6780, 30527.00
207.9070, 30380.00
209.1360, 30839.00
210.3640, 30949.00
211.5930, 31184.00
212.8210, 31414.00
214.0490, 31594.00
215.2770, 31068.00
216.5040, 30812.00
217.7320, 30765.00
218.9590, 30623.00
220.1860, 30607.00
221.4130, 30177.00
222.6400, 30191.00
223.8660, 29725.00
225.0920, 29839.00
226.3190, 29545.00
227.5450, 29877.00
228.7700, 29802.00
229.9960, 29564.00
231.2210, 29374.00
232.4460, 29487.00
233.6710, 29358.48
234.8960, 29455.00
236.1210, 29409.00
237.3450, 29313.00
238.5690, 29406.00
239.7930, 29436.00
241.0170, 29389.00
242.2410, 29490.00
243.4640, 29424.00
244.6870, 29425.00
245.9100, 29557.00
247.1330, 29664.00
248.3560, 29515.00
249.5780, 29564.00
250.8000, 29598.00
252.0230, 29541.70
253.2440, 29666.00
254.4660, 29439.87
255.6880, 29671.40
256.9090, 29839.72
258.1300, 29948.30
259.3510, 29818.19
260.5720, 29996.30
261.7920, 30050.82
263.0130, 30100.34
264.2330, 30321.76
265.4530, 30226.30
266.6730, 30444.99
267.8920, 30529.00
269.1120, 30956.00
270.3310, 30706.00
271.5500, 31127.00
272.7690, 31199.00
273.9880, 31132.00
275.2060, 31546.00
276.4240, 31566.00
277.6430, 31749.00
278.8600, 31367.00
280.0780, 31343.00
281.2960, 31096.00
282.5130, 31155.00
283.7300, 30909.00
284.9470, 30890.00
286.1640, 31014.00
287.3810, 30685.00
288.5970, 30853.00
289.8130, 30333.00
291.0290, 30417.00
292.2450, 30556.00
293.4610, 30430.00
294.6760, 30540.00
295.8910, 30698.00
297.1060, 30458.00
298.3210, 30591.00
299.5360, 30499.00
300.7510, 30653.00
301.9650, 30509.00
303.1790, 30551.00
304.3930, 30471.00
305.6070, 30561.00
306.8200, 30660.00
308.0340, 30716.00
309.2470, 30695.00
310.4600, 30744.46
311.6730, 30712.00
312.8850, 30775.00
314.0980, 30689.00
315.3100, 30737.00
316.5220, 30770.00
317.7340, 30627.00
318.9460, 30941.00
320.1570, 30866.00
321.3690, 30780.00
322.5800, 30865.00
323.7910, 30872.00
325.0010, 30772.00
326.2120, 31053.00
327.4220, 30952.00
328.6330, 31049.00
329.8430, 31034.00
331.0520, 30963.00
332.2620, 31118.00
333.4720, 31349.00
334.6810, 30918.00
335.8900, 30964.00
337.0990, 31202.00
338.3070, 31320.00
339.5160, 31344.52
340.7240, 31328.00
341.9320, 31345.00
343.1400, 31291.00
344.3480, 31213.00
345.5560, 31352.00
346.7630, 31407.00
347.9700, 31207.00
349.1770, 31307.00
350.3840, 31370.00
351.5910, 31523.00
352.7970, 31435.00
354.0040, 31487.00
355.2100, 31294.00
356.4160, 31348.22
357.6220, 31512.00
358.8270, 31404.00
360.0320, 31518.00
361.2380, 31629.00
362.4430, 31857.00
363.6470, 31621.00
364.8520, 31728.00
366.0560, 31678.00
367.2610, 31638.00
368.4650, 31866.00
369.6690, 31736.00
370.8720, 31847.00
372.0760, 31907.00
373.2790, 31787.00
374.4820, 31940.57
375.6850, 31788.00
376.8880, 32053.00
378.0910, 32033.00
379.2930, 31971.00
380.4950, 31999.00
381.6970, 31916.00
382.8990, 31911.51
384.1010, 32025.00
385.3020, 31931.00
386.5040, 31974.00
387.7050, 32115.00
388.9060, 32153.00
390.1060, 32100.00
391.3070, 32189.00
392.5070, 32124.00
393.7080, 32132.00
394.9080, 32297.00
396.1070, 32489.00
397.3070, 32573.00
398.5070, 32640.01
399.7060, 32712.00
400.9050, 32681.00
402.1040, 32813.00
403.3030, 32844.00
404.5010, 32987.00
405.7000, 32935.00
406.8980, 33019.00
408.0960, 32923.00
409.2940, 33110.00
410.4910, 33065.00
411.6890, 33088.00
412.8860, 32991.00
414.0830, 32750.00
415.2800, 32861.00
416.4770, 32671.00
417.6730, 32683.00
418.8690, 32750.00
420.0660, 32790.00
421.2620, 32815.27
422.4570, 32838.08
423.6530, 32907.00
424.8480, 32830.00
426.0440, 32942.00
427.2390, 32903.00
428.4340, 32744.00
429.6280, 33012.00
430.8230, 33007.00
432.0170, 33045.00
433.2110, 32923.00
434.4050, 32964.00
435.5990, 32941.00
436.7930, 32990.00
437.9860, 33249.00
439.1800, 33083.00
440.3730, 33094.00
441.5660, 33300.00
442.7580, 32978.00
443.9510, 33018.00
445.1430, 33214.00
446.3350, 33335.00
447.5270, 33133.00
448.7190, 33430.00
449.9110, 33345.00
451.1020, 33514.00
452.2930, 33237.00
453.4850, 33578.00
454.6750, 33481.00
455.8660, 33456.00
457.0570, 33492.00
458.2470, 33432.00
459.4370, 33706.00
460.6270, 33747.00
461.8170, 33835.00
463.0070, 33770.00
464.1960, 33835.20
465.3850, 33824.00
466.5750, 33887.00
467.7630, 33947.00
468.9520, 33995.52
470.1410, 33831.00
471.3290, 33962.00
472.5170, 34099.00
473.7050, 33935.00
474.8930, 33793.00
476.0810, 34017.00
477.2680, 34126.00
478.4560, 34169.00
479.6430, 34271.42
480.8300, 34310.00
482.0160, 34356.00
483.2030, 34323.00
484.3890, 34374.00
485.5760, 34365.25
486.7620, 34184.00
487.9480, 34401.00
489.1330, 34349.00
490.3190, 34443.00
491.5040, 34278.00
492.6890, 34421.00
493.8740, 34620.00
495.0590, 34386.00
496.2440, 34747.00
497.4280, 34444.00
498.6120, 34821.00
499.7960, 34811.00
500.9800, 34735.00
502.1640, 34747.00
503.3470, 34674.00
504.5310, 34847.00
505.7140, 34657.00
506.8970, 34830.00
508.0800, 34997.00
509.2620, 35220.00
510.4450, 35070.00
511.6270, 34950.00
512.8090, 35075.00
513.9910, 35441.00
515.1730, 35179.00
516.3550, 35273.00
517.5360, 35255.00
518.7170, 35252.00
519.8980, 35478.00
521.0790, 35437.00
522.2600, 35404.00
523.4400, 35266.00
524.6210, 35445.00
525.8010, 35626.00
526.9810, 35547.00
528.1610, 35616.00
529.3400, 35479.00
530.5200, 35753.00
531.6990, 35828.00
532.8780, 35904.00
534.0570, 35532.00
535.2360, 35910.00
536.4140, 35721.00
537.5930, 36090.00
538.7710, 35781.00
539.9490, 35986.00
541.1270, 36133.00
542.3040, 36137.00
543.4820, 36203.00
544.6590, 36149.00
545.8360, 36266.00
547.0130, 36138.00
548.1900, 36285.00
549.3670, 36377.48
550.5430, 36415.00
551.7190, 36547.00
552.8960, 36512.00
554.0710, 36343.24
555.2470, 36426.00
556.4230, 36372.00
557.5980, 36344.00
558.7730, 36413.00
559.9480, 36500.00
561.1230, 36375.00
562.2980, 36445.00
563.4720, 36198.00
564.6470, 36193.00
565.8210, 36520.00
566.9950, 36525.00
568.1690, 36296.00
569.3420, 36377.00
570.5160, 36279.00
571.6890, 36344.00
572.8620, 36575.00
574.0350, 36069.00
575.2080, 36455.00
576.3800, 35991.00
577.5530, 35791.00
578.7250, 35931.00
579.8970, 35619.00
581.0690, 35684.00
582.2410, 35592.00
583.4120, 35487.00
584.5830, 35609.00
585.7550, 35639.00
586.9260, 35312.00
588.0960, 35199.00
589.2670, 35408.00
590.4380, 35517.00
591.6080, 35308.00
592.7780, 35590.00
593.9480, 35297.00
595.1180, 35314.00
596.2870, 35353.00
597.4570, 35295.00
598.6260, 35364.00
599.7950, 35264.00
600.9640, 35539.00
602.1330, 35435.00
603.3010, 35296.00
604.4700, 35486.00
605.6380, 35427.00
606.8060, 35414.00
607.9740, 35454.00
609.1420, 35597.00
610.3090, 35526.00
611.4760, 35666.00
612.6440, 35602.00
613.8110, 35585.00
614.9770, 35849.00
616.1440, 35650.00
617.3110, 35674.00
618.4770, 35677.00
619.6430, 35929.00
620.8090, 35902.00
621.9750, 35937.42
623.1400, 35572.00
624.3060, 35882.00
625.4710, 35740.00
626.6360, 35635.00
627.8010, 35877.00
628.9660, 35788.00
630.1300, 36031.00
631.2950, 35943.00
632.4590, 36030.00
633.6230, 36026.00
634.7870, 36101.00
635.9510, 35891.00
637.1140, 36187.00
638.2780, 36223.00
639.4410, 35809.00
640.6040, 36109.00
641.7670, 36169.00
642.9290, 36296.00
644.0920, 36085.00
645.2540, 36179.00
646.4160, 36054.00
647.5780, 36077.25
648.7400, 36587.00
649.9020, 36105.00
651.0630, 36476.00
652.2250, 36428.00
653.3860, 36449.00
654.5470, 36639.00
655.7080, 36517.00
656.8680, 36618.00
658.0290, 36718.00
659.1890, 36854.00
660.3490, 36833.00
661.5090, 36861.00
662.6690, 36908.00
663.8280, 36920.00
664.9880, 37184.00
666.1470, 36871.00
667.3060, 37252.00
668.4650, 37411.00
669.6240, 37329.00
670.7820, 37608.00
671.9410, 37868.00
673.0990, 37976.00
674.2570, 38038.00
675.4150, 38345.00
676.5720, 38508.00
677.7300, 38743.00
678.8870, 39099.00
680.0450, 39033.00
681.2020, 39298.00
682.3590, 40038.00
683.5150, 41056.00
684.6720, 40583.00
685.8280, 41186.00
686.9840, 41483.00
688.1400, 41726.00
689.2960, 42340.00
690.4520, 42620.00
691.6070, 43028.00
692.7630, 43277.00
693.9180, 43567.00
695.0730, 43784.00
696.2280, 44105.00
697.3820, 43905.00
698.5370, 43512.00
699.6910, 43109.00
700.8450, 43227.00
701.9990, 42802.00
703.1530, 42570.00
704.3070, 42258.00
705.4600, 42095.00
706.6130, 41815.00
707.7660, 41292.00
708.9190, 41013.00
710.0720, 40997.00
711.2250, 40556.00
712.3770, 40670.00
713.5300, 39970.00
714.6820, 39944.00
715.8340, 39499.00
716.9850, 39393.00
718.1370, 39217.00
719.2880, 39063.00
720.4400, 38900.00
721.5910, 38865.00
722.7420, 38844.00
723.8930, 38595.00
725.0430, 38483.00
726.1940, 38601.00
727.3440, 38571.00
728.4940, 38233.00
729.6440, 38296.00
730.7940, 38081.00
731.9430, 38198.00
733.0930, 38029.05
734.2420, 37871.00
735.3910, 37868.00
736.5400, 37808.00
737.6890, 37958.00
738.8370, 37953.00
739.9860, 37904.00
741.1340, 37931.00
742.2820, 37935.00
743.4300, 37980.00
744.5780, 37861.00
745.7250, 37936.00
746.8730, 37930.00
748.0200, 38253.00
749.1670, 38031.49
750.3140, 37515.00
751.4610, 37768.00
752.6070, 37796.00
753.7540, 37775.00
754.9000, 37853.00
756.0460, 37780.00
757.1920, 37960.00
758.3380, 37833.00
759.4830, 37852.00
760.6280, 37666.00
761.7740, 37876.00
762.9190, 38188.00
764.0640, 38000.00
765.2080, 38218.00
766.3530, 37942.00
767.4970, 38291.00
768.6420, 38143.73
769.7860, 37907.00
770.9300, 38103.00
772.0730, 38086.00
773.2170, 38258.00
774.3600, 38112.00
775.5040, 37962.00
776.6470, 38028.00
777.7900, 38333.00
778.9320, 38169.00
780.0750, 38245.00
781.2170, 38139.00
782.3600, 38452.00
783.5020, 38362.20
784.6440, 37982.00
785.7850, 38423.00
786.9270, 38237.00
788.0680, 38352.84
789.2100, 38222.00
790.3510, 38227.00
791.4920, 38095.00
792.6320, 37977.00
793.7730, 38026.00
794.9130, 37969.90
796.0540, 38140.00
797.1940, 38040.00
798.3340, 38246.00
799.4730, 38369.00
800.6130, 38782.00
801.7520, 38187.00
802.8920, 38181.00
804.0310, 38432.00
805.1700, 38284.00
806.3090, 38337.00
807.4470, 38214.00
808.5860, 38218.00
809.7240, 38227.89
810.8620, 38315.00
812.0000, 38307.00
813.1380, 38316.00
814.2750, 38460.00
815.4130, 38406.00
816.5500, 38252.00
817.6870, 38478.00
818.8240, 38217.00
819.9610, 38344.00
821.0980, 38604.00
822.2340, 38581.00
823.3700, 38557.00
824.5070, 38559.00
825.6430, 38560.00
826.7780, 38572.00
827.9140, 38664.00
829.0500, 38543.00
830.1850, 38734.00
831.3200, 38790.00
832.4550, 39313.00
833.5900, 38695.00
834.7250, 38827.00
835.8590, 38932.26
836.9930, 38580.00
838.1280, 39228.00
839.2620, 38961.00
840.3950, 39309.00
841.5290, 39407.00
842.6630, 39085.00
843.7960, 39357.00
844.9290, 39279.00
846.0620, 39433.00
847.1950, 39446.00
848.3280, 39495.00
849.4600, 39694.00
850.5930, 39924.00
851.7250, 39899.00
852.8570, 40420.00
853.9890, 40461.64
855.1210, 40600.00
856.2520, 40838.00
857.3840, 40978.00
858.5150, 41254.00
859.6460, 41640.00
860.7770, 41715.00
861.9080, 42203.00
863.0380, 42750.00
864.1690, 43222.00
865.2990, 43911.00
866.4290, 44562.88
867.5590, 45306.11
868.6890, 46095.00
869.8190, 46924.00
870.9480, 47853.00
872.0770, 48673.00
873.2070, 50044.00
874.3360, 51059.00
875.4640, 52425.00
876.5930, 53242.00
877.7220, 54348.00
878.8500, 55051.00
879.9780, 55372.00
881.1060, 55393.00
882.2340, 55188.00
883.3620, 54662.00
884.4890, 53442.00
885.6170, 52721.00
886.7440, 51761.00
887.8710, 50201.00
888.9980, 49287.00
890.1240, 48352.00
891.2510, 47554.00
892.3770, 46558.00
893.5040, 45688.00
894.6300, 44951.00
895.7560, 44323.00
896.8810, 43669.00
898.0070, 43082.00
899.1330, 42845.00
900.2580, 41767.00
901.3830, 41790.00
902.5080, 41354.00
903.6330, 40916.00
904.7570, 40754.00
905.8820, 40792.00
907.0060, 40468.00
908.1300, 40191.00
909.2540, 40250.00
910.3780, 39803.00
911.5020, 39704.00
912.6250, 39672.00
913.7490, 39780.00
914.8720, 39440.00
915.9950, 39533.00
917.1180, 39525.00
918.2400, 39437.00
919.3630, 39596.00
920.4850, 39475.38
921.6080, 39264.00
922.7300, 39395.00
923.8520, 39245.00
924.9730, 39282.00
926.0950, 39231.00
927.2160, 39328.00
928.3380, 39057.00
929.4590, 39214.00
930.5800, 39182.00
931.7010, 38957.00
932.8210, 39219.00
933.9420, 39129.00
935.0620, 39144.09
936.1820, 39225.86
937.3020, 39093.00
938.4220, 39313.00
939.5420, 39127.00
940.6610, 39232.00
941.7810, 39125.00
942.9000, 39152.00
944.0190, 39061.00
945.1380, 38963.00
946.2570, 39272.00
947.3750, 39285.00
948.4940, 39189.00
949.6120, 39036.00
950.7300, 39281.00
951.8480, 39179.28
952.9660, 39325.72
954.0830, 39409.02
955.2010, 39432.58
956.3180, 39217.45
957.4350, 39310.53
958.5520, 39280.10
959.6690, 39244.60
960.7860, 39381.07
961.9020, 39200.65
963.0190, 39334.39
964.1350, 39342.72
965.2510, 39408.45
966.3670, 39291.00
967.4830, 39198.00
968.5980, 39574.00
969.7140, 39151.00
970.8290, 39106.00
971.9440, 39293.00
973.0590, 39175.00
974.1740, 39220.00
975.2880, 39427.00
976.4030, 39130.00
977.5170, 39199.00
978.6310, 39014.00
979.7450, 38995.52
980.8590, 39321.00
981.9730, 39075.00
983.0860, 39175.00
984.2000, 39400.00
985.3130, 39270.00
986.4260, 39165.00
987.5390, 39402.00
988.6520, 39471.00
989.7640, 39308.00
990.8770, 39536.00
991.9890, 39397.00
993.1010, 39565.00
994.2130, 39558.00
995.3250, 39354.00
996.4370, 39428.00
997.5480, 39569.00
998.6590, 39435.00
999.7710, 39586.00
1000.882, 39625.00
1001.993, 39526.00
1003.103, 39666.00
1004.214, 39766.00
1005.324, 39397.00
1006.434, 39546.00
1007.545, 39522.00
1008.655, 39646.00
1009.764, 39654.55
1010.874, 39680.64
1011.983, 39613.00
1013.093, 39726.00
1014.202, 39583.00
1015.311, 39602.00
1016.420, 39414.00
1017.528, 39470.00
1018.637, 39608.00
1019.745, 39675.00
1020.854, 39431.00
1021.962, 39708.00
1023.070, 39535.00
1024.177, 39711.00
1025.285, 39601.00
1026.392, 39610.00
1027.500, 39519.00
1028.607, 39815.00
1029.714, 39553.00
1030.821, 39859.00
1031.927, 39741.00
1033.034, 39827.00
1034.140, 39695.00
1035.246, 39679.00
1036.352, 39790.11
1037.458, 39800.88
1038.564, 39988.00
1039.670, 39894.00
1040.775, 39919.00
1041.880, 39731.00
1042.986, 39937.00
1044.090, 39899.00
1045.195, 39760.00
1046.300, 40109.00
1047.404, 39999.15
1048.509, 39976.00
1049.613, 40043.00
1050.717, 40058.00
1051.821, 39997.00
1052.925, 39785.00
1054.028, 40277.00
1055.132, 40007.00
1056.235, 40277.00
1057.338, 39921.00
1058.441, 39906.00
1059.544, 40132.00
1060.647, 40083.00
1061.749, 40189.00
1062.851, 40567.00
1063.954, 40097.00
1065.056, 40117.00
1066.158, 40452.00
1067.259, 40255.68
1068.361, 40049.00
1069.462, 40285.00
1070.564, 40103.48
1071.665, 40683.00
1072.766, 40200.00
1073.867, 39993.00
1074.967, 40309.00
1076.068, 40121.00
1077.168, 40090.00
1078.268, 40181.00
1079.368, 40210.00
1080.468, 40190.00
1081.568, 40304.00
1082.668, 40355.00
1083.767, 40285.00
1084.866, 40287.00
1085.966, 40436.00
1087.065, 40388.00
1088.163, 40290.00
1089.262, 40191.00
1090.361, 40369.00
1091.459, 40094.00
1092.557, 40358.00
1093.655, 40331.00
1094.753, 40300.00
1095.851, 40230.00
1096.949, 40140.00
1098.046, 40432.00
1099.143, 40554.00
1100.241, 40135.00
1101.338, 40707.00
1102.434, 40142.00
1103.531, 40340.00
1104.628, 40561.00
1105.724, 40224.00
1106.820, 40540.00
1107.916, 40436.00
1109.012, 40487.00
1110.108, 40208.00
1111.204, 40423.00
1112.299, 40220.00
1113.395, 40342.00
1114.490, 40275.00
1115.585, 40480.00
1116.680, 40390.00
1117.775, 40349.00
1118.869, 40406.00
1119.964, 40545.00
1121.058, 40467.00
1122.152, 40601.00
1123.246, 40744.00
1124.340, 40533.00
1125.434, 40651.00
1126.527, 40553.00
1127.620, 40495.00
1128.714, 40399.00
1129.807, 40190.00
1130.900, 40412.00
1131.992, 40231.00
1133.085, 40422.00
1134.178, 40245.00
1135.270, 40038.00
1136.362, 40423.00
1137.454, 40157.00
1138.546, 40266.00
1139.638, 40035.00
1140.729, 40229.00
1141.821, 40284.00
1142.912, 40376.00
1144.003, 40211.00
1145.094, 40471.00
1146.185, 40454.00
1147.276, 40489.00
1148.366, 40197.00
1149.456, 40141.00
1150.547, 40219.00
1151.637, 40378.00
1152.727, 40146.00
1153.816, 40536.00
1154.906, 40238.00
1155.995, 40393.00
1157.085, 40185.00
1158.174, 40257.00
1159.263, 40198.00
1160.352, 40142.00
1161.441, 40287.00
1162.529, 40221.51
1163.618, 40133.00
1164.706, 40275.00
1165.794, 40177.00
1166.882, 40272.00
1167.970, 40456.00
1169.058, 40266.00
1170.145, 40249.00
1171.232, 40484.00
1172.320, 40707.00
1173.407, 40403.00
1174.494, 40339.00
1175.580, 39848.00
1176.667, 40193.00
1177.754, 40775.00
1178.840, 40481.00
1179.926, 40263.00
1181.012, 40057.00
1182.098, 40425.00
1183.184, 40322.00
1184.269, 40347.00
1185.355, 40418.38
1186.440, 40349.22
1187.525, 40375.00
1188.610, 40304.00
1189.695, 40254.00
1190.780, 40223.00
1191.864, 40240.00
1192.949, 40428.00
1194.033, 40327.00
1195.117, 40409.00
1196.201, 40657.00
1197.285, 40199.00
1198.369, 40310.00
1199.452, 40258.00
1200.536, 40552.00
1201.619, 40310.00
1202.702, 40450.00
1203.785, 40222.00
1204.868, 40373.00
1205.950, 40586.00
1207.033, 40151.00
1208.115, 40807.00
1209.197, 40407.00
1210.279, 40457.00
1211.361, 40469.00
1212.443, 40114.00
1213.525, 40147.00
1214.606, 40491.00
1215.687, 40587.00
1216.769, 40479.00
1217.850, 40283.00
1218.930, 40427.00
1220.011, 40353.00
1221.092, 40297.00
1222.172, 40441.00
1223.252, 40494.00
1224.333, 40472.00
1225.413, 40410.00
1226.492, 40297.00
1227.572, 40509.00
1228.652, 40989.00
1229.731, 40510.00
1230.810, 40548.00
1231.889, 40140.00
1232.968, 40530.00
1234.047, 40049.00
1235.126, 40138.00
1236.204, 40454.00
1237.283, 40495.00
1238.361, 40683.00
1239.439, 40402.00
1240.517, 40556.00
1241.595, 40046.00
1242.673, 40318.00
1243.750, 40338.00
1244.827, 40277.00
1245.905, 40286.00
1246.982, 40579.00
1248.059, 40457.00
1249.135, 40468.00
1250.212, 40507.00
1251.288, 40375.00
1252.365, 40502.00
1253.441, 40658.00
1254.517, 40500.00
1255.593, 40590.00
1256.669, 40739.00
1257.744, 40601.00
1258.820, 40528.00
1259.895, 40448.00
1260.970, 40581.00
1262.045, 40453.00
1263.120, 40463.00
1264.195, 40280.00
1265.270, 40641.00
1266.344, 40424.00
1267.418, 40607.00
1268.492, 40452.00
1269.566, 40636.00
1270.640, 40500.00
1271.714, 40554.00
1272.788, 40620.00
1273.861, 40585.00
1274.934, 40495.00
1276.007, 40555.00
1277.080, 40616.00
1278.153, 40595.00
1279.226, 40345.00
