##NAMES=Ferro-actinolite
##RRUFFID=R060189
##IDEAL CHEMISTRY=[box]Ca_2_Mg_2.5-0_Fe^2+^_2.5-5_Si_8_O_22_(OH)_2_
##LOCALITY=Merry Widow mine, Vancouver Island, British Columbia, Canada
##OWNER=RRUFF
##SOURCE=Lloyd Twaites
##DESCRIPTION=Parallel aggregate of green fibers
##STATUS=The identification of this mineral has been confirmed by X-ray diffraction and chemical analysis
##URL=rruff.info/R060189
##MEASURED CHEMISTRY=[box](Ca_1.94_Na_0.06_)_Σ=2_(Fe^2+^_2.55_Mg_2.15_Fe^3+^_0.20_Al_0.05_Mn_0.05_)_Σ=5_(Si_0.98_Al_0.02_)_8_O_22_(OH)_2_
95.94800, 15535.00
97.18200, 15159.00
98.41600, 15105.00
99.64900, 15492.00
100.8830, 16105.00
102.1160, 15931.00
103.3490, 16021.00
104.5820, 16576.00
105.8150, 17516.00
107.0470, 18907.00
108.2800, 20422.00
109.5120, 22028.00
110.7440, 22700.00
111.9760, 20281.00
113.2080, 18843.00
114.4400, 18938.00
115.6710, 19435.00
116.9030, 20030.00
118.1340, 19550.00
119.3650, 18777.00
120.5960, 18091.00
121.8270, 18067.00
123.0580, 18646.00
124.2880, 19237.00
125.5190, 18875.00
126.7490, 18870.00
127.9790, 18924.00
129.2090, 19637.00
130.4390, 20282.00
131.6680, 20427.00
132.8980, 20230.00
134.1270, 20111.00
135.3560, 20151.00
136.5850, 20607.00
137.8140, 21215.00
139.0430, 22050.00
140.2710, 23227.35
141.5000, 24904.00
142.7280, 26153.00
143.9560, 27928.00
145.1840, 29761.00
146.4120, 31645.00
147.6390, 32623.00
148.8670, 31846.00
150.0940, 29848.00
151.3210, 27506.00
152.5490, 25739.00
153.7750, 24272.00
155.0020, 22966.00
156.2290, 21974.00
157.4550, 21290.84
158.6810, 20876.00
159.9080, 20716.04
161.1340, 20857.00
162.3590, 21248.00
163.5850, 21831.00
164.8110, 22509.00
166.0360, 23524.00
167.2610, 24582.00
168.4860, 25561.00
169.7110, 26719.00
170.9360, 27863.00
172.1610, 28394.00
173.3850, 27845.00
174.6100, 26888.00
175.8340, 25837.00
177.0580, 24723.00
178.2820, 23549.00
179.5050, 22971.00
180.7290, 22417.00
181.9520, 22136.00
183.1760, 21742.00
184.3990, 21649.00
185.6220, 21764.00
186.8450, 22196.00
188.0670, 22645.00
189.2900, 22923.00
190.5120, 23458.00
191.7340, 24268.00
192.9560, 24899.00
194.1780, 25531.00
195.4000, 26313.00
196.6220, 27148.00
197.8430, 27735.00
199.0640, 28365.00
200.2860, 29269.00
201.5070, 30341.00
202.7270, 31849.00
203.9480, 32606.00
205.1690, 32208.00
206.3890, 31703.00
207.6090, 32005.00
208.8290, 32994.00
210.0490, 34128.00
211.2690, 35284.00
212.4890, 36294.00
213.7080, 36882.00
214.9280, 37439.00
216.1470, 37820.00
217.3660, 37205.00
218.5850, 36597.00
219.8030, 36036.00
221.0220, 35491.00
222.2400, 34585.00
223.4590, 33721.00
224.6770, 32753.00
225.8950, 32241.00
227.1120, 31749.00
228.3300, 31085.00
229.5480, 29800.00
230.7650, 28921.00
231.9820, 28381.00
233.1990, 27784.00
234.4160, 27261.00
235.6330, 26681.00
236.8490, 26067.00
238.0660, 25614.00
239.2820, 25052.00
240.4980, 24313.00
241.7140, 24092.00
242.9300, 23662.00
244.1460, 23060.00
245.3610, 23085.00
246.5770, 22671.00
247.7920, 22340.00
249.0070, 22011.00
250.2220, 21787.00
251.4370, 21513.00
252.6510, 21429.00
253.8660, 20966.00
255.0800, 20957.00
256.2940, 20806.00
257.5080, 20472.00
258.7220, 20712.00
259.9360, 20676.71
261.1490, 20460.70
262.3630, 20883.00
263.5760, 20093.00
264.7890, 19899.00
266.0020, 19716.00
267.2150, 19842.00
268.4270, 19737.00
269.6400, 19707.00
270.8520, 19584.00
272.0640, 19598.47
273.2760, 19591.52
274.4880, 19647.00
275.7000, 19689.00
276.9120, 19774.00
278.1230, 19918.00
279.3340, 19702.00
280.5450, 19857.00
281.7560, 19744.00
282.9670, 19977.00
284.1780, 20310.00
285.3880, 20349.00
286.5980, 20250.00
287.8090, 20259.00
289.0190, 20200.00
290.2290, 20126.00
291.4380, 20165.00
292.6480, 20168.26
293.8570, 20225.00
295.0670, 20280.00
296.2760, 20287.00
297.4850, 20365.00
298.6930, 20335.00
299.9020, 20217.00
301.1110, 20361.06
302.3190, 20268.32
303.5270, 20511.00
304.7350, 20261.00
305.9430, 20210.00
307.1510, 20282.00
308.3580, 20070.00
309.5660, 20249.00
310.7730, 20258.00
311.9800, 20122.00
313.1870, 20456.00
314.3940, 20238.00
315.6010, 20096.00
316.8070, 20210.00
318.0130, 20108.00
319.2200, 20156.75
320.4260, 20549.00
321.6310, 20323.00
322.8370, 20469.00
324.0430, 20720.00
325.2480, 20641.00
326.4540, 20893.00
327.6590, 21090.00
328.8640, 21193.00
330.0680, 21297.00
331.2730, 21566.00
332.4780, 21661.00
333.6820, 21732.00
334.8860, 21931.00
336.0900, 22101.00
337.2940, 22322.09
338.4980, 22413.00
339.7010, 22814.00
340.9050, 23053.00
342.1080, 23255.21
343.3110, 23153.00
344.5140, 23481.00
345.7170, 23405.00
346.9200, 23453.00
348.1220, 23709.00
349.3240, 24221.00
350.5270, 24156.00
351.7290, 24530.00
352.9310, 24581.00
354.1320, 24901.00
355.3340, 24850.00
356.5350, 25110.00
357.7370, 25116.21
358.9380, 25281.00
360.1390, 25123.00
361.3400, 25175.00
362.5400, 25176.00
363.7410, 25308.00
364.9410, 24883.00
366.1410, 24768.00
367.3410, 24709.00
368.5410, 24745.00
369.7410, 25118.00
370.9400, 25280.00
372.1400, 25440.00
373.3390, 25769.00
374.5380, 26521.00
375.7370, 26858.00
376.9360, 27276.00
378.1350, 27731.00
379.3330, 27910.00
380.5310, 28146.00
381.7300, 28150.00
382.9280, 28050.31
384.1260, 27821.00
385.3230, 27566.00
386.5210, 27370.00
387.7180, 26987.00
388.9160, 26417.00
390.1130, 26006.00
391.3100, 25642.00
392.5060, 25133.00
393.7030, 24775.00
394.9000, 24402.00
396.0960, 24201.00
397.2920, 23698.00
398.4880, 23547.00
399.6840, 23195.00
400.8800, 23077.00
402.0750, 22695.00
403.2710, 22482.00
404.4660, 22323.00
405.6610, 21949.00
406.8560, 21842.00
408.0510, 21545.00
409.2450, 21272.00
410.4400, 21039.00
411.6340, 20828.00
412.8280, 20504.00
414.0220, 20678.00
415.2160, 20258.00
416.4100, 20291.00
417.6030, 20243.46
418.7970, 20151.00
419.9900, 20256.00
421.1830, 20523.00
422.3760, 20713.00
423.5690, 21013.00
424.7610, 21575.00
425.9540, 21885.00
427.1460, 22268.00
428.3380, 22797.00
429.5300, 23081.00
430.7220, 23112.00
431.9140, 23044.00
433.1050, 22804.00
434.2970, 22173.00
435.4880, 21680.00
436.6790, 21001.00
437.8700, 20438.00
439.0610, 20134.00
440.2510, 19694.00
441.4420, 19369.00
442.6320, 19114.00
443.8220, 19178.00
445.0120, 18857.00
446.2020, 18831.00
447.3910, 18676.00
448.5810, 18446.00
449.7700, 18589.00
450.9600, 18331.00
452.1490, 18479.00
453.3370, 18293.00
454.5260, 18019.00
455.7150, 18206.00
456.9030, 18257.00
458.0910, 18067.00
459.2800, 18202.00
460.4670, 18111.00
461.6550, 18012.00
462.8430, 18031.00
464.0300, 18016.00
465.2180, 18058.00
466.4050, 18050.27
467.5920, 18030.00
468.7790, 18023.00
469.9650, 18153.00
471.1520, 18079.00
472.3380, 18219.00
473.5250, 18239.00
474.7110, 18259.00
475.8970, 18303.00
477.0820, 18394.00
478.2680, 18429.00
479.4540, 18499.00
480.6390, 18475.00
481.8240, 18520.00
483.0090, 18668.00
484.1940, 18427.00
485.3780, 19064.00
486.5630, 19065.00
487.7470, 18948.00
488.9320, 19431.00
490.1160, 19378.00
491.3000, 19605.00
492.4830, 19994.00
493.6670, 19925.00
494.8500, 20290.00
496.0340, 20293.00
497.2170, 20758.00
498.4000, 21124.00
499.5820, 21060.00
500.7650, 21249.00
501.9480, 21741.00
503.1300, 21722.00
504.3120, 22129.00
505.4940, 22300.00
506.6760, 22505.00
507.8580, 22656.00
509.0390, 23005.00
510.2210, 23096.00
511.4020, 23282.00
512.5830, 23397.00
513.7640, 23803.00
514.9450, 24040.00
516.1250, 24060.00
517.3060, 24499.00
518.4860, 24480.00
519.6660, 24639.00
520.8460, 24651.00
522.0260, 24431.00
523.2060, 24547.00
524.3850, 24354.00
525.5650, 24274.00
526.7440, 23870.00
527.9230, 23657.00
529.1020, 23454.00
530.2810, 23189.00
531.4590, 23061.00
532.6380, 22980.00
533.8160, 22503.00
534.9940, 22469.00
536.1720, 22119.00
537.3500, 22107.00
538.5270, 22222.00
539.7050, 22072.00
540.8820, 21539.00
542.0590, 21738.00
543.2360, 21565.00
544.4130, 21439.00
545.5900, 21494.00
546.7660, 21138.00
547.9430, 21046.00
549.1190, 21110.00
550.2950, 20841.00
551.4710, 20856.00
552.6470, 20749.00
553.8220, 20704.00
554.9980, 20756.00
556.1730, 20695.00
557.3480, 20469.00
558.5230, 20450.00
559.6980, 20533.00
560.8730, 20620.00
562.0470, 20535.00
563.2220, 20492.00
564.3960, 20432.00
565.5700, 20290.00
566.7440, 20231.66
567.9170, 20329.00
569.0910, 20038.00
570.2640, 19960.00
571.4380, 19853.00
572.6110, 19953.00
573.7840, 19677.00
574.9570, 19355.00
576.1290, 19381.00
577.3020, 19115.00
578.4740, 18816.00
579.6460, 18730.00
580.8180, 18754.00
581.9900, 18510.00
583.1620, 18370.00
584.3330, 18436.00
585.5040, 18178.00
586.6760, 18144.23
587.8470, 18060.01
589.0180, 17930.00
590.1880, 17901.00
591.3590, 17759.00
592.5290, 17708.00
593.7000, 17721.00
594.8700, 17908.00
596.0400, 17754.00
597.2090, 17779.00
598.3790, 17716.00
599.5490, 17728.00
600.7180, 17806.00
601.8870, 17901.00
603.0560, 18007.00
604.2250, 17827.00
605.3940, 17894.00
606.5620, 17974.00
607.7300, 17946.00
608.8990, 18169.00
610.0670, 18005.00
611.2350, 18139.00
612.4020, 18106.00
613.5700, 18141.00
614.7370, 18408.00
615.9050, 18141.00
617.0720, 18243.00
618.2390, 18426.00
619.4060, 18413.00
620.5720, 18661.00
621.7390, 18760.60
622.9050, 18978.00
624.0710, 18958.00
625.2370, 19163.00
626.4030, 19068.00
627.5690, 19376.00
628.7340, 19691.00
629.9000, 19749.00
631.0650, 20205.00
632.2300, 20279.00
633.3950, 20609.00
634.5600, 20798.00
635.7240, 21143.00
636.8890, 21526.00
638.0530, 21952.00
639.2170, 22053.00
640.3810, 22507.00
641.5450, 22928.00
642.7080, 23130.00
643.8720, 23621.00
645.0350, 24079.00
646.1980, 24858.00
647.3610, 25486.00
648.5240, 26164.00
649.6870, 27269.00
650.8490, 28182.00
652.0120, 29365.00
653.1740, 30943.00
654.3360, 33154.00
655.4980, 35298.00
656.6600, 38279.00
657.8210, 41630.00
658.9830, 44995.00
660.1440, 48710.00
661.3050, 52967.00
662.4660, 56854.00
663.6270, 60217.00
664.7870, 62286.00
665.9480, 62763.00
667.1080, 61581.00
668.2680, 59312.00
669.4280, 55233.00
670.5880, 50743.00
671.7480, 46621.00
672.9070, 42478.00
674.0670, 39037.00
675.2260, 36256.00
676.3850, 33551.00
677.5440, 31373.00
678.7030, 29729.00
679.8610, 28471.00
681.0200, 27456.00
682.1780, 26436.00
683.3360, 25418.00
684.4940, 24822.00
685.6520, 23944.00
686.8090, 23791.00
687.9670, 23166.00
689.1240, 22789.00
690.2810, 22269.00
691.4380, 21901.00
692.5950, 21465.00
693.7520, 20967.00
694.9080, 20949.00
696.0650, 20841.00
697.2210, 20383.00
698.3770, 20397.00
699.5330, 20425.00
700.6880, 19952.00
701.8440, 20028.00
702.9990, 19995.00
704.1550, 19823.00
705.3100, 19850.00
706.4650, 19788.00
707.6190, 19586.00
708.7740, 19426.00
709.9290, 19695.00
711.0830, 19533.00
712.2370, 19513.00
713.3910, 19502.00
714.5450, 19377.00
715.6980, 19480.00
716.8520, 19386.00
718.0050, 19443.00
719.1580, 19554.00
720.3110, 19349.00
721.4640, 19477.00
722.6170, 19523.00
723.7700, 19574.00
724.9220, 19590.00
726.0740, 19643.00
727.2260, 20032.00
728.3780, 20042.00
729.5300, 20251.00
730.6810, 20262.00
731.8330, 20257.00
732.9840, 20623.00
734.1350, 20465.00
735.2860, 20537.00
736.4370, 20658.00
737.5880, 20660.00
738.7380, 20853.00
739.8880, 20613.00
741.0390, 20797.00
742.1890, 20776.00
743.3380, 20446.00
744.4880, 20285.00
745.6380, 20128.00
746.7870, 20200.00
747.9360, 19945.00
749.0850, 20116.00
750.2340, 19727.00
751.3830, 19732.00
752.5310, 19555.00
753.6800, 19535.00
754.8280, 19601.00
755.9760, 19452.00
757.1240, 19363.00
758.2720, 19409.00
759.4190, 19288.00
760.5670, 19327.00
761.7140, 19273.00
762.8610, 19189.00
764.0080, 19202.96
765.1550, 19168.80
766.3020, 19169.00
767.4480, 19138.00
768.5950, 19131.00
769.7410, 19056.00
770.8870, 19142.00
772.0330, 19045.00
773.1780, 18884.00
774.3240, 18709.00
775.4690, 18817.00
776.6140, 18751.00
777.7590, 18818.00
778.9040, 18787.00
780.0490, 18816.00
781.1940, 18829.00
782.3380, 18721.00
783.4820, 18826.00
784.6260, 18699.00
785.7700, 18598.00
786.9140, 18546.00
788.0580, 18518.00
789.2010, 18691.00
790.3450, 18546.00
791.4880, 18663.00
792.6310, 18539.00
793.7730, 18575.00
794.9160, 18495.00
796.0590, 18603.00
797.2010, 18649.00
798.3430, 18687.00
799.4850, 18600.00
800.6270, 18480.00
801.7690, 18283.00
802.9100, 18457.00
804.0520, 18532.00
805.1930, 18638.00
806.3340, 18577.00
807.4750, 18709.00
808.6160, 18744.00
809.7560, 18633.00
810.8970, 18513.00
812.0370, 18597.00
813.1770, 18550.38
814.3170, 18805.00
815.4570, 18660.00
816.5960, 18743.00
817.7360, 18886.00
818.8750, 18674.00
820.0140, 18712.00
821.1530, 18885.00
822.2920, 19030.00
823.4310, 19031.00
824.5690, 18934.00
825.7070, 18855.00
826.8460, 19060.00
827.9840, 18685.00
829.1220, 19096.00
830.2590, 19021.00
831.3970, 19160.00
832.5340, 19140.00
833.6710, 18980.00
834.8080, 19185.00
835.9450, 19216.00
837.0820, 19406.00
838.2190, 19446.00
839.3550, 19343.00
840.4910, 19330.00
841.6270, 19285.00
842.7630, 19287.00
843.8990, 19488.00
845.0350, 19429.00
846.1700, 19466.00
847.3060, 19685.00
848.4410, 19672.00
849.5760, 19731.62
850.7100, 19558.00
851.8450, 19807.00
852.9800, 19691.00
854.1140, 19818.00
855.2480, 19851.00
856.3820, 19917.00
857.5160, 19875.00
858.6500, 19946.67
859.7830, 20068.00
860.9170, 20065.00
862.0500, 20161.00
863.1830, 20292.00
864.3160, 20408.00
865.4480, 20113.00
866.5810, 20363.00
867.7130, 20199.00
868.8460, 20192.00
869.9780, 20347.00
871.1100, 20469.00
872.2410, 20521.00
873.3730, 20631.00
874.5050, 20637.00
875.6360, 20856.00
876.7670, 20853.00
877.8980, 21068.00
879.0290, 21118.00
880.1590, 21098.00
881.2900, 21251.00
882.4200, 21286.61
883.5500, 21197.00
884.6800, 21424.00
885.8100, 21377.00
886.9400, 21372.00
888.0690, 21656.00
889.1990, 21889.00
890.3280, 21942.00
891.4570, 22172.00
892.5860, 22177.00
893.7140, 22483.00
894.8430, 22543.93
895.9710, 22616.00
897.1000, 22780.00
898.2280, 22820.00
899.3560, 22991.00
900.4830, 22862.00
901.6110, 23007.00
902.7380, 23011.00
903.8660, 23207.00
904.9930, 23457.00
906.1200, 23321.00
907.2460, 23522.00
908.3730, 23447.00
909.5000, 23590.00
910.6260, 23820.00
911.7520, 24076.00
912.8780, 24384.00
914.0040, 24543.77
915.1290, 24760.00
916.2550, 25009.00
917.3800, 25147.00
918.5050, 25621.00
919.6300, 25649.00
920.7550, 25974.00
921.8800, 26130.00
923.0040, 26201.45
924.1290, 26407.00
925.2530, 26310.00
926.3770, 26256.00
927.5010, 26207.00
928.6250, 25979.00
929.7480, 25823.00
930.8720, 25559.00
931.9950, 25387.07
933.1180, 25109.00
934.2410, 24997.00
935.3640, 24902.00
936.4860, 24693.00
937.6090, 24593.00
938.7310, 24723.00
939.8530, 24640.00
940.9750, 24598.00
942.0970, 24758.00
943.2180, 24764.00
944.3400, 24633.00
945.4610, 24913.00
946.5820, 24822.00
947.7030, 24918.00
948.8240, 24705.00
949.9450, 24768.00
951.0650, 24724.00
952.1860, 24647.00
953.3060, 24978.00
954.4260, 24953.00
955.5460, 24932.00
956.6650, 25008.00
957.7850, 24960.00
958.9040, 25037.36
960.0230, 24928.00
961.1420, 25129.00
962.2610, 25110.00
963.3800, 25071.00
964.4990, 25040.00
965.6170, 25382.00
966.7350, 24865.00
967.8530, 25305.00
968.9710, 25444.00
970.0890, 25303.00
971.2070, 25360.00
972.3240, 25247.00
973.4410, 25234.00
974.5580, 25379.00
975.6750, 25178.00
976.7920, 25146.00
977.9090, 25383.00
979.0250, 25302.00
980.1410, 25299.00
981.2580, 25465.00
982.3740, 25608.00
983.4890, 25603.00
984.6050, 25608.00
985.7200, 25989.00
986.8360, 26104.00
987.9510, 26137.00
989.0660, 26002.00
990.1810, 26217.00
991.2950, 26149.00
992.4100, 26470.00
993.5240, 26725.00
994.6390, 26929.00
995.7530, 27080.00
996.8660, 27288.00
997.9800, 27479.12
999.0940, 27803.00
1000.207, 27955.00
1001.320, 28321.00
1002.433, 28737.00
1003.546, 28996.16
1004.659, 29424.00
1005.772, 29570.00
1006.884, 30274.00
1007.996, 30384.00
1009.108, 31237.00
1010.220, 31608.00
1011.332, 32065.00
1012.444, 32643.00
1013.555, 33086.00
1014.666, 33509.93
1015.777, 33904.00
1016.888, 34496.00
1017.999, 35167.00
1019.110, 36104.00
1020.220, 36336.45
1021.331, 36700.27
1022.441, 36706.00
1023.551, 36665.00
1024.661, 36320.00
1025.770, 35677.00
1026.880, 35159.00
1027.989, 34847.00
1029.098, 34149.00
1030.207, 33607.00
1031.316, 33204.00
1032.425, 32691.00
1033.533, 32749.00
1034.642, 32624.00
1035.750, 32861.00
1036.858, 33198.00
1037.966, 33592.00
1039.073, 34001.00
1040.181, 34577.00
1041.288, 35054.00
1042.396, 35556.00
1043.503, 36079.00
1044.610, 36435.00
1045.716, 36677.00
1046.823, 36749.00
1047.929, 36694.00
1049.036, 36482.00
1050.142, 36196.00
1051.248, 36089.86
1052.353, 35654.48
1053.459, 35882.00
1054.564, 35612.42
1055.670, 35173.00
1056.775, 35362.00
1057.880, 35336.00
1058.985, 35166.00
1060.089, 35159.00
1061.194, 34831.00
1062.298, 34187.00
1063.402, 33163.00
1064.506, 32289.00
1065.610, 31336.00
1066.713, 30382.00
1067.817, 29399.00
1068.920, 28442.00
1070.023, 27839.00
1071.126, 27408.00
1072.229, 26886.00
1073.332, 26573.00
1074.435, 26141.00
1075.537, 25969.00
1076.639, 25548.00
1077.741, 25534.00
1078.843, 25087.00
1079.945, 24999.00
1081.046, 24957.00
1082.148, 24975.00
1083.249, 24693.00
1084.350, 24727.00
1085.451, 24268.00
1086.551, 24522.00
1087.652, 24319.00
1088.752, 24416.00
1089.853, 24186.00
1090.953, 24212.00
1092.053, 23941.00
1093.152, 23916.00
1094.252, 23944.00
1095.351, 23731.00
1096.451, 24010.00
1097.550, 23855.00
1098.649, 24067.00
1099.748, 23738.00
1100.846, 23938.00
1101.945, 23757.00
1103.043, 23827.00
1104.141, 23863.00
1105.239, 23783.00
1106.337, 23844.00
1107.434, 23783.29
1108.532, 23505.00
1109.629, 23682.00
1110.726, 23506.00
1111.823, 23419.00
1112.920, 23503.00
1114.017, 23556.00
1115.113, 23476.00
1116.210, 23464.00
1117.306, 23647.00
1118.402, 23733.00
1119.498, 23658.00
1120.593, 23817.00
1121.689, 23941.00
1122.784, 23943.00
1123.879, 23926.45
1124.974, 23754.00
1126.069, 23729.00
1127.164, 23676.00
1128.259, 23548.00
1129.353, 23510.00
1130.447, 23233.00
1131.541, 23096.00
1132.635, 22977.00
1133.729, 22910.00
1134.822, 22818.00
1135.916, 22745.00
1137.009, 22463.00
1138.102, 22633.00
1139.195, 22808.00
1140.288, 22582.00
1141.380, 22372.00
1142.473, 22461.00
1143.565, 22320.79
1144.657, 22330.00
1145.749, 22291.00
1146.841, 22356.00
1147.932, 22350.00
1149.024, 22401.00
1150.115, 22224.00
1151.206, 22004.00
1152.297, 22147.00
1153.388, 22139.00
1154.479, 22374.00
1155.569, 22468.00
1156.659, 22335.00
1157.750, 22268.00
1158.839, 22255.00
1159.929, 22265.00
1161.019, 22213.00
1162.108, 22315.00
1163.198, 22201.00
1164.287, 22224.00
1165.376, 22298.00
1166.465, 22306.00
1167.553, 22267.00
1168.642, 22374.00
1169.730, 22324.00
1170.818, 22310.00
1171.906, 22335.00
1172.994, 22279.00
1174.082, 22239.24
1175.170, 22198.00
1176.257, 22161.00
1177.344, 22139.00
1178.431, 22214.00
1179.518, 22289.00
1180.605, 22212.00
1181.691, 22341.92
1182.778, 22237.00
1183.864, 22474.00
1184.950, 22442.00
1186.036, 22436.00
1187.122, 22361.00
1188.207, 22241.00
1189.292, 22377.00
1190.378, 22342.00
1191.463, 22313.56
1192.548, 22409.00
1193.632, 22340.00
1194.717, 22404.00
1195.801, 22598.00
1196.886, 22310.00
1197.970, 22327.00
1199.054, 22492.00
1200.137, 22625.00
1201.221, 22568.00
1202.305, 22529.00
1203.388, 22528.00
1204.471, 22435.00
1205.554, 22561.00
1206.637, 22418.00
1207.719, 22651.00
1208.802, 22566.00
1209.884, 22577.00
1210.966, 22657.00
1212.048, 22700.00
1213.130, 22616.00
1214.212, 22567.00
1215.293, 22589.00
1216.374, 22517.00
1217.456, 22578.00
1218.536, 22625.00
1219.617, 22519.00
1220.698, 22524.00
1221.778, 22734.00
1222.859, 22906.00
1223.939, 22687.00
1225.019, 22718.00
1226.099, 22573.00
1227.178, 22682.00
1228.258, 22663.00
1229.337, 22652.00
1230.417, 22697.00
1231.496, 22741.00
1232.574, 22746.24
1233.653, 22778.00
1234.732, 22762.00
1235.810, 22825.00
1236.888, 22791.06
1237.966, 23065.00
1239.044, 22932.00
1240.122, 22983.00
1241.199, 23192.00
1242.277, 22903.00
1243.354, 23019.00
1244.431, 23053.00
1245.508, 23273.00
1246.585, 23082.00
1247.661, 23076.00
1248.738, 23319.00
1249.814, 23067.00
1250.890, 23201.00
1251.966, 23105.00
1253.042, 23104.00
1254.117, 23367.00
1255.193, 23258.00
1256.268, 23069.00
1257.343, 23152.00
1258.418, 23240.00
1259.493, 23181.00
1260.567, 23034.00
1261.642, 23300.00
1262.716, 23390.00
1263.790, 23402.00
1264.864, 23651.00
1265.938, 23427.00
1267.011, 23340.00
1268.085, 23388.00
1269.158, 23233.00
1270.231, 23423.00
1271.304, 23447.00
1272.377, 23326.00
1273.450, 23598.00
1274.522, 23292.00
1275.594, 23598.00
1276.666, 23458.00
