##NAMES=Ferro-actinolite
##RRUFFID=R060189
##IDEAL CHEMISTRY=[box]Ca_2_Mg_2.5-0_Fe^2+^_2.5-5_Si_8_O_22_(OH)_2_
##LOCALITY=Merry Widow mine, Vancouver Island, British Columbia, Canada
##OWNER=RRUFF
##SOURCE=Lloyd Twaites
##DESCRIPTION=Parallel aggregate of green fibers
##STATUS=The identification of this mineral has been confirmed by X-ray diffraction and chemical analysis
##URL=rruff.info/R060189
##MEASURED CHEMISTRY=[box](Ca_1.94_Na_0.06_)_Σ=2_(Fe^2+^_2.55_Mg_2.15_Fe^3+^_0.20_Al_0.05_Mn_0.05_)_Σ=5_(Si_0.98_Al_0.02_)_8_O_22_(OH)_2_
95.94800, 15904.00
97.18200, 15803.00
98.41600, 15830.00
99.64900, 16300.00
100.8830, 16721.00
102.1160, 16528.00
103.3490, 16834.00
104.5820, 17198.00
105.8150, 18368.00
107.0470, 19207.00
108.2800, 19414.00
109.5120, 20190.00
110.7440, 20728.00
111.9760, 19396.00
113.2080, 18913.00
114.4400, 18863.00
115.6710, 19374.00
116.9030, 19777.00
118.1340, 19542.00
119.3650, 19388.00
120.5960, 18927.00
121.8270, 18912.00
123.0580, 19411.00
124.2880, 19802.00
125.5190, 19607.00
126.7490, 19889.00
127.9790, 20059.00
129.2090, 20462.00
130.4390, 20736.00
131.6680, 20979.00
132.8980, 20971.00
134.1270, 20671.00
135.3560, 20824.00
136.5850, 21080.00
137.8140, 21651.00
139.0430, 22927.00
140.2710, 24413.00
141.5000, 25803.00
142.7280, 27325.00
143.9560, 29233.00
145.1840, 30824.00
146.4120, 32092.00
147.6390, 31921.00
148.8670, 30536.00
150.0940, 28524.00
151.3210, 26336.00
152.5490, 24933.00
153.7750, 23634.00
155.0020, 22722.00
156.2290, 22195.00
157.4550, 21815.00
158.6810, 21491.00
159.9080, 21632.00
161.1340, 21541.00
162.3590, 21879.00
163.5850, 22505.00
164.8110, 23364.00
166.0360, 23997.00
167.2610, 24982.00
168.4860, 25938.00
169.7110, 27154.00
170.9360, 27909.00
172.1610, 28223.00
173.3850, 27761.00
174.6100, 26807.00
175.8340, 25682.00
177.0580, 24703.00
178.2820, 23888.00
179.5050, 23413.00
180.7290, 22757.00
181.9520, 22479.00
183.1760, 22419.00
184.3990, 22147.00
185.6220, 22236.00
186.8450, 22484.00
188.0670, 22624.00
189.2900, 22972.00
190.5120, 23152.00
191.7340, 23498.00
192.9560, 23877.00
194.1780, 23956.00
195.4000, 24405.00
196.6220, 24943.00
197.8430, 25113.00
199.0640, 25474.00
200.2860, 26100.00
201.5070, 26736.00
202.7270, 27324.00
203.9480, 27505.00
205.1690, 27497.00
206.3890, 27531.00
207.6090, 27751.00
208.8290, 28039.00
210.0490, 28961.00
211.2690, 29663.00
212.4890, 30297.00
213.7080, 30740.00
214.9280, 30875.00
216.1470, 31168.00
217.3660, 30909.00
218.5850, 30838.00
219.8030, 30008.00
221.0220, 29497.00
222.2400, 29074.00
223.4590, 28188.00
224.6770, 27848.00
225.8950, 26838.00
227.1120, 26349.00
228.3300, 26040.00
229.5480, 25641.00
230.7650, 25297.00
231.9820, 25005.00
233.1990, 24554.00
234.4160, 24490.00
235.6330, 24445.00
236.8490, 23916.00
238.0660, 23805.00
239.2820, 23657.00
240.4980, 23511.00
241.7140, 23399.16
242.9300, 23191.00
244.1460, 23154.00
245.3610, 23095.00
246.5770, 22961.45
247.7920, 22467.00
249.0070, 22608.00
250.2220, 22334.00
251.4370, 22195.00
252.6510, 22320.00
253.8660, 22155.00
255.0800, 22029.00
256.2940, 22024.00
257.5080, 21950.00
258.7220, 22104.00
259.9360, 22369.00
261.1490, 22780.00
262.3630, 22209.00
263.5760, 21871.00
264.7890, 21588.00
266.0020, 21732.00
267.2150, 21465.00
268.4270, 21635.00
269.6400, 21657.00
270.8520, 21770.00
272.0640, 21611.00
273.2760, 21706.00
274.4880, 21909.00
275.7000, 21833.00
276.9120, 22058.00
278.1230, 22080.00
279.3340, 21885.00
280.5450, 21864.00
281.7560, 21980.00
282.9670, 22102.00
284.1780, 22059.00
285.3880, 21945.00
286.5980, 22028.00
287.8090, 22047.00
289.0190, 22308.00
290.2290, 22091.00
291.4380, 22301.00
292.6480, 22196.12
293.8570, 22319.00
295.0670, 22123.00
296.2760, 22210.00
297.4850, 22426.00
298.6930, 22205.00
299.9020, 22277.00
301.1110, 22105.00
302.3190, 22240.00
303.5270, 22261.00
304.7350, 22291.00
305.9430, 22256.00
307.1510, 22419.00
308.3580, 22149.00
309.5660, 22247.00
310.7730, 22493.00
311.9800, 22445.00
313.1870, 22195.00
314.3940, 22382.00
315.6010, 22301.00
316.8070, 22504.00
318.0130, 22484.00
319.2200, 22538.00
320.4260, 22684.00
321.6310, 22824.00
322.8370, 22889.00
324.0430, 23067.00
325.2480, 23149.00
326.4540, 23270.00
327.6590, 23260.00
328.8640, 23507.00
330.0680, 23592.00
331.2730, 23505.00
332.4780, 23563.00
333.6820, 23719.00
334.8860, 23650.00
336.0900, 23973.00
337.2940, 23889.00
338.4980, 23947.00
339.7010, 24038.00
340.9050, 23916.00
342.1080, 24188.75
343.3110, 24390.00
344.5140, 24533.00
345.7170, 24523.00
346.9200, 24436.00
348.1220, 24692.00
349.3240, 25064.00
350.5270, 25124.00
351.7290, 24995.00
352.9310, 25302.00
354.1320, 25368.00
355.3340, 25361.00
356.5350, 25529.00
357.7370, 25637.00
358.9380, 25597.00
360.1390, 25328.00
361.3400, 25039.00
362.5400, 25184.00
363.7410, 24851.00
364.9410, 24856.00
366.1410, 24793.00
367.3410, 25035.00
368.5410, 24820.00
369.7410, 25017.00
370.9400, 24996.00
372.1400, 25102.00
373.3390, 25212.00
374.5380, 25437.00
375.7370, 25584.00
376.9360, 25949.00
378.1350, 26064.00
379.3330, 26238.00
380.5310, 26140.00
381.7300, 26487.00
382.9280, 26250.00
384.1260, 26223.00
385.3230, 26045.00
386.5210, 25965.00
387.7180, 25794.00
388.9160, 25606.00
390.1130, 25272.00
391.3100, 24962.00
392.5060, 24820.00
393.7030, 24566.00
394.9000, 24736.00
396.0960, 24584.00
397.2920, 24348.00
398.4880, 24290.00
399.6840, 24116.00
400.8800, 23956.00
402.0750, 23790.00
403.2710, 23848.00
404.4660, 23652.00
405.6610, 23334.00
406.8560, 23377.00
408.0510, 23145.00
409.2450, 23007.00
410.4400, 22996.00
411.6340, 23084.00
412.8280, 22826.00
414.0220, 22902.00
415.2160, 22730.00
416.4100, 22685.00
417.6030, 22682.00
418.7970, 22444.00
419.9900, 22688.00
421.1830, 22763.00
422.3760, 22728.00
423.5690, 23017.00
424.7610, 23230.00
425.9540, 23322.00
427.1460, 23705.00
428.3380, 24069.00
429.5300, 23805.00
430.7220, 23890.00
431.9140, 23857.00
433.1050, 23558.00
434.2970, 23531.00
435.4880, 23151.00
436.6790, 22843.00
437.8700, 22663.00
439.0610, 22519.00
440.2510, 22489.00
441.4420, 22256.00
442.6320, 22411.00
443.8220, 22130.00
445.0120, 22276.00
446.2020, 22149.00
447.3910, 22016.00
448.5810, 22173.00
449.7700, 22149.00
450.9600, 22106.00
452.1490, 22152.00
453.3370, 22139.00
454.5260, 22136.00
455.7150, 22138.00
456.9030, 22107.00
458.0910, 22149.00
459.2800, 22109.00
460.4670, 22086.00
461.6550, 22169.00
462.8430, 22266.00
464.0300, 22209.00
465.2180, 22327.00
466.4050, 22253.00
467.5920, 22383.00
468.7790, 22431.00
469.9650, 22327.00
471.1520, 22370.00
472.3380, 22438.00
473.5250, 22485.00
474.7110, 22469.00
475.8970, 22694.00
477.0820, 22666.00
478.2680, 22637.00
479.4540, 22690.00
480.6390, 22536.00
481.8240, 22776.00
483.0090, 22965.00
484.1940, 22882.00
485.3780, 23072.00
486.5630, 22886.00
487.7470, 22826.00
488.9320, 22973.00
490.1160, 23200.00
491.3000, 23184.00
492.4830, 23466.00
493.6670, 23478.00
494.8500, 23436.00
496.0340, 23412.00
497.2170, 23726.00
498.4000, 23742.00
499.5820, 24023.00
500.7650, 23853.00
501.9480, 24088.00
503.1300, 24140.00
504.3120, 24323.00
505.4940, 24431.00
506.6760, 24359.00
507.8580, 24547.00
509.0390, 24602.88
510.2210, 24940.00
511.4020, 24887.00
512.5830, 25082.00
513.7640, 25376.00
514.9450, 25368.00
516.1250, 25475.00
517.3060, 25713.00
518.4860, 25986.00
519.6660, 26049.00
520.8460, 26255.00
522.0260, 26014.00
523.2060, 26039.00
524.3850, 25987.00
525.5650, 26120.00
526.7440, 25983.00
527.9230, 25761.00
529.1020, 25829.00
530.2810, 25691.00
531.4590, 25715.00
532.6380, 25504.00
533.8160, 25697.00
534.9940, 25493.00
536.1720, 25259.00
537.3500, 25408.00
538.5270, 25408.00
539.7050, 25194.00
540.8820, 25209.00
542.0590, 25041.00
543.2360, 25229.00
544.4130, 25106.00
545.5900, 24937.00
546.7660, 24875.00
547.9430, 25134.00
549.1190, 24874.00
550.2950, 24704.00
551.4710, 25019.00
552.6470, 24768.00
553.8220, 24947.00
554.9980, 24902.00
556.1730, 24813.00
557.3480, 24683.00
558.5230, 24753.00
559.6980, 24821.00
560.8730, 24668.00
562.0470, 24958.00
563.2220, 24720.00
564.3960, 24858.00
565.5700, 24684.00
566.7440, 24645.00
567.9170, 24500.00
569.0910, 24315.00
570.2640, 24800.00
571.4380, 24634.00
572.6110, 24626.00
573.7840, 24613.00
574.9570, 24481.00
576.1290, 24485.00
577.3020, 24355.00
578.4740, 24205.00
579.6460, 24066.00
580.8180, 24125.00
581.9900, 24012.00
583.1620, 23880.00
584.3330, 24055.00
585.5040, 23995.00
586.6760, 23987.34
587.8470, 23927.00
589.0180, 23958.00
590.1880, 23831.00
591.3590, 23810.00
592.5290, 23823.38
593.7000, 23933.00
594.8700, 23864.00
596.0400, 23901.00
597.2090, 23934.00
598.3790, 24108.00
599.5490, 24094.00
600.7180, 24145.00
601.8870, 24009.00
603.0560, 24032.00
604.2250, 24142.00
605.3940, 24352.00
606.5620, 24364.00
607.7300, 24448.00
608.8990, 24463.00
610.0670, 24306.00
611.2350, 24465.00
612.4020, 24339.00
613.5700, 24595.00
614.7370, 24678.00
615.9050, 24547.00
617.0720, 24657.00
618.2390, 24833.00
619.4060, 24937.00
620.5720, 25070.85
621.7390, 25193.61
622.9050, 25314.00
624.0710, 25418.00
625.2370, 25528.00
626.4030, 25640.00
627.5690, 25896.00
628.7340, 26178.00
629.9000, 25986.00
631.0650, 26296.00
632.2300, 26486.00
633.3950, 26757.00
634.5600, 26855.00
635.7240, 27307.00
636.8890, 27437.00
638.0530, 27708.00
639.2170, 27981.00
640.3810, 28197.77
641.5450, 28428.00
642.7080, 28823.00
643.8720, 29128.00
645.0350, 29680.00
646.1980, 29802.00
647.3610, 30292.00
648.5240, 31175.00
649.6870, 31749.00
650.8490, 32816.00
652.0120, 34042.00
653.1740, 34869.00
654.3360, 36441.00
655.4980, 38285.00
656.6600, 40500.00
657.8210, 43061.00
658.9830, 45725.00
660.1440, 48425.00
661.3050, 51407.00
662.4660, 54148.00
663.6270, 56148.00
664.7870, 57178.00
665.9480, 56612.00
667.1080, 55679.00
668.2680, 53464.00
669.4280, 49982.00
670.5880, 47271.00
671.7480, 44012.00
672.9070, 41424.00
674.0670, 38917.00
675.2260, 37093.00
676.3850, 35217.00
677.5440, 33919.00
678.7030, 32864.00
679.8610, 31845.00
681.0200, 30829.00
682.1780, 30360.00
683.3360, 29994.00
684.4940, 29343.00
685.6520, 28907.00
686.8090, 28817.00
687.9670, 28301.00
689.1240, 27752.00
690.2810, 27737.00
691.4380, 27308.00
692.5950, 27102.00
693.7520, 26985.00
694.9080, 26891.00
696.0650, 26615.00
697.2210, 26737.00
698.3770, 26369.00
699.5330, 26634.00
700.6880, 26483.00
701.8440, 26259.00
702.9990, 26174.00
704.1550, 26309.00
705.3100, 26086.00
706.4650, 26257.00
707.6190, 26190.00
708.7740, 25930.00
709.9290, 26063.00
711.0830, 26050.00
712.2370, 26187.00
713.3910, 25950.00
714.5450, 26010.00
715.6980, 25927.00
716.8520, 26018.00
718.0050, 25785.00
719.1580, 26099.00
720.3110, 25926.00
721.4640, 26073.00
722.6170, 26489.00
723.7700, 25978.00
724.9220, 26112.00
726.0740, 26358.00
727.2260, 26430.00
728.3780, 26335.00
729.5300, 26397.00
730.6810, 26622.00
731.8330, 26382.00
732.9840, 26497.00
734.1350, 26366.00
735.2860, 26595.00
736.4370, 26634.00
737.5880, 26531.00
738.7380, 26476.00
739.8880, 26364.00
741.0390, 26642.00
742.1890, 26519.00
743.3380, 26570.00
744.4880, 26587.00
745.6380, 26607.00
746.7870, 26368.00
747.9360, 26571.00
749.0850, 26211.00
750.2340, 26284.00
751.3830, 26462.00
752.5310, 26324.00
753.6800, 26485.00
754.8280, 26387.00
755.9760, 26411.00
757.1240, 26355.00
758.2720, 26099.00
759.4190, 26388.00
760.5670, 26221.00
761.7140, 26497.00
762.8610, 26150.00
764.0080, 26313.00
765.1550, 26542.00
766.3020, 26413.00
767.4480, 26266.00
768.5950, 26252.00
769.7410, 26363.00
770.8870, 26297.00
772.0330, 26359.00
773.1780, 26367.00
774.3240, 26219.00
775.4690, 26497.00
776.6140, 26485.00
777.7590, 26556.00
778.9040, 26491.00
780.0490, 26644.00
781.1940, 26562.00
782.3380, 26499.00
783.4820, 26235.00
784.6260, 26430.00
785.7700, 26620.00
786.9140, 26172.00
788.0580, 26471.00
789.2010, 26490.00
790.3450, 26458.00
791.4880, 26393.00
792.6310, 26465.00
793.7730, 26585.00
794.9160, 26495.00
796.0590, 26453.00
797.2010, 26423.00
798.3430, 26581.00
799.4850, 26429.00
800.6270, 26636.00
801.7690, 26355.00
802.9100, 26384.00
804.0520, 26733.00
805.1930, 26788.00
806.3340, 26715.00
807.4750, 26833.00
808.6160, 26802.00
809.7560, 26761.00
810.8970, 26577.00
812.0370, 26808.00
813.1770, 27029.00
814.3170, 26978.00
815.4570, 26862.00
816.5960, 26821.00
817.7360, 27128.00
818.8750, 27041.00
820.0140, 27162.00
821.1530, 27007.00
822.2920, 27201.00
823.4310, 27085.00
824.5690, 27211.00
825.7070, 27497.00
826.8460, 27247.00
827.9840, 27130.00
829.1220, 27353.00
830.2590, 27357.00
831.3970, 27443.00
832.5340, 27323.00
833.6710, 27464.00
834.8080, 27408.00
835.9450, 27586.00
837.0820, 27790.00
838.2190, 27594.00
839.3550, 27370.00
840.4910, 27572.00
841.6270, 27658.00
842.7630, 27399.00
843.8990, 27856.00
845.0350, 27803.00
846.1700, 27720.00
847.3060, 27900.00
848.4410, 27969.00
849.5760, 28038.74
850.7100, 28045.87
851.8450, 28195.00
852.9800, 28034.00
854.1140, 27986.00
855.2480, 28114.00
856.3820, 28079.00
857.5160, 28180.00
858.6500, 28300.00
859.7830, 28402.00
860.9170, 28294.00
862.0500, 28559.00
863.1830, 28565.00
864.3160, 28624.00
865.4480, 28423.00
866.5810, 28594.00
867.7130, 28892.00
868.8460, 28645.00
869.9780, 28952.00
871.1100, 29077.00
872.2410, 29048.00
873.3730, 29050.00
874.5050, 29223.00
875.6360, 29009.00
876.7670, 29339.00
877.8980, 29277.00
879.0290, 29183.00
880.1590, 29470.00
881.2900, 29441.00
882.4200, 29386.00
883.5500, 29522.00
884.6800, 29596.00
885.8100, 29874.00
886.9400, 29723.00
888.0690, 29880.00
889.1990, 30145.00
890.3280, 30177.00
891.4570, 30279.00
892.5860, 30470.00
893.7140, 30607.00
894.8430, 30697.00
895.9710, 30823.00
897.1000, 30932.04
898.2280, 30885.00
899.3560, 31087.00
900.4830, 31102.00
901.6110, 31036.00
902.7380, 31065.00
903.8660, 31088.00
904.9930, 31197.00
906.1200, 31453.00
907.2460, 31573.00
908.3730, 31824.00
909.5000, 31704.00
910.6260, 32002.00
911.7520, 31941.00
912.8780, 32407.00
914.0040, 32160.00
915.1290, 32511.00
916.2550, 32582.00
917.3800, 32637.00
918.5050, 33005.14
919.6300, 33201.53
920.7550, 33487.00
921.8800, 33734.00
923.0040, 33689.00
924.1290, 33673.00
925.2530, 33957.00
926.3770, 33443.00
927.5010, 33576.00
928.6250, 33782.00
929.7480, 33149.00
930.8720, 33111.00
931.9950, 32998.00
933.1180, 32957.00
934.2410, 32849.00
935.3640, 32802.94
936.4860, 32611.00
937.6090, 32771.00
938.7310, 32605.00
939.8530, 32714.00
940.9750, 32617.00
942.0970, 32524.00
943.2180, 32872.00
944.3400, 32739.00
945.4610, 32937.00
946.5820, 32775.00
947.7030, 32869.00
948.8240, 32788.00
949.9450, 32810.00
951.0650, 32987.00
952.1860, 33121.00
953.3060, 33055.00
954.4260, 33331.00
955.5460, 33349.00
956.6650, 33324.00
957.7850, 33137.00
958.9040, 33240.00
960.0230, 33217.00
961.1420, 33536.00
962.2610, 33262.00
963.3800, 33444.00
964.4990, 33348.00
965.6170, 33435.00
966.7350, 33581.00
967.8530, 33426.00
968.9710, 33269.00
970.0890, 33371.00
971.2070, 33436.00
972.3240, 33424.00
973.4410, 33100.00
974.5580, 33409.00
975.6750, 33481.00
976.7920, 33320.00
977.9090, 33559.00
979.0250, 33382.00
980.1410, 33413.00
981.2580, 33586.00
982.3740, 33510.00
983.4890, 33674.00
984.6050, 33434.00
985.7200, 33401.00
986.8360, 33559.00
987.9510, 33710.00
989.0660, 33912.00
990.1810, 33627.00
991.2950, 33877.00
992.4100, 33825.00
993.5240, 34157.00
994.6390, 34312.00
995.7530, 34332.00
996.8660, 34534.00
997.9800, 34569.00
999.0940, 34800.00
1000.207, 35043.00
1001.320, 35228.00
1002.433, 35392.00
1003.546, 35483.00
1004.659, 35837.00
1005.772, 35724.00
1006.884, 36057.00
1007.996, 36160.00
1009.108, 36315.95
1010.220, 36593.94
1011.332, 36732.00
1012.444, 37074.00
1013.555, 37341.00
1014.666, 37570.00
1015.777, 37784.31
1016.888, 38075.00
1017.999, 38194.00
1019.110, 38350.00
1020.220, 38709.00
1021.331, 38653.00
1022.441, 38833.00
1023.551, 38850.00
1024.661, 38591.00
1025.770, 38749.00
1026.880, 38338.00
1027.989, 38498.00
1029.098, 38371.00
1030.207, 38187.00
1031.316, 38018.00
1032.425, 38303.00
1033.533, 38416.00
1034.642, 38595.00
1035.750, 39007.00
1036.858, 39444.00
1037.966, 39845.00
1039.073, 40321.00
1040.181, 40604.00
1041.288, 41106.00
1042.396, 41487.00
1043.503, 42042.00
1044.610, 42152.00
1045.716, 42249.00
1046.823, 42012.00
1047.929, 42142.00
1049.036, 42055.00
1050.142, 41667.00
1051.248, 41541.00
1052.353, 41547.00
1053.459, 41170.00
1054.564, 41171.84
1055.670, 41082.38
1056.775, 40933.00
1057.880, 40932.00
1058.985, 40722.00
1060.089, 40484.00
1061.194, 40308.00
1062.298, 39730.00
1063.402, 39481.00
1064.506, 38563.00
1065.610, 38264.00
1066.713, 37691.00
1067.817, 37242.00
1068.920, 36799.00
1070.023, 36631.00
1071.126, 36239.00
1072.229, 36135.00
1073.332, 35818.00
1074.435, 35441.00
1075.537, 35516.00
1076.639, 35432.00
1077.741, 35558.00
1078.843, 35279.00
1079.945, 35357.00
1081.046, 35343.00
1082.148, 35177.00
1083.249, 35149.98
1084.350, 35166.00
1085.451, 35091.00
1086.551, 34808.00
1087.652, 35133.00
1088.752, 35265.00
1089.853, 34995.00
1090.953, 35036.00
1092.053, 35088.00
1093.152, 34973.00
1094.252, 34886.00
1095.351, 35087.00
1096.451, 34956.00
1097.550, 34787.00
1098.649, 34909.00
1099.748, 34886.00
1100.846, 34811.00
1101.945, 34783.00
1103.043, 34852.00
1104.141, 34987.00
1105.239, 35087.00
1106.337, 34944.00
1107.434, 34863.00
1108.532, 34840.76
1109.629, 34985.00
1110.726, 34707.00
1111.823, 34736.00
1112.920, 34669.00
1114.017, 34904.00
1115.113, 34864.00
1116.210, 34807.00
1117.306, 34929.00
1118.402, 35350.00
1119.498, 35509.00
1120.593, 35205.00
1121.689, 35561.00
1122.784, 35393.00
1123.879, 35211.00
1124.974, 35381.00
1126.069, 35335.00
1127.164, 35394.00
1128.259, 35322.00
1129.353, 35173.00
1130.447, 35309.00
1131.541, 34897.00
1132.635, 35316.00
1133.729, 34997.00
1134.822, 35217.00
1135.916, 35145.00
1137.009, 35196.00
1138.102, 35167.00
1139.195, 35195.00
1140.288, 35247.16
1141.380, 34939.00
1142.473, 35270.00
1143.565, 35448.00
1144.657, 35275.00
1145.749, 35050.00
1146.841, 35066.00
1147.932, 35135.00
1149.024, 35283.00
1150.115, 35440.00
1151.206, 35081.00
1152.297, 35234.00
1153.388, 35339.00
1154.479, 35649.00
1155.569, 35322.00
1156.659, 35415.00
1157.750, 35000.00
1158.839, 35305.00
1159.929, 35524.00
1161.019, 35580.00
1162.108, 35700.65
1163.198, 35354.00
1164.287, 35669.00
1165.376, 35676.00
1166.465, 35509.00
1167.553, 35751.00
1168.642, 35670.00
1169.730, 35894.00
1170.818, 35555.00
1171.906, 35908.00
1172.994, 35794.00
1174.082, 35886.00
1175.170, 35992.00
1176.257, 35829.00
1177.344, 36047.00
1178.431, 35888.00
1179.518, 36013.00
1180.605, 35930.00
1181.691, 35813.00
1182.778, 35982.00
1183.864, 36171.00
1184.950, 35920.00
1186.036, 36372.00
1187.122, 35953.00
1188.207, 36001.00
1189.292, 36018.00
1190.378, 36021.00
1191.463, 36024.00
1192.548, 36261.00
1193.632, 36049.00
1194.717, 36422.00
1195.801, 36598.00
1196.886, 36325.00
1197.970, 35988.00
1199.054, 36328.00
1200.137, 36089.00
1201.221, 36471.00
1202.305, 36395.00
1203.388, 36285.00
1204.471, 36433.00
1205.554, 36485.00
1206.637, 36734.00
1207.719, 36476.00
1208.802, 36561.00
1209.884, 36918.00
1210.966, 36580.00
1212.048, 36561.00
1213.130, 36748.00
1214.212, 36423.00
1215.293, 36896.00
1216.374, 36725.00
1217.456, 36856.00
1218.536, 36808.00
1219.617, 36837.00
1220.698, 37133.00
1221.778, 37381.00
1222.859, 36988.00
1223.939, 36804.00
1225.019, 37242.00
1226.099, 36838.00
1227.178, 36934.00
1228.258, 37115.00
1229.337, 37241.00
1230.417, 37206.00
1231.496, 37063.00
1232.574, 36860.00
1233.653, 37499.00
1234.732, 37177.00
1235.810, 37607.00
1236.888, 37363.00
1237.966, 37355.00
1239.044, 37570.00
1240.122, 37346.00
1241.199, 37662.00
1242.277, 37485.00
1243.354, 37365.00
1244.431, 37713.00
1245.508, 37881.00
1246.585, 37876.00
1247.661, 37620.00
1248.738, 37572.00
1249.814, 37744.00
1250.890, 37696.00
1251.966, 37785.00
1253.042, 37962.00
1254.117, 37962.00
1255.193, 38028.49
1256.268, 38172.00
1257.343, 38056.00
1258.418, 38124.00
1259.493, 38131.00
1260.567, 38046.00
1261.642, 37907.00
1262.716, 38092.00
1263.790, 38299.00
1264.864, 38434.00
1265.938, 38399.00
1267.011, 38366.00
1268.085, 38311.00
1269.158, 38445.00
1270.231, 38559.00
1271.304, 38409.00
1272.377, 38354.00
1273.450, 38543.00
1274.522, 38514.00
1275.594, 38519.91
1276.666, 38709.00
