##NAMES=Ferro-actinolite
##RRUFFID=R060189
##IDEAL CHEMISTRY=[box]Ca_2_Mg_2.5-0_Fe^2+^_2.5-5_Si_8_O_22_(OH)_2_
##LOCALITY=Merry Widow mine, Vancouver Island, British Columbia, Canada
##OWNER=RRUFF
##SOURCE=Lloyd Twaites
##DESCRIPTION=Parallel aggregate of green fibers
##STATUS=The identification of this mineral has been confirmed by X-ray diffraction and chemical analysis
##URL=rruff.info/R060189
##MEASURED CHEMISTRY=[box](Ca_1.94_Na_0.06_)_Σ=2_(Fe^2+^_2.55_Mg_2.15_Fe^3+^_0.20_Al_0.05_Mn_0.05_)_Σ=5_(Si_0.98_Al_0.02_)_8_O_22_(OH)_2_
95.94800, 20679.00
97.18200, 20656.00
98.41600, 21145.00
99.64900, 21661.00
100.8830, 21967.00
102.1160, 22283.00
103.3490, 22663.00
104.5820, 23262.00
105.8150, 24339.00
107.0470, 25492.00
108.2800, 26767.00
109.5120, 28266.00
110.7440, 28213.00
111.9760, 27712.00
113.2080, 27767.00
114.4400, 28294.00
115.6710, 28391.00
116.9030, 28197.00
118.1340, 27524.00
119.3650, 26796.00
120.5960, 26005.00
121.8270, 25739.00
123.0580, 25656.00
124.2880, 25497.00
125.5190, 24943.00
126.7490, 24679.00
127.9790, 25037.00
129.2090, 25256.00
130.4390, 25293.00
131.6680, 25499.00
132.8980, 25394.00
134.1270, 25505.00
135.3560, 25477.00
136.5850, 25743.00
137.8140, 26301.00
139.0430, 26891.00
140.2710, 27445.00
141.5000, 27597.00
142.7280, 28084.00
143.9560, 28201.00
145.1840, 28718.00
146.4120, 28487.00
147.6390, 28480.00
148.8670, 28003.00
150.0940, 27332.00
151.3210, 27228.00
152.5490, 27135.00
153.7750, 26594.00
155.0020, 26718.75
156.2290, 26547.00
157.4550, 26888.00
158.6810, 26701.00
159.9080, 27175.00
161.1340, 27051.00
162.3590, 27616.00
163.5850, 28198.00
164.8110, 28693.00
166.0360, 29367.00
167.2610, 30203.00
168.4860, 30824.00
169.7110, 31549.00
170.9360, 31775.66
172.1610, 31780.32
173.3850, 31796.00
174.6100, 31195.00
175.8340, 30571.00
177.0580, 30004.00
178.2820, 29490.00
179.5050, 29008.00
180.7290, 28720.00
181.9520, 28002.00
183.1760, 28114.00
184.3990, 27915.00
185.6220, 27729.00
186.8450, 28152.00
188.0670, 28137.00
189.2900, 28188.00
190.5120, 28285.00
191.7340, 28363.00
192.9560, 28917.00
194.1780, 28948.00
195.4000, 29027.00
196.6220, 29210.00
197.8430, 29143.00
199.0640, 29157.00
200.2860, 29367.00
201.5070, 29860.00
202.7270, 29868.00
203.9480, 29900.00
205.1690, 29228.00
206.3890, 29108.00
207.6090, 28950.00
208.8290, 28887.00
210.0490, 28972.00
211.2690, 29175.00
212.4890, 29435.00
213.7080, 29763.00
214.9280, 29879.00
216.1470, 29574.00
217.3660, 29352.00
218.5850, 29348.00
219.8030, 29148.00
221.0220, 29285.00
222.2400, 29479.00
223.4590, 29205.00
224.6770, 29308.00
225.8950, 28270.00
227.1120, 27602.00
228.3300, 27833.00
229.5480, 27669.00
230.7650, 27686.00
231.9820, 27634.00
233.1990, 27537.00
234.4160, 27219.00
235.6330, 27203.00
236.8490, 27162.00
238.0660, 27265.00
239.2820, 27095.00
240.4980, 27064.00
241.7140, 27157.00
242.9300, 26932.00
244.1460, 26954.00
245.3610, 27045.00
246.5770, 26955.00
247.7920, 26959.00
249.0070, 26914.00
250.2220, 27041.00
251.4370, 26809.00
252.6510, 26796.00
253.8660, 27015.00
255.0800, 26924.00
256.2940, 27058.00
257.5080, 27136.00
258.7220, 27472.00
259.9360, 28093.00
261.1490, 28040.00
262.3630, 27425.00
263.5760, 27017.00
264.7890, 27391.00
266.0020, 27158.00
267.2150, 27173.00
268.4270, 27454.00
269.6400, 27275.00
270.8520, 27337.00
272.0640, 27523.00
273.2760, 27388.00
274.4880, 27522.00
275.7000, 27470.00
276.9120, 27725.00
278.1230, 27657.00
279.3340, 27858.00
280.5450, 27854.00
281.7560, 27556.00
282.9670, 27895.00
284.1780, 27810.00
285.3880, 27896.00
286.5980, 27691.00
287.8090, 27819.00
289.0190, 27923.00
290.2290, 27994.00
291.4380, 27978.00
292.6480, 27759.00
293.8570, 28137.00
295.0670, 27891.00
296.2760, 27749.00
297.4850, 28044.00
298.6930, 28031.00
299.9020, 27849.00
301.1110, 27756.00
302.3190, 27835.00
303.5270, 28004.00
304.7350, 27925.00
305.9430, 27757.00
307.1510, 28094.00
308.3580, 27726.00
309.5660, 27911.00
310.7730, 28015.00
311.9800, 28111.00
313.1870, 28221.00
314.3940, 28105.00
315.6010, 28299.00
316.8070, 28314.00
318.0130, 28068.00
319.2200, 28400.00
320.4260, 28344.00
321.6310, 28588.00
322.8370, 28569.00
324.0430, 28522.00
325.2480, 28912.00
326.4540, 28662.00
327.6590, 28617.00
328.8640, 28773.00
330.0680, 28775.00
331.2730, 28970.00
332.4780, 28843.00
333.6820, 29165.00
334.8860, 29212.00
336.0900, 29509.00
337.2940, 29656.00
338.4980, 29684.00
339.7010, 30007.00
340.9050, 30202.00
342.1080, 30304.00
343.3110, 30496.00
344.5140, 30653.00
345.7170, 30930.00
346.9200, 30793.00
348.1220, 31390.00
349.3240, 31700.00
350.5270, 31542.00
351.7290, 31717.00
352.9310, 32074.00
354.1320, 32204.00
355.3340, 32315.00
356.5350, 32399.00
357.7370, 32520.00
358.9380, 32441.00
360.1390, 32540.00
361.3400, 32147.00
362.5400, 32533.00
363.7410, 32023.00
364.9410, 32392.00
366.1410, 32104.00
367.3410, 32254.00
368.5410, 32374.00
369.7410, 32395.00
370.9400, 32498.83
372.1400, 32483.00
373.3390, 32590.00
374.5380, 32864.00
375.7370, 32887.00
376.9360, 33018.00
378.1350, 33156.00
379.3330, 32994.00
380.5310, 33295.00
381.7300, 33303.00
382.9280, 33136.00
384.1260, 32816.00
385.3230, 32767.00
386.5210, 32388.00
387.7180, 32573.00
388.9160, 32036.00
390.1130, 31967.00
391.3100, 31970.00
392.5060, 31768.00
393.7030, 31423.00
394.9000, 31270.00
396.0960, 31254.00
397.2920, 30899.00
398.4880, 30844.00
399.6840, 30984.00
400.8800, 30565.00
402.0750, 30778.00
403.2710, 30578.00
404.4660, 30220.00
405.6610, 30416.00
406.8560, 30334.00
408.0510, 30091.00
409.2450, 29858.00
410.4400, 30168.00
411.6340, 29933.00
412.8280, 30057.00
414.0220, 29990.00
415.2160, 29844.00
416.4100, 29741.00
417.6030, 29705.00
418.7970, 29797.00
419.9900, 29903.00
421.1830, 29794.00
422.3760, 29921.24
423.5690, 29586.00
424.7610, 29951.00
425.9540, 29889.00
427.1460, 29722.00
428.3380, 29815.00
429.5300, 29871.00
430.7220, 29789.00
431.9140, 29787.00
433.1050, 29854.00
434.2970, 29664.00
435.4880, 29959.00
436.6790, 29847.00
437.8700, 29767.00
439.0610, 29976.00
440.2510, 29796.00
441.4420, 29694.00
442.6320, 30054.00
443.8220, 29960.00
445.0120, 29991.00
446.2020, 30053.00
447.3910, 29943.00
448.5810, 29962.00
449.7700, 30110.00
450.9600, 30247.00
452.1490, 30024.00
453.3370, 30292.00
454.5260, 29915.00
455.7150, 30006.00
456.9030, 30240.00
458.0910, 30097.00
459.2800, 30485.00
460.4670, 30190.00
461.6550, 30281.00
462.8430, 30290.00
464.0300, 30298.00
465.2180, 30396.00
466.4050, 30427.00
467.5920, 30254.00
468.7790, 30745.00
469.9650, 30766.00
471.1520, 30442.00
472.3380, 30666.00
473.5250, 30481.00
474.7110, 30517.00
475.8970, 30582.00
477.0820, 30811.00
478.2680, 30847.00
479.4540, 30897.00
480.6390, 30801.00
481.8240, 31080.00
483.0090, 31122.00
484.1940, 31002.00
485.3780, 31300.00
486.5630, 30877.00
487.7470, 31247.00
488.9320, 31286.00
490.1160, 31320.00
491.3000, 31450.00
492.4830, 31464.00
493.6670, 31609.00
494.8500, 31657.00
496.0340, 31606.00
497.2170, 31572.00
498.4000, 32001.00
499.5820, 31952.00
500.7650, 32105.00
501.9480, 32187.00
503.1300, 31964.00
504.3120, 32073.00
505.4940, 32223.00
506.6760, 32133.00
507.8580, 32315.00
509.0390, 32161.00
510.2210, 32650.00
511.4020, 32411.00
512.5830, 32610.00
513.7640, 32905.00
514.9450, 32500.00
516.1250, 32725.00
517.3060, 32979.00
518.4860, 33039.00
519.6660, 32905.00
520.8460, 32818.00
522.0260, 33047.00
523.2060, 32948.48
524.3850, 33064.38
525.5650, 33027.00
526.7440, 33230.00
527.9230, 33312.00
529.1020, 33382.00
530.2810, 33613.00
531.4590, 33417.00
532.6380, 33478.00
533.8160, 33491.00
534.9940, 33739.00
536.1720, 33537.00
537.3500, 33613.00
538.5270, 33730.00
539.7050, 33537.00
540.8820, 33411.00
542.0590, 33709.00
543.2360, 33667.00
544.4130, 33402.00
545.5900, 33498.00
546.7660, 33335.00
547.9430, 33485.00
549.1190, 33539.00
550.2950, 33372.00
551.4710, 33718.00
552.6470, 33436.00
553.8220, 33611.00
554.9980, 33612.00
556.1730, 33605.00
557.3480, 33448.00
558.5230, 33689.00
559.6980, 33534.00
560.8730, 33471.00
562.0470, 33583.00
563.2220, 33600.00
564.3960, 33773.00
565.5700, 33658.00
566.7440, 33500.00
567.9170, 33382.00
569.0910, 33559.00
570.2640, 33773.00
571.4380, 33625.00
572.6110, 33563.00
573.7840, 33660.00
574.9570, 33594.00
576.1290, 33496.00
577.3020, 33365.00
578.4740, 33337.00
579.6460, 33417.00
580.8180, 33529.00
581.9900, 33429.00
583.1620, 33270.00
584.3330, 33229.00
585.5040, 33313.00
586.6760, 33265.54
587.8470, 32900.00
589.0180, 33330.00
590.1880, 33185.00
591.3590, 33180.00
592.5290, 33389.00
593.7000, 33463.00
594.8700, 33360.00
596.0400, 33277.00
597.2090, 33292.85
598.3790, 33324.00
599.5490, 33304.00
600.7180, 33377.00
601.8870, 33503.00
603.0560, 33753.00
604.2250, 33786.00
605.3940, 33759.00
606.5620, 33655.00
607.7300, 33791.00
608.8990, 33929.00
610.0670, 33762.00
611.2350, 33837.00
612.4020, 33830.00
613.5700, 34011.00
614.7370, 33884.00
615.9050, 33983.00
617.0720, 34129.00
618.2390, 34255.00
619.4060, 34219.00
620.5720, 34257.00
621.7390, 34385.00
622.9050, 34452.00
624.0710, 34440.00
625.2370, 34523.00
626.4030, 34531.00
627.5690, 34947.00
628.7340, 34686.00
629.9000, 34937.00
631.0650, 35192.00
632.2300, 35111.00
633.3950, 35232.00
634.5600, 35488.00
635.7240, 35740.00
636.8890, 35937.26
638.0530, 36043.00
639.2170, 36361.00
640.3810, 36371.00
641.5450, 36472.00
642.7080, 36909.00
643.8720, 37117.00
645.0350, 37411.00
646.1980, 37795.00
647.3610, 38135.00
648.5240, 38608.89
649.6870, 38939.00
650.8490, 39740.00
652.0120, 40303.00
653.1740, 41159.00
654.3360, 42428.00
655.4980, 43706.00
656.6600, 44995.00
657.8210, 46767.00
658.9830, 48229.00
660.1440, 49779.00
661.3050, 51936.00
662.4660, 53597.00
663.6270, 54616.00
664.7870, 55227.00
665.9480, 55418.00
667.1080, 54842.00
668.2680, 52972.00
669.4280, 50990.00
670.5880, 49274.00
671.7480, 47030.00
672.9070, 45424.00
674.0670, 43882.00
675.2260, 42280.00
676.3850, 41588.00
677.5440, 40752.00
678.7030, 39903.00
679.8610, 39224.00
681.0200, 38864.00
682.1780, 38439.00
683.3360, 38161.00
684.4940, 37541.00
685.6520, 37396.00
686.8090, 37040.00
687.9670, 36993.00
689.1240, 36878.00
690.2810, 36831.00
691.4380, 36744.98
692.5950, 36637.29
693.7520, 36606.00
694.9080, 36457.00
696.0650, 36426.00
697.2210, 36415.00
698.3770, 36269.00
699.5330, 36029.00
700.6880, 36324.00
701.8440, 36182.00
702.9990, 36038.00
704.1550, 36207.00
705.3100, 36197.00
706.4650, 36224.00
707.6190, 36125.00
708.7740, 35980.00
709.9290, 36266.00
711.0830, 35896.00
712.2370, 36185.00
713.3910, 36308.00
714.5450, 36272.00
715.6980, 36173.00
716.8520, 36175.00
718.0050, 36190.91
719.1580, 36217.00
720.3110, 36269.00
721.4640, 36451.00
722.6170, 36468.00
723.7700, 36464.00
724.9220, 36644.00
726.0740, 36452.00
727.2260, 36571.00
728.3780, 36651.00
729.5300, 36617.00
730.6810, 36831.00
731.8330, 37078.00
732.9840, 36778.00
734.1350, 37310.00
735.2860, 36942.00
736.4370, 37188.00
737.5880, 37104.00
738.7380, 37225.00
739.8880, 37207.00
741.0390, 37321.74
742.1890, 37154.00
743.3380, 37448.00
744.4880, 37507.00
745.6380, 37274.00
746.7870, 37393.00
747.9360, 37180.00
749.0850, 36865.00
750.2340, 36895.00
751.3830, 37065.00
752.5310, 37104.00
753.6800, 36889.00
754.8280, 36889.00
755.9760, 36976.00
757.1240, 36889.00
758.2720, 36890.00
759.4190, 36961.44
760.5670, 37121.00
761.7140, 37074.00
762.8610, 37045.00
764.0080, 37051.31
765.1550, 36999.00
766.3020, 37088.00
767.4480, 37227.00
768.5950, 37165.00
769.7410, 37035.00
770.8870, 37191.00
772.0330, 36924.00
773.1780, 37039.00
774.3240, 37195.00
775.4690, 37186.00
776.6140, 36728.00
777.7590, 37064.00
778.9040, 37194.00
780.0490, 37099.00
781.1940, 37400.00
782.3380, 37120.00
783.4820, 37111.00
784.6260, 37456.00
785.7700, 37366.00
786.9140, 37096.00
788.0580, 37389.00
789.2010, 37341.00
790.3450, 37247.00
791.4880, 37465.00
792.6310, 37345.00
793.7730, 37333.00
794.9160, 37317.00
796.0590, 37328.00
797.2010, 37493.00
798.3430, 37556.00
799.4850, 37421.00
800.6270, 37281.00
801.7690, 37232.00
802.9100, 37186.00
804.0520, 37357.94
805.1930, 37747.00
806.3340, 37704.00
807.4750, 38028.00
808.6160, 37959.00
809.7560, 38005.00
810.8970, 37615.00
812.0370, 37783.00
813.1770, 37614.00
814.3170, 38214.00
815.4570, 38051.00
816.5960, 37988.00
817.7360, 38272.00
818.8750, 38094.00
820.0140, 38376.00
821.1530, 38079.00
822.2920, 38083.00
823.4310, 38144.00
824.5690, 38231.00
825.7070, 38407.00
826.8460, 38613.00
827.9840, 38616.74
829.1220, 38341.00
830.2590, 38619.00
831.3970, 38527.00
832.5340, 38426.00
833.6710, 38804.00
834.8080, 38703.00
835.9450, 38876.00
837.0820, 38847.00
838.2190, 38857.00
839.3550, 38905.30
840.4910, 38943.00
841.6270, 38933.00
842.7630, 38951.00
843.8990, 39003.00
845.0350, 39177.00
846.1700, 39260.00
847.3060, 39174.00
848.4410, 39094.00
849.5760, 39120.52
850.7100, 38765.00
851.8450, 39135.00
852.9800, 39461.00
854.1140, 39585.00
855.2480, 39427.00
856.3820, 39675.00
857.5160, 39398.00
858.6500, 39685.00
859.7830, 39699.00
860.9170, 39686.00
862.0500, 39723.00
863.1830, 39695.33
864.3160, 39875.00
865.4480, 39735.00
866.5810, 39887.00
867.7130, 40092.00
868.8460, 40128.00
869.9780, 40073.00
871.1100, 40163.22
872.2410, 40277.00
873.3730, 40196.00
874.5050, 40260.00
875.6360, 40321.00
876.7670, 40501.00
877.8980, 40485.00
879.0290, 40338.00
880.1590, 40551.00
881.2900, 40360.00
882.4200, 40549.00
883.5500, 40406.00
884.6800, 40672.00
885.8100, 40438.00
886.9400, 40143.00
888.0690, 40291.00
889.1990, 40685.00
890.3280, 40592.00
891.4570, 40550.00
892.5860, 40533.00
893.7140, 40679.84
894.8430, 40994.00
895.9710, 41019.00
897.1000, 41161.58
898.2280, 41209.00
899.3560, 41100.00
900.4830, 41256.00
901.6110, 41101.00
902.7380, 41015.00
903.8660, 40720.00
904.9930, 41097.00
906.1200, 41332.00
907.2460, 41250.00
908.3730, 41602.00
909.5000, 41568.00
910.6260, 41877.00
911.7520, 41883.17
912.8780, 41979.73
914.0040, 41918.00
915.1290, 42032.00
916.2550, 42092.00
917.3800, 41921.00
918.5050, 42351.00
919.6300, 42223.00
920.7550, 42316.00
921.8800, 42542.00
923.0040, 42451.00
924.1290, 42492.00
925.2530, 42652.00
926.3770, 42489.00
927.5010, 42744.00
928.6250, 42560.00
929.7480, 42636.00
930.8720, 42680.00
931.9950, 42479.00
933.1180, 42709.00
934.2410, 42818.00
935.3640, 42406.00
936.4860, 42646.00
937.6090, 42913.00
938.7310, 42758.00
939.8530, 42759.00
940.9750, 42629.00
942.0970, 42631.00
943.2180, 42802.00
944.3400, 42765.00
945.4610, 42922.00
946.5820, 43290.00
947.7030, 43075.00
948.8240, 42689.00
949.9450, 42986.00
951.0650, 43129.00
952.1860, 42764.00
953.3060, 43022.00
954.4260, 43163.00
955.5460, 43281.00
956.6650, 43379.00
957.7850, 43237.00
958.9040, 43221.00
960.0230, 43306.00
961.1420, 43381.00
962.2610, 43065.00
963.3800, 43342.00
964.4990, 43496.00
965.6170, 43312.00
966.7350, 43548.00
967.8530, 43631.00
968.9710, 43488.00
970.0890, 43624.00
971.2070, 43591.00
972.3240, 43602.00
973.4410, 43480.00
974.5580, 43778.00
975.6750, 43763.00
976.7920, 43727.00
977.9090, 43813.00
979.0250, 43799.00
980.1410, 43928.00
981.2580, 43955.09
982.3740, 43822.00
983.4890, 44066.00
984.6050, 44057.00
985.7200, 44122.53
986.8360, 44306.00
987.9510, 44184.00
989.0660, 44150.00
990.1810, 44276.00
991.2950, 44180.00
992.4100, 44376.00
993.5240, 44265.00
994.6390, 44209.00
995.7530, 44664.00
996.8660, 44884.00
997.9800, 44696.00
999.0940, 44879.00
1000.207, 44603.00
1001.320, 44944.00
1002.433, 44815.00
1003.546, 45248.00
1004.659, 45187.00
1005.772, 44827.00
1006.884, 45284.00
1007.996, 45034.00
1009.108, 45475.00
1010.220, 45474.38
1011.332, 45887.00
1012.444, 45688.00
1013.555, 45729.00
1014.666, 46074.00
1015.777, 45874.00
1016.888, 45983.00
1017.999, 46424.00
1019.110, 46921.00
1020.220, 46653.00
1021.331, 46965.00
1022.441, 46880.00
1023.551, 46851.00
1024.661, 46752.00
1025.770, 46924.00
1026.880, 46938.00
1027.989, 46932.00
1029.098, 46875.00
1030.207, 46700.00
1031.316, 46999.00
1032.425, 47025.00
1033.533, 47217.00
1034.642, 47072.00
1035.750, 47275.00
1036.858, 47381.00
1037.966, 47386.00
1039.073, 47787.00
1040.181, 47774.00
1041.288, 48028.00
1042.396, 48203.00
1043.503, 48498.00
1044.610, 48530.00
1045.716, 48401.00
1046.823, 48808.00
1047.929, 48740.00
1049.036, 48592.00
1050.142, 48791.00
1051.248, 49247.00
1052.353, 49139.00
1053.459, 49233.00
1054.564, 49308.00
1055.670, 49444.00
1056.775, 49917.00
1057.880, 50432.00
1058.985, 49822.00
1060.089, 49721.00
1061.194, 49596.00
1062.298, 50050.00
1063.402, 49703.00
1064.506, 49546.00
1065.610, 49260.00
1066.713, 49091.00
1067.817, 48624.00
1068.920, 48312.00
1070.023, 48344.00
1071.126, 47937.00
1072.229, 48270.00
1073.332, 47864.00
1074.435, 47815.00
1075.537, 48099.00
1076.639, 47752.00
1077.741, 47815.00
1078.843, 47718.00
1079.945, 47852.00
1081.046, 47880.00
1082.148, 48058.00
1083.249, 47686.00
1084.350, 47888.00
1085.451, 47977.00
1086.551, 47876.00
1087.652, 48134.00
1088.752, 47819.00
1089.853, 47614.00
1090.953, 48188.00
1092.053, 47993.00
1093.152, 48096.00
1094.252, 48111.00
1095.351, 48395.00
1096.451, 47996.00
1097.550, 47952.00
1098.649, 48221.00
1099.748, 48269.00
1100.846, 48064.00
1101.945, 48232.00
1103.043, 48017.00
1104.141, 48068.17
1105.239, 48236.00
1106.337, 48133.00
1107.434, 47862.00
1108.532, 47927.27
1109.629, 47895.06
1110.726, 48202.00
1111.823, 48102.00
1112.920, 48289.00
1114.017, 48561.00
1115.113, 48452.00
1116.210, 48141.00
1117.306, 49019.00
1118.402, 48690.00
1119.498, 48855.00
1120.593, 49105.00
1121.689, 49004.00
1122.784, 48974.00
1123.879, 49199.00
1124.974, 48816.00
1126.069, 48900.00
1127.164, 49346.00
1128.259, 49069.00
1129.353, 48947.00
1130.447, 49286.00
1131.541, 48818.00
1132.635, 49248.00
1133.729, 48789.00
1134.822, 48966.00
1135.916, 49286.00
1137.009, 49172.00
1138.102, 48887.00
1139.195, 49305.00
1140.288, 49278.00
1141.380, 49507.00
1142.473, 49323.00
1143.565, 49483.00
1144.657, 49359.00
1145.749, 49421.00
1146.841, 49598.00
1147.932, 49658.00
1149.024, 49368.00
1150.115, 49452.00
1151.206, 49201.00
1152.297, 49528.00
1153.388, 49606.00
1154.479, 50584.00
1155.569, 50577.00
1156.659, 49912.00
1157.750, 49187.00
1158.839, 49949.00
1159.929, 49996.00
1161.019, 50217.00
1162.108, 49883.00
1163.198, 49936.00
1164.287, 50108.00
1165.376, 50255.00
1166.465, 50498.00
1167.553, 50172.00
1168.642, 50208.00
1169.730, 50359.00
1170.818, 50272.00
1171.906, 50514.00
1172.994, 50764.00
1174.082, 50731.80
1175.170, 50731.39
1176.257, 50761.00
1177.344, 50745.00
1178.431, 50621.00
1179.518, 50568.36
1180.605, 50585.02
1181.691, 50467.00
1182.778, 50619.00
1183.864, 50855.00
1184.950, 50856.00
1186.036, 51002.00
1187.122, 50924.00
1188.207, 50964.62
1189.292, 51226.00
1190.378, 51037.00
1191.463, 51252.00
1192.548, 51493.00
1193.632, 50931.00
1194.717, 51549.00
1195.801, 51630.00
1196.886, 51223.00
1197.970, 50974.00
1199.054, 51572.00
1200.137, 51660.00
1201.221, 51787.00
1202.305, 51509.00
1203.388, 51565.00
1204.471, 51714.00
1205.554, 51785.00
1206.637, 51871.00
1207.719, 51544.00
1208.802, 51718.00
1209.884, 51713.00
1210.966, 52237.00
1212.048, 51892.00
1213.130, 51956.00
1214.212, 51771.00
1215.293, 52146.00
1216.374, 52144.00
1217.456, 52420.00
1218.536, 52033.00
1219.617, 52241.00
1220.698, 52392.00
1221.778, 52754.00
1222.859, 52694.00
1223.939, 52398.00
1225.019, 52786.00
1226.099, 52583.00
1227.178, 52867.00
1228.258, 52865.00
1229.337, 52563.00
1230.417, 52481.00
1231.496, 52488.00
1232.574, 52299.00
1233.653, 52763.00
1234.732, 52862.00
1235.810, 53248.00
1236.888, 53268.00
1237.966, 53068.00
1239.044, 52928.00
1240.122, 53337.00
1241.199, 52868.00
1242.277, 53284.00
1243.354, 53004.00
1244.431, 53229.00
1245.508, 53432.00
1246.585, 53508.00
1247.661, 53455.00
1248.738, 53350.00
1249.814, 53536.00
1250.890, 53435.00
1251.966, 53825.00
1253.042, 53490.00
1254.117, 53679.00
1255.193, 53771.00
1256.268, 53716.00
1257.343, 53970.00
1258.418, 53976.00
1259.493, 53751.00
1260.567, 53836.00
1261.642, 53868.79
1262.716, 54068.00
1263.790, 54078.00
1264.864, 54373.00
1265.938, 54500.00
1267.011, 54236.00
1268.085, 54138.00
1269.158, 54423.00
1270.231, 54602.00
1271.304, 54582.00
1272.377, 54703.82
1273.450, 54687.46
1274.522, 54689.00
1275.594, 54710.00
1276.666, 54648.00
