##NAMES=Fluorophlogopite
##RRUFFID=R040042
##IDEAL CHEMISTRY=KMg_3_(Si_3_Al)O_10_F_2_
##LOCALITY=Franklin, Sussex County, New Jersey, USA
##OWNER=RRUFF
##SOURCE=University of Arizona Mineral Museum
##DESCRIPTION=Brown flattened hexagonal prism, polytype 1M
##STATUS=The identification of this mineral has been confirmed by X-ray diffraction and chemical analysis
##URL=rruff.info/R040042
##MEASURED CHEMISTRY=(K_0.92_Na_0.08_)_Σ=1_(Mg_2.95_Fe_0.05_)_Σ=3_(Si_3.00_Al_1.00_)O_10_(F_1.40_(OH)_0.60_)_Σ=2_; trace amounts of Ti; OH estimated by charge balance
##PIN_ID=L00305
##ORIENTATION=Laser parallel to (1 0 1). Fiducial mark perpendicular to laser is parallel to b [0 1 0]
82.99200, 38218.00
84.23700, 43458.00
85.48300, 48991.00
86.72800, 54676.00
87.97300, 60692.00
89.21800, 66906.00
90.46200, 74148.00
91.70600, 81673.00
92.95100, 88805.00
94.19400, 96662.00
95.43800, 104765.0
96.68200, 112634.0
97.92500, 121507.0
99.16800, 130028.0
100.4110, 138040.0
101.6540, 144004.0
102.8970, 147766.0
104.1390, 148676.0
105.3810, 145384.0
106.6230, 138542.0
107.8650, 127361.0
109.1070, 115538.0
110.3480, 103131.0
111.5900, 93322.00
112.8310, 85637.00
114.0710, 79903.00
115.3120, 75230.00
116.5530, 71451.00
117.7930, 68347.00
119.0330, 65172.00
120.2730, 62264.00
121.5130, 60507.00
122.7520, 58521.00
123.9910, 56600.00
125.2310, 54524.00
126.4700, 52721.00
127.7080, 51340.00
128.9470, 50390.00
130.1850, 49320.00
131.4230, 48206.00
132.6610, 46909.00
133.8990, 46128.00
135.1370, 45428.00
136.3740, 44377.00
137.6120, 44224.00
138.8490, 43772.00
140.0850, 43154.00
141.3220, 42652.00
142.5580, 42133.77
143.7950, 41607.80
145.0310, 41036.00
146.2670, 40639.00
147.5020, 39968.00
148.7380, 39520.00
149.9730, 39343.00
151.2080, 38815.00
152.4430, 38793.00
153.6780, 38596.00
154.9130, 38584.00
156.1470, 38300.72
157.3810, 38147.00
158.6150, 38009.00
159.8490, 37903.00
161.0830, 38364.00
162.3160, 38497.00
163.5490, 38897.00
164.7820, 39038.00
166.0150, 39448.00
167.2480, 39289.00
168.4800, 39965.00
169.7120, 40484.00
170.9440, 41442.00
172.1760, 41874.00
173.4080, 42780.00
174.6400, 43728.00
175.8710, 44766.00
177.1020, 46560.00
178.3330, 48761.00
179.5640, 51098.00
180.7940, 54313.00
182.0250, 58639.00
183.2550, 64216.00
184.4850, 71032.00
185.7150, 79573.00
186.9440, 89878.00
188.1740, 102442.0
189.4030, 116534.0
190.6320, 132511.0
191.8610, 149628.0
193.0900, 167215.0
194.3180, 183358.0
195.5460, 195962.0
196.7740, 202347.0
198.0020, 201100.0
199.2300, 192174.0
200.4580, 176826.0
201.6850, 157323.0
202.9120, 136909.0
204.1390, 117136.0
205.3660, 100767.0
206.5930, 87254.00
207.8190, 76675.00
209.0450, 68902.00
210.2710, 62764.00
211.4970, 58049.00
212.7230, 54544.00
213.9480, 51593.00
215.1730, 49399.00
216.3990, 47493.00
217.6230, 46078.00
218.8480, 44616.00
220.0730, 43408.00
221.2970, 42456.00
222.5210, 41241.00
223.7450, 40610.00
224.9690, 40032.00
226.1930, 39439.00
227.4160, 39160.00
228.6390, 38734.00
229.8620, 38606.00
231.0850, 38118.00
232.3080, 38350.00
233.5300, 38133.00
234.7520, 38051.00
235.9750, 37892.00
237.1960, 37567.00
238.4180, 37360.00
239.6400, 37138.00
240.8610, 36901.00
242.0820, 36710.00
243.3030, 36303.00
244.5240, 36349.00
245.7450, 36147.00
246.9650, 36201.00
248.1850, 36165.00
249.4050, 36070.00
250.6250, 35797.00
251.8450, 35966.00
253.0640, 36088.00
254.2840, 36419.00
255.5030, 36454.00
256.7220, 37105.00
257.9400, 37484.00
259.1590, 38171.00
260.3770, 38874.00
261.5950, 39751.00
262.8130, 40900.00
264.0310, 41881.00
265.2490, 43310.00
266.4660, 46056.00
267.6830, 49520.00
268.9010, 50553.00
270.1170, 53338.00
271.3340, 57653.00
272.5510, 61919.00
273.7670, 66403.00
274.9830, 71572.00
276.1990, 76572.00
277.4150, 79905.00
278.6300, 82317.00
279.8460, 82543.00
281.0610, 81175.00
282.2760, 76909.00
283.4910, 71074.00
284.7050, 65661.00
285.9200, 60349.00
287.1340, 56165.00
288.3480, 52831.00
289.5620, 50598.00
290.7760, 48979.00
291.9890, 47680.00
293.2030, 46631.00
294.4160, 46523.00
295.6290, 46286.00
296.8420, 46889.00
298.0540, 47251.00
299.2670, 47933.00
300.4790, 48815.00
301.6910, 50090.00
302.9030, 52092.00
304.1150, 53992.00
305.3260, 56971.00
306.5380, 59466.00
307.7490, 62759.00
308.9600, 65911.00
310.1700, 69536.00
311.3810, 72991.00
312.5910, 76300.00
313.8020, 78880.00
315.0120, 80865.00
316.2220, 82775.00
317.4310, 84124.00
318.6410, 84353.00
319.8500, 84288.00
321.0590, 84169.00
322.2680, 83811.00
323.4770, 82257.00
324.6850, 80443.00
325.8940, 78245.00
327.1020, 75108.00
328.3100, 71902.00
329.5180, 68562.00
330.7260, 65124.00
331.9330, 61962.00
333.1400, 58742.00
334.3470, 55939.00
335.5540, 53626.00
336.7610, 51630.00
337.9680, 49843.11
339.1740, 48660.00
340.3800, 47259.00
341.5860, 46334.46
342.7920, 45718.00
343.9980, 44828.00
345.2030, 44009.00
346.4080, 43751.00
347.6130, 43181.68
348.8180, 42863.00
350.0230, 42566.00
351.2280, 42436.00
352.4320, 42137.00
353.6360, 42409.00
354.8400, 42303.00
356.0440, 42446.00
357.2480, 42880.00
358.4510, 43045.00
359.6540, 43740.00
360.8570, 44502.00
362.0600, 45330.00
363.2630, 46107.00
364.4660, 47613.00
365.6680, 49003.00
366.8700, 50505.00
368.0720, 52486.00
369.2740, 53866.00
370.4760, 55135.00
371.6770, 56089.00
372.8780, 56118.00
374.0790, 54880.00
375.2800, 53238.00
376.4810, 51378.00
377.6820, 49259.00
378.8820, 47516.00
380.0820, 45779.00
381.2820, 44355.00
382.4820, 43343.00
383.6820, 42340.63
384.8810, 41846.00
386.0800, 41091.00
387.2800, 40722.00
388.4780, 40413.00
389.6770, 39989.32
390.8760, 39805.10
392.0740, 39443.00
393.2720, 39401.00
394.4700, 39176.00
395.6680, 38923.00
396.8660, 38847.00
398.0630, 38918.65
399.2610, 39152.00
400.4580, 39343.00
401.6550, 39118.82
402.8510, 39483.00
404.0480, 38493.00
405.2440, 38620.00
406.4410, 38657.00
407.6370, 38270.00
408.8320, 38246.00
410.0280, 38294.00
411.2240, 38071.24
412.4190, 38364.00
413.6140, 38005.00
414.8090, 37130.00
416.0040, 37319.00
417.1980, 37063.00
418.3930, 36890.82
419.5870, 36787.00
420.7810, 36765.00
421.9750, 36606.00
423.1690, 36671.04
424.3620, 36680.00
425.5560, 36786.00
426.7490, 36896.00
427.9420, 36978.93
429.1340, 37076.00
430.3270, 36976.00
431.5200, 36978.00
432.7120, 36894.00
433.9040, 37256.00
435.0960, 37224.59
436.2880, 37341.72
437.4790, 37446.00
438.6700, 37608.00
439.8620, 37719.00
441.0530, 38042.00
442.2430, 38106.00
443.4340, 38102.00
444.6250, 38644.00
445.8150, 38631.00
447.0050, 38782.00
448.1950, 39202.00
449.3850, 39399.00
450.5740, 39587.00
451.7640, 39986.15
452.9530, 40223.00
454.1420, 40547.00
455.3310, 40895.00
456.5200, 40890.00
457.7080, 41281.00
458.8960, 41476.00
460.0850, 41551.00
461.2730, 41842.00
462.4600, 42324.00
463.6480, 42481.00
464.8350, 42795.00
466.0230, 42867.00
467.2100, 42273.00
468.3970, 41992.00
469.5830, 41070.00
470.7700, 40401.00
471.9560, 39661.00
473.1430, 38411.00
474.3290, 37539.00
475.5140, 36690.00
476.7000, 36372.00
477.8860, 36078.00
479.0710, 35777.00
480.2560, 35805.00
481.4410, 35511.00
482.6260, 35999.00
483.8100, 35623.00
484.9950, 36262.00
486.1790, 36585.00
487.3630, 36859.00
488.5470, 37286.00
489.7310, 37734.00
490.9140, 38082.00
492.0980, 38518.00
493.2810, 39021.00
494.4640, 39562.00
495.6470, 40145.00
496.8290, 40819.00
498.0120, 41057.00
499.1940, 41906.00
500.3760, 41999.38
501.5580, 42439.00
502.7400, 42385.00
503.9220, 42813.00
505.1030, 43187.00
506.2840, 43338.00
507.4660, 43767.00
508.6460, 43914.00
509.8270, 44225.00
511.0080, 44347.77
512.1880, 44462.00
513.3680, 44521.00
514.5480, 43725.00
515.7280, 43738.00
516.9080, 43050.00
518.0870, 42041.00
519.2670, 41864.00
520.4460, 41276.00
521.6250, 40400.00
522.8040, 40029.00
523.9820, 39499.00
525.1610, 39122.00
526.3390, 38890.00
527.5170, 38793.00
528.6950, 38425.00
529.8730, 38524.00
531.0500, 38208.00
532.2280, 38017.00
533.4050, 37711.00
534.5820, 37778.00
535.7590, 37920.00
536.9350, 37586.00
538.1120, 37475.00
539.2880, 37621.00
540.4640, 37374.00
541.6400, 37424.00
542.8160, 37856.00
543.9920, 37584.00
545.1670, 37569.00
546.3430, 37550.00
547.5180, 37455.00
548.6930, 37535.00
549.8680, 37902.00
551.0420, 37958.00
552.2170, 37978.00
553.3910, 37727.00
554.5650, 37553.00
555.7390, 38145.00
556.9130, 37967.00
558.0860, 38258.00
559.2590, 37983.00
560.4330, 38207.00
561.6060, 38085.00
562.7790, 38281.00
563.9510, 38262.00
565.1240, 38359.00
566.2960, 38035.00
567.4680, 38343.00
568.6400, 38113.00
569.8120, 38148.00
570.9840, 38258.00
572.1550, 38057.00
573.3270, 37925.00
574.4980, 37868.00
575.6690, 37732.00
576.8390, 37891.00
578.0100, 37787.00
579.1800, 37737.00
580.3510, 37493.00
581.5210, 37418.00
582.6910, 37424.00
583.8600, 37480.00
585.0300, 37639.00
586.1990, 37596.00
587.3690, 37442.00
588.5380, 37513.69
589.7060, 37230.00
590.8750, 37411.00
592.0440, 37652.00
593.2120, 37498.00
594.3800, 37638.00
595.5480, 37862.00
596.7160, 37840.00
597.8840, 37841.00
599.0510, 38287.00
600.2190, 38180.00
601.3860, 38845.00
602.5530, 38745.00
603.7200, 38749.00
604.8860, 39283.00
606.0530, 39470.00
607.2190, 39804.00
608.3850, 40008.00
609.5510, 40426.00
610.7170, 40712.00
611.8820, 40874.00
613.0480, 41657.00
614.2130, 42445.00
615.3780, 42695.00
616.5430, 43425.00
617.7080, 44147.00
618.8720, 44972.00
620.0370, 45815.00
621.2010, 46533.00
622.3650, 47577.00
623.5290, 48575.00
624.6930, 49862.00
625.8560, 51018.65
627.0200, 52193.00
628.1830, 53667.00
629.3460, 54850.00
630.5090, 56406.00
631.6710, 58002.00
632.8340, 59790.00
633.9960, 60954.00
635.1580, 62304.00
636.3200, 63666.00
637.4820, 64917.00
638.6440, 66437.00
639.8050, 66391.00
640.9670, 66791.00
642.1280, 67390.00
643.2890, 67005.00
644.4500, 67379.00
645.6100, 67449.00
646.7710, 67687.00
647.9310, 67705.00
649.0910, 68152.00
650.2510, 68488.00
651.4110, 69351.00
652.5700, 69799.00
653.7300, 70605.00
654.8890, 71549.00
656.0480, 72409.00
657.2070, 73870.00
658.3660, 75168.00
659.5250, 77006.00
660.6830, 78724.00
661.8410, 80847.00
662.9990, 83246.00
664.1570, 86150.00
665.3150, 89960.00
666.4730, 93823.24
667.6300, 97531.00
668.7870, 103547.0
669.9440, 109637.0
671.1010, 116234.0
672.2580, 124564.0
673.4140, 134060.0
674.5710, 144441.0
675.7270, 156447.0
676.8830, 168193.0
678.0390, 180968.0
679.1950, 191800.0
680.3500, 202642.0
681.5060, 210637.0
682.6610, 215320.0
683.8160, 217035.0
684.9710, 215311.0
686.1250, 211275.0
687.2800, 203562.0
688.4340, 194671.0
689.5880, 184319.0
690.7420, 173627.0
691.8960, 161591.0
693.0500, 149673.0
694.2030, 138595.0
695.3570, 127849.0
696.5100, 117411.0
697.6630, 107777.0
698.8160, 99792.00
699.9680, 92223.49
701.1210, 86101.00
702.2730, 80359.00
703.4250, 75430.00
704.5770, 71751.00
705.7290, 68563.00
706.8810, 65565.00
708.0320, 63597.00
709.1840, 61433.00
710.3350, 59950.00
711.4860, 58885.00
712.6370, 57870.00
713.7870, 56779.00
714.9380, 56248.00
716.0880, 55743.00
717.2380, 54976.00
718.3880, 54627.00
719.5380, 54161.00
720.6880, 53806.00
721.8370, 53068.00
722.9870, 52895.00
724.1360, 52179.00
725.2850, 51848.00
726.4340, 51892.00
727.5820, 51508.00
728.7310, 51157.00
729.8790, 51111.00
731.0270, 50923.00
732.1750, 50661.00
733.3230, 50548.00
734.4700, 50349.00
735.6180, 50596.00
736.7650, 50394.00
737.9120, 50717.00
739.0590, 50482.00
740.2060, 50286.00
741.3530, 50408.00
742.4990, 50037.00
743.6460, 50160.00
744.7920, 49697.00
745.9380, 49678.00
747.0830, 49666.00
748.2290, 49627.00
749.3750, 49234.00
750.5200, 49176.00
751.6650, 49198.00
752.8100, 48777.00
753.9550, 48678.00
755.0990, 48652.00
756.2440, 48414.00
757.3880, 48111.00
758.5320, 48105.00
759.6760, 47808.00
760.8200, 47965.00
761.9640, 47489.00
763.1070, 47306.00
764.2510, 47656.00
765.3940, 47980.00
766.5370, 47583.00
767.6790, 47457.00
768.8220, 47552.63
769.9650, 47483.27
771.1070, 47495.00
772.2490, 47917.00
773.3910, 47722.00
774.5330, 48370.00
775.6750, 48495.00
776.8160, 48834.00
777.9570, 49076.00
779.0980, 49515.00
780.2390, 49927.00
781.3800, 50087.00
782.5210, 50361.00
783.6610, 50647.00
784.8020, 50324.00
785.9420, 50652.00
787.0820, 50577.00
788.2220, 50504.00
789.3610, 50504.00
790.5010, 50419.00
791.6400, 50497.00
792.7790, 50734.00
793.9180, 50688.43
795.0570, 50761.27
796.1960, 50681.00
797.3340, 50641.00
798.4730, 50391.00
799.6110, 50050.00
800.7490, 49865.00
801.8870, 49285.00
803.0250, 49028.00
804.1620, 48563.00
805.2990, 48292.00
806.4370, 47756.00
807.5740, 47574.32
808.7110, 47425.00
809.8470, 47317.00
810.9840, 46711.00
812.1200, 46870.00
813.2560, 46651.00
814.3920, 46439.00
815.5280, 46542.00
816.6640, 46062.00
817.8000, 46253.00
818.9350, 46157.00
820.0700, 46112.00
821.2050, 46022.89
822.3400, 45573.00
823.4750, 45623.00
824.6100, 45239.00
825.7440, 44871.00
826.8780, 45490.00
828.0120, 45019.64
829.1460, 45205.00
830.2800, 44766.00
831.4140, 44703.00
832.5470, 44520.00
833.6800, 44403.00
834.8130, 44600.00
835.9460, 44592.00
837.0790, 44514.00
838.2120, 44586.00
839.3440, 44623.00
840.4760, 44763.00
841.6090, 44642.00
842.7410, 44786.00
843.8720, 44885.00
845.0040, 44432.00
846.1350, 44856.00
847.2670, 44540.00
848.3980, 44670.00
849.5290, 44424.00
850.6600, 44601.00
851.7900, 44627.00
852.9210, 44517.00
854.0510, 44515.00
855.1810, 44440.00
856.3110, 44534.56
857.4410, 44647.84
858.5710, 44696.00
859.7000, 44743.56
860.8300, 44851.00
861.9590, 44777.00
863.0880, 44905.00
864.2170, 44910.71
865.3460, 44922.18
866.4740, 44956.00
867.6030, 44920.00
868.7310, 44889.50
869.8590, 44899.25
870.9870, 44799.00
872.1140, 44907.00
873.2420, 44926.00
874.3690, 44972.85
875.4970, 44742.00
876.6240, 44830.00
877.7510, 44879.00
878.8770, 44684.00
880.0040, 44804.00
881.1310, 44813.00
882.2570, 44986.00
883.3830, 44830.00
884.5090, 44951.00
885.6350, 45027.00
886.7600, 45201.00
887.8860, 45218.00
889.0110, 45516.00
890.1360, 45121.00
891.2610, 45525.00
892.3860, 45497.00
893.5110, 45861.00
894.6350, 45922.89
895.7600, 46194.00
896.8840, 45968.00
898.0080, 45929.00
899.1320, 45720.16
900.2550, 45816.00
901.3790, 45792.00
902.5020, 45746.00
903.6260, 45944.00
904.7490, 45956.00
905.8720, 46243.00
906.9940, 46086.00
908.1170, 45973.00
909.2390, 45964.00
910.3620, 46292.00
911.4840, 46116.00
912.6060, 46261.00
913.7270, 46531.00
914.8490, 46245.00
915.9710, 46408.00
917.0920, 46838.00
918.2130, 46208.00
919.3340, 46557.00
920.4550, 46487.98
921.5750, 46459.58
922.6960, 46650.00
923.8160, 46542.00
924.9360, 46913.00
926.0560, 46745.00
927.1760, 47056.00
928.2960, 46657.00
929.4160, 47149.00
930.5350, 46875.00
931.6540, 46649.00
932.7730, 46934.00
933.8920, 46560.00
935.0110, 46959.00
936.1290, 46709.50
937.2480, 46844.00
938.3660, 46561.00
939.4840, 46483.00
940.6020, 46815.00
941.7200, 46510.00
942.8380, 46866.00
943.9550, 46580.00
945.0720, 46813.00
946.1900, 46586.00
947.3070, 46568.00
948.4230, 46694.00
949.5400, 46859.00
950.6570, 46986.00
951.7730, 46861.00
952.8890, 46924.00
954.0050, 47226.00
955.1210, 46944.00
956.2370, 47145.00
957.3520, 47210.00
958.4680, 47189.00
959.5830, 47168.00
960.6980, 47689.00
961.8130, 47856.00
962.9280, 47928.00
964.0420, 48804.00
965.1570, 48569.44
966.2710, 48897.00
967.3850, 48413.00
968.4990, 48822.00
969.6130, 48476.00
970.7270, 49045.00
971.8400, 49253.00
972.9540, 50093.00
974.0670, 49381.00
975.1800, 49524.00
976.2930, 50053.00
977.4050, 50155.00
978.5180, 50301.00
979.6300, 50526.00
980.7430, 50586.00
981.8550, 51057.00
982.9670, 51309.00
984.0780, 51473.00
985.1900, 51761.00
986.3010, 51732.00
987.4130, 52282.00
988.5240, 52510.00
989.6350, 52662.00
990.7460, 53190.00
991.8560, 53181.00
992.9670, 53904.00
994.0770, 54516.00
995.1870, 55709.00
996.2970, 56594.00
997.4070, 57428.00
998.5170, 58722.00
999.6270, 60155.00
1000.736, 61655.00
1001.845, 63055.00
1002.954, 64193.00
1004.063, 64789.00
1005.172, 63718.00
1006.281, 62022.00
1007.389, 60435.00
1008.497, 59330.00
1009.606, 58623.00
1010.714, 58117.00
1011.821, 57370.00
1012.929, 57281.00
1014.037, 56878.00
1015.144, 56744.00
1016.251, 56020.00
1017.358, 55743.00
1018.465, 55323.00
1019.572, 55117.00
1020.678, 55268.00
1021.785, 55563.00
1022.891, 55650.00
1023.997, 56281.00
1025.103, 56847.00
1026.209, 58030.00
1027.315, 59358.00
1028.420, 60932.00
1029.526, 62487.00
1030.631, 64143.00
1031.736, 66744.00
1032.841, 67372.00
1033.945, 68441.00
1035.050, 68748.00
1036.154, 68886.00
1037.259, 67798.00
1038.363, 66400.00
1039.467, 65020.00
1040.570, 63610.00
1041.674, 61953.00
1042.777, 60708.00
1043.881, 59478.00
1044.984, 58889.00
1046.087, 57947.00
1047.190, 57543.00
1048.292, 57308.00
1049.395, 56761.00
1050.497, 56688.00
1051.600, 56369.00
1052.702, 56588.00
1053.804, 56347.00
1054.905, 56134.00
1056.007, 56009.00
1057.108, 55968.00
1058.210, 55954.00
1059.311, 56102.00
1060.412, 56320.00
1061.513, 56315.69
1062.613, 56834.00
1063.714, 56555.00
1064.814, 56803.00
1065.914, 57210.00
1067.015, 56909.00
1068.114, 57546.00
1069.214, 58143.00
1070.314, 58378.00
1071.413, 58742.00
1072.512, 59034.00
1073.612, 59712.00
1074.711, 59929.00
1075.809, 60674.00
1076.908, 61412.00
1078.007, 61670.00
1079.105, 62513.00
1080.203, 63045.00
1081.301, 63912.00
1082.399, 64738.00
1083.497, 65678.00
1084.594, 66333.00
1085.692, 67161.00
1086.789, 67464.00
1087.886, 67866.00
1088.983, 68691.00
1090.080, 68935.00
1091.177, 69445.00
1092.273, 69651.00
1093.370, 69971.00
1094.466, 70273.00
1095.562, 70436.00
1096.658, 70482.00
1097.754, 70572.84
1098.849, 70516.57
1099.945, 70431.00
1101.040, 70244.00
1102.135, 69888.00
1103.230, 69538.00
1104.325, 69144.00
1105.419, 68432.00
1106.514, 67178.00
1107.608, 66842.00
1108.703, 65670.00
1109.797, 64654.00
1110.891, 63694.00
1111.984, 62274.00
1113.078, 61325.00
1114.171, 60126.00
1115.265, 59019.00
1116.358, 58305.00
1117.451, 57367.00
1118.544, 56577.00
1119.636, 55754.00
1120.729, 55001.00
1121.821, 54775.00
1122.913, 53815.00
1124.006, 53634.00
1125.097, 53279.00
1126.189, 52839.00
1127.281, 52566.00
1128.372, 52607.00
1129.464, 52173.00
1130.555, 52032.00
1131.646, 52173.00
1132.737, 52019.00
1133.827, 52137.00
1134.918, 51827.00
1136.008, 51677.00
1137.099, 51934.00
1138.189, 51746.00
1139.279, 51765.00
1140.368, 51746.00
1141.458, 51733.00
1142.548, 51522.00
1143.637, 51409.00
1144.726, 52103.00
1145.815, 51504.00
1146.904, 51723.00
1147.993, 52852.00
1149.081, 52050.55
1150.170, 51889.00
1151.258, 51656.00
1152.346, 51923.00
1153.434, 51832.85
1154.522, 52091.00
1155.610, 52104.00
1156.697, 52236.00
1157.784, 52574.00
1158.872, 52456.00
1159.959, 52725.00
1161.046, 52243.00
1162.132, 52328.00
1163.219, 52493.00
1164.305, 52205.00
1165.392, 52366.07
1166.478, 52374.00
1167.564, 52355.00
1168.650, 52414.00
1169.735, 52304.00
1170.821, 52361.90
1171.906, 52442.31
1172.992, 52495.00
1174.077, 52723.00
1175.162, 52775.45
1176.247, 52924.97
1177.331, 52999.00
1178.416, 53159.00
1179.500, 53291.00
1180.584, 53339.00
1181.668, 53016.00
1182.752, 53263.00
1183.836, 53254.89
1184.920, 53195.54
1186.003, 53591.00
1187.086, 53544.00
1188.169, 53908.00
1189.252, 53945.03
1190.335, 53833.00
1191.418, 53964.00
1192.500, 53876.06
1193.583, 53982.00
1194.665, 53774.00
1195.747, 53725.00
1196.829, 53646.20
1197.911, 53673.66
1198.993, 53658.00
1200.074, 53773.00
1201.155, 53895.00
1202.237, 53822.00
1203.318, 53728.00
1204.399, 53671.00
1205.479, 53714.00
1206.560, 53615.00
1207.640, 53727.00
1208.721, 53569.00
1209.801, 53690.00
1210.881, 53672.00
1211.961, 53730.00
1213.040, 53775.21
1214.120, 53949.00
1215.199, 53891.00
1216.279, 53881.00
1217.358, 54033.00
1218.437, 54212.00
1219.515, 54230.14
1220.594, 54675.00
1221.673, 54360.00
1222.751, 54654.00
1223.829, 54737.00
1224.907, 55181.00
1225.985, 55034.00
1227.063, 55421.00
1228.141, 55350.00
1229.218, 54985.00
1230.295, 55429.00
1231.372, 55559.00
1232.449, 55439.00
1233.526, 55554.00
1234.603, 55247.00
1235.680, 55411.00
1236.756, 55532.00
1237.832, 55190.00
1238.908, 55479.00
1239.984, 55435.00
1241.060, 55750.00
1242.136, 55597.00
1243.212, 55620.00
1244.287, 55569.00
1245.362, 55177.00
1246.437, 55349.00
1247.512, 55864.00
1248.587, 55603.00
1249.662, 55758.00
1250.736, 55781.96
1251.810, 56053.00
1252.885, 55723.00
1253.959, 55636.00
1255.033, 55668.00
1256.106, 55843.00
1257.180, 55980.00
