##NAMES=Fluorophlogopite
##RRUFFID=R040042
##IDEAL CHEMISTRY=KMg_3_(Si_3_Al)O_10_F_2_
##LOCALITY=Franklin, Sussex County, New Jersey, USA
##OWNER=RRUFF
##SOURCE=University of Arizona Mineral Museum
##DESCRIPTION=Brown flattened hexagonal prism, polytype 1M
##STATUS=The identification of this mineral has been confirmed by X-ray diffraction and chemical analysis
##URL=rruff.info/R040042
##MEASURED CHEMISTRY=(K_0.92_Na_0.08_)_Σ=1_(Mg_2.95_Fe_0.05_)_Σ=3_(Si_3.00_Al_1.00_)O_10_(F_1.40_(OH)_0.60_)_Σ=2_; trace amounts of Ti; OH estimated by charge balance
##PIN_ID=L01769
##ORIENTATION=Laser parallel to b* (0 1 0). Fiducial mark perpendicular to laser is parallel to -c [0 0 -1]
63.96800, 4707.000
65.21800, 5747.000
66.46800, 6671.000
67.71800, 7922.000
68.96700, 9399.000
70.21700, 11036.00
71.46600, 13105.00
72.71500, 15431.00
73.96300, 18135.00
75.21200, 21406.00
76.46000, 24338.00
77.70800, 27666.00
78.95600, 31237.00
80.20300, 34591.00
81.45100, 38825.00
82.69800, 42526.00
83.94500, 47092.00
85.19100, 51252.00
86.43800, 55477.00
87.68400, 60276.00
88.93100, 64743.00
90.17600, 70012.00
91.42200, 76085.00
92.66800, 82400.00
93.91300, 88955.00
95.15800, 96213.00
96.40300, 103329.0
97.64800, 110353.0
98.89200, 119199.0
100.1370, 127041.0
101.3810, 134343.0
102.6250, 140989.0
103.8680, 144375.0
105.1120, 143220.0
106.3550, 137690.0
107.5980, 126184.0
108.8410, 113141.0
110.0840, 99380.00
111.3260, 86510.00
112.5680, 77127.00
113.8100, 70335.00
115.0520, 64695.00
116.2940, 60826.00
117.5350, 58009.00
118.7770, 55737.00
120.0180, 53836.00
121.2590, 52818.00
122.4990, 52151.00
123.7400, 50925.00
124.9800, 49975.00
126.2200, 49610.00
127.4600, 48962.00
128.6990, 48630.00
129.9390, 48397.00
131.1780, 48206.00
132.4170, 48141.00
133.6560, 47806.00
134.8940, 47398.00
136.1330, 47263.00
137.3710, 47265.00
138.6090, 47226.00
139.8470, 47339.00
141.0840, 47199.00
142.3220, 46697.00
143.5590, 47151.00
144.7960, 47304.00
146.0320, 47409.00
147.2690, 47976.00
148.5050, 48053.00
149.7420, 48285.00
150.9780, 47994.00
152.2130, 48990.00
153.4490, 49509.00
154.6840, 50000.00
155.9190, 50916.00
157.1540, 51628.00
158.3890, 52714.00
159.6240, 53908.00
160.8580, 55638.00
162.0920, 57131.00
163.3260, 59346.00
164.5600, 61547.00
165.7930, 64224.00
167.0270, 66674.00
168.2600, 69913.00
169.4930, 73275.00
170.7260, 76574.00
171.9580, 81417.00
173.1900, 86727.00
174.4230, 92551.00
175.6550, 99369.00
176.8860, 108305.0
178.1180, 118935.0
179.3490, 131686.0
180.5800, 147932.0
181.8110, 167653.0
183.0420, 195657.0
184.2730, 227686.0
185.5030, 268834.0
186.7330, 317366.0
187.9630, 376272.0
189.1930, 446097.0
190.4220, 525291.0
191.6520, 612947.0
192.8810, 707045.0
194.1100, 799476.0
195.3390, 881452.0
196.5670, 936923.0
197.7960, 957320.0
199.0240, 939458.0
200.2520, 877266.0
201.4790, 782965.0
202.7070, 668183.0
203.9340, 554823.0
205.1620, 451794.0
206.3890, 367747.0
207.6150, 301447.0
208.8420, 249794.0
210.0680, 210571.0
211.2940, 180159.0
212.5200, 157337.0
213.7460, 139348.0
214.9720, 125795.0
216.1970, 113529.0
217.4220, 105046.0
218.6470, 97047.00
219.8720, 91349.00
221.0970, 85330.00
222.3210, 81234.00
223.5450, 77379.00
224.7690, 74116.00
225.9930, 71714.00
227.2170, 69899.00
228.4400, 68673.00
229.6630, 66856.00
230.8860, 65722.00
232.1090, 65110.00
233.3320, 63952.00
234.5540, 62782.00
235.7770, 61962.00
236.9990, 61303.00
238.2210, 60733.00
239.4420, 60211.00
240.6640, 59410.00
241.8850, 58856.00
243.1060, 58663.00
244.3270, 57970.00
245.5480, 57721.00
246.7680, 57185.00
247.9880, 57520.00
249.2080, 57507.00
250.4280, 57649.00
251.6480, 58153.00
252.8670, 58248.00
254.0870, 58862.00
255.3060, 59668.00
256.5250, 60836.34
257.7440, 62411.00
258.9620, 64258.00
260.1800, 66376.00
261.3990, 69118.00
262.6160, 72092.00
263.8340, 76013.00
265.0520, 80368.00
266.2690, 86325.00
267.4860, 93626.00
268.7030, 102478.0
269.9200, 113182.0
271.1370, 125622.0
272.3530, 140190.0
273.5690, 156736.0
274.7850, 174674.0
276.0010, 194291.0
277.2170, 211736.0
278.4320, 226955.0
279.6470, 234348.0
280.8620, 231807.0
282.0770, 221297.0
283.2920, 205148.0
284.5060, 181605.0
285.7210, 160191.0
286.9350, 141603.0
288.1490, 126264.0
289.3620, 114622.0
290.5760, 105144.0
291.7890, 98035.00
293.0020, 93406.00
294.2150, 89402.00
295.4280, 86609.00
296.6400, 85576.00
297.8530, 85225.00
299.0650, 85567.00
300.2770, 86758.00
301.4890, 89178.00
302.7000, 92362.00
303.9120, 96518.00
305.1230, 101733.0
306.3340, 108449.0
307.5450, 115321.0
308.7550, 124025.0
309.9660, 133135.0
311.1760, 142027.0
312.3860, 150864.0
313.5960, 159018.0
314.8050, 166436.0
316.0150, 171006.0
317.2240, 175910.0
318.4330, 178354.0
319.6420, 179381.0
320.8510, 179140.0
322.0590, 177765.7
323.2680, 175115.0
324.4760, 170938.0
325.6840, 165932.0
326.8910, 158916.0
328.0990, 150339.0
329.3060, 141124.0
330.5140, 132253.0
331.7210, 123472.0
332.9270, 114681.0
334.1340, 107569.0
335.3400, 100689.0
336.5470, 94912.00
337.7530, 90420.00
338.9590, 85445.00
340.1640, 81830.00
341.3700, 78127.00
342.5750, 75450.00
343.7800, 73180.00
344.9850, 71114.00
346.1900, 69837.00
347.3940, 68208.00
348.5990, 67389.00
349.8030, 66172.00
351.0070, 65128.00
352.2100, 64202.00
353.4140, 63593.00
354.6170, 63263.00
355.8210, 63049.00
357.0240, 62711.00
358.2260, 62647.00
359.4290, 62617.00
360.6320, 63016.00
361.8340, 62845.00
363.0360, 63223.00
364.2380, 63949.00
365.4400, 64776.00
366.6410, 64610.00
367.8420, 65174.00
369.0440, 65947.00
370.2440, 66669.00
371.4450, 67347.00
372.6460, 67711.00
373.8460, 67586.00
375.0460, 66709.00
376.2460, 65687.00
377.4460, 64614.00
378.6460, 63371.00
379.8450, 62510.00
381.0450, 61189.00
382.2440, 60254.00
383.4430, 59595.00
384.6410, 59402.00
385.8400, 58933.00
387.0380, 58810.00
388.2360, 57980.00
389.4340, 58213.00
390.6320, 58037.00
391.8300, 58104.00
393.0270, 57408.00
394.2240, 57629.00
395.4210, 57303.00
396.6180, 57416.00
397.8150, 57196.00
399.0110, 57097.00
400.2080, 56994.00
401.4040, 56959.00
402.6000, 56882.00
403.7950, 56804.49
404.9910, 56699.00
406.1860, 56686.00
407.3810, 56357.00
408.5760, 56347.00
409.7710, 56128.00
410.9660, 56236.00
412.1600, 56196.00
413.3540, 56142.00
414.5490, 55880.00
415.7420, 55671.00
416.9360, 55351.00
418.1300, 55239.00
419.3230, 55319.00
420.5160, 54958.00
421.7090, 54951.00
422.9020, 55128.00
424.0940, 55160.00
425.2870, 55413.00
426.4790, 55219.00
427.6710, 54935.00
428.8630, 54806.00
430.0550, 54927.00
431.2460, 54885.00
432.4370, 54591.00
433.6290, 54844.00
434.8190, 55009.00
436.0100, 55001.00
437.2010, 55355.00
438.3910, 55338.00
439.5810, 55050.00
440.7710, 55643.00
441.9610, 55387.89
443.1510, 55172.00
444.3400, 55309.00
445.5300, 55402.00
446.7190, 55268.00
447.9080, 55410.00
449.0960, 55159.00
450.2850, 55000.00
451.4730, 55427.00
452.6620, 55496.00
453.8500, 55273.00
455.0370, 55571.00
456.2250, 55582.00
457.4120, 55763.00
458.6000, 55907.68
459.7870, 55887.00
460.9740, 56155.00
462.1610, 56238.00
463.3470, 56335.52
464.5330, 55942.00
465.7200, 56331.00
466.9060, 55974.00
468.0910, 55969.00
469.2770, 56073.00
470.4630, 55560.00
471.6480, 55632.00
472.8330, 54777.00
474.0180, 54811.00
475.2030, 54312.00
476.3870, 54071.00
477.5720, 53945.63
478.7560, 54050.00
479.9400, 53790.00
481.1240, 53805.00
482.3070, 54095.00
483.4910, 54064.00
484.6740, 54066.00
485.8570, 53988.00
487.0400, 54249.00
488.2230, 54328.00
489.4050, 54314.00
490.5880, 54483.00
491.7700, 54282.00
492.9520, 54481.00
494.1340, 54949.00
495.3160, 55072.00
496.4970, 54688.00
497.6780, 55312.00
498.8600, 54722.00
500.0400, 55142.00
501.2210, 55369.00
502.4020, 55299.00
503.5820, 55709.00
504.7630, 55772.00
505.9430, 55432.00
507.1220, 56188.00
508.3020, 56015.00
509.4820, 56405.00
510.6610, 56595.00
511.8400, 56644.00
513.0190, 56684.00
514.1980, 56566.00
515.3770, 56937.00
516.5550, 57009.00
517.7330, 56773.00
518.9110, 56815.00
520.0890, 56550.00
521.2670, 56497.00
522.4450, 56116.00
523.6220, 56874.00
524.7990, 56615.00
525.9760, 56708.00
527.1530, 56472.00
528.3300, 56592.00
529.5060, 56575.00
530.6830, 56464.00
531.8590, 56415.00
533.0350, 56609.00
534.2100, 57094.00
535.3860, 56799.00
536.5610, 56954.00
537.7370, 57048.00
538.9120, 56988.00
540.0870, 57339.00
541.2610, 57188.00
542.4360, 57689.00
543.6100, 57644.21
544.7850, 57438.00
545.9590, 57724.00
547.1320, 57776.00
548.3060, 57805.00
549.4800, 57973.00
550.6530, 57920.00
551.8260, 58084.00
552.9990, 58106.00
554.1720, 58714.00
555.3440, 58337.00
556.5170, 58476.00
557.6890, 58969.00
558.8610, 58776.00
560.0330, 58951.00
561.2050, 58924.00
562.3760, 58997.70
563.5480, 59123.61
564.7190, 59287.00
565.8900, 59383.00
567.0610, 59680.00
568.2310, 59887.00
569.4020, 59676.00
570.5720, 59924.00
571.7420, 60155.00
572.9120, 60145.00
574.0820, 60303.16
575.2520, 60453.47
576.4210, 60417.00
577.5900, 60531.00
578.7590, 60605.00
579.9280, 60728.09
581.0970, 60845.31
582.2660, 60968.00
583.4340, 61044.00
584.6020, 60987.00
585.7700, 60950.00
586.9380, 61282.00
588.1060, 61374.00
589.2730, 61640.00
590.4410, 61918.68
591.6080, 62053.00
592.7750, 62556.00
593.9420, 62838.00
595.1080, 63293.00
596.2750, 63665.00
597.4410, 64343.00
598.6070, 64424.00
599.7730, 65437.00
600.9390, 65533.00
602.1050, 66158.00
603.2700, 66899.00
604.4350, 67986.00
605.6010, 68724.00
606.7660, 69831.00
607.9300, 70577.00
609.0950, 72375.00
610.2590, 73346.00
611.4230, 74942.00
612.5880, 76584.00
613.7510, 78309.00
614.9150, 80539.00
616.0790, 82096.00
617.2420, 84360.00
618.4050, 87030.45
619.5680, 89735.62
620.7310, 93252.00
621.8940, 96242.00
623.0560, 100487.0
624.2190, 104287.0
625.3810, 109238.0
626.5430, 114430.0
627.7050, 118905.0
628.8660, 125010.0
630.0280, 131051.0
631.1890, 137032.0
632.3500, 143002.0
633.5110, 148689.0
634.6720, 154427.0
635.8330, 159484.0
636.9930, 163138.0
638.1530, 166568.0
639.3130, 167876.0
640.4730, 168225.0
641.6330, 168496.0
642.7930, 167184.0
643.9520, 166620.0
645.1110, 164274.0
646.2710, 163281.0
647.4290, 161182.0
648.5880, 159895.0
649.7470, 159737.0
650.9050, 159030.0
652.0630, 159859.0
653.2210, 159610.0
654.3790, 160657.0
655.5370, 161563.0
656.6950, 162577.0
657.8520, 165033.0
659.0090, 167189.0
660.1660, 170426.0
661.3230, 174011.0
662.4800, 179340.0
663.6360, 184419.0
664.7930, 190742.0
665.9490, 199000.0
667.1050, 206964.0
668.2610, 216835.0
669.4160, 228728.0
670.5720, 243729.0
671.7270, 260016.0
672.8830, 279383.0
674.0380, 299965.0
675.1920, 324461.0
676.3470, 349781.0
677.5020, 377917.0
678.6560, 404422.0
679.8100, 429356.0
680.9640, 449607.0
682.1180, 463535.0
683.2720, 470773.0
684.4250, 470797.0
685.5780, 460702.0
686.7320, 444301.0
687.8850, 423152.0
689.0370, 398282.0
690.1900, 371772.0
691.3420, 343721.0
692.4950, 315170.0
693.6470, 288368.0
694.7990, 261767.0
695.9510, 236723.0
697.1020, 214682.0
698.2540, 194510.4
699.4050, 176242.0
700.5560, 160959.0
701.7070, 147826.0
702.8580, 136375.0
704.0090, 126752.0
705.1590, 119317.0
706.3100, 112444.0
707.4600, 107023.0
708.6100, 102293.0
709.7590, 98895.00
710.9090, 95608.00
712.0590, 92571.00
713.2080, 90000.00
714.3570, 88235.00
715.5060, 87230.00
716.6550, 85133.00
717.8030, 83706.00
718.9520, 82425.00
720.1000, 81611.00
721.2480, 80182.00
722.3960, 79227.00
723.5440, 78529.00
724.6920, 78510.00
725.8390, 77613.98
726.9870, 77165.00
728.1340, 76433.00
729.2810, 75669.00
730.4280, 75036.00
731.5740, 74480.00
732.7210, 74672.00
733.8670, 74129.00
735.0130, 74148.00
736.1590, 73858.00
737.3050, 73513.00
738.4510, 73086.00
739.5960, 72905.00
740.7410, 72780.00
741.8870, 72302.00
743.0320, 72216.00
744.1760, 72134.00
745.3210, 72066.00
746.4660, 72063.00
747.6100, 71531.00
748.7540, 71786.00
749.8980, 71587.00
751.0420, 71739.00
752.1860, 71354.00
753.3290, 71819.00
754.4720, 71674.00
755.6160, 71735.00
756.7590, 71496.00
757.9020, 70882.00
759.0440, 70606.00
760.1870, 70589.00
761.3290, 70517.00
762.4710, 70377.99
763.6130, 70108.00
764.7550, 70265.00
765.8970, 70197.00
767.0390, 70279.00
768.1800, 70582.00
769.3210, 70223.00
770.4620, 70436.00
771.6030, 70562.00
772.7440, 70510.00
773.8840, 70320.00
775.0250, 70590.00
776.1650, 70746.00
777.3050, 70791.62
778.4450, 71006.84
779.5850, 71089.00
780.7240, 71341.00
781.8640, 71587.00
783.0030, 71862.00
784.1420, 71731.00
785.2810, 72015.00
786.4200, 72397.00
787.5590, 72104.00
788.6970, 72903.00
789.8350, 72604.00
790.9730, 73048.00
792.1110, 73644.00
793.2490, 73921.00
794.3870, 74412.00
795.5240, 73951.00
796.6620, 74338.00
797.7990, 74805.00
798.9360, 74259.00
800.0730, 74544.00
801.2090, 74512.00
802.3460, 74081.00
803.4820, 73862.00
804.6180, 73825.00
805.7540, 73677.00
806.8900, 73219.00
808.0260, 72990.00
809.1620, 72657.00
810.2970, 72663.00
811.4320, 72421.00
812.5670, 72258.00
813.7020, 72122.00
814.8370, 72167.00
815.9710, 71991.00
817.1060, 71987.00
818.2400, 72283.00
819.3740, 72189.00
820.5080, 71909.00
821.6420, 72076.00
822.7760, 71671.00
823.9090, 71974.00
825.0420, 72060.00
826.1760, 71867.00
827.3090, 71955.00
828.4410, 71747.00
829.5740, 71550.00
830.7060, 71844.00
831.8390, 71448.00
832.9710, 71674.00
834.1030, 71220.00
835.2350, 71805.00
836.3670, 71206.00
837.4980, 71580.00
838.6300, 71367.00
839.7610, 71129.00
840.8920, 71622.00
842.0230, 71965.00
843.1530, 71954.00
844.2840, 71504.00
845.4140, 71085.00
846.5450, 71313.00
847.6750, 71694.00
848.8050, 71426.00
849.9350, 71930.00
851.0640, 71249.00
852.1940, 71461.00
853.3230, 71783.00
854.4520, 71532.00
855.5810, 71790.00
856.7100, 72312.00
857.8390, 71909.00
858.9670, 72011.00
860.0960, 72147.00
861.2240, 72305.00
862.3520, 72604.00
863.4800, 72357.00
864.6080, 72165.00
865.7350, 72496.00
866.8630, 72749.00
867.9900, 72476.00
869.1170, 72899.00
870.2440, 72878.00
871.3710, 72427.00
872.4970, 72860.00
873.6240, 72818.00
874.7500, 72708.00
875.8760, 73165.00
877.0020, 72900.00
878.1280, 73454.00
879.2540, 73060.00
880.3790, 74078.00
881.5050, 73553.00
882.6300, 74047.00
883.7550, 73730.00
884.8800, 73949.00
886.0050, 73914.00
887.1290, 74577.00
888.2540, 74956.00
889.3780, 75101.00
890.5020, 74905.00
891.6260, 75571.00
892.7500, 75836.00
893.8730, 75248.00
894.9970, 75692.00
896.1200, 75926.00
897.2440, 75685.00
898.3670, 76320.00
899.4890, 75986.00
900.6120, 76208.00
901.7350, 76408.00
902.8570, 76889.00
903.9790, 76900.34
905.1010, 76993.33
906.2230, 77151.00
907.3450, 76789.00
908.4670, 77053.00
909.5880, 76694.00
910.7100, 76704.00
911.8310, 77135.00
912.9520, 76782.00
914.0730, 77374.00
915.1930, 77159.00
916.3140, 77284.00
917.4340, 77593.00
918.5550, 77430.00
919.6750, 77741.00
920.7950, 77685.77
921.9140, 77437.00
923.0340, 77551.00
924.1530, 77746.00
925.2730, 77509.00
926.3920, 77811.00
927.5110, 77931.00
928.6300, 77597.00
929.7480, 78041.00
930.8670, 78364.00
931.9850, 78482.00
933.1040, 78130.00
934.2220, 78110.00
935.3400, 78394.00
936.4570, 78548.00
937.5750, 78061.00
938.6920, 78322.00
939.8100, 78615.00
940.9270, 78718.00
942.0440, 79331.00
943.1610, 78992.00
944.2770, 79461.00
945.3940, 79242.00
946.5100, 79078.00
947.6270, 79298.00
948.7430, 79708.00
949.8590, 79736.00
950.9740, 79624.00
952.0900, 79920.00
953.2050, 80050.00
954.3210, 79699.00
955.4360, 80281.00
956.5510, 80106.00
957.6660, 80636.00
958.7800, 81208.00
959.8950, 81201.00
961.0090, 81242.00
962.1240, 81559.00
963.2380, 81951.00
964.3520, 82084.00
965.4650, 82478.00
966.5790, 83120.00
967.6930, 82988.00
968.8060, 83455.00
969.9190, 84408.00
971.0320, 84126.00
972.1450, 84623.00
973.2580, 84953.00
974.3700, 85262.00
975.4830, 85763.00
976.5950, 85837.00
977.7070, 86753.00
978.8190, 87291.00
979.9310, 87224.00
981.0430, 87732.00
982.1540, 88135.00
983.2650, 88523.00
984.3770, 88703.00
985.4880, 88945.00
986.5990, 89550.00
987.7090, 89609.50
988.8200, 90056.52
989.9300, 90054.00
991.0410, 90788.00
992.1510, 91188.00
993.2610, 91642.00
994.3710, 92043.00
995.4810, 92985.00
996.5900, 93858.00
997.6990, 94293.00
998.8090, 95325.00
999.9180, 96489.00
1001.027, 98033.00
1002.136, 99997.00
1003.244, 101892.0
1004.353, 101831.0
1005.461, 101868.0
1006.569, 102313.0
1007.677, 103252.0
1008.785, 104429.0
1009.893, 105364.0
1011.001, 106716.0
1012.108, 107852.0
1013.215, 109719.0
1014.323, 111137.0
1015.430, 113148.0
1016.536, 115318.0
1017.643, 118018.0
1018.750, 121115.0
1019.856, 125257.0
1020.962, 129660.0
1022.068, 136428.0
1023.174, 144492.0
1024.280, 154907.0
1025.386, 168458.0
1026.491, 182322.0
1027.597, 199706.0
1028.702, 219829.0
1029.807, 241495.0
1030.912, 262532.0
1032.017, 282995.0
1033.121, 298324.0
1034.226, 309346.0
1035.330, 310656.0
1036.434, 305062.0
1037.538, 291974.0
1038.642, 274873.0
1039.746, 255233.0
1040.850, 234168.0
1041.953, 215991.0
1043.056, 197865.0
1044.159, 183359.0
1045.262, 170888.0
1046.365, 161060.0
1047.468, 151961.0
1048.571, 144811.0
1049.673, 138196.0
1050.775, 133118.0
1051.877, 128432.0
1052.979, 124190.0
1054.081, 120784.0
1055.183, 118189.0
1056.284, 115140.0
1057.386, 113533.0
1058.487, 110530.0
1059.588, 109163.0
1060.689, 107348.0
1061.790, 105679.0
1062.890, 104274.0
1063.991, 102443.0
1065.091, 101290.0
1066.191, 100037.0
1067.291, 98443.00
1068.391, 97454.00
1069.491, 96050.00
1070.591, 95610.00
1071.690, 94340.00
1072.790, 93599.00
1073.889, 92879.00
1074.988, 92091.00
1076.087, 91610.00
1077.185, 90769.00
1078.284, 90230.00
1079.382, 90512.00
1080.481, 90079.00
1081.579, 89743.00
1082.677, 88850.00
1083.775, 88879.00
1084.872, 88422.00
1085.970, 88415.00
1087.067, 88185.00
1088.165, 88019.34
1089.262, 88127.00
1090.359, 87874.00
1091.456, 88012.00
1092.552, 88156.00
1093.649, 87724.00
1094.745, 87982.00
1095.842, 87457.00
1096.938, 87859.00
1098.034, 88210.00
1099.130, 88276.00
1100.225, 88254.00
1101.321, 88314.36
1102.416, 87951.00
1103.511, 88178.00
1104.607, 88021.00
1105.702, 87944.00
1106.796, 88204.00
1107.891, 88205.00
1108.986, 87133.00
1110.080, 87685.00
1111.174, 86848.00
1112.268, 87131.00
1113.362, 87069.00
1114.456, 86724.00
1115.550, 86273.00
1116.643, 86114.00
1117.737, 85702.03
1118.830, 85201.00
1119.923, 85087.00
1121.016, 84866.56
1122.109, 85137.00
1123.201, 84794.00
1124.294, 84736.00
1125.386, 84851.00
1126.478, 84608.00
1127.571, 84502.00
1128.663, 84554.00
1129.754, 84204.00
1130.846, 84606.00
1131.937, 84924.00
1133.029, 84990.00
1134.120, 85073.77
1135.211, 84493.00
1136.302, 84825.00
1137.393, 84731.00
1138.484, 84359.00
1139.574, 84741.00
1140.664, 84783.00
1141.755, 84676.00
1142.845, 84901.00
1143.935, 84814.00
1145.025, 84716.00
1146.114, 84822.00
1147.204, 85062.00
1148.293, 85035.48
1149.382, 84627.00
1150.471, 84970.00
1151.560, 85155.00
1152.649, 84673.00
1153.738, 84993.00
1154.826, 85111.00
1155.915, 85138.00
1157.003, 84988.00
1158.091, 85393.00
1159.179, 84959.00
1160.267, 85331.00
1161.355, 85626.00
1162.442, 85552.00
1163.529, 85465.00
1164.617, 85068.00
1165.704, 84987.00
1166.791, 85042.79
1167.878, 85235.00
1168.964, 85441.00
1170.051, 85366.00
1171.137, 85858.00
1172.224, 85815.00
1173.310, 86359.00
1174.396, 86079.60
1175.481, 86253.16
1176.567, 85693.00
1177.653, 86159.00
1178.738, 86358.00
1179.823, 86049.00
1180.909, 86311.00
1181.994, 86178.00
1183.078, 86332.00
1184.163, 86289.00
1185.248, 86365.00
1186.332, 86355.00
1187.416, 86467.00
1188.501, 86615.00
1189.585, 86711.00
1190.669, 86740.00
1191.752, 87235.00
1192.836, 86746.00
1193.919, 86668.00
1195.003, 86582.00
1196.086, 86960.00
1197.169, 87251.00
1198.252, 86882.00
1199.334, 87537.00
1200.417, 87157.00
1201.500, 86933.00
1202.582, 87312.00
1203.664, 86924.00
1204.746, 87432.00
1205.828, 87135.00
1206.910, 87677.00
1207.992, 87269.00
1209.073, 87635.00
1210.154, 87689.00
1211.236, 87600.00
1212.317, 87431.00
1213.398, 87516.00
1214.479, 87585.15
1215.559, 87678.70
1216.640, 87811.22
1217.720, 88043.00
1218.800, 88118.00
1219.881, 88329.00
1220.961, 88527.00
1222.040, 88264.00
1223.120, 88751.00
1224.200, 88535.00
1225.279, 88839.00
1226.358, 89025.00
1227.438, 88834.00
1228.517, 89317.00
1229.595, 89522.00
1230.674, 89073.00
1231.753, 89256.00
1232.831, 89307.00
1233.910, 89383.00
1234.988, 89652.00
1236.066, 89636.00
1237.144, 89781.91
1238.222, 89944.00
1239.299, 89988.00
