##NAMES=Fluorophlogopite
##RRUFFID=R040042
##IDEAL CHEMISTRY=KMg_3_(Si_3_Al)O_10_F_2_
##LOCALITY=Franklin, Sussex County, New Jersey, USA
##OWNER=RRUFF
##SOURCE=University of Arizona Mineral Museum
##DESCRIPTION=Brown flattened hexagonal prism, polytype 1M
##STATUS=The identification of this mineral has been confirmed by X-ray diffraction and chemical analysis
##URL=rruff.info/R040042
##MEASURED CHEMISTRY=(K_0.92_Na_0.08_)_Σ=1_(Mg_2.95_Fe_0.05_)_Σ=3_(Si_3.00_Al_1.00_)O_10_(F_1.40_(OH)_0.60_)_Σ=2_; trace amounts of Ti; OH estimated by charge balance
##PIN_ID=L00305
##ORIENTATION=Laser parallel to (1 0 1). Fiducial mark perpendicular to laser is parallel to b [0 1 0]
81.74600, 29061.00
82.99200, 33872.00
84.23700, 38985.00
85.48300, 43637.00
86.72800, 48856.00
87.97300, 54391.00
89.21800, 60612.00
90.46200, 67907.00
91.70600, 75612.00
92.95100, 83015.00
94.19400, 91690.00
95.43800, 99641.00
96.68200, 109110.0
97.92500, 118601.0
99.16800, 127124.0
100.4110, 135448.0
101.6540, 141527.0
102.8970, 143886.0
104.1390, 143578.0
105.3810, 137404.0
106.6230, 128409.0
107.8650, 116795.0
109.1070, 102677.0
110.3480, 90263.00
111.5900, 80164.00
112.8310, 72548.00
114.0710, 66154.00
115.3120, 61714.00
116.5530, 58099.00
117.7930, 54551.00
119.0330, 51385.00
120.2730, 48980.00
121.5130, 47280.00
122.7520, 45313.00
123.9910, 43527.00
125.2310, 41534.00
126.4700, 40255.00
127.7080, 38706.00
128.9470, 37739.00
130.1850, 36669.00
131.4230, 36301.00
132.6610, 35103.00
133.8990, 34159.00
135.1370, 34390.00
136.3740, 32476.00
137.6120, 32327.00
138.8490, 32506.00
140.0850, 32141.00
141.3220, 31456.00
142.5580, 30378.00
143.7950, 29397.00
145.0310, 29049.00
146.2670, 28878.00
147.5020, 28330.00
148.7380, 27774.00
149.9730, 27609.00
151.2080, 27156.00
152.4430, 27105.00
153.6780, 26863.00
154.9130, 26809.00
156.1470, 26660.00
157.3810, 26486.00
158.6150, 26460.00
159.8490, 26524.61
161.0830, 26704.00
162.3160, 26893.00
163.5490, 27057.00
164.7820, 27427.00
166.0150, 27553.00
167.2480, 28046.00
168.4800, 28562.00
169.7120, 28883.26
170.9440, 29778.00
172.1760, 30436.00
173.4080, 31398.00
174.6400, 32449.07
175.8710, 33675.00
177.1020, 35258.00
178.3330, 37305.00
179.5640, 39943.00
180.7940, 43049.00
182.0250, 47723.00
183.2550, 53393.00
184.4850, 61208.00
185.7150, 69242.00
186.9440, 79937.00
188.1740, 92429.00
189.4030, 106476.0
190.6320, 122045.0
191.8610, 138526.0
193.0900, 155864.0
194.3180, 169899.0
195.5460, 181191.0
196.7740, 185924.0
198.0020, 182821.0
199.2300, 172624.0
200.4580, 156680.0
201.6850, 136651.0
202.9120, 116433.0
204.1390, 98164.00
205.3660, 83069.00
206.5930, 70851.00
207.8190, 61322.00
209.0450, 54361.00
210.2710, 48842.00
211.4970, 44442.00
212.7230, 41285.00
213.9480, 38564.00
215.1730, 36897.00
216.3990, 35082.00
217.6230, 33537.00
218.8480, 32114.00
220.0730, 30827.00
221.2970, 29803.00
222.5210, 30229.00
223.7450, 28757.22
224.9690, 28732.00
226.1930, 27092.00
227.4160, 26697.00
228.6390, 26214.00
229.8620, 25987.00
231.0850, 25971.00
232.3080, 25718.00
233.5300, 25329.00
234.7520, 25264.00
235.9750, 24885.00
237.1960, 24921.00
238.4180, 24720.00
239.6400, 24494.00
240.8610, 24146.00
242.0820, 24020.00
243.3030, 23700.00
244.5240, 23684.00
245.7450, 23311.00
246.9650, 23329.00
248.1850, 23126.00
249.4050, 23071.00
250.6250, 23076.00
251.8450, 23126.00
253.0640, 23212.00
254.2840, 23607.00
255.5030, 23580.00
256.7220, 23635.00
257.9400, 24167.00
259.1590, 24498.00
260.3770, 24938.00
261.5950, 25621.00
262.8130, 26224.00
264.0310, 27570.00
265.2490, 28589.00
266.4660, 30010.00
267.6830, 31830.00
268.9010, 34061.00
270.1170, 36334.00
271.3340, 39081.00
272.5510, 42323.00
273.7670, 45844.00
274.9830, 49231.00
276.1990, 52442.00
277.4150, 54775.00
278.6300, 56287.00
279.8460, 56015.00
281.0610, 54191.00
282.2760, 51179.00
283.4910, 47575.00
284.7050, 43872.00
285.9200, 40476.00
287.1340, 37819.00
288.3480, 35714.00
289.5620, 34478.00
290.7760, 33760.00
291.9890, 32638.00
293.2030, 32308.00
294.4160, 32443.00
295.6290, 32585.00
296.8420, 32837.00
298.0540, 33542.00
299.2670, 34412.00
300.4790, 35529.00
301.6910, 37439.00
302.9030, 38951.00
304.1150, 41216.00
305.3260, 43459.00
306.5380, 46314.00
307.7490, 49340.00
308.9600, 52329.00
310.1700, 55632.00
311.3810, 58808.00
312.5910, 60918.00
313.8020, 62694.00
315.0120, 64216.00
316.2220, 64389.00
317.4310, 65011.00
318.6410, 64847.00
319.8500, 63898.00
321.0590, 62783.00
322.2680, 61549.00
323.4770, 59848.00
324.6850, 57905.00
325.8940, 55521.00
327.1020, 52587.00
328.3100, 50135.00
329.5180, 47420.00
330.7260, 44551.00
331.9330, 42197.00
333.1400, 39930.00
334.3470, 37628.00
335.5540, 36149.00
336.7610, 34574.00
337.9680, 33103.00
339.1740, 31982.00
340.3800, 31006.00
341.5860, 30334.00
342.7920, 29486.00
343.9980, 29158.00
345.2030, 28616.00
346.4080, 28259.00
347.6130, 28315.00
348.8180, 28241.00
350.0230, 27926.00
351.2280, 27660.00
352.4320, 27421.00
353.6360, 27418.00
354.8400, 27712.00
356.0440, 27850.00
357.2480, 28143.00
358.4510, 28596.00
359.6540, 29100.00
360.8570, 30163.00
362.0600, 30842.00
363.2630, 32073.00
364.4660, 33499.00
365.6680, 35205.00
366.8700, 36663.00
368.0720, 38348.00
369.2740, 40085.00
370.4760, 41227.00
371.6770, 42095.00
372.8780, 41397.00
374.0790, 40418.00
375.2800, 38830.00
376.4810, 36528.00
377.6820, 34421.00
378.8820, 32489.00
380.0820, 30790.00
381.2820, 29546.00
382.4820, 28473.00
383.6820, 27401.00
384.8810, 26869.00
386.0800, 26343.00
387.2800, 25868.00
388.4780, 25245.00
389.6770, 25267.00
390.8760, 24928.00
392.0740, 24519.00
393.2720, 24617.00
394.4700, 24349.00
395.6680, 24475.00
396.8660, 24341.00
398.0630, 24065.00
399.2610, 24175.00
400.4580, 23865.00
401.6550, 24000.00
402.8510, 23747.00
404.0480, 23809.00
405.2440, 23646.00
406.4410, 23824.00
407.6370, 23524.00
408.8320, 23304.00
410.0280, 23511.00
411.2240, 23318.91
412.4190, 24115.00
413.6140, 23466.00
414.8090, 23153.00
416.0040, 23532.00
417.1980, 22048.00
418.3930, 22004.00
419.5870, 21985.00
420.7810, 22264.00
421.9750, 22532.00
423.1690, 21898.00
424.3620, 21658.00
425.5560, 21717.00
426.7490, 21793.00
427.9420, 21868.00
429.1340, 21780.00
430.3270, 21800.00
431.5200, 21735.00
432.7120, 21855.00
433.9040, 22027.00
435.0960, 21982.00
436.2880, 22265.00
437.4790, 22441.00
438.6700, 22528.00
439.8620, 22709.81
441.0530, 22961.00
442.2430, 22961.00
443.4340, 23330.00
444.6250, 23527.00
445.8150, 23413.00
447.0050, 24035.00
448.1950, 24117.00
449.3850, 24616.00
450.5740, 24708.00
451.7640, 24967.00
452.9530, 25396.00
454.1420, 25839.14
455.3310, 26409.00
456.5200, 26816.00
457.7080, 26788.00
458.8960, 26811.00
460.0850, 27316.00
461.2730, 27330.00
462.4600, 27856.00
463.6480, 28338.00
464.8350, 28653.00
466.0230, 28481.00
467.2100, 28050.30
468.3970, 27326.00
469.5830, 26422.00
470.7700, 25246.00
471.9560, 24169.00
473.1430, 23020.00
474.3290, 22439.00
475.5140, 21676.00
476.7000, 21181.00
477.8860, 20864.00
479.0710, 20766.00
480.2560, 20799.00
481.4410, 20705.00
482.6260, 20713.00
483.8100, 20798.00
484.9950, 21145.00
486.1790, 21558.00
487.3630, 21726.00
488.5470, 22250.00
489.7310, 22631.00
490.9140, 23009.00
492.0980, 23680.00
493.2810, 24548.00
494.4640, 24673.00
495.6470, 25556.00
496.8290, 26107.00
498.0120, 26638.00
499.1940, 27024.00
500.3760, 27437.00
501.5580, 27707.49
502.7400, 27821.00
503.9220, 28066.00
505.1030, 28162.00
506.2840, 28167.00
507.4660, 28605.00
508.6460, 28554.00
509.8270, 28902.00
511.0080, 28848.00
512.1880, 29034.00
513.3680, 28859.00
514.5480, 28392.00
515.7280, 27808.00
516.9080, 26910.00
518.0870, 26379.00
519.2670, 25586.00
520.4460, 24948.50
521.6250, 24641.00
522.8040, 23799.00
523.9820, 23529.00
525.1610, 23202.00
526.3390, 22796.00
527.5170, 22448.00
528.6950, 22282.00
529.8730, 22025.00
531.0500, 21942.00
532.2280, 21684.00
533.4050, 21490.00
534.5820, 21242.00
535.7590, 21203.00
536.9350, 21065.88
538.1120, 21047.00
539.2880, 20967.00
540.4640, 21024.00
541.6400, 21046.00
542.8160, 21095.00
543.9920, 21205.00
545.1670, 21171.00
546.3430, 21059.00
547.5180, 21169.00
548.6930, 21163.00
549.8680, 21267.00
551.0420, 21194.00
552.2170, 21199.00
553.3910, 21026.00
554.5650, 21240.00
555.7390, 21056.00
556.9130, 21224.00
558.0860, 21322.00
559.2590, 21063.00
560.4330, 21554.00
561.6060, 21399.00
562.7790, 21198.00
563.9510, 21480.00
565.1240, 21248.00
566.2960, 21309.00
567.4680, 21412.00
568.6400, 21390.00
569.8120, 21355.15
570.9840, 21314.00
572.1550, 21154.00
573.3270, 21191.00
574.4980, 21032.00
575.6690, 21020.00
576.8390, 20880.00
578.0100, 20939.00
579.1800, 20736.00
580.3510, 20662.00
581.5210, 20402.00
582.6910, 20629.00
583.8600, 20534.00
585.0300, 20390.00
586.1990, 20504.00
587.3690, 20330.00
588.5380, 20319.00
589.7060, 20499.00
590.8750, 20457.00
592.0440, 20433.00
593.2120, 20332.00
594.3800, 20620.00
595.5480, 20695.00
596.7160, 20859.00
597.8840, 20759.00
599.0510, 20953.00
600.2190, 21191.00
601.3860, 21256.00
602.5530, 21606.00
603.7200, 21590.00
604.8860, 22023.00
606.0530, 22198.00
607.2190, 22327.00
608.3850, 22821.00
609.5510, 23004.00
610.7170, 23226.00
611.8820, 23613.00
613.0480, 24046.88
614.2130, 24580.56
615.3780, 25248.00
616.5430, 25791.00
617.7080, 26674.00
618.8720, 27218.00
620.0370, 28116.00
621.2010, 28688.00
622.3650, 29661.00
623.5290, 30594.00
624.6930, 31557.00
625.8560, 33108.00
627.0200, 33840.00
628.1830, 34995.00
629.3460, 36554.00
630.5090, 37604.36
631.6710, 39018.00
632.8340, 40196.00
633.9960, 41694.00
635.1580, 42868.00
636.3200, 44214.00
637.4820, 45167.00
638.6440, 45834.00
639.8050, 46912.00
640.9670, 47020.93
642.1280, 48213.00
643.2890, 47157.00
644.4500, 46882.00
645.6100, 46803.00
646.7710, 47339.00
647.9310, 47418.00
649.0910, 47638.00
650.2510, 47880.00
651.4110, 48398.77
652.5700, 49320.00
653.7300, 49771.00
654.8890, 50767.00
656.0480, 51804.00
657.2070, 52797.00
658.3660, 54004.00
659.5250, 55710.00
660.6830, 57391.00
661.8410, 59066.00
662.9990, 61703.00
664.1570, 64549.00
665.3150, 67557.55
666.4730, 71641.00
667.6300, 75127.00
668.7870, 80563.00
669.9440, 85933.00
671.1010, 92387.00
672.2580, 100195.0
673.4140, 108650.0
674.5710, 118298.0
675.7270, 129091.0
676.8830, 140014.0
678.0390, 151219.0
679.1950, 161135.0
680.3500, 170262.0
681.5060, 177234.0
682.6610, 180987.0
683.8160, 182233.0
684.9710, 179536.0
686.1250, 174868.0
687.2800, 169811.0
688.4340, 159021.0
689.5880, 150723.0
690.7420, 139317.0
691.8960, 128469.0
693.0500, 118359.0
694.2030, 107746.0
695.3570, 97856.00
696.5100, 88841.00
697.6630, 80952.00
698.8160, 73408.00
699.9680, 66930.00
701.1210, 61272.00
702.2730, 56108.00
703.4250, 52334.00
704.5770, 49247.00
705.7290, 46123.00
706.8810, 44118.00
708.0320, 41924.00
709.1840, 40031.00
710.3350, 39272.00
711.4860, 38320.00
712.6370, 36873.00
713.7870, 36060.00
714.9380, 35842.00
716.0880, 34762.00
717.2380, 34354.00
718.3880, 33813.00
719.5380, 33400.00
720.6880, 32762.00
721.8370, 32652.00
722.9870, 31990.00
724.1360, 31715.00
725.2850, 31571.00
726.4340, 31210.00
727.5820, 31095.00
728.7310, 30887.00
729.8790, 30540.00
731.0270, 30391.00
732.1750, 30159.00
733.3230, 30308.00
734.4700, 30312.00
735.6180, 30205.00
736.7650, 30171.68
737.9120, 30011.12
739.0590, 29926.00
740.2060, 29717.00
741.3530, 29607.00
742.4990, 29594.00
743.6460, 29296.00
744.7920, 29538.00
745.9380, 29322.00
747.0830, 29099.00
748.2290, 28864.00
749.3750, 28673.00
750.5200, 28462.00
751.6650, 28615.00
752.8100, 28272.00
753.9550, 28335.06
755.0990, 28007.96
756.2440, 28340.00
757.3880, 27724.00
758.5320, 27731.00
759.6760, 27506.91
760.8200, 27080.00
761.9640, 27021.00
763.1070, 27083.00
764.2510, 26940.00
765.3940, 26830.00
766.5370, 27082.00
767.6790, 26857.00
768.8220, 27158.00
769.9650, 26965.00
771.1070, 27201.00
772.2490, 27330.00
773.3910, 27321.00
774.5330, 27285.00
775.6750, 27554.00
776.8160, 27921.00
777.9570, 27929.00
779.0980, 28390.00
780.2390, 28546.00
781.3800, 28776.00
782.5210, 29024.00
783.6610, 29018.00
784.8020, 29237.00
785.9420, 29062.00
787.0820, 28858.00
788.2220, 29030.00
789.3610, 28941.00
790.5010, 29025.00
791.6400, 29164.00
792.7790, 29124.00
793.9180, 29108.00
795.0570, 29253.00
796.1960, 29075.20
797.3340, 28888.00
798.4730, 28915.00
799.6110, 28622.16
800.7490, 28325.67
801.8870, 27847.00
803.0250, 27529.00
804.1620, 27288.00
805.2990, 26842.00
806.4370, 26850.00
807.5740, 26399.00
808.7110, 26235.00
809.8470, 25575.99
810.9840, 25973.39
812.1200, 26137.85
813.2560, 26081.78
814.3920, 25144.65
815.5280, 25345.23
816.6640, 25089.87
817.8000, 24815.81
818.9350, 25176.62
820.0700, 24367.76
821.2050, 24718.52
822.3400, 24606.37
823.4750, 24706.09
824.6100, 24347.05
825.7440, 24129.82
826.8780, 24371.49
828.0120, 24359.06
829.1460, 23857.00
830.2800, 23908.00
831.4140, 23523.00
832.5470, 23502.00
833.6800, 23482.00
834.8130, 23434.00
835.9460, 23303.00
837.0790, 23314.00
838.2120, 23365.00
839.3440, 23394.00
840.4760, 23520.00
841.6090, 23547.00
842.7410, 23444.00
843.8720, 23616.00
845.0040, 23248.00
846.1350, 23336.00
847.2670, 23491.00
848.3980, 23160.00
849.5290, 23279.00
850.6600, 23258.97
851.7900, 23095.00
852.9210, 23385.00
854.0510, 23057.00
855.1810, 23258.00
856.3110, 23337.00
857.4410, 23900.00
858.5710, 23407.00
859.7000, 23488.00
860.8300, 23269.00
861.9590, 23247.39
863.0880, 23170.00
864.2170, 23304.00
865.3460, 23188.00
866.4740, 23128.00
867.6030, 23216.00
868.7310, 22919.00
869.8590, 23167.00
870.9870, 23039.00
872.1140, 22966.00
873.2420, 22986.00
874.3690, 23088.00
875.4970, 22995.00
876.6240, 22855.00
877.7510, 23025.00
878.8770, 22892.00
880.0040, 23042.00
881.1310, 23212.00
882.2570, 23101.00
883.3830, 23469.00
884.5090, 23367.87
885.6350, 23474.88
886.7600, 23302.00
887.8860, 23585.00
889.0110, 23506.00
890.1360, 23528.00
891.2610, 23573.00
892.3860, 23514.00
893.5110, 23785.00
894.6350, 23765.00
895.7600, 23679.00
896.8840, 23639.00
898.0080, 23836.00
899.1320, 23860.00
900.2550, 23703.00
901.3790, 24119.00
902.5020, 23943.00
903.6260, 23963.00
904.7490, 23833.00
905.8720, 23927.00
906.9940, 23789.00
908.1170, 23774.00
909.2390, 23973.00
910.3620, 24099.00
911.4840, 24271.00
912.6060, 24110.00
913.7270, 24068.00
914.8490, 24486.00
915.9710, 24248.89
917.0920, 24242.00
918.2130, 24137.00
919.3340, 24076.00
920.4550, 24002.00
921.5750, 24099.00
922.6960, 24002.00
923.8160, 24108.57
924.9360, 24122.64
926.0560, 24300.00
927.1760, 24176.00
928.2960, 24265.00
929.4160, 24244.00
930.5350, 24190.00
931.6540, 24031.00
932.7730, 24135.00
933.8920, 24074.00
935.0110, 23968.00
936.1290, 24010.00
937.2480, 24024.00
938.3660, 24046.00
939.4840, 23934.00
940.6020, 24181.00
941.7200, 23826.00
942.8380, 23946.00
943.9550, 23755.00
945.0720, 24007.00
946.1900, 24012.00
947.3070, 24060.00
948.4230, 24081.00
949.5400, 24039.00
950.6570, 23947.00
951.7730, 24157.00
952.8890, 24039.00
954.0050, 24243.00
955.1210, 24557.00
956.2370, 24402.86
957.3520, 24344.00
958.4680, 24351.00
959.5830, 24522.00
960.6980, 24624.00
961.8130, 24727.53
962.9280, 24886.91
964.0420, 25021.00
965.1570, 25115.00
966.2710, 25356.00
967.3850, 25349.00
968.4990, 25626.00
969.6130, 25745.00
970.7270, 25633.00
971.8400, 26372.00
972.9540, 27023.00
974.0670, 26511.00
975.1800, 26524.00
976.2930, 26867.00
977.4050, 27257.00
978.5180, 27382.00
979.6300, 27468.00
980.7430, 27576.00
981.8550, 27870.78
982.9670, 28209.00
984.0780, 28521.00
985.1900, 28740.00
986.3010, 29094.37
987.4130, 29288.39
988.5240, 29906.00
989.6350, 29658.00
990.7460, 29938.00
991.8560, 30021.00
992.9670, 30559.09
994.0770, 31375.00
995.1870, 32061.00
996.2970, 33018.00
997.4070, 34123.00
998.5170, 35410.00
999.6270, 36627.00
1000.736, 37688.00
1001.845, 38959.00
1002.954, 39655.00
1004.063, 39662.00
1005.172, 38811.00
1006.281, 37476.00
1007.389, 36345.00
1008.497, 36016.00
1009.606, 35451.00
1010.714, 34899.00
1011.821, 34183.00
1012.929, 33787.00
1014.037, 33282.00
1015.144, 32823.00
1016.251, 32662.00
1017.358, 32272.00
1018.465, 32082.00
1019.572, 31451.00
1020.678, 31549.00
1021.785, 31418.00
1022.891, 31737.00
1023.997, 32477.00
1025.103, 33062.00
1026.209, 34081.00
1027.315, 35212.00
1028.420, 36598.00
1029.526, 38931.00
1030.631, 39816.00
1031.736, 41543.00
1032.841, 42469.00
1033.945, 43676.00
1035.050, 43753.00
1036.154, 43172.00
1037.259, 42688.00
1038.363, 40811.00
1039.467, 39528.00
1040.570, 37858.00
1041.674, 36821.00
1042.777, 35353.00
1043.881, 34535.00
1044.984, 33898.00
1046.087, 32917.00
1047.190, 33098.00
1048.292, 32033.00
1049.395, 31803.00
1050.497, 31762.00
1051.600, 31263.00
1052.702, 31102.00
1053.804, 31073.00
1054.905, 30903.35
1056.007, 30797.00
1057.108, 30904.00
1058.210, 30928.00
1059.311, 30972.00
1060.412, 31256.00
1061.513, 31136.00
1062.613, 31443.00
1063.714, 31346.00
1064.814, 31452.00
1065.914, 31855.00
1067.015, 31831.00
1068.114, 32059.00
1069.214, 32526.00
1070.314, 32809.00
1071.413, 33062.00
1072.512, 33256.00
1073.612, 34031.00
1074.711, 34407.00
1075.809, 34975.00
1076.908, 35464.00
1078.007, 35888.00
1079.105, 36317.00
1080.203, 36976.00
1081.301, 37783.00
1082.399, 38251.00
1083.497, 39047.00
1084.594, 39794.00
1085.692, 40419.00
1086.789, 40946.40
1087.886, 41437.20
1088.983, 41869.95
1090.080, 42192.00
1091.177, 42551.00
1092.273, 42841.00
1093.370, 43028.00
1094.466, 43468.00
1095.562, 43416.00
1096.658, 43392.15
1097.754, 43194.00
1098.849, 42988.00
1099.945, 43216.00
1101.040, 42955.00
1102.135, 42603.00
1103.230, 42010.00
1104.325, 41644.00
1105.419, 41129.00
1106.514, 39982.00
1107.608, 39385.00
1108.703, 38155.00
1109.797, 37100.00
1110.891, 36107.00
1111.984, 35191.00
1113.078, 34273.00
1114.171, 33626.00
1115.265, 32667.30
1116.358, 31648.00
1117.451, 30982.00
1118.544, 30014.00
1119.636, 29255.00
1120.729, 28845.00
1121.821, 28190.00
1122.913, 27790.00
1124.006, 27278.00
1125.097, 26949.00
1126.189, 26629.00
1127.281, 26362.00
1128.372, 26173.00
1129.464, 26057.00
1130.555, 26042.00
1131.646, 25616.00
1132.737, 25751.00
1133.827, 25883.00
1134.918, 25747.00
1136.008, 25508.00
1137.099, 25854.00
1138.189, 25832.00
1139.279, 25313.00
1140.368, 25170.00
1141.458, 25456.00
1142.548, 25200.86
1143.637, 25299.00
1144.726, 25188.00
1145.815, 25169.00
1146.904, 25069.00
1147.993, 25315.00
1149.081, 25224.00
1150.170, 25083.00
1151.258, 25432.00
1152.346, 25455.00
1153.434, 25415.00
1154.522, 25620.00
1155.610, 25615.00
1156.697, 25799.00
1157.784, 25701.00
1158.872, 25776.00
1159.959, 25611.00
1161.046, 25582.00
1162.132, 25441.00
1163.219, 25642.00
1164.305, 25823.00
1165.392, 25569.00
1166.478, 25364.00
1167.564, 25389.00
1168.650, 26211.00
1169.735, 25787.41
1170.821, 25940.70
1171.906, 25509.00
1172.992, 25798.00
1174.077, 25562.00
1175.162, 25718.00
1176.247, 25937.00
1177.331, 25912.00
1178.416, 25985.00
1179.500, 26065.00
1180.584, 26077.57
1181.668, 26219.00
1182.752, 26162.00
1183.836, 26239.00
1184.920, 26293.00
1186.003, 26223.00
1187.086, 26335.00
1188.169, 26343.00
1189.252, 26436.00
1190.335, 26356.00
1191.418, 26450.00
1192.500, 26676.00
1193.583, 26319.00
1194.665, 26459.00
1195.747, 26097.00
1196.829, 26322.00
1197.911, 26060.00
1198.993, 26324.00
1200.074, 26127.00
1201.155, 26128.00
1202.237, 26285.00
1203.318, 26202.00
1204.399, 26241.40
1205.479, 26113.00
1206.560, 26222.00
1207.640, 26051.00
1208.721, 26039.00
1209.801, 26217.00
1210.881, 26087.00
1211.961, 26003.00
1213.040, 26065.00
1214.120, 26154.00
1215.199, 26189.00
1216.279, 26329.00
1217.358, 26470.00
1218.437, 26361.00
1219.515, 26483.00
1220.594, 26348.00
1221.673, 26313.00
1222.751, 26708.00
1223.829, 26578.00
1224.907, 26793.00
1225.985, 26867.00
1227.063, 26913.00
1228.141, 27101.00
1229.218, 27012.00
1230.295, 26996.00
1231.372, 27244.00
1232.449, 27387.00
1233.526, 27163.00
1234.603, 27213.00
1235.680, 27251.00
1236.756, 27114.00
1237.832, 27019.00
1238.908, 27076.00
1239.984, 27055.00
1241.060, 27144.00
1242.136, 27137.00
1243.212, 27153.37
1244.287, 27002.00
1245.362, 27097.00
1246.437, 27065.00
1247.512, 26877.00
1248.587, 27016.00
1249.662, 26981.00
1250.736, 26872.00
1251.810, 27124.00
1252.885, 26896.00
1253.959, 27137.00
1255.033, 26793.00
1256.106, 27146.00
