##NAMES=Fluorapophyllite-(K)
##RRUFFID=R040095
##IDEAL CHEMISTRY=KCa_4_Si_8_O_20_F&#183;8H_2_O
##LOCALITY=unknown
##OWNER=RRUFF
##SOURCE=University of Arizona Mineral Museum
##DESCRIPTION=Colorless crystals
##STATUS=The identification of this mineral has been confirmed by X-ray diffraction and chemical analysis
##URL=rruff.info/R040095
##MEASURED CHEMISTRY=(K_0.90_Na_0.04_)Ca_3.96_Si_8.00_O_20_(F_0.82_(OH)_0.18_)Â·8H_2_O
##PIN_ID=L00450
##ORIENTATION=Laser parallel to -a* (-1 0 0). Fiducial mark perpendicular to laser is parallel to c [0 0 1]
79.42100, 18392.00
80.65400, 21112.00
81.88700, 24463.00
83.11900, 27908.00
84.35200, 31544.00
85.58400, 36165.00
86.81600, 41790.00
88.04900, 48543.00
89.28100, 55028.00
90.51200, 59495.00
91.74400, 60275.00
92.97600, 57254.00
94.20700, 51274.00
95.43800, 44493.00
96.66900, 39680.00
97.90100, 36213.00
99.13100, 35304.00
100.3620, 36097.00
101.5930, 38751.00
102.8230, 43960.00
104.0530, 53051.00
105.2840, 63179.00
106.5140, 69295.00
107.7440, 67911.00
108.9730, 59971.00
110.2030, 49772.00
111.4320, 40043.00
112.6620, 33365.00
113.8910, 28990.00
115.1200, 26444.00
116.3490, 24928.00
117.5780, 24687.00
118.8060, 25814.00
120.0350, 28746.00
121.2630, 31055.00
122.4920, 33283.00
123.7200, 34030.00
124.9480, 33678.00
126.1750, 32266.00
127.4030, 31063.00
128.6310, 31133.00
129.8580, 30811.00
131.0850, 30086.00
132.3120, 27934.00
133.5390, 24421.00
134.7660, 20987.00
135.9930, 18597.00
137.2200, 17010.00
138.4460, 15810.00
139.6720, 14914.00
140.8980, 14172.96
142.1240, 13908.00
143.3500, 13626.00
144.5760, 13790.00
145.8020, 14287.00
147.0270, 15146.00
148.2520, 16061.00
149.4780, 17556.00
150.7030, 19301.00
151.9270, 21562.00
153.1520, 24152.00
154.3770, 27910.00
155.6010, 31865.00
156.8260, 36899.00
158.0500, 43119.00
159.2740, 49021.00
160.4980, 53686.00
161.7210, 54002.00
162.9450, 50156.00
164.1690, 44209.00
165.3920, 38067.00
166.6150, 33457.00
167.8380, 30626.00
169.0610, 23994.00
170.2840, 20422.00
171.5070, 19054.00
172.7290, 18446.00
173.9510, 18892.00
175.1740, 20382.00
176.3960, 22316.00
177.6180, 25305.00
178.8390, 28932.00
180.0610, 34481.00
181.2830, 41227.00
182.5040, 48002.00
183.7250, 53816.00
184.9460, 56424.00
186.1670, 54691.00
187.3880, 50181.00
188.6090, 44629.00
189.8290, 39137.00
191.0500, 35088.00
192.2700, 32491.00
193.4900, 31218.00
194.7100, 31099.00
195.9300, 31999.00
197.1490, 34074.00
198.3690, 37171.00
199.5880, 41268.00
200.8080, 46456.00
202.0270, 53132.00
203.2460, 61563.00
204.4650, 70744.00
205.6830, 81531.00
206.9020, 91537.00
208.1200, 99776.00
209.3380, 103354.0
210.5570, 102122.0
211.7750, 96260.00
212.9920, 87736.00
214.2100, 79347.00
215.4280, 71835.00
216.6450, 66169.00
217.8620, 61018.00
219.0790, 57332.00
220.2960, 54232.00
221.5130, 53129.00
222.7300, 52553.00
223.9460, 52474.00
225.1630, 53231.00
226.3790, 52792.00
227.5950, 52017.00
228.8110, 49887.00
230.0270, 46971.00
231.2430, 42716.00
232.4580, 38630.00
233.6740, 34189.00
234.8890, 30336.00
236.1040, 26704.00
237.3190, 23640.00
238.5340, 21183.00
239.7490, 19022.00
240.9630, 17380.00
242.1780, 15875.00
243.3920, 14770.00
244.6060, 14074.00
245.8200, 13336.00
247.0340, 12680.00
248.2470, 12476.00
249.4610, 12214.00
250.6740, 12124.00
251.8880, 12179.00
253.1010, 12208.00
254.3140, 12431.00
255.5270, 12788.00
256.7390, 13299.00
257.9520, 14049.00
259.1640, 14828.00
260.3760, 15851.00
261.5880, 17103.00
262.8000, 18034.00
264.0120, 19335.00
265.2240, 19979.00
266.4350, 20371.00
267.6470, 19965.00
268.8580, 19375.00
270.0690, 18174.00
271.2800, 16958.00
272.4910, 16032.00
273.7020, 15010.00
274.9120, 14351.00
276.1230, 13902.00
277.3330, 13757.09
278.5430, 14082.00
279.7530, 14305.00
280.9630, 14648.00
282.1720, 15605.00
283.3820, 16304.00
284.5910, 17739.00
285.8000, 19004.00
287.0090, 20730.00
288.2180, 22919.00
289.4270, 25297.00
290.6360, 27872.00
291.8440, 30846.00
293.0530, 33708.00
294.2610, 36875.00
295.4690, 38567.00
296.6770, 39781.00
297.8850, 39442.00
299.0920, 37416.00
300.3000, 34944.00
301.5070, 31805.00
302.7140, 29171.00
303.9210, 26248.00
305.1280, 23138.00
306.3350, 21107.00
307.5420, 19622.00
308.7480, 18279.00
309.9540, 17227.00
311.1600, 16762.00
312.3660, 15942.00
313.5720, 15741.00
314.7780, 15601.00
315.9840, 15324.00
317.1890, 15342.00
318.3940, 15540.00
319.6000, 15585.00
320.8050, 15852.00
322.0090, 16386.00
323.2140, 16703.00
324.4190, 17224.00
325.6230, 17807.00
326.8270, 18400.00
328.0320, 19403.00
329.2360, 20170.00
330.4390, 21066.00
331.6430, 21879.00
332.8470, 22710.00
334.0500, 23544.00
335.2530, 23916.00
336.4560, 24075.00
337.6590, 23778.00
338.8620, 22605.00
340.0650, 21469.00
341.2670, 20066.00
342.4700, 18499.00
343.6720, 17034.00
344.8740, 15523.00
346.0760, 14459.00
347.2780, 12981.00
348.4790, 12160.00
349.6810, 11403.00
350.8820, 10786.00
352.0830, 10343.00
353.2840, 9947.000
354.4850, 9581.000
355.6860, 9283.000
356.8870, 9137.000
358.0870, 8964.000
359.2870, 8875.000
360.4880, 8872.000
361.6880, 8764.000
362.8870, 8678.000
364.0870, 8882.000
365.2870, 8902.000
366.4860, 9027.000
367.6850, 9334.000
368.8850, 9149.000
370.0840, 9173.000
371.2820, 9004.000
372.4810, 8808.000
373.6800, 8611.000
374.8780, 8398.000
376.0760, 8202.153
377.2740, 8010.000
378.4720, 7801.000
379.6700, 7702.000
380.8680, 7516.000
382.0650, 7498.956
383.2630, 7484.992
384.4600, 7488.000
385.6570, 7587.000
386.8540, 7576.000
388.0510, 7664.000
389.2470, 7792.000
390.4440, 7874.754
391.6400, 7988.000
392.8360, 8162.000
394.0320, 8287.000
395.2280, 8489.000
396.4240, 8561.000
397.6190, 8713.856
398.8150, 8949.000
400.0100, 8959.000
401.2050, 9088.000
402.4000, 9204.000
403.5950, 9196.000
404.7900, 9199.000
405.9840, 9195.000
407.1790, 9508.000
408.3730, 9406.000
409.5670, 9705.000
410.7610, 9831.000
411.9550, 10220.00
413.1480, 10766.00
414.3420, 11267.00
415.5350, 11888.00
416.7280, 12936.00
417.9220, 14074.00
419.1140, 15622.00
420.3070, 17637.00
421.5000, 20270.00
422.6920, 23212.00
423.8850, 27211.00
425.0770, 32192.00
426.2690, 38415.00
427.4610, 45934.00
428.6520, 54405.00
429.8440, 60864.00
431.0350, 62582.00
432.2260, 58934.00
433.4180, 50945.00
434.6090, 42171.00
435.7990, 34226.00
436.9900, 28024.00
438.1800, 23268.00
439.3710, 19639.00
440.5610, 17342.00
441.7510, 15421.00
442.9410, 14291.00
444.1310, 13554.00
445.3200, 12947.00
446.5100, 12508.00
447.6990, 12208.70
448.8880, 12036.39
450.0770, 12066.00
451.2660, 12169.00
452.4550, 12477.00
453.6430, 12988.00
454.8320, 13187.00
456.0200, 13796.00
457.2080, 14363.00
458.3960, 14924.00
459.5840, 15504.00
460.7720, 15786.00
461.9590, 15807.00
463.1460, 15655.00
464.3340, 15150.00
465.5210, 14585.00
466.7080, 13835.00
467.8940, 13142.00
469.0810, 12511.00
470.2670, 11883.00
471.4540, 11585.00
472.6400, 11103.00
473.8260, 10833.00
475.0120, 10757.00
476.1970, 10791.00
477.3830, 10930.00
478.5680, 11163.00
479.7540, 11601.00
480.9390, 11969.00
482.1240, 12413.00
483.3080, 12831.00
484.4930, 12784.00
485.6780, 12593.00
486.8620, 12481.00
488.0460, 11907.70
489.2300, 11802.00
490.4140, 10923.00
491.5980, 10473.00
492.7810, 10631.00
493.9650, 10148.00
495.1480, 10400.00
496.3310, 9968.000
497.5140, 9873.000
498.6970, 9910.000
499.8800, 9905.000
501.0620, 9756.000
502.2440, 9854.000
503.4270, 9678.000
504.6090, 9742.000
505.7910, 9636.000
506.9720, 9743.000
508.1540, 9850.000
509.3350, 9695.000
510.5170, 9970.000
511.6980, 9813.000
512.8790, 9913.000
514.0600, 9959.000
515.2400, 10181.00
516.4210, 10259.00
517.6010, 10666.00
518.7810, 10646.00
519.9620, 10997.00
521.1410, 11138.00
522.3210, 11583.00
523.5010, 12009.00
524.6800, 12283.00
525.8600, 12727.00
527.0390, 13288.00
528.2180, 13681.00
529.3970, 14302.00
530.5750, 14894.00
531.7540, 15356.00
532.9320, 15946.00
534.1110, 16582.00
535.2890, 17112.00
536.4670, 17340.00
537.6440, 17484.00
538.8220, 17345.00
540.0000, 17566.00
541.1770, 17487.00
542.3540, 17143.00
543.5310, 16971.00
544.7080, 16710.00
545.8850, 16480.00
547.0610, 16443.00
548.2380, 16177.00
549.4140, 16063.00
550.5900, 15961.00
551.7660, 16198.00
552.9420, 16355.00
554.1170, 16312.00
555.2930, 16728.00
556.4680, 16794.00
557.6430, 17110.00
558.8180, 17485.00
559.9930, 17811.00
561.1680, 18597.00
562.3430, 19278.00
563.5170, 20132.00
564.6910, 20967.00
565.8650, 21912.00
567.0390, 23182.00
568.2130, 24530.00
569.3870, 26394.00
570.5600, 28234.00
571.7340, 30514.00
572.9070, 33129.00
574.0800, 35775.00
575.2530, 38724.00
576.4250, 42065.00
577.5980, 45470.00
578.7700, 48470.00
579.9430, 51168.00
581.1150, 53325.00
582.2870, 54414.00
583.4590, 54407.10
584.6300, 53947.00
585.8020, 51777.00
586.9730, 48737.00
588.1440, 45273.00
589.3150, 42003.00
590.4860, 38339.00
591.6570, 34894.00
592.8270, 31861.00
593.9980, 29303.00
595.1680, 26822.00
596.3380, 24804.00
597.5080, 23053.00
598.6780, 21686.00
599.8480, 20583.00
601.0170, 19576.00
602.1860, 18647.00
603.3550, 17957.00
604.5240, 17298.95
605.6930, 16873.00
606.8620, 16429.00
608.0310, 16034.00
609.1990, 15927.00
610.3670, 15859.00
611.5350, 15591.00
612.7030, 15507.00
613.8710, 15587.00
615.0390, 15627.00
616.2060, 15590.00
617.3730, 15789.00
618.5410, 15915.00
619.7080, 16028.00
620.8740, 16252.00
622.0410, 16399.00
623.2080, 16672.00
624.3740, 16886.00
625.5400, 16937.00
626.7060, 17114.00
627.8720, 17066.00
629.0380, 17078.00
630.2040, 17468.00
631.3690, 17501.00
632.5340, 17772.00
633.6990, 17913.00
634.8640, 18087.00
636.0290, 18512.00
637.1940, 18583.00
638.3580, 19076.00
639.5230, 19495.00
640.6870, 20198.00
641.8510, 20658.00
643.0150, 21397.00
644.1790, 22157.00
645.3420, 23034.00
646.5060, 24266.00
647.6690, 25205.00
648.8320, 26295.00
649.9950, 27753.00
651.1580, 28855.00
652.3200, 30387.00
653.4830, 32229.00
654.6450, 33522.00
655.8070, 34859.00
656.9690, 36475.00
658.1310, 37880.00
659.2930, 38782.00
660.4540, 39645.00
661.6160, 39948.00
662.7770, 39845.41
663.9380, 39447.93
665.0990, 38575.00
666.2600, 37345.00
667.4200, 35829.00
668.5810, 33740.00
669.7410, 32004.00
670.9010, 29747.00
672.0610, 27882.00
673.2210, 26067.00
674.3810, 24175.00
675.5400, 22668.00
676.6990, 21145.00
677.8590, 19840.00
679.0180, 18659.00
680.1760, 17454.00
681.3350, 16516.00
682.4940, 15784.00
683.6520, 14966.00
684.8100, 14436.00
685.9680, 13803.00
687.1260, 13351.00
688.2840, 12968.00
689.4420, 12382.00
690.5990, 12148.00
691.7560, 11663.00
692.9140, 11301.00
694.0710, 10963.00
695.2270, 10819.00
696.3840, 10522.41
697.5410, 10493.00
698.6970, 10143.00
699.8530, 10123.00
701.0090, 10043.00
702.1650, 9935.000
703.3210, 9513.000
704.4760, 9582.000
705.6320, 9382.000
706.7870, 9500.000
707.9420, 9400.000
709.0970, 9287.000
710.2520, 9070.000
711.4060, 9076.000
712.5610, 9157.000
713.7150, 9053.000
714.8690, 8988.000
716.0230, 8995.000
717.1770, 8982.000
718.3310, 8907.000
719.4840, 8843.000
720.6380, 8743.000
721.7910, 8802.000
722.9440, 8762.000
724.0970, 8762.000
725.2490, 8684.000
726.4020, 8662.000
727.5540, 8531.000
728.7070, 8752.000
729.8590, 8732.000
731.0110, 8650.391
732.1620, 8617.000
733.3140, 8571.000
734.4650, 8539.847
735.6170, 8515.135
736.7680, 8503.000
737.9190, 8507.000
739.0700, 8495.000
740.2200, 8505.733
741.3710, 8540.090
742.5210, 8546.000
743.6710, 8604.000
744.8210, 8667.000
745.9710, 8730.940
747.1210, 8843.000
748.2700, 8914.000
749.4200, 8996.000
750.5690, 9120.000
751.7180, 9319.000
752.8670, 9495.000
754.0160, 9648.000
755.1640, 9957.000
756.3130, 10261.00
757.4610, 10585.00
758.6090, 11048.00
759.7570, 11390.00
760.9050, 11700.00
762.0530, 12319.00
763.2000, 12522.00
764.3470, 12837.00
765.4940, 12941.00
766.6410, 12814.00
767.7880, 12567.00
768.9350, 12280.00
770.0810, 11904.00
771.2280, 12280.00
772.3740, 11804.85
773.5200, 11487.10
774.6660, 11380.00
775.8120, 10741.00
776.9570, 10609.00
778.1030, 10679.00
779.2480, 10658.00
780.3930, 10677.00
781.5380, 11104.00
782.6830, 11324.00
783.8270, 11748.00
784.9720, 12324.00
786.1160, 13012.00
787.2600, 13597.00
788.4040, 14106.00
789.5480, 14717.00
790.6910, 14879.00
791.8350, 14681.00
792.9780, 14322.00
794.1210, 13777.00
795.2640, 13065.00
796.4070, 12311.00
797.5500, 11826.00
798.6920, 11259.00
799.8350, 10824.00
800.9770, 10477.00
802.1190, 10351.00
803.2610, 10161.00
804.4030, 9998.000
805.5440, 9945.000
806.6850, 9824.000
807.8270, 9744.000
808.9680, 9691.000
810.1090, 9722.303
811.2490, 9879.000
812.3900, 9859.000
813.5300, 9936.000
814.6710, 10002.00
815.8110, 10025.00
816.9510, 10151.00
818.0910, 10124.00
819.2300, 10359.00
820.3700, 10305.00
821.5090, 10412.00
822.6480, 10509.00
823.7870, 10660.00
824.9260, 10677.00
826.0640, 11059.00
827.2030, 11087.00
828.3410, 11192.00
829.4790, 11458.00
830.6170, 11342.00
831.7550, 11550.00
832.8930, 11713.00
834.0310, 11485.00
835.1680, 11594.00
836.3050, 11773.00
837.4420, 11542.00
838.5790, 11711.00
839.7160, 11603.00
840.8520, 11497.00
841.9890, 11558.00
843.1250, 11368.00
844.2610, 11329.00
845.3970, 11160.00
846.5330, 11119.00
847.6680, 10964.00
848.8040, 10837.00
849.9390, 10676.00
851.0740, 10839.00
852.2090, 10670.00
853.3440, 10613.00
854.4780, 10553.00
855.6130, 10502.00
856.7470, 10417.00
857.8810, 10417.00
859.0150, 10140.00
860.1490, 10175.00
861.2830, 10189.00
862.4160, 9903.000
863.5490, 9848.000
864.6830, 9731.000
865.8160, 9775.000
866.9480, 9812.000
868.0810, 9696.000
869.2140, 9567.000
870.3460, 9443.000
871.4780, 9455.000
872.6100, 9410.000
873.7420, 9389.000
874.8740, 9378.000
876.0050, 9287.000
877.1370, 9244.000
878.2680, 9266.000
879.3990, 9271.000
880.5300, 9371.000
881.6600, 9208.000
882.7910, 9310.000
883.9210, 9137.000
885.0520, 9154.000
886.1820, 9214.000
887.3120, 9155.000
888.4410, 9168.000
889.5710, 9104.000
890.7000, 9221.000
891.8300, 9167.000
892.9590, 9372.000
894.0880, 9208.000
895.2160, 9133.000
896.3450, 9039.000
897.4730, 9228.000
898.6020, 9118.000
899.7300, 9172.000
900.8580, 9236.000
901.9860, 9178.000
903.1130, 9117.000
904.2410, 9036.000
905.3680, 8999.000
906.4950, 9043.000
907.6220, 9064.000
908.7490, 9120.000
909.8760, 9018.000
911.0020, 8903.000
912.1280, 9036.000
913.2550, 9030.000
914.3810, 8991.000
915.5060, 9031.930
916.6320, 8912.000
917.7580, 9004.000
918.8830, 8895.000
920.0080, 8863.000
921.1330, 8930.000
922.2580, 8979.000
923.3830, 8962.000
924.5070, 8948.000
925.6310, 8961.000
926.7560, 8974.000
927.8800, 8937.000
929.0040, 8949.000
930.1270, 8962.000
931.2510, 8954.107
932.3740, 8964.801
933.4970, 8998.000
934.6200, 8981.000
935.7430, 9068.000
936.8660, 9105.000
937.9890, 9104.706
939.1110, 9094.000
940.2330, 9130.000
941.3550, 9145.000
942.4770, 9192.000
943.5990, 9075.000
944.7200, 9276.000
945.8420, 9202.000
946.9630, 9333.000
948.0840, 9238.000
949.2050, 9435.000
950.3260, 9420.000
951.4460, 9453.000
952.5670, 9560.000
953.6870, 9566.000
954.8070, 9611.000
955.9270, 9654.702
957.0470, 9675.000
958.1660, 9726.000
959.2860, 9787.000
960.4050, 9852.760
961.5240, 9943.354
962.6430, 9945.000
963.7620, 10156.00
964.8810, 10317.00
965.9990, 10458.00
967.1170, 10830.00
968.2350, 10935.00
969.3530, 11339.00
970.4710, 11548.00
971.5890, 11380.00
972.7060, 11071.00
973.8240, 10640.00
974.9410, 10349.00
976.0580, 10160.00
977.1740, 10030.00
978.2910, 9956.000
979.4080, 9927.000
980.5240, 9854.481
981.6400, 9748.000
982.7560, 9783.000
983.8720, 9809.000
984.9870, 9784.000
986.1030, 9935.000
987.2180, 9891.000
988.3330, 10082.00
989.4480, 10187.00
990.5630, 10211.00
991.6780, 10288.00
992.7920, 10420.00
993.9070, 10683.00
995.0210, 10976.00
996.1350, 11146.00
997.2490, 11627.00
998.3620, 11884.00
999.4760, 12518.00
1000.589, 13041.00
1001.702, 13631.00
1002.815, 14459.00
1003.928, 14801.00
1005.041, 15420.00
1006.153, 15750.00
1007.266, 15795.00
1008.378, 15540.00
1009.490, 14994.00
1010.602, 14243.00
1011.713, 13559.00
1012.825, 12885.00
1013.936, 12281.00
1015.047, 11879.00
1016.158, 11480.00
1017.269, 11270.00
1018.380, 11094.00
1019.490, 10977.80
1020.601, 11036.00
1021.711, 10979.00
1022.821, 11066.00
1023.931, 11202.00
1025.040, 11286.38
1026.150, 11380.00
1027.259, 11598.00
1028.368, 11702.00
1029.477, 11878.00
1030.586, 12347.00
1031.695, 12451.00
1032.803, 12940.00
1033.912, 13199.00
1035.020, 13752.00
1036.128, 14320.00
1037.236, 14684.00
1038.343, 15063.00
1039.451, 15673.70
1040.558, 16734.07
1041.665, 17739.66
1042.772, 18693.21
1043.879, 19439.36
1044.986, 20990.00
1046.093, 22699.00
1047.199, 25142.00
1048.305, 27819.00
1049.411, 31696.00
1050.517, 35729.00
1051.623, 41126.00
1052.728, 47206.00
1053.833, 54602.00
1054.939, 63773.00
1056.044, 73049.00
1057.148, 82522.00
1058.253, 90373.00
1059.358, 94924.00
1060.462, 93622.00
1061.566, 87943.00
1062.670, 78543.00
1063.774, 67808.00
1064.878, 58065.00
1065.981, 49219.00
1067.085, 41306.00
1068.188, 35439.00
1069.291, 30701.00
1070.394, 26826.00
1071.496, 23507.00
1072.599, 20955.00
1073.701, 19013.00
1074.803, 17394.00
1075.905, 16109.00
1077.007, 15138.00
1078.109, 14434.00
1079.210, 13799.00
1080.312, 13218.00
1081.413, 12684.00
1082.514, 12574.00
1083.615, 12314.00
1084.715, 12145.00
1085.816, 11924.00
1086.916, 12003.00
1088.016, 11764.00
1089.116, 11636.69
1090.216, 11415.00
1091.316, 11273.00
1092.415, 10923.00
1093.515, 10680.00
1094.614, 10442.00
1095.713, 10284.00
1096.812, 10165.00
1097.910, 9894.000
1099.009, 9972.000
1100.107, 9805.000
1101.205, 9777.000
1102.303, 10030.00
1103.401, 10089.00
1104.499, 9712.000
1105.596, 9645.000
1106.693, 9804.000
1107.791, 10020.00
1108.888, 10016.40
1109.984, 10207.96
1111.081, 10203.00
1112.177, 10424.00
1113.274, 10620.00
1114.370, 10656.00
1115.466, 10673.00
1116.562, 10555.00
1117.657, 10234.00
1118.753, 9795.000
1119.848, 9806.000
1120.943, 9458.000
1122.038, 9382.000
1123.133, 9149.000
1124.228, 9120.000
1125.322, 9057.000
1126.416, 9040.000
1127.510, 8953.000
1128.604, 9002.000
1129.698, 8923.119
1130.792, 8809.000
1131.885, 8864.000
1132.978, 8760.000
1134.071, 8817.162
1135.164, 8836.000
1136.257, 8770.000
1137.350, 8738.000
1138.442, 8710.000
1139.534, 8655.000
1140.627, 8629.285
1141.718, 8684.000
1142.810, 8609.000
1143.902, 8535.000
1144.993, 8624.000
1146.084, 8693.000
1147.176, 8572.000
1148.266, 8556.000
1149.357, 8554.000
1150.448, 8562.000
1151.538, 8825.000
1152.628, 8712.000
1153.718, 8595.000
1154.808, 8788.000
1155.898, 8665.000
1156.988, 8500.000
1158.077, 8693.000
1159.166, 8735.000
1160.255, 8562.000
1161.344, 8784.000
1162.433, 8688.000
1163.521, 8692.264
1164.610, 8720.010
1165.698, 8673.000
1166.786, 8688.000
1167.874, 8679.000
1168.961, 8705.000
1170.049, 8674.000
1171.136, 8678.266
1172.224, 8793.000
1173.311, 8690.000
1174.397, 8743.000
1175.484, 8813.000
1176.571, 8746.000
1177.657, 8792.000
1178.743, 8735.000
1179.829, 8689.000
1180.915, 8777.000
1182.001, 8831.000
1183.086, 8685.000
1184.171, 8880.000
1185.256, 8729.000
1186.341, 8743.000
1187.426, 8626.000
1188.511, 8667.000
1189.595, 8888.000
1190.680, 8829.000
1191.764, 8776.000
1192.848, 8788.823
1193.932, 8754.971
1195.015, 8676.000
1196.099, 8745.000
1197.182, 8755.000
1198.265, 8751.644
1199.348, 8821.000
1200.431, 8749.000
1201.513, 8805.000
1202.596, 8845.000
1203.678, 8707.000
1204.760, 8745.000
1205.842, 8728.000
1206.924, 8736.000
1208.005, 8931.000
1209.087, 8807.000
1210.168, 8746.000
1211.249, 8881.000
1212.330, 8808.000
1213.411, 8796.000
1214.491, 8842.000
1215.572, 8793.000
1216.652, 8873.000
1217.732, 8921.000
1218.812, 8790.000
1219.891, 8946.000
1220.971, 8899.000
1222.050, 8870.000
1223.129, 8854.000
1224.208, 8864.000
1225.287, 8858.000
1226.366, 8932.000
1227.444, 9034.000
1228.523, 8904.000
1229.601, 9004.000
1230.679, 9072.000
1231.757, 8928.000
1232.834, 8890.000
1233.912, 8964.000
1234.989, 9059.000
1236.066, 9064.000
1237.143, 9007.000
1238.220, 9097.000
1239.297, 9028.000
1240.373, 9010.000
1241.449, 9056.000
1242.526, 9039.000
1243.601, 9044.838
1244.677, 9006.000
1245.753, 9044.000
1246.828, 9090.000
1247.904, 9097.000
1248.979, 9055.000
1250.054, 9167.000
1251.128, 9020.000
1252.203, 9143.000
1253.277, 9041.000
1254.351, 9022.000
1255.426, 8982.000
1256.499, 8965.000
1257.573, 8983.000
1258.647, 9012.000
1259.720, 9014.000
1260.793, 9102.000
