##NAMES=Fluorapatite
##RRUFFID=R060070
##IDEAL CHEMISTRY=Ca_5_(PO_4_)_3_F
##LOCALITY=Panasqueira, Portugal
##OWNER=RRUFF
##SOURCE=Dave Bunk
##DESCRIPTION=Green hexagonal tablet
##STATUS=The identification of this mineral has been confirmed by X-ray diffraction and chemical analysis
##URL=rruff.info/R060070
##MEASURED CHEMISTRY=(Ca_0.99_Mn_0.01_)_5_(P_1.00_O_4_)_3_F_1.00_
##PIN_ID=L01695
##ORIENTATION=Laser parallel to -a* (-1 0 0). Fiducial mark perpendicular to laser is parallel to -c [0 0 -1]
127.9790, 4943.000
129.2090, 4970.000
130.4390, 4987.000
131.6680, 5037.000
132.8980, 5055.000
134.1270, 5078.000
135.3560, 5179.000
136.5850, 5197.000
137.8140, 5094.000
139.0430, 5282.000
140.2710, 5260.000
141.5000, 5382.000
142.7280, 5274.000
143.9560, 5361.000
145.1840, 5358.000
146.4120, 5393.000
147.6390, 5356.000
148.8670, 5412.000
150.0940, 5481.000
151.3210, 5599.000
152.5490, 5476.000
153.7750, 5563.000
155.0020, 5555.000
156.2290, 5572.000
157.4550, 5601.000
158.6810, 5602.000
159.9080, 5637.426
161.1340, 5727.000
162.3590, 5682.000
163.5850, 5691.000
164.8110, 5679.000
166.0360, 5833.000
167.2610, 5725.000
168.4860, 5743.000
169.7110, 5887.000
170.9360, 5873.000
172.1610, 5858.000
173.3850, 5800.000
174.6100, 5934.000
175.8340, 5928.000
177.0580, 5936.000
178.2820, 5999.000
179.5050, 5934.000
180.7290, 6040.000
181.9520, 6057.000
183.1760, 6012.000
184.3990, 6155.000
185.6220, 6076.000
186.8450, 6164.000
188.0670, 6155.000
189.2900, 6214.000
190.5120, 6172.000
191.7340, 6242.000
192.9560, 6244.000
194.1780, 6268.000
195.4000, 6354.000
196.6220, 6346.000
197.8430, 6333.000
199.0640, 6350.000
200.2860, 6371.000
201.5070, 6415.000
202.7270, 6406.000
203.9480, 6423.000
205.1690, 6466.000
206.3890, 6448.000
207.6090, 6495.000
208.8290, 6459.000
210.0490, 6460.000
211.2690, 6540.000
212.4890, 6531.460
213.7080, 6608.000
214.9280, 6598.000
216.1470, 6648.000
217.3660, 6689.000
218.5850, 6726.000
219.8030, 6829.000
221.0220, 6717.000
222.2400, 6729.000
223.4590, 6875.000
224.6770, 6825.000
225.8950, 6884.083
227.1120, 6773.000
228.3300, 6907.000
229.5480, 6940.000
230.7650, 6915.000
231.9820, 7040.000
233.1990, 7047.000
234.4160, 7049.000
235.6330, 6954.000
236.8490, 6970.000
238.0660, 7059.000
239.2820, 7145.000
240.4980, 7155.000
241.7140, 7098.000
242.9300, 7256.000
244.1460, 7159.000
245.3610, 7153.000
246.5770, 7273.000
247.7920, 7331.000
249.0070, 7342.000
250.2220, 7320.000
251.4370, 7316.000
252.6510, 7369.000
253.8660, 7356.127
255.0800, 7360.000
256.2940, 7374.000
257.5080, 7374.000
258.7220, 7364.000
259.9360, 7496.000
261.1490, 7453.000
262.3630, 7531.000
263.5760, 7701.000
264.7890, 7591.000
266.0020, 7700.000
267.2150, 7802.000
268.4270, 7685.000
269.6400, 7640.000
270.8520, 7681.000
272.0640, 7742.000
273.2760, 7806.000
274.4880, 7773.000
275.7000, 7892.000
276.9120, 7931.000
278.1230, 7928.000
279.3340, 7830.000
280.5450, 8002.000
281.7560, 7918.000
282.9670, 7908.000
284.1780, 8209.000
285.3880, 8083.000
286.5980, 8066.000
287.8090, 8063.000
289.0190, 8247.000
290.2290, 8118.000
291.4380, 8204.000
292.6480, 8261.000
293.8570, 8263.000
295.0670, 8316.000
296.2760, 8229.000
297.4850, 8295.000
298.6930, 8309.000
299.9020, 8346.000
301.1110, 8413.000
302.3190, 8372.000
303.5270, 8482.000
304.7350, 8447.000
305.9430, 8419.000
307.1510, 8457.000
308.3580, 8582.000
309.5660, 8595.000
310.7730, 8611.000
311.9800, 8675.000
313.1870, 8664.707
314.3940, 8691.000
315.6010, 8659.000
316.8070, 8701.000
318.0130, 8667.000
319.2200, 8723.000
320.4260, 8750.000
321.6310, 8840.000
322.8370, 8844.553
324.0430, 8855.000
325.2480, 8897.000
326.4540, 8868.000
327.6590, 8937.000
328.8640, 8992.000
330.0680, 9099.000
331.2730, 9114.000
332.4780, 9085.000
333.6820, 8976.000
334.8860, 9166.000
336.0900, 9147.000
337.2940, 9076.000
338.4980, 9232.000
339.7010, 9367.000
340.9050, 9272.000
342.1080, 9347.000
343.3110, 9333.000
344.5140, 9333.000
345.7170, 9301.000
346.9200, 9466.000
348.1220, 9452.000
349.3240, 9469.000
350.5270, 9655.000
351.7290, 9507.000
352.9310, 9603.000
354.1320, 9583.000
355.3340, 9605.000
356.5350, 9713.000
357.7370, 9705.000
358.9380, 9816.000
360.1390, 9682.000
361.3400, 9759.000
362.5400, 9804.000
363.7410, 9847.000
364.9410, 9887.712
366.1410, 9936.000
367.3410, 9926.000
368.5410, 10003.00
369.7410, 9985.000
370.9400, 9949.000
372.1400, 10005.00
373.3390, 10037.00
374.5380, 10160.00
375.7370, 10187.00
376.9360, 10032.00
378.1350, 10111.00
379.3330, 10308.00
380.5310, 10163.00
381.7300, 10207.00
382.9280, 10263.00
384.1260, 10291.00
385.3230, 10342.84
386.5210, 10342.00
387.7180, 10428.00
388.9160, 10516.00
390.1130, 10552.00
391.3100, 10441.00
392.5060, 10515.00
393.7030, 10505.00
394.9000, 10537.00
396.0960, 10703.00
397.2920, 10701.00
398.4880, 10653.00
399.6840, 10852.00
400.8800, 10696.00
402.0750, 10789.00
403.2710, 10817.00
404.4660, 10811.00
405.6610, 10785.00
406.8560, 10882.00
408.0510, 10938.00
409.2450, 11094.00
410.4400, 11043.00
411.6340, 11021.00
412.8280, 11018.00
414.0220, 11259.00
415.2160, 11305.00
416.4100, 11220.00
417.6030, 11151.00
418.7970, 11285.00
419.9900, 11210.00
421.1830, 11454.00
422.3760, 11552.00
423.5690, 11545.00
424.7610, 11573.00
425.9540, 11551.00
427.1460, 11719.00
428.3380, 11745.00
429.5300, 11721.00
430.7220, 11799.00
431.9140, 11807.00
433.1050, 11792.00
434.2970, 11836.29
435.4880, 11811.00
436.6790, 11870.00
437.8700, 11851.00
439.0610, 11864.00
440.2510, 11993.00
441.4420, 11963.00
442.6320, 12014.00
443.8220, 12129.00
445.0120, 12120.00
446.2020, 12158.00
447.3910, 12107.00
448.5810, 12126.00
449.7700, 12158.00
450.9600, 12195.74
452.1490, 12384.00
453.3370, 12335.00
454.5260, 12362.00
455.7150, 12434.00
456.9030, 12382.00
458.0910, 12462.00
459.2800, 12436.00
460.4670, 12523.00
461.6550, 12580.00
462.8430, 12561.00
464.0300, 12671.00
465.2180, 12651.00
466.4050, 12595.00
467.5920, 12720.00
468.7790, 12795.00
469.9650, 12847.00
471.1520, 12947.00
472.3380, 12674.00
473.5250, 12823.00
474.7110, 12820.00
475.8970, 13008.00
477.0820, 13031.00
478.2680, 13102.00
479.4540, 13062.00
480.6390, 13152.00
481.8240, 12989.00
483.0090, 13107.00
484.1940, 13183.00
485.3780, 13144.00
486.5630, 13263.00
487.7470, 13458.00
488.9320, 13337.00
490.1160, 13325.00
491.3000, 13498.00
492.4830, 13410.00
493.6670, 13440.00
494.8500, 13615.00
496.0340, 13649.00
497.2170, 13567.00
498.4000, 13731.00
499.5820, 13740.00
500.7650, 13700.00
501.9480, 13669.00
503.1300, 13840.00
504.3120, 13884.00
505.4940, 13989.00
506.6760, 13812.00
507.8580, 13920.00
509.0390, 13917.00
510.2210, 14050.00
511.4020, 13981.00
512.5830, 14079.00
513.7640, 13969.00
514.9450, 14095.00
516.1250, 14287.00
517.3060, 14353.00
518.4860, 14491.00
519.6660, 14298.00
520.8460, 14329.00
522.0260, 14466.00
523.2060, 14341.00
524.3850, 14653.00
525.5650, 14505.00
526.7440, 14556.00
527.9230, 14695.00
529.1020, 14749.00
530.2810, 14742.00
531.4590, 14831.02
532.6380, 14747.00
533.8160, 14870.00
534.9940, 14928.00
536.1720, 14850.00
537.3500, 14867.00
538.5270, 14923.00
539.7050, 15016.00
540.8820, 15045.00
542.0590, 15242.00
543.2360, 15150.00
544.4130, 15157.00
545.5900, 15309.00
546.7660, 15142.00
547.9430, 15244.00
549.1190, 15340.00
550.2950, 15372.00
551.4710, 15348.00
552.6470, 15524.00
553.8220, 15511.00
554.9980, 15702.00
556.1730, 15701.00
557.3480, 15681.00
558.5230, 15787.00
559.6980, 15800.00
560.8730, 15747.00
562.0470, 15830.00
563.2220, 15925.00
564.3960, 15923.00
565.5700, 16002.00
566.7440, 16000.00
567.9170, 15997.00
569.0910, 16119.00
570.2640, 16131.00
571.4380, 16176.71
572.6110, 16372.00
573.7840, 16242.00
574.9570, 16245.00
576.1290, 16256.00
577.3020, 16464.00
578.4740, 16564.00
579.6460, 16545.00
580.8180, 16585.00
581.9900, 16689.00
583.1620, 16482.00
584.3330, 16690.00
585.5040, 16661.00
586.6760, 16881.00
587.8470, 16845.00
589.0180, 17033.00
590.1880, 16970.00
591.3590, 17021.00
592.5290, 16966.00
593.7000, 16969.00
594.8700, 17192.00
596.0400, 17210.00
597.2090, 17189.00
598.3790, 17160.00
599.5490, 17141.00
600.7180, 17250.00
601.8870, 17360.00
603.0560, 17221.00
604.2250, 17427.00
605.3940, 17531.00
606.5620, 17474.00
607.7300, 17529.00
608.8990, 17579.00
610.0670, 17517.00
611.2350, 17622.99
612.4020, 17644.65
613.5700, 17767.00
614.7370, 17793.00
615.9050, 17870.00
617.0720, 18019.00
618.2390, 18089.00
619.4060, 17925.00
620.5720, 17906.00
621.7390, 18076.00
622.9050, 18072.00
624.0710, 18130.00
625.2370, 18080.00
626.4030, 18224.00
627.5690, 18195.00
628.7340, 18290.00
629.9000, 18370.00
631.0650, 18317.00
632.2300, 18458.00
633.3950, 18426.00
634.5600, 18477.58
635.7240, 18479.00
636.8890, 18575.00
638.0530, 18686.00
639.2170, 18774.00
640.3810, 18750.00
641.5450, 18799.00
642.7080, 18937.00
643.8720, 18909.00
645.0350, 19015.00
646.1980, 19022.00
647.3610, 19096.00
648.5240, 19183.00
649.6870, 19176.00
650.8490, 19208.00
652.0120, 19388.00
653.1740, 19253.00
654.3360, 19460.00
655.4980, 19351.00
656.6600, 19332.00
657.8210, 19651.00
658.9830, 19670.00
660.1440, 19617.00
661.3050, 19654.00
662.4660, 19608.00
663.6270, 19781.00
664.7870, 19862.00
665.9480, 19684.00
667.1080, 19835.00
668.2680, 20018.00
669.4280, 19975.00
670.5880, 20086.00
671.7480, 20129.00
672.9070, 20166.00
674.0670, 20260.00
675.2260, 20370.00
676.3850, 20145.00
677.5440, 20155.00
678.7030, 20217.00
679.8610, 20482.00
681.0200, 20527.00
682.1780, 20659.00
683.3360, 20409.00
684.4940, 20509.00
685.6520, 20601.00
686.8090, 20612.00
687.9670, 20693.79
689.1240, 20677.00
690.2810, 20765.00
691.4380, 20907.00
692.5950, 20898.00
693.7520, 21014.00
694.9080, 21133.00
696.0650, 21186.00
697.2210, 21210.00
698.3770, 21242.00
699.5330, 21217.00
700.6880, 21321.00
701.8440, 21433.00
702.9990, 21405.00
704.1550, 21445.00
705.3100, 21523.54
706.4650, 21578.00
707.6190, 21642.00
708.7740, 21632.00
709.9290, 21636.00
711.0830, 21787.00
712.2370, 21965.00
713.3910, 21851.00
714.5450, 21927.00
715.6980, 22006.00
716.8520, 21955.00
718.0050, 21985.00
719.1580, 22098.00
720.3110, 22299.00
721.4640, 22215.00
722.6170, 22407.00
723.7700, 22338.00
724.9220, 22414.00
726.0740, 22400.00
727.2260, 22466.00
728.3780, 22447.00
729.5300, 22474.00
730.6810, 22539.51
731.8330, 22732.00
732.9840, 22676.00
734.1350, 22758.00
735.2860, 22842.00
736.4370, 22848.00
737.5880, 22961.00
738.7380, 23036.00
739.8880, 23023.00
741.0390, 23155.00
742.1890, 23181.00
743.3380, 23366.00
744.4880, 23375.00
745.6380, 23575.00
746.7870, 23485.00
747.9360, 23483.00
749.0850, 23534.00
750.2340, 23514.78
751.3830, 23411.00
752.5310, 23641.00
753.6800, 23593.00
754.8280, 23802.00
755.9760, 23683.00
757.1240, 23740.00
758.2720, 23773.00
759.4190, 23821.00
760.5670, 23997.00
761.7140, 24020.00
762.8610, 23930.00
764.0080, 24163.00
765.1550, 24117.00
766.3020, 24343.00
767.4480, 24497.00
768.5950, 24179.00
769.7410, 24349.00
770.8870, 24308.00
772.0330, 24604.00
773.1780, 24707.00
774.3240, 24811.21
775.4690, 24912.18
776.6140, 24971.00
777.7590, 25004.00
778.9040, 24901.00
780.0490, 24974.00
781.1940, 24978.00
782.3380, 25084.00
783.4820, 25262.00
784.6260, 25222.00
785.7700, 25133.00
786.9140, 25355.00
788.0580, 25339.00
789.2010, 25462.00
790.3450, 25287.00
791.4880, 25465.00
792.6310, 25416.00
793.7730, 25265.00
794.9160, 25616.00
796.0590, 25662.00
797.2010, 25733.00
798.3430, 25718.00
799.4850, 25827.00
800.6270, 26065.00
801.7690, 25810.00
802.9100, 25781.00
804.0520, 26145.00
805.1930, 25950.00
806.3340, 26090.00
807.4750, 26237.00
808.6160, 26277.00
809.7560, 26406.00
810.8970, 26191.00
812.0370, 26624.00
813.1770, 26574.00
814.3170, 26469.00
815.4570, 26805.00
816.5960, 26806.00
817.7360, 26793.00
818.8750, 26950.00
820.0140, 26840.00
821.1530, 26845.00
822.2920, 27036.00
823.4310, 27126.00
824.5690, 27381.00
825.7070, 27222.00
826.8460, 27058.00
827.9840, 27301.00
829.1220, 27295.00
830.2590, 27398.00
831.3970, 27523.00
832.5340, 27519.00
833.6710, 27461.00
834.8080, 27467.00
835.9450, 27349.00
837.0820, 27803.00
838.2190, 27885.00
839.3550, 27960.00
840.4910, 27860.00
841.6270, 28053.00
842.7630, 28188.00
843.8990, 28113.00
845.0350, 28247.00
846.1700, 28287.00
847.3060, 28245.00
848.4410, 28269.00
849.5760, 28317.00
850.7100, 28329.00
851.8450, 28516.00
852.9800, 28780.00
854.1140, 28715.00
855.2480, 28928.00
856.3820, 28784.00
857.5160, 28871.00
858.6500, 28925.00
859.7830, 28950.00
860.9170, 29093.00
862.0500, 29221.00
863.1830, 29046.00
864.3160, 29217.00
865.4480, 29238.00
866.5810, 29433.00
867.7130, 29116.00
868.8460, 29122.00
869.9780, 29339.00
871.1100, 29483.00
872.2410, 29589.00
873.3730, 29631.00
874.5050, 29714.63
875.6360, 29852.00
876.7670, 29781.00
877.8980, 29791.00
879.0290, 29773.00
880.1590, 29935.00
881.2900, 29905.00
882.4200, 30122.00
883.5500, 30116.00
884.6800, 30158.00
885.8100, 30035.00
886.9400, 30227.00
888.0690, 30037.00
889.1990, 30340.00
890.3280, 30440.00
891.4570, 30419.00
892.5860, 30699.00
893.7140, 30499.00
894.8430, 30698.00
895.9710, 30852.00
897.1000, 30705.00
898.2280, 30969.00
899.3560, 30789.00
900.4830, 31005.00
901.6110, 30976.00
902.7380, 31214.00
903.8660, 31005.00
904.9930, 31017.00
906.1200, 31170.00
907.2460, 31184.00
908.3730, 31456.00
909.5000, 31404.00
910.6260, 31318.00
911.7520, 31472.00
912.8780, 31733.00
914.0040, 31626.00
915.1290, 31948.00
916.2550, 31761.00
917.3800, 31926.00
918.5050, 32161.00
919.6300, 31941.00
920.7550, 32155.00
921.8800, 32215.00
923.0040, 32151.00
924.1290, 32060.00
925.2530, 32100.40
926.3770, 32105.17
927.5010, 32175.00
928.6250, 32270.00
929.7480, 32465.00
930.8720, 32670.00
931.9950, 32750.00
933.1180, 32541.00
934.2410, 32773.00
935.3640, 32811.00
936.4860, 32859.00
937.6090, 33021.00
938.7310, 33025.00
939.8530, 32926.00
940.9750, 32968.00
942.0970, 33084.00
943.2180, 33459.00
944.3400, 33266.00
945.4610, 33426.00
946.5820, 33342.00
947.7030, 33313.00
948.8240, 33610.00
949.9450, 33773.00
951.0650, 33579.00
952.1860, 33811.00
953.3060, 33714.00
954.4260, 34081.00
955.5460, 34045.00
956.6650, 34503.00
957.7850, 34570.00
958.9040, 34824.00
960.0230, 35262.00
961.1420, 35559.00
962.2610, 36007.00
963.3800, 36092.00
964.4990, 36563.00
965.6170, 36764.00
966.7350, 36738.00
967.8530, 36334.00
968.9710, 35884.00
970.0890, 35601.00
971.2070, 35317.00
972.3240, 35110.00
973.4410, 35021.00
974.5580, 35104.00
975.6750, 34895.00
976.7920, 35106.00
977.9090, 35107.00
979.0250, 35169.00
980.1410, 35220.00
981.2580, 35192.00
982.3740, 35224.00
983.4890, 35328.00
984.6050, 35628.00
985.7200, 35544.00
986.8360, 35711.00
987.9510, 35621.00
989.0660, 35581.00
990.1810, 35469.00
991.2950, 35702.00
992.4100, 35776.00
993.5240, 35875.00
994.6390, 35980.00
995.7530, 36034.00
996.8660, 36088.13
997.9800, 36146.00
999.0940, 36142.00
1000.207, 36265.00
1001.320, 36283.00
1002.433, 36500.00
1003.546, 36315.00
1004.659, 36480.00
1005.772, 36705.00
1006.884, 36246.00
1007.996, 36739.00
1009.108, 36557.00
1010.220, 36655.00
1011.332, 36778.00
1012.444, 37056.00
1013.555, 37031.00
1014.666, 37047.00
1015.777, 36986.00
1016.888, 37043.00
1017.999, 37287.00
1019.110, 37231.00
1020.220, 37607.00
1021.331, 37502.00
1022.441, 37474.00
1023.551, 37578.00
1024.661, 37467.00
1025.770, 37487.00
1026.880, 37584.00
1027.989, 37600.00
1029.098, 37863.00
1030.207, 38058.00
1031.316, 38077.00
1032.425, 37907.00
1033.533, 38334.00
1034.642, 38244.00
1035.750, 38340.00
1036.858, 38502.00
1037.966, 38282.00
1039.073, 38595.00
1040.181, 38659.00
1041.288, 38493.00
1042.396, 38713.00
1043.503, 38760.00
1044.610, 38804.00
1045.716, 38895.00
1046.823, 39152.00
1047.929, 39014.00
1049.036, 38948.00
1050.142, 39150.00
1051.248, 39409.00
1052.353, 39449.00
1053.459, 39407.00
1054.564, 39724.00
1055.670, 39328.00
1056.775, 39273.00
1057.880, 39676.00
1058.985, 39394.00
1060.089, 39313.00
1061.194, 39764.00
1062.298, 39505.00
1063.402, 39641.00
1064.506, 39630.00
1065.610, 39729.00
1066.713, 39621.00
1067.817, 39741.56
1068.920, 39938.00
1070.023, 39920.00
1071.126, 40178.00
1072.229, 40307.00
1073.332, 40175.00
1074.435, 40498.00
1075.537, 40361.00
1076.639, 40336.00
1077.741, 40403.00
1078.843, 40549.00
1079.945, 40653.00
1081.046, 40709.00
1082.148, 40958.00
1083.249, 40757.00
1084.350, 40960.00
1085.451, 41090.00
1086.551, 41071.00
1087.652, 41042.00
1088.752, 41237.00
1089.853, 41125.00
1090.953, 41137.00
1092.053, 41620.00
1093.152, 41169.00
1094.252, 41425.00
1095.351, 41342.00
1096.451, 41318.00
1097.550, 41665.00
1098.649, 41544.00
1099.748, 41621.00
1100.846, 41713.00
1101.945, 41583.00
1103.043, 41992.00
1104.141, 42026.00
1105.239, 41964.00
1106.337, 41969.00
1107.434, 42065.00
1108.532, 41806.00
1109.629, 41970.00
1110.726, 41930.00
1111.823, 42203.00
1112.920, 42301.00
1114.017, 42248.00
1115.113, 42363.00
1116.210, 42563.00
1117.306, 42543.00
1118.402, 42455.00
1119.498, 42755.00
1120.593, 42663.00
1121.689, 43026.00
1122.784, 43083.00
1123.879, 43234.00
1124.974, 42844.00
1126.069, 43122.00
1127.164, 43084.00
1128.259, 43131.00
1129.353, 43270.00
1130.447, 43262.57
1131.541, 43575.00
1132.635, 43352.00
1133.729, 43503.00
1134.822, 43542.00
1135.916, 43845.00
1137.009, 43548.00
1138.102, 43532.00
1139.195, 43762.00
1140.288, 43804.00
1141.380, 44153.00
1142.473, 43727.00
1143.565, 44106.00
1144.657, 44425.00
1145.749, 44037.00
1146.841, 44034.00
1147.932, 44105.00
1149.024, 44195.00
1150.115, 44043.00
1151.206, 44496.00
1152.297, 44422.00
1153.388, 44598.00
1154.479, 44532.00
1155.569, 44492.00
1156.659, 44783.00
1157.750, 44798.00
1158.839, 45018.00
1159.929, 45083.94
1161.019, 44928.00
1162.108, 45261.00
1163.198, 45096.00
1164.287, 45304.00
1165.376, 45320.00
1166.465, 45210.00
1167.553, 45296.00
1168.642, 45515.00
1169.730, 45096.00
1170.818, 45376.00
1171.906, 45383.00
1172.994, 45739.00
1174.082, 45750.00
1175.170, 45677.00
1176.257, 45765.00
1177.344, 45902.00
1178.431, 45564.00
1179.518, 46008.00
1180.605, 45945.00
1181.691, 45914.00
1182.778, 46250.00
1183.864, 46302.00
1184.950, 46149.00
1186.036, 46219.00
1187.122, 46455.00
1188.207, 46210.00
1189.292, 46397.00
1190.378, 46555.00
1191.463, 46320.00
1192.548, 46638.00
1193.632, 46795.00
1194.717, 46761.00
1195.801, 46743.00
1196.886, 46680.00
1197.970, 46814.00
1199.054, 46932.00
1200.137, 47151.00
1201.221, 47055.00
1202.305, 46913.00
1203.388, 47037.00
1204.471, 47031.00
1205.554, 47239.00
1206.637, 47252.61
1207.719, 47330.00
1208.802, 47409.00
1209.884, 47490.00
1210.966, 47683.00
1212.048, 47653.00
1213.130, 47723.00
1214.212, 47779.00
1215.293, 47434.00
1216.374, 47750.00
1217.456, 48005.00
1218.536, 47867.00
1219.617, 48183.00
1220.698, 48013.00
1221.778, 48030.00
1222.859, 48187.00
1223.939, 48036.00
1225.019, 48464.00
1226.099, 48315.00
1227.178, 48557.00
1228.258, 48440.00
1229.337, 48516.00
1230.417, 48042.00
1231.496, 48675.00
1232.574, 48857.00
1233.653, 48195.00
1234.732, 48824.00
1235.810, 48762.00
1236.888, 49151.00
1237.966, 48968.00
1239.044, 49273.00
1240.122, 49068.00
1241.199, 49055.00
1242.277, 49396.00
1243.354, 49248.00
1244.431, 49300.00
1245.508, 49233.00
1246.585, 49389.00
1247.661, 49350.19
1248.738, 49624.00
1249.814, 49402.00
1250.890, 49526.00
1251.966, 49640.00
1253.042, 49338.00
1254.117, 49682.00
1255.193, 49603.00
1256.268, 49538.00
1257.343, 49779.00
1258.418, 49592.00
1259.493, 49882.00
1260.567, 49954.00
1261.642, 49877.00
1262.716, 50159.00
1263.790, 50197.00
1264.864, 50314.00
1265.938, 50239.00
1267.011, 50283.00
1268.085, 50342.00
1269.158, 50430.00
1270.231, 50284.00
1271.304, 50614.00
1272.377, 50295.00
1273.450, 50519.00
1274.522, 50645.00
1275.594, 50791.00
1276.666, 50809.00
1277.738, 50960.00
1278.810, 50827.00
1279.882, 50870.00
1280.953, 50853.00
1282.025, 50989.00
1283.096, 50899.00
1284.167, 50889.00
1285.238, 51201.00
1286.308, 51202.00
1287.379, 51091.00
1288.449, 51287.00
1289.519, 51400.00
1290.589, 51071.00
1291.659, 51521.00
1292.729, 51146.00
1293.798, 51055.00
1294.868, 51255.00
1295.937, 51360.00
1297.006, 51207.00
1298.075, 51496.00
1299.143, 51610.00
1300.212, 51661.00
1301.280, 51820.00
1302.348, 51485.00
1303.416, 51713.00
1304.484, 52199.00
1305.552, 51900.00
1306.620, 51966.00
