##NAMES=Fluorite
##RRUFFID=R050046
##IDEAL CHEMISTRY=CaF_2_
##LOCALITY=Shangbao, Lei Yang, Hunan Province, China
##OWNER=RRUFF
##SOURCE=Eugene Schlepp
##DESCRIPTION=Pale purple crystal
##STATUS=The identification of this mineral has been confirmed by X-ray diffraction and chemical analysis
##URL=rruff.info/R050046
##MEASURED CHEMISTRY=Ca_1.000_ F_2.000_
##PIN_ID=L01404
##ORIENTATION=Laser parallel to c* (0 0 1). Fiducial mark perpendicular to laser is parallel to b [0 1 0]
168.1040, 12003.00
169.3320, 12090.00
170.5590, 12016.00
171.7860, 12010.00
173.0130, 12174.00
174.2400, 12084.00
175.4670, 12204.00
176.6930, 12250.00
177.9200, 12268.00
179.1460, 12318.00
180.3720, 12389.00
181.5980, 12348.00
182.8230, 12296.00
184.0490, 12429.00
185.2740, 12422.00
186.5000, 12376.00
187.7250, 12629.00
188.9500, 12563.00
190.1740, 12687.00
191.3990, 12587.00
192.6230, 12860.00
193.8480, 12882.00
195.0720, 12957.00
196.2960, 12926.00
197.5200, 13138.00
198.7430, 13071.00
199.9670, 13187.00
201.1900, 13178.00
202.4130, 13188.00
203.6360, 13270.00
204.8590, 13098.00
206.0820, 13267.00
207.3050, 13106.00
208.5270, 13098.00
209.7490, 13141.00
210.9710, 13118.00
212.1930, 13070.00
213.4150, 13127.12
214.6370, 13312.00
215.8580, 13253.00
217.0790, 13393.00
218.3010, 13580.00
219.5210, 13559.00
220.7420, 13533.00
221.9630, 13348.00
223.1830, 13635.00
224.4040, 13688.00
225.6240, 13533.00
226.8440, 13541.00
228.0640, 13444.00
229.2840, 13566.00
230.5030, 13675.00
231.7230, 13514.00
232.9420, 13614.00
234.1610, 13717.00
235.3800, 13670.00
236.5990, 13645.00
237.8170, 13811.00
239.0360, 13949.00
240.2540, 13867.00
241.4720, 13865.00
242.6900, 14010.00
243.9080, 13918.00
245.1250, 14115.00
246.3430, 13844.00
247.5600, 13833.00
248.7770, 13947.00
249.9940, 14069.00
251.2110, 14046.00
252.4280, 14063.00
253.6450, 14025.00
254.8610, 14008.00
256.0770, 14189.00
257.2930, 15027.00
258.5090, 14689.46
259.7250, 15038.00
260.9400, 14538.00
262.1560, 14234.00
263.3710, 14219.00
264.5860, 14218.00
265.8010, 14168.00
267.0160, 14202.00
268.2310, 14126.00
269.4450, 14254.00
270.6600, 14244.00
271.8740, 14224.00
273.0880, 14330.00
274.3020, 14356.00
275.5150, 14393.00
276.7290, 14528.00
277.9420, 14644.00
279.1550, 14708.00
280.3680, 14750.00
281.5810, 14619.00
282.7940, 14807.00
284.0070, 14783.00
285.2190, 15078.00
286.4310, 15143.00
287.6430, 15071.00
288.8550, 15308.00
290.0670, 15187.00
291.2790, 15454.00
292.4900, 15432.00
293.7020, 15644.00
294.9130, 16009.00
296.1240, 16134.00
297.3350, 16341.00
298.5450, 16290.00
299.7560, 16784.00
300.9660, 16948.00
302.1760, 17494.00
303.3860, 17655.00
304.5960, 18501.00
305.8060, 19455.00
307.0150, 20742.00
308.2250, 22016.00
309.4340, 24254.00
310.6430, 26462.00
311.8520, 29248.00
313.0610, 32284.00
314.2700, 35690.00
315.4780, 38997.00
316.6860, 42762.00
317.8940, 46632.00
319.1020, 49481.00
320.3100, 51324.00
321.5180, 50591.00
322.7250, 48453.00
323.9330, 44070.00
325.1400, 39455.00
326.3470, 34642.00
327.5540, 30618.00
328.7600, 27680.00
329.9670, 25203.00
331.1730, 23563.00
332.3800, 22156.00
333.5860, 21159.00
334.7920, 20469.00
335.9970, 19830.00
337.2030, 19422.00
338.4080, 19012.00
339.6140, 18740.00
340.8190, 18500.00
342.0240, 18268.00
343.2290, 18100.00
344.4330, 17855.00
345.6380, 17898.00
346.8420, 17573.00
348.0460, 17607.00
349.2500, 17490.00
350.4540, 17361.00
351.6580, 17393.00
352.8610, 17440.00
354.0650, 17233.00
355.2680, 17101.00
356.4710, 17102.00
357.6740, 17150.00
358.8760, 17240.00
360.0790, 17192.00
361.2810, 17239.00
362.4840, 17059.00
363.6860, 17089.00
364.8880, 17081.00
366.0900, 17174.00
367.2910, 17206.00
368.4930, 17155.00
369.6940, 17127.00
370.8950, 17118.10
372.0960, 17063.64
373.2970, 17059.00
374.4980, 17022.00
375.6980, 16962.00
376.8980, 17035.00
378.0990, 16865.00
379.2990, 17061.00
380.4980, 16827.00
381.6980, 16952.00
382.8980, 16989.00
384.0970, 16892.00
385.2960, 16992.64
386.4950, 16975.00
387.6940, 17048.00
388.8930, 17073.69
390.0920, 17092.00
391.2900, 17092.00
392.4880, 17010.00
393.6860, 17118.00
394.8840, 17185.00
396.0820, 17207.00
397.2800, 17108.00
398.4770, 17166.36
399.6750, 16928.00
400.8720, 17167.00
402.0690, 17075.00
403.2660, 17055.00
404.4620, 17185.00
405.6590, 17105.00
406.8550, 17127.00
408.0510, 17063.00
409.2480, 17139.00
410.4430, 16964.00
411.6390, 17027.00
412.8350, 17017.00
414.0300, 17240.00
415.2250, 17036.00
416.4200, 17171.00
417.6150, 17242.00
418.8100, 17257.00
420.0050, 17326.13
421.1990, 17232.00
422.3940, 17357.00
423.5880, 17306.00
424.7820, 17266.00
425.9750, 17297.00
427.1690, 17282.00
428.3630, 17462.00
429.5560, 17365.00
430.7490, 17509.00
431.9420, 17506.00
433.1350, 17548.00
434.3280, 17618.00
435.5200, 17612.00
436.7130, 17663.00
437.9050, 17733.00
439.0970, 17577.00
440.2890, 17677.00
441.4810, 17540.00
442.6720, 17881.00
443.8640, 17645.00
445.0550, 18064.00
446.2460, 17871.00
447.4370, 17951.00
448.6280, 17943.00
449.8180, 17846.00
451.0090, 17869.00
452.1990, 17899.00
453.3890, 17806.00
454.5790, 17908.00
455.7690, 17878.00
456.9590, 17947.00
458.1480, 18040.00
459.3380, 17995.00
460.5270, 18065.00
461.7160, 18075.00
462.9050, 18161.00
464.0940, 18195.16
465.2820, 18140.00
466.4700, 18226.00
467.6590, 18186.00
468.8470, 18066.00
470.0350, 18350.00
471.2220, 18272.00
472.4100, 18227.00
473.5970, 18138.00
474.7850, 18183.00
475.9720, 18399.00
477.1590, 18400.00
478.3460, 18403.00
479.5320, 18399.00
480.7190, 18359.00
481.9050, 18535.00
483.0910, 18558.00
484.2770, 18598.00
485.4630, 18613.00
486.6490, 18743.00
487.8340, 19008.00
489.0200, 18978.00
490.2050, 18875.00
491.3900, 19072.00
492.5750, 18935.00
493.7600, 18979.00
494.9440, 18897.00
496.1290, 18907.00
497.3130, 18867.38
498.4970, 18825.00
499.6810, 18760.00
500.8650, 18799.00
502.0480, 18703.00
503.2320, 18730.79
504.4150, 18695.00
505.5980, 18750.00
506.7810, 18735.00
507.9640, 18736.00
509.1460, 18627.00
510.3290, 18757.00
511.5110, 18673.00
512.6930, 18745.00
513.8750, 18540.00
515.0570, 18808.00
516.2390, 18831.00
517.4210, 18599.00
518.6020, 18963.00
519.7830, 18828.00
520.9640, 18685.00
522.1450, 18696.00
523.3260, 18904.00
524.5060, 18659.00
525.6870, 18666.00
526.8670, 18700.00
528.0470, 18597.00
529.2270, 18685.00
530.4070, 18669.00
531.5870, 18748.00
532.7660, 18840.00
533.9450, 19046.00
535.1240, 18935.00
536.3030, 18660.00
537.4820, 18983.00
538.6610, 18873.00
539.8390, 18731.00
541.0180, 19016.00
542.1960, 19087.00
543.3740, 19067.00
544.5520, 19056.00
545.7290, 19094.00
546.9070, 19091.00
548.0840, 19023.00
549.2620, 19090.00
550.4390, 19349.00
551.6160, 19182.00
552.7920, 19203.00
553.9690, 19342.00
555.1450, 19166.00
556.3220, 19280.00
557.4980, 19133.00
558.6740, 19363.00
559.8490, 19331.00
561.0250, 19356.00
562.2000, 19442.83
563.3760, 19592.00
564.5510, 19542.00
565.7260, 19550.00
566.9010, 19657.00
568.0750, 19545.00
569.2500, 19642.00
570.4240, 19679.00
571.5980, 19573.00
572.7720, 19715.00
573.9460, 19640.00
575.1200, 19757.00
576.2930, 19777.00
577.4670, 19757.00
578.6400, 19843.00
579.8130, 19794.00
580.9860, 19900.00
582.1590, 19847.00
583.3310, 19931.00
584.5040, 19889.00
585.6760, 20022.00
586.8480, 20004.00
588.0200, 19937.00
589.1920, 19920.00
590.3630, 19949.00
591.5350, 20013.00
592.7060, 20020.00
593.8770, 20071.00
595.0480, 20110.00
596.2190, 20092.00
597.3900, 19977.00
598.5600, 20018.00
599.7310, 20276.00
600.9010, 20177.00
602.0710, 20102.00
603.2410, 20320.00
604.4100, 20128.00
605.5800, 20260.00
606.7490, 20351.00
607.9190, 20481.00
609.0880, 20438.00
610.2570, 20611.00
611.4250, 20686.00
612.5940, 20523.00
613.7620, 20712.00
614.9310, 20637.00
616.0990, 20695.00
617.2670, 20846.00
618.4340, 21091.00
619.6020, 20795.00
620.7690, 20941.00
621.9370, 20847.00
623.1040, 20919.00
624.2710, 21048.00
625.4380, 21015.00
626.6040, 20975.00
627.7710, 21133.00
628.9370, 21078.00
630.1030, 21156.00
631.2690, 21151.00
632.4350, 20999.00
633.6010, 21111.00
634.7660, 21013.00
635.9320, 21141.00
637.0970, 21063.00
638.2620, 21092.00
639.4270, 21217.00
640.5920, 21146.00
641.7560, 21312.00
642.9210, 21025.00
644.0850, 21023.00
645.2490, 21129.00
646.4130, 21082.00
647.5770, 21122.92
648.7400, 21257.00
649.9040, 21138.00
651.0670, 21208.00
652.2300, 21201.00
653.3930, 21202.00
654.5560, 21252.75
655.7190, 21329.00
656.8810, 21281.00
658.0440, 21397.00
659.2060, 21327.00
660.3680, 21225.00
661.5300, 21570.00
662.6910, 21460.00
663.8530, 21412.00
665.0140, 21684.00
666.1750, 21620.00
667.3360, 21668.00
668.4970, 21578.00
669.6580, 21754.00
670.8190, 21672.00
671.9790, 21737.00
673.1390, 21689.00
674.2990, 21889.00
675.4590, 21959.00
676.6190, 21936.00
677.7790, 21944.00
678.9380, 22051.00
680.0970, 22184.00
681.2570, 22371.00
682.4160, 22250.00
683.5740, 22322.00
684.7330, 22507.00
685.8920, 22547.00
687.0500, 22719.00
688.2080, 22869.00
689.3660, 22859.00
690.5240, 22741.00
691.6820, 22874.00
692.8390, 23001.00
693.9960, 22974.00
695.1540, 23067.83
696.3110, 23035.00
697.4680, 23178.00
698.6240, 23117.00
699.7810, 23269.00
700.9370, 23225.00
702.0940, 23525.00
703.2500, 23149.00
704.4060, 23370.00
705.5610, 23419.00
706.7170, 23674.00
707.8720, 23409.00
709.0280, 23486.00
710.1830, 23515.00
711.3380, 23475.00
712.4920, 23487.00
713.6470, 23436.00
714.8020, 23316.00
715.9560, 23250.00
717.1100, 23350.00
718.2640, 23140.00
719.4180, 23120.00
720.5720, 23234.00
721.7250, 23073.00
722.8780, 23153.00
724.0320, 23238.00
725.1850, 23111.00
726.3380, 23045.00
727.4900, 23090.00
728.6430, 23129.00
729.7950, 23207.00
730.9470, 23124.00
732.1000, 23064.00
733.2510, 23052.00
734.4030, 22982.00
735.5550, 22847.00
736.7060, 22926.34
737.8570, 23147.00
739.0090, 23090.00
740.1600, 23082.00
741.3100, 23274.00
742.4610, 23101.00
743.6110, 23114.00
744.7620, 23343.00
745.9120, 23236.00
747.0620, 23083.00
748.2120, 23183.00
749.3610, 23197.00
750.5110, 23334.00
751.6600, 23166.00
752.8090, 23302.00
753.9580, 23369.00
755.1070, 23211.00
756.2560, 23352.00
757.4050, 23511.00
758.5530, 23319.00
759.7010, 23425.00
760.8490, 23477.00
761.9970, 23442.00
763.1450, 23444.00
764.2920, 23562.00
765.4400, 23567.00
766.5870, 23527.00
767.7340, 23561.00
768.8810, 23585.00
770.0280, 23577.35
771.1740, 23695.00
772.3210, 23621.00
773.4670, 23726.00
774.6130, 23815.00
775.7590, 23783.00
776.9050, 23848.00
778.0510, 23924.30
779.1960, 23782.00
780.3420, 24069.00
781.4870, 24123.00
782.6320, 24136.00
783.7770, 23912.00
784.9210, 23830.00
786.0660, 24143.00
787.2100, 24038.00
788.3540, 24205.00
789.4980, 24246.00
790.6420, 24368.00
791.7860, 24518.00
792.9300, 24499.00
794.0730, 24520.00
795.2160, 24795.00
796.3590, 24477.00
797.5020, 24535.00
798.6450, 24709.00
799.7880, 24557.00
800.9300, 24586.00
802.0720, 24680.00
803.2150, 24564.00
804.3560, 24711.00
805.4980, 24907.00
806.6400, 24832.00
807.7810, 24929.00
808.9230, 24968.00
810.0640, 25030.00
811.2050, 25089.91
812.3460, 25111.00
813.4860, 25170.00
814.6270, 25116.00
815.7670, 25097.00
816.9070, 25223.00
818.0470, 25222.66
819.1870, 25354.00
820.3270, 25324.00
821.4670, 25306.00
822.6060, 25278.00
823.7450, 25541.00
824.8840, 25574.00
826.0230, 25612.00
827.1620, 25919.00
828.3010, 25784.00
829.4390, 25998.00
830.5770, 25698.00
831.7150, 26036.00
832.8530, 26158.00
833.9910, 26328.00
835.1290, 26471.00
836.2660, 26305.00
837.4030, 26237.00
838.5410, 26052.00
839.6780, 25778.00
840.8140, 25648.00
841.9510, 25664.00
843.0870, 25801.00
844.2240, 25656.00
845.3600, 25761.00
846.4960, 25495.00
847.6320, 25676.00
848.7680, 25809.00
849.9030, 25932.00
851.0380, 25623.00
852.1740, 25739.00
853.3090, 25682.00
854.4440, 25624.00
855.5780, 25636.00
856.7130, 25595.05
857.8470, 25525.00
858.9820, 25588.00
860.1160, 25682.00
861.2500, 25729.00
862.3830, 25652.00
863.5170, 25559.00
864.6500, 25789.00
865.7840, 25817.00
866.9170, 26148.00
868.0500, 25945.00
869.1830, 26115.00
870.3150, 26509.00
871.4480, 26463.00
872.5800, 27005.00
873.7120, 27108.00
874.8440, 27719.00
875.9760, 27954.00
877.1080, 27954.00
878.2390, 28480.00
879.3710, 28646.00
880.5020, 28589.00
881.6330, 28602.00
882.7640, 28367.00
883.8940, 28072.00
885.0250, 27606.00
886.1550, 27534.00
887.2850, 27179.00
888.4160, 26841.00
889.5450, 26724.00
890.6750, 26523.46
891.8050, 26516.00
892.9340, 26413.00
894.0630, 26317.00
895.1930, 26435.00
896.3220, 26335.00
897.4500, 26247.00
898.5790, 26462.00
899.7070, 26259.00
900.8360, 26383.00
901.9640, 26485.00
903.0920, 26783.00
904.2200, 27181.00
905.3470, 27513.00
906.4750, 28276.00
907.6020, 28450.00
908.7290, 29162.00
909.8560, 29951.00
910.9830, 30411.00
912.1100, 30550.00
913.2360, 30432.00
914.3630, 30024.00
915.4890, 29742.00
916.6150, 29771.00
917.7410, 29825.00
918.8670, 30621.00
919.9920, 31438.00
921.1180, 32396.00
922.2430, 33096.00
923.3680, 33465.00
924.4930, 34169.00
925.6180, 34325.00
926.7420, 34671.00
927.8670, 34634.00
928.9910, 34300.00
930.1150, 33406.00
931.2390, 32726.00
932.3630, 32213.00
933.4860, 31775.00
934.6100, 31330.00
935.7330, 31326.00
936.8560, 31348.00
937.9790, 30991.00
939.1020, 30847.00
940.2250, 30571.00
941.3470, 30678.00
942.4700, 31107.00
943.5920, 31718.00
944.7140, 32298.00
945.8360, 33360.00
946.9570, 34380.00
948.0790, 34209.00
949.2000, 33718.00
950.3220, 32365.00
951.4430, 30971.00
952.5640, 29806.00
953.6840, 29319.00
954.8050, 28879.00
955.9250, 28840.00
957.0460, 28673.00
958.1660, 28905.00
959.2860, 28582.00
960.4050, 28737.00
961.5250, 28763.00
962.6440, 29048.00
963.7640, 29039.00
964.8830, 28892.00
966.0020, 28985.00
967.1210, 29083.00
968.2390, 28923.00
969.3580, 28986.00
970.4760, 28956.00
971.5940, 28980.00
972.7120, 28866.00
973.8300, 28980.00
974.9480, 28896.00
976.0650, 29005.00
977.1830, 28904.00
978.3000, 28832.00
979.4170, 28852.96
980.5340, 28912.00
981.6500, 28766.00
982.7670, 28859.00
983.8830, 28737.00
985.0000, 28601.00
986.1160, 28852.00
987.2320, 28724.00
988.3470, 28775.00
989.4630, 28564.00
990.5780, 28734.00
991.6940, 28749.00
992.8090, 28844.00
993.9240, 28849.00
995.0380, 28861.00
996.1530, 28960.00
997.2680, 29094.00
998.3820, 29322.00
999.4960, 29199.00
1000.610, 29591.00
1001.724, 29197.00
1002.837, 29206.00
1003.951, 29748.00
1005.064, 29495.00
1006.177, 29948.00
1007.291, 29619.00
1008.403, 29834.00
1009.516, 29887.00
1010.629, 30076.00
1011.741, 30042.00
1012.853, 30078.00
1013.965, 30375.00
1015.077, 30343.00
1016.189, 30504.00
1017.300, 30634.00
1018.412, 30916.00
1019.523, 30905.00
1020.634, 31374.00
1021.745, 31397.00
1022.856, 31952.00
1023.966, 32326.00
1025.077, 32495.00
1026.187, 32763.00
1027.297, 33324.00
1028.407, 33372.00
1029.517, 33427.00
1030.627, 33465.00
1031.736, 33185.00
1032.845, 32931.00
1033.955, 32371.00
1035.064, 32355.00
1036.172, 32077.00
1037.281, 32069.00
1038.390, 32080.00
1039.498, 31844.00
1040.606, 31951.00
1041.714, 31813.00
1042.822, 31614.00
1043.930, 31958.00
1045.037, 31883.00
1046.145, 31992.00
1047.252, 31740.00
1048.359, 32006.00
1049.466, 32053.00
1050.573, 32009.00
1051.679, 31966.00
1052.786, 31970.00
1053.892, 31936.00
1054.998, 32035.00
1056.104, 32043.00
1057.210, 31982.00
1058.315, 31816.00
1059.421, 31883.00
1060.526, 31904.00
1061.631, 32041.00
1062.736, 31890.00
1063.841, 32068.00
1064.946, 31756.00
1066.050, 31979.00
1067.154, 32013.00
1068.258, 32046.00
1069.362, 32266.00
1070.466, 32500.00
1071.570, 32394.00
1072.674, 32844.00
1073.777, 32830.00
1074.880, 32927.00
1075.983, 32815.00
1077.086, 32815.00
1078.189, 32813.00
1079.291, 32415.00
1080.394, 32381.00
1081.496, 32137.00
1082.598, 31857.00
1083.700, 32311.00
1084.802, 32024.00
1085.903, 31929.00
1087.005, 32252.00
1088.106, 32129.00
1089.207, 31950.00
1090.308, 31830.00
1091.409, 31773.00
1092.509, 31783.00
1093.610, 31516.00
1094.710, 31648.00
1095.810, 31624.00
1096.910, 31795.00
1098.010, 31806.00
1099.110, 31774.00
1100.209, 31905.00
1101.309, 31654.00
1102.408, 32057.00
1103.507, 31897.00
1104.606, 31969.00
1105.704, 32660.00
1106.803, 32241.00
1107.901, 32346.00
1108.999, 32407.00
1110.097, 32975.00
1111.195, 33003.00
1112.293, 32956.00
1113.391, 33527.00
1114.488, 33794.00
1115.585, 33977.00
1116.682, 34677.00
1117.779, 34882.00
1118.876, 35659.00
1119.973, 36369.00
1121.069, 36908.00
1122.165, 37660.00
1123.261, 37924.00
1124.357, 38315.00
1125.453, 38121.00
1126.549, 37975.00
1127.644, 37869.00
1128.739, 37247.00
1129.835, 36864.00
1130.930, 36416.00
1132.024, 35961.00
1133.119, 35675.00
1134.214, 35411.00
1135.308, 35247.00
1136.402, 35079.00
1137.496, 35165.00
1138.590, 35176.00
1139.684, 35184.00
1140.777, 34988.00
1141.871, 35223.00
1142.964, 35016.00
1144.057, 35297.00
1145.150, 35045.00
1146.243, 35200.00
1147.335, 35043.00
1148.428, 35388.00
1149.520, 35190.00
1150.612, 35228.00
1151.704, 35138.00
1152.796, 35112.00
1153.887, 35021.00
1154.979, 35019.00
1156.070, 34974.35
1157.161, 34937.63
1158.252, 34876.00
1159.343, 34908.00
1160.433, 34771.00
1161.524, 34800.00
1162.614, 34664.00
1163.704, 34752.00
1164.794, 34679.00
1165.884, 34733.00
1166.974, 34738.00
1168.063, 34822.00
1169.153, 34579.00
1170.242, 34486.00
1171.331, 34279.00
1172.420, 34087.00
1173.508, 34255.00
1174.597, 34419.00
1175.685, 34197.00
1176.774, 34067.00
1177.862, 33971.00
1178.950, 33878.00
1180.037, 33869.00
1181.125, 34016.00
1182.212, 33891.00
1183.300, 33691.00
1184.387, 33563.00
1185.474, 33179.00
1186.560, 33490.00
1187.647, 33658.00
1188.733, 33432.00
1189.820, 33410.00
1190.906, 33443.00
1191.992, 33414.00
1193.078, 33279.00
1194.163, 33416.00
1195.249, 33411.00
1196.334, 32997.00
1197.419, 33222.00
1198.504, 33233.00
1199.589, 33311.00
1200.674, 33576.00
1201.758, 33315.00
1202.843, 33084.00
1203.927, 33293.00
1205.011, 33373.00
1206.095, 33491.00
1207.179, 33460.00
1208.262, 33430.00
1209.345, 33348.00
1210.429, 33471.00
1211.512, 33501.00
1212.595, 33536.00
1213.677, 33573.00
1214.760, 33614.24
1215.842, 33660.94
1216.925, 33725.00
1218.007, 33803.00
1219.089, 33908.00
1220.171, 33924.27
1221.252, 33962.00
1222.334, 33945.00
1223.415, 33911.00
1224.496, 33862.00
1225.577, 33995.00
1226.658, 33951.00
1227.738, 34012.00
1228.819, 34054.00
1229.899, 33945.00
1230.979, 34154.00
1232.060, 34175.00
1233.139, 34052.00
1234.219, 34258.00
1235.299, 34233.24
1236.378, 34280.74
1237.457, 34349.00
1238.536, 34308.00
1239.615, 34342.00
1240.694, 34191.00
1241.772, 34276.00
1242.851, 34471.00
1243.929, 34312.00
1245.007, 34646.00
1246.085, 34473.00
1247.163, 34648.00
1248.240, 34499.00
1249.318, 34633.00
1250.395, 34634.00
1251.472, 34723.00
1252.549, 35008.00
1253.626, 34972.00
1254.703, 35155.00
1255.779, 35151.00
1256.855, 35299.00
1257.931, 35381.00
1259.007, 35320.00
1260.083, 35299.00
1261.159, 35407.00
1262.234, 35488.00
1263.310, 35366.00
1264.385, 35476.00
1265.460, 35488.00
1266.535, 35393.00
1267.610, 35395.00
1268.684, 35288.00
1269.758, 35529.00
1270.833, 35684.00
1271.907, 35702.00
1272.981, 35714.00
1274.054, 35544.00
1275.128, 35795.00
1276.201, 35792.00
1277.275, 35956.00
1278.348, 35787.00
1279.421, 35922.00
1280.493, 35798.00
1281.566, 36017.00
1282.638, 35909.00
1283.711, 35842.00
1284.783, 35976.00
1285.855, 35972.00
1286.927, 36112.00
1287.998, 35985.00
1289.070, 36288.00
1290.141, 36622.00
1291.212, 36285.00
1292.283, 36416.00
1293.354, 36566.00
1294.425, 36493.00
1295.495, 36752.00
1296.566, 36585.00
1297.636, 36646.00
1298.706, 36508.00
1299.776, 36788.00
1300.845, 36608.00
1301.915, 36645.00
1302.984, 36245.00
1304.054, 36609.00
1305.123, 36302.00
1306.191, 36351.00
1307.260, 36443.00
1308.329, 36457.00
1309.397, 36585.00
1310.465, 36361.00
1311.534, 36342.00
1312.602, 36530.00
1313.669, 36327.00
1314.737, 36674.00
1315.804, 36472.00
1316.872, 36467.00
1317.939, 36573.00
1319.006, 36410.00
1320.073, 36276.00
1321.139, 36519.00
1322.206, 36588.00
1323.272, 35956.00
1324.338, 36098.00
1325.404, 36143.00
1326.470, 36156.00
1327.536, 36133.00
1328.601, 35634.00
1329.667, 35821.00
1330.732, 35699.00
1331.797, 35576.00
1332.862, 35633.00
1333.926, 35520.35
1334.991, 35539.00
1336.055, 35464.00
1337.120, 35430.00
1338.184, 35475.00
1339.248, 35162.00
1340.311, 35148.00
1341.375, 35153.00
1342.438, 35262.00
1343.502, 35229.00
