##NAMES=Fluorophlogopite
##RRUFFID=R040042
##IDEAL CHEMISTRY=KMg_3_(Si_3_Al)O_10_F_2_
##LOCALITY=Franklin, Sussex County, New Jersey, USA
##OWNER=RRUFF
##SOURCE=University of Arizona Mineral Museum
##DESCRIPTION=Brown flattened hexagonal prism, polytype 1M
##STATUS=The identification of this mineral has been confirmed by X-ray diffraction and chemical analysis
##URL=rruff.info/R040042
##MEASURED CHEMISTRY=(K_0.92_Na_0.08_)_Σ=1_(Mg_2.95_Fe_0.05_)_Σ=3_(Si_3.00_Al_1.00_)O_10_(F_1.40_(OH)_0.60_)_Σ=2_; trace amounts of Ti; OH estimated by charge balance
##PIN_ID=L01769
##ORIENTATION=Laser parallel to b* (0 1 0). Fiducial mark perpendicular to laser is parallel to -c [0 0 -1]
63.96800, 4131.000
65.21800, 4932.000
66.46800, 5679.000
67.71800, 6898.000
68.96700, 8074.000
70.21700, 9522.000
71.46600, 11292.00
72.71500, 13363.00
73.96300, 15926.00
75.21200, 18401.00
76.46000, 21375.00
77.70800, 24458.00
78.95600, 27516.00
80.20300, 30804.00
81.45100, 35392.00
82.69800, 38278.00
83.94500, 42529.00
85.19100, 46207.00
86.43800, 50074.00
87.68400, 54279.00
88.93100, 59303.00
90.17600, 63783.00
91.42200, 69880.00
92.66800, 76401.00
93.91300, 83275.26
95.15800, 91278.44
96.40300, 99595.00
97.64800, 108722.0
98.89200, 119109.0
100.1370, 129102.0
101.3810, 140257.0
102.6250, 151189.0
103.8680, 159473.0
105.1120, 163124.0
106.3550, 159306.0
107.5980, 148313.0
108.8410, 133036.0
110.0840, 115344.0
111.3260, 99415.00
112.5680, 86025.00
113.8100, 75312.00
115.0520, 68204.00
116.2940, 62538.00
117.5350, 58237.00
118.7770, 55003.00
120.0180, 52616.00
121.2590, 50465.00
122.4990, 49099.00
123.7400, 47581.00
124.9800, 46319.00
126.2200, 45606.00
127.4600, 44582.00
128.6990, 44130.00
129.9390, 43497.00
131.1780, 42873.00
132.4170, 42429.00
133.6560, 41883.91
134.8940, 41415.08
136.1330, 41107.00
137.3710, 40720.00
138.6090, 40668.00
139.8470, 40790.00
141.0840, 40842.00
142.3220, 40226.00
143.5590, 40040.00
144.7960, 39861.00
146.0320, 39948.00
147.2690, 39715.78
148.5050, 40301.00
149.7420, 39688.00
150.9780, 39320.00
152.2130, 39819.00
153.4490, 39641.00
154.6840, 40060.00
155.9190, 40510.00
157.1540, 40518.00
158.3890, 41560.00
159.6240, 41438.00
160.8580, 41848.00
162.0920, 42789.00
163.3260, 43530.00
164.5600, 44441.00
165.7930, 45826.00
167.0270, 46620.00
168.2600, 48026.00
169.4930, 49435.00
170.7260, 50826.00
171.9580, 52959.00
173.1900, 55026.00
174.4230, 57496.00
175.6550, 60598.00
176.8860, 64064.00
178.1180, 68567.00
179.3490, 74305.00
180.5800, 80757.00
181.8110, 89467.00
183.0420, 100565.0
184.2730, 114313.0
185.5030, 131525.0
186.7330, 152992.0
187.9630, 177956.0
189.1930, 207553.0
190.4220, 241090.0
191.6520, 278786.0
192.8810, 324228.0
194.1100, 360076.0
195.3390, 394991.0
196.5670, 422584.0
197.7960, 436381.0
199.0240, 430792.0
200.2520, 406389.0
201.4790, 369019.0
202.7070, 320808.0
203.9340, 271951.0
205.1620, 226913.0
206.3890, 188076.0
207.6150, 156753.0
208.8420, 132637.0
210.0680, 114421.0
211.2940, 100069.0
212.5200, 89335.00
213.7460, 80893.00
214.9720, 74495.00
216.1970, 68762.00
217.4220, 64955.00
218.6470, 61104.00
219.8720, 58036.00
221.0970, 55434.00
222.3210, 53787.00
223.5450, 51405.00
224.7690, 50033.00
225.9930, 49268.00
227.2170, 47979.00
228.4400, 47676.00
229.6630, 46656.00
230.8860, 46405.00
232.1090, 45904.84
233.3320, 45690.00
234.5540, 45208.00
235.7770, 44892.67
236.9990, 44407.00
238.2210, 44229.00
239.4420, 43791.00
240.6640, 43450.00
241.8850, 43308.00
243.1060, 43017.00
244.3270, 43049.00
245.5480, 42689.75
246.7680, 42277.00
247.9880, 42368.00
249.2080, 42290.00
250.4280, 42334.86
251.6480, 42576.00
252.8670, 42689.00
254.0870, 43012.00
255.3060, 43344.00
256.5250, 43929.00
257.7440, 44498.00
258.9620, 45658.00
260.1800, 46457.00
261.3990, 47499.00
262.6160, 49080.00
263.8340, 50641.00
265.0520, 52732.00
266.2690, 55255.00
267.4860, 58745.00
268.7030, 62940.00
269.9200, 67876.00
271.1370, 73308.00
272.3530, 80126.00
273.5690, 87034.00
274.7850, 95286.00
276.0010, 103595.0
277.2170, 111618.0
278.4320, 118212.0
279.6470, 121587.0
280.8620, 122232.0
282.0770, 118171.0
283.2920, 111363.0
284.5060, 102132.0
285.7210, 92557.00
286.9350, 84128.00
288.1490, 76883.00
289.3620, 71288.00
290.5760, 67036.00
291.7890, 63573.00
293.0020, 60860.00
294.2150, 59489.00
295.4280, 58706.00
296.6400, 57762.00
297.8530, 57642.00
299.0650, 57852.00
300.2770, 58691.00
301.4890, 60133.00
302.7000, 61653.00
303.9120, 63858.00
305.1230, 66706.00
306.3340, 70479.00
307.5450, 73770.00
308.7550, 78089.00
309.9660, 82982.00
311.1760, 87210.00
312.3860, 91779.00
313.5960, 96097.00
314.8050, 100214.0
316.0150, 102696.0
317.2240, 104697.0
318.4330, 105985.0
319.6420, 106724.0
320.8510, 106471.0
322.0590, 106200.0
323.2680, 104097.0
324.4760, 102314.0
325.6840, 99660.00
326.8910, 96057.00
328.0990, 92189.00
329.3060, 87593.00
330.5140, 83162.00
331.7210, 78904.02
332.9270, 74083.00
334.1340, 70491.00
335.3400, 67027.00
336.5470, 63714.00
337.7530, 60965.00
338.9590, 58298.00
340.1640, 56787.00
341.3700, 54397.00
342.5750, 53442.00
343.7800, 51976.00
344.9850, 51287.00
346.1900, 50204.00
347.3940, 49384.00
348.5990, 48860.00
349.8030, 48132.00
351.0070, 47937.00
352.2100, 47669.00
353.4140, 47479.00
354.6170, 47312.00
355.8210, 47194.00
357.0240, 47063.00
358.2260, 46997.00
359.4290, 47164.00
360.6320, 47303.00
361.8340, 47748.00
363.0360, 48255.00
364.2380, 48461.00
365.4400, 49261.00
366.6410, 49654.00
367.8420, 50582.00
369.0440, 51575.00
370.2440, 52401.00
371.4450, 53425.00
372.6460, 53585.00
373.8460, 53348.00
375.0460, 53190.00
376.2460, 52060.00
377.4460, 51540.00
378.6460, 49755.00
379.8450, 49169.00
381.0450, 48342.00
382.2440, 47661.00
383.4430, 46940.00
384.6410, 46656.00
385.8400, 46226.00
387.0380, 45821.53
388.2360, 45587.82
389.4340, 45320.00
390.6320, 45084.00
391.8300, 45172.00
393.0270, 44932.00
394.2240, 44843.00
395.4210, 44498.00
396.6180, 44663.00
397.8150, 44167.00
399.0110, 44943.00
400.2080, 44496.00
401.4040, 44806.00
402.6000, 44172.00
403.7950, 44659.00
404.9910, 44517.00
406.1860, 44459.00
407.3810, 44113.00
408.5760, 43956.00
409.7710, 44036.00
410.9660, 44062.00
412.1600, 43974.00
413.3540, 43823.00
414.5490, 43705.00
415.7420, 43462.00
416.9360, 43864.00
418.1300, 43186.00
419.3230, 43473.00
420.5160, 43209.00
421.7090, 43081.00
422.9020, 42760.00
424.0940, 42790.00
425.2870, 43089.00
426.4790, 43001.00
427.6710, 43042.00
428.8630, 42793.00
430.0550, 42850.00
431.2460, 42975.00
432.4370, 42878.00
433.6290, 43287.00
434.8190, 43007.00
436.0100, 43260.00
437.2010, 43111.00
438.3910, 43264.00
439.5810, 43212.00
440.7710, 43434.00
441.9610, 43702.00
443.1510, 43560.00
444.3400, 43718.00
445.5300, 43622.00
446.7190, 43724.00
447.9080, 43936.00
449.0960, 43542.00
450.2850, 43754.00
451.4730, 43919.00
452.6620, 43925.00
453.8500, 44202.00
455.0370, 44119.00
456.2250, 44212.00
457.4120, 44827.00
458.6000, 44598.00
459.7870, 44955.00
460.9740, 45121.00
462.1610, 45463.00
463.3470, 45500.00
464.5330, 45799.00
465.7200, 46168.00
466.9060, 46246.00
468.0910, 45970.00
469.2770, 45968.00
470.4630, 45486.00
471.6480, 44857.00
472.8330, 44700.00
474.0180, 44300.00
475.2030, 43902.00
476.3870, 43417.00
477.5720, 43027.00
478.7560, 42679.00
479.9400, 42805.00
481.1240, 42719.00
482.3070, 42694.00
483.4910, 42980.00
484.6740, 43024.00
485.8570, 42986.00
487.0400, 43052.00
488.2230, 43165.00
489.4050, 43213.00
490.5880, 43387.00
491.7700, 43235.00
492.9520, 43386.00
494.1340, 43772.00
495.3160, 43930.00
496.4970, 43852.00
497.6780, 44127.00
498.8600, 44268.00
500.0400, 44162.00
501.2210, 44653.00
502.4020, 44608.00
503.5820, 45108.00
504.7630, 45060.00
505.9430, 45464.00
507.1220, 46000.00
508.3020, 45789.00
509.4820, 45886.00
510.6610, 46305.00
511.8400, 46468.00
513.0190, 46370.00
514.1980, 46791.00
515.3770, 46873.00
516.5550, 46515.00
517.7330, 46252.00
518.9110, 46009.00
520.0890, 45717.71
521.2670, 45835.00
522.4450, 45258.00
523.6220, 45249.00
524.7990, 45151.00
525.9760, 45371.00
527.1530, 45033.00
528.3300, 44802.00
529.5060, 45039.00
530.6830, 44702.00
531.8590, 44752.00
533.0350, 44829.00
534.2100, 44864.00
535.3860, 45026.00
536.5610, 44897.00
537.7370, 44743.00
538.9120, 45097.00
540.0870, 45114.00
541.2610, 44753.00
542.4360, 44931.00
543.6100, 45056.00
544.7850, 45354.00
545.9590, 45318.00
547.1320, 45382.00
548.3060, 45646.00
549.4800, 45328.00
550.6530, 45439.00
551.8260, 45338.00
552.9990, 45731.00
554.1720, 45765.00
555.3440, 45803.00
556.5170, 46066.00
557.6890, 46012.00
558.8610, 46148.00
560.0330, 46233.17
561.2050, 46161.00
562.3760, 46410.00
563.5480, 46309.00
564.7190, 46473.00
565.8900, 46483.64
567.0610, 46378.00
568.2310, 46552.00
569.4020, 46439.00
570.5720, 46583.00
571.7420, 46669.00
572.9120, 46944.00
574.0820, 46753.00
575.2520, 46856.00
576.4210, 46706.00
577.5900, 46809.00
578.7590, 47029.00
579.9280, 46633.00
581.0970, 46982.00
582.2660, 47019.00
583.4340, 47106.00
584.6020, 47217.00
585.7700, 47341.09
586.9380, 47141.00
588.1060, 47637.00
589.2730, 47524.00
590.4410, 47622.00
591.6080, 47883.00
592.7750, 48149.00
593.9420, 47998.00
595.1080, 48337.00
596.2750, 48120.00
597.4410, 48974.00
598.6070, 48624.00
599.7730, 49269.00
600.9390, 49690.00
602.1050, 49979.00
603.2700, 50433.11
604.4350, 50644.00
605.6010, 51104.00
606.7660, 51603.00
607.9300, 51955.00
609.0950, 52743.00
610.2590, 53171.00
611.4230, 53975.00
612.5880, 54516.00
613.7510, 55297.00
614.9150, 56394.00
616.0790, 57406.00
617.2420, 58525.93
618.4050, 59794.00
619.5680, 60936.00
620.7310, 62316.00
621.8940, 63572.00
623.0560, 65319.00
624.2190, 67247.00
625.3810, 69255.00
626.5430, 71690.00
627.7050, 74098.00
628.8660, 76570.00
630.0280, 79271.00
631.1890, 82062.00
632.3500, 84741.00
633.5110, 87734.00
634.6720, 90642.00
635.8330, 92737.00
636.9930, 94495.00
638.1530, 96474.00
639.3130, 97194.00
640.4730, 97930.00
641.6330, 97616.00
642.7930, 97860.00
643.9520, 97317.00
645.1110, 97099.00
646.2710, 96374.00
647.4290, 96142.00
648.5880, 95439.00
649.7470, 95296.00
650.9050, 95365.00
652.0630, 95527.00
653.2210, 95842.00
654.3790, 96269.77
655.5370, 97083.00
656.6950, 97318.00
657.8520, 99168.00
659.0090, 99695.00
660.1660, 101702.0
661.3230, 103996.0
662.4800, 105914.0
663.6360, 108844.0
664.7930, 112080.0
665.9490, 115964.0
667.1050, 120198.0
668.2610, 125454.0
669.4160, 131456.0
670.5720, 138686.0
671.7270, 146623.0
672.8830, 156364.0
674.0380, 167162.0
675.1920, 179024.0
676.3470, 192391.0
677.5020, 206074.0
678.6560, 220275.0
679.8100, 233238.0
680.9640, 244526.0
682.1180, 253302.0
683.2720, 257887.0
684.4250, 260262.0
685.5780, 255865.0
686.7320, 250067.0
687.8850, 239259.0
689.0370, 228505.0
690.1900, 215170.0
691.3420, 200938.0
692.4950, 186794.0
693.6470, 172284.0
694.7990, 158976.0
695.9510, 145696.0
697.1020, 133713.0
698.2540, 122995.0
699.4050, 113314.0
700.5560, 105321.0
701.7070, 97661.00
702.8580, 91408.00
704.0090, 86642.00
705.1590, 82310.00
706.3100, 78166.00
707.4600, 75346.00
708.6100, 72622.00
709.7590, 70685.00
710.9090, 69113.00
712.0590, 67188.00
713.2080, 65544.00
714.3570, 64513.00
715.5060, 64080.00
716.6550, 62829.00
717.8030, 62131.00
718.9520, 61248.00
720.1000, 60695.22
721.2480, 60206.14
722.3960, 59946.00
723.5440, 59476.00
724.6920, 59285.00
725.8390, 58994.00
726.9870, 59134.00
728.1340, 58358.00
729.2810, 57631.00
730.4280, 57351.00
731.5740, 57478.00
732.7210, 57186.00
733.8670, 57055.00
735.0130, 56964.00
736.1590, 56942.00
737.3050, 57008.00
738.4510, 56322.00
739.5960, 56531.00
740.7410, 56073.00
741.8870, 56269.00
743.0320, 56023.00
744.1760, 56313.00
745.3210, 55677.00
746.4660, 55957.00
747.6100, 55805.00
748.7540, 55740.00
749.8980, 55655.00
751.0420, 55510.13
752.1860, 55414.08
753.3290, 55318.00
754.4720, 55201.00
755.6160, 55266.00
756.7590, 55260.00
757.9020, 55216.00
759.0440, 54948.00
760.1870, 55140.00
761.3290, 54990.00
762.4710, 55001.00
763.6130, 55093.00
764.7550, 54990.80
765.8970, 54852.00
767.0390, 54971.00
768.1800, 55016.00
769.3210, 55111.00
770.4620, 54928.00
771.6030, 55086.00
772.7440, 55118.00
773.8840, 55051.00
775.0250, 55234.00
776.1650, 55186.00
777.3050, 55426.00
778.4450, 55394.00
779.5850, 55577.00
780.7240, 55873.00
781.8640, 55857.00
783.0030, 55939.00
784.1420, 56066.00
785.2810, 56310.00
786.4200, 56418.00
787.5590, 56335.00
788.6970, 56304.00
789.8350, 56296.00
790.9730, 56485.41
792.1110, 57036.00
793.2490, 56836.00
794.3870, 57191.00
795.5240, 57085.00
796.6620, 57303.00
797.7990, 57617.00
798.9360, 57528.00
800.0730, 57307.00
801.2090, 57299.00
802.3460, 57407.00
803.4820, 57028.00
804.6180, 56615.00
805.7540, 57186.00
806.8900, 57307.00
808.0260, 57000.00
809.1620, 56153.00
810.2970, 55990.00
811.4320, 55996.00
812.5670, 55857.00
813.7020, 56001.00
814.8370, 56019.00
815.9710, 55872.00
817.1060, 55823.00
818.2400, 55735.00
819.3740, 55704.00
820.5080, 55842.00
821.6420, 56045.00
822.7760, 55961.80
823.9090, 56086.00
825.0420, 55821.00
826.1760, 55921.00
827.3090, 55692.00
828.4410, 55676.00
829.5740, 55540.00
830.7060, 55381.00
831.8390, 55542.00
832.9710, 55597.00
834.1030, 55659.00
835.2350, 55702.58
836.3670, 55650.00
837.4980, 55729.00
838.6300, 55686.00
839.7610, 55711.00
840.8920, 55478.00
842.0230, 55957.00
843.1530, 55321.00
844.2840, 55772.00
845.4140, 55300.00
846.5450, 55899.00
847.6750, 55238.00
848.8050, 55337.00
849.9350, 55608.00
851.0640, 55707.00
852.1940, 55380.00
853.3230, 55391.00
854.4520, 55467.95
855.5810, 55511.00
856.7100, 55648.00
857.8390, 55759.00
858.9670, 55986.00
860.0960, 56153.00
861.2240, 56387.00
862.3520, 56327.00
863.4800, 56038.00
864.6080, 55880.00
865.7350, 56317.00
866.8630, 56170.00
867.9900, 56417.00
869.1170, 56565.00
870.2440, 56516.00
871.3710, 56635.00
872.4970, 56676.00
873.6240, 56511.00
874.7500, 56179.00
875.8760, 56534.00
877.0020, 56266.00
878.1280, 56467.00
879.2540, 56785.00
880.3790, 56668.00
881.5050, 56424.00
882.6300, 57058.00
883.7550, 57104.00
884.8800, 57065.00
886.0050, 57319.00
887.1290, 57091.00
888.2540, 57400.00
889.3780, 57629.00
890.5020, 58010.00
891.6260, 58025.00
892.7500, 57731.00
893.8730, 58069.00
894.9970, 57815.00
896.1200, 58565.00
897.2440, 58526.00
898.3670, 58631.00
899.4890, 58505.00
900.6120, 58486.00
901.7350, 58678.00
902.8570, 58731.00
903.9790, 58719.00
905.1010, 58862.00
906.2230, 58760.00
907.3450, 58831.00
908.4670, 58882.00
909.5880, 59164.00
910.7100, 58977.00
911.8310, 59098.91
912.9520, 58878.00
914.0730, 59183.00
915.1930, 59103.00
916.3140, 59296.00
917.4340, 59618.00
918.5550, 59338.00
919.6750, 59599.00
920.7950, 59450.00
921.9140, 59660.00
923.0340, 59497.00
924.1530, 59704.00
925.2730, 59655.00
926.3920, 59437.00
927.5110, 59772.00
928.6300, 60031.00
929.7480, 59663.00
930.8670, 59912.00
931.9850, 59937.00
933.1040, 59798.00
934.2220, 60052.00
935.3400, 60045.00
936.4570, 60152.00
937.5750, 60204.00
938.6920, 60446.00
939.8100, 60285.00
940.9270, 60551.00
942.0440, 60436.00
943.1610, 61010.00
944.2770, 60689.00
945.3940, 60738.00
946.5100, 60764.00
947.6270, 60465.00
948.7430, 60261.00
949.8590, 60621.00
950.9740, 61043.00
952.0900, 61045.00
953.2050, 61176.00
954.3210, 60898.00
955.4360, 61048.00
956.5510, 61666.00
957.6660, 61367.00
958.7800, 61542.00
959.8950, 61728.00
961.0090, 61812.00
962.1240, 62019.00
963.2380, 62218.73
964.3520, 62365.00
965.4650, 62688.00
966.5790, 63045.00
967.6930, 63328.00
968.8060, 63535.74
969.9190, 63385.00
971.0320, 63752.00
972.1450, 64078.00
973.2580, 63922.00
974.3700, 64363.00
975.4830, 64708.00
976.5950, 65004.00
977.7070, 65115.00
978.8190, 65190.00
979.9310, 65982.00
981.0430, 65848.00
982.1540, 66225.00
983.2650, 66598.00
984.3770, 66752.00
985.4880, 67105.00
986.5990, 67183.19
987.7090, 67483.00
988.8200, 67401.00
989.9300, 67462.00
991.0410, 67740.00
992.1510, 68221.00
993.2610, 68560.00
994.3710, 69087.00
995.4810, 69632.00
996.5900, 70305.00
997.6990, 70967.00
998.8090, 71791.13
999.9180, 72760.00
1001.027, 73634.00
1002.136, 74388.00
1003.244, 75468.00
1004.353, 75943.00
1005.461, 76083.00
1006.569, 76241.00
1007.677, 76113.00
1008.785, 76319.00
1009.893, 76515.00
1011.001, 76867.00
1012.108, 77357.00
1013.215, 77593.00
1014.323, 78218.00
1015.430, 78626.00
1016.536, 79371.00
1017.643, 80100.00
1018.750, 81294.00
1019.856, 82617.00
1020.962, 84418.00
1022.068, 87098.00
1023.174, 89988.00
1024.280, 93845.00
1025.386, 98860.00
1026.491, 105157.0
1027.597, 111907.0
1028.702, 120494.0
1029.807, 129107.0
1030.912, 138032.0
1032.017, 146912.0
1033.121, 153869.0
1034.226, 158751.0
1035.330, 160587.0
1036.434, 158950.0
1037.538, 154639.0
1038.642, 147524.0
1039.746, 139913.0
1040.850, 130885.0
1041.953, 123008.0
1043.056, 115650.0
1044.159, 109119.0
1045.262, 103875.0
1046.365, 99152.00
1047.468, 95092.00
1048.571, 92315.00
1049.673, 89372.00
1050.775, 87051.00
1051.877, 85240.00
1052.979, 83347.00
1054.081, 81994.00
1055.183, 80673.00
1056.284, 79420.00
1057.386, 78738.00
1058.487, 77722.00
1059.588, 77057.00
1060.689, 76483.00
1061.790, 76036.00
1062.890, 75112.00
1063.991, 74620.00
1065.091, 73969.00
1066.191, 73563.00
1067.291, 73137.00
1068.391, 73036.00
1069.491, 72402.00
1070.591, 72355.00
1071.690, 72010.00
1072.790, 71395.00
1073.889, 71789.00
1074.988, 71351.00
1076.087, 71370.00
1077.185, 71390.00
1078.284, 71328.62
1079.382, 71449.00
1080.481, 71518.00
1081.579, 71593.00
1082.677, 71745.00
1083.775, 71971.00
1084.872, 72141.00
1085.970, 72058.00
1087.067, 72457.00
1088.165, 72369.00
1089.262, 73089.00
1090.359, 72865.00
1091.456, 73017.00
1092.552, 73087.00
1093.649, 72872.00
1094.745, 73663.00
1095.842, 73420.00
1096.938, 73681.00
1098.034, 73695.00
1099.130, 73885.00
1100.225, 73898.00
1101.321, 73750.97
1102.416, 73650.25
1103.511, 73337.00
1104.607, 73128.00
1105.702, 72875.00
1106.796, 72493.00
1107.891, 72320.00
1108.986, 71610.00
1110.080, 71430.00
1111.174, 71195.00
1112.268, 70300.00
1113.362, 70285.00
1114.456, 70034.00
1115.550, 69342.00
1116.643, 69035.00
1117.737, 68907.00
1118.830, 68577.00
1119.923, 68171.00
1121.016, 67646.00
1122.109, 67574.00
1123.201, 67291.00
1124.294, 67107.00
1125.386, 66805.00
1126.478, 66888.00
1127.571, 66580.00
1128.663, 67185.00
1129.754, 67008.95
1130.846, 66447.00
1131.937, 67175.00
1133.029, 66913.00
1134.120, 67119.00
1135.211, 66788.00
1136.302, 66859.00
1137.393, 66664.00
1138.484, 66387.00
1139.574, 66624.00
1140.664, 66816.00
1141.755, 67095.00
1142.845, 66818.00
1143.935, 67055.00
1145.025, 67288.00
1146.114, 66656.00
1147.204, 66919.00
1148.293, 66477.00
1149.382, 66803.00
1150.471, 66885.00
1151.560, 66772.00
1152.649, 67316.00
1153.738, 66889.00
1154.826, 67146.00
1155.915, 67410.00
1157.003, 67361.00
1158.091, 67902.00
1159.179, 67357.00
1160.267, 67588.00
1161.355, 67414.00
1162.442, 67639.00
1163.529, 67585.00
1164.617, 67495.00
1165.704, 67792.00
1166.791, 67354.00
1167.878, 67479.00
1168.964, 67696.00
1170.051, 67627.00
1171.137, 67774.48
1172.224, 67752.00
1173.310, 67953.00
1174.396, 67905.00
1175.481, 68095.00
1176.567, 68002.00
1177.653, 68119.00
1178.738, 68394.00
1179.823, 68420.00
1180.909, 68440.00
1181.994, 68655.00
1183.078, 68413.00
1184.163, 68290.00
1185.248, 68773.00
1186.332, 68625.00
1187.416, 68356.00
1188.501, 69013.00
1189.585, 68968.00
1190.669, 68556.00
1191.752, 68853.00
1192.836, 68886.00
1193.919, 68568.00
1195.003, 69118.00
1196.086, 68937.00
1197.169, 68871.00
1198.252, 68871.00
1199.334, 68721.00
1200.417, 69056.00
1201.500, 69021.00
1202.582, 69268.00
1203.664, 69406.00
1204.746, 69124.00
1205.828, 69258.00
1206.910, 69078.00
1207.992, 69052.00
1209.073, 69146.00
1210.154, 69132.39
1211.236, 69271.00
1212.317, 69253.00
1213.398, 69396.00
1214.479, 69361.00
1215.559, 69652.00
1216.640, 69573.00
1217.720, 69698.00
1218.800, 70058.00
1219.881, 69956.00
1220.961, 70234.00
1222.040, 70290.58
1223.120, 70500.00
1224.200, 70414.00
1225.279, 70573.00
1226.358, 70636.00
1227.438, 70821.00
1228.517, 70980.00
1229.595, 70613.00
1230.674, 70981.00
1231.753, 70755.00
1232.831, 70797.00
1233.910, 70833.89
1234.988, 70781.20
1236.066, 71077.00
1237.144, 70589.00
1238.222, 71315.00
1239.299, 70769.00
