##NAMES=Fluorophlogopite
##RRUFFID=R040042
##IDEAL CHEMISTRY=KMg_3_(Si_3_Al)O_10_F_2_
##LOCALITY=Franklin, Sussex County, New Jersey, USA
##OWNER=RRUFF
##SOURCE=University of Arizona Mineral Museum
##DESCRIPTION=Brown flattened hexagonal prism, polytype 1M
##STATUS=The identification of this mineral has been confirmed by X-ray diffraction and chemical analysis
##URL=rruff.info/R040042
##MEASURED CHEMISTRY=(K_0.92_Na_0.08_)_Σ=1_(Mg_2.95_Fe_0.05_)_Σ=3_(Si_3.00_Al_1.00_)O_10_(F_1.40_(OH)_0.60_)_Σ=2_; trace amounts of Ti; OH estimated by charge balance
##PIN_ID=L00305
##ORIENTATION=Laser parallel to (1 0 1). Fiducial mark perpendicular to laser is parallel to b [0 1 0]
61.78900, 1155.000
63.03800, 1426.000
64.28600, 1594.000
65.53500, 1889.000
66.78300, 2283.000
68.03100, 2912.000
69.27900, 3567.000
70.52600, 4464.252
71.77400, 5600.000
73.02100, 6773.000
74.26800, 8332.000
75.51500, 10111.00
76.76200, 12172.00
78.00800, 14409.00
79.25400, 16841.00
80.50000, 19949.00
81.74600, 23581.00
82.99200, 27685.00
84.23700, 30981.00
85.48300, 34012.00
86.72800, 37416.00
87.97300, 41028.00
89.21800, 44714.00
90.46200, 48311.00
91.70600, 51812.00
92.95100, 54645.00
94.19400, 57063.00
95.43800, 59090.00
96.68200, 61019.00
97.92500, 62460.00
99.16800, 63436.88
100.4110, 63840.47
101.6540, 64221.00
102.8970, 63433.00
104.1390, 62629.00
105.3810, 61756.00
106.6230, 60318.00
107.8650, 58602.00
109.1070, 56371.00
110.3480, 54276.00
111.5900, 52607.00
112.8310, 50906.00
114.0710, 49559.00
115.3120, 48343.00
116.5530, 46908.00
117.7930, 45710.00
119.0330, 44569.00
120.2730, 42650.00
121.5130, 41517.00
122.7520, 40522.00
123.9910, 38721.00
125.2310, 37443.00
126.4700, 36343.00
127.7080, 35437.00
128.9470, 34392.00
130.1850, 33828.00
131.4230, 33011.00
132.6610, 32123.00
133.8990, 31680.00
135.1370, 31153.00
136.3740, 30642.00
137.6120, 30322.00
138.8490, 29860.00
140.0850, 29540.00
141.3220, 28947.00
142.5580, 28401.00
143.7950, 28117.00
145.0310, 27727.00
146.2670, 27515.00
147.5020, 27156.00
148.7380, 26904.00
149.9730, 26597.00
151.2080, 26049.00
152.4430, 25919.00
153.6780, 26130.00
154.9130, 25745.00
156.1470, 25508.00
157.3810, 25512.00
158.6150, 25190.00
159.8490, 25407.00
161.0830, 25392.37
162.3160, 25620.00
163.5490, 25642.00
164.7820, 25739.00
166.0150, 25904.00
167.2480, 26092.00
168.4800, 26390.00
169.7120, 26538.00
170.9440, 26871.00
172.1760, 27131.00
173.4080, 27942.00
174.6400, 28650.00
175.8710, 30105.00
177.1020, 30409.00
178.3330, 31417.00
179.5640, 33089.00
180.7940, 35284.00
182.0250, 37950.00
183.2550, 41398.00
184.4850, 45494.00
185.7150, 50772.00
186.9440, 57313.00
188.1740, 63999.00
189.4030, 72673.00
190.6320, 81253.00
191.8610, 89898.00
193.0900, 98985.00
194.3180, 106564.0
195.5460, 111807.0
196.7740, 114277.0
198.0020, 111986.0
199.2300, 106048.0
200.4580, 97349.00
201.6850, 86286.00
202.9120, 75221.00
204.1390, 65298.00
205.3660, 56215.00
206.5930, 49784.00
207.8190, 44449.00
209.0450, 40073.00
210.2710, 37391.00
211.4970, 34832.00
212.7230, 32831.00
213.9480, 31109.00
215.1730, 30158.00
216.3990, 28951.00
217.6230, 28247.00
218.8480, 27501.00
220.0730, 26948.00
221.2970, 26407.07
222.5210, 25941.64
223.7450, 25606.00
224.9690, 25248.00
226.1930, 25100.00
227.4160, 24939.00
228.6390, 24818.00
229.8620, 24653.00
231.0850, 24606.00
232.3080, 24562.00
233.5300, 24557.00
234.7520, 24577.00
235.9750, 24544.00
237.1960, 24530.00
238.4180, 24172.00
239.6400, 24303.00
240.8610, 23924.00
242.0820, 23981.00
243.3030, 23989.00
244.5240, 23922.00
245.7450, 23734.00
246.9650, 23658.00
248.1850, 23673.00
249.4050, 23676.45
250.6250, 23756.60
251.8450, 23951.00
253.0640, 24152.00
254.2840, 24525.00
255.5030, 25101.00
256.7220, 25368.00
257.9400, 26171.00
259.1590, 26713.00
260.3770, 27748.00
261.5950, 29020.00
262.8130, 30368.00
264.0310, 31709.00
265.2490, 33938.00
266.4660, 36600.00
267.6830, 39837.00
268.9010, 43381.00
270.1170, 47796.00
271.3340, 52728.00
272.5510, 57679.00
273.7670, 63034.00
274.9830, 71280.00
276.1990, 75065.00
277.4150, 76333.00
278.6300, 77887.00
279.8460, 76317.00
281.0610, 73059.00
282.2760, 66992.00
283.4910, 61459.00
284.7050, 54441.00
285.9200, 48103.00
287.1340, 43643.00
288.3480, 39387.00
289.5620, 36868.00
290.7760, 34530.00
291.9890, 33177.00
293.2030, 31812.00
294.4160, 31202.00
295.6290, 30370.00
296.8420, 30354.00
298.0540, 30571.00
299.2670, 30872.00
300.4790, 31327.00
301.6910, 32480.00
302.9030, 33416.00
304.1150, 34926.00
305.3260, 36484.00
306.5380, 38527.00
307.7490, 40539.00
308.9600, 43269.00
310.1700, 46190.00
311.3810, 49179.00
312.5910, 52134.00
313.8020, 55126.00
315.0120, 57828.00
316.2220, 60744.00
317.4310, 63112.00
318.6410, 64913.00
319.8500, 66751.00
321.0590, 68011.00
322.2680, 68180.00
323.4770, 68380.00
324.6850, 67015.00
325.8940, 65345.00
327.1020, 63664.00
328.3100, 61845.00
329.5180, 56169.00
330.7260, 52460.00
331.9330, 49569.00
333.1400, 46326.00
334.3470, 43819.00
335.5540, 41210.00
336.7610, 39303.94
337.9680, 37972.00
339.1740, 36288.00
340.3800, 34949.00
341.5860, 33955.00
342.7920, 32822.00
343.9980, 32028.00
345.2030, 31567.00
346.4080, 30626.00
347.6130, 30234.00
348.8180, 29784.00
350.0230, 29691.00
351.2280, 29322.00
352.4320, 29045.00
353.6360, 29021.00
354.8400, 28865.00
356.0440, 28828.00
357.2480, 28683.00
358.4510, 28897.00
359.6540, 28965.00
360.8570, 29445.00
362.0600, 29610.29
363.2630, 29954.00
364.4660, 30259.00
365.6680, 30928.00
366.8700, 31469.00
368.0720, 31934.00
369.2740, 32525.00
370.4760, 32902.00
371.6770, 32812.00
372.8780, 32849.00
374.0790, 32088.00
375.2800, 31495.00
376.4810, 30889.00
377.6820, 30180.46
378.8820, 29475.00
380.0820, 28880.00
381.2820, 28352.00
382.4820, 27807.00
383.6820, 27562.00
384.8810, 27311.00
386.0800, 26972.00
387.2800, 26792.91
388.4780, 26621.00
389.6770, 26417.00
390.8760, 26354.00
392.0740, 26249.00
393.2720, 26053.00
394.4700, 25977.00
395.6680, 25809.00
396.8660, 25854.00
398.0630, 25604.00
399.2610, 25533.00
400.4580, 25337.00
401.6550, 25516.00
402.8510, 25218.00
404.0480, 25203.00
405.2440, 25112.00
406.4410, 24864.00
407.6370, 24777.00
408.8320, 24671.00
410.0280, 24532.00
411.2240, 24200.00
412.4190, 24226.00
413.6140, 23924.00
414.8090, 23857.00
416.0040, 23697.00
417.1980, 23745.00
418.3930, 23611.00
419.5870, 23625.94
420.7810, 23719.00
421.9750, 23653.00
423.1690, 23644.00
424.3620, 23659.00
425.5560, 23503.00
426.7490, 23713.00
427.9420, 23937.00
429.1340, 24269.00
430.3270, 23879.00
431.5200, 24465.00
432.7120, 23948.00
433.9040, 24489.00
435.0960, 24321.00
436.2880, 24509.00
437.4790, 24575.00
438.6700, 24663.00
439.8620, 24526.00
441.0530, 24771.00
442.2430, 24636.00
443.4340, 24683.00
444.6250, 24624.00
445.8150, 24622.00
447.0050, 24799.00
448.1950, 24650.00
449.3850, 24997.00
450.5740, 24847.00
451.7640, 25065.00
452.9530, 25089.00
454.1420, 25083.00
455.3310, 25059.00
456.5200, 25041.00
457.7080, 25037.96
458.8960, 25173.00
460.0850, 25052.00
461.2730, 25100.67
462.4600, 25160.00
463.6480, 25038.00
464.8350, 24955.00
466.0230, 24944.00
467.2100, 24818.00
468.3970, 24444.00
469.5830, 24070.00
470.7700, 23333.00
471.9560, 22737.00
473.1430, 22613.00
474.3290, 22079.00
475.5140, 21757.00
476.7000, 21646.00
477.8860, 21379.00
479.0710, 21504.00
480.2560, 21408.00
481.4410, 21502.00
482.6260, 21518.00
483.8100, 21720.00
484.9950, 22024.00
486.1790, 22141.00
487.3630, 22245.00
488.5470, 22429.00
489.7310, 22476.00
490.9140, 23097.00
492.0980, 23168.00
493.2810, 23464.00
494.4640, 23951.00
495.6470, 24226.00
496.8290, 24442.00
498.0120, 24495.00
499.1940, 24953.00
500.3760, 25150.00
501.5580, 25515.00
502.7400, 25648.00
503.9220, 26029.00
505.1030, 26206.00
506.2840, 26701.00
507.4660, 27354.00
508.6460, 27328.00
509.8270, 27928.00
511.0080, 28169.00
512.1880, 28099.00
513.3680, 28378.00
514.5480, 28027.00
515.7280, 27797.00
516.9080, 27404.00
518.0870, 26887.00
519.2670, 26550.00
520.4460, 26153.00
521.6250, 25640.00
522.8040, 25371.00
523.9820, 25043.00
525.1610, 24894.00
526.3390, 24600.00
527.5170, 24307.00
528.6950, 24264.00
529.8730, 24227.00
531.0500, 24011.00
532.2280, 23938.00
533.4050, 23887.00
534.5820, 23893.00
535.7590, 23840.00
536.9350, 23692.00
538.1120, 23635.00
539.2880, 23591.23
540.4640, 23563.96
541.6400, 23587.00
542.8160, 23592.00
543.9920, 23706.00
545.1670, 23738.49
546.3430, 23458.00
547.5180, 23735.00
548.6930, 23503.00
549.8680, 23419.00
551.0420, 23783.00
552.2170, 23956.00
553.3910, 23804.00
554.5650, 23744.00
555.7390, 23711.00
556.9130, 23977.00
558.0860, 23956.00
559.2590, 24059.00
560.4330, 23992.00
561.6060, 24016.00
562.7790, 24175.00
563.9510, 24132.00
565.1240, 24145.00
566.2960, 24075.00
567.4680, 24016.19
568.6400, 23831.00
569.8120, 23819.00
570.9840, 23733.00
572.1550, 23554.00
573.3270, 23530.00
574.4980, 23453.00
575.6690, 23324.79
576.8390, 23274.52
578.0100, 23148.00
579.1800, 23035.00
580.3510, 23036.00
581.5210, 22768.00
582.6910, 22629.00
583.8600, 22371.00
585.0300, 22433.00
586.1990, 22347.00
587.3690, 22255.00
588.5380, 22422.00
589.7060, 22128.00
590.8750, 22200.00
592.0440, 22208.00
593.2120, 22145.00
594.3800, 22167.00
595.5480, 22288.00
596.7160, 22407.00
597.8840, 22354.00
599.0510, 22583.00
600.2190, 22672.00
601.3860, 22578.00
602.5530, 22850.00
603.7200, 22885.00
604.8860, 23057.00
606.0530, 23299.00
607.2190, 23622.00
608.3850, 23734.00
609.5510, 24126.00
610.7170, 24357.00
611.8820, 24645.00
613.0480, 25089.00
614.2130, 25484.64
615.3780, 25914.00
616.5430, 26502.00
617.7080, 27026.00
618.8720, 27635.00
620.0370, 28315.00
621.2010, 28938.41
622.3650, 29700.09
623.5290, 30390.00
624.6930, 31277.00
625.8560, 32217.00
627.0200, 33078.00
628.1830, 33958.00
629.3460, 35026.00
630.5090, 36217.00
631.6710, 37200.00
632.8340, 38363.00
633.9960, 39326.00
635.1580, 40676.00
636.3200, 41265.00
637.4820, 42215.00
638.6440, 42786.00
639.8050, 43220.00
640.9670, 43981.00
642.1280, 44222.00
643.2890, 44197.00
644.4500, 44210.00
645.6100, 44246.00
646.7710, 44400.00
647.9310, 44846.00
649.0910, 45391.00
650.2510, 45498.00
651.4110, 46437.00
652.5700, 46582.00
653.7300, 47601.00
654.8890, 48344.00
656.0480, 49316.00
657.2070, 50697.00
658.3660, 51743.00
659.5250, 53252.00
660.6830, 54542.00
661.8410, 56511.00
662.9990, 58467.00
664.1570, 61101.00
665.3150, 63888.00
666.4730, 67193.00
667.6300, 70661.00
668.7870, 75958.00
669.9440, 80865.00
671.1010, 86714.00
672.2580, 93249.00
673.4140, 100714.0
674.5710, 110863.0
675.7270, 118888.0
676.8830, 128218.0
678.0390, 137910.0
679.1950, 146267.0
680.3500, 153192.0
681.5060, 158831.0
682.6610, 161617.0
683.8160, 161808.0
684.9710, 160370.0
686.1250, 155436.0
687.2800, 149147.0
688.4340, 141853.0
689.5880, 133650.0
690.7420, 124530.0
691.8960, 115550.0
693.0500, 106394.0
694.2030, 97870.00
695.3570, 89815.00
696.5100, 81730.00
697.6630, 74971.00
698.8160, 68710.00
699.9680, 63155.00
701.1210, 58220.00
702.2730, 54453.00
703.4250, 50985.00
704.5770, 48101.00
705.7290, 45828.00
706.8810, 43764.00
708.0320, 41955.00
709.1840, 40568.00
710.3350, 39283.00
711.4860, 38743.00
712.6370, 37714.00
713.7870, 37033.00
714.9380, 36195.00
716.0880, 35595.00
717.2380, 35215.00
718.3880, 34901.00
719.5380, 34646.00
720.6880, 34237.02
721.8370, 33721.00
722.9870, 33547.00
724.1360, 33340.00
725.2850, 33147.00
726.4340, 33057.00
727.5820, 32891.20
728.7310, 32835.20
729.8790, 32701.00
731.0270, 32739.00
732.1750, 32762.00
733.3230, 32708.00
734.4700, 32692.94
735.6180, 32675.66
736.7650, 32599.00
737.9120, 32660.00
739.0590, 32650.00
740.2060, 32712.00
741.3530, 32568.00
742.4990, 32543.71
743.6460, 32465.00
744.7920, 32437.00
745.9380, 32118.00
747.0830, 32191.00
748.2290, 31985.00
749.3750, 31636.00
750.5200, 31605.00
751.6650, 31461.93
752.8100, 31330.96
753.9550, 31257.00
755.0990, 31199.00
756.2440, 30858.00
757.3880, 30826.00
758.5320, 30407.00
759.6760, 30678.00
760.8200, 30573.00
761.9640, 30354.00
763.1070, 30327.00
764.2510, 30154.00
765.3940, 30173.48
766.5370, 30326.00
767.6790, 30249.00
768.8220, 30426.00
769.9650, 30486.00
771.1070, 30542.00
772.2490, 30737.00
773.3910, 30857.00
774.5330, 31345.00
775.6750, 31550.00
776.8160, 31862.00
777.9570, 32175.00
779.0980, 32433.00
780.2390, 32832.00
781.3800, 33208.00
782.5210, 33518.00
783.6610, 33445.00
784.8020, 33878.00
785.9420, 33642.00
787.0820, 33767.00
788.2220, 33855.00
789.3610, 33706.00
790.5010, 33789.00
791.6400, 33961.00
792.7790, 33918.00
793.9180, 33694.00
795.0570, 33633.00
796.1960, 33390.49
797.3340, 33343.00
798.4730, 32894.00
799.6110, 32694.00
800.7490, 32435.00
801.8870, 31970.00
803.0250, 31654.00
804.1620, 31029.00
805.2990, 30706.00
806.4370, 30537.00
807.5740, 30445.00
808.7110, 30154.76
809.8470, 29773.00
810.9840, 29656.00
812.1200, 29437.00
813.2560, 29087.00
814.3920, 29092.00
815.5280, 28920.00
816.6640, 28624.00
817.8000, 28703.00
818.9350, 28615.00
820.0700, 28255.00
821.2050, 28201.00
822.3400, 27765.00
823.4750, 28028.00
824.6100, 27609.00
825.7440, 27621.00
826.8780, 27412.00
828.0120, 27185.00
829.1460, 27032.00
830.2800, 27170.00
831.4140, 26788.00
832.5470, 26935.00
833.6800, 26784.00
834.8130, 26765.91
835.9460, 26874.00
837.0790, 26789.00
838.2120, 26852.00
839.3440, 26800.00
840.4760, 26808.00
841.6090, 26863.00
842.7410, 26793.00
843.8720, 26738.00
845.0040, 26689.00
846.1350, 26755.00
847.2670, 26685.00
848.3980, 26572.00
849.5290, 26585.00
850.6600, 26461.00
851.7900, 26494.00
852.9210, 26678.00
854.0510, 26546.00
855.1810, 26722.00
856.3110, 26685.00
857.4410, 26683.00
858.5710, 26604.00
859.7000, 26693.00
860.8300, 26862.00
861.9590, 26584.00
863.0880, 26713.00
864.2170, 26871.00
865.3460, 26675.00
866.4740, 26834.00
867.6030, 27062.00
868.7310, 26757.00
869.8590, 27020.00
870.9870, 26709.00
872.1140, 26838.00
873.2420, 26675.00
874.3690, 26864.00
875.4970, 26585.00
876.6240, 26941.00
877.7510, 27052.00
878.8770, 27047.00
880.0040, 26890.00
881.1310, 26873.00
882.2570, 26830.00
883.3830, 27063.00
884.5090, 27223.00
885.6350, 27313.00
886.7600, 27320.00
887.8860, 27121.00
889.0110, 27011.00
890.1360, 27234.00
891.2610, 27320.00
892.3860, 27322.00
893.5110, 27300.00
894.6350, 27353.00
895.7600, 27342.65
896.8840, 27362.46
898.0080, 27330.00
899.1320, 27448.00
900.2550, 27377.00
901.3790, 27522.00
902.5020, 27625.00
903.6260, 27369.00
904.7490, 27825.00
905.8720, 27506.00
906.9940, 27519.00
908.1170, 27406.00
909.2390, 27402.00
910.3620, 27342.00
911.4840, 27623.00
912.6060, 27614.00
913.7270, 27844.00
914.8490, 27788.00
915.9710, 27619.00
917.0920, 27635.00
918.2130, 27550.00
919.3340, 27791.00
920.4550, 27857.00
921.5750, 27811.00
922.6960, 27914.00
923.8160, 27816.00
924.9360, 27808.00
926.0560, 27967.00
927.1760, 28099.00
928.2960, 27866.00
929.4160, 27845.00
930.5350, 27845.00
931.6540, 27782.00
932.7730, 27877.00
933.8920, 27797.00
935.0110, 27763.00
936.1290, 27677.00
937.2480, 27799.00
938.3660, 27946.00
939.4840, 27678.00
940.6020, 27821.00
941.7200, 27676.00
942.8380, 27793.00
943.9550, 27666.00
945.0720, 27921.00
946.1900, 27761.00
947.3070, 28029.00
948.4230, 27893.00
949.5400, 27991.00
950.6570, 27957.00
951.7730, 28110.00
952.8890, 28062.00
954.0050, 27984.00
955.1210, 28233.00
956.2370, 28224.00
957.3520, 28132.00
958.4680, 28271.00
959.5830, 28198.00
960.6980, 28310.00
961.8130, 28198.00
962.9280, 28418.00
964.0420, 28568.00
965.1570, 28367.00
966.2710, 28580.00
967.3850, 28681.00
968.4990, 28697.00
969.6130, 28868.00
970.7270, 28929.00
971.8400, 28847.00
972.9540, 29075.00
974.0670, 28912.00
975.1800, 28819.00
976.2930, 29225.00
977.4050, 29461.00
978.5180, 29387.00
979.6300, 29360.00
980.7430, 29511.00
981.8550, 29831.00
982.9670, 29675.00
984.0780, 29987.00
985.1900, 30058.00
986.3010, 30129.00
987.4130, 30389.00
988.5240, 30558.00
989.6350, 30459.00
990.7460, 31055.00
991.8560, 31160.00
992.9670, 31313.00
994.0770, 31904.00
995.1870, 32828.00
996.2970, 33051.00
997.4070, 34123.00
998.5170, 34862.82
999.6270, 35704.00
1000.736, 36386.00
1001.845, 36788.00
1002.954, 36977.00
1004.063, 36450.00
1005.172, 35916.00
1006.281, 34633.00
1007.389, 34947.00
1008.497, 33639.00
1009.606, 33075.00
1010.714, 32740.00
1011.821, 32377.00
1012.929, 32164.00
1014.037, 32062.00
1015.144, 31991.00
1016.251, 31732.00
1017.358, 31578.00
1018.465, 31502.00
1019.572, 31742.00
1020.678, 32052.00
1021.785, 31896.00
1022.891, 32312.00
1023.997, 32530.00
1025.103, 33212.00
1026.209, 33926.00
1027.315, 34563.00
1028.420, 35424.00
1029.526, 36356.00
1030.631, 37266.00
1031.736, 38200.00
1032.841, 38650.00
1033.945, 39289.00
1035.050, 39004.00
1036.154, 39313.00
1037.259, 38592.00
1038.363, 38057.00
1039.467, 37224.00
1040.570, 36680.00
1041.674, 35978.00
1042.777, 35359.00
1043.881, 34919.00
1044.984, 34968.00
1046.087, 34408.00
1047.190, 34717.00
1048.292, 34378.00
1049.395, 34170.00
1050.497, 34373.00
1051.600, 34414.00
1052.702, 34460.00
1053.804, 34442.00
1054.905, 34439.00
1056.007, 34392.48
1057.108, 34470.00
1058.210, 34504.00
1059.311, 34725.00
1060.412, 34864.96
1061.513, 34845.00
1062.613, 35242.00
1063.714, 35501.00
1064.814, 35610.00
1065.914, 35853.00
1067.015, 35938.00
1068.114, 36280.00
1069.214, 36863.00
1070.314, 36967.00
1071.413, 37557.00
1072.512, 37884.00
1073.612, 37985.00
1074.711, 38422.00
1075.809, 39106.00
1076.908, 39790.00
1078.007, 40233.00
1079.105, 40686.00
1080.203, 41351.00
1081.301, 41961.00
1082.399, 42307.00
1083.497, 43097.79
1084.594, 44132.00
1085.692, 44485.00
1086.789, 45168.00
1087.886, 45843.00
1088.983, 46174.00
1090.080, 46253.00
1091.177, 46670.00
1092.273, 46960.00
1093.370, 47114.00
1094.466, 47471.00
1095.562, 47526.59
1096.658, 47617.00
1097.754, 47540.00
1098.849, 47494.00
1099.945, 47207.00
1101.040, 47199.00
1102.135, 46839.00
1103.230, 46302.00
1104.325, 45771.00
1105.419, 45144.00
1106.514, 44048.00
1107.608, 43684.00
1108.703, 42773.00
1109.797, 42462.00
1110.891, 40896.00
1111.984, 39648.00
1113.078, 38727.00
1114.171, 37617.00
1115.265, 37140.00
1116.358, 36121.00
1117.451, 35493.00
1118.544, 34935.00
1119.636, 34191.00
1120.729, 33611.00
1121.821, 33179.00
1122.913, 32602.00
1124.006, 32251.00
1125.097, 31918.00
1126.189, 31447.00
1127.281, 31429.00
1128.372, 31223.00
1129.464, 30744.29
1130.555, 31077.43
1131.646, 31244.28
1132.737, 31254.01
1133.827, 30622.81
1134.918, 30829.42
1136.008, 30706.50
1137.099, 30574.28
1138.189, 30911.51
1139.279, 30396.33
1140.368, 30735.06
1141.458, 30739.10
1142.548, 30902.77
1143.637, 30734.81
1144.726, 30675.07
1145.815, 30955.90
1146.904, 31055.03
1147.993, 30866.06
1149.081, 31066.10
1150.170, 30583.40
1151.258, 30708.10
1152.346, 31097.38
1153.434, 30947.36
1154.522, 31175.60
1155.610, 31265.88
1156.697, 30713.44
1157.784, 30731.00
1158.872, 30801.00
1159.959, 31104.00
1161.046, 30652.00
1162.132, 30887.00
1163.219, 30597.00
1164.305, 30998.00
1165.392, 30814.00
1166.478, 30642.00
1167.564, 30826.00
1168.650, 30997.00
1169.735, 30738.00
1170.821, 30951.00
1171.906, 30846.00
1172.992, 31058.00
1174.077, 31099.06
1175.162, 31048.29
1176.247, 31198.00
1177.331, 31093.00
1178.416, 31036.00
1179.500, 31331.00
1180.584, 31351.00
1181.668, 31297.00
1182.752, 31181.00
1183.836, 31321.00
1184.920, 31475.00
1186.003, 31523.00
1187.086, 31378.00
1188.169, 31662.00
1189.252, 31622.00
1190.335, 31620.00
1191.418, 31721.53
1192.500, 31860.00
1193.583, 31770.00
1194.665, 31763.00
1195.747, 31779.00
1196.829, 31411.00
1197.911, 31513.00
1198.993, 31560.00
1200.074, 31734.00
1201.155, 31737.00
1202.237, 31746.00
1203.318, 31757.27
1204.399, 31722.00
1205.479, 31371.02
1206.560, 31784.13
1207.640, 32026.49
1208.721, 32107.32
1209.801, 31542.73
1210.881, 31811.55
1211.961, 31746.38
1213.040, 31667.48
1214.120, 32053.60
1215.199, 31582.86
1216.279, 31961.60
1217.358, 32001.23
1218.437, 32196.05
1219.515, 32054.80
1220.594, 32017.37
1221.673, 32316.09
1222.751, 32428.66
1223.829, 32248.72
1224.907, 32453.39
1225.985, 31970.89
1227.063, 32091.39
1228.141, 32472.05
1229.218, 32308.99
1230.295, 32519.78
1231.372, 32588.19
1232.449, 32009.52
1233.526, 32556.18
1234.603, 32352.00
1235.680, 32905.00
1236.756, 32626.62
1237.832, 32683.00
1238.908, 32522.00
