##NAMES=Fluorapophyllite-(K)
##RRUFFID=R040095
##IDEAL CHEMISTRY=KCa_4_Si_8_O_20_F&#183;8H_2_O
##LOCALITY=unknown
##OWNER=RRUFF
##SOURCE=University of Arizona Mineral Museum
##DESCRIPTION=Colorless crystals
##STATUS=The identification of this mineral has been confirmed by X-ray diffraction and chemical analysis
##URL=rruff.info/R040095
##MEASURED CHEMISTRY=(K_0.90_Na_0.04_)Ca_3.96_Si_8.00_O_20_(F_0.82_(OH)_0.18_)Â·8H_2_O
##PIN_ID=L00450
##ORIENTATION=Laser parallel to -a* (-1 0 0). Fiducial mark perpendicular to laser is parallel to c [0 0 1]
79.42100, 13316.00
80.65400, 13926.00
81.88700, 14536.00
83.11900, 14710.00
84.35200, 14488.00
85.58400, 14436.00
86.81600, 14693.00
88.04900, 15313.00
89.28100, 16583.00
90.51200, 17983.00
91.74400, 20182.00
92.97600, 22674.00
94.20700, 26208.00
95.43800, 30556.00
96.66900, 36218.00
97.90100, 42752.00
99.13100, 52153.00
100.3620, 63755.00
101.5930, 79663.00
102.8230, 102888.0
104.0530, 133877.0
105.2840, 164136.0
106.5140, 178653.0
107.7440, 169152.0
108.9730, 139368.0
110.2030, 105495.0
111.4320, 76849.00
112.6620, 56755.00
113.8910, 43171.00
115.1200, 33906.00
116.3490, 27412.00
117.5780, 23314.00
118.8060, 21239.00
120.0350, 20537.00
121.2630, 19634.00
122.4920, 18815.00
123.7200, 17975.00
124.9480, 17118.00
126.1750, 16814.00
127.4030, 16218.00
128.6310, 16075.00
129.8580, 15682.00
131.0850, 15319.00
132.3120, 15208.00
133.5390, 15296.00
134.7660, 15433.00
135.9930, 15999.00
137.2200, 16638.00
138.4460, 17063.00
139.6720, 16940.00
140.8980, 16440.00
142.1240, 15729.00
143.3500, 15189.00
144.5760, 14884.00
145.8020, 14621.00
147.0270, 14796.00
148.2520, 15082.00
149.4780, 15545.00
150.7030, 16577.00
151.9270, 17851.00
153.1520, 19473.00
154.3770, 21294.00
155.6010, 24012.00
156.8260, 27374.00
158.0500, 31405.00
159.2740, 36387.00
160.4980, 43146.00
161.7210, 51269.00
162.9450, 60276.00
164.1690, 68751.00
165.3920, 73670.00
166.6150, 73742.00
167.8380, 68638.00
169.0610, 60312.00
170.2840, 51596.00
171.5070, 43499.00
172.7290, 36515.00
173.9510, 31333.00
175.1740, 27199.00
176.3960, 23707.00
177.6180, 21942.00
178.8390, 19880.00
180.0610, 18446.00
181.2830, 17685.00
182.5040, 17018.00
183.7250, 16746.00
184.9460, 16499.00
186.1670, 16744.00
187.3880, 16817.00
188.6090, 17151.00
189.8290, 17475.00
191.0500, 18276.00
192.2700, 18383.00
193.4900, 18599.00
194.7100, 18659.00
195.9300, 18309.00
197.1490, 17790.00
198.3690, 17092.00
199.5880, 16197.00
200.8080, 15376.00
202.0270, 14688.00
203.2460, 14163.00
204.4650, 13635.00
205.6830, 13057.00
206.9020, 12666.00
208.1200, 12227.00
209.3380, 12110.00
210.5570, 11800.00
211.7750, 11821.00
212.9920, 12034.00
214.2100, 12209.00
215.4280, 12344.00
216.6450, 12569.00
217.8620, 13139.00
219.0790, 13585.00
220.2960, 14376.00
221.5130, 15262.00
222.7300, 16292.00
223.9460, 17545.00
225.1630, 18762.00
226.3790, 19933.00
227.5950, 20789.00
228.8110, 21195.00
230.0270, 20982.00
231.2430, 20320.00
232.4580, 19206.00
233.6740, 17952.00
234.8890, 16406.00
236.1040, 15112.00
237.3190, 13999.00
238.5340, 13120.00
239.7490, 12312.67
240.9630, 11773.00
242.1780, 11251.00
243.3920, 10898.00
244.6060, 10779.00
245.8200, 10550.00
247.0340, 10206.00
248.2470, 10261.00
249.4610, 10158.00
250.6740, 10053.00
251.8880, 9916.000
253.1010, 9976.000
254.3140, 9953.000
255.5270, 9910.000
256.7390, 9865.000
257.9520, 9958.000
259.1640, 9880.000
260.3760, 9987.000
261.5880, 9896.000
262.8000, 9969.000
264.0120, 9850.000
265.2240, 9951.000
266.4350, 9784.000
267.6470, 9882.000
268.8580, 9983.000
270.0690, 9911.000
271.2800, 9801.000
272.4910, 9719.000
273.7020, 9556.000
274.9120, 9631.000
276.1230, 9525.000
277.3330, 9405.000
278.5430, 9409.000
279.7530, 9350.647
280.9630, 9331.497
282.1720, 9357.000
283.3820, 9351.000
284.5910, 9408.000
285.8000, 9481.000
287.0090, 9565.000
288.2180, 9656.000
289.4270, 9833.000
290.6360, 9819.000
291.8440, 9923.000
293.0530, 10204.00
294.2610, 10402.00
295.4690, 10452.00
296.6770, 10273.00
297.8850, 10657.00
299.0920, 10332.00
300.3000, 10627.00
301.5070, 10725.00
302.7140, 10625.00
303.9210, 10652.00
305.1280, 10665.00
306.3350, 10700.31
307.5420, 10929.00
308.7480, 10914.00
309.9540, 11040.00
311.1600, 11294.00
312.3660, 11319.00
313.5720, 11353.00
314.7780, 11527.00
315.9840, 11613.00
317.1890, 11533.00
318.3940, 11491.00
319.6000, 11577.00
320.8050, 11591.00
322.0090, 11616.00
323.2140, 11595.00
324.4190, 11496.00
325.6230, 11410.00
326.8270, 11299.00
328.0320, 11230.00
329.2360, 11143.00
330.4390, 11054.00
331.6430, 11105.00
332.8470, 11067.00
334.0500, 11159.00
335.2530, 11177.00
336.4560, 11294.00
337.6590, 11350.00
338.8620, 11223.00
340.0650, 11330.00
341.2670, 11203.00
342.4700, 11112.00
343.6720, 11188.00
344.8740, 11160.00
346.0760, 10979.00
347.2780, 11009.00
348.4790, 10827.00
349.6810, 10795.00
350.8820, 10873.00
352.0830, 10917.00
353.2840, 10922.00
354.4850, 10967.00
355.6860, 10981.77
356.8870, 10995.00
358.0870, 10998.00
359.2870, 11080.00
360.4880, 11052.00
361.6880, 11087.00
362.8870, 11253.00
364.0870, 11322.00
365.2870, 11402.00
366.4860, 11642.00
367.6850, 11835.00
368.8850, 11969.00
370.0840, 12080.00
371.2820, 12498.00
372.4810, 12500.00
373.6800, 12871.00
374.8780, 13217.00
376.0760, 13637.00
377.2740, 14204.00
378.4720, 14624.00
379.6700, 15260.00
380.8680, 16118.00
382.0650, 16903.00
383.2630, 17903.00
384.4600, 19180.00
385.6570, 20611.00
386.8540, 22156.00
388.0510, 23739.00
389.2470, 25508.00
390.4440, 27710.00
391.6400, 29941.00
392.8360, 31749.00
394.0320, 33591.00
395.2280, 35173.00
396.4240, 36306.00
397.6190, 37119.00
398.8150, 37228.00
400.0100, 37005.00
401.2050, 35930.00
402.4000, 34698.00
403.5950, 33001.00
404.7900, 31254.00
405.9840, 29559.00
407.1790, 27890.00
408.3730, 26246.00
409.5670, 24972.00
410.7610, 23817.00
411.9550, 22447.00
413.1480, 21468.00
414.3420, 20924.00
415.5350, 20368.00
416.7280, 20075.00
417.9220, 19984.00
419.1140, 20180.00
420.3070, 20613.00
421.5000, 21256.00
422.6920, 22089.00
423.8850, 23419.00
425.0770, 25127.00
426.2690, 27686.00
427.4610, 30200.00
428.6520, 32721.00
429.8440, 34679.00
431.0350, 34738.00
432.2260, 32651.00
433.4180, 29147.00
434.6090, 25579.00
435.7990, 22627.00
436.9900, 20281.00
438.1800, 18315.00
439.3710, 17247.00
440.5610, 16251.00
441.7510, 15424.00
442.9410, 14952.00
444.1310, 14646.00
445.3200, 14530.00
446.5100, 14278.00
447.6990, 14163.00
448.8880, 14081.00
450.0770, 14142.00
451.2660, 14123.00
452.4550, 14333.00
453.6430, 14529.00
454.8320, 14519.00
456.0200, 14804.00
457.2080, 15073.00
458.3960, 15370.00
459.5840, 15897.00
460.7720, 16339.00
461.9590, 16738.00
463.1460, 17455.00
464.3340, 18245.00
465.5210, 19073.00
466.7080, 20023.00
467.8940, 21766.00
469.0810, 23627.00
470.2670, 26232.00
471.4540, 29092.00
472.6400, 33245.00
473.8260, 38132.00
475.0120, 43940.00
476.1970, 51697.00
477.3830, 60670.00
478.5680, 71629.00
479.7540, 83777.00
480.9390, 95985.00
482.1240, 106631.0
483.3080, 111799.0
484.4930, 112732.0
485.6780, 101855.0
486.8620, 89700.00
488.0460, 76918.00
489.2300, 65641.00
490.4140, 55848.00
491.5980, 47654.00
492.7810, 41944.00
493.9650, 36945.00
495.1480, 33748.00
496.3310, 31013.00
497.5140, 28801.00
498.6970, 27604.00
499.8800, 26627.00
501.0620, 25841.00
502.2440, 25242.00
503.4270, 24860.00
504.6090, 24849.00
505.7910, 24422.00
506.9720, 24670.00
508.1540, 24734.00
509.3350, 25291.00
510.5170, 25570.00
511.6980, 25989.00
512.8790, 26851.00
514.0600, 27308.00
515.2400, 28650.00
516.4210, 29532.00
517.6010, 31205.00
518.7810, 32793.00
519.9620, 34416.00
521.1410, 36754.00
522.3210, 38931.00
523.5010, 41474.00
524.6800, 44624.00
525.8600, 48253.00
527.0390, 52032.00
528.2180, 56085.00
529.3970, 60350.00
530.5750, 64871.00
531.7540, 69758.00
532.9320, 73975.00
534.1110, 78354.00
535.2890, 81761.00
536.4670, 84334.00
537.6440, 86020.00
538.8220, 86803.00
540.0000, 86472.00
541.1770, 85504.00
542.3540, 84305.00
543.5310, 81609.00
544.7080, 79460.00
545.8850, 77567.00
547.0610, 75720.00
548.2380, 73632.00
549.4140, 72528.00
550.5900, 70923.00
551.7660, 69990.00
552.9420, 69322.00
554.1170, 69173.00
555.2930, 68688.00
556.4680, 69245.00
557.6430, 69668.00
558.8180, 70303.00
559.9930, 71814.00
561.1680, 73383.00
562.3430, 75621.00
563.5170, 78069.00
564.6910, 82014.00
565.8650, 86052.00
567.0390, 91280.00
568.2130, 97064.00
569.3870, 103554.0
570.5600, 111292.0
571.7340, 120128.0
572.9070, 131173.0
574.0800, 142486.0
575.2530, 154809.0
576.4250, 166434.0
577.5980, 178018.0
578.7700, 189498.0
579.9430, 198191.0
581.1150, 205488.0
582.2870, 206507.0
583.4590, 204514.0
584.6300, 196759.0
585.8020, 184949.0
586.9730, 170663.0
588.1440, 154582.0
589.3150, 138232.0
590.4860, 122221.0
591.6570, 107953.0
592.8270, 95063.00
593.9980, 84225.00
595.1680, 74466.00
596.3380, 66792.00
597.5080, 59498.00
598.6780, 54241.00
599.8480, 49096.00
601.0170, 45256.00
602.1860, 41846.00
603.3550, 38660.00
604.5240, 36108.00
605.6930, 33911.00
606.8620, 32150.00
608.0310, 30461.00
609.1990, 28973.00
610.3670, 27585.00
611.5350, 26417.67
612.7030, 25504.00
613.8710, 24525.00
615.0390, 23777.00
616.2060, 23181.00
617.3730, 22511.00
618.5410, 21822.00
619.7080, 21532.00
620.8740, 21150.00
622.0410, 20684.00
623.2080, 20303.00
624.3740, 20002.00
625.5400, 19690.00
626.7060, 19394.00
627.8720, 19115.00
629.0380, 18830.00
630.2040, 18534.57
631.3690, 18276.00
632.5340, 18013.00
633.6990, 17924.00
634.8640, 17823.00
636.0290, 17565.00
637.1940, 17467.00
638.3580, 17339.94
639.5230, 17189.41
640.6870, 17120.00
641.8510, 17007.00
643.0150, 16955.18
644.1790, 16876.00
645.3420, 16888.00
646.5060, 16906.00
647.6690, 16899.00
648.8320, 16874.00
649.9950, 16733.00
651.1580, 16773.00
652.3200, 16676.00
653.4830, 16881.00
654.6450, 16646.00
655.8070, 16531.00
656.9690, 16621.00
658.1310, 16251.00
659.2930, 16274.00
660.4540, 16075.00
661.6160, 15987.00
662.7770, 15805.00
663.9380, 15566.00
665.0990, 15324.00
666.2600, 14965.00
667.4200, 14792.00
668.5810, 14418.00
669.7410, 14307.00
670.9010, 14220.00
672.0610, 13752.00
673.2210, 13621.00
674.3810, 13475.00
675.5400, 13275.00
676.6990, 13015.00
677.8590, 13015.00
679.0180, 12856.00
680.1760, 12740.00
681.3350, 12816.00
682.4940, 12547.00
683.6520, 12621.00
684.8100, 12377.00
685.9680, 12409.00
687.1260, 12236.00
688.2840, 12158.00
689.4420, 12130.00
690.5990, 12103.00
691.7560, 12046.01
692.9140, 12070.00
694.0710, 11972.00
695.2270, 11972.00
696.3840, 11967.00
697.5410, 11780.00
698.6970, 11840.00
699.8530, 11827.00
701.0090, 11818.00
702.1650, 11921.00
703.3210, 11909.00
704.4760, 11740.00
705.6320, 11860.00
706.7870, 11756.00
707.9420, 11809.00
709.0970, 11796.00
710.2520, 11797.00
711.4060, 11803.50
712.5610, 11781.09
713.7150, 11765.00
714.8690, 11746.00
716.0230, 11677.00
717.1770, 11660.00
718.3310, 11670.40
719.4840, 11691.00
720.6380, 11722.00
721.7910, 11725.00
722.9440, 11761.00
724.0970, 11720.83
725.2490, 11706.26
726.4020, 11635.00
727.5540, 11635.00
728.7070, 11595.00
729.8590, 11570.00
731.0110, 11639.00
732.1620, 11456.00
733.3140, 11547.00
734.4650, 11490.00
735.6170, 11537.00
736.7680, 11510.00
737.9190, 11397.00
739.0700, 11453.00
740.2200, 11438.00
741.3710, 11518.00
742.5210, 11369.00
743.6710, 11389.00
744.8210, 11479.00
745.9710, 11409.00
747.1210, 11447.00
748.2700, 11398.00
749.4200, 11381.00
750.5690, 11339.00
751.7180, 11323.00
752.8670, 11308.00
754.0160, 11466.00
755.1640, 11364.00
756.3130, 11361.00
757.4610, 11274.00
758.6090, 11409.00
759.7570, 11294.00
760.9050, 11327.00
762.0530, 11288.00
763.2000, 11383.00
764.3470, 11410.00
765.4940, 11419.00
766.6410, 11453.44
767.7880, 11484.00
768.9350, 11468.00
770.0810, 11421.00
771.2280, 11429.00
772.3740, 11613.00
773.5200, 11679.00
774.6660, 11845.00
775.8120, 11978.00
776.9570, 11964.00
778.1030, 12088.00
779.2480, 12232.00
780.3930, 12369.00
781.5380, 12751.00
782.6830, 13018.00
783.8270, 13269.00
784.9720, 13829.00
786.1160, 14239.00
787.2600, 14503.00
788.4040, 15007.00
789.5480, 15325.00
790.6910, 15225.00
791.8350, 15377.00
792.9780, 15001.00
794.1210, 14593.00
795.2640, 14071.00
796.4070, 13853.00
797.5500, 13460.00
798.6920, 13098.00
799.8350, 12797.00
800.9770, 12499.00
802.1190, 12648.00
803.2610, 12577.00
804.4030, 12216.00
805.5440, 12310.00
806.6850, 12162.00
807.8270, 12097.00
808.9680, 12057.00
810.1090, 11976.15
811.2490, 12051.00
812.3900, 11922.00
813.5300, 11951.00
814.6710, 12011.00
815.8110, 11971.55
816.9510, 11980.00
818.0910, 11918.00
819.2300, 12113.00
820.3700, 11918.00
821.5090, 11892.00
822.6480, 12080.00
823.7870, 11976.00
824.9260, 12039.00
826.0640, 12128.00
827.2030, 12143.00
828.3410, 12211.00
829.4790, 12093.00
830.6170, 12161.00
831.7550, 12179.00
832.8930, 12143.00
834.0310, 12307.00
835.1680, 12257.00
836.3050, 12300.00
837.4420, 12306.00
838.5790, 12128.00
839.7160, 12391.00
840.8520, 12322.00
841.9890, 12456.00
843.1250, 12333.00
844.2610, 12324.00
845.3970, 12495.00
846.5330, 12450.00
847.6680, 12490.00
848.8040, 12659.00
849.9390, 12565.00
851.0740, 12730.00
852.2090, 12992.00
853.3440, 12756.00
854.4780, 12745.00
855.6130, 12630.00
856.7470, 12778.00
857.8810, 12872.00
859.0150, 12931.00
860.1490, 12878.00
861.2830, 12973.00
862.4160, 12831.00
863.5490, 12851.00
864.6830, 12986.00
865.8160, 12742.00
866.9480, 12690.00
868.0810, 12761.00
869.2140, 12649.00
870.3460, 12819.00
871.4780, 12703.00
872.6100, 12679.00
873.7420, 12594.00
874.8740, 12615.00
876.0050, 12808.00
877.1370, 12646.00
878.2680, 12711.00
879.3990, 12670.00
880.5300, 12618.00
881.6600, 12714.00
882.7910, 12792.00
883.9210, 12615.00
885.0520, 12674.00
886.1820, 12753.00
887.3120, 12846.00
888.4410, 12931.83
889.5710, 12951.00
890.7000, 13067.00
891.8300, 13095.00
892.9590, 13024.00
894.0880, 13058.00
895.2160, 12922.00
896.3450, 13114.00
897.4730, 13165.00
898.6020, 13230.00
899.7300, 13166.00
900.8580, 13267.00
901.9860, 13167.00
903.1130, 13184.00
904.2410, 13096.00
905.3680, 13119.57
906.4950, 13105.00
907.6220, 13181.00
908.7490, 13181.00
909.8760, 13236.00
911.0020, 13236.00
912.1280, 13111.00
913.2550, 13155.00
914.3810, 13155.00
915.5060, 12995.00
916.6320, 13230.00
917.7580, 13022.00
918.8830, 13135.00
920.0080, 13072.00
921.1330, 13066.00
922.2580, 13163.00
923.3830, 13008.00
924.5070, 13141.00
925.6310, 13235.00
926.7560, 13149.00
927.8800, 13188.00
929.0040, 13235.00
930.1270, 13061.00
931.2510, 13187.00
932.3740, 13153.00
933.4970, 13171.00
934.6200, 13198.00
935.7430, 13079.00
936.8660, 13275.00
937.9890, 13324.00
939.1110, 13184.00
940.2330, 13327.00
941.3550, 13266.00
942.4770, 13197.00
943.5990, 13192.00
944.7200, 13281.00
945.8420, 13436.00
946.9630, 13436.00
948.0840, 13519.00
949.2050, 13568.00
950.3260, 13673.00
951.4460, 13688.00
952.5670, 13733.90
953.6870, 13699.00
954.8070, 13759.00
955.9270, 13754.00
957.0470, 13716.00
958.1660, 13605.00
959.2860, 13654.00
960.4050, 13644.00
961.5240, 13589.00
962.6430, 13598.00
963.7620, 13753.00
964.8810, 13607.00
965.9990, 13533.00
967.1170, 13782.00
968.2350, 13735.00
969.3530, 13648.00
970.4710, 13775.00
971.5890, 13708.00
972.7060, 13637.00
973.8240, 13810.00
974.9410, 13748.00
976.0580, 13921.00
977.1740, 13928.00
978.2910, 13815.00
979.4080, 14126.00
980.5240, 13926.00
981.6400, 14113.00
982.7560, 14121.00
983.8720, 14162.00
984.9870, 14256.00
986.1030, 14346.00
987.2180, 14400.00
988.3330, 14414.00
989.4480, 14342.00
990.5630, 14391.00
991.6780, 14558.00
992.7920, 14331.00
993.9070, 14529.00
995.0210, 14605.00
996.1350, 14578.00
997.2490, 14551.00
998.3620, 14738.00
999.4760, 14866.00
1000.589, 15072.00
1001.702, 15273.00
1002.815, 15295.39
1003.928, 15350.12
1005.041, 15313.00
1006.153, 15316.00
1007.266, 15261.00
1008.378, 15304.00
1009.490, 15158.00
1010.602, 15112.00
1011.713, 15033.00
1012.825, 15077.00
1013.936, 15059.00
1015.047, 15071.83
1016.158, 15015.00
1017.269, 15111.00
1018.380, 15114.00
1019.490, 15100.00
1020.601, 15346.00
1021.711, 15462.00
1022.821, 15791.00
1023.931, 15861.00
1025.040, 16116.00
1026.150, 16349.00
1027.259, 16786.00
1028.368, 17148.00
1029.477, 17754.00
1030.586, 18026.00
1031.695, 18868.00
1032.803, 19445.00
1033.912, 20086.00
1035.020, 20947.00
1036.128, 21874.00
1037.236, 22610.00
1038.343, 23922.00
1039.451, 24984.00
1040.558, 26441.00
1041.665, 28197.00
1042.772, 30133.00
1043.879, 32816.00
1044.986, 35964.00
1046.093, 40245.00
1047.199, 45234.00
1048.305, 51580.00
1049.411, 59543.00
1050.517, 69860.00
1051.623, 82116.00
1052.728, 97946.00
1053.833, 117595.0
1054.939, 140624.0
1056.044, 166171.0
1057.148, 192798.0
1058.253, 214883.0
1059.358, 230105.0
1060.462, 232843.0
1061.566, 222801.0
1062.670, 203899.0
1063.774, 178704.0
1064.878, 154926.0
1065.981, 132663.0
1067.085, 113194.0
1068.188, 97680.00
1069.291, 84011.00
1070.394, 73519.00
1071.496, 65182.00
1072.599, 57737.00
1073.701, 51965.00
1074.803, 47464.00
1075.905, 42944.00
1077.007, 39950.00
1078.109, 37347.00
1079.210, 35027.00
1080.312, 32843.00
1081.413, 31490.00
1082.514, 30283.00
1083.615, 29301.00
1084.715, 28163.95
1085.816, 27141.00
1086.916, 26233.00
1088.016, 25576.00
1089.116, 24771.00
1090.216, 24387.00
1091.316, 23631.00
1092.415, 22996.00
1093.515, 22297.00
1094.614, 21742.01
1095.713, 21224.13
1096.812, 20741.00
1097.910, 20389.00
1099.009, 20022.00
1100.107, 19807.00
1101.205, 19447.00
1102.303, 19047.00
1103.401, 18775.00
1104.499, 18409.00
1105.596, 18517.00
1106.693, 18412.00
1107.791, 18113.00
1108.888, 18007.00
1109.984, 17875.75
1111.081, 17593.00
1112.177, 17695.00
1113.274, 17416.00
1114.370, 17366.00
1115.466, 17414.00
1116.562, 17179.00
1117.657, 17128.00
1118.753, 16870.00
1119.848, 16971.00
1120.943, 16750.00
1122.038, 16648.00
1123.133, 16599.00
1124.228, 16510.00
1125.322, 16425.00
1126.416, 16419.00
1127.510, 16465.00
1128.604, 16335.00
1129.698, 16287.00
1130.792, 16107.00
1131.885, 16180.00
1132.978, 16045.00
1134.071, 15985.00
1135.164, 16037.00
1136.257, 15936.00
1137.350, 15934.00
1138.442, 15854.00
1139.534, 15917.00
1140.627, 15996.00
1141.718, 15789.00
1142.810, 15829.00
1143.902, 15620.00
1144.993, 15691.00
1146.084, 15681.00
1147.176, 15597.00
1148.266, 15578.00
1149.357, 15511.00
1150.448, 15447.00
1151.538, 15633.00
1152.628, 15667.00
1153.718, 15691.00
1154.808, 15494.00
1155.898, 15609.00
1156.988, 15442.00
1158.077, 15412.00
1159.166, 15490.00
1160.255, 15398.00
1161.344, 15617.00
1162.433, 15461.00
1163.521, 15482.00
1164.610, 15556.00
1165.698, 15362.00
1166.786, 15586.00
1167.874, 15594.00
1168.961, 15404.00
1170.049, 15442.00
1171.136, 15404.00
1172.224, 15460.00
1173.311, 15528.00
1174.397, 15470.16
1175.484, 15331.00
1176.571, 15397.00
1177.657, 15302.00
1178.743, 15260.00
1179.829, 15295.00
1180.915, 15261.00
1182.001, 15315.00
1183.086, 15168.00
1184.171, 15187.00
1185.256, 15329.00
1186.341, 15284.00
1187.426, 15084.00
1188.511, 15239.00
1189.595, 15111.00
1190.680, 15283.00
1191.764, 15120.00
1192.848, 15047.00
1193.932, 14952.00
1195.015, 14966.00
1196.099, 14958.00
1197.182, 15001.00
1198.265, 14944.00
1199.348, 15052.00
1200.431, 15086.00
1201.513, 15061.00
1202.596, 15074.00
1203.678, 15199.00
1204.760, 15228.00
1205.842, 15100.00
1206.924, 15144.00
1208.005, 14998.00
1209.087, 15021.00
1210.168, 14915.00
1211.249, 15019.00
1212.330, 14975.00
1213.411, 14949.00
1214.491, 15118.00
1215.572, 15056.00
1216.652, 15061.00
1217.732, 15121.00
1218.812, 14939.00
1219.891, 15121.00
1220.971, 14983.00
1222.050, 14858.00
1223.129, 14962.00
1224.208, 14793.00
1225.287, 14864.00
1226.366, 15028.00
1227.444, 14865.00
1228.523, 14934.00
1229.601, 14955.00
1230.679, 15017.00
1231.757, 14847.00
1232.834, 14918.00
1233.912, 14919.00
1234.989, 15064.00
1236.066, 15110.00
1237.143, 15018.00
1238.220, 15030.00
1239.297, 15147.00
1240.373, 15057.00
1241.449, 15178.00
1242.526, 15071.00
1243.601, 15114.00
1244.677, 14999.00
1245.753, 15031.00
1246.828, 15148.00
1247.904, 14923.00
1248.979, 15027.00
1250.054, 15157.00
1251.128, 15142.00
1252.203, 15024.00
1253.277, 15032.00
1254.351, 15057.00
1255.426, 15031.29
1256.499, 15116.00
1257.573, 15080.00
1258.647, 15108.00
1259.720, 15159.00
1260.793, 15050.00
