##NAMES=Fluor-buergerite
##RRUFFID=R060132
##IDEAL CHEMISTRY=NaFe^3+^_3_Al_6_(Si_6_O_18_)(BO_3_)_3_O_3_F
##LOCALITY=20 km. south of San Luis Potasi, Mexico
##OWNER=RRUFF
##SOURCE=University of Arizona Mineral Museum
##DESCRIPTION=Brown short prismatic
##STATUS=The identification of this mineral has been confirmed by X-ray diffraction and chemical analysis
##URL=rruff.info/R060132
##MEASURED CHEMISTRY=(Na_0.87_Ca_0.03_[box]_0.10_)(Fe^3+^_0.82_Al_0.12_Mg_0.04_Ti_0.02_)_3_Al_6_(BO_3_)_3_(Si_0.98_Al_0.02_)_6_O_18_(O_0.66_F_0.19_(OH)_0.15_)_4_
##PIN_ID=L01714
##ORIENTATION=Laser parallel to a* (1 0 0). Fiducial mark perpendicular to laser is parallel to -c [0 0 -1]
120.5960, 6127.000
121.8270, 6290.000
123.0580, 6380.000
124.2880, 6412.000
125.5190, 6201.000
126.7490, 6140.000
127.9790, 6275.000
129.2090, 6477.000
130.4390, 6528.000
131.6680, 6475.000
132.8980, 6474.000
134.1270, 6485.000
135.3560, 6580.000
136.5850, 6616.000
137.8140, 6851.000
139.0430, 7024.000
140.2710, 7054.000
141.5000, 6910.000
142.7280, 6946.000
143.9560, 7050.000
145.1840, 7252.000
146.4120, 7330.000
147.6390, 7459.000
148.8670, 7411.000
150.0940, 7530.000
151.3210, 7762.000
152.5490, 7865.000
153.7750, 7637.000
155.0020, 7614.000
156.2290, 7394.000
157.4550, 7384.000
158.6810, 7284.000
159.9080, 7251.000
161.1340, 7434.000
162.3590, 7560.000
163.5850, 7698.000
164.8110, 7856.000
166.0360, 7974.000
167.2610, 8264.000
168.4860, 8134.000
169.7110, 8280.000
170.9360, 8596.000
172.1610, 8642.000
173.3850, 8627.000
174.6100, 8638.000
175.8340, 8657.000
177.0580, 8703.000
178.2820, 8776.000
179.5050, 8826.000
180.7290, 8816.000
181.9520, 8774.000
183.1760, 8873.000
184.3990, 8766.000
185.6220, 8834.000
186.8450, 8818.000
188.0670, 8792.000
189.2900, 8833.586
190.5120, 8731.000
191.7340, 8854.000
192.9560, 8867.000
194.1780, 8847.000
195.4000, 8922.000
196.6220, 8905.000
197.8430, 8906.000
199.0640, 8865.000
200.2860, 8980.000
201.5070, 9263.000
202.7270, 9307.000
203.9480, 8898.000
205.1690, 8401.000
206.3890, 7980.000
207.6090, 7815.000
208.8290, 7715.000
210.0490, 7735.000
211.2690, 7616.000
212.4890, 7548.000
213.7080, 7711.000
214.9280, 7695.000
216.1470, 7683.000
217.3660, 7553.000
218.5850, 7772.000
219.8030, 7601.000
221.0220, 7694.000
222.2400, 7641.000
223.4590, 7796.000
224.6770, 7614.000
225.8950, 7813.000
227.1120, 7773.000
228.3300, 7753.000
229.5480, 7887.000
230.7650, 7934.000
231.9820, 8125.000
233.1990, 8127.000
234.4160, 8310.000
235.6330, 8290.000
236.8490, 8342.000
238.0660, 8582.000
239.2820, 8710.000
240.4980, 8853.000
241.7140, 9013.000
242.9300, 9108.000
244.1460, 9411.000
245.3610, 9465.000
246.5770, 9728.000
247.7920, 9874.000
249.0070, 10145.00
250.2220, 10522.00
251.4370, 10822.00
252.6510, 11259.00
253.8660, 11447.00
255.0800, 11727.00
256.2940, 11906.00
257.5080, 12150.00
258.7220, 12317.00
259.9360, 12286.94
261.1490, 12542.00
262.3630, 12154.00
263.5760, 11995.00
264.7890, 11943.00
266.0020, 12160.00
267.2150, 12186.00
268.4270, 12241.00
269.6400, 12299.00
270.8520, 12327.00
272.0640, 12297.00
273.2760, 12523.00
274.4880, 12376.00
275.7000, 12459.00
276.9120, 12287.00
278.1230, 12030.00
279.3340, 11950.00
280.5450, 11859.00
281.7560, 11617.00
282.9670, 11560.00
284.1780, 11586.00
285.3880, 11406.00
286.5980, 11459.00
287.8090, 11313.00
289.0190, 11262.00
290.2290, 11210.00
291.4380, 11112.00
292.6480, 11130.00
293.8570, 11060.00
295.0670, 10954.00
296.2760, 11115.00
297.4850, 11040.00
298.6930, 11019.00
299.9020, 11200.00
301.1110, 11091.00
302.3190, 11138.00
303.5270, 11316.00
304.7350, 11198.00
305.9430, 11319.00
307.1510, 11356.00
308.3580, 11212.00
309.5660, 11435.00
310.7730, 11478.00
311.9800, 11728.00
313.1870, 11665.00
314.3940, 12038.00
315.6010, 12022.00
316.8070, 12210.00
318.0130, 12379.00
319.2200, 12608.00
320.4260, 12825.00
321.6310, 12968.09
322.8370, 13174.00
324.0430, 13258.00
325.2480, 13265.00
326.4540, 13386.00
327.6590, 13328.00
328.8640, 13396.00
330.0680, 13400.00
331.2730, 13121.00
332.4780, 12996.00
333.6820, 12920.00
334.8860, 13020.00
336.0900, 12831.00
337.2940, 12885.00
338.4980, 12910.00
339.7010, 12934.00
340.9050, 13009.00
342.1080, 13076.00
343.3110, 13274.00
344.5140, 13435.00
345.7170, 13629.00
346.9200, 13599.00
348.1220, 13790.00
349.3240, 14013.00
350.5270, 13998.00
351.7290, 14152.00
352.9310, 14184.00
354.1320, 14018.00
355.3340, 14063.00
356.5350, 13787.00
357.7370, 13848.00
358.9380, 13488.00
360.1390, 13397.00
361.3400, 13344.00
362.5400, 13145.00
363.7410, 13197.00
364.9410, 12902.00
366.1410, 12810.00
367.3410, 12668.00
368.5410, 12475.00
369.7410, 12405.00
370.9400, 12316.00
372.1400, 12317.00
373.3390, 12113.00
374.5380, 12082.00
375.7370, 11978.00
376.9360, 12049.00
378.1350, 11937.00
379.3330, 11857.00
380.5310, 12068.00
381.7300, 12201.00
382.9280, 12191.00
384.1260, 12492.00
385.3230, 12513.00
386.5210, 12878.00
387.7180, 12862.00
388.9160, 13150.00
390.1130, 13414.00
391.3100, 13629.00
392.5060, 13910.00
393.7030, 14162.00
394.9000, 14488.00
396.0960, 14592.00
397.2920, 14764.00
398.4880, 14832.00
399.6840, 14867.00
400.8800, 14848.00
402.0750, 14709.00
403.2710, 14549.00
404.4660, 14609.00
405.6610, 14587.00
406.8560, 14266.00
408.0510, 14010.00
409.2450, 13884.00
410.4400, 13594.00
411.6340, 13221.00
412.8280, 13007.00
414.0220, 12808.00
415.2160, 12600.00
416.4100, 12511.00
417.6030, 12093.00
418.7970, 12103.00
419.9900, 12041.00
421.1830, 11879.00
422.3760, 11975.00
423.5690, 11838.00
424.7610, 11933.00
425.9540, 11989.00
427.1460, 12182.00
428.3380, 12283.00
429.5300, 12247.00
430.7220, 12343.00
431.9140, 12608.00
433.1050, 12823.00
434.2970, 13008.00
435.4880, 13217.39
436.6790, 13362.00
437.8700, 13580.00
439.0610, 13844.00
440.2510, 14034.00
441.4420, 14372.00
442.6320, 14479.00
443.8220, 14648.00
445.0120, 14723.00
446.2020, 14707.00
447.3910, 14666.00
448.5810, 14648.00
449.7700, 14613.00
450.9600, 14542.00
452.1490, 14422.68
453.3370, 14267.00
454.5260, 14108.00
455.7150, 13961.00
456.9030, 13768.00
458.0910, 13667.23
459.2800, 13523.23
460.4670, 13461.00
461.6550, 13299.00
462.8430, 13212.00
464.0300, 13132.00
465.2180, 13044.00
466.4050, 12924.00
467.5920, 12860.00
468.7790, 12910.00
469.9650, 12791.00
471.1520, 12775.00
472.3380, 12712.27
473.5250, 12669.00
474.7110, 12566.00
475.8970, 12447.31
477.0820, 12283.00
478.2680, 12143.00
479.4540, 11952.65
480.6390, 11761.00
481.8240, 11568.00
483.0090, 11415.00
484.1940, 11197.00
485.3780, 11072.00
486.5630, 11000.00
487.7470, 10792.00
488.9320, 10776.00
490.1160, 10674.08
491.3000, 10564.00
492.4830, 10630.00
493.6670, 10361.00
494.8500, 10496.00
496.0340, 10516.00
497.2170, 10480.00
498.4000, 10690.00
499.5820, 10759.00
500.7650, 10809.00
501.9480, 10747.00
503.1300, 10872.00
504.3120, 10952.00
505.4940, 11372.00
506.6760, 11501.00
507.8580, 11804.00
509.0390, 11932.00
510.2210, 12273.00
511.4020, 12507.00
512.5830, 12956.00
513.7640, 13461.00
514.9450, 13614.97
516.1250, 13953.00
517.3060, 14091.00
518.4860, 14156.00
519.6660, 14506.00
520.8460, 14446.00
522.0260, 14609.00
523.2060, 14630.00
524.3850, 14667.00
525.5650, 14561.00
526.7440, 14525.00
527.9230, 14237.00
529.1020, 14099.00
530.2810, 14315.00
531.4590, 14058.00
532.6380, 14187.00
533.8160, 14069.00
534.9940, 14176.00
536.1720, 14027.00
537.3500, 14038.00
538.5270, 14063.00
539.7050, 14081.00
540.8820, 14204.00
542.0590, 14275.00
543.2360, 14359.00
544.4130, 14397.00
545.5900, 14311.00
546.7660, 14365.00
547.9430, 14489.00
549.1190, 14487.00
550.2950, 14579.00
551.4710, 14635.00
552.6470, 14612.00
553.8220, 14791.00
554.9980, 14630.00
556.1730, 14811.00
557.3480, 14823.00
558.5230, 14946.00
559.6980, 15060.00
560.8730, 15066.00
562.0470, 15194.00
563.2220, 15395.00
564.3960, 15467.00
565.5700, 15661.00
566.7440, 15944.00
567.9170, 16123.00
569.0910, 16300.00
570.2640, 16523.00
571.4380, 16817.00
572.6110, 17088.00
573.7840, 17471.00
574.9570, 17633.00
576.1290, 17939.00
577.3020, 18152.00
578.4740, 18527.00
579.6460, 18846.00
580.8180, 19220.00
581.9900, 19460.29
583.1620, 20044.00
584.3330, 20229.00
585.5040, 20547.00
586.6760, 21591.00
587.8470, 21822.00
589.0180, 22220.00
590.1880, 22611.00
591.3590, 23129.00
592.5290, 23870.00
593.7000, 24693.00
594.8700, 25352.30
596.0400, 26014.00
597.2090, 26835.00
598.3790, 27569.00
599.5490, 28256.00
600.7180, 29073.00
601.8870, 29811.00
603.0560, 30497.00
604.2250, 30999.00
605.3940, 31604.00
606.5620, 32023.00
607.7300, 32742.00
608.8990, 32971.00
610.0670, 33479.00
611.2350, 33620.00
612.4020, 33839.00
613.5700, 34358.00
614.7370, 34575.00
615.9050, 34927.00
617.0720, 35299.00
618.2390, 35900.00
619.4060, 36478.00
620.5720, 37098.00
621.7390, 38063.00
622.9050, 38715.00
624.0710, 39800.00
625.2370, 41148.00
626.4030, 42310.00
627.5690, 43622.00
628.7340, 45485.00
629.9000, 47158.00
631.0650, 49351.00
632.2300, 50628.00
633.3950, 52074.00
634.5600, 53330.00
635.7240, 53255.00
636.8890, 53138.00
638.0530, 52554.00
639.2170, 50750.00
640.3810, 49442.00
641.5450, 47624.00
642.7080, 46107.00
643.8720, 44895.00
645.0350, 42896.00
646.1980, 41004.00
647.3610, 39482.00
648.5240, 38128.00
649.6870, 36814.00
650.8490, 35675.00
652.0120, 34466.00
653.1740, 33434.00
654.3360, 32710.00
655.4980, 31492.00
656.6600, 31070.00
657.8210, 29909.43
658.9830, 29437.00
660.1440, 27835.00
661.3050, 26757.00
662.4660, 25656.00
663.6270, 24853.00
664.7870, 23963.00
665.9480, 22977.00
667.1080, 22191.00
668.2680, 21204.00
669.4280, 20630.00
670.5880, 19709.00
671.7480, 18857.00
672.9070, 18278.00
674.0670, 17263.00
675.2260, 16687.00
676.3850, 15660.00
677.5440, 15012.00
678.7030, 14363.00
679.8610, 13514.00
681.0200, 13185.00
682.1780, 12683.00
683.3360, 12097.00
684.4940, 11855.00
685.6520, 11578.00
686.8090, 11634.00
687.9670, 11409.00
689.1240, 11500.00
690.2810, 11539.00
691.4380, 11246.00
692.5950, 11340.00
693.7520, 11475.00
694.9080, 11360.00
696.0650, 11468.00
697.2210, 11559.00
698.3770, 11475.00
699.5330, 11681.00
700.6880, 11650.00
701.8440, 11800.00
702.9990, 11725.00
704.1550, 11677.00
705.3100, 11644.00
706.4650, 11578.00
707.6190, 11452.00
708.7740, 11380.00
709.9290, 11234.00
711.0830, 11083.00
712.2370, 11040.00
713.3910, 10977.00
714.5450, 10741.00
715.6980, 10541.00
716.8520, 10514.00
718.0050, 10365.00
719.1580, 10266.00
720.3110, 10071.00
721.4640, 9966.000
722.6170, 9882.000
723.7700, 9865.000
724.9220, 9906.000
726.0740, 9904.000
727.2260, 9824.000
728.3780, 9986.000
729.5300, 10128.00
730.6810, 10204.00
731.8330, 10154.00
732.9840, 10134.00
734.1350, 10236.00
735.2860, 10280.00
736.4370, 10257.00
737.5880, 10139.00
738.7380, 10092.00
739.8880, 10023.16
741.0390, 9936.000
742.1890, 9920.000
743.3380, 9902.000
744.4880, 9925.000
745.6380, 9921.000
746.7870, 9861.000
747.9360, 9978.000
749.0850, 9994.000
750.2340, 9998.000
751.3830, 10098.00
752.5310, 10019.00
753.6800, 10026.89
754.8280, 9961.000
755.9760, 9944.000
757.1240, 9896.000
758.2720, 9839.000
759.4190, 9393.000
760.5670, 9544.000
761.7140, 9267.000
762.8610, 9152.000
764.0080, 9148.000
765.1550, 8984.000
766.3020, 8950.000
767.4480, 8789.000
768.5950, 8834.000
769.7410, 8825.000
770.8870, 8889.000
772.0330, 8810.000
773.1780, 8716.000
774.3240, 8765.000
775.4690, 8651.000
776.6140, 8544.000
777.7590, 8573.000
778.9040, 8497.000
780.0490, 8338.000
781.1940, 8222.000
782.3380, 8209.000
783.4820, 7966.000
784.6260, 7932.000
785.7700, 7789.000
786.9140, 7718.000
788.0580, 7530.000
789.2010, 7464.000
790.3450, 7359.000
791.4880, 7281.000
792.6310, 7170.000
793.7730, 7264.000
794.9160, 7091.000
796.0590, 7113.000
797.2010, 7152.000
798.3430, 7074.000
799.4850, 7048.000
800.6270, 6852.000
801.7690, 6987.000
802.9100, 7040.000
804.0520, 6889.000
805.1930, 7035.000
806.3340, 6949.000
807.4750, 7093.000
808.6160, 6827.000
809.7560, 6830.000
810.8970, 6762.000
812.0370, 6736.000
813.1770, 6658.000
814.3170, 6667.000
815.4570, 6559.000
816.5960, 6477.000
817.7360, 6507.000
818.8750, 6401.000
820.0140, 6470.000
821.1530, 6381.000
822.2920, 6314.000
823.4310, 6289.000
824.5690, 6229.000
825.7070, 6281.000
826.8460, 6120.000
827.9840, 6207.000
829.1220, 6080.000
830.2590, 6062.000
831.3970, 6136.000
832.5340, 6095.000
833.6710, 6145.000
834.8080, 6009.000
835.9450, 6087.000
837.0820, 6044.000
838.2190, 5991.000
839.3550, 6037.000
840.4910, 6063.000
841.6270, 6121.000
842.7630, 6047.000
843.8990, 5957.000
845.0350, 6045.000
846.1700, 6007.000
847.3060, 6003.000
848.4410, 6016.000
849.5760, 6024.155
850.7100, 6071.000
851.8450, 6094.000
852.9800, 6009.000
854.1140, 6067.000
855.2480, 6104.000
856.3820, 5943.000
857.5160, 6016.000
858.6500, 6052.000
859.7830, 5986.000
860.9170, 5981.000
862.0500, 6007.000
863.1830, 5898.000
864.3160, 5867.000
865.4480, 6025.000
866.5810, 6093.000
867.7130, 6035.000
868.8460, 5972.000
869.9780, 5973.000
871.1100, 6038.000
872.2410, 6039.000
873.3730, 6041.000
874.5050, 6034.000
875.6360, 6034.301
876.7670, 6051.000
877.8980, 6028.000
879.0290, 6051.000
880.1590, 6049.000
881.2900, 6033.000
882.4200, 6120.000
883.5500, 6050.000
884.6800, 6022.000
885.8100, 5985.000
886.9400, 6136.000
888.0690, 6186.000
889.1990, 6183.000
890.3280, 6135.000
891.4570, 6117.000
892.5860, 6167.000
893.7140, 6296.000
894.8430, 6223.000
895.9710, 6261.000
897.1000, 6223.000
898.2280, 6244.059
899.3560, 6315.000
900.4830, 6296.000
901.6110, 6393.000
902.7380, 6417.000
903.8660, 6374.000
904.9930, 6545.000
906.1200, 6435.000
907.2460, 6542.000
908.3730, 6425.000
909.5000, 6559.000
910.6260, 6533.000
911.7520, 6563.000
912.8780, 6632.000
914.0040, 6603.000
915.1290, 6731.000
916.2550, 6727.000
917.3800, 6765.000
918.5050, 6914.000
919.6300, 6759.000
920.7550, 6875.000
921.8800, 6862.000
923.0040, 6885.000
924.1290, 6934.000
925.2530, 6977.221
926.3770, 7024.424
927.5010, 7112.000
928.6250, 7140.000
929.7480, 7204.000
930.8720, 7281.000
931.9950, 7260.000
933.1180, 7242.000
934.2410, 7309.000
935.3640, 7444.000
936.4860, 7422.000
937.6090, 7581.000
938.7310, 7541.000
939.8530, 7667.000
940.9750, 7653.000
942.0970, 7805.000
943.2180, 7863.000
944.3400, 7893.000
945.4610, 7981.000
946.5820, 7996.347
947.7030, 7992.000
948.8240, 8074.000
949.9450, 8119.000
951.0650, 8216.000
952.1860, 8193.000
953.3060, 8426.000
954.4260, 8457.000
955.5460, 8400.000
956.6650, 8541.000
957.7850, 8518.000
958.9040, 8554.000
960.0230, 8659.000
961.1420, 8685.000
962.2610, 8662.000
963.3800, 8708.000
964.4990, 8715.000
965.6170, 8736.000
966.7350, 8928.000
967.8530, 8883.000
968.9710, 9021.000
970.0890, 9170.000
971.2070, 9041.000
972.3240, 9052.000
973.4410, 9022.000
974.5580, 9083.000
975.6750, 8990.000
976.7920, 9069.000
977.9090, 9118.000
979.0250, 9039.000
980.1410, 9048.000
981.2580, 9168.000
982.3740, 9042.000
983.4890, 9149.000
984.6050, 9215.000
985.7200, 9291.000
986.8360, 9189.000
987.9510, 9122.000
989.0660, 9157.000
990.1810, 9270.000
991.2950, 9258.000
992.4100, 9166.000
993.5240, 9366.000
994.6390, 9170.000
995.7530, 9373.000
996.8660, 9403.000
997.9800, 9283.000
999.0940, 9439.000
1000.207, 9368.000
1001.320, 9445.000
1002.433, 9612.000
1003.546, 9389.000
1004.659, 9343.000
1005.772, 9525.000
1006.884, 9555.000
1007.996, 9489.000
1009.108, 9497.000
1010.220, 9430.000
1011.332, 9541.000
1012.444, 9506.000
1013.555, 9527.000
1014.666, 9574.000
1015.777, 9507.422
1016.888, 9572.000
1017.999, 9383.000
1019.110, 9336.000
1020.220, 9219.000
1021.331, 9229.000
1022.441, 9239.000
1023.551, 9174.000
1024.661, 8995.000
1025.770, 8935.000
1026.880, 8916.000
1027.989, 8874.000
1029.098, 8770.000
1030.207, 8655.000
1031.316, 8785.000
1032.425, 8637.000
1033.533, 8613.000
1034.642, 8714.000
1035.750, 8582.000
1036.858, 8506.000
1037.966, 8623.000
1039.073, 8530.000
1040.181, 8695.000
1041.288, 8588.000
1042.396, 8585.000
1043.503, 8617.000
1044.610, 8723.000
1045.716, 8837.000
1046.823, 8791.000
1047.929, 8984.000
1049.036, 8959.000
1050.142, 9152.000
1051.248, 9278.000
1052.353, 9254.000
1053.459, 9268.000
1054.564, 9455.000
1055.670, 9491.000
1056.775, 9494.000
1057.880, 9507.511
1058.985, 9383.000
1060.089, 9408.000
1061.194, 9293.000
1062.298, 9247.000
1063.402, 9101.000
1064.506, 8955.000
1065.610, 8790.000
1066.713, 8725.000
1067.817, 8615.000
1068.920, 8449.000
1070.023, 8368.000
1071.126, 8221.000
1072.229, 8231.000
1073.332, 8107.571
1074.435, 7923.000
1075.537, 7914.000
1076.639, 7791.124
1077.741, 7809.000
1078.843, 7696.000
1079.945, 7678.000
1081.046, 7733.000
1082.148, 7640.000
1083.249, 7495.000
1084.350, 7505.000
1085.451, 7520.000
1086.551, 7474.000
1087.652, 7446.000
1088.752, 7360.000
1089.853, 7356.000
1090.953, 7244.000
1092.053, 7299.000
1093.152, 7349.000
1094.252, 7221.000
1095.351, 7295.000
1096.451, 7251.000
1097.550, 7322.000
1098.649, 7209.000
1099.748, 7245.000
1100.846, 7282.000
1101.945, 7358.000
1103.043, 7329.000
1104.141, 7371.000
1105.239, 7443.000
1106.337, 7368.000
1107.434, 7404.000
1108.532, 7482.000
1109.629, 7503.000
1110.726, 7409.000
1111.823, 7436.000
1112.920, 7307.000
1114.017, 7452.000
1115.113, 7353.000
1116.210, 7332.000
1117.306, 7281.000
1118.402, 7270.000
1119.498, 7067.000
1120.593, 7029.000
1121.689, 6977.000
1122.784, 7011.000
1123.879, 6916.000
1124.974, 6817.000
1126.069, 6753.000
1127.164, 6673.000
1128.259, 6713.000
1129.353, 6664.000
1130.447, 6665.000
1131.541, 6534.000
1132.635, 6437.000
1133.729, 6444.000
1134.822, 6398.000
1135.916, 6461.000
1137.009, 6270.000
1138.102, 6297.000
1139.195, 6350.000
1140.288, 6277.000
1141.380, 6301.000
1142.473, 6280.000
1143.565, 6242.000
1144.657, 6195.448
1145.749, 6194.083
1146.841, 6100.000
1147.932, 6156.000
1149.024, 6219.000
1150.115, 6148.000
1151.206, 6042.000
1152.297, 6157.000
1153.388, 6152.000
1154.479, 6121.000
1155.569, 6196.000
1156.659, 6073.000
1157.750, 6135.000
1158.839, 6070.000
1159.929, 6146.000
1161.019, 6080.762
1162.108, 6098.374
1163.198, 5975.000
1164.287, 6121.000
1165.376, 6096.000
1166.465, 6132.000
1167.553, 6042.000
1168.642, 6069.000
1169.730, 6080.000
1170.818, 6055.000
1171.906, 6167.000
1172.994, 6115.000
1174.082, 6133.000
1175.170, 6131.000
1176.257, 6116.962
1177.344, 6117.000
1178.431, 6112.000
1179.518, 6132.000
1180.605, 6130.000
1181.691, 6125.306
1182.778, 6120.105
1183.864, 6115.000
1184.950, 6126.000
1186.036, 6133.000
1187.122, 6210.000
1188.207, 6095.000
1189.292, 6210.000
1190.378, 6085.000
1191.463, 6117.000
1192.548, 6088.000
1193.632, 6186.000
1194.717, 6236.000
1195.801, 6210.000
1196.886, 6210.000
1197.970, 6203.000
1199.054, 6191.000
1200.137, 6253.000
1201.221, 6252.000
1202.305, 6242.000
1203.388, 6281.000
1204.471, 6256.501
1205.554, 6359.000
1206.637, 6231.000
1207.719, 6343.000
1208.802, 6334.000
1209.884, 6380.000
1210.966, 6389.000
1212.048, 6384.000
1213.130, 6379.000
1214.212, 6425.509
1215.293, 6495.000
1216.374, 6497.000
1217.456, 6620.000
1218.536, 6608.000
1219.617, 6629.000
1220.698, 6627.000
1221.778, 6726.000
1222.859, 6765.000
1223.939, 6876.000
1225.019, 6904.000
1226.099, 6993.000
1227.178, 7000.000
1228.258, 7159.000
1229.337, 7124.000
1230.417, 7341.000
1231.496, 7211.000
1232.574, 7405.000
1233.653, 7581.000
1234.732, 7684.000
1235.810, 7788.000
1236.888, 7923.000
1237.966, 7963.000
1239.044, 8123.000
1240.122, 8170.000
1241.199, 8249.000
1242.277, 8299.000
1243.354, 8315.000
1244.431, 8485.000
1245.508, 8372.000
1246.585, 8507.000
1247.661, 8642.000
1248.738, 8673.000
1249.814, 8640.000
1250.890, 8753.000
1251.966, 8715.000
1253.042, 8908.000
1254.117, 8867.000
1255.193, 8981.000
1256.268, 9004.000
1257.343, 9127.000
1258.418, 9202.000
1259.493, 9243.000
1260.567, 9203.000
1261.642, 9206.000
1262.716, 9289.000
1263.790, 9366.000
1264.864, 9294.000
1265.938, 9282.000
1267.011, 9338.000
1268.085, 9297.589
1269.158, 9209.000
1270.231, 9284.000
1271.304, 9165.000
1272.377, 9114.000
1273.450, 9088.000
1274.522, 9289.000
1275.594, 9308.000
1276.666, 9318.000
1277.738, 9280.000
1278.810, 9619.000
1279.882, 9435.000
1280.953, 9585.000
1282.025, 9799.000
1283.096, 9720.000
1284.167, 9898.000
1285.238, 9892.000
1286.308, 9963.000
1287.379, 9988.000
1288.449, 9936.000
1289.519, 9878.000
1290.589, 9856.000
