##NAMES=Fluorapatite
##RRUFFID=R060070
##IDEAL CHEMISTRY=Ca_5_(PO_4_)_3_F
##LOCALITY=Panasqueira, Portugal
##OWNER=RRUFF
##SOURCE=Dave Bunk
##DESCRIPTION=Green hexagonal tablet
##STATUS=The identification of this mineral has been confirmed by X-ray diffraction and chemical analysis
##URL=rruff.info/R060070
##MEASURED CHEMISTRY=(Ca_0.99_Mn_0.01_)_5_(P_1.00_O_4_)_3_F_1.00_
##PIN_ID=L01870
##ORIENTATION=Laser parallel to -c* (0 0 -1). Fiducial mark perpendicular to laser is parallel to -a [-1 0 0]
202.7270, 5142.000
203.9480, 5242.000
205.1690, 5285.000
206.3890, 5272.000
207.6090, 5291.000
208.8290, 5267.000
210.0490, 5282.000
211.2690, 5250.000
212.4890, 5292.000
213.7080, 5388.000
214.9280, 5380.000
216.1470, 5397.000
217.3660, 5449.000
218.5850, 5460.000
219.8030, 5452.000
221.0220, 5417.000
222.2400, 5516.000
223.4590, 5490.000
224.6770, 5522.000
225.8950, 5640.000
227.1120, 5538.000
228.3300, 5515.000
229.5480, 5533.000
230.7650, 5539.000
231.9820, 5535.000
233.1990, 5677.000
234.4160, 5650.000
235.6330, 5641.000
236.8490, 5690.000
238.0660, 5649.000
239.2820, 5746.000
240.4980, 5713.000
241.7140, 5800.000
242.9300, 5860.000
244.1460, 5854.000
245.3610, 5774.000
246.5770, 5823.000
247.7920, 5783.000
249.0070, 5857.000
250.2220, 5953.000
251.4370, 5956.000
252.6510, 5926.000
253.8660, 5994.000
255.0800, 5967.000
256.2940, 6042.000
257.5080, 6054.000
258.7220, 6099.000
259.9360, 6126.721
261.1490, 6092.000
262.3630, 6149.000
263.5760, 6179.000
264.7890, 6149.000
266.0020, 6187.000
267.2150, 6151.000
268.4270, 6252.000
269.6400, 6306.000
270.8520, 6251.000
272.0640, 6198.000
273.2760, 6343.000
274.4880, 6286.000
275.7000, 6289.000
276.9120, 6358.000
278.1230, 6409.000
279.3340, 6421.538
280.5450, 6461.000
281.7560, 6455.000
282.9670, 6445.000
284.1780, 6442.000
285.3880, 6525.000
286.5980, 6532.000
287.8090, 6558.937
289.0190, 6658.000
290.2290, 6575.000
291.4380, 6594.000
292.6480, 6549.000
293.8570, 6591.000
295.0670, 6595.000
296.2760, 6681.000
297.4850, 6750.000
298.6930, 6749.000
299.9020, 6683.000
301.1110, 6756.000
302.3190, 6773.000
303.5270, 6768.947
304.7350, 6817.000
305.9430, 6831.000
307.1510, 6910.000
308.3580, 7029.000
309.5660, 6997.000
310.7730, 6998.000
311.9800, 7022.000
313.1870, 6982.000
314.3940, 7193.000
315.6010, 7070.000
316.8070, 7026.000
318.0130, 7162.000
319.2200, 7055.000
320.4260, 7100.000
321.6310, 7266.000
322.8370, 7245.000
324.0430, 7253.000
325.2480, 7216.000
326.4540, 7225.000
327.6590, 7271.000
328.8640, 7196.000
330.0680, 7243.000
331.2730, 7292.000
332.4780, 7357.000
333.6820, 7417.000
334.8860, 7452.000
336.0900, 7423.000
337.2940, 7407.000
338.4980, 7518.000
339.7010, 7493.000
340.9050, 7532.000
342.1080, 7523.000
343.3110, 7558.000
344.5140, 7668.000
345.7170, 7715.000
346.9200, 7635.000
348.1220, 7793.000
349.3240, 7726.000
350.5270, 7782.000
351.7290, 7902.000
352.9310, 7814.000
354.1320, 7886.000
355.3340, 7834.000
356.5350, 7858.000
357.7370, 7964.000
358.9380, 7954.000
360.1390, 8002.000
361.3400, 7919.000
362.5400, 7959.000
363.7410, 7964.000
364.9410, 8037.000
366.1410, 8101.000
367.3410, 8037.000
368.5410, 8116.000
369.7410, 8208.000
370.9400, 8049.000
372.1400, 8263.000
373.3390, 8296.000
374.5380, 8277.000
375.7370, 8169.000
376.9360, 8139.000
378.1350, 8271.000
379.3330, 8366.000
380.5310, 8372.000
381.7300, 8472.000
382.9280, 8303.000
384.1260, 8356.000
385.3230, 8411.000
386.5210, 8528.000
387.7180, 8419.000
388.9160, 8622.000
390.1130, 8481.000
391.3100, 8624.000
392.5060, 8613.000
393.7030, 8598.000
394.9000, 8747.000
396.0960, 8767.000
397.2920, 8756.000
398.4880, 8797.000
399.6840, 8821.000
400.8800, 8843.000
402.0750, 8874.000
403.2710, 8936.000
404.4660, 8940.443
405.6610, 8960.877
406.8560, 8981.000
408.0510, 8967.000
409.2450, 9005.000
410.4400, 9006.000
411.6340, 9014.000
412.8280, 9048.000
414.0220, 9146.000
415.2160, 9107.000
416.4100, 9158.000
417.6030, 9277.000
418.7970, 9247.000
419.9900, 9353.000
421.1830, 9326.000
422.3760, 9287.000
423.5690, 9317.000
424.7610, 9331.000
425.9540, 9333.000
427.1460, 9336.000
428.3380, 9421.000
429.5300, 9627.000
430.7220, 9411.000
431.9140, 9655.000
433.1050, 9552.000
434.2970, 9582.000
435.4880, 9553.000
436.6790, 9679.000
437.8700, 9686.000
439.0610, 9779.000
440.2510, 9777.000
441.4420, 9840.000
442.6320, 9855.000
443.8220, 10003.00
445.0120, 9988.000
446.2020, 10030.00
447.3910, 9964.000
448.5810, 10130.00
449.7700, 10070.00
450.9600, 10003.00
452.1490, 10123.00
453.3370, 10134.00
454.5260, 10003.00
455.7150, 10217.00
456.9030, 10241.00
458.0910, 10292.00
459.2800, 10231.00
460.4670, 10277.00
461.6550, 10340.00
462.8430, 10482.00
464.0300, 10485.00
465.2180, 10439.00
466.4050, 10404.00
467.5920, 10385.00
468.7790, 10409.00
469.9650, 10515.00
471.1520, 10453.00
472.3380, 10576.00
473.5250, 10595.00
474.7110, 10609.00
475.8970, 10706.00
477.0820, 10600.00
478.2680, 10786.00
479.4540, 10884.00
480.6390, 10673.00
481.8240, 10850.00
483.0090, 10766.00
484.1940, 11036.00
485.3780, 10896.00
486.5630, 11011.00
487.7470, 11065.00
488.9320, 11096.00
490.1160, 11103.00
491.3000, 11057.00
492.4830, 11081.00
493.6670, 11140.00
494.8500, 10975.00
496.0340, 11326.00
497.2170, 11289.00
498.4000, 11210.00
499.5820, 11385.00
500.7650, 11358.00
501.9480, 11372.00
503.1300, 11269.00
504.3120, 11348.00
505.4940, 11496.00
506.6760, 11532.00
507.8580, 11574.00
509.0390, 11610.00
510.2210, 11632.00
511.4020, 11685.00
512.5830, 11655.00
513.7640, 11691.00
514.9450, 11769.00
516.1250, 11707.00
517.3060, 11794.00
518.4860, 11745.00
519.6660, 11921.00
520.8460, 11924.00
522.0260, 11952.00
523.2060, 11985.00
524.3850, 12029.00
525.5650, 12075.00
526.7440, 12157.00
527.9230, 12135.00
529.1020, 12162.00
530.2810, 12286.00
531.4590, 12196.00
532.6380, 12228.00
533.8160, 12228.00
534.9940, 12315.00
536.1720, 12338.00
537.3500, 12461.00
538.5270, 12457.00
539.7050, 12542.00
540.8820, 12494.00
542.0590, 12505.00
543.2360, 12528.00
544.4130, 12666.00
545.5900, 12600.00
546.7660, 12755.00
547.9430, 12808.00
549.1190, 12728.00
550.2950, 12836.00
551.4710, 12732.00
552.6470, 12932.00
553.8220, 12834.00
554.9980, 12823.00
556.1730, 12861.00
557.3480, 13115.00
558.5230, 13030.00
559.6980, 13076.00
560.8730, 13219.00
562.0470, 13146.00
563.2220, 13183.00
564.3960, 13153.00
565.5700, 13075.00
566.7440, 13178.92
567.9170, 13404.00
569.0910, 13328.00
570.2640, 13458.00
571.4380, 13510.00
572.6110, 13669.00
573.7840, 13654.00
574.9570, 13549.00
576.1290, 13648.00
577.3020, 13645.00
578.4740, 13625.00
579.6460, 13767.00
580.8180, 13808.00
581.9900, 13946.00
583.1620, 14051.00
584.3330, 13950.00
585.5040, 13919.00
586.6760, 14156.00
587.8470, 13993.00
589.0180, 14057.00
590.1880, 13989.00
591.3590, 14017.00
592.5290, 14105.00
593.7000, 14212.00
594.8700, 14089.00
596.0400, 14272.00
597.2090, 14356.00
598.3790, 14127.00
599.5490, 14456.00
600.7180, 14379.00
601.8870, 14653.00
603.0560, 14445.00
604.2250, 14492.00
605.3940, 14824.00
606.5620, 14525.00
607.7300, 14681.00
608.8990, 14832.00
610.0670, 14722.00
611.2350, 14843.00
612.4020, 14971.00
613.5700, 14776.00
614.7370, 15057.00
615.9050, 14970.00
617.0720, 15033.00
618.2390, 15021.00
619.4060, 15022.00
620.5720, 15121.00
621.7390, 15190.00
622.9050, 15202.00
624.0710, 15234.00
625.2370, 15326.47
626.4030, 15373.00
627.5690, 15458.00
628.7340, 15556.00
629.9000, 15514.00
631.0650, 15438.00
632.2300, 15423.00
633.3950, 15552.00
634.5600, 15702.00
635.7240, 15708.00
636.8890, 15630.00
638.0530, 15812.00
639.2170, 15819.00
640.3810, 15860.00
641.5450, 15925.00
642.7080, 15955.00
643.8720, 16020.50
645.0350, 16059.00
646.1980, 16153.00
647.3610, 16173.00
648.5240, 16259.90
649.6870, 16260.00
650.8490, 16244.00
652.0120, 16236.00
653.1740, 16227.00
654.3360, 16274.00
655.4980, 16377.00
656.6600, 16395.77
657.8210, 16490.00
658.9830, 16465.00
660.1440, 16602.00
661.3050, 16558.00
662.4660, 16746.00
663.6270, 16620.00
664.7870, 16669.00
665.9480, 16764.00
667.1080, 16922.00
668.2680, 16830.00
669.4280, 16852.00
670.5880, 17028.00
671.7480, 17086.00
672.9070, 17131.00
674.0670, 17196.70
675.2260, 17222.44
676.3850, 17238.00
677.5440, 17289.00
678.7030, 17304.00
679.8610, 17364.76
681.0200, 17394.54
682.1780, 17412.00
683.3360, 17462.00
684.4940, 17457.00
685.6520, 17475.00
686.8090, 17501.00
687.9670, 17393.00
689.1240, 17769.00
690.2810, 17703.00
691.4380, 17727.00
692.5950, 17692.00
693.7520, 18053.00
694.9080, 17784.00
696.0650, 17878.00
697.2210, 18102.00
698.3770, 17940.00
699.5330, 18004.00
700.6880, 18039.00
701.8440, 18169.00
702.9990, 18259.00
704.1550, 18178.00
705.3100, 18316.00
706.4650, 18511.00
707.6190, 18368.00
708.7740, 18311.00
709.9290, 18556.00
711.0830, 18479.00
712.2370, 18718.00
713.3910, 18751.00
714.5450, 18647.00
715.6980, 18695.00
716.8520, 18703.86
718.0050, 18804.00
719.1580, 18815.00
720.3110, 18836.00
721.4640, 18984.00
722.6170, 18993.00
723.7700, 19227.00
724.9220, 19090.00
726.0740, 19047.00
727.2260, 19360.00
728.3780, 19288.00
729.5300, 19288.00
730.6810, 19389.00
731.8330, 19441.00
732.9840, 19372.00
734.1350, 19533.00
735.2860, 19478.00
736.4370, 19627.00
737.5880, 19745.00
738.7380, 19756.00
739.8880, 19725.00
741.0390, 19891.00
742.1890, 19827.00
743.3380, 19825.00
744.4880, 19898.00
745.6380, 19901.00
746.7870, 20011.00
747.9360, 20099.00
749.0850, 20055.00
750.2340, 20227.00
751.3830, 20378.00
752.5310, 20331.36
753.6800, 20369.00
754.8280, 20284.00
755.9760, 20309.00
757.1240, 20230.00
758.2720, 20377.00
759.4190, 20566.00
760.5670, 20519.00
761.7140, 20784.00
762.8610, 20663.00
764.0080, 20835.00
765.1550, 20779.00
766.3020, 20794.00
767.4480, 21041.00
768.5950, 21050.00
769.7410, 21104.00
770.8870, 21280.00
772.0330, 21090.00
773.1780, 21161.00
774.3240, 21157.00
775.4690, 21328.00
776.6140, 21335.00
777.7590, 21373.00
778.9040, 21332.00
780.0490, 21538.00
781.1940, 21522.00
782.3380, 21790.00
783.4820, 21694.00
784.6260, 21715.00
785.7700, 21774.00
786.9140, 21752.00
788.0580, 21821.00
789.2010, 22010.00
790.3450, 21940.00
791.4880, 21973.00
792.6310, 21876.00
793.7730, 22024.00
794.9160, 22121.00
796.0590, 22202.00
797.2010, 22118.00
798.3430, 22438.00
799.4850, 22519.00
800.6270, 22419.00
801.7690, 22494.00
802.9100, 22511.00
804.0520, 22525.00
805.1930, 22585.00
806.3340, 22536.00
807.4750, 22694.00
808.6160, 22926.00
809.7560, 22825.00
810.8970, 22917.00
812.0370, 22944.00
813.1770, 22884.00
814.3170, 23068.00
815.4570, 22883.00
816.5960, 23109.00
817.7360, 23193.00
818.8750, 23270.00
820.0140, 23363.00
821.1530, 23426.80
822.2920, 23449.00
823.4310, 23559.00
824.5690, 23582.82
825.7070, 23647.00
826.8460, 23632.00
827.9840, 23641.00
829.1220, 23633.00
830.2590, 23688.00
831.3970, 23715.00
832.5340, 23904.00
833.6710, 23979.00
834.8080, 23952.00
835.9450, 23752.00
837.0820, 24154.00
838.2190, 24141.00
839.3550, 24168.00
840.4910, 24453.00
841.6270, 24310.00
842.7630, 24263.00
843.8990, 24478.00
845.0350, 24507.00
846.1700, 24676.00
847.3060, 24574.00
848.4410, 24412.00
849.5760, 24598.00
850.7100, 24665.00
851.8450, 24860.00
852.9800, 24959.00
854.1140, 25019.00
855.2480, 24900.00
856.3820, 24992.00
857.5160, 25060.00
858.6500, 25114.00
859.7830, 25204.00
860.9170, 25191.00
862.0500, 25454.00
863.1830, 25576.00
864.3160, 25597.00
865.4480, 25534.00
866.5810, 25617.00
867.7130, 25741.00
868.8460, 25782.00
869.9780, 25814.00
871.1100, 25790.00
872.2410, 25754.00
873.3730, 25890.00
874.5050, 26135.00
875.6360, 25995.00
876.7670, 26022.00
877.8980, 26299.00
879.0290, 26242.00
880.1590, 26292.00
881.2900, 26344.00
882.4200, 26325.10
883.5500, 26331.00
884.6800, 26343.00
885.8100, 26362.39
886.9400, 26372.86
888.0690, 26422.00
889.1990, 26512.00
890.3280, 26645.00
891.4570, 26750.00
892.5860, 26910.00
893.7140, 26867.00
894.8430, 27031.00
895.9710, 27205.00
897.1000, 27163.00
898.2280, 27329.15
899.3560, 27091.00
900.4830, 27430.00
901.6110, 27435.00
902.7380, 27315.00
903.8660, 27409.00
904.9930, 27616.00
906.1200, 27575.00
907.2460, 27577.00
908.3730, 27757.00
909.5000, 27768.00
910.6260, 27588.00
911.7520, 28091.00
912.8780, 28012.00
914.0040, 27868.00
915.1290, 27972.00
916.2550, 27961.00
917.3800, 28038.00
918.5050, 28096.61
919.6300, 28129.00
920.7550, 28219.00
921.8800, 28373.00
923.0040, 28440.00
924.1290, 28560.00
925.2530, 28579.00
926.3770, 28459.00
927.5010, 28529.00
928.6250, 28532.00
929.7480, 28638.41
930.8720, 28777.00
931.9950, 28864.00
933.1180, 28939.00
934.2410, 28888.00
935.3640, 29114.00
936.4860, 29075.00
937.6090, 29023.00
938.7310, 29211.00
939.8530, 29171.00
940.9750, 29365.00
942.0970, 29458.00
943.2180, 29733.00
944.3400, 29798.38
945.4610, 29635.00
946.5820, 29905.00
947.7030, 29879.00
948.8240, 29741.00
949.9450, 29960.00
951.0650, 30089.00
952.1860, 29899.00
953.3060, 30255.00
954.4260, 30223.00
955.5460, 30337.00
956.6650, 30291.00
957.7850, 30420.00
958.9040, 30708.00
960.0230, 30914.00
961.1420, 30956.00
962.2610, 31202.00
963.3800, 31553.00
964.4990, 31437.00
965.6170, 31500.00
966.7350, 31518.00
967.8530, 31255.00
968.9710, 31353.00
970.0890, 31235.00
971.2070, 31089.00
972.3240, 31301.00
973.4410, 31154.00
974.5580, 31480.00
975.6750, 31048.00
976.7920, 31290.00
977.9090, 31475.00
979.0250, 31460.00
980.1410, 31511.00
981.2580, 31549.00
982.3740, 31672.00
983.4890, 31615.00
984.6050, 31756.00
985.7200, 31814.00
986.8360, 31808.00
987.9510, 32029.00
989.0660, 32005.00
990.1810, 31810.00
991.2950, 31940.00
992.4100, 32209.00
993.5240, 32199.00
994.6390, 32379.00
995.7530, 32333.00
996.8660, 32277.00
997.9800, 32472.00
999.0940, 32581.00
1000.207, 32791.00
1001.320, 32621.00
1002.433, 32647.00
1003.546, 32943.00
1004.659, 32855.00
1005.772, 32943.00
1006.884, 32700.00
1007.996, 32956.00
1009.108, 33279.00
1010.220, 33227.00
1011.332, 33082.00
1012.444, 33257.00
1013.555, 33163.00
1014.666, 33387.00
1015.777, 33577.00
1016.888, 33565.00
1017.999, 33594.00
1019.110, 33630.00
1020.220, 33872.00
1021.331, 33821.00
1022.441, 34018.00
1023.551, 33918.00
1024.661, 34125.00
1025.770, 33895.00
1026.880, 34157.00
1027.989, 34127.00
1029.098, 33964.00
1030.207, 34154.00
1031.316, 34177.00
1032.425, 34246.04
1033.533, 34392.00
1034.642, 34468.00
1035.750, 34769.00
1036.858, 34902.00
1037.966, 34827.00
1039.073, 34903.00
1040.181, 34842.00
1041.288, 34782.00
1042.396, 35113.00
1043.503, 34965.00
1044.610, 35467.00
1045.716, 34926.00
1046.823, 35254.00
1047.929, 35094.00
1049.036, 35526.00
1050.142, 35572.00
1051.248, 35396.00
1052.353, 35422.00
1053.459, 35516.00
1054.564, 35752.00
1055.670, 36037.00
1056.775, 35615.00
1057.880, 35977.00
1058.985, 35993.00
1060.089, 35790.00
1061.194, 35934.00
1062.298, 35994.00
1063.402, 36041.00
1064.506, 36179.00
1065.610, 36278.00
1066.713, 36489.00
1067.817, 36413.00
1068.920, 36497.00
1070.023, 36474.00
1071.126, 36451.00
1072.229, 36771.00
1073.332, 36658.00
1074.435, 36947.00
1075.537, 36692.00
1076.639, 36783.00
1077.741, 36917.00
1078.843, 37152.00
1079.945, 37141.00
1081.046, 37205.00
1082.148, 37195.00
1083.249, 37501.00
1084.350, 37410.00
1085.451, 37401.00
1086.551, 37508.00
1087.652, 37403.00
1088.752, 37427.00
1089.853, 37584.00
1090.953, 37606.00
1092.053, 37659.59
1093.152, 37781.00
1094.252, 37785.00
1095.351, 37881.00
1096.451, 38068.00
1097.550, 38070.61
1098.649, 38265.00
1099.748, 38191.00
1100.846, 38082.00
1101.945, 38150.00
1103.043, 38266.00
1104.141, 38555.00
1105.239, 38474.00
1106.337, 38623.00
1107.434, 38633.00
1108.532, 38636.00
1109.629, 38713.00
1110.726, 38843.00
1111.823, 38988.00
1112.920, 38768.00
1114.017, 39101.00
1115.113, 39012.00
1116.210, 39331.00
1117.306, 39115.00
1118.402, 39084.00
1119.498, 39060.00
1120.593, 39468.00
1121.689, 39473.00
1122.784, 39549.00
1123.879, 39707.00
1124.974, 39769.00
1126.069, 39798.00
1127.164, 39896.00
1128.259, 39927.16
1129.353, 40003.93
1130.447, 40038.00
1131.541, 40123.00
1132.635, 40222.12
1133.729, 40229.00
1134.822, 40321.00
1135.916, 40379.82
1137.009, 40490.00
1138.102, 40490.00
1139.195, 40631.00
1140.288, 40645.00
1141.380, 40632.00
1142.473, 40655.00
1143.565, 40677.00
1144.657, 40702.00
1145.749, 40805.47
1146.841, 40929.00
1147.932, 41017.00
1149.024, 41060.00
1150.115, 41122.00
1151.206, 41187.00
1152.297, 41145.00
1153.388, 41270.00
1154.479, 41269.00
1155.569, 41569.00
1156.659, 41510.00
1157.750, 41635.00
1158.839, 41410.00
1159.929, 41687.00
1161.019, 41548.00
1162.108, 41690.00
1163.198, 41605.00
1164.287, 41629.00
1165.376, 42053.00
1166.465, 41939.00
1167.553, 42139.00
1168.642, 42159.00
1169.730, 42117.00
1170.818, 42644.00
1171.906, 42565.00
1172.994, 42581.00
1174.082, 42455.00
1175.170, 42954.00
1176.257, 42858.00
1177.344, 42723.00
1178.431, 42770.00
1179.518, 42646.00
1180.605, 42890.00
1181.691, 42824.00
1182.778, 43058.00
1183.864, 42850.00
1184.950, 43055.00
1186.036, 43324.00
1187.122, 43275.00
1188.207, 43352.00
1189.292, 43471.00
1190.378, 43603.00
1191.463, 43264.00
1192.548, 43663.00
1193.632, 43385.00
1194.717, 43607.00
1195.801, 43686.00
1196.886, 43783.00
1197.970, 44195.00
1199.054, 43769.00
1200.137, 43993.00
1201.221, 43893.00
1202.305, 44180.00
1203.388, 44339.00
1204.471, 44150.00
1205.554, 44536.00
1206.637, 44463.00
1207.719, 44582.00
1208.802, 44740.00
1209.884, 44631.00
1210.966, 44775.00
1212.048, 44683.00
1213.130, 44910.00
1214.212, 44788.00
1215.293, 44671.00
1216.374, 44953.00
1217.456, 44962.00
1218.536, 45228.00
1219.617, 45122.00
1220.698, 45290.70
1221.778, 45354.00
1222.859, 45468.00
1223.939, 45369.00
1225.019, 45373.00
1226.099, 45350.00
1227.178, 45451.86
1228.258, 45700.00
1229.337, 45705.00
1230.417, 45784.00
1231.496, 45854.00
1232.574, 45876.00
1233.653, 46010.00
1234.732, 45991.00
1235.810, 46203.00
1236.888, 45826.00
1237.966, 46256.00
1239.044, 46084.00
1240.122, 46316.00
1241.199, 46420.00
1242.277, 46421.00
1243.354, 46800.00
1244.431, 46402.00
1245.508, 46633.00
1246.585, 46798.00
1247.661, 46954.00
1248.738, 47039.39
1249.814, 46767.00
1250.890, 47120.00
1251.966, 47043.00
1253.042, 47031.00
1254.117, 47267.00
1255.193, 47026.00
1256.268, 47102.00
1257.343, 47063.00
1258.418, 47046.05
1259.493, 47312.00
1260.567, 47079.00
1261.642, 47367.00
1262.716, 47328.00
1263.790, 47608.00
1264.864, 47690.00
1265.938, 47924.00
1267.011, 47752.00
1268.085, 47737.00
1269.158, 47884.00
1270.231, 47912.00
1271.304, 48036.00
1272.377, 47755.00
1273.450, 48013.00
1274.522, 47905.00
1275.594, 47927.00
1276.666, 48091.00
1277.738, 48260.00
1278.810, 48263.00
1279.882, 48192.00
1280.953, 48448.00
1282.025, 48326.00
1283.096, 48401.00
1284.167, 48537.00
1285.238, 48497.49
1286.308, 48709.00
1287.379, 48598.00
1288.449, 48813.00
1289.519, 48947.00
1290.589, 49248.00
1291.659, 48974.00
1292.729, 48949.00
1293.798, 49237.00
1294.868, 48985.00
1295.937, 49231.00
1297.006, 49406.00
1298.075, 49267.00
1299.143, 49184.00
1300.212, 49197.00
1301.280, 49096.00
1302.348, 49364.00
1303.416, 49596.00
1304.484, 49730.00
1305.552, 49724.00
1306.620, 49473.00
1307.687, 49687.00
1308.754, 49614.00
1309.821, 50031.00
1310.888, 50105.00
1311.955, 49761.00
1313.021, 50069.00
1314.088, 50127.00
1315.154, 50174.00
1316.220, 50455.00
1317.286, 50619.00
1318.352, 50604.00
1319.417, 50594.00
1320.483, 50680.00
1321.548, 50876.00
1322.613, 50684.00
1323.678, 51126.00
1324.743, 50727.00
1325.807, 51163.00
1326.872, 50899.00
1327.936, 51464.00
1329.000, 51528.00
1330.064, 51587.00
1331.128, 51473.00
1332.191, 51265.00
1333.255, 51216.00
1334.318, 51472.00
1335.381, 51606.00
1336.444, 51721.00
1337.507, 51741.00
1338.569, 51589.00
1339.632, 52124.00
1340.694, 52304.00
1341.756, 51931.00
1342.818, 51891.00
1343.880, 51813.00
1344.941, 52246.00
1346.003, 52189.00
1347.064, 52277.00
1348.125, 52481.00
1349.186, 52436.00
1350.247, 52310.00
1351.308, 52362.00
1352.368, 52411.00
1353.428, 52384.00
1354.489, 52361.00
1355.549, 52692.00
1356.608, 52569.00
1357.668, 53065.00
1358.727, 52722.00
1359.787, 52625.00
1360.846, 52984.00
1361.905, 52890.00
1362.964, 53317.00
1364.022, 52980.00
1365.081, 53026.00
1366.139, 53028.00
1367.197, 53144.00
1368.255, 53094.00
1369.313, 53491.00
1370.371, 53523.00
1371.428, 53318.00
