##NAMES=Fluorite
##RRUFFID=R060548
##IDEAL CHEMISTRY=CaF_2_
##LOCALITY=unknown
##OWNER=RRUFF
##SOURCE=Gemological Institute of America
##DESCRIPTION=Pale blue fragment
##STATUS=The identification of this mineral has been confirmed by X-ray diffraction and chemical analysis
##URL=rruff.info/R060548
##MEASURED CHEMISTRY=Ca_1.00_F_2.00_
##PIN_ID=L01039
##ORIENTATION=Laser parallel to -a* (-1 0 0). Fiducial mark perpendicular to laser is parallel to b [0 1 0]
177.7810, 8103.000
179.0090, 8140.000
180.2370, 8004.000
181.4640, 8065.000
182.6920, 8084.000
183.9190, 8169.000
185.1460, 8347.000
186.3730, 8376.000
187.6000, 8561.000
188.8270, 8449.000
190.0530, 8610.000
191.2800, 8732.000
192.5060, 8721.000
193.7320, 8647.000
194.9580, 8740.000
196.1830, 8616.000
197.4090, 8596.000
198.6340, 8515.000
199.8590, 8599.000
201.0840, 8506.000
202.3090, 8555.000
203.5340, 8605.000
204.7580, 8346.000
205.9820, 8319.000
207.2060, 8304.000
208.4300, 8295.000
209.6540, 8372.000
210.8780, 8347.000
212.1010, 8364.000
213.3240, 8521.000
214.5470, 8563.000
215.7700, 8667.000
216.9930, 8801.000
218.2150, 9095.000
219.4380, 9044.000
220.6600, 9014.000
221.8820, 9273.000
223.1040, 9550.000
224.3260, 9852.000
225.5470, 9684.000
226.7680, 9853.000
227.9900, 9814.000
229.2110, 9729.000
230.4310, 9527.000
231.6520, 9559.000
232.8720, 9555.000
234.0930, 9451.000
235.3130, 9676.000
236.5330, 9551.000
237.7530, 9679.000
238.9720, 9989.000
240.1920, 10152.00
241.4110, 10282.00
242.6300, 10366.98
243.8490, 10532.00
245.0680, 10298.00
246.2860, 9989.000
247.5040, 9720.000
248.7230, 9596.000
249.9410, 9484.000
251.1590, 9536.000
252.3760, 9487.000
253.5940, 9399.000
254.8110, 9478.000
256.0280, 9422.000
257.2450, 9504.000
258.4620, 9871.000
259.6790, 10574.00
260.8950, 11008.00
262.1120, 11145.00
263.3280, 11079.00
264.5440, 10643.00
265.7600, 10297.00
266.9750, 9741.000
268.1910, 9376.000
269.4060, 9116.000
270.6210, 9520.000
271.8360, 9057.000
273.0510, 9057.000
274.2650, 8977.000
275.4800, 8823.000
276.6940, 8993.000
277.9080, 9007.000
279.1220, 8957.000
280.3360, 8829.000
281.5490, 8938.000
282.7630, 8952.000
283.9760, 8815.000
285.1890, 8835.000
286.4020, 8806.000
287.6150, 8800.586
288.8270, 8876.000
290.0400, 8915.000
291.2520, 8897.000
292.4640, 9086.000
293.6760, 8885.000
294.8870, 8954.000
296.0990, 9100.000
297.3100, 9048.000
298.5210, 9257.000
299.7320, 9281.000
300.9430, 9210.000
302.1540, 9177.000
303.3640, 9300.000
304.5750, 9387.000
305.7850, 9502.000
306.9950, 9587.000
308.2050, 9754.728
309.4140, 9802.000
310.6240, 10101.00
311.8330, 10337.34
313.0420, 10518.00
314.2510, 11072.00
315.4600, 11661.00
316.6680, 12186.00
317.8770, 12993.00
319.0850, 14056.00
320.2930, 15006.00
321.5010, 15608.00
322.7090, 15468.00
323.9160, 14903.00
325.1240, 14141.00
326.3310, 13378.00
327.5380, 12615.00
328.7450, 12106.06
329.9520, 11622.12
331.1580, 11274.00
332.3650, 10968.00
333.5710, 10828.00
334.7770, 10637.00
335.9830, 10585.00
337.1880, 10547.00
338.3940, 10500.00
339.5990, 10483.00
340.8040, 10469.00
342.0090, 10557.00
343.2140, 10562.00
344.4190, 10603.00
345.6230, 10507.00
346.8280, 10648.00
348.0320, 10705.00
349.2360, 10596.00
350.4400, 10712.00
351.6430, 10689.00
352.8470, 10840.00
354.0500, 11009.00
355.2530, 10891.00
356.4560, 11002.00
357.6590, 11060.00
358.8620, 11033.00
360.0640, 11066.01
361.2660, 11057.44
362.4680, 11006.00
363.6700, 11034.00
364.8720, 10962.00
366.0740, 10948.00
367.2750, 10937.00
368.4760, 11020.00
369.6770, 11001.00
370.8780, 10972.24
372.0790, 10833.00
373.2800, 10878.00
374.4800, 10837.00
375.6800, 10800.00
376.8800, 10771.82
378.0800, 10709.00
379.2800, 10694.00
380.4790, 10704.00
381.6790, 10734.00
382.8780, 10600.00
384.0770, 10585.00
385.2760, 10602.00
386.4750, 10655.00
387.6730, 10637.00
388.8720, 10612.00
390.0700, 10605.00
391.2680, 10562.00
392.4660, 10452.00
393.6630, 10679.00
394.8610, 10551.00
396.0580, 10364.00
397.2550, 10525.00
398.4520, 10346.00
399.6490, 10267.00
400.8460, 10211.00
402.0420, 10370.00
403.2390, 10188.00
404.4350, 10264.00
405.6310, 10338.00
406.8270, 10062.00
408.0220, 10179.00
409.2180, 10161.00
410.4130, 10115.00
411.6080, 9993.000
412.8030, 10068.00
413.9980, 10118.00
415.1920, 10098.03
416.3870, 10148.00
417.5810, 10135.00
418.7750, 10135.00
419.9690, 10126.00
421.1630, 10169.00
422.3570, 10064.00
423.5500, 10015.00
424.7430, 10131.00
425.9360, 10180.00
427.1290, 10086.00
428.3220, 10157.00
429.5150, 10111.00
430.7070, 10297.00
431.8990, 10345.00
433.0910, 10305.00
434.2830, 10470.00
435.4750, 10425.00
436.6670, 10375.00
437.8580, 10422.00
439.0490, 10483.00
440.2400, 10424.00
441.4310, 10554.00
442.6220, 10511.00
443.8130, 10561.00
445.0030, 10600.00
446.1930, 10645.00
447.3830, 10798.00
448.5730, 10685.00
449.7630, 10588.00
450.9520, 10696.00
452.1420, 10653.00
453.3310, 10751.00
454.5200, 10772.00
455.7090, 10692.00
456.8980, 10618.00
458.0860, 10622.00
459.2740, 10794.00
460.4630, 10812.00
461.6510, 10720.00
462.8380, 10825.00
464.0260, 10760.00
465.2140, 10947.00
466.4010, 10856.00
467.5880, 11101.00
468.7750, 10984.00
469.9620, 11057.00
471.1490, 11059.00
472.3350, 11166.00
473.5220, 11224.00
474.7080, 11168.00
475.8940, 11086.00
477.0800, 11165.00
478.2650, 11095.00
479.4510, 11063.00
480.6360, 11181.00
481.8210, 11164.00
483.0060, 11250.00
484.1910, 11358.00
485.3760, 11451.00
486.5600, 11436.00
487.7440, 11544.00
488.9290, 11545.00
490.1130, 11529.00
491.2960, 11521.00
492.4800, 11682.00
493.6630, 11618.00
494.8470, 11653.00
496.0300, 11678.00
497.2130, 11595.00
498.3960, 11476.00
499.5780, 11539.00
500.7610, 11532.00
501.9430, 11295.00
503.1250, 11343.00
504.3070, 11279.00
505.4890, 11273.00
506.6710, 11247.00
507.8520, 11180.00
509.0330, 11240.00
510.2140, 11233.00
511.3950, 11323.00
512.5760, 11270.00
513.7570, 11174.00
514.9370, 11180.00
516.1170, 11275.00
517.2980, 11192.00
518.4780, 11293.00
519.6570, 11328.00
520.8370, 11317.00
522.0160, 11227.00
523.1960, 11299.00
524.3750, 11231.00
525.5540, 11262.00
526.7320, 11136.00
527.9110, 11106.00
529.0890, 11104.63
530.2680, 11137.00
531.4460, 11110.00
532.6240, 11185.00
533.8010, 11216.00
534.9790, 11298.00
536.1560, 11211.00
537.3340, 11231.00
538.5110, 11210.00
539.6880, 11336.00
540.8650, 11302.00
542.0410, 11228.00
543.2180, 11336.00
544.3940, 11278.00
545.5700, 11498.00
546.7460, 11324.00
547.9220, 11439.00
549.0970, 11442.00
550.2730, 11325.00
551.4480, 11519.00
552.6230, 11331.00
553.7980, 11458.00
554.9730, 11500.00
556.1470, 11688.00
557.3210, 11509.00
558.4960, 11717.00
559.6700, 11733.00
560.8440, 11897.00
562.0170, 11882.00
563.1910, 11846.00
564.3640, 11872.00
565.5380, 11922.00
566.7110, 11937.00
567.8840, 11995.00
569.0560, 12056.00
570.2290, 12116.00
571.4010, 12100.48
572.5740, 12050.00
573.7460, 12093.00
574.9180, 12027.00
576.0890, 12109.00
577.2610, 12101.00
578.4320, 12136.00
579.6040, 12183.00
580.7750, 12165.84
581.9450, 12187.00
583.1160, 12142.00
584.2870, 12192.00
585.4570, 12155.00
586.6270, 12218.00
587.7980, 12223.00
588.9670, 12284.00
590.1370, 12255.00
591.3070, 12187.00
592.4760, 12202.00
593.6450, 12221.00
594.8140, 12247.00
595.9830, 12223.00
597.1520, 12350.00
598.3210, 12241.00
599.4890, 12249.00
600.6570, 12434.00
601.8250, 12296.00
602.9930, 12469.00
604.1610, 12434.65
605.3290, 12313.00
606.4960, 12392.00
607.6630, 12242.00
608.8300, 12177.00
609.9970, 12335.00
611.1640, 12356.00
612.3300, 12327.00
613.4970, 12276.00
614.6630, 12303.00
615.8290, 12422.00
616.9950, 12420.00
618.1610, 12504.00
619.3260, 12595.00
620.4920, 12847.00
621.6570, 12663.00
622.8220, 13053.00
623.9870, 13170.00
625.1520, 13118.00
626.3160, 13199.00
627.4810, 13211.00
628.6450, 13046.00
629.8090, 12895.00
630.9730, 12815.00
632.1370, 12683.16
633.3000, 12511.00
634.4640, 12476.00
635.6270, 12608.00
636.7900, 12502.00
637.9530, 12554.00
639.1160, 12649.00
640.2780, 12628.00
641.4410, 12791.00
642.6030, 12862.00
643.7650, 12939.00
644.9270, 12900.00
646.0890, 13102.00
647.2500, 13063.00
648.4120, 13035.00
649.5730, 13113.00
650.7340, 13115.00
651.8950, 13238.00
653.0560, 13103.00
654.2160, 13153.00
655.3770, 13211.00
656.5370, 13335.00
657.6970, 13186.00
658.8570, 13213.00
660.0170, 13442.00
661.1760, 13329.00
662.3360, 13594.00
663.4950, 13815.00
664.6540, 13966.00
665.8130, 14216.00
666.9720, 14370.00
668.1310, 14513.00
669.2890, 14581.00
670.4470, 14286.00
671.6050, 14188.00
672.7630, 14077.00
673.9210, 14172.00
675.0790, 14159.00
676.2360, 14114.19
677.3930, 14241.00
678.5510, 14119.00
679.7080, 14198.00
680.8640, 14365.00
682.0210, 14652.00
683.1770, 14793.00
684.3340, 14982.00
685.4900, 15407.00
686.6460, 15643.00
687.8020, 15985.00
688.9570, 16164.00
690.1130, 16166.00
691.2680, 17187.00
692.4230, 17288.00
693.5780, 17385.00
694.7330, 16927.00
695.8880, 16773.00
697.0420, 16614.00
698.1960, 16272.00
699.3510, 16035.00
700.5040, 15973.00
701.6580, 16046.00
702.8120, 16149.00
703.9650, 16447.00
705.1190, 16363.00
706.2720, 16637.00
707.4250, 16703.00
708.5780, 16682.00
709.7300, 16626.00
710.8830, 16601.00
712.0350, 16515.00
713.1870, 16358.00
714.3390, 16343.00
715.4910, 16031.00
716.6430, 16121.00
717.7940, 15822.00
718.9460, 15825.00
720.0970, 15526.00
721.2480, 15426.00
722.3990, 15357.00
723.5500, 15329.00
724.7000, 15353.00
725.8500, 15223.00
727.0010, 15181.00
728.1510, 15143.00
729.3010, 15234.00
730.4500, 14925.00
731.6000, 15147.00
732.7490, 15017.00
733.8980, 15079.00
735.0470, 14930.00
736.1960, 15016.00
737.3450, 14967.00
738.4940, 14755.00
739.6420, 14994.00
740.7900, 14865.00
741.9380, 14727.00
743.0860, 15010.00
744.2340, 14731.00
745.3810, 14681.00
746.5290, 14873.00
747.6760, 14644.00
748.8230, 14819.00
749.9700, 14800.00
751.1170, 14866.00
752.2630, 14927.00
753.4100, 15001.00
754.5560, 15046.51
755.7020, 15018.00
756.8480, 15140.00
757.9940, 15194.00
759.1390, 15241.55
760.2850, 15126.00
761.4300, 15244.00
762.5750, 15216.00
763.7200, 15130.00
764.8650, 15189.00
766.0100, 15194.00
767.1540, 15081.00
768.2980, 15090.00
769.4420, 15095.00
770.5860, 15226.00
771.7300, 15236.00
772.8740, 15327.58
774.0170, 15329.00
775.1610, 15456.00
776.3040, 15573.00
777.4470, 15556.00
778.5900, 15831.00
779.7320, 15924.00
780.8750, 15889.00
782.0170, 15894.00
783.1590, 16064.00
784.3010, 15913.00
785.4430, 16045.00
786.5850, 16120.00
787.7260, 16102.00
788.8680, 16199.00
790.0090, 16309.00
791.1500, 16392.00
792.2910, 16520.00
793.4310, 16582.00
794.5720, 16691.43
795.7120, 16812.00
796.8520, 16882.00
797.9920, 16996.00
799.1320, 17082.45
800.2720, 17184.00
801.4120, 17308.00
802.5510, 17418.00
803.6900, 17526.00
804.8290, 17794.00
805.9680, 17836.00
807.1070, 17899.00
808.2450, 18106.00
809.3840, 18150.00
810.5220, 18228.00
811.6600, 18335.00
812.7980, 18469.00
813.9360, 18479.00
815.0730, 18410.00
816.2110, 18460.00
817.3480, 18585.00
818.4850, 18803.00
819.6220, 18618.00
820.7590, 18819.00
821.8960, 19001.00
823.0320, 19028.60
824.1680, 19310.00
825.3040, 19359.00
826.4400, 19373.00
827.5760, 19691.00
828.7120, 20176.00
829.8470, 20761.00
830.9830, 21556.00
832.1180, 22606.00
833.2530, 23748.00
834.3880, 25358.00
835.5220, 26533.00
836.6570, 26789.00
837.7910, 27171.00
838.9250, 27577.00
840.0590, 27918.00
841.1930, 28604.00
842.3270, 28923.00
843.4600, 28902.00
844.5940, 28182.00
845.7270, 27045.00
846.8600, 26437.00
847.9930, 26339.68
849.1250, 26174.63
850.2580, 26229.00
851.3900, 26098.00
852.5230, 25397.00
853.6550, 24016.00
854.7870, 22894.00
855.9180, 21636.00
857.0500, 20744.00
858.1810, 20048.00
859.3130, 19521.00
860.4440, 19267.00
861.5750, 18808.00
862.7050, 18548.00
863.8360, 18215.00
864.9660, 17704.00
866.0970, 17631.00
867.2270, 17563.00
868.3570, 17130.00
869.4870, 17041.00
870.6160, 17078.00
871.7460, 17048.00
872.8750, 16978.00
874.0040, 17028.00
875.1330, 17118.00
876.2620, 17250.00
877.3910, 16984.00
878.5190, 17214.00
879.6470, 17312.00
880.7760, 17057.00
881.9040, 17126.00
883.0310, 17282.00
884.1590, 16999.00
885.2870, 17060.00
886.4140, 17064.00
887.5410, 16999.00
888.6680, 17119.00
889.7950, 17424.00
890.9220, 17592.00
892.0480, 17751.00
893.1750, 18042.00
894.3010, 18700.00
895.4270, 18856.00
896.5530, 18889.00
897.6790, 19110.00
898.8040, 19102.00
899.9300, 18849.00
901.0550, 18901.00
902.1800, 18866.00
903.3050, 19026.00
904.4300, 19761.00
905.5540, 20593.00
906.6790, 22376.00
907.8030, 24993.00
908.9270, 29172.00
910.0510, 35064.00
911.1750, 41723.00
912.2990, 44478.00
913.4220, 40665.00
914.5450, 35548.00
915.6690, 31527.00
916.7920, 29833.00
917.9140, 30205.00
919.0370, 31830.00
920.1600, 34363.00
921.2820, 37671.00
922.4040, 39074.00
923.5260, 38447.00
924.6480, 38484.00
925.7700, 41464.00
926.8910, 45597.00
928.0130, 47572.00
929.1340, 44346.00
930.2550, 39323.00
931.3760, 35899.00
932.4970, 34320.00
933.6170, 32841.00
934.7380, 33108.00
935.8580, 34858.00
936.9780, 38133.00
938.0980, 39042.00
939.2180, 35603.00
940.3370, 31700.00
941.4570, 29453.00
942.5760, 29787.00
943.6950, 32301.00
944.8140, 38220.00
945.9330, 47105.00
947.0520, 57652.00
948.1700, 64155.00
949.2890, 60006.00
950.4070, 48854.00
951.5250, 37865.00
952.6430, 30236.00
953.7600, 26248.00
954.8780, 23617.00
955.9950, 22388.00
957.1120, 21726.00
958.2290, 21300.00
959.3460, 20870.00
960.4630, 20617.00
961.5800, 20612.00
962.6960, 20670.00
963.8120, 20947.00
964.9280, 20625.00
966.0440, 20787.00
967.1600, 20510.00
968.2760, 20575.00
969.3910, 20311.00
970.5060, 20257.00
971.6210, 19953.00
972.7360, 19642.00
973.8510, 19649.00
974.9660, 19626.00
976.0800, 19426.00
977.1950, 19437.00
978.3090, 19239.00
979.4230, 19363.00
980.5370, 19498.00
981.6500, 19184.00
982.7640, 19465.00
983.8770, 19302.00
984.9900, 19240.00
986.1030, 19317.00
987.2160, 19370.00
988.3290, 19436.00
989.4420, 19364.00
990.5540, 19684.00
991.6660, 19496.00
992.7780, 19874.00
993.8900, 19755.00
995.0020, 19969.00
996.1140, 20142.00
997.2250, 20245.00
998.3360, 20244.00
999.4470, 20769.00
1000.558, 21135.00
1001.669, 21505.00
1002.780, 21493.00
1003.890, 21337.00
1005.001, 21085.00
1006.111, 21278.00
1007.221, 21632.00
1008.331, 21705.80
1009.440, 22111.00
1010.550, 22203.00
1011.659, 22351.56
1012.768, 22513.00
1013.877, 22347.00
1014.986, 22432.00
1016.095, 22654.00
1017.204, 22754.00
1018.312, 22958.00
1019.420, 23013.00
1020.528, 23342.00
1021.636, 23570.00
1022.744, 23590.00
1023.852, 23960.00
1024.959, 23993.00
1026.066, 24344.00
1027.173, 24446.00
1028.280, 24496.00
1029.387, 24874.00
1030.494, 24837.00
1031.600, 24988.00
1032.707, 25014.00
1033.813, 25056.00
1034.919, 24811.00
1036.025, 24958.00
1037.130, 24846.00
1038.236, 24709.00
1039.341, 25093.00
1040.446, 25003.00
1041.552, 24971.00
1042.656, 25306.00
1043.761, 25067.00
1044.866, 25264.00
1045.970, 25350.00
1047.074, 25283.00
1048.179, 25419.00
1049.282, 25441.00
1050.386, 25525.00
1051.490, 25339.00
1052.593, 25381.00
1053.697, 25279.00
1054.800, 25332.00
1055.903, 25049.00
1057.006, 25228.00
1058.108, 24941.00
1059.211, 24898.00
1060.313, 24707.00
1061.415, 24727.00
1062.517, 24479.00
1063.619, 24594.00
1064.721, 24573.00
1065.823, 24349.00
1066.924, 24297.00
1068.025, 24368.00
1069.126, 24295.00
1070.227, 24234.00
1071.328, 24267.46
1072.429, 24147.00
1073.529, 24282.00
1074.629, 24227.00
1075.729, 24246.00
1076.829, 24134.00
1077.929, 24184.00
1079.029, 24104.00
1080.128, 23950.00
1081.228, 24010.00
1082.327, 23897.00
1083.426, 23982.00
1084.525, 23686.00
1085.623, 23797.00
1086.722, 23760.00
1087.820, 23373.00
1088.919, 23459.00
1090.017, 23204.00
1091.115, 23448.00
1092.212, 23236.00
1093.310, 23027.00
1094.407, 23128.00
1095.505, 22989.00
1096.602, 22981.00
1097.699, 22898.00
1098.795, 22768.00
1099.892, 22864.00
1100.989, 22853.00
1102.085, 23057.00
1103.181, 22837.00
1104.277, 22551.00
1105.373, 22644.00
1106.469, 22998.00
1107.564, 22880.00
1108.660, 23020.00
1109.755, 23111.00
1110.850, 23349.00
1111.945, 23289.00
1113.040, 23152.00
1114.134, 23439.00
1115.229, 23597.00
1116.323, 23464.00
1117.417, 23845.00
1118.511, 24120.00
1119.605, 24053.00
1120.698, 24712.00
1121.792, 24762.00
1122.885, 25110.00
1123.978, 25411.00
1125.071, 25311.00
1126.164, 25293.00
1127.257, 25301.00
1128.349, 25324.11
1129.442, 25409.46
1130.534, 25494.00
1131.626, 25711.00
1132.718, 25893.00
1133.810, 26227.00
1134.901, 26362.00
1135.993, 26669.00
1137.084, 26698.00
1138.175, 27011.36
1139.266, 27439.00
1140.357, 27576.00
1141.448, 27466.00
1142.538, 27775.00
1143.628, 27960.00
1144.719, 28164.00
1145.809, 28290.00
1146.898, 28531.00
1147.988, 28674.00
1149.078, 28795.00
1150.167, 28796.00
1151.256, 28703.00
1152.345, 28780.00
1153.434, 28745.00
1154.523, 28474.00
1155.612, 28511.00
1156.700, 28491.00
1157.788, 28550.00
1158.877, 28361.00
1159.964, 28405.00
1161.052, 28368.00
1162.140, 28356.00
1163.227, 28510.00
1164.315, 28176.00
1165.402, 28342.00
1166.489, 27967.00
1167.576, 28099.00
1168.663, 27861.00
1169.749, 27760.00
1170.836, 27591.00
1171.922, 27582.00
1173.008, 27603.00
1174.094, 27315.00
1175.180, 27291.00
1176.265, 26973.00
1177.351, 26705.00
1178.436, 26525.79
1179.521, 26367.00
1180.606, 26086.00
1181.691, 25998.00
1182.776, 25882.00
1183.860, 25592.00
1184.944, 25434.00
1186.029, 25511.00
1187.113, 25185.00
1188.197, 25209.00
1189.280, 25210.00
1190.364, 24997.00
1191.447, 24899.00
1192.531, 24919.00
1193.614, 24845.00
1194.697, 24668.00
1195.779, 24669.00
1196.862, 24678.00
1197.945, 24712.00
1199.027, 24557.00
1200.109, 24660.00
1201.191, 24699.00
1202.273, 24523.00
1203.355, 24741.00
1204.436, 24625.00
1205.518, 24806.00
1206.599, 24729.00
1207.680, 24647.00
1208.761, 24702.00
1209.842, 24726.00
1210.922, 25004.00
1212.003, 24919.00
1213.083, 24989.00
1214.163, 25291.00
1215.243, 25166.00
1216.323, 25263.00
1217.402, 25331.00
1218.482, 25413.00
1219.561, 25418.00
1220.641, 25480.00
1221.720, 25541.00
1222.798, 25522.00
1223.877, 25625.00
1224.956, 25703.83
1226.034, 25818.00
1227.112, 25952.00
1228.191, 25935.00
1229.269, 26110.00
1230.346, 26159.00
1231.424, 26328.21
1232.501, 26556.00
1233.579, 26685.00
1234.656, 26915.00
1235.733, 27065.14
1236.810, 27121.00
1237.886, 27281.00
1238.963, 27458.00
1240.039, 27639.00
1241.116, 27871.00
1242.192, 27902.00
1243.268, 28302.00
1244.343, 28752.00
1245.419, 28689.00
1246.494, 29082.00
1247.570, 29449.00
1248.645, 29557.00
1249.720, 29626.00
1250.795, 29899.00
1251.869, 29976.00
1252.944, 30335.00
1254.018, 30239.00
1255.093, 30371.00
1256.167, 30387.00
1257.240, 30583.00
1258.314, 30533.00
1259.388, 30523.00
1260.461, 30331.00
1261.535, 30405.00
1262.608, 30269.00
1263.681, 30352.00
1264.753, 30304.00
1265.826, 30155.00
1266.899, 30234.00
1267.971, 30074.00
1269.043, 30331.00
1270.115, 30129.00
1271.187, 30366.00
1272.259, 30274.00
1273.330, 30365.00
1274.402, 30259.00
1275.473, 30305.00
1276.544, 30397.00
1277.615, 30579.00
1278.686, 30629.00
1279.756, 30626.00
1280.827, 30601.00
1281.897, 30776.00
1282.967, 31078.00
1284.037, 31226.00
1285.107, 31573.00
1286.177, 31662.00
1287.247, 32354.00
1288.316, 32586.00
1289.385, 32971.00
1290.454, 33552.00
1291.523, 33538.00
1292.592, 33903.00
1293.661, 33917.00
1294.729, 33779.00
1295.797, 34114.00
1296.866, 33822.00
1297.934, 33271.00
1299.001, 33358.00
1300.069, 32757.00
1301.137, 32422.00
1302.204, 32257.00
1303.271, 31978.00
1304.338, 31569.00
1305.405, 31375.00
1306.472, 31088.00
1307.539, 30725.00
1308.605, 30563.00
1309.671, 30579.00
1310.737, 30455.00
1311.803, 30439.00
1312.869, 30319.00
1313.935, 30206.83
1315.000, 30123.00
1316.066, 30012.00
1317.131, 29962.00
1318.196, 29856.31
1319.261, 29791.00
1320.326, 29679.00
1321.390, 29541.00
1322.455, 29460.58
1323.519, 29408.00
1324.583, 29336.00
1325.647, 29172.00
1326.711, 29068.00
1327.775, 28674.00
1328.838, 28510.00
1329.902, 28328.00
1330.965, 28190.00
1332.028, 28093.00
1333.091, 28038.00
1334.153, 27959.91
1335.216, 27860.17
1336.279, 27826.00
1337.341, 27645.00
1338.403, 27479.00
1339.465, 27333.00
1340.527, 27511.00
1341.588, 27322.00
1342.650, 27050.00
1343.711, 27302.00
1344.772, 27191.00
1345.834, 27032.00
1346.894, 26937.00
1347.955, 27067.78
1349.016, 27322.00
1350.076, 27584.00
1351.136, 28051.00
