##NAMES=Fluorapophyllite-(K)
##RRUFFID=R060554
##IDEAL CHEMISTRY=KCa_4_Si_8_O_20_F&#183;8H_2_O
##LOCALITY=unknown
##OWNER=RRUFF
##SOURCE=Gemological Institute of America
##DESCRIPTION=Colorless polished fragment
##STATUS=The identification of this mineral has been confirmed by X-ray diffraction and chemical analysis
##URL=rruff.info/R060554
##MEASURED CHEMISTRY=(K_0.88_Na_0.12_)Ca_4.00_Si_8.00_O_20_F_1.00_Â·8H2O
##PIN_ID=L00812
##ORIENTATION=Laser parallel to -a* (-1 0 0). Fiducial mark perpendicular to laser is parallel to -c [0 0 -1]
53.91000, 475.0000
55.14900, 479.0000
56.38700, 470.0000
57.62600, 497.0000
58.86400, 485.0000
60.10300, 508.0000
61.34100, 519.0000
62.57900, 528.0000
63.81700, 559.0000
65.05400, 642.0000
66.29200, 703.8123
67.52900, 874.0000
68.76700, 862.0000
70.00400, 1054.000
71.24100, 1085.000
72.47700, 1205.000
73.71400, 1426.000
74.95100, 1666.000
76.18700, 1966.000
77.42300, 2341.000
78.65900, 2696.000
79.89500, 3226.000
81.13100, 3837.000
82.36700, 4543.000
83.60200, 5324.000
84.83700, 6007.000
86.07200, 6626.000
87.30800, 7242.000
88.54200, 7833.000
89.77700, 8226.000
91.01200, 8669.000
92.24600, 8993.000
93.48000, 9201.000
94.71400, 9751.000
95.94800, 10478.00
97.18200, 11657.00
98.41600, 12967.00
99.64900, 14895.00
100.8830, 17977.00
102.1160, 22141.00
103.3490, 26721.00
104.5820, 31320.00
105.8150, 34530.00
107.0470, 37247.00
108.2800, 34310.00
109.5120, 25743.00
110.7440, 19952.00
111.9760, 15362.00
113.2080, 12452.00
114.4400, 10582.00
115.6710, 9508.000
116.9030, 8970.000
118.1340, 8761.000
119.3650, 8944.000
120.5960, 9106.000
121.8270, 9518.000
123.0580, 9982.000
124.2880, 10429.00
125.5190, 10524.00
126.7490, 10716.00
127.9790, 10797.00
129.2090, 11059.00
130.4390, 11109.00
131.6680, 11591.00
132.8980, 12151.00
134.1270, 13274.00
135.3560, 15208.00
136.5850, 18028.00
137.8140, 20798.00
139.0430, 22764.00
140.2710, 22127.00
141.5000, 19332.00
142.7280, 16146.00
143.9560, 14058.00
145.1840, 12361.00
146.4120, 11369.00
147.6390, 10558.00
148.8670, 10364.00
150.0940, 10487.00
151.3210, 10566.00
152.5490, 10851.00
153.7750, 10989.00
155.0020, 11455.00
156.2290, 12330.00
157.4550, 13087.00
158.6810, 14291.00
159.9080, 15824.00
161.1340, 17243.00
162.3590, 18383.00
163.5850, 19503.00
164.8110, 19521.00
166.0360, 19327.00
167.2610, 17952.00
168.4860, 16121.00
169.7110, 14215.00
170.9360, 12511.00
172.1610, 11333.00
173.3850, 10372.00
174.6100, 9804.000
175.8340, 9377.000
177.0580, 9215.000
178.2820, 9193.000
179.5050, 9248.000
180.7290, 9658.000
181.9520, 10232.00
183.1760, 10815.00
184.3990, 11394.00
185.6220, 11436.00
186.8450, 11346.00
188.0670, 10816.00
189.2900, 10393.00
190.5120, 10066.00
191.7340, 9874.000
192.9560, 9878.000
194.1780, 10205.00
195.4000, 10605.00
196.6220, 11268.00
197.8430, 12070.00
199.0640, 12922.00
200.2860, 14282.00
201.5070, 15236.00
202.7270, 16201.00
203.9480, 17085.71
205.1690, 17911.00
206.3890, 18543.00
207.6090, 19063.00
208.8290, 19076.02
210.0490, 19383.00
211.2690, 18550.00
212.4890, 17493.00
213.7080, 16762.00
214.9280, 15704.00
216.1470, 13722.00
217.3660, 13157.00
218.5850, 12348.00
219.8030, 11789.00
221.0220, 11550.00
222.2400, 11495.00
223.4590, 11255.00
224.6770, 11503.00
225.8950, 11721.00
227.1120, 11750.00
228.3300, 11464.00
229.5480, 11213.00
230.7650, 10895.00
231.9820, 10234.00
233.1990, 9410.000
234.4160, 8548.000
235.6330, 7843.000
236.8490, 7162.000
238.0660, 6602.579
239.2820, 6032.000
240.4980, 5709.000
241.7140, 5413.000
242.9300, 5123.000
244.1460, 4892.000
245.3610, 4711.000
246.5770, 4640.000
247.7920, 4567.000
249.0070, 4559.000
250.2220, 4423.000
251.4370, 4513.000
252.6510, 4556.000
253.8660, 4567.000
255.0800, 4781.000
256.2940, 4931.000
257.5080, 5261.000
258.7220, 5447.791
259.9360, 5702.896
261.1490, 5902.000
262.3630, 6211.000
263.5760, 6403.000
264.7890, 6658.000
266.0020, 7068.000
267.2150, 7160.000
268.4270, 7180.000
269.6400, 7062.000
270.8520, 6803.000
272.0640, 6585.000
273.2760, 6426.000
274.4880, 6162.000
275.7000, 5767.000
276.9120, 5761.000
278.1230, 5588.000
279.3340, 5637.000
280.5450, 5685.000
281.7560, 5732.000
282.9670, 5781.000
284.1780, 5966.000
285.3880, 6140.000
286.5980, 6341.000
287.8090, 6749.000
289.0190, 7092.000
290.2290, 7518.000
291.4380, 7981.000
292.6480, 8430.000
293.8570, 8938.000
295.0670, 9359.000
296.2760, 9878.000
297.4850, 10034.00
298.6930, 10148.00
299.9020, 10096.00
301.1110, 10019.00
302.3190, 10029.00
303.5270, 9818.000
304.7350, 9907.000
305.9430, 10033.00
307.1510, 10321.00
308.3580, 10551.00
309.5660, 10662.00
310.7730, 10841.00
311.9800, 11139.00
313.1870, 11226.00
314.3940, 11368.00
315.6010, 11760.00
316.8070, 11896.00
318.0130, 12183.00
319.2200, 12529.00
320.4260, 12744.00
321.6310, 12730.00
322.8370, 12773.00
324.0430, 12304.00
325.2480, 11823.00
326.4540, 11494.00
327.6590, 11135.00
328.8640, 10853.00
330.0680, 10501.00
331.2730, 10512.00
332.4780, 10467.00
333.6820, 10500.00
334.8860, 10774.00
336.0900, 10779.00
337.2940, 10960.00
338.4980, 11043.00
339.7010, 10817.00
340.9050, 10473.00
342.1080, 9882.000
343.3110, 9155.000
344.5140, 8545.000
345.7170, 7926.000
346.9200, 7504.000
348.1220, 7082.773
349.3240, 6848.000
350.5270, 6500.000
351.7290, 6291.000
352.9310, 6159.000
354.1320, 5925.000
355.3340, 5679.000
356.5350, 5675.000
357.7370, 5432.000
358.9380, 5329.000
360.1390, 5084.000
361.3400, 4987.000
362.5400, 4951.000
363.7410, 4914.000
364.9410, 4934.000
366.1410, 5007.000
367.3410, 4956.000
368.5410, 5046.000
369.7410, 5077.000
370.9400, 5120.000
372.1400, 5112.000
373.3390, 5093.000
374.5380, 5211.000
375.7370, 5171.000
376.9360, 5219.000
378.1350, 5079.000
379.3330, 5260.000
380.5310, 5338.000
381.7300, 5468.000
382.9280, 5571.000
384.1260, 5746.000
385.3230, 5947.280
386.5210, 6220.000
387.7180, 6472.000
388.9160, 6797.000
390.1130, 7200.000
391.3100, 7554.000
392.5060, 7935.000
393.7030, 8189.000
394.9000, 8586.000
396.0960, 8885.000
397.2920, 9123.000
398.4880, 9239.000
399.6840, 9154.000
400.8800, 9153.000
402.0750, 8832.000
403.2710, 8806.000
404.4660, 8469.000
405.6610, 8146.000
406.8560, 7986.000
408.0510, 7695.000
409.2450, 7512.000
410.4400, 7450.000
411.6340, 7386.671
412.8280, 7445.000
414.0220, 7567.000
415.2160, 7686.000
416.4100, 8030.000
417.6030, 8422.000
418.7970, 8954.000
419.9900, 9638.000
421.1830, 10706.00
422.3760, 12019.00
423.5690, 13404.00
424.7610, 15359.00
425.9540, 17514.00
427.1460, 19793.00
428.3380, 22595.00
429.5300, 24937.00
430.7220, 26207.00
431.9140, 25997.00
433.1050, 24755.00
434.2970, 21944.00
435.4880, 19116.00
436.6790, 16233.00
437.8700, 14125.00
439.0610, 12408.00
440.2510, 10974.00
441.4420, 9742.000
442.6320, 9057.000
443.8220, 8322.000
445.0120, 7800.000
446.2020, 7318.000
447.3910, 7137.000
448.5810, 6876.000
449.7700, 6712.000
450.9600, 6756.000
452.1490, 6577.000
453.3370, 6690.000
454.5260, 6723.000
455.7150, 6857.000
456.9030, 6918.000
458.0910, 7093.000
459.2800, 7326.000
460.4670, 7528.000
461.6550, 7652.000
462.8430, 7608.000
464.0300, 7573.000
465.2180, 7554.000
466.4050, 7563.000
467.5920, 7687.000
468.7790, 7789.000
469.9650, 8151.000
471.1520, 8652.000
472.3380, 9125.000
473.5250, 10200.00
474.7110, 11152.00
475.8970, 12426.00
477.0820, 13980.00
478.2680, 15798.00
479.4540, 17919.00
480.6390, 19850.00
481.8240, 22117.00
483.0090, 23806.00
484.1940, 24253.00
485.3780, 23746.00
486.5630, 22028.00
487.7470, 20049.00
488.9320, 17790.00
490.1160, 15735.00
491.3000, 14076.00
492.4830, 12784.00
493.6670, 11711.00
494.8500, 10935.00
496.0340, 10340.00
497.2170, 10028.00
498.4000, 9817.000
499.5820, 9570.000
500.7650, 9489.000
501.9480, 9445.000
503.1300, 9264.000
504.3120, 9070.000
505.4940, 8860.000
506.6760, 8700.000
507.8580, 8508.000
509.0390, 8383.000
510.2210, 8263.000
511.4020, 8280.000
512.5830, 8219.000
513.7640, 8195.000
514.9450, 8340.000
516.1250, 8479.000
517.3060, 8580.000
518.4860, 8987.000
519.6660, 9139.000
520.8460, 9432.000
522.0260, 9905.000
523.2060, 10332.00
524.3850, 10926.00
525.5650, 11474.00
526.7440, 12092.00
527.9230, 12730.00
529.1020, 13758.00
530.2810, 14393.00
531.4590, 15333.00
532.6380, 16227.00
533.8160, 16735.00
534.9940, 17378.00
536.1720, 17999.00
537.3500, 18400.00
538.5270, 18575.00
539.7050, 18624.00
540.8820, 18531.00
542.0590, 18355.00
543.2360, 18003.00
544.4130, 17574.00
545.5900, 17206.00
546.7660, 17031.00
547.9430, 16721.00
549.1190, 16516.00
550.2950, 16465.00
551.4710, 16145.00
552.6470, 16077.00
553.8220, 16144.00
554.9980, 16264.00
556.1730, 16300.00
557.3480, 16489.00
558.5230, 16571.00
559.6980, 17311.00
560.8730, 17377.00
562.0470, 18043.00
563.2220, 18404.00
564.3960, 19612.00
565.5700, 20358.00
566.7440, 21246.00
567.9170, 22710.00
569.0910, 23844.00
570.2640, 25535.00
571.4380, 27398.00
572.6110, 29186.00
573.7840, 31712.00
574.9570, 33701.00
576.1290, 36437.00
577.3020, 38927.00
578.4740, 41168.00
579.6460, 43534.00
580.8180, 44971.00
581.9900, 46324.00
583.1620, 46463.00
584.3330, 45361.00
585.5040, 43830.00
586.6760, 41628.00
587.8470, 38426.00
589.0180, 35167.00
590.1880, 31919.00
591.3590, 29007.00
592.5290, 25785.00
593.7000, 23331.00
594.8700, 21125.00
596.0400, 19051.00
597.2090, 17365.05
598.3790, 16088.00
599.5490, 14647.00
600.7180, 13669.00
601.8870, 12908.00
603.0560, 12107.00
604.2250, 11451.00
605.3940, 10739.00
606.5620, 10355.00
607.7300, 9777.000
608.8990, 9454.000
610.0670, 9076.000
611.2350, 8813.000
612.4020, 8543.000
613.5700, 8295.000
614.7370, 8109.046
615.9050, 7891.000
617.0720, 7773.000
618.2390, 7576.000
619.4060, 7412.000
620.5720, 7396.000
621.7390, 7336.000
622.9050, 7238.000
624.0710, 7128.000
625.2370, 7120.000
626.4030, 7045.629
627.5690, 7068.000
628.7340, 6990.000
629.9000, 6969.000
631.0650, 6978.000
632.2300, 6964.000
633.3950, 6966.854
634.5600, 6966.707
635.7240, 6976.000
636.8890, 6981.000
638.0530, 6990.000
639.2170, 7027.722
640.3810, 7121.000
641.5450, 7147.000
642.7080, 7277.000
643.8720, 7306.000
645.0350, 7428.000
646.1980, 7507.000
647.3610, 7593.000
648.5240, 7716.000
649.6870, 7918.000
650.8490, 8082.524
652.0120, 8398.000
653.1740, 8525.000
654.3360, 8765.000
655.4980, 9031.000
656.6600, 9151.000
657.8210, 9329.000
658.9830, 9532.000
660.1440, 9568.000
661.3050, 9676.000
662.4660, 9652.000
663.6270, 9590.000
664.7870, 9321.000
665.9480, 9169.000
667.1080, 8837.000
668.2680, 8580.000
669.4280, 8218.000
670.5880, 7843.000
671.7480, 7564.000
672.9070, 7259.000
674.0670, 6895.000
675.2260, 6632.000
676.3850, 6348.000
677.5440, 6083.000
678.7030, 5884.237
679.8610, 5642.000
681.0200, 5521.000
682.1780, 5375.000
683.3360, 5224.000
684.4940, 5121.000
685.6520, 5000.249
686.8090, 4879.454
687.9670, 4807.000
689.1240, 4690.000
690.2810, 4610.000
691.4380, 4599.000
692.5950, 4481.000
693.7520, 4383.000
694.9080, 4354.000
696.0650, 4260.000
697.2210, 4317.000
698.3770, 4195.000
699.5330, 4210.000
700.6880, 4139.000
701.8440, 4107.000
702.9990, 4091.000
704.1550, 4035.000
705.3100, 4026.000
706.4650, 3914.000
707.6190, 3923.916
708.7740, 4046.000
709.9290, 3923.000
711.0830, 3913.000
712.2370, 3954.000
713.3910, 3919.000
714.5450, 3861.000
715.6980, 3950.000
716.8520, 3972.000
718.0050, 3918.000
719.1580, 3879.000
720.3110, 3872.452
721.4640, 3870.000
722.6170, 3832.000
723.7700, 3845.000
724.9220, 3828.000
726.0740, 3786.000
727.2260, 3817.000
728.3780, 3840.000
729.5300, 3854.000
730.6810, 3819.000
731.8330, 3758.000
732.9840, 3721.000
734.1350, 3813.000
735.2860, 3743.000
736.4370, 3749.000
737.5880, 3800.000
738.7380, 3711.000
739.8880, 3736.000
741.0390, 3829.000
742.1890, 3771.000
743.3380, 3828.000
744.4880, 3806.000
745.6380, 3772.000
746.7870, 3782.000
747.9360, 3891.000
749.0850, 3854.000
750.2340, 3962.000
751.3830, 3914.000
752.5310, 3890.000
753.6800, 3939.000
754.8280, 4007.000
755.9760, 4044.000
757.1240, 4141.000
758.2720, 4127.000
759.4190, 4216.000
760.5670, 4328.000
761.7140, 4340.000
762.8610, 4514.000
764.0080, 4511.000
765.1550, 4568.000
766.3020, 4579.000
767.4480, 4529.000
768.5950, 4568.000
769.7410, 4392.000
770.8870, 4469.000
772.0330, 4327.000
773.1780, 4316.000
774.3240, 4292.000
775.4690, 4268.000
776.6140, 4273.000
777.7590, 4277.029
778.9040, 4347.000
780.0490, 4333.000
781.1940, 4453.000
782.3380, 4531.000
783.4820, 4705.000
784.6260, 4852.000
785.7700, 5011.000
786.9140, 5177.000
788.0580, 5291.000
789.2010, 5445.000
790.3450, 5549.000
791.4880, 5559.000
792.6310, 5516.000
793.7730, 5320.000
794.9160, 5072.000
796.0590, 4859.000
797.2010, 4755.000
798.3430, 4536.000
799.4850, 4415.000
800.6270, 4376.000
801.7690, 4252.000
802.9100, 4151.000
804.0520, 4198.000
805.1930, 4172.000
806.3340, 4045.000
807.4750, 4073.000
808.6160, 4107.000
809.7560, 4095.000
810.8970, 4009.000
812.0370, 4087.000
813.1770, 4014.000
814.3170, 4075.000
815.4570, 4022.000
816.5960, 4111.000
817.7360, 4067.000
818.8750, 4108.000
820.0140, 4019.000
821.1530, 4103.000
822.2920, 4155.000
823.4310, 4072.000
824.5690, 4116.000
825.7070, 4194.000
826.8460, 4185.000
827.9840, 4226.000
829.1220, 4229.000
830.2590, 4354.000
831.3970, 4349.000
832.5340, 4325.000
833.6710, 4231.000
834.8080, 4348.000
835.9450, 4417.000
837.0820, 4359.000
838.2190, 4364.000
839.3550, 4374.000
840.4910, 4354.458
841.6270, 4363.000
842.7630, 4348.000
843.8990, 4454.000
845.0350, 4445.000
846.1700, 4420.000
847.3060, 4384.000
848.4410, 4365.695
849.5760, 4431.000
850.7100, 4350.000
851.8450, 4340.000
852.9800, 4415.000
854.1140, 4382.000
855.2480, 4372.000
856.3820, 4310.000
857.5160, 4354.000
858.6500, 4325.000
859.7830, 4413.000
860.9170, 4374.000
862.0500, 4326.000
863.1830, 4392.000
864.3160, 4307.000
865.4480, 4321.000
866.5810, 4369.000
867.7130, 4258.000
868.8460, 4289.000
869.9780, 4169.000
871.1100, 4236.000
872.2410, 4352.000
873.3730, 4227.000
874.5050, 4232.000
875.6360, 4210.000
876.7670, 4231.000
877.8980, 4251.000
879.0290, 4253.000
880.1590, 4252.280
881.2900, 4244.737
882.4200, 4228.000
883.5500, 4228.000
884.6800, 4209.000
885.8100, 4232.000
886.9400, 4213.000
888.0690, 4252.000
889.1990, 4205.000
890.3280, 4296.000
891.4570, 4235.000
892.5860, 4260.000
893.7140, 4314.000
894.8430, 4332.000
895.9710, 4253.000
897.1000, 4293.000
898.2280, 4295.000
899.3560, 4280.000
900.4830, 4314.000
901.6110, 4335.000
902.7380, 4369.000
903.8660, 4344.000
904.9930, 4341.000
906.1200, 4387.000
907.2460, 4303.000
908.3730, 4292.000
909.5000, 4358.000
910.6260, 4418.000
911.7520, 4366.000
912.8780, 4344.000
914.0040, 4225.000
915.1290, 4356.000
916.2550, 4390.000
917.3800, 4299.000
918.5050, 4379.000
919.6300, 4409.000
920.7550, 4354.000
921.8800, 4326.000
923.0040, 4344.000
924.1290, 4362.000
925.2530, 4437.000
926.3770, 4447.000
927.5010, 4354.000
928.6250, 4414.000
929.7480, 4376.000
930.8720, 4387.000
931.9950, 4550.000
933.1180, 4531.000
934.2410, 4536.000
935.3640, 4508.000
936.4860, 4541.686
937.6090, 4557.797
938.7310, 4605.000
939.8530, 4621.000
940.9750, 4645.000
942.0970, 4667.564
943.2180, 4703.481
944.3400, 4759.000
945.4610, 4786.000
946.5820, 4855.000
947.7030, 4906.000
948.8240, 4980.000
949.9450, 5120.000
951.0650, 5040.000
952.1860, 5046.000
953.3060, 5161.000
954.4260, 5179.000
955.5460, 5237.000
956.6650, 5252.829
957.7850, 5225.000
958.9040, 5243.000
960.0230, 5164.000
961.1420, 5140.000
962.2610, 5151.000
963.3800, 5179.000
964.4990, 5105.000
965.6170, 5287.000
966.7350, 5408.000
967.8530, 5375.000
968.9710, 5618.000
970.0890, 5717.000
971.2070, 5792.000
972.3240, 5909.000
973.4410, 5943.053
974.5580, 5957.379
975.6750, 5977.000
976.7920, 5901.000
977.9090, 5825.233
979.0250, 5737.000
980.1410, 5667.000
981.2580, 5645.000
982.3740, 5568.000
983.4890, 5542.000
984.6050, 5600.000
985.7200, 5522.000
986.8360, 5566.000
987.9510, 5570.000
989.0660, 5520.000
990.1810, 5554.000
991.2950, 5591.000
992.4100, 5595.011
993.5240, 5574.975
994.6390, 5647.000
995.7530, 5573.000
996.8660, 5576.000
997.9800, 5739.000
999.0940, 5855.000
1000.207, 5903.000
1001.320, 6091.000
1002.433, 6204.863
1003.546, 6390.000
1004.659, 6497.000
1005.772, 6690.000
1006.884, 6817.000
1007.996, 6731.000
1009.108, 6735.000
1010.220, 6545.000
1011.332, 6324.000
1012.444, 6182.000
1013.555, 5996.000
1014.666, 5851.000
1015.777, 5858.000
1016.888, 5729.000
1017.999, 5637.000
1019.110, 5602.000
1020.220, 5719.000
1021.331, 5662.000
1022.441, 5787.000
1023.551, 5814.000
1024.661, 5783.000
1025.770, 5841.000
1026.880, 5969.000
1027.989, 5998.000
1029.098, 6290.000
1030.207, 6348.000
1031.316, 6490.000
1032.425, 6818.000
1033.533, 7046.000
1034.642, 7166.000
1035.750, 7543.000
1036.858, 7692.000
1037.966, 8043.000
1039.073, 8470.000
1040.181, 8887.000
1041.288, 9506.000
1042.396, 10101.00
1043.503, 10798.00
1044.610, 11948.00
1045.716, 13047.00
1046.823, 14386.00
1047.929, 16174.00
1049.036, 18404.00
1050.142, 21268.00
1051.248, 24727.00
1052.353, 29204.00
1053.459, 34975.00
1054.564, 40987.00
1055.670, 47210.00
1056.775, 54362.00
1057.880, 60101.00
1058.985, 64259.00
1060.089, 65194.00
1061.194, 63300.00
1062.298, 58709.00
1063.402, 53134.00
1064.506, 46669.00
1065.610, 40132.00
1066.713, 34903.00
1067.817, 29993.00
1068.920, 26190.00
1070.023, 23060.00
1071.126, 20254.00
1072.229, 18201.00
1073.332, 16387.00
1074.435, 15125.00
1075.537, 13670.00
1076.639, 12771.00
1077.741, 11936.00
1078.843, 11376.00
1079.945, 10729.00
1081.046, 10318.00
1082.148, 10059.00
1083.249, 9867.000
1084.350, 9600.000
1085.451, 9517.000
1086.551, 9422.000
1087.652, 9342.000
1088.752, 9115.000
1089.853, 8978.000
1090.953, 8613.000
1092.053, 8260.000
1093.152, 7870.000
1094.252, 7543.000
1095.351, 7244.222
1096.451, 6883.000
1097.550, 6729.000
1098.649, 6474.000
1099.748, 6298.000
1100.846, 6189.000
1101.945, 6060.872
1103.043, 6012.000
1104.141, 5925.000
1105.239, 5926.000
1106.337, 5877.000
1107.434, 5884.000
1108.532, 5811.000
1109.629, 5841.000
1110.726, 5930.000
1111.823, 5900.000
1112.920, 6017.000
1114.017, 5934.000
1115.113, 5912.000
1116.210, 5887.000
1117.306, 5651.000
1118.402, 5610.000
1119.498, 5449.000
1120.593, 5441.000
1121.689, 5279.000
1122.784, 5352.000
1123.879, 5239.000
1124.974, 5242.000
1126.069, 5105.000
1127.164, 5138.000
1128.259, 5025.000
1129.353, 5053.000
1130.447, 5096.000
1131.541, 5070.000
1132.635, 4973.000
1133.729, 4967.000
1134.822, 4878.000
1135.916, 4896.000
1137.009, 4910.000
1138.102, 4781.000
1139.195, 4920.000
1140.288, 4817.000
1141.380, 4812.000
1142.473, 4843.000
1143.565, 4792.000
1144.657, 4844.000
1145.749, 4813.000
1146.841, 4833.000
1147.932, 4767.000
1149.024, 4676.000
1150.115, 4710.000
1151.206, 4683.000
1152.297, 4758.000
1153.388, 4748.000
1154.479, 4762.000
1155.569, 4677.000
1156.659, 4707.000
1157.750, 4699.000
1158.839, 4669.000
1159.929, 4727.000
1161.019, 4607.000
1162.108, 4730.000
1163.198, 4671.000
1164.287, 4740.000
1165.376, 4659.000
1166.465, 4651.000
1167.553, 4678.000
1168.642, 4699.000
1169.730, 4728.000
1170.818, 4650.000
1171.906, 4660.000
1172.994, 4624.000
1174.082, 4608.556
1175.170, 4680.000
1176.257, 4598.000
1177.344, 4659.000
1178.431, 4664.000
1179.518, 4694.000
1180.605, 4663.000
1181.691, 4612.000
1182.778, 4622.000
1183.864, 4662.000
1184.950, 4663.000
1186.036, 4594.000
1187.122, 4683.000
1188.207, 4736.000
1189.292, 4555.000
1190.378, 4516.000
1191.463, 4520.000
1192.548, 4590.000
1193.632, 4649.000
1194.717, 4596.000
1195.801, 4537.000
1196.886, 4633.000
1197.970, 4574.000
1199.054, 4625.000
1200.137, 4663.000
1201.221, 4590.000
1202.305, 4578.000
1203.388, 4547.000
1204.471, 4621.000
1205.554, 4547.000
1206.637, 4587.000
1207.719, 4467.000
1208.802, 4561.000
1209.884, 4535.000
1210.966, 4569.000
1212.048, 4635.000
1213.130, 4499.000
1214.212, 4590.000
1215.293, 4578.000
1216.374, 4628.000
1217.456, 4594.000
1218.536, 4640.000
1219.617, 4637.059
1220.698, 4637.000
1221.778, 4646.000
1222.859, 4619.000
1223.939, 4629.000
1225.019, 4639.000
1226.099, 4622.000
1227.178, 4635.000
1228.258, 4579.000
1229.337, 4658.000
1230.417, 4631.000
1231.496, 4684.000
1232.574, 4626.000
1233.653, 4588.000
1234.732, 4649.000
1235.810, 4681.000
1236.888, 4616.000
1237.966, 4622.000
1239.044, 4601.000
1240.122, 4609.000
