##NAMES=Fluorite
##RRUFFID=R050046
##IDEAL CHEMISTRY=CaF_2_
##LOCALITY=Shangbao, Lei Yang, Hunan Province, China
##OWNER=RRUFF
##SOURCE=Eugene Schlepp
##DESCRIPTION=Pale purple crystal
##STATUS=The identification of this mineral has been confirmed by X-ray diffraction and chemical analysis
##URL=rruff.info/R050046
##MEASURED CHEMISTRY=Ca_1.000_ F_2.000_
##PIN_ID=L01404
##ORIENTATION=Laser parallel to c* (0 0 1). Fiducial mark perpendicular to laser is parallel to b [0 1 0]
168.1040, 14121.42
169.3320, 13862.00
170.5590, 14115.00
171.7860, 13974.00
173.0130, 13955.00
174.2400, 13995.00
175.4670, 14211.00
176.6930, 14064.00
177.9200, 14157.00
179.1460, 14219.00
180.3720, 14109.00
181.5980, 14078.00
182.8230, 14097.00
184.0490, 14267.00
185.2740, 14321.00
186.5000, 14416.00
187.7250, 14470.00
188.9500, 14528.00
190.1740, 14543.00
191.3990, 14607.00
192.6230, 14801.00
193.8480, 14765.00
195.0720, 14844.00
196.2960, 15169.00
197.5200, 15158.00
198.7430, 15268.00
199.9670, 15295.00
201.1900, 15364.00
202.4130, 15304.00
203.6360, 15308.00
204.8590, 15409.00
206.0820, 15230.00
207.3050, 15093.00
208.5270, 15094.00
209.7490, 14956.00
210.9710, 15222.00
212.1930, 15340.00
213.4150, 15419.00
214.6370, 15443.00
215.8580, 15341.00
217.0790, 15423.00
218.3010, 15371.00
219.5210, 15471.00
220.7420, 15608.00
221.9630, 15645.00
223.1830, 15642.00
224.4040, 15561.00
225.6240, 15739.00
226.8440, 15795.00
228.0640, 15669.00
229.2840, 15553.00
230.5030, 15664.00
231.7230, 15756.00
232.9420, 15813.00
234.1610, 15825.00
235.3800, 15894.62
236.5990, 15906.00
237.8170, 15982.00
239.0360, 16028.00
240.2540, 16075.34
241.4720, 16112.00
242.6900, 16108.00
243.9080, 16088.00
245.1250, 16068.00
246.3430, 16035.00
247.5600, 15925.00
248.7770, 16128.00
249.9940, 16199.00
251.2110, 16227.00
252.4280, 16033.88
253.6450, 16179.32
254.8610, 16264.76
256.0770, 16293.42
257.2930, 16095.26
258.5090, 16189.99
259.7250, 16167.34
260.9400, 16139.88
262.1560, 16275.84
263.3710, 16110.66
264.5860, 16244.02
265.8010, 16258.21
267.0160, 16326.93
268.2310, 16277.56
269.4450, 16264.66
270.6600, 16369.90
271.8740, 16200.00
273.0880, 16229.00
274.3020, 16289.03
275.5150, 16414.00
276.7290, 16379.00
277.9420, 16476.00
279.1550, 16484.00
280.3680, 16452.00
281.5810, 16674.00
282.7940, 16515.00
284.0070, 16609.00
285.2190, 16612.00
286.4310, 16612.00
287.6430, 16785.00
288.8550, 16932.00
290.0670, 16791.00
291.2790, 17015.00
292.4900, 17128.00
293.7020, 17240.00
294.9130, 17261.00
296.1240, 17338.00
297.3350, 17441.00
298.5450, 17336.00
299.7560, 17446.00
300.9660, 17431.00
302.1760, 17480.00
303.3860, 17420.00
304.5960, 17577.41
305.8060, 17704.00
307.0150, 17951.00
308.2250, 18195.00
309.4340, 18538.00
310.6430, 18926.00
311.8520, 19432.79
313.0610, 19902.00
314.2700, 20635.00
315.4780, 21182.00
316.6860, 21883.00
317.8940, 22525.00
319.1020, 23027.00
320.3100, 23227.00
321.5180, 23174.00
322.7250, 22713.00
323.9330, 21919.00
325.1400, 21476.00
326.3470, 20506.00
327.5540, 20054.00
328.7600, 19731.00
329.9670, 19206.00
331.1730, 18959.00
332.3800, 18877.00
333.5860, 18597.00
334.7920, 18549.00
335.9970, 18376.00
337.2030, 18533.00
338.4080, 18373.00
339.6140, 18419.00
340.8190, 18423.00
342.0240, 18575.00
343.2290, 18542.00
344.4330, 18578.25
345.6380, 18589.20
346.8420, 18578.00
348.0460, 18560.00
349.2500, 18547.00
350.4540, 18554.00
351.6580, 18609.00
352.8610, 18664.00
354.0650, 18664.00
355.2680, 18565.00
356.4710, 18802.00
357.6740, 18657.00
358.8760, 18896.00
360.0790, 18783.00
361.2810, 18727.00
362.4840, 18886.00
363.6860, 18837.00
364.8880, 18790.00
366.0900, 18805.02
367.2910, 18809.62
368.4930, 18810.02
369.6940, 18838.94
370.8950, 18851.00
372.0960, 18898.00
373.2970, 18943.00
374.4980, 18985.00
375.6980, 19059.00
376.8980, 18899.00
378.0990, 18749.00
379.2990, 18865.00
380.4980, 19030.00
381.6980, 18991.00
382.8980, 19088.00
384.0970, 19070.51
385.2960, 19048.00
386.4950, 19029.00
387.6940, 19005.00
388.8930, 19035.00
390.0920, 18989.00
391.2900, 19200.00
392.4880, 19112.00
393.6860, 19269.00
394.8840, 18902.00
396.0820, 18998.00
397.2800, 19092.00
398.4770, 19093.00
399.6750, 19084.00
400.8720, 19257.00
402.0690, 19104.00
403.2660, 19142.00
404.4620, 19116.00
405.6590, 19203.00
406.8550, 19067.00
408.0510, 19030.00
409.2480, 18997.00
410.4430, 19110.00
411.6390, 19223.00
412.8350, 19276.00
414.0300, 19256.00
415.2250, 19241.00
416.4200, 19328.00
417.6150, 19334.90
418.8100, 19337.00
420.0050, 19423.00
421.1990, 19396.00
422.3940, 19412.00
423.5880, 19373.00
424.7820, 19340.00
425.9750, 19414.71
427.1690, 19489.00
428.3630, 19591.00
429.5560, 19581.00
430.7490, 19727.00
431.9420, 19940.00
433.1350, 19847.00
434.3280, 19743.00
435.5200, 19871.00
436.7130, 20082.00
437.9050, 19962.00
439.0970, 19940.00
440.2890, 20131.00
441.4810, 20144.00
442.6720, 20275.00
443.8640, 20166.00
445.0550, 20273.00
446.2460, 20333.00
447.4370, 20362.00
448.6280, 20171.00
449.8180, 20544.00
451.0090, 20242.00
452.1990, 20211.00
453.3890, 20505.00
454.5790, 20396.00
455.7690, 20287.00
456.9590, 20318.00
458.1480, 20371.00
459.3380, 20357.00
460.5270, 20259.00
461.7160, 20353.00
462.9050, 20355.00
464.0940, 20493.00
465.2820, 20509.21
466.4700, 20694.00
467.6590, 20545.00
468.8470, 20510.00
470.0350, 20437.00
471.2220, 20691.00
472.4100, 20456.00
473.5970, 20691.00
474.7850, 20690.00
475.9720, 20729.00
477.1590, 20804.00
478.3460, 20859.00
479.5320, 21090.00
480.7190, 21236.00
481.9050, 21018.00
483.0910, 21240.00
484.2770, 21216.00
485.4630, 21340.00
486.6490, 21237.00
487.8340, 21327.00
489.0200, 21537.00
490.2050, 21715.00
491.3900, 21609.00
492.5750, 21824.00
493.7600, 21639.00
494.9440, 21455.00
496.1290, 21578.00
497.3130, 21518.00
498.4970, 21542.00
499.6810, 21374.00
500.8650, 21375.00
502.0480, 21213.00
503.2320, 21195.00
504.4150, 21151.00
505.5980, 21270.00
506.7810, 21231.00
507.9640, 21080.00
509.1460, 21175.00
510.3290, 21347.00
511.5110, 21262.00
512.6930, 21155.00
513.8750, 21240.00
515.0570, 21192.00
516.2390, 21167.00
517.4210, 21226.00
518.6020, 21166.00
519.7830, 21354.00
520.9640, 21219.00
522.1450, 21322.00
523.3260, 21247.00
524.5060, 21369.00
525.6870, 21348.23
526.8670, 21357.00
528.0470, 21384.00
529.2270, 21437.00
530.4070, 21537.42
531.5870, 21397.00
532.7660, 21599.00
533.9450, 21376.00
535.1240, 21300.00
536.3030, 21593.00
537.4820, 21398.00
538.6610, 21530.00
539.8390, 21326.00
541.0180, 21589.00
542.1960, 21573.00
543.3740, 21657.00
544.5520, 21692.00
545.7290, 21776.00
546.9070, 21688.00
548.0840, 21748.00
549.2620, 21836.00
550.4390, 21872.00
551.6160, 21705.00
552.7920, 21957.00
553.9690, 21951.00
555.1450, 21918.89
556.3220, 22300.00
557.4980, 21955.00
558.6740, 21841.00
559.8490, 22031.00
561.0250, 22112.00
562.2000, 22069.00
563.3760, 21948.00
564.5510, 22257.00
565.7260, 22148.00
566.9010, 21996.00
568.0750, 22208.00
569.2500, 22158.00
570.4240, 22358.00
571.5980, 22339.00
572.7720, 22397.00
573.9460, 22302.00
575.1200, 22382.00
576.2930, 22375.00
577.4670, 22279.00
578.6400, 22212.00
579.8130, 22377.00
580.9860, 22398.00
582.1590, 22514.00
583.3310, 22548.00
584.5040, 22514.00
585.6760, 22460.00
586.8480, 22574.00
588.0200, 22481.00
589.1920, 22632.00
590.3630, 22630.00
591.5350, 22706.00
592.7060, 22641.00
593.8770, 22671.00
595.0480, 22689.00
596.2190, 22870.00
597.3900, 22831.00
598.5600, 22648.00
599.7310, 22924.00
600.9010, 22848.00
602.0710, 22970.00
603.2410, 22961.00
604.4100, 23144.00
605.5800, 23083.00
606.7490, 23017.00
607.9190, 23154.00
609.0880, 23249.00
610.2570, 23335.00
611.4250, 23184.00
612.5940, 23259.00
613.7620, 23500.00
614.9310, 23769.00
616.0990, 23688.00
617.2670, 23632.00
618.4340, 23830.00
619.6020, 23673.00
620.7690, 24125.00
621.9370, 23758.00
623.1040, 24046.00
624.2710, 24063.00
625.4380, 23997.00
626.6040, 23970.00
627.7710, 23927.00
628.9370, 24053.00
630.1030, 23932.00
631.2690, 24030.00
632.4350, 24030.00
633.6010, 23813.00
634.7660, 23854.00
635.9320, 23814.73
637.0970, 24025.00
638.2620, 23863.00
639.4270, 23986.00
640.5920, 24096.00
641.7560, 24090.00
642.9210, 24162.00
644.0850, 24114.00
645.2490, 24174.00
646.4130, 24173.00
647.5770, 24209.00
648.7400, 23928.00
649.9040, 24034.00
651.0670, 24114.00
652.2300, 24062.00
653.3930, 24203.00
654.5560, 24076.00
655.7190, 24046.00
656.8810, 24107.00
658.0440, 24059.00
659.2060, 23920.00
660.3680, 24259.00
661.5300, 24269.00
662.6910, 24474.00
663.8530, 24385.00
665.0140, 24695.00
666.1750, 24624.00
667.3360, 24780.00
668.4970, 24738.00
669.6580, 24630.00
670.8190, 24609.00
671.9790, 24551.00
673.1390, 24686.00
674.2990, 24659.00
675.4590, 24738.60
676.6190, 24789.00
677.7790, 24926.00
678.9380, 24976.00
680.0970, 25139.00
681.2570, 25338.00
682.4160, 25493.00
683.5740, 25560.00
684.7330, 25704.74
685.8920, 25743.00
687.0500, 25810.00
688.2080, 25931.00
689.3660, 25799.00
690.5240, 25962.00
691.6820, 26110.00
692.8390, 26355.00
693.9960, 25896.00
695.1540, 26282.00
696.3110, 26196.00
697.4680, 26473.00
698.6240, 26445.00
699.7810, 26598.00
700.9370, 26562.00
702.0940, 26604.04
703.2500, 26646.63
704.4060, 26688.00
705.5610, 26707.00
706.7170, 26850.00
707.8720, 26941.00
709.0280, 26742.00
710.1830, 27009.00
711.3380, 27039.00
712.4920, 26491.00
713.6470, 26802.00
714.8020, 26478.00
715.9560, 26599.00
717.1100, 26501.00
718.2640, 26418.00
719.4180, 26337.00
720.5720, 26201.00
721.7250, 26165.00
722.8780, 26335.00
724.0320, 26277.00
725.1850, 26254.00
726.3380, 26193.00
727.4900, 26250.00
728.6430, 26198.00
729.7950, 26149.00
730.9470, 26266.00
732.1000, 26260.00
733.2510, 26334.00
734.4030, 26337.00
735.5550, 25961.00
736.7060, 26249.00
737.8570, 25972.00
739.0090, 26158.00
740.1600, 26161.00
741.3100, 26156.00
742.4610, 26169.00
743.6110, 26128.00
744.7620, 26124.54
745.9120, 26150.91
747.0620, 26115.00
748.2120, 26245.00
749.3610, 26316.00
750.5110, 26436.00
751.6600, 26287.00
752.8090, 26238.00
753.9580, 26463.00
755.1070, 26258.00
756.2560, 26714.00
757.4050, 26362.00
758.5530, 26531.00
759.7010, 26691.00
760.8490, 26566.00
761.9970, 26482.00
763.1450, 26474.00
764.2920, 26687.00
765.4400, 26662.00
766.5870, 26647.00
767.7340, 26818.00
768.8810, 26560.00
770.0280, 26833.00
771.1740, 26632.00
772.3210, 26733.00
773.4670, 26885.00
774.6130, 26761.00
775.7590, 27242.00
776.9050, 26919.00
778.0510, 27313.00
779.1960, 27150.00
780.3420, 27225.00
781.4870, 27287.00
782.6320, 27147.00
783.7770, 27110.00
784.9210, 27359.00
786.0660, 27537.00
787.2100, 27485.00
788.3540, 27502.00
789.4980, 27585.00
790.6420, 27689.00
791.7860, 27596.00
792.9300, 27768.00
794.0730, 27714.00
795.2160, 27818.00
796.3590, 27939.00
797.5020, 27893.00
798.6450, 27877.00
799.7880, 27936.00
800.9300, 27936.00
802.0720, 27982.75
803.2150, 28069.00
804.3560, 28096.00
805.4980, 28264.00
806.6400, 28366.00
807.7810, 28342.00
808.9230, 28487.00
810.0640, 28349.00
811.2050, 28450.00
812.3460, 28656.00
813.4860, 28540.00
814.6270, 28501.00
815.7670, 28622.00
816.9070, 28701.00
818.0470, 28838.00
819.1870, 28663.00
820.3270, 28754.00
821.4670, 28759.00
822.6060, 29044.00
823.7450, 28981.00
824.8840, 29075.00
826.0230, 29316.38
827.1620, 29072.00
828.3010, 29688.00
829.4390, 29712.00
830.5770, 29726.00
831.7150, 29808.00
832.8530, 30089.00
833.9910, 30130.00
835.1290, 30256.00
836.2660, 30114.00
837.4030, 29761.00
838.5410, 29485.00
839.6780, 29365.00
840.8140, 29227.00
841.9510, 29175.00
843.0870, 29148.00
844.2240, 29219.00
845.3600, 29198.92
846.4960, 29247.00
847.6320, 29255.00
848.7680, 29336.00
849.9030, 29380.00
851.0380, 29419.00
852.1740, 29312.00
853.3090, 29340.87
854.4440, 29069.00
855.5780, 29233.00
856.7130, 29165.00
857.8470, 28997.00
858.9820, 29063.00
860.1160, 29132.00
861.2500, 29332.00
862.3830, 29146.00
863.5170, 29157.00
864.6500, 29443.00
865.7840, 29613.00
866.9170, 29703.00
868.0500, 29924.00
869.1830, 30080.00
870.3150, 30128.00
871.4480, 30660.00
872.5800, 30796.00
873.7120, 31230.00
874.8440, 31805.00
875.9760, 32186.00
877.1080, 32591.00
878.2390, 32654.00
879.3710, 33182.00
880.5020, 33218.00
881.6330, 32883.00
882.7640, 32555.00
883.8940, 32139.00
885.0250, 31866.00
886.1550, 31250.00
887.2850, 31171.00
888.4160, 30605.00
889.5450, 30490.00
890.6750, 30231.00
891.8050, 30026.80
892.9340, 29982.00
894.0630, 29938.00
895.1930, 29682.00
896.3220, 29943.00
897.4500, 29777.00
898.5790, 29963.00
899.7070, 29930.00
900.8360, 30263.00
901.9640, 30032.00
903.0920, 30468.00
904.2200, 31048.00
905.3470, 31728.00
906.4750, 32537.00
907.6020, 33194.00
908.7290, 34040.00
909.8560, 35162.00
910.9830, 35471.00
912.1100, 35995.00
913.2360, 35611.00
914.3630, 34849.00
915.4890, 34638.00
916.6150, 34877.00
917.7410, 35057.00
918.8670, 35874.00
919.9920, 36888.00
921.1180, 38289.00
922.2430, 39214.00
923.3680, 39681.00
924.4930, 40140.00
925.6180, 41131.00
926.7420, 41264.00
927.8670, 41381.00
928.9910, 40538.00
930.1150, 39616.00
931.2390, 38914.00
932.3630, 38035.00
933.4860, 37442.00
934.6100, 37217.00
935.7330, 36716.00
936.8560, 36920.00
937.9790, 36765.00
939.1020, 36340.00
940.2250, 35857.00
941.3470, 36188.00
942.4700, 37023.00
943.5920, 37535.00
944.7140, 38316.00
945.8360, 39400.00
946.9570, 41496.00
948.0790, 40842.00
949.2000, 39822.00
950.3220, 37872.00
951.4430, 36338.00
952.5640, 35105.00
953.6840, 33975.00
954.8050, 33358.00
955.9250, 33150.00
957.0460, 33069.00
958.1660, 33178.00
959.2860, 33129.00
960.4050, 33004.00
961.5250, 33171.00
962.6440, 33267.00
963.7640, 33137.00
964.8830, 33340.00
966.0020, 33458.00
967.1210, 33537.00
968.2390, 33408.00
969.3580, 33582.00
970.4760, 33421.00
971.5940, 33284.00
972.7120, 33240.00
973.8300, 33095.00
974.9480, 33191.00
976.0650, 33292.00
977.1830, 33425.00
978.3000, 33016.00
979.4170, 33295.00
980.5340, 33173.00
981.6500, 33365.00
982.7670, 33314.00
983.8830, 33383.00
985.0000, 33119.00
986.1160, 33163.00
987.2320, 33327.00
988.3470, 33268.00
989.4630, 33365.51
990.5780, 33354.00
991.6940, 33485.00
992.8090, 33625.00
993.9240, 33749.00
995.0380, 33818.00
996.1530, 33689.00
997.2680, 33865.00
998.3820, 33806.00
999.4960, 33840.00
1000.610, 34270.00
1001.724, 34243.00
1002.837, 34037.00
1003.951, 34574.00
1005.064, 34533.00
1006.177, 34346.00
1007.291, 34706.00
1008.403, 34546.00
1009.516, 34695.00
1010.629, 34932.00
1011.741, 35033.00
1012.853, 34903.00
1013.965, 35459.00
1015.077, 35354.00
1016.189, 35614.00
1017.300, 35795.00
1018.412, 35866.00
1019.523, 36001.00
1020.634, 36502.00
1021.745, 36760.00
1022.856, 37227.00
1023.966, 37953.00
1025.077, 38101.00
1026.187, 38641.00
1027.297, 38709.00
1028.407, 38975.00
1029.517, 39409.00
1030.627, 39102.00
1031.736, 38929.00
1032.845, 38421.00
1033.955, 38263.00
1035.064, 38106.00
1036.172, 37566.00
1037.281, 37716.00
1038.390, 37246.00
1039.498, 37338.00
1040.606, 37030.00
1041.714, 37331.00
1042.822, 37272.00
1043.930, 37273.00
1045.037, 37374.00
1046.145, 37551.00
1047.252, 37285.00
1048.359, 37367.00
1049.466, 37247.00
1050.573, 37306.00
1051.679, 37355.00
1052.786, 37181.00
1053.892, 37564.00
1054.998, 37188.00
1056.104, 37332.00
1057.210, 37165.00
1058.315, 37365.00
1059.421, 37148.00
1060.526, 37408.00
1061.631, 37304.00
1062.736, 36948.00
1063.841, 37322.00
1064.946, 37290.00
1066.050, 37531.00
1067.154, 37461.00
1068.258, 37499.00
1069.362, 37741.00
1070.466, 37781.00
1071.570, 38176.00
1072.674, 38419.00
1073.777, 38777.00
1074.880, 38641.00
1075.983, 38753.00
1077.086, 38692.00
1078.189, 38324.00
1079.291, 37886.00
1080.394, 37784.00
1081.496, 37630.00
1082.598, 37548.00
1083.700, 37484.02
1084.802, 37383.58
1085.903, 37420.00
1087.005, 37126.00
1088.106, 37121.00
1089.207, 36755.00
1090.308, 36768.00
1091.409, 36595.00
1092.509, 36667.00
1093.610, 36719.00
1094.710, 36567.00
1095.810, 36805.00
1096.910, 36465.00
1098.010, 36633.00
1099.110, 36578.00
1100.209, 36612.00
1101.309, 36688.00
1102.408, 36614.00
1103.507, 36808.00
1104.606, 36881.35
1105.704, 36809.00
1106.803, 37206.00
1107.901, 37503.00
1108.999, 37769.00
1110.097, 37760.00
1111.195, 37661.00
1112.293, 38495.00
1113.391, 38751.00
1114.488, 39485.00
1115.585, 40194.00
1116.682, 41245.00
1117.779, 42272.00
1118.876, 43357.39
1119.973, 44349.00
1121.069, 45436.00
1122.165, 46311.00
1123.261, 46657.00
1124.357, 46765.81
1125.453, 46957.00
1126.549, 46037.00
1127.644, 44915.00
1128.739, 44007.00
1129.835, 43207.00
1130.930, 42409.00
1132.024, 41809.00
1133.119, 41398.00
1134.214, 41080.00
1135.308, 41039.00
1136.402, 40466.00
1137.496, 40312.00
1138.590, 40620.00
1139.684, 40406.78
1140.777, 40435.00
1141.871, 40515.00
1142.964, 40419.00
1144.057, 40304.00
1145.150, 40605.00
1146.243, 40428.00
1147.335, 40474.00
1148.428, 40573.00
1149.520, 40389.00
1150.612, 40483.00
1151.704, 40537.00
1152.796, 40498.00
1153.887, 40438.00
1154.979, 40241.00
1156.070, 39984.00
1157.161, 40362.00
1158.252, 40183.00
1159.343, 40406.00
1160.433, 40013.00
1161.524, 40325.00
1162.614, 40162.00
1163.704, 39928.00
1164.794, 39736.00
1165.884, 40015.00
1166.974, 39574.00
1168.063, 39686.00
1169.153, 39874.00
1170.242, 39681.00
1171.331, 39471.00
1172.420, 39435.00
1173.508, 39355.00
1174.597, 39096.00
1175.685, 39041.00
1176.774, 38918.00
1177.862, 38777.00
1178.950, 38634.00
1180.037, 38615.00
1181.125, 38551.00
1182.212, 38421.09
1183.300, 38265.64
1184.387, 38222.00
1185.474, 38022.00
1186.560, 38000.00
1187.647, 38256.00
1188.733, 37784.00
1189.820, 37939.00
1190.906, 37746.00
1191.992, 37982.00
1193.078, 38176.00
1194.163, 37921.00
1195.249, 37726.00
1196.334, 37826.00
1197.419, 37749.00
1198.504, 37983.00
1199.589, 37597.00
1200.674, 37619.00
1201.758, 37963.00
1202.843, 37639.00
1203.927, 37926.00
1205.011, 37934.00
1206.095, 37668.00
1207.179, 37885.00
1208.262, 38113.00
1209.345, 37755.00
1210.429, 38190.00
1211.512, 37965.00
1212.595, 37871.00
1213.677, 38240.00
1214.760, 38100.00
1215.842, 38152.00
1216.925, 38260.00
1218.007, 38465.00
1219.089, 38224.00
1220.171, 38489.00
1221.252, 38535.00
1222.334, 38485.00
1223.415, 38754.00
1224.496, 38540.00
1225.577, 38853.00
1226.658, 38546.00
1227.738, 38910.00
1228.819, 38775.00
1229.899, 38688.00
1230.979, 38551.00
1232.060, 38736.00
1233.139, 38580.00
1234.219, 38769.00
1235.299, 38781.00
1236.378, 39070.00
1237.457, 38797.00
1238.536, 38649.00
1239.615, 38882.00
1240.694, 38711.00
1241.772, 38873.00
1242.851, 39141.00
1243.929, 38923.00
1245.007, 38961.00
1246.085, 39204.00
1247.163, 39347.00
1248.240, 39520.00
1249.318, 39471.00
1250.395, 39624.84
1251.472, 39681.64
1252.549, 39803.00
1253.626, 39882.00
1254.703, 40013.00
1255.779, 40242.00
1256.855, 40134.00
1257.931, 40483.00
1259.007, 40369.00
1260.083, 40616.00
1261.159, 40490.00
1262.234, 40586.00
1263.310, 40421.00
1264.385, 40631.00
1265.460, 40683.00
1266.535, 40685.00
1267.610, 41755.00
1268.684, 41466.00
1269.758, 41264.00
1270.833, 41252.00
1271.907, 40832.00
1272.981, 40805.00
1274.054, 40729.00
1275.128, 40904.00
1276.201, 41065.00
1277.275, 40923.00
1278.348, 40927.00
1279.421, 41126.00
1280.493, 41307.00
1281.566, 41357.00
1282.638, 41272.00
1283.711, 41400.00
1284.783, 41304.00
1285.855, 41465.00
1286.927, 41336.00
1287.998, 41577.00
1289.070, 41755.00
1290.141, 41562.00
1291.212, 41667.00
1292.283, 41934.00
1293.354, 42072.00
1294.425, 42058.00
1295.495, 42298.00
1296.566, 42215.00
1297.636, 42288.00
1298.706, 42171.00
1299.776, 42344.00
1300.845, 42229.00
1301.915, 42068.00
1302.984, 42225.00
1304.054, 42122.00
1305.123, 41803.00
1306.191, 41631.00
1307.260, 41918.00
1308.329, 41942.00
1309.397, 41792.00
1310.465, 41621.00
1311.534, 41774.00
1312.602, 41672.00
1313.669, 41747.00
1314.737, 41720.00
1315.804, 41541.00
1316.872, 41604.00
1317.939, 41498.45
1319.006, 41464.54
1320.073, 41409.00
1321.139, 41395.00
1322.206, 41408.00
1323.272, 41347.00
1324.338, 41259.00
1325.404, 41193.00
1326.470, 41073.00
1327.536, 41192.00
1328.601, 40731.00
1329.667, 40716.00
1330.732, 40650.34
1331.797, 40186.00
1332.862, 40422.00
1333.926, 40380.00
1334.991, 39965.00
1336.055, 40692.00
1337.120, 40040.00
1338.184, 39923.00
1339.248, 39937.00
1340.311, 39911.00
1341.375, 39731.00
1342.438, 39674.00
1343.502, 39760.00
