##NAMES=Fluorapophyllite-(K)
##RRUFFID=R060554
##IDEAL CHEMISTRY=KCa_4_Si_8_O_20_F&#183;8H_2_O
##LOCALITY=unknown
##OWNER=RRUFF
##SOURCE=Gemological Institute of America
##DESCRIPTION=Colorless polished fragment
##STATUS=The identification of this mineral has been confirmed by X-ray diffraction and chemical analysis
##URL=rruff.info/R060554
##MEASURED CHEMISTRY=(K_0.88_Na_0.12_)Ca_4.00_Si_8.00_O_20_F_1.00_Â·8H2O
##PIN_ID=L00812
##ORIENTATION=Laser parallel to -a* (-1 0 0). Fiducial mark perpendicular to laser is parallel to -c [0 0 -1]
53.91000, 476.0000
55.14900, 1117.000
56.38700, 647.0000
57.62600, 502.0000
58.86400, 524.0000
60.10300, 512.0000
61.34100, 564.0000
62.57900, 569.0000
63.81700, 627.0000
65.05400, 668.0000
66.29200, 767.0000
67.52900, 799.0000
68.76700, 999.0000
70.00400, 1186.000
71.24100, 1302.000
72.47700, 1460.000
73.71400, 1699.000
74.95100, 1990.000
76.18700, 2412.000
77.42300, 2893.000
78.65900, 3487.000
79.89500, 4184.000
81.13100, 5236.000
82.36700, 6114.000
83.60200, 7313.000
84.83700, 8332.000
86.07200, 9095.000
87.30800, 10016.00
88.54200, 10668.00
89.77700, 11189.00
91.01200, 11532.00
92.24600, 11516.00
93.48000, 11447.00
94.71400, 11538.00
95.94800, 12130.00
97.18200, 13039.00
98.41600, 14170.00
99.64900, 16204.00
100.8830, 19056.00
102.1160, 23074.00
103.3490, 27980.00
104.5820, 33067.00
105.8150, 36183.00
107.0470, 36595.00
108.2800, 33017.00
109.5120, 27059.00
110.7440, 21583.00
111.9760, 17263.00
113.2080, 14371.00
114.4400, 12600.00
115.6710, 11413.00
116.9030, 10695.00
118.1340, 10525.00
119.3650, 10695.00
120.5960, 11019.00
121.8270, 11678.00
123.0580, 12063.00
124.2880, 12195.00
125.5190, 12010.00
126.7490, 12004.00
127.9790, 12268.00
129.2090, 12417.00
130.4390, 12480.00
131.6680, 12524.00
132.8980, 12458.00
134.1270, 12524.00
135.3560, 12825.00
136.5850, 13836.00
137.8140, 14608.00
139.0430, 14919.00
140.2710, 14528.00
141.5000, 13357.00
142.7280, 11996.00
143.9560, 11102.00
145.1840, 10455.00
146.4120, 9983.000
147.6390, 9751.000
148.8670, 9692.000
150.0940, 9819.442
151.3210, 10110.16
152.5490, 10636.00
153.7750, 11316.00
155.0020, 12279.57
156.2290, 13385.00
157.4550, 14808.00
158.6810, 16347.00
159.9080, 18114.00
161.1340, 19544.00
162.3590, 20627.00
163.5850, 21237.00
164.8110, 21344.00
166.0360, 20725.00
167.2610, 19501.00
168.4860, 17569.00
169.7110, 15360.00
170.9360, 13680.00
172.1610, 12169.00
173.3850, 11378.00
174.6100, 10758.00
175.8340, 10412.00
177.0580, 10499.00
178.2820, 10657.00
179.5050, 11297.00
180.7290, 11968.00
181.9520, 13002.00
183.1760, 13815.00
184.3990, 14553.00
185.6220, 14380.00
186.8450, 14045.00
188.0670, 13483.00
189.2900, 12740.00
190.5120, 12435.00
191.7340, 12054.00
192.9560, 11915.00
194.1780, 11969.00
195.4000, 12364.00
196.6220, 12876.31
197.8430, 13593.00
199.0640, 14617.00
200.2860, 15718.00
201.5070, 17086.00
202.7270, 18517.00
203.9480, 20250.00
205.1690, 22021.00
206.3890, 23783.00
207.6090, 25436.00
208.8290, 26218.00
210.0490, 26007.00
211.2690, 25183.00
212.4890, 23506.00
213.7080, 21915.00
214.9280, 20065.00
216.1470, 18520.00
217.3660, 17310.00
218.5850, 16258.00
219.8030, 15450.00
221.0220, 15290.00
222.2400, 15245.00
223.4590, 15175.00
224.6770, 15262.00
225.8950, 15584.00
227.1120, 15700.00
228.3300, 15619.00
229.5480, 15153.00
230.7650, 14560.00
231.9820, 13742.00
233.1990, 12638.00
234.4160, 11689.00
235.6330, 10700.00
236.8490, 9897.000
238.0660, 9195.000
239.2820, 8509.000
240.4980, 8111.000
241.7140, 7683.000
242.9300, 7237.000
244.1460, 7126.000
245.3610, 6800.000
246.5770, 6479.000
247.7920, 6466.000
249.0070, 6460.000
250.2220, 6353.000
251.4370, 6345.000
252.6510, 6321.000
253.8660, 6464.000
255.0800, 6382.000
256.2940, 6511.000
257.5080, 6911.000
258.7220, 7293.000
259.9360, 7392.000
261.1490, 7351.000
262.3630, 7612.000
263.5760, 7831.000
264.7890, 8113.000
266.0020, 8191.000
267.2150, 8298.000
268.4270, 8209.000
269.6400, 8088.000
270.8520, 7878.000
272.0640, 7612.000
273.2760, 7349.000
274.4880, 7170.000
275.7000, 7192.000
276.9120, 7019.000
278.1230, 6970.000
279.3340, 7094.000
280.5450, 7059.000
281.7560, 7183.000
282.9670, 7346.000
284.1780, 7618.000
285.3880, 7883.000
286.5980, 8267.000
287.8090, 8739.000
289.0190, 9284.000
290.2290, 9835.419
291.4380, 10195.00
292.6480, 11061.00
293.8570, 11830.00
295.0670, 12434.00
296.2760, 12647.00
297.4850, 13020.00
298.6930, 12874.00
299.9020, 12566.00
301.1110, 12228.00
302.3190, 11759.00
303.5270, 11465.00
304.7350, 10978.00
305.9430, 10838.00
307.1510, 10496.00
308.3580, 10326.00
309.5660, 10356.00
310.7730, 10273.00
311.9800, 10229.00
313.1870, 10205.00
314.3940, 10347.00
315.6010, 10442.00
316.8070, 10488.00
318.0130, 10628.60
319.2200, 10749.00
320.4260, 10842.00
321.6310, 10842.00
322.8370, 10914.00
324.0430, 10881.00
325.2480, 10821.00
326.4540, 10538.00
327.6590, 10513.00
328.8640, 10452.00
330.0680, 10554.00
331.2730, 10659.00
332.4780, 10815.00
333.6820, 10900.00
334.8860, 11095.00
336.0900, 11272.00
337.2940, 11242.00
338.4980, 11208.00
339.7010, 10950.00
340.9050, 10568.00
342.1080, 10180.00
343.3110, 9623.000
344.5140, 9050.000
345.7170, 8769.000
346.9200, 8360.000
348.1220, 7864.000
349.3240, 7674.000
350.5270, 7359.000
351.7290, 7319.000
352.9310, 7168.000
354.1320, 6903.000
355.3340, 6835.000
356.5350, 6610.000
357.7370, 6588.000
358.9380, 6506.000
360.1390, 6457.000
361.3400, 6532.000
362.5400, 6469.000
363.7410, 6499.000
364.9410, 6667.000
366.1410, 6610.000
367.3410, 6698.000
368.5410, 6829.000
369.7410, 6798.000
370.9400, 6957.000
372.1400, 7115.000
373.3390, 7084.000
374.5380, 7000.000
375.7370, 6954.000
376.9360, 6924.000
378.1350, 6950.000
379.3330, 6923.000
380.5310, 6997.000
381.7300, 7063.000
382.9280, 7144.000
384.1260, 7452.000
385.3230, 7582.000
386.5210, 7849.000
387.7180, 8069.000
388.9160, 8275.000
390.1130, 8568.000
391.3100, 8780.000
392.5060, 9367.000
393.7030, 9666.000
394.9000, 10031.00
396.0960, 10248.00
397.2920, 10512.00
398.4880, 10703.00
399.6840, 10597.00
400.8800, 10475.00
402.0750, 10515.00
403.2710, 10248.00
404.4660, 9853.000
405.6610, 9636.000
406.8560, 9471.000
408.0510, 9243.000
409.2450, 9096.000
410.4400, 8849.000
411.6340, 8844.000
412.8280, 8821.000
414.0220, 8873.000
415.2160, 9011.000
416.4100, 9136.000
417.6030, 9502.000
418.7970, 9810.000
419.9900, 10421.00
421.1830, 11298.00
422.3760, 12251.00
423.5690, 13517.00
424.7610, 15118.00
425.9540, 16932.00
427.1460, 19617.00
428.3380, 22094.00
429.5300, 24642.00
430.7220, 26215.00
431.9140, 25798.00
433.1050, 24262.00
434.2970, 21886.00
435.4880, 18989.00
436.6790, 16531.00
437.8700, 14605.00
439.0610, 12815.00
440.2510, 11442.00
441.4420, 10501.00
442.6320, 9758.000
443.8220, 9266.000
445.0120, 8823.000
446.2020, 8623.000
447.3910, 8302.000
448.5810, 8126.000
449.7700, 7989.000
450.9600, 7890.000
452.1490, 7872.000
453.3370, 7930.000
454.5260, 8065.000
455.7150, 8062.000
456.9030, 8239.000
458.0910, 8507.000
459.2800, 8596.000
460.4670, 8811.000
461.6550, 8739.000
462.8430, 9023.000
464.0300, 8967.000
465.2180, 8866.000
466.4050, 8989.000
467.5920, 8961.000
468.7790, 9148.000
469.9650, 9536.000
471.1520, 9920.000
472.3380, 10357.00
473.5250, 11271.00
474.7110, 12226.00
475.8970, 13375.00
477.0820, 14992.00
478.2680, 16466.00
479.4540, 18225.00
480.6390, 20302.00
481.8240, 22391.00
483.0090, 23621.00
484.1940, 24183.00
485.3780, 23714.00
486.5630, 22042.00
487.7470, 19998.00
488.9320, 18058.00
490.1160, 16191.00
491.3000, 14585.00
492.4830, 13437.00
493.6670, 12405.00
494.8500, 11574.00
496.0340, 11003.00
497.2170, 10635.00
498.4000, 10509.00
499.5820, 10365.00
500.7650, 10003.00
501.9480, 10062.00
503.1300, 9836.000
504.3120, 9760.000
505.4940, 9702.000
506.6760, 9668.000
507.8580, 9704.000
509.0390, 9537.000
510.2210, 9594.000
511.4020, 9628.322
512.5830, 9948.000
513.7640, 9756.000
514.9450, 10010.00
516.1250, 10041.00
517.3060, 10301.00
518.4860, 10523.00
519.6660, 10956.00
520.8460, 11235.00
522.0260, 11620.00
523.2060, 12007.00
524.3850, 12535.60
525.5650, 13342.00
526.7440, 13768.00
527.9230, 14623.00
529.1020, 15405.00
530.2810, 16072.00
531.4590, 16837.00
532.6380, 17802.00
533.8160, 18599.00
534.9940, 19307.00
536.1720, 19697.00
537.3500, 19995.00
538.5270, 20272.00
539.7050, 20202.00
540.8820, 20065.00
542.0590, 19857.00
543.2360, 19607.00
544.4130, 19306.00
545.5900, 18948.00
546.7660, 18693.75
547.9430, 18283.00
549.1190, 18136.00
550.2950, 18034.00
551.4710, 17803.00
552.6470, 18037.00
553.8220, 17855.00
554.9980, 17972.00
556.1730, 18038.00
557.3480, 18262.00
558.5230, 18327.00
559.6980, 18552.00
560.8730, 19071.00
562.0470, 19677.00
563.2220, 20126.00
564.3960, 21194.00
565.5700, 21832.00
566.7440, 22836.00
567.9170, 23964.00
569.0910, 25396.00
570.2640, 27147.00
571.4380, 28838.00
572.6110, 31085.00
573.7840, 33178.00
574.9570, 35317.00
576.1290, 37859.00
577.3020, 40737.00
578.4740, 42940.00
579.6460, 45238.00
580.8180, 46781.00
581.9900, 48048.00
583.1620, 48495.00
584.3330, 47786.00
585.5040, 45904.00
586.6760, 43712.00
587.8470, 40730.00
589.0180, 37655.00
590.1880, 34228.00
591.3590, 30968.00
592.5290, 28321.00
593.7000, 25559.00
594.8700, 23519.00
596.0400, 21266.00
597.2090, 19652.00
598.3790, 18368.00
599.5490, 17239.00
600.7180, 16093.00
601.8870, 15026.00
603.0560, 14135.00
604.2250, 13693.00
605.3940, 12996.00
606.5620, 12559.00
607.7300, 12113.00
608.8990, 11756.00
610.0670, 11530.00
611.2350, 11184.00
612.4020, 10974.00
613.5700, 10681.00
614.7370, 10587.00
615.9050, 10490.00
617.0720, 10201.00
618.2390, 10139.00
619.4060, 10149.00
620.5720, 9996.000
621.7390, 9989.000
622.9050, 9916.000
624.0710, 10001.00
625.2370, 9789.000
626.4030, 9865.000
627.5690, 9757.000
628.7340, 9788.000
629.9000, 9661.000
631.0650, 9781.000
632.2300, 9678.000
633.3950, 9687.000
634.5600, 9767.000
635.7240, 9756.000
636.8890, 9751.000
638.0530, 9941.000
639.2170, 10012.00
640.3810, 10000.00
641.5450, 10010.00
642.7080, 10251.00
643.8720, 10479.00
645.0350, 10504.00
646.1980, 10718.00
647.3610, 10933.00
648.5240, 11213.00
649.6870, 11353.00
650.8490, 11660.00
652.0120, 11967.00
653.1740, 12102.00
654.3360, 12495.00
655.4980, 12869.00
656.6600, 13002.00
657.8210, 13330.00
658.9830, 13489.00
660.1440, 13649.00
661.3050, 13857.00
662.4660, 13926.00
663.6270, 13793.00
664.7870, 13469.00
665.9480, 13311.00
667.1080, 12875.00
668.2680, 12398.00
669.4280, 11999.00
670.5880, 11548.37
671.7480, 11155.00
672.9070, 10746.00
674.0670, 10347.00
675.2260, 10081.00
676.3850, 9687.000
677.5440, 9379.000
678.7030, 9028.000
679.8610, 8680.000
681.0200, 8366.000
682.1780, 8306.000
683.3360, 8067.000
684.4940, 7897.000
685.6520, 7723.000
686.8090, 7565.000
687.9670, 7504.000
689.1240, 7409.000
690.2810, 7325.000
691.4380, 7214.000
692.5950, 7125.000
693.7520, 6998.000
694.9080, 6942.000
696.0650, 6877.899
697.2210, 6821.770
698.3770, 6797.000
699.5330, 6749.000
700.6880, 6717.000
701.8440, 6677.000
702.9990, 6697.000
704.1550, 6612.000
705.3100, 6478.000
706.4650, 6548.000
707.6190, 6496.000
708.7740, 6533.000
709.9290, 6424.000
711.0830, 6538.000
712.2370, 6553.000
713.3910, 6429.000
714.5450, 6390.000
715.6980, 6426.000
716.8520, 6330.000
718.0050, 6352.000
719.1580, 6423.000
720.3110, 6422.000
721.4640, 6387.000
722.6170, 6274.000
723.7700, 6406.000
724.9220, 6278.000
726.0740, 6364.000
727.2260, 6367.000
728.3780, 6364.000
729.5300, 6421.000
730.6810, 6291.000
731.8330, 6279.000
732.9840, 6381.000
734.1350, 6360.000
735.2860, 6186.000
736.4370, 6311.000
737.5880, 6320.000
738.7380, 6279.000
739.8880, 6355.000
741.0390, 6352.000
742.1890, 6415.000
743.3380, 6331.000
744.4880, 6345.000
745.6380, 6304.000
746.7870, 6370.000
747.9360, 6392.000
749.0850, 6369.000
750.2340, 6433.000
751.3830, 6428.000
752.5310, 6371.000
753.6800, 6434.000
754.8280, 6606.000
755.9760, 6599.000
757.1240, 6713.000
758.2720, 6775.000
759.4190, 6887.000
760.5670, 6979.447
761.7140, 7058.000
762.8610, 7155.000
764.0080, 7214.000
765.1550, 7257.000
766.3020, 7193.000
767.4480, 7234.000
768.5950, 7212.000
769.7410, 7232.000
770.8870, 7065.000
772.0330, 7005.000
773.1780, 6966.000
774.3240, 6958.000
775.4690, 6921.000
776.6140, 6956.479
777.7590, 6993.000
778.9040, 7038.000
780.0490, 7120.000
781.1940, 7165.000
782.3380, 7274.192
783.4820, 7440.000
784.6260, 7548.000
785.7700, 7699.000
786.9140, 7949.000
788.0580, 8070.000
789.2010, 8352.000
790.3450, 8515.000
791.4880, 8642.000
792.6310, 8293.000
793.7730, 8033.000
794.9160, 8037.000
796.0590, 7734.000
797.2010, 7521.000
798.3430, 7344.000
799.4850, 7177.762
800.6270, 7063.755
801.7690, 6955.000
802.9100, 6925.000
804.0520, 6845.000
805.1930, 6865.000
806.3340, 6933.000
807.4750, 6837.000
808.6160, 6775.000
809.7560, 6897.000
810.8970, 6859.000
812.0370, 6879.000
813.1770, 6806.000
814.3170, 6874.000
815.4570, 6803.000
816.5960, 6881.000
817.7360, 6862.582
818.8750, 6922.000
820.0140, 6880.000
821.1530, 6881.000
822.2920, 6940.000
823.4310, 6945.000
824.5690, 7065.000
825.7070, 6932.000
826.8460, 6990.000
827.9840, 6914.000
829.1220, 7024.000
830.2590, 7098.000
831.3970, 7189.000
832.5340, 7221.000
833.6710, 7205.000
834.8080, 7215.000
835.9450, 7119.000
837.0820, 7224.000
838.2190, 7369.000
839.3550, 7267.000
840.4910, 7312.000
841.6270, 7352.000
842.7630, 7408.000
843.8990, 7378.000
845.0350, 7356.000
846.1700, 7369.000
847.3060, 7348.538
848.4410, 7359.810
849.5760, 7347.000
850.7100, 7368.000
851.8450, 7386.000
852.9800, 7364.000
854.1140, 7316.000
855.2480, 7503.000
856.3820, 7381.000
857.5160, 7377.000
858.6500, 7258.000
859.7830, 7367.000
860.9170, 7332.000
862.0500, 7369.000
863.1830, 7335.000
864.3160, 7190.000
865.4480, 7280.000
866.5810, 7096.000
867.7130, 7176.000
868.8460, 7188.000
869.9780, 7095.000
871.1100, 7132.000
872.2410, 6996.000
873.3730, 7087.000
874.5050, 7087.000
875.6360, 7115.000
876.7670, 7052.000
877.8980, 7071.000
879.0290, 7075.000
880.1590, 7011.000
881.2900, 7083.000
882.4200, 7125.000
883.5500, 7025.000
884.6800, 7021.000
885.8100, 6938.000
886.9400, 7075.000
888.0690, 7047.000
889.1990, 7074.000
890.3280, 7106.000
891.4570, 7003.000
892.5860, 7173.000
893.7140, 7107.000
894.8430, 7175.000
895.9710, 7294.000
897.1000, 7204.000
898.2280, 7199.000
899.3560, 7281.000
900.4830, 7133.000
901.6110, 7195.000
902.7380, 7269.000
903.8660, 7184.000
904.9930, 7213.000
906.1200, 7105.000
907.2460, 7270.000
908.3730, 7174.000
909.5000, 7271.000
910.6260, 7226.000
911.7520, 7295.000
912.8780, 7276.000
914.0040, 7193.000
915.1290, 7096.000
916.2550, 7289.000
917.3800, 7147.000
918.5050, 7187.000
919.6300, 7161.000
920.7550, 7118.000
921.8800, 7224.000
923.0040, 7227.000
924.1290, 7171.000
925.2530, 7244.000
926.3770, 7231.000
927.5010, 7295.000
928.6250, 7297.000
929.7480, 7254.000
930.8720, 7161.000
931.9950, 7296.000
933.1180, 7235.000
934.2410, 7379.000
935.3640, 7357.000
936.4860, 7374.000
937.6090, 7342.000
938.7310, 7475.000
939.8530, 7453.000
940.9750, 7592.000
942.0970, 7579.000
943.2180, 7741.000
944.3400, 7678.000
945.4610, 7612.000
946.5820, 7724.000
947.7030, 7771.000
948.8240, 7760.000
949.9450, 7858.000
951.0650, 7845.000
952.1860, 7949.000
953.3060, 8065.000
954.4260, 8050.000
955.5460, 8115.000
956.6650, 8098.000
957.7850, 8059.000
958.9040, 8144.000
960.0230, 8140.000
961.1420, 8145.000
962.2610, 8190.000
963.3800, 8188.000
964.4990, 8242.699
965.6170, 8302.481
966.7350, 8366.000
967.8530, 8459.000
968.9710, 8566.000
970.0890, 8670.000
971.2070, 8751.000
972.3240, 8942.000
973.4410, 9029.000
974.5580, 9080.000
975.6750, 9048.000
976.7920, 8891.000
977.9090, 8829.000
979.0250, 8725.000
980.1410, 8571.000
981.2580, 8515.000
982.3740, 8480.982
983.4890, 8444.418
984.6050, 8497.000
985.7200, 8474.000
986.8360, 8511.000
987.9510, 8563.000
989.0660, 8592.000
990.1810, 8492.000
991.2950, 8572.000
992.4100, 8514.000
993.5240, 8506.000
994.6390, 8533.000
995.7530, 8552.000
996.8660, 8616.000
997.9800, 8682.000
999.0940, 8742.000
1000.207, 8944.000
1001.320, 9029.000
1002.433, 9139.000
1003.546, 9278.000
1004.659, 9325.000
1005.772, 9579.000
1006.884, 9504.000
1007.996, 9506.000
1009.108, 9481.000
1010.220, 9229.000
1011.332, 9153.000
1012.444, 9001.000
1013.555, 8865.000
1014.666, 8858.000
1015.777, 8715.000
1016.888, 8556.000
1017.999, 8698.000
1019.110, 8607.000
1020.220, 8588.000
1021.331, 8633.000
1022.441, 8702.000
1023.551, 8718.000
1024.661, 8789.000
1025.770, 8819.000
1026.880, 8797.000
1027.989, 9083.000
1029.098, 9217.000
1030.207, 9288.000
1031.316, 9382.000
1032.425, 9591.619
1033.533, 9756.846
1034.642, 10063.00
1035.750, 10246.00
1036.858, 10569.00
1037.966, 10907.00
1039.073, 11345.00
1040.181, 11802.00
1041.288, 12311.00
1042.396, 12799.00
1043.503, 13557.00
1044.610, 14509.00
1045.716, 15549.00
1046.823, 16891.00
1047.929, 18525.00
1049.036, 20565.00
1050.142, 23259.00
1051.248, 26490.00
1052.353, 30628.00
1053.459, 35837.00
1054.564, 41371.00
1055.670, 48019.00
1056.775, 54022.00
1057.880, 59747.00
1058.985, 63068.00
1060.089, 64325.00
1061.194, 62501.00
1062.298, 58493.00
1063.402, 52750.00
1064.506, 46728.00
1065.610, 40783.00
1066.713, 35807.00
1067.817, 31307.00
1068.920, 27542.00
1070.023, 24677.00
1071.126, 22180.00
1072.229, 20178.00
1073.332, 18679.00
1074.435, 17305.00
1075.537, 15995.00
1076.639, 15074.00
1077.741, 14131.00
1078.843, 13645.00
1079.945, 13141.00
1081.046, 12676.00
1082.148, 12215.00
1083.249, 11883.00
1084.350, 11691.00
1085.451, 11588.00
1086.551, 11554.00
1087.652, 11360.00
1088.752, 11098.00
1089.853, 11063.00
1090.953, 10811.00
1092.053, 10460.00
1093.152, 10159.00
1094.252, 9918.000
1095.351, 9667.530
1096.451, 9588.000
1097.550, 9301.000
1098.649, 9230.000
1099.748, 9152.000
1100.846, 8983.000
1101.945, 9027.000
1103.043, 8827.000
1104.141, 8780.000
1105.239, 8806.000
1106.337, 8895.000
1107.434, 8764.000
1108.532, 8858.000
1109.629, 8934.000
1110.726, 8875.000
1111.823, 9000.000
1112.920, 8947.000
1114.017, 9109.000
1115.113, 8976.000
1116.210, 9005.000
1117.306, 8801.000
1118.402, 8695.000
1119.498, 8573.000
1120.593, 8483.000
1121.689, 8374.000
1122.784, 8301.000
1123.879, 8249.000
1124.974, 8305.000
1126.069, 8190.000
1127.164, 8167.000
1128.259, 8062.000
1129.353, 8018.354
1130.447, 7992.000
1131.541, 7943.000
1132.635, 7972.000
1133.729, 7976.000
1134.822, 7961.000
1135.916, 7905.000
1137.009, 7903.000
1138.102, 7907.000
1139.195, 7927.000
1140.288, 7794.000
1141.380, 7938.000
1142.473, 7810.000
1143.565, 7920.000
1144.657, 7770.000
1145.749, 7864.000
1146.841, 7816.000
1147.932, 7769.000
1149.024, 7980.000
1150.115, 7825.000
1151.206, 7804.000
1152.297, 7834.000
1153.388, 7702.000
1154.479, 7723.000
1155.569, 7830.000
1156.659, 7815.000
1157.750, 7800.000
1158.839, 7755.000
1159.929, 7794.000
1161.019, 7721.000
1162.108, 7737.845
1163.198, 7768.000
1164.287, 7746.000
1165.376, 7818.000
1166.465, 7843.000
1167.553, 7706.000
1168.642, 7775.000
1169.730, 7734.000
1170.818, 7818.000
1171.906, 7758.000
1172.994, 7824.000
1174.082, 7821.000
1175.170, 7840.000
1176.257, 7878.660
1177.344, 7874.000
1178.431, 7900.000
1179.518, 7777.000
1180.605, 7696.000
1181.691, 7777.000
1182.778, 7847.000
1183.864, 7809.000
1184.950, 7713.000
1186.036, 7749.000
1187.122, 7839.000
1188.207, 7746.000
1189.292, 7800.000
1190.378, 7879.000
1191.463, 7722.000
1192.548, 7748.000
1193.632, 7762.000
1194.717, 7685.000
1195.801, 7720.000
1196.886, 7737.000
1197.970, 7644.000
1199.054, 7844.000
1200.137, 7760.000
1201.221, 7808.000
1202.305, 7775.000
1203.388, 7777.000
1204.471, 7745.000
1205.554, 7774.000
1206.637, 7768.289
1207.719, 7730.000
1208.802, 7771.000
1209.884, 7801.000
1210.966, 7772.000
1212.048, 7723.000
1213.130, 7792.000
1214.212, 7929.000
1215.293, 7790.000
1216.374, 7834.000
1217.456, 7792.000
1218.536, 7796.000
1219.617, 7709.000
1220.698, 7730.824
1221.778, 7740.000
1222.859, 7777.000
1223.939, 7802.000
1225.019, 7901.000
1226.099, 7911.000
1227.178, 7903.000
1228.258, 7867.000
1229.337, 7879.404
1230.417, 7842.000
1231.496, 7881.000
1232.574, 7843.000
1233.653, 7850.000
1234.732, 7828.000
1235.810, 7845.000
1236.888, 7866.000
1237.966, 7757.000
1239.044, 7865.000
1240.122, 7858.000
