##NAMES=Fluorite
##RRUFFID=R060548
##IDEAL CHEMISTRY=CaF_2_
##LOCALITY=unknown
##OWNER=RRUFF
##SOURCE=Gemological Institute of America
##DESCRIPTION=Pale blue fragment
##STATUS=The identification of this mineral has been confirmed by X-ray diffraction and chemical analysis
##URL=rruff.info/R060548
##MEASURED CHEMISTRY=Ca_1.00_F_2.00_
##PIN_ID=L01039
##ORIENTATION=Laser parallel to -a* (-1 0 0). Fiducial mark perpendicular to laser is parallel to b [0 1 0]
177.7810, 12483.00
179.0090, 12572.00
180.2370, 12486.00
181.4640, 12631.00
182.6920, 12654.00
183.9190, 12731.00
185.1460, 12645.00
186.3730, 12747.00
187.6000, 12787.00
188.8270, 12866.00
190.0530, 12896.00
191.2800, 12993.00
192.5060, 12916.00
193.7320, 13075.00
194.9580, 13048.00
196.1830, 12915.00
197.4090, 13153.00
198.6340, 13063.00
199.8590, 13095.00
201.0840, 13165.00
202.3090, 13279.00
203.5340, 13058.00
204.7580, 13011.00
205.9820, 12824.00
207.2060, 13007.00
208.4300, 12949.00
209.6540, 13130.00
210.8780, 13040.00
212.1010, 13085.00
213.3240, 13231.00
214.5470, 13066.00
215.7700, 13118.00
216.9930, 13283.00
218.2150, 13371.00
219.4380, 13415.00
220.6600, 13603.00
221.8820, 13742.00
223.1040, 13940.00
224.3260, 14238.00
225.5470, 14115.00
226.7680, 14342.00
227.9900, 14100.00
229.2110, 14097.00
230.4310, 13962.00
231.6520, 14025.00
232.8720, 13945.00
234.0930, 14098.00
235.3130, 14020.00
236.5330, 14171.00
237.7530, 14060.00
238.9720, 14264.00
240.1920, 14402.00
241.4110, 14381.00
242.6300, 14448.65
243.8490, 14413.33
245.0680, 14382.00
246.2860, 14282.00
247.5040, 14194.00
248.7230, 14090.00
249.9410, 14124.00
251.1590, 14161.00
252.3760, 14266.00
253.5940, 14192.00
254.8110, 13998.00
256.0280, 14096.00
257.2450, 14077.00
258.4620, 14310.00
259.6790, 14953.00
260.8950, 15168.00
262.1120, 15227.00
263.3280, 14956.00
264.5440, 14786.00
265.7600, 14677.00
266.9750, 14426.00
268.1910, 14156.00
269.4060, 13888.00
270.6210, 13829.00
271.8360, 13951.00
273.0510, 13653.00
274.2650, 13682.00
275.4800, 13736.00
276.6940, 13584.00
277.9080, 13610.00
279.1220, 13639.00
280.3360, 13689.00
281.5490, 13686.00
282.7630, 13674.00
283.9760, 13521.00
285.1890, 13683.00
286.4020, 13510.00
287.6150, 13788.00
288.8270, 13656.00
290.0400, 13817.00
291.2520, 13771.00
292.4640, 13745.00
293.6760, 13983.00
294.8870, 13887.00
296.0990, 14065.00
297.3100, 13923.00
298.5210, 14126.00
299.7320, 13990.00
300.9430, 14264.00
302.1540, 14273.00
303.3640, 14335.00
304.5750, 14432.00
305.7850, 14805.00
306.9950, 14915.00
308.2050, 15212.00
309.4140, 15439.00
310.6240, 15954.00
311.8330, 16335.00
313.0420, 17044.00
314.2510, 17874.00
315.4600, 18904.00
316.6680, 20209.00
317.8770, 22162.00
319.0850, 24165.00
320.2930, 26266.00
321.5010, 27773.00
322.7090, 28001.00
323.9160, 26881.00
325.1240, 25105.00
326.3310, 23078.00
327.5380, 21107.00
328.7450, 19694.00
329.9520, 18794.00
331.1580, 17776.00
332.3650, 17126.00
333.5710, 16872.00
334.7770, 16347.00
335.9830, 16217.00
337.1880, 16181.00
338.3940, 15801.00
339.5990, 15910.00
340.8040, 15901.00
342.0090, 15713.00
343.2140, 15642.00
344.4190, 15802.00
345.6230, 15464.00
346.8280, 15629.00
348.0320, 15567.00
349.2360, 15578.00
350.4400, 15809.00
351.6430, 15486.00
352.8470, 15628.00
354.0500, 15814.00
355.2530, 15522.00
356.4560, 15548.00
357.6590, 15649.00
358.8620, 15665.00
360.0640, 15661.00
361.2660, 15552.00
362.4680, 15650.00
363.6700, 15536.00
364.8720, 15400.00
366.0740, 15578.00
367.2750, 15434.00
368.4760, 15297.00
369.6770, 15702.00
370.8780, 15529.00
372.0790, 15421.00
373.2800, 15417.00
374.4800, 15340.00
375.6800, 15405.00
376.8800, 15320.00
378.0800, 15424.00
379.2800, 15518.00
380.4790, 15353.00
381.6790, 15277.00
382.8780, 15459.00
384.0770, 15362.00
385.2760, 15261.00
386.4750, 15424.00
387.6730, 15381.00
388.8720, 15572.00
390.0700, 15558.00
391.2680, 15342.00
392.4660, 15468.00
393.6630, 15451.00
394.8610, 15364.00
396.0580, 15299.00
397.2550, 15205.00
398.4520, 15135.00
399.6490, 15298.00
400.8460, 15154.00
402.0420, 14993.00
403.2390, 15085.00
404.4350, 14911.00
405.6310, 15206.00
406.8270, 14957.00
408.0220, 15055.00
409.2180, 14921.00
410.4130, 15022.00
411.6080, 14986.00
412.8030, 14953.00
413.9980, 14701.00
415.1920, 14991.00
416.3870, 14963.00
417.5810, 14897.00
418.7750, 15157.00
419.9690, 14819.00
421.1630, 14900.00
422.3570, 14853.00
423.5500, 14911.00
424.7430, 15013.00
425.9360, 15032.00
427.1290, 14880.00
428.3220, 15079.00
429.5150, 15098.00
430.7070, 15026.00
431.8990, 15136.00
433.0910, 15032.00
434.2830, 15160.00
435.4750, 15198.00
436.6670, 15120.00
437.8580, 15271.00
439.0490, 15246.00
440.2400, 15358.00
441.4310, 15329.00
442.6220, 15397.00
443.8130, 15178.00
445.0030, 15387.00
446.1930, 15247.00
447.3830, 15605.00
448.5730, 15532.00
449.7630, 15564.00
450.9520, 15544.00
452.1420, 15622.00
453.3310, 15718.00
454.5200, 15673.00
455.7090, 15674.00
456.8980, 15742.00
458.0860, 15680.00
459.2740, 15632.00
460.4630, 15691.00
461.6510, 15866.00
462.8380, 15826.00
464.0260, 16055.00
465.2140, 15902.00
466.4010, 16041.00
467.5880, 16039.00
468.7750, 15938.00
469.9620, 16102.00
471.1490, 16124.00
472.3350, 16114.00
473.5220, 16158.00
474.7080, 16174.84
475.8940, 16183.00
477.0800, 16262.00
478.2650, 16236.08
479.4510, 16335.00
480.6360, 16235.00
481.8210, 16269.00
483.0060, 16176.00
484.1910, 16328.00
485.3760, 16216.00
486.5600, 16312.00
487.7440, 16237.00
488.9290, 16337.00
490.1130, 16567.00
491.2960, 16564.00
492.4800, 16485.00
493.6630, 16749.00
494.8470, 16573.00
496.0300, 16460.00
497.2130, 16538.00
498.3960, 16477.00
499.5780, 16564.00
500.7610, 16303.00
501.9430, 16412.00
503.1250, 16525.00
504.3070, 16252.00
505.4890, 16506.00
506.6710, 16352.00
507.8520, 16445.00
509.0330, 16359.00
510.2140, 16370.00
511.3950, 16349.00
512.5760, 16564.00
513.7570, 16334.00
514.9370, 16573.00
516.1170, 16481.00
517.2980, 16499.00
518.4780, 16722.00
519.6570, 16452.00
520.8370, 16535.00
522.0160, 16357.00
523.1960, 16479.00
524.3750, 16576.00
525.5540, 16564.00
526.7320, 16386.00
527.9110, 16434.24
529.0890, 16461.11
530.2680, 16279.00
531.4460, 16624.00
532.6240, 16426.00
533.8010, 16485.00
534.9790, 16673.00
536.1560, 16315.00
537.3340, 16432.00
538.5110, 16554.00
539.6880, 16507.00
540.8650, 16564.00
542.0410, 16664.00
543.2180, 16423.00
544.3940, 16542.00
545.5700, 16574.00
546.7460, 16797.00
547.9220, 16800.00
549.0970, 16729.00
550.2730, 16525.00
551.4480, 16806.00
552.6230, 16702.00
553.7980, 16844.00
554.9730, 16957.00
556.1470, 16750.00
557.3210, 17060.00
558.4960, 17003.00
559.6700, 17008.00
560.8440, 17254.00
562.0170, 17164.00
563.1910, 17195.00
564.3640, 17241.00
565.5380, 17158.00
566.7110, 17414.00
567.8840, 17414.00
569.0560, 17238.00
570.2290, 17405.00
571.4010, 17350.00
572.5740, 17265.00
573.7460, 17544.00
574.9180, 17943.00
576.0890, 17719.31
577.2610, 17823.03
578.4320, 17505.00
579.6040, 17590.00
580.7750, 17562.00
581.9450, 17486.00
583.1160, 17500.00
584.2870, 17792.00
585.4570, 17644.00
586.6270, 17785.00
587.7980, 17575.00
588.9670, 17781.00
590.1370, 17785.00
591.3070, 17918.00
592.4760, 17804.00
593.6450, 17815.00
594.8140, 17860.00
595.9830, 18008.00
597.1520, 18036.00
598.3210, 18085.25
599.4890, 18124.79
600.6570, 18123.00
601.8250, 18109.00
602.9930, 18091.00
604.1610, 18078.85
605.3290, 17973.00
606.4960, 18034.00
607.6630, 18013.00
608.8300, 17969.00
609.9970, 18104.00
611.1640, 18376.00
612.3300, 18185.00
613.4970, 18463.00
614.6630, 18135.00
615.8290, 18527.00
616.9950, 18875.00
618.1610, 18921.06
619.3260, 19650.00
620.4920, 19441.00
621.6570, 19294.00
622.8220, 19668.00
623.9870, 19717.00
625.1520, 19844.00
626.3160, 19984.00
627.4810, 19740.00
628.6450, 19632.00
629.8090, 19422.00
630.9730, 19175.00
632.1370, 19023.00
633.3000, 18846.00
634.4640, 18765.00
635.6270, 18907.00
636.7900, 18765.00
637.9530, 18839.00
639.1160, 18968.00
640.2780, 18851.00
641.4410, 19371.00
642.6030, 19384.00
643.7650, 19474.00
644.9270, 19513.00
646.0890, 19667.00
647.2500, 19729.00
648.4120, 19749.00
649.5730, 19648.00
650.7340, 19594.00
651.8950, 19603.00
653.0560, 19478.00
654.2160, 19417.00
655.3770, 19492.00
656.5370, 19130.00
657.6970, 19062.00
658.8570, 19178.00
660.0170, 18971.00
661.1760, 18882.00
662.3360, 19043.00
663.4950, 19205.00
664.6540, 19149.00
665.8130, 19298.00
666.9720, 19547.00
668.1310, 19670.00
669.2890, 19540.00
670.4470, 19414.00
671.6050, 19419.00
672.7630, 19269.00
673.9210, 19276.78
675.0790, 19344.00
676.2360, 19290.00
677.3930, 19288.00
678.5510, 19347.00
679.7080, 19475.00
680.8640, 19729.00
682.0210, 19667.00
683.1770, 19895.00
684.3340, 20012.00
685.4900, 20470.00
686.6460, 20640.00
687.8020, 20845.00
688.9570, 21000.00
690.1130, 21050.00
691.2680, 21239.00
692.4230, 21383.00
693.5780, 21061.00
694.7330, 21282.00
695.8880, 21162.00
697.0420, 20943.00
698.1960, 21094.00
699.3510, 20991.00
700.5040, 21052.00
701.6580, 21063.00
702.8120, 21021.00
703.9650, 21262.00
705.1190, 21364.00
706.2720, 21193.00
707.4250, 21203.00
708.5780, 21578.00
709.7300, 21483.00
710.8830, 21538.00
712.0350, 21238.00
713.1870, 21281.00
714.3390, 21271.00
715.4910, 21137.00
716.6430, 21101.00
717.7940, 21123.00
718.9460, 21032.00
720.0970, 20871.00
721.2480, 20961.00
722.3990, 20751.00
723.5500, 20691.00
724.7000, 20586.00
725.8500, 20547.56
727.0010, 20540.00
728.1510, 20613.00
729.3010, 20659.00
730.4500, 20664.86
731.6000, 20655.00
732.7490, 20675.00
733.8980, 20644.00
735.0470, 20606.00
736.1960, 20647.00
737.3450, 20504.00
738.4940, 20589.00
739.6420, 20408.00
740.7900, 20500.00
741.9380, 20403.00
743.0860, 20328.73
744.2340, 20457.00
745.3810, 20212.00
746.5290, 20462.00
747.6760, 20499.00
748.8230, 20438.00
749.9700, 20656.00
751.1170, 20619.00
752.2630, 20676.00
753.4100, 20651.00
754.5560, 20789.00
755.7020, 20617.00
756.8480, 20972.00
757.9940, 20808.00
759.1390, 20882.00
760.2850, 21096.00
761.4300, 20903.00
762.5750, 21027.00
763.7200, 20869.00
764.8650, 20907.00
766.0100, 20838.00
767.1540, 21013.00
768.2980, 20877.00
769.4420, 21186.00
770.5860, 21241.00
771.7300, 21046.00
772.8740, 21217.00
774.0170, 21303.00
775.1610, 21350.00
776.3040, 21559.00
777.4470, 21651.00
778.5900, 21762.00
779.7320, 21615.00
780.8750, 21738.00
782.0170, 21760.00
783.1590, 21971.00
784.3010, 21959.00
785.4430, 22035.00
786.5850, 22078.00
787.7260, 22085.00
788.8680, 22252.00
790.0090, 22229.00
791.1500, 22424.00
792.2910, 22550.00
793.4310, 22524.00
794.5720, 22660.00
795.7120, 22906.00
796.8520, 22892.00
797.9920, 23061.00
799.1320, 23205.00
800.2720, 23247.00
801.4120, 23347.00
802.5510, 23479.00
803.6900, 23519.00
804.8290, 23813.00
805.9680, 24038.00
807.1070, 23862.00
808.2450, 24104.00
809.3840, 24267.00
810.5220, 24137.00
811.6600, 24357.00
812.7980, 24318.00
813.9360, 24610.00
815.0730, 24439.00
816.2110, 24383.00
817.3480, 24471.00
818.4850, 24446.00
819.6220, 24583.00
820.7590, 24319.00
821.8960, 24772.00
823.0320, 24597.00
824.1680, 24961.00
825.3040, 24879.00
826.4400, 24865.00
827.5760, 25279.00
828.7120, 25454.00
829.8470, 25508.00
830.9830, 26148.00
832.1180, 26629.00
833.2530, 27845.00
834.3880, 28700.00
835.5220, 29806.00
836.6570, 29789.00
837.7910, 29939.00
838.9250, 29721.00
840.0590, 29894.00
841.1930, 31357.00
842.3270, 30884.00
843.4600, 30678.00
844.5940, 30526.00
845.7270, 29803.00
846.8600, 29572.00
847.9930, 29339.00
849.1250, 29144.00
850.2580, 29622.00
851.3900, 30040.00
852.5230, 29383.00
853.6550, 28929.00
854.7870, 28180.00
855.9180, 27349.00
857.0500, 27232.00
858.1810, 26639.00
859.3130, 26570.00
860.4440, 26370.00
861.5750, 25928.00
862.7050, 25712.00
863.8360, 25210.00
864.9660, 25010.00
866.0970, 24674.00
867.2270, 24679.00
868.3570, 24327.00
869.4870, 24218.00
870.6160, 24054.00
871.7460, 24209.00
872.8750, 24078.00
874.0040, 24779.00
875.1330, 25961.00
876.2620, 24356.00
877.3910, 24976.00
878.5190, 24706.00
879.6470, 24113.00
880.7760, 24110.00
881.9040, 24157.00
883.0310, 24124.00
884.1590, 23798.00
885.2870, 23853.00
886.4140, 24067.00
887.5410, 23725.00
888.6680, 23799.00
889.7950, 24015.00
890.9220, 24070.00
892.0480, 24349.00
893.1750, 24698.00
894.3010, 24751.00
895.4270, 24884.00
896.5530, 25154.00
897.6790, 25005.00
898.8040, 25054.00
899.9300, 25522.00
901.0550, 25070.00
902.1800, 25118.00
903.3050, 25320.00
904.4300, 25461.00
905.5540, 26617.00
906.6790, 28656.00
907.8030, 28774.00
908.9270, 31367.00
910.0510, 35381.00
911.1750, 40258.00
912.2990, 42591.00
913.4220, 40303.00
914.5450, 37017.00
915.6690, 34020.00
916.7920, 32612.00
917.9140, 32306.00
919.0370, 33116.00
920.1600, 35273.00
921.2820, 37483.00
922.4040, 38772.00
923.5260, 38018.00
924.6480, 38299.00
925.7700, 39483.00
926.8910, 42258.00
928.0130, 43599.00
929.1340, 41984.00
930.2550, 38875.00
931.3760, 36755.00
932.4970, 35229.00
933.6170, 33831.00
934.7380, 33682.00
935.8580, 34842.00
936.9780, 36738.00
938.0980, 37790.00
939.2180, 36227.00
940.3370, 33648.00
941.4570, 32492.00
942.5760, 32410.00
943.6950, 34025.00
944.8140, 37448.00
945.9330, 43751.00
947.0520, 51497.00
948.1700, 57089.00
949.2890, 54794.00
950.4070, 47491.00
951.5250, 39996.00
952.6430, 34433.00
953.7600, 31218.00
954.8780, 29561.00
955.9950, 28162.00
957.1120, 27600.00
958.2290, 27222.00
959.3460, 27151.00
960.4630, 26801.00
961.5800, 26995.00
962.6960, 26876.00
963.8120, 26958.00
964.9280, 26911.00
966.0440, 26752.00
967.1600, 26858.00
968.2760, 26753.00
969.3910, 26445.00
970.5060, 26513.00
971.6210, 26315.00
972.7360, 25985.00
973.8510, 26050.00
974.9660, 26042.00
976.0800, 25812.00
977.1950, 25792.00
978.3090, 25874.00
979.4230, 25712.00
980.5370, 25814.00
981.6500, 25947.00
982.7640, 26052.00
983.8770, 26179.00
984.9900, 26192.00
986.1030, 25828.00
987.2160, 26218.00
988.3290, 26089.00
989.4420, 26046.00
990.5540, 26322.00
991.6660, 26166.00
992.7780, 26311.00
993.8900, 26736.00
995.0020, 26659.00
996.1140, 27009.00
997.2250, 27460.00
998.3360, 27704.00
999.4470, 27977.00
1000.558, 28271.00
1001.669, 28565.00
1002.780, 28711.00
1003.890, 28417.00
1005.001, 27991.00
1006.111, 28104.00
1007.221, 27664.00
1008.331, 27704.00
1009.440, 27972.00
1010.550, 28006.00
1011.659, 28092.00
1012.768, 28302.00
1013.877, 28392.00
1014.986, 28657.00
1016.095, 29036.00
1017.204, 29079.00
1018.312, 29357.00
1019.420, 29522.00
1020.528, 29685.00
1021.636, 29675.00
1022.744, 29887.00
1023.852, 30049.34
1024.959, 30383.00
1026.066, 30397.00
1027.173, 30503.00
1028.280, 30519.05
1029.387, 30805.00
1030.494, 30687.00
1031.600, 30757.00
1032.707, 30972.00
1033.813, 30824.00
1034.919, 30758.00
1036.025, 30839.00
1037.130, 30539.00
1038.236, 30666.00
1039.341, 30850.00
1040.446, 30503.00
1041.552, 30704.00
1042.656, 30729.00
1043.761, 30998.00
1044.866, 30806.00
1045.970, 31041.00
1047.074, 30775.00
1048.179, 31077.00
1049.282, 31125.00
1050.386, 31258.00
1051.490, 31159.00
1052.593, 31188.03
1053.697, 30991.00
1054.800, 31078.00
1055.903, 30886.00
1057.006, 30761.00
1058.108, 30840.00
1059.211, 30802.00
1060.313, 30810.00
1061.415, 30646.00
1062.517, 30762.00
1063.619, 30575.00
1064.721, 30647.00
1065.823, 30672.00
1066.924, 30472.00
1068.025, 30353.00
1069.126, 30511.00
1070.227, 30508.00
1071.328, 30595.00
1072.429, 30600.00
1073.529, 30354.00
1074.629, 30571.00
1075.729, 30573.00
1076.829, 30763.00
1077.929, 30893.00
1079.029, 30860.00
1080.128, 30798.00
1081.228, 30911.00
1082.327, 30890.00
1083.426, 30612.00
1084.525, 30689.00
1085.623, 30303.00
1086.722, 30538.00
1087.820, 30181.00
1088.919, 30365.00
1090.017, 30069.00
1091.115, 29908.00
1092.212, 30306.00
1093.310, 29835.00
1094.407, 30086.00
1095.505, 29974.00
1096.602, 29634.00
1097.699, 30077.00
1098.795, 29906.00
1099.892, 29800.00
1100.989, 29816.00
1102.085, 29729.00
1103.181, 29686.00
1104.277, 29685.00
1105.373, 29892.00
1106.469, 29813.00
1107.564, 29879.00
1108.660, 30025.00
1109.755, 30020.00
1110.850, 30190.00
1111.945, 30142.00
1113.040, 30068.00
1114.134, 30236.00
1115.229, 30421.00
1116.323, 30522.00
1117.417, 30704.00
1118.511, 30638.00
1119.605, 31247.00
1120.698, 31651.00
1121.792, 31628.00
1122.885, 31628.00
1123.978, 32067.00
1125.071, 31778.00
1126.164, 31689.00
1127.257, 31861.00
1128.349, 32092.00
1129.442, 31760.00
1130.534, 32311.00
1131.626, 31968.00
1132.718, 31965.00
1133.810, 32435.00
1134.901, 32467.00
1135.993, 32558.00
1137.084, 32842.00
1138.175, 33074.00
1139.266, 33236.00
1140.357, 33671.00
1141.448, 33626.00
1142.538, 33862.00
1143.628, 34424.00
1144.719, 34179.00
1145.809, 34017.00
1146.898, 34333.00
1147.988, 34143.65
1149.078, 34322.93
1150.167, 34420.95
1151.256, 34442.09
1152.345, 34156.08
1153.434, 34266.70
1154.523, 34218.36
1155.612, 34163.50
1156.700, 34329.95
1157.788, 34088.61
1158.877, 34251.54
1159.964, 34482.00
1161.052, 34346.00
1162.140, 34334.00
1163.227, 34500.00
1164.315, 34263.00
1165.402, 34250.00
1166.489, 34060.00
1167.576, 33884.00
1168.663, 34185.00
1169.749, 34006.00
1170.836, 33781.00
1171.922, 33617.00
1173.008, 33905.00
1174.094, 33689.00
1175.180, 33555.00
1176.265, 33622.00
1177.351, 33291.00
1178.436, 33140.00
1179.521, 33104.00
1180.606, 32219.00
1181.691, 32482.00
1182.776, 32640.00
1183.860, 32128.00
1184.944, 32583.00
1186.029, 32300.00
1187.113, 32060.00
1188.197, 31943.00
1189.280, 31794.54
1190.364, 31934.00
1191.447, 31630.00
1192.531, 31835.00
1193.614, 31754.00
1194.697, 31776.00
1195.779, 31531.00
1196.862, 31601.00
1197.945, 31562.00
1199.027, 31581.00
1200.109, 31934.00
1201.191, 31721.00
1202.273, 31685.00
1203.355, 31414.00
1204.436, 31591.00
1205.518, 31864.00
1206.599, 31570.00
1207.680, 31625.00
1208.761, 31538.00
1209.842, 31648.00
1210.922, 31571.00
1212.003, 31667.00
1213.083, 31878.00
1214.163, 32096.00
1215.243, 32219.00
1216.323, 32066.00
1217.402, 32229.00
1218.482, 32183.00
1219.561, 32427.00
1220.641, 32358.00
1221.720, 32575.00
1222.798, 32580.00
1223.877, 32646.00
1224.956, 32520.00
1226.034, 32559.00
1227.112, 32650.00
1228.191, 32848.00
1229.269, 33113.00
1230.346, 32970.00
1231.424, 33323.00
1232.501, 33425.00
1233.579, 33459.00
1234.656, 33735.00
1235.733, 33753.00
1236.810, 34045.00
1237.886, 33948.00
1238.963, 34201.00
1240.039, 34158.00
1241.116, 34501.00
1242.192, 34560.00
1243.268, 34511.00
1244.343, 34938.00
1245.419, 35028.00
1246.494, 35157.00
1247.570, 35782.00
1248.645, 35662.00
1249.720, 35727.00
1250.795, 36090.00
1251.869, 35918.00
1252.944, 36254.00
1254.018, 36440.00
1255.093, 36277.00
1256.167, 36472.00
1257.240, 36772.00
1258.314, 36819.00
1259.388, 36894.20
1260.461, 37064.00
1261.535, 36943.00
1262.608, 36887.00
1263.681, 37063.00
1264.753, 36809.00
1265.826, 37052.00
1266.899, 36918.00
1267.971, 36959.00
1269.043, 37115.00
1270.115, 37434.00
1271.187, 37157.00
1272.259, 36844.00
1273.330, 37410.00
1274.402, 37241.00
1275.473, 37082.00
1276.544, 37070.00
1277.615, 37185.00
1278.686, 36992.00
1279.756, 37137.00
1280.827, 37358.00
1281.897, 36889.00
1282.967, 36876.00
1284.037, 36933.00
1285.107, 37211.00
1286.177, 37429.00
1287.247, 37893.00
1288.316, 38221.00
1289.385, 38357.00
1290.454, 38856.00
1291.523, 39008.00
1292.592, 39028.00
1293.661, 39111.00
1294.729, 38983.00
1295.797, 38937.35
1296.866, 39428.00
1297.934, 38763.00
1299.001, 38643.00
1300.069, 38692.00
1301.137, 38131.00
1302.204, 38190.00
1303.271, 38032.00
1304.338, 37775.00
1305.405, 37772.00
1306.472, 37615.00
1307.539, 37673.00
1308.605, 37490.00
1309.671, 37638.00
1310.737, 37777.00
1311.803, 37692.00
1312.869, 37569.00
1313.935, 37617.92
1315.000, 37503.00
1316.066, 37579.00
1317.131, 37414.00
1318.196, 37397.00
1319.261, 37550.00
1320.326, 37440.00
1321.390, 37227.00
1322.455, 37220.00
1323.519, 36847.00
1324.583, 36968.00
1325.647, 36571.00
1326.711, 36247.00
1327.775, 36162.00
1328.838, 35763.00
1329.902, 35905.00
1330.965, 35686.00
1332.028, 35566.00
1333.091, 35339.00
1334.153, 35177.00
1335.216, 35308.00
1336.279, 35170.00
1337.341, 34868.00
1338.403, 35148.00
1339.465, 34895.00
1340.527, 34981.00
1341.588, 35089.00
1342.650, 34721.00
1343.711, 34434.00
1344.772, 34476.00
1345.834, 34703.00
1346.894, 34551.00
1347.955, 34897.00
1349.016, 34908.00
1350.076, 34878.00
1351.136, 35202.00
