##NAMES=Fluorapophyllite-(K)
##RRUFFID=R040095
##IDEAL CHEMISTRY=KCa_4_Si_8_O_20_F&#183;8H_2_O
##LOCALITY=unknown
##OWNER=RRUFF
##SOURCE=University of Arizona Mineral Museum
##DESCRIPTION=Colorless crystals
##STATUS=The identification of this mineral has been confirmed by X-ray diffraction and chemical analysis
##URL=rruff.info/R040095
##MEASURED CHEMISTRY=(K_0.90_Na_0.04_)Ca_3.96_Si_8.00_O_20_(F_0.82_(OH)_0.18_)Â·8H_2_O
##PIN_ID=L00946
##ORIENTATION=Laser parallel to c* (0 0 1). Fiducial mark perpendicular to laser is parallel to a [1 0 0]
81.94900, 39115.00
83.19000, 45124.00
84.43100, 50361.00
85.67200, 54345.00
86.91300, 55847.00
88.15400, 54070.00
89.39400, 50523.00
90.63400, 44993.00
91.87400, 38916.00
93.11400, 33032.00
94.35400, 28112.00
95.59300, 24473.00
96.83200, 21452.00
98.07200, 19694.00
99.31000, 19242.00
100.5490, 19979.00
101.7880, 21514.00
103.0260, 24182.00
104.2640, 29873.00
105.5020, 34181.00
106.7400, 35899.00
107.9780, 35325.88
109.2150, 34667.00
110.4520, 29636.00
111.6890, 24581.00
112.9260, 20525.00
114.1630, 18253.00
115.3990, 16647.00
116.6360, 15855.00
117.8720, 15389.00
119.1080, 15637.00
120.3440, 15794.00
121.5790, 16693.00
122.8150, 17497.00
124.0500, 18230.00
125.2850, 18081.00
126.5200, 17459.00
127.7550, 17099.00
128.9890, 16956.00
130.2230, 17388.00
131.4570, 18250.00
132.6910, 18820.00
133.9250, 18649.00
135.1590, 17251.00
136.3920, 16998.00
137.6250, 13256.00
138.8580, 11135.00
140.0910, 9652.000
141.3240, 8543.000
142.5570, 7717.000
143.7890, 7134.000
145.0210, 6803.000
146.2530, 6418.000
147.4850, 6288.000
148.7160, 6357.000
149.9480, 6532.000
151.1790, 6667.000
152.4100, 6982.000
153.6410, 7292.000
154.8710, 7955.000
156.1020, 8648.000
157.3320, 9456.000
158.5620, 10383.00
159.7920, 11428.00
161.0220, 12334.00
162.2520, 12775.00
163.4810, 12958.00
164.7100, 12507.00
165.9390, 11702.00
167.1680, 10882.00
168.3970, 9953.000
169.6250, 9115.000
170.8540, 8259.000
172.0820, 7542.000
173.3100, 7202.000
174.5370, 7023.000
175.7650, 7047.000
176.9920, 7232.000
178.2200, 7478.000
179.4470, 8018.000
180.6740, 8779.000
181.9000, 9700.000
183.1270, 10829.00
184.3530, 11942.00
185.5790, 12750.00
186.8050, 13227.00
188.0310, 13066.00
189.2570, 13083.00
190.4820, 13134.00
191.7070, 13351.00
192.9320, 14031.00
194.1570, 14924.00
195.3820, 16080.00
196.6060, 17669.00
197.8310, 19546.00
199.0550, 21405.00
200.2790, 23979.00
201.5030, 26625.00
202.7260, 29718.00
203.9500, 33489.00
205.1730, 37961.00
206.3960, 42864.00
207.6190, 47457.00
208.8420, 50755.00
210.0640, 53143.00
211.2870, 52249.00
212.5090, 49427.00
213.7310, 44833.00
214.9530, 39800.00
216.1740, 34853.00
217.3960, 30196.00
218.6170, 26947.00
219.8380, 24437.00
221.0590, 22314.00
222.2800, 21126.00
223.5000, 20729.00
224.7210, 20795.00
225.9410, 20695.00
227.1610, 21267.00
228.3810, 21387.00
229.6000, 21288.00
230.8200, 20645.00
232.0390, 19750.00
233.2580, 18259.00
234.4770, 16828.00
235.6960, 15164.00
236.9150, 13202.00
238.1330, 12040.00
239.3510, 10794.00
240.5690, 9799.000
241.7870, 8994.000
243.0050, 8383.000
244.2220, 7825.000
245.4400, 7308.000
246.6570, 6991.000
247.8740, 6588.000
249.0910, 6386.000
250.3070, 6240.000
251.5240, 6028.000
252.7400, 6018.000
253.9560, 5899.000
255.1720, 5875.000
256.3880, 5824.000
257.6030, 5859.000
258.8190, 5838.000
260.0340, 5909.854
261.2490, 5981.000
262.4640, 6109.000
263.6780, 6285.000
264.8930, 6457.000
266.1070, 6561.000
267.3210, 6769.000
268.5350, 6747.000
269.7490, 6708.000
270.9630, 6564.000
272.1760, 6475.000
273.3890, 6518.000
274.6030, 6439.000
275.8150, 6433.000
277.0280, 6608.000
278.2410, 6725.000
279.4530, 6956.000
280.6650, 7277.000
281.8770, 7729.000
283.0890, 8286.000
284.3010, 8799.000
285.5120, 9590.000
286.7230, 10485.00
287.9350, 11452.00
289.1460, 12859.00
290.3560, 14236.00
291.5670, 16034.00
292.7770, 17491.00
293.9880, 19460.00
295.1980, 20911.00
296.4080, 22473.00
297.6170, 22932.00
298.8270, 23155.00
300.0360, 22537.00
301.2450, 21177.00
302.4540, 19755.00
303.6630, 19740.00
304.8720, 16095.00
306.0800, 14385.00
307.2890, 13055.00
308.4970, 11967.00
309.7050, 10914.00
310.9120, 10241.00
312.1200, 9645.000
313.3270, 9148.000
314.5350, 8970.000
315.7420, 8763.000
316.9490, 8606.000
318.1550, 8407.000
319.3620, 8489.000
320.5680, 8620.000
321.7740, 8577.000
322.9800, 8984.000
324.1860, 9181.000
325.3920, 9467.000
326.5970, 9985.000
327.8030, 10379.00
329.0080, 10673.00
330.2130, 11143.00
331.4180, 11763.00
332.6220, 12242.00
333.8270, 12652.00
335.0310, 13054.00
336.2350, 13383.00
337.4390, 13501.00
338.6430, 13293.00
339.8460, 12956.00
341.0500, 12252.00
342.2530, 11777.00
343.4560, 10838.00
344.6590, 10089.00
345.8610, 9102.000
347.0640, 8582.000
348.2660, 7851.000
349.4680, 7308.000
350.6700, 6860.000
351.8720, 6487.931
353.0740, 6399.000
354.2750, 6085.000
355.4770, 5956.000
356.6780, 5984.000
357.8790, 5894.000
359.0790, 5903.000
360.2800, 6020.000
361.4800, 6185.375
362.6810, 6502.000
363.8810, 6804.000
365.0810, 7163.000
366.2800, 7700.000
367.4800, 8204.000
368.6790, 8979.000
369.8780, 9761.000
371.0770, 10258.00
372.2760, 10997.00
373.4750, 11270.00
374.6730, 11021.00
375.8720, 10558.00
377.0700, 9683.000
378.2680, 8787.000
379.4660, 7900.000
380.6630, 7133.000
381.8610, 6503.000
383.0580, 5983.306
384.2550, 5702.000
385.4520, 5323.000
386.6490, 5173.000
387.8460, 5153.000
389.0420, 4981.000
390.2380, 5069.000
391.4340, 5045.000
392.6300, 5120.000
393.8260, 5146.000
395.0210, 5201.000
396.2170, 5420.000
397.4120, 5497.000
398.6070, 5599.000
399.8020, 5769.000
400.9970, 5914.000
402.1910, 6007.000
403.3860, 6161.000
404.5800, 6374.000
405.7740, 6522.000
406.9680, 6695.000
408.1610, 6893.000
409.3550, 7037.000
410.5480, 7168.000
411.7410, 7258.000
412.9340, 7461.000
414.1270, 7702.249
415.3200, 7923.000
416.5120, 8392.000
417.7040, 8999.000
418.8960, 9612.000
420.0880, 10571.00
421.2800, 11738.00
422.4720, 13397.00
423.6630, 15122.00
424.8540, 17722.00
426.0450, 20667.00
427.2360, 24266.00
428.4270, 27960.00
429.6180, 32671.00
430.8080, 36471.00
431.9980, 38312.00
433.1880, 37832.00
434.3780, 34714.00
435.5680, 30151.00
436.7570, 25439.00
437.9470, 21297.00
439.1360, 17773.00
440.3250, 14885.00
441.5140, 12832.00
442.7020, 11028.00
443.8910, 9833.000
445.0790, 8768.000
446.2670, 7973.000
447.4550, 7429.000
448.6430, 7149.000
449.8310, 6783.000
451.0180, 6492.000
452.2060, 6310.000
453.3930, 6086.000
454.5800, 5927.000
455.7660, 6004.000
456.9530, 5878.000
458.1400, 5812.000
459.3260, 6037.000
460.5120, 5991.000
461.6980, 5955.000
462.8840, 5932.000
464.0690, 5931.000
465.2550, 5830.000
466.4400, 5766.000
467.6250, 5614.000
468.8100, 5514.000
469.9950, 5477.000
471.1790, 5445.000
472.3640, 5358.000
473.5480, 5454.000
474.7320, 5444.000
475.9160, 5509.000
477.1000, 5664.000
478.2830, 5707.000
479.4670, 6054.000
480.6500, 6310.000
481.8330, 6657.000
483.0160, 6914.000
484.1980, 7033.000
485.3810, 7265.000
486.5630, 7286.000
487.7450, 7132.000
488.9270, 6988.000
490.1090, 6877.000
491.2910, 6539.000
492.4730, 6447.000
493.6540, 6309.000
494.8350, 6296.000
496.0160, 6343.000
497.1970, 6295.000
498.3780, 6396.000
499.5580, 6438.000
500.7380, 6527.000
501.9190, 6698.000
503.0990, 6817.000
504.2780, 7084.000
505.4580, 7281.000
506.6380, 7408.000
507.8170, 7683.000
508.9960, 7876.000
510.1750, 8132.000
511.3540, 8298.000
512.5320, 8342.000
513.7110, 8555.000
514.8890, 8484.000
516.0670, 8555.000
517.2450, 8502.000
518.4230, 8622.000
519.6010, 8698.000
520.7780, 8527.000
521.9560, 8552.000
523.1330, 8560.000
524.3100, 8594.000
525.4860, 8733.000
526.6630, 8943.000
527.8400, 9112.000
529.0160, 9190.000
530.1920, 9565.000
531.3680, 9607.000
532.5440, 10021.00
533.7190, 10301.00
534.8950, 10621.00
536.0700, 10700.00
537.2450, 10804.00
538.4200, 10949.00
539.5950, 11153.00
540.7690, 10797.00
541.9440, 10977.00
543.1180, 10790.00
544.2920, 10535.00
545.4660, 10324.00
546.6400, 10103.00
547.8140, 10057.00
548.9870, 9999.000
550.1600, 9763.000
551.3330, 9831.000
552.5060, 9715.000
553.6790, 9860.000
554.8520, 9795.000
556.0240, 9883.000
557.1960, 10061.00
558.3680, 10230.00
559.5400, 10287.00
560.7120, 10598.00
561.8840, 10830.00
563.0550, 11193.00
564.2260, 11537.00
565.3980, 12148.00
566.5680, 12597.00
567.7390, 13423.00
568.9100, 14135.00
570.0800, 15045.00
571.2510, 16248.00
572.4210, 17572.00
573.5910, 18945.00
574.7600, 20558.00
575.9300, 22399.00
577.0990, 24251.00
578.2690, 26129.00
579.4380, 28049.00
580.6070, 30088.00
581.7750, 31160.00
582.9440, 32228.00
584.1120, 32400.00
585.2810, 32139.00
586.4490, 31091.00
587.6170, 29633.00
588.7840, 27646.00
589.9520, 25422.00
591.1190, 23018.00
592.2870, 20983.00
593.4540, 19126.00
594.6210, 17410.00
595.7880, 15897.00
596.9540, 14544.00
598.1210, 13585.00
599.2870, 12593.00
600.4530, 11792.00
601.6190, 11230.00
602.7850, 10666.00
603.9500, 10291.00
605.1160, 9808.000
606.2810, 9507.000
607.4460, 9271.000
608.6110, 8938.000
609.7760, 8886.000
610.9410, 8697.000
612.1050, 8580.000
613.2690, 8416.000
614.4330, 8413.000
615.5970, 8389.000
616.7610, 8314.000
617.9250, 8358.345
619.0880, 8374.000
620.2520, 8456.000
621.4150, 8474.000
622.5780, 8543.223
623.7400, 8562.000
624.9030, 8677.000
626.0660, 8725.000
627.2280, 8794.000
628.3900, 8978.000
629.5520, 8987.000
630.7140, 9125.000
631.8750, 9366.000
633.0370, 9457.000
634.1980, 9559.000
635.3590, 9658.000
636.5200, 9969.000
637.6810, 10171.00
638.8420, 10407.00
640.0020, 10853.00
641.1630, 10931.00
642.3230, 11409.00
643.4830, 11801.00
644.6430, 12181.00
645.8020, 12732.00
646.9620, 13231.00
648.1210, 14013.00
649.2810, 14560.00
650.4400, 15298.00
651.5980, 16199.00
652.7570, 17032.00
653.9160, 17918.00
655.0740, 18923.00
656.2320, 19755.00
657.3900, 20816.00
658.5480, 21477.00
659.7060, 22255.00
660.8630, 22989.00
662.0210, 23052.00
663.1780, 23338.00
664.3350, 22839.00
665.4920, 22816.00
666.6490, 21858.00
667.8050, 21090.00
668.9620, 20005.00
670.1180, 18937.00
671.2740, 17631.00
672.4300, 16424.00
673.5860, 15260.00
674.7410, 14311.00
675.8970, 13272.00
677.0520, 12448.00
678.2070, 11595.00
679.3620, 10763.00
680.5170, 10248.00
681.6720, 9807.000
682.8260, 9181.000
683.9800, 8704.000
685.1340, 8406.000
686.2880, 8016.000
687.4420, 7657.000
688.5960, 7545.000
689.7490, 7277.000
690.9030, 6984.000
692.0560, 6816.000
693.2090, 6590.000
694.3620, 6366.000
695.5140, 6236.000
696.6670, 6119.000
697.8190, 5980.152
698.9710, 5874.000
700.1230, 5767.000
701.2750, 5715.000
702.4270, 5601.000
703.5780, 5533.000
704.7300, 5446.000
705.8810, 5372.000
707.0320, 5397.000
708.1830, 5243.000
709.3340, 5227.000
710.4840, 5223.000
711.6350, 5111.000
712.7850, 5081.000
713.9350, 5077.000
715.0850, 5130.000
716.2350, 5122.000
717.3840, 5024.000
718.5340, 4999.000
719.6830, 4947.000
720.8320, 4919.000
721.9810, 4910.000
723.1300, 4806.000
724.2780, 4912.000
725.4270, 4786.000
726.5750, 4920.000
727.7230, 4820.000
728.8710, 4834.000
730.0190, 4745.000
731.1670, 4765.000
732.3140, 4839.000
733.4610, 4760.000
734.6090, 4715.000
735.7560, 4667.000
736.9030, 4658.000
738.0490, 4635.242
739.1960, 4702.000
740.3420, 4616.000
741.4880, 4747.000
742.6340, 4734.000
743.7800, 4729.000
744.9260, 4626.000
746.0720, 4652.000
747.2170, 4635.000
748.3620, 4654.000
749.5070, 4663.000
750.6520, 4658.000
751.7970, 4772.000
752.9420, 4780.000
754.0860, 4848.000
755.2300, 4885.000
756.3740, 5007.000
757.5180, 5078.000
758.6620, 5132.000
759.8060, 5096.000
760.9490, 5152.000
762.0930, 5277.000
763.2360, 5437.000
764.3790, 5490.000
765.5220, 5471.000
766.6640, 5577.000
767.8070, 5507.000
768.9490, 5539.000
770.0910, 5357.000
771.2330, 5335.000
772.3750, 5337.000
773.5170, 5319.000
774.6590, 5353.000
775.8000, 5280.000
776.9410, 5313.000
778.0820, 5506.000
779.2230, 5483.000
780.3640, 5731.000
781.5050, 5890.000
782.6450, 6060.000
783.7850, 6364.000
784.9260, 6707.000
786.0660, 6976.354
787.2050, 7386.000
788.3450, 7669.000
789.4850, 8045.000
790.6240, 8129.022
791.7630, 8332.000
792.9020, 8062.000
794.0410, 7836.000
795.1800, 7417.000
796.3180, 7060.000
797.4570, 6702.000
798.5950, 6390.000
799.7330, 6088.000
800.8710, 5900.000
802.0090, 5661.000
803.1460, 5430.000
804.2840, 5420.000
805.4210, 5373.000
806.5580, 5204.000
807.6950, 5287.000
808.8320, 5222.000
809.9680, 5271.000
811.1050, 5211.000
812.2410, 5261.000
813.3770, 5290.000
814.5130, 5304.000
815.6490, 5327.000
816.7850, 5295.000
817.9200, 5383.000
819.0560, 5485.000
820.1910, 5392.000
821.3260, 5542.000
822.4610, 5624.000
823.5960, 5610.000
824.7300, 5655.000
825.8650, 5754.000
826.9990, 5851.000
828.1330, 5881.000
829.2670, 5993.000
830.4010, 5944.000
831.5340, 6077.000
832.6680, 6210.000
833.8010, 6355.000
834.9340, 6312.000
836.0670, 6421.000
837.2000, 6483.000
838.3330, 6582.000
839.4660, 6769.000
840.5980, 6883.000
841.7300, 6995.000
842.8620, 7095.736
843.9940, 7139.000
845.1260, 7232.000
846.2570, 7329.000
847.3890, 7374.000
848.5200, 7495.000
849.6510, 7553.000
850.7820, 7673.000
851.9130, 7624.000
853.0440, 7670.000
854.1740, 7401.000
855.3050, 7524.000
856.4350, 7284.000
857.5650, 7351.000
858.6950, 7225.000
859.8240, 7075.578
860.9540, 6974.000
862.0830, 6778.000
863.2130, 6646.000
864.3420, 6486.000
865.4710, 6392.000
866.5990, 6260.876
867.7280, 6274.000
868.8560, 6090.000
869.9850, 6014.000
871.1130, 6047.000
872.2410, 5953.329
873.3690, 5907.409
874.4960, 5934.000
875.6240, 5787.000
876.7510, 5809.000
877.8780, 5783.000
879.0060, 5727.000
880.1320, 5655.000
881.2590, 5601.000
882.3860, 5625.000
883.5120, 5566.000
884.6380, 5531.000
885.7650, 5572.000
886.8910, 5508.000
888.0160, 5416.000
889.1420, 5426.000
890.2680, 5423.000
891.3930, 5435.000
892.5180, 5505.000
893.6430, 5425.000
894.7680, 5391.000
895.8930, 5466.000
897.0170, 5342.000
898.1420, 5223.000
899.2660, 5363.000
900.3900, 5303.000
901.5140, 5280.000
902.6380, 5262.000
903.7610, 5193.000
904.8850, 5194.000
906.0080, 5223.000
907.1310, 5126.000
908.2540, 5131.000
909.3770, 5175.000
910.5000, 5214.000
911.6220, 5194.000
912.7450, 5193.251
913.8670, 5137.000
914.9890, 5125.000
916.1110, 5130.000
917.2330, 5078.000
918.3550, 5151.000
919.4760, 5083.000
920.5970, 5072.000
921.7180, 5134.000
922.8390, 5209.000
923.9600, 5091.000
925.0810, 5078.000
926.2020, 5005.000
927.3220, 5057.000
928.4420, 5141.000
929.5620, 5078.000
930.6820, 5065.000
931.8020, 5044.000
932.9220, 5035.826
934.0410, 5059.000
935.1600, 5059.000
936.2790, 5102.000
937.3980, 5140.000
938.5170, 5134.589
939.6360, 5167.354
940.7550, 5122.000
941.8730, 5174.000
942.9910, 5141.000
944.1090, 5093.000
945.2270, 5237.000
946.3450, 5193.000
947.4620, 5214.000
948.5800, 5121.000
949.6970, 5230.000
950.8140, 5199.000
951.9310, 5247.000
953.0480, 5232.000
954.1650, 5244.388
955.2810, 5226.000
956.3980, 5258.000
957.5140, 5254.000
958.6300, 5242.000
959.7460, 5334.000
960.8620, 5339.000
961.9780, 5298.000
963.0930, 5336.000
964.2080, 5457.000
965.3230, 5404.000
966.4380, 5473.000
967.5530, 5631.000
968.6680, 5644.000
969.7830, 5715.000
970.8970, 5713.000
972.0110, 5702.000
973.1250, 5587.000
974.2390, 5381.448
975.3530, 5409.556
976.4670, 5425.839
977.5800, 5430.931
978.6930, 5391.319
979.8070, 5409.434
980.9200, 5404.414
982.0320, 5398.444
983.1450, 5480.000
984.2580, 5461.000
985.3700, 5497.000
986.4820, 5539.000
987.5950, 5675.000
988.7070, 5649.000
989.8180, 5640.000
990.9300, 5662.000
992.0410, 5638.000
993.1530, 5888.000
994.2640, 5850.000
995.3750, 6087.000
996.4860, 6202.000
997.5970, 6419.000
998.7070, 6523.000
999.8180, 6570.000
1000.928, 6793.000
1002.038, 6910.000
1003.148, 6858.000
1004.258, 7010.000
1005.368, 7034.000
1006.477, 7057.000
1007.586, 6917.000
1008.696, 6934.000
1009.805, 6736.000
1010.914, 6577.000
1012.022, 6322.000
1013.131, 6294.000
1014.239, 6202.000
1015.348, 6074.000
1016.456, 6062.000
1017.564, 6035.000
1018.672, 5973.000
1019.780, 5973.000
1020.887, 5994.977
1021.994, 6123.000
1023.102, 6109.000
1024.209, 6245.000
1025.316, 6366.000
1026.423, 6374.000
1027.529, 6522.000
1028.636, 6684.000
1029.742, 6811.000
1030.848, 6980.000
1031.954, 7203.000
1033.060, 7399.209
1034.166, 7658.000
1035.272, 7897.000
1036.377, 8199.000
1037.482, 8519.000
1038.587, 8735.000
1039.692, 9196.000
1040.797, 9705.000
1041.902, 10343.00
1043.006, 11173.00
1044.111, 11924.00
1045.215, 12973.00
1046.319, 14272.00
1047.423, 15823.00
1048.527, 17856.00
1049.631, 20538.00
1050.734, 23469.00
1051.837, 27257.00
1052.941, 31617.00
1054.044, 36767.00
1055.146, 42701.00
1056.249, 48554.00
1057.352, 53340.00
1058.454, 56495.00
1059.556, 56449.00
1060.659, 54297.00
1061.761, 49405.00
1062.862, 43266.00
1063.964, 36814.00
1065.066, 31312.00
1066.167, 26333.00
1067.268, 22253.00
1068.369, 18768.00
1069.470, 16274.00
1070.571, 14294.00
1071.672, 12636.00
1072.772, 11429.00
1073.873, 10431.00
1074.973, 9468.000
1076.073, 8836.000
1077.173, 8338.000
1078.272, 7859.000
1079.372, 7474.000
1080.471, 7120.000
1081.571, 6871.000
1082.670, 6719.000
1083.769, 6432.000
1084.868, 6368.000
1085.966, 6173.000
1087.065, 6173.000
1088.163, 6088.000
1089.262, 6070.000
1090.360, 5945.309
1091.458, 5877.162
1092.555, 5753.000
1093.653, 5706.000
1094.751, 5776.000
1095.848, 5730.000
1096.945, 5788.000
1098.042, 5782.000
1099.139, 5781.000
1100.236, 5860.000
1101.333, 6074.000
1102.429, 6161.000
1103.525, 6229.000
1104.621, 6486.000
1105.718, 6887.000
1106.813, 7137.000
1107.909, 7709.000
1109.005, 8125.000
1110.100, 8738.000
1111.195, 9198.000
1112.291, 9636.000
1113.386, 9875.000
1114.480, 9837.000
1115.575, 9227.000
1116.670, 8555.000
1117.764, 7886.000
1118.858, 7313.000
1119.952, 6845.571
1121.046, 6371.000
1122.140, 6126.000
1123.234, 5833.000
1124.327, 5678.000
1125.421, 5527.621
1126.514, 5446.000
1127.607, 5276.000
1128.700, 5322.000
1129.792, 5086.000
1130.885, 5141.000
1131.978, 5085.000
1133.070, 5004.000
1134.162, 5048.000
1135.254, 5005.000
1136.346, 4942.000
1137.438, 4925.000
1138.529, 4920.000
1139.621, 4952.000
1140.712, 4867.000
1141.803, 4905.000
1142.894, 4813.000
1143.985, 4744.000
1145.076, 4836.000
1146.166, 4829.000
1147.257, 4820.000
1148.347, 4746.000
1149.437, 4768.000
1150.527, 4780.000
1151.617, 4775.000
1152.706, 4799.000
1153.796, 4872.000
1154.885, 4787.000
1155.975, 4800.000
1157.064, 4786.000
1158.153, 4867.000
1159.241, 4846.000
1160.330, 4797.000
1161.419, 4894.000
1162.507, 4841.000
1163.595, 4861.000
1164.683, 4700.000
1165.771, 4818.000
1166.859, 4826.000
1167.946, 4696.000
1169.034, 4778.000
1170.121, 4854.000
1171.208, 4881.000
1172.295, 4770.000
1173.382, 4862.000
1174.469, 4740.000
1175.556, 4866.000
1176.642, 4900.000
1177.728, 4848.000
1178.815, 4840.000
1179.901, 4848.029
1180.986, 4836.000
1182.072, 4817.000
1183.158, 4783.000
1184.243, 4684.000
1185.328, 4844.000
1186.414, 4688.000
1187.499, 4856.000
1188.583, 4804.000
1189.668, 4811.000
1190.753, 4720.000
1191.837, 4843.000
1192.921, 4812.000
1194.005, 4839.000
1195.089, 4838.000
1196.173, 4874.000
1197.257, 4840.100
1198.340, 4925.000
1199.424, 4812.000
1200.507, 4765.000
1201.590, 4834.000
1202.673, 4836.000
1203.756, 4808.000
1204.839, 4826.000
1205.921, 4816.000
1207.004, 4852.000
1208.086, 4867.000
1209.168, 4820.000
1210.250, 4844.000
1211.332, 4875.000
1212.413, 4841.000
1213.495, 4860.000
1214.576, 4881.443
1215.657, 4921.000
1216.738, 4910.000
1217.819, 4897.000
1218.900, 4856.000
1219.981, 4818.000
1221.061, 4885.000
1222.142, 4829.000
1223.222, 4875.000
1224.302, 4866.000
1225.382, 4829.000
1226.461, 4927.000
1227.541, 4869.000
1228.621, 4900.000
1229.700, 4917.000
1230.779, 4870.000
1231.858, 4876.000
1232.937, 4894.000
1234.016, 4802.000
1235.094, 4837.000
1236.173, 4881.000
1237.251, 4783.000
1238.329, 4779.000
1239.407, 4803.000
1240.485, 4948.000
1241.563, 4960.000
1242.641, 4791.000
1243.718, 4937.000
1244.795, 4876.000
1245.873, 4925.000
1246.950, 4935.000
1248.026, 4896.000
1249.103, 4937.000
1250.180, 4910.081
1251.256, 4962.000
1252.333, 4881.000
1253.409, 4939.000
1254.485, 4920.000
1255.561, 4843.000
1256.636, 4818.000
1257.712, 4945.000
1258.787, 4877.000
1259.863, 4795.000
1260.938, 4897.000
1262.013, 4827.000
