##NAMES=Fluorophlogopite
##RRUFFID=R040042
##IDEAL CHEMISTRY=KMg_3_(Si_3_Al)O_10_F_2_
##LOCALITY=Franklin, Sussex County, New Jersey, USA
##OWNER=RRUFF
##SOURCE=University of Arizona Mineral Museum
##DESCRIPTION=Brown flattened hexagonal prism, polytype 1M
##STATUS=The identification of this mineral has been confirmed by X-ray diffraction and chemical analysis
##URL=rruff.info/R040042
##MEASURED CHEMISTRY=(K_0.92_Na_0.08_)_Σ=1_(Mg_2.95_Fe_0.05_)_Σ=3_(Si_3.00_Al_1.00_)O_10_(F_1.40_(OH)_0.60_)_Σ=2_; trace amounts of Ti; OH estimated by charge balance
##PIN_ID=L00310
##ORIENTATION=Laser parallel to c* (0 0 1). Fiducial mark perpendicular to laser is parallel to -a [-1 0 0]
128.8070, 58662.00
130.0370, 58312.00
131.2670, 58705.00
132.4970, 58557.00
133.7260, 58377.00
134.9550, 58197.00
136.1850, 58267.64
137.4140, 58327.00
138.6420, 58410.00
139.8710, 58630.00
141.1000, 58624.00
142.3280, 58380.00
143.5560, 58187.00
144.7840, 58425.00
146.0120, 58343.00
147.2400, 58293.00
148.4680, 58487.00
149.6950, 58248.00
150.9220, 58683.00
152.1500, 58794.00
153.3770, 58559.00
154.6030, 58601.00
155.8300, 58966.00
157.0570, 59128.00
158.2830, 58473.02
159.5090, 58991.62
160.7350, 59359.96
161.9610, 59586.11
163.1870, 59244.23
164.4130, 59635.84
165.6380, 59733.36
166.8630, 59974.00
168.0880, 60585.00
169.3130, 61000.00
170.5380, 61089.00
171.7630, 61355.00
172.9870, 61456.00
174.2120, 61743.61
175.4360, 62494.00
176.6600, 62341.00
177.8840, 63125.00
179.1080, 63510.00
180.3310, 64043.00
181.5550, 64846.00
182.7780, 65594.00
184.0010, 66318.00
185.2240, 67437.00
186.4470, 69152.00
187.6700, 71738.00
188.8920, 73856.00
190.1150, 77152.00
191.3370, 80334.00
192.5590, 84920.00
193.7810, 90116.00
195.0020, 95102.00
196.2240, 100488.0
197.4450, 104190.0
198.6670, 106074.0
199.8880, 105222.0
201.1090, 101702.0
202.3300, 96155.00
203.5500, 90589.00
204.7710, 85076.00
205.9910, 80547.00
207.2110, 76733.00
208.4310, 73999.00
209.6510, 71977.00
210.8710, 70234.00
212.0910, 69026.00
213.3100, 68131.00
214.5290, 68072.00
215.7480, 67047.00
216.9670, 66750.00
218.1860, 66634.00
219.4050, 65977.00
220.6230, 66017.00
221.8420, 65858.00
223.0600, 65732.00
224.2780, 65576.00
225.4960, 65071.00
226.7130, 65388.00
227.9310, 65145.00
229.1480, 65211.00
230.3660, 65542.00
231.5830, 65473.00
232.8000, 65251.00
234.0160, 65269.00
235.2330, 65662.00
236.4490, 65421.00
237.6660, 65951.00
238.8820, 65557.00
240.0980, 65913.00
241.3140, 65538.00
242.5300, 65861.00
243.7450, 65819.00
244.9600, 65956.00
246.1760, 66267.00
247.3910, 65962.00
248.6060, 66180.00
249.8200, 66147.00
251.0350, 66279.00
252.2500, 66389.99
253.4640, 66508.84
254.6780, 66673.27
255.8920, 66854.00
257.1060, 67013.00
258.3190, 67220.00
259.5330, 67405.05
260.7460, 67697.02
261.9600, 67872.00
263.1730, 68361.00
264.3850, 68846.00
265.5980, 69284.28
266.8110, 69986.00
268.0230, 70775.00
269.2360, 71374.00
270.4480, 72379.00
271.6600, 73748.00
272.8710, 74569.00
274.0830, 76484.00
275.2950, 78251.00
276.5060, 80364.00
277.7170, 82764.00
278.9280, 84459.00
280.1390, 85542.00
281.3500, 85732.00
282.5600, 84887.00
283.7710, 82890.00
284.9810, 81269.00
286.1910, 79332.00
287.4010, 77497.00
288.6110, 76412.00
289.8200, 75551.00
291.0300, 74966.00
292.2390, 74443.18
293.4480, 74151.00
294.6570, 74020.00
295.8660, 74171.00
297.0750, 74390.00
298.2830, 74793.00
299.4920, 74930.00
300.7000, 75368.00
301.9080, 76140.00
303.1160, 76524.00
304.3240, 77680.00
305.5310, 78521.00
306.7390, 79634.00
307.9460, 81055.00
309.1530, 82614.00
310.3600, 84175.00
311.5670, 85269.00
312.7740, 87895.00
313.9800, 88951.00
315.1870, 89605.00
316.3930, 90351.00
317.5990, 90778.00
318.8050, 91133.00
320.0110, 91343.00
321.2160, 91313.00
322.4220, 90949.00
323.6270, 91021.00
324.8320, 90229.00
326.0370, 89128.00
327.2420, 88409.00
328.4460, 86910.00
329.6510, 85719.00
330.8550, 84531.00
332.0590, 83318.00
333.2630, 81435.00
334.4670, 81409.00
335.6710, 79818.00
336.8740, 78682.00
338.0780, 78177.00
339.2810, 77418.00
340.4840, 77191.00
341.6870, 76662.00
342.8900, 76400.00
344.0920, 76281.00
345.2950, 76238.00
346.4970, 75547.00
347.6990, 75540.00
348.9010, 75456.00
350.1030, 75671.00
351.3050, 75530.00
352.5060, 75648.00
353.7080, 75452.00
354.9090, 75408.00
356.1100, 75598.00
357.3110, 75667.00
358.5110, 75884.00
359.7120, 75747.00
360.9120, 76215.00
362.1130, 76117.00
363.3130, 76431.00
364.5130, 76451.00
365.7120, 76962.00
366.9120, 76674.00
368.1120, 76780.00
369.3110, 77140.00
370.5100, 77414.00
371.7090, 77356.00
372.9080, 77339.00
374.1070, 77443.00
375.3050, 77555.00
376.5040, 77325.00
377.7020, 77344.00
378.9000, 77200.98
380.0980, 77241.00
381.2950, 77102.00
382.4930, 77299.00
383.6910, 77239.18
384.8880, 77512.00
386.0850, 77232.00
387.2820, 77213.00
388.4790, 77127.40
389.6750, 77786.00
390.8720, 77266.00
392.0680, 77709.00
393.2640, 78053.00
394.4600, 77744.00
395.6560, 77940.00
396.8520, 78560.00
398.0480, 78095.00
399.2430, 77960.00
400.4380, 77952.21
401.6330, 78344.88
402.8280, 78587.29
404.0230, 78687.52
405.2180, 78219.72
406.4120, 78485.38
407.6060, 78457.08
408.8000, 78416.72
409.9940, 78785.61
411.1880, 78400.39
412.3820, 78762.79
413.5750, 78826.71
414.7690, 79027.26
415.9620, 78932.00
417.1550, 78928.09
418.3480, 79220.05
419.5410, 79348.19
420.7330, 79218.84
421.9260, 79428.03
423.1180, 79032.39
424.3100, 79167.46
425.5020, 79531.52
426.6940, 79417.04
427.8850, 79631.55
429.0770, 79720.80
430.2680, 79303.00
431.4590, 79081.00
432.6500, 78996.00
433.8410, 79084.05
435.0320, 79122.51
436.2220, 79545.00
437.4130, 79455.00
438.6030, 80049.00
439.7930, 80262.00
440.9830, 80269.00
442.1730, 80202.00
443.3620, 80212.00
444.5520, 80325.27
445.7410, 80645.00
446.9300, 80615.00
448.1190, 80815.00
449.3080, 80986.00
450.4960, 81513.00
451.6850, 81436.98
452.8730, 81560.64
454.0610, 81445.00
455.2490, 81499.00
456.4370, 81460.00
457.6250, 81433.00
458.8130, 81333.00
460.0000, 81322.16
461.1870, 81558.00
462.3740, 81289.00
463.5610, 81761.00
464.7480, 81852.00
465.9340, 81691.00
467.1210, 82056.00
468.3070, 81999.00
469.4930, 81997.00
470.6790, 81993.00
471.8650, 81748.00
473.0510, 81962.00
474.2360, 82005.00
475.4210, 81782.00
476.6070, 82023.00
477.7920, 82240.00
478.9770, 82281.00
480.1610, 82414.63
481.3460, 82467.00
482.5300, 82561.00
483.7140, 82581.00
484.8980, 82751.00
486.0820, 83165.00
487.2660, 82697.00
488.4500, 83354.00
489.6330, 83098.00
490.8160, 83139.00
492.0000, 83479.00
493.1830, 83738.00
494.3650, 84260.00
495.5480, 84183.00
496.7300, 84409.00
497.9130, 84303.00
499.0950, 84706.00
500.2770, 84962.00
501.4590, 84832.00
502.6410, 85133.00
503.8220, 84852.00
505.0030, 85310.00
506.1850, 85496.00
507.3660, 86321.00
508.5470, 86569.00
509.7270, 86302.00
510.9080, 86999.00
512.0880, 87382.00
513.2690, 87443.00
514.4490, 87311.00
515.6290, 87385.00
516.8090, 87423.00
517.9880, 87294.00
519.1680, 87306.41
520.3470, 87276.00
521.5260, 87128.00
522.7050, 86728.00
523.8840, 86505.00
525.0630, 86564.00
526.2410, 86808.00
527.4200, 86755.00
528.5980, 86871.00
529.7760, 86853.00
530.9540, 86941.00
532.1320, 87055.00
533.3090, 86835.00
534.4870, 86647.00
535.6640, 86652.00
536.8410, 87224.00
538.0180, 87047.00
539.1950, 87170.00
540.3710, 86946.00
541.5480, 87129.00
542.7240, 87139.00
543.9000, 87598.00
545.0760, 87476.00
546.2520, 87372.00
547.4280, 88134.00
548.6040, 87488.00
549.7790, 87808.00
550.9540, 87844.00
552.1290, 88285.00
553.3040, 88038.00
554.4790, 88378.00
555.6530, 88675.00
556.8280, 88965.00
558.0020, 88980.09
559.1760, 89120.12
560.3500, 89308.98
561.5240, 89091.98
562.6980, 89382.67
563.8710, 89511.57
565.0440, 88994.37
566.2170, 89311.47
567.3900, 89294.23
568.5630, 89263.27
569.7360, 89697.80
570.9090, 89274.57
572.0810, 89701.66
573.2530, 89789.29
574.4250, 90032.28
575.5970, 89938.86
576.7690, 89949.34
577.9400, 90062.00
579.1120, 90290.00
580.2830, 90542.00
581.4540, 90466.79
582.6250, 90034.00
583.7960, 90716.00
584.9660, 89926.00
586.1370, 90800.00
587.3070, 90371.00
588.4770, 90979.00
589.6470, 90796.00
590.8170, 90959.00
591.9870, 91183.00
593.1560, 90966.00
594.3260, 91239.00
595.4950, 91073.00
596.6640, 91449.00
597.8330, 91572.00
599.0010, 92091.00
600.1700, 91945.00
601.3380, 92030.00
602.5070, 91990.00
603.6750, 91559.00
604.8430, 92512.00
606.0100, 92283.00
607.1780, 92480.00
608.3450, 92121.00
609.5130, 92789.00
610.6800, 92684.00
611.8470, 93467.00
613.0140, 93133.00
614.1800, 93481.00
615.3470, 93887.00
616.5130, 93806.00
617.6790, 94409.00
618.8450, 94308.00
620.0110, 94997.00
621.1770, 95063.00
622.3420, 95549.00
623.5080, 95356.00
624.6730, 95994.00
625.8380, 96482.00
627.0030, 96995.00
628.1680, 97432.00
629.3320, 97989.59
630.4970, 98649.00
631.6610, 99094.00
632.8250, 99726.00
633.9890, 100323.0
635.1530, 100531.0
636.3160, 101622.0
637.4800, 101676.0
638.6430, 102389.0
639.8060, 102005.0
640.9690, 103167.0
642.1320, 103451.0
643.2950, 103094.0
644.4570, 103269.0
645.6200, 103151.0
646.7820, 103481.0
647.9440, 103266.0
649.1060, 103915.0
650.2670, 103933.0
651.4290, 104107.0
652.5900, 104123.0
653.7520, 104832.0
654.9130, 105141.0
656.0740, 105421.0
657.2340, 105980.3
658.3950, 106326.1
659.5550, 107002.0
660.7160, 107381.0
661.8760, 108160.0
663.0360, 109056.0
664.1960, 110159.0
665.3550, 111378.0
666.5150, 112555.0
667.6740, 113980.0
668.8330, 115347.0
669.9920, 116845.0
671.1510, 118616.0
672.3100, 120971.0
673.4680, 124048.0
674.6270, 126818.0
675.7850, 130376.0
676.9430, 134818.0
678.1010, 138430.0
679.2590, 143289.0
680.4160, 146596.0
681.5740, 150208.0
682.7310, 152579.0
683.8880, 154248.0
685.0450, 154719.0
686.2020, 154263.0
687.3580, 151551.0
688.5150, 149424.0
689.6710, 146356.0
690.8270, 143073.0
691.9830, 139343.0
693.1390, 135604.0
694.2950, 132229.0
695.4500, 129033.0
696.6050, 125453.0
697.7610, 122490.0
698.9160, 119872.0
700.0710, 117367.7
701.2250, 115295.0
702.3800, 113345.0
703.5340, 111859.0
704.6880, 110335.0
705.8420, 109195.0
706.9960, 108067.0
708.1500, 107683.0
709.3040, 106742.0
710.4570, 105611.0
711.6100, 105738.0
712.7640, 105065.0
713.9160, 104800.0
715.0690, 104733.0
716.2220, 104258.0
717.3740, 104269.0
718.5270, 104149.0
719.6790, 104128.0
720.8310, 103930.0
721.9830, 103905.0
723.1340, 104084.0
724.2860, 103770.0
725.4370, 103771.0
726.5880, 103456.0
727.7390, 104085.0
728.8900, 103988.0
730.0410, 103705.0
731.1910, 103536.0
732.3420, 103557.7
733.4920, 103626.4
734.6420, 103614.0
735.7920, 103985.0
736.9420, 103988.0
738.0910, 104030.0
739.2410, 103731.0
740.3900, 103531.0
741.5390, 103861.0
742.6880, 104072.0
743.8370, 104149.0
744.9860, 104062.0
746.1340, 103982.0
747.2820, 103970.0
748.4310, 104544.0
749.5790, 104359.0
750.7260, 104878.0
751.8740, 104861.0
753.0220, 104803.0
754.1690, 104779.0
755.3160, 104468.0
756.4630, 104739.0
757.6100, 104828.0
758.7570, 104862.0
759.9030, 105313.0
761.0500, 105002.0
762.1960, 104945.0
763.3420, 104716.0
764.4880, 104964.0
765.6340, 105063.0
766.7790, 105576.0
767.9250, 105582.0
769.0700, 105543.0
770.2150, 105474.0
771.3600, 105414.0
772.5050, 105730.0
773.6490, 105755.0
774.7940, 106189.0
775.9380, 105946.0
777.0820, 105926.0
778.2260, 106523.0
779.3700, 105818.0
780.5140, 106425.0
781.6570, 106663.0
782.8010, 106446.0
783.9440, 106567.0
785.0870, 106848.0
786.2300, 106791.0
787.3720, 106987.0
788.5150, 107487.0
789.6570, 107230.0
790.8000, 106865.0
791.9420, 107497.0
793.0840, 107276.0
794.2250, 107530.0
795.3670, 107104.0
796.5080, 107493.0
797.6500, 108018.0
798.7910, 107772.0
799.9320, 108127.0
801.0720, 107876.0
802.2130, 108180.0
803.3530, 108318.0
804.4940, 107903.0
805.6340, 108070.0
806.7740, 108500.0
807.9140, 108386.0
809.0530, 109116.0
810.1930, 108857.0
811.3320, 108737.0
812.4710, 108967.0
813.6100, 108797.7
814.7490, 108535.7
815.8880, 108974.1
817.0270, 109241.5
818.1650, 109347.2
819.3030, 108806.8
820.4410, 109100.7
821.5790, 109060.2
822.7170, 109006.0
823.8540, 109417.3
824.9920, 108970.9
826.1290, 109374.8
827.2660, 109439.2
828.4030, 109659.0
829.5400, 109542.4
830.6760, 109529.6
831.8130, 109853.4
832.9490, 109990.9
834.0850, 109835.5
835.2210, 110065.1
836.3570, 109606.9
837.4930, 109752.2
838.6280, 110158.0
839.7640, 109919.0
840.8990, 110154.0
842.0340, 110409.0
843.1690, 110465.7
844.3030, 110934.4
845.4380, 111232.2
846.5720, 111368.2
847.7060, 110858.1
848.8400, 111182.3
849.9740, 111172.2
851.1080, 111148.4
852.2420, 111590.0
853.3750, 111173.9
854.5080, 111608.1
855.6410, 111702.8
856.7740, 111952.9
857.9070, 111866.6
859.0400, 111884.2
860.1720, 112238.3
861.3040, 112406.0
862.4360, 111779.0
863.5680, 111704.0
864.7000, 112046.2
865.8320, 112050.0
866.9630, 112319.0
868.0950, 112272.0
869.2260, 112355.0
870.3570, 112214.0
871.4880, 112319.0
872.6180, 112456.8
873.7490, 112701.0
874.8790, 112829.0
876.0090, 112724.0
877.1390, 112871.0
878.2690, 112945.0
879.3990, 113223.0
880.5280, 113530.0
881.6580, 113589.8
882.7870, 113793.0
883.9160, 113731.0
885.0450, 113972.0
886.1740, 113881.0
887.3020, 114060.0
888.4310, 114605.0
889.5590, 114096.0
890.6870, 114809.0
891.8150, 114137.0
892.9430, 114932.0
894.0700, 115240.0
895.1980, 115477.0
896.3250, 115406.0
897.4520, 116020.0
898.5790, 115420.0
899.7060, 115205.0
900.8330, 115558.0
901.9590, 115927.0
903.0850, 115814.0
904.2120, 116492.0
905.3380, 116139.0
906.4630, 116487.0
907.5890, 116230.0
908.7150, 116745.0
909.8400, 116717.0
910.9650, 116312.0
912.0900, 116688.0
913.2150, 116128.0
914.3400, 116666.0
915.4640, 116444.0
916.5890, 116729.0
917.7130, 116996.0
918.8370, 117700.0
919.9610, 117213.0
921.0850, 117345.0
922.2080, 118038.0
923.3320, 117667.0
924.4550, 117738.0
925.5780, 118119.0
926.7010, 117902.0
927.8240, 118073.0
928.9460, 118208.0
930.0690, 118744.0
931.1910, 118256.0
932.3130, 118845.0
933.4350, 118762.0
934.5570, 118771.0
935.6790, 118966.0
936.8000, 118474.0
937.9220, 118241.0
939.0430, 118841.0
940.1640, 118628.0
941.2850, 118758.0
942.4050, 118711.0
943.5260, 119601.0
944.6460, 119304.0
945.7660, 119464.0
946.8860, 119063.0
948.0060, 119484.0
949.1260, 119304.0
950.2460, 119989.0
951.3650, 119963.0
952.4840, 119669.0
953.6030, 120628.0
954.7220, 119795.0
955.8410, 120235.0
956.9590, 120009.0
958.0780, 120448.0
959.1960, 121033.0
960.3140, 120339.0
961.4320, 120895.0
962.5500, 120907.0
963.6680, 121481.0
964.7850, 121434.0
965.9020, 121805.0
967.0190, 121640.0
968.1360, 121198.0
969.2530, 122039.0
970.3700, 121666.0
971.4860, 121392.0
972.6030, 122204.0
973.7190, 122706.0
974.8350, 122692.0
975.9510, 122260.0
977.0660, 122512.0
978.1820, 122332.0
979.2970, 122441.0
980.4130, 123182.0
981.5280, 122544.0
982.6420, 122943.0
983.7570, 122784.0
984.8720, 123628.0
985.9860, 124072.0
987.1000, 123539.0
988.2140, 123761.0
989.3280, 123575.0
990.4420, 123951.0
991.5560, 123543.0
992.6690, 124182.0
993.7820, 124564.0
994.8950, 124092.0
996.0080, 124643.0
997.1210, 123786.0
998.2340, 124903.0
999.3460, 124578.0
1000.458, 124613.0
1001.571, 125109.0
1002.683, 124920.0
1003.794, 125437.0
1004.906, 125324.0
1006.017, 125647.0
1007.129, 125317.0
1008.240, 125315.0
1009.351, 125522.0
1010.462, 125544.0
1011.572, 125985.0
1012.683, 125722.5
1013.793, 126245.0
1014.904, 126596.8
1016.014, 126786.7
1017.123, 126330.4
1018.233, 126708.5
1019.343, 126752.3
1020.452, 126782.3
1021.561, 127277.7
1022.670, 126915.4
1023.779, 127403.5
1024.888, 127552.1
1025.997, 127314.0
1027.105, 128271.0
1028.213, 128514.0
1029.321, 128675.0
1030.429, 129550.0
1031.537, 130078.0
1032.645, 130476.8
1033.752, 130657.0
1034.859, 131336.0
1035.966, 131397.0
1037.073, 131652.5
1038.180, 131930.8
1039.287, 132038.1
1040.393, 131983.8
1041.500, 131283.2
1042.606, 131417.1
1043.712, 131216.7
1044.818, 131002.5
1045.923, 131253.9
1047.029, 130647.5
1048.134, 130891.5
1049.239, 130796.1
1050.344, 130570.3
1051.449, 130927.0
1052.554, 130644.0
1053.658, 131055.0
1054.763, 130908.0
1055.867, 131231.0
1056.971, 131190.0
1058.075, 131197.0
1059.179, 131635.0
1060.282, 131412.0
1061.385, 131692.0
1062.489, 131644.0
1063.592, 131462.0
1064.695, 131664.0
1065.797, 131585.0
1066.900, 132271.0
1068.002, 132122.0
1069.105, 132760.0
1070.207, 132509.0
1071.309, 132803.0
1072.411, 132980.0
1073.512, 133040.0
1074.614, 133576.0
1075.715, 134023.0
1076.816, 133978.0
1077.917, 135001.0
1079.018, 134844.0
1080.118, 135561.0
1081.219, 135340.0
1082.319, 136358.0
1083.419, 136111.0
1084.519, 137533.4
1085.619, 138256.7
1086.719, 138809.1
1087.818, 139199.5
1088.918, 139555.3
1090.017, 139522.7
1091.116, 139767.0
1092.215, 139997.5
1093.314, 139641.0
1094.412, 139296.0
1095.510, 139945.0
1096.609, 139564.0
1097.707, 139993.0
1098.805, 140114.0
1099.902, 140450.0
1101.000, 140631.0
1102.097, 140687.8
1103.195, 140997.0
1104.292, 140684.0
1105.389, 140794.0
1106.485, 140637.0
1107.582, 140214.0
1108.678, 140240.0
1109.775, 139708.0
1110.871, 139682.0
1111.967, 139689.0
1113.062, 139296.0
1114.158, 139199.0
1115.254, 138648.0
1116.349, 138654.3
1117.444, 138013.0
1118.539, 138472.0
1119.634, 138323.0
1120.728, 138047.0
1121.823, 138115.7
1122.917, 137752.0
1124.011, 137603.0
1125.105, 138069.0
1126.199, 137424.0
1127.293, 137430.0
1128.386, 137162.0
1129.480, 137854.0
1130.573, 137488.0
1131.666, 137723.0
1132.759, 138027.0
1133.851, 137774.0
1134.944, 138101.0
1136.036, 137566.0
1137.129, 137767.0
1138.221, 138171.0
1139.313, 138240.0
1140.404, 138587.0
1141.496, 138133.0
1142.587, 138862.0
1143.678, 137769.2
1144.770, 138302.1
1145.860, 138663.9
1146.951, 138864.1
1148.042, 138418.1
1149.132, 138806.4
1150.223, 138860.4
1151.313, 138900.6
1152.403, 139406.3
1153.492, 139054.1
1154.582, 139552.4
1155.671, 139711.1
1156.761, 140025.3
1157.850, 139656.0
1158.939, 139945.0
1160.028, 139847.0
1161.116, 140238.0
1162.205, 140112.0
1163.293, 140327.0
1164.381, 140931.0
1165.469, 140509.0
1166.557, 140886.0
1167.645, 141022.0
1168.732, 140769.0
1169.820, 141415.0
1170.907, 141617.0
1171.994, 141596.0
1173.081, 141563.0
1174.167, 141834.0
1175.254, 141329.0
1176.340, 142150.0
1177.426, 141702.0
1178.512, 141752.0
1179.598, 142049.0
1180.684, 142242.0
1181.770, 142712.0
1182.855, 142243.0
1183.940, 142739.0
1185.025, 143065.0
1186.110, 142608.0
1187.195, 142681.0
1188.280, 142590.0
1189.364, 142963.0
1190.448, 143338.0
1191.532, 143301.0
1192.616, 143983.0
1193.700, 143338.0
1194.784, 144158.0
1195.867, 144069.0
1196.950, 143947.0
1198.034, 144343.0
1199.117, 144253.0
1200.199, 144400.0
1201.282, 144647.5
1202.364, 144495.0
1203.447, 144752.5
1204.529, 145255.9
1205.611, 145588.3
1206.693, 145759.1
1207.774, 145283.6
1208.856, 145642.6
1209.937, 145667.1
1211.018, 145677.9
1212.099, 146154.1
1213.180, 145772.7
1214.261, 146241.6
1215.341, 146370.9
1216.422, 146655.7
1217.502, 146604.0
1218.582, 146656.2
1219.662, 147044.9
1220.742, 147247.2
1221.821, 147156.7
1222.900, 147451.2
1223.980, 147057.8
1225.059, 147268.0
1226.138, 147738.7
1227.216, 147665.0
1228.295, 147965.6
1229.373, 148123.6
1230.452, 147633.9
1231.530, 148270.6
1232.608, 148420.2
1233.685, 148069.4
1234.763, 148667.5
1235.840, 148385.7
1236.918, 148418.0
1237.995, 148686.6
1239.072, 148708.8
1240.149, 149119.5
1241.225, 149155.8
1242.302, 149158.8
1243.378, 149307.6
1244.454, 149321.8
1245.530, 149545.3
1246.606, 149523.7
1247.681, 149762.5
1248.757, 150060.4
1249.832, 149906.2
1250.907, 150230.6
1251.982, 149812.8
1253.057, 150285.0
1254.132, 149760.0
1255.206, 150594.0
1256.281, 150760.0
1257.355, 150285.0
1258.429, 150547.0
1259.503, 150568.0
1260.576, 150652.0
1261.650, 150865.0
1262.723, 151256.0
1263.797, 151253.0
1264.870, 151087.0
1265.942, 151807.0
1267.015, 151300.0
1268.088, 151893.0
1269.160, 151834.0
1270.232, 151589.0
1271.304, 151911.0
1272.376, 152222.0
1273.448, 152273.0
1274.520, 152446.0
1275.591, 152500.0
1276.662, 152951.0
1277.733, 152132.0
1278.804, 153418.0
1279.875, 152610.0
1280.946, 152759.0
1282.016, 153323.0
1283.086, 153009.0
1284.156, 153767.0
1285.226, 153548.0
1286.296, 153644.0
1287.366, 154409.0
1288.435, 153614.0
1289.505, 154447.0
1290.574, 154285.0
1291.643, 154371.0
1292.711, 154909.0
1293.780, 154297.0
1294.849, 155103.0
1295.917, 154610.0
