##NAMES=Fluorophlogopite
##RRUFFID=R040042
##IDEAL CHEMISTRY=KMg_3_(Si_3_Al)O_10_F_2_
##LOCALITY=Franklin, Sussex County, New Jersey, USA
##OWNER=RRUFF
##SOURCE=University of Arizona Mineral Museum
##DESCRIPTION=Brown flattened hexagonal prism, polytype 1M
##STATUS=The identification of this mineral has been confirmed by X-ray diffraction and chemical analysis
##URL=rruff.info/R040042
##MEASURED CHEMISTRY=(K_0.92_Na_0.08_)_Σ=1_(Mg_2.95_Fe_0.05_)_Σ=3_(Si_3.00_Al_1.00_)O_10_(F_1.40_(OH)_0.60_)_Σ=2_; trace amounts of Ti; OH estimated by charge balance
##PIN_ID=L00540
##ORIENTATION=Laser parallel to -a* (-1 0 0). Fiducial mark perpendicular to laser is parallel to -b [0 -1 0]
128.8070, 102132.0
130.0370, 102744.0
131.2670, 102873.0
132.4970, 103335.0
133.7260, 103402.0
134.9550, 103456.0
136.1850, 104419.0
137.4140, 103942.0
138.6420, 104479.0
139.8710, 104758.0
141.1000, 105424.0
142.3280, 105226.0
143.5560, 106328.0
144.7840, 105839.0
146.0120, 106318.0
147.2400, 106436.0
148.4680, 107195.0
149.6950, 107429.5
150.9220, 107368.0
152.1500, 108101.0
153.3770, 108390.0
154.6030, 108589.0
155.8300, 109263.0
157.0570, 108935.0
158.2830, 109491.0
159.5090, 109688.0
160.7350, 109929.0
161.9610, 110480.0
163.1870, 111023.0
164.4130, 111394.0
165.6380, 111767.0
166.8630, 112291.6
168.0880, 113289.0
169.3130, 113193.0
170.5380, 113534.0
171.7630, 113815.0
172.9870, 115154.0
174.2120, 115782.0
175.4360, 116642.0
176.6600, 117228.0
177.8840, 118254.0
179.1080, 119703.0
180.3310, 120791.0
181.5550, 122353.0
182.7780, 124815.0
184.0010, 127237.0
185.2240, 130898.0
186.4470, 133910.0
187.6700, 138759.0
188.8920, 143549.0
190.1150, 149303.0
191.3370, 156345.0
192.5590, 162502.0
193.7810, 169791.0
195.0020, 176006.0
196.2240, 181278.0
197.4450, 184129.0
198.6670, 183841.0
199.8880, 179438.0
201.1090, 173798.0
202.3300, 165880.0
203.5500, 157933.0
204.7710, 149211.0
205.9910, 142453.0
207.2110, 137326.0
208.4310, 134132.0
209.6510, 130829.0
210.8710, 128794.0
212.0910, 127600.0
213.3100, 126765.0
214.5290, 126125.0
215.7480, 125417.0
216.9670, 125182.0
218.1860, 125263.0
219.4050, 124758.2
220.6230, 124556.0
221.8420, 124252.0
223.0600, 124308.0
224.2780, 124130.0
225.4960, 123764.0
226.7130, 123123.0
227.9310, 122977.0
229.1480, 123442.0
230.3660, 123326.0
231.5830, 123532.0
232.8000, 123244.0
234.0160, 122676.0
235.2330, 124321.0
236.4490, 123338.0
237.6660, 123974.0
238.8820, 123740.0
240.0980, 124018.0
241.3140, 124426.0
242.5300, 124532.0
243.7450, 124571.0
244.9600, 124770.0
246.1760, 124983.0
247.3910, 124924.0
248.6060, 125170.0
249.8200, 125353.0
251.0350, 125436.0
252.2500, 125710.0
253.4640, 126117.0
254.6780, 126509.0
255.8920, 126853.0
257.1060, 127037.0
258.3190, 127981.0
259.5330, 128857.0
260.7460, 128723.0
261.9600, 128673.0
263.1730, 129025.0
264.3850, 129916.0
265.5980, 130730.0
266.8110, 131623.0
268.0230, 132744.0
269.2360, 133591.0
270.4480, 135162.0
271.6600, 136555.0
272.8710, 138895.0
274.0830, 140427.0
275.2950, 142424.0
276.5060, 144205.0
277.7170, 145842.0
278.9280, 147270.0
280.1390, 147872.0
281.3500, 147200.0
282.5600, 146303.0
283.7710, 144684.0
284.9810, 142997.0
286.1910, 141108.0
287.4010, 139216.0
288.6110, 138142.0
289.8200, 137037.0
291.0300, 136787.0
292.2390, 136698.0
293.4480, 136122.0
294.6570, 136338.0
295.8660, 135648.0
297.0750, 135835.0
298.2830, 135900.0
299.4920, 135810.0
300.7000, 136503.0
301.9080, 136615.0
303.1160, 137104.0
304.3240, 137694.0
305.5310, 138376.0
306.7390, 138964.0
307.9460, 139423.0
309.1530, 140920.0
310.3600, 141690.0
311.5670, 142507.0
312.7740, 144041.0
313.9800, 144384.0
315.1870, 145759.0
316.3930, 145996.0
317.5990, 147721.0
318.8050, 148333.0
320.0110, 148435.0
321.2160, 148032.0
322.4220, 148713.0
323.6270, 148999.0
324.8320, 148855.0
326.0370, 148118.0
327.2420, 148409.0
328.4460, 147202.0
329.6510, 147112.0
330.8550, 146003.0
332.0590, 145695.0
333.2630, 145046.0
334.4670, 144156.0
335.6710, 143962.0
336.8740, 142914.0
338.0780, 143058.0
339.2810, 142664.0
340.4840, 142755.0
341.6870, 141764.0
342.8900, 141979.0
344.0920, 142306.0
345.2950, 141681.0
346.4970, 142214.0
347.6990, 142000.0
348.9010, 141893.0
350.1030, 142483.0
351.3050, 142267.0
352.5060, 142802.0
353.7080, 142575.0
354.9090, 144078.0
356.1100, 143486.0
357.3110, 144357.0
358.5110, 144856.0
359.7120, 145349.0
360.9120, 145386.0
362.1130, 146086.0
363.3130, 146428.0
364.5130, 146149.0
365.7120, 146245.0
366.9120, 146107.0
368.1120, 146083.0
369.3110, 146245.0
370.5100, 146339.0
371.7090, 146242.0
372.9080, 146100.0
374.1070, 145592.0
375.3050, 145725.0
376.5040, 145681.0
377.7020, 145198.0
378.9000, 145612.0
380.0980, 145069.0
381.2950, 145749.0
382.4930, 145495.0
383.6910, 145838.0
384.8880, 145679.0
386.0850, 145330.0
387.2820, 145708.0
388.4790, 145538.0
389.6750, 145529.7
390.8720, 145839.2
392.0680, 145727.0
393.2640, 146287.0
394.4600, 146932.0
395.6560, 147089.0
396.8520, 147052.0
398.0480, 147036.0
399.2430, 146925.0
400.4380, 147651.0
401.6330, 147196.0
402.8280, 147773.0
404.0230, 147205.0
405.2180, 147674.0
406.4120, 147437.0
407.6060, 147889.0
408.8000, 147886.0
409.9940, 148429.0
411.1880, 148445.0
412.3820, 148710.0
413.5750, 148575.0
414.7690, 148558.2
415.9620, 148852.0
417.1550, 148529.0
418.3480, 148570.0
419.5410, 149009.0
420.7330, 149050.6
421.9260, 149314.5
423.1180, 149593.0
424.3100, 149860.0
425.5020, 149960.0
426.6940, 150416.0
427.8850, 150706.0
429.0770, 150673.0
430.2680, 150823.0
431.4590, 151418.0
432.6500, 151312.0
433.8410, 151906.0
435.0320, 151886.0
436.2220, 152226.0
437.4130, 152314.0
438.6030, 152962.0
439.7930, 152970.0
440.9830, 152760.0
442.1730, 152970.0
443.3620, 153853.0
444.5520, 153831.0
445.7410, 154098.0
446.9300, 154956.0
448.1190, 154835.0
449.3080, 154960.0
450.4960, 155806.0
451.6850, 156012.0
452.8730, 156030.0
454.0610, 156501.0
455.2490, 156852.0
456.4370, 156128.0
457.6250, 156356.0
458.8130, 155874.0
460.0000, 156869.0
461.1870, 155747.0
462.3740, 156433.0
463.5610, 155862.0
464.7480, 156155.0
465.9340, 156357.0
467.1210, 156323.0
468.3070, 156321.0
469.4930, 156662.0
470.6790, 156480.0
471.8650, 156057.0
473.0510, 156954.0
474.2360, 156560.0
475.4210, 157221.0
476.6070, 157148.0
477.7920, 157613.0
478.9770, 157861.9
480.1610, 157517.6
481.3460, 158017.5
482.5300, 158290.8
483.7140, 157659.1
484.8980, 158195.9
486.0820, 158264.5
487.2660, 158313.8
488.4500, 159015.1
489.6330, 158514.8
490.8160, 159205.6
492.0000, 159421.1
493.1830, 159854.1
494.3650, 159815.7
495.5480, 159923.0
496.7300, 160501.5
497.9130, 159889.0
499.0950, 160239.0
500.2770, 160402.0
501.4590, 160666.7
502.6410, 160461.0
503.8220, 161355.0
505.0030, 161466.0
506.1850, 161590.0
507.3660, 162385.0
508.5470, 161994.0
509.7270, 162342.0
510.9080, 162199.0
512.0880, 162997.0
513.2690, 163169.0
514.4490, 163055.0
515.6290, 163176.0
516.8090, 163578.0
517.9880, 163894.0
519.1680, 163743.0
520.3470, 164286.0
521.5260, 163737.0
522.7050, 164251.0
523.8840, 163468.0
525.0630, 164257.0
526.2410, 164881.0
527.4200, 164520.0
528.5980, 164658.0
529.7760, 164206.0
530.9540, 164955.0
532.1320, 164589.0
533.3090, 165342.0
534.4870, 165269.0
535.6640, 166268.0
536.8410, 165829.0
538.0180, 166588.0
539.1950, 167647.0
540.3710, 166515.0
541.5480, 166646.0
542.7240, 166136.0
543.9000, 167016.0
545.0760, 167162.0
546.2520, 167448.0
547.4280, 167265.0
548.6040, 167099.0
549.7790, 167530.0
550.9540, 167716.0
552.1290, 168080.0
553.3040, 168403.0
554.4790, 168794.0
555.6530, 168565.0
556.8280, 168759.0
558.0020, 169159.0
559.1760, 169597.0
560.3500, 170159.0
561.5240, 169941.0
562.6980, 170646.0
563.8710, 170338.0
565.0440, 170613.0
566.2170, 170303.0
567.3900, 170434.0
568.5630, 171462.0
569.7360, 171311.0
570.9090, 171459.0
572.0810, 171419.0
573.2530, 171310.0
574.4250, 171496.5
575.5970, 171498.9
576.7690, 171782.0
577.9400, 171907.0
579.1120, 172117.0
580.2830, 172233.4
581.4540, 172563.0
582.6250, 172530.0
583.7960, 172835.0
584.9660, 173233.0
586.1370, 174008.0
587.3070, 173455.0
588.4770, 173798.0
589.6470, 173701.0
590.8170, 175029.0
591.9870, 174838.0
593.1560, 175060.0
594.3260, 174624.0
595.4950, 175189.0
596.6640, 175376.0
597.8330, 175463.1
599.0010, 175911.0
600.1700, 175916.0
601.3380, 176330.0
602.5070, 176598.0
603.6750, 176781.0
604.8430, 176942.0
606.0100, 177252.0
607.1780, 177879.0
608.3450, 177636.0
609.5130, 178296.0
610.6800, 178331.0
611.8470, 178233.0
613.0140, 178751.0
614.1800, 179104.0
615.3470, 179182.0
616.5130, 179831.0
617.6790, 180056.0
618.8450, 180870.0
620.0110, 181203.0
621.1770, 181425.0
622.3420, 182202.0
623.5080, 182842.0
624.6730, 183154.0
625.8380, 183828.0
627.0030, 184120.0
628.1680, 184637.0
629.3320, 185253.6
630.4970, 185804.6
631.6610, 186537.0
632.8250, 187429.0
633.9890, 188214.0
635.1530, 188868.6
636.3160, 189405.0
637.4800, 190013.0
638.6430, 190538.0
639.8060, 190818.0
640.9690, 190827.0
642.1320, 190890.0
643.2950, 191181.2
644.4570, 191456.0
645.6200, 191632.0
646.7820, 191890.0
647.9440, 191982.0
649.1060, 192324.1
650.2670, 192500.0
651.4290, 192921.0
652.5900, 193296.0
653.7520, 193512.0
654.9130, 193508.0
656.0740, 194298.0
657.2340, 194673.0
658.3950, 194361.0
659.5550, 195468.0
660.7160, 196068.0
661.8760, 197072.0
663.0360, 197491.0
664.1960, 198865.0
665.3550, 199476.0
666.5150, 200851.0
667.6740, 202259.0
668.8330, 204432.0
669.9920, 204875.0
671.1510, 207611.0
672.3100, 210261.0
673.4680, 212018.0
674.6270, 215345.0
675.7850, 218309.0
676.9430, 221189.0
678.1010, 224603.0
679.2590, 226264.0
680.4160, 230224.0
681.5740, 230517.0
682.7310, 232170.0
683.8880, 231521.0
685.0450, 231715.0
686.2020, 230510.0
687.3580, 228923.0
688.5150, 226480.0
689.6710, 223211.0
690.8270, 221240.0
691.9830, 217979.0
693.1390, 216083.0
694.2950, 212876.0
695.4500, 210182.0
696.6050, 207770.0
697.7610, 205512.0
698.9160, 204093.0
700.0710, 202925.0
701.2250, 202043.0
702.3800, 200407.0
703.5340, 199453.0
704.6880, 198858.0
705.8420, 198575.0
706.9960, 197504.0
708.1500, 197490.0
709.3040, 197013.0
710.4570, 196595.0
711.6100, 197486.0
712.7640, 196587.0
713.9160, 197198.0
715.0690, 196878.0
716.2220, 196466.0
717.3740, 196732.0
718.5270, 196940.0
719.6790, 196735.0
720.8310, 196287.0
721.9830, 197324.0
723.1340, 196767.0
724.2860, 196737.0
725.4370, 197402.0
726.5880, 197096.0
727.7390, 197509.4
728.8900, 197401.0
730.0410, 197973.0
731.1910, 197665.0
732.3420, 197754.0
733.4920, 198194.0
734.6420, 198065.0
735.7920, 199108.0
736.9420, 198527.0
738.0910, 199799.0
739.2410, 199487.0
740.3900, 199652.0
741.5390, 199052.0
742.6880, 198906.0
743.8370, 199866.0
744.9860, 199822.0
746.1340, 200453.0
747.2820, 200089.0
748.4310, 200471.0
749.5790, 200380.0
750.7260, 200691.0
751.8740, 201102.0
753.0220, 200800.0
754.1690, 201908.0
755.3160, 200904.0
756.4630, 201389.0
757.6100, 201281.0
758.7570, 201730.0
759.9030, 201974.0
761.0500, 201952.0
762.1960, 201969.0
763.3420, 201936.0
764.4880, 202366.0
765.6340, 202706.0
766.7790, 203307.0
767.9250, 203536.0
769.0700, 203433.0
770.2150, 203327.0
771.3600, 203585.0
772.5050, 203679.5
773.6490, 204410.0
774.7940, 204237.0
775.9380, 204575.0
777.0820, 204968.0
778.2260, 204729.0
779.3700, 205112.0
780.5140, 205538.0
781.6570, 205727.0
782.8010, 205637.0
783.9440, 205952.0
785.0870, 206429.0
786.2300, 207007.0
787.3720, 205881.0
788.5150, 207417.0
789.6570, 206798.0
790.8000, 207754.0
791.9420, 208139.0
793.0840, 208186.0
794.2250, 208172.0
795.3670, 208364.0
796.5080, 208404.0
797.6500, 208399.0
798.7910, 208932.0
799.9320, 208694.0
801.0720, 209753.0
802.2130, 209231.0
803.3530, 209174.0
804.4940, 210136.0
805.6340, 210118.0
806.7740, 210372.0
807.9140, 209622.0
809.0530, 210125.0
810.1930, 210193.0
811.3320, 210483.0
812.4710, 210809.9
813.6100, 211169.0
814.7490, 211396.0
815.8880, 211802.0
817.0270, 212088.0
818.1650, 210939.0
819.3030, 212250.0
820.4410, 211741.0
821.5790, 212464.0
822.7170, 212850.0
823.8540, 212147.0
824.9920, 212756.0
826.1290, 212695.0
827.2660, 213224.0
828.4030, 213563.0
829.5400, 213846.0
830.6760, 213750.0
831.8130, 213751.0
832.9490, 214062.0
834.0850, 213970.0
835.2210, 214944.0
836.3570, 214594.0
837.4930, 215359.0
838.6280, 215193.0
839.7640, 214863.0
840.8990, 216013.0
842.0340, 215504.0
843.1690, 215576.0
844.3030, 215887.0
845.4380, 216395.0
846.5720, 216092.0
847.7060, 216176.0
848.8400, 217682.0
849.9740, 217015.0
851.1080, 217998.0
852.2420, 216913.0
853.3750, 217639.0
854.5080, 218454.0
855.6410, 217729.0
856.7740, 218408.0
857.9070, 218598.0
859.0400, 218546.0
860.1720, 219027.0
861.3040, 219815.0
862.4360, 219730.0
863.5680, 219894.0
864.7000, 220085.0
865.8320, 219858.0
866.9630, 220536.0
868.0950, 220077.0
869.2260, 221244.0
870.3570, 220076.0
871.4880, 220731.0
872.6180, 221704.0
873.7490, 221008.0
874.8790, 221271.0
876.0090, 221474.0
877.1390, 221975.0
878.2690, 221425.0
879.3990, 222694.0
880.5280, 222431.0
881.6580, 223378.0
882.7870, 223009.0
883.9160, 223659.0
885.0450, 224204.0
886.1740, 223486.0
887.3020, 224309.0
888.4310, 224193.0
889.5590, 224219.0
890.6870, 225949.0
891.8150, 224738.0
892.9430, 226402.0
894.0700, 225810.0
895.1980, 226094.0
896.3250, 226883.0
897.4520, 227018.0
898.5790, 227184.0
899.7060, 227473.0
900.8330, 228863.0
901.9590, 227924.0
903.0850, 228042.0
904.2120, 229075.0
905.3380, 228080.0
906.4630, 229810.0
907.5890, 229367.0
908.7150, 229661.0
909.8400, 229670.0
910.9650, 229702.0
912.0900, 230033.0
913.2150, 229484.0
914.3400, 230526.0
915.4640, 230173.0
916.5890, 230708.0
917.7130, 231420.0
918.8370, 231163.0
919.9610, 231853.0
921.0850, 231405.0
922.2080, 232381.0
923.3320, 232185.0
924.4550, 232639.0
925.5780, 232995.0
926.7010, 233400.0
927.8240, 233588.0
928.9460, 233683.0
930.0690, 234557.0
931.1910, 233558.0
932.3130, 234591.0
933.4350, 234102.0
934.5570, 234548.0
935.6790, 235391.0
936.8000, 234782.0
937.9220, 235972.0
939.0430, 235326.0
940.1640, 236194.0
941.2850, 235317.0
942.4050, 236241.0
943.5260, 236355.0
944.6460, 237033.0
945.7660, 236919.0
946.8860, 237243.0
948.0060, 238086.0
949.1260, 237502.1
950.2460, 237792.0
951.3650, 237740.0
952.4840, 238367.0
953.6030, 238513.0
954.7220, 238083.0
955.8410, 239063.0
956.9590, 239261.0
958.0780, 239189.0
959.1960, 239521.0
960.3140, 239059.0
961.4320, 240197.0
962.5500, 239598.0
963.6680, 240453.0
964.7850, 241550.0
965.9020, 241191.0
967.0190, 241763.0
968.1360, 241209.0
969.2530, 242848.0
970.3700, 242449.0
971.4860, 243129.0
972.6030, 242485.0
973.7190, 243182.0
974.8350, 243309.0
975.9510, 243650.0
977.0660, 244066.4
978.1820, 243973.0
979.2970, 244577.0
980.4130, 245232.0
981.5280, 245141.0
982.6420, 245788.0
983.7570, 245841.0
984.8720, 246355.0
985.9860, 246545.0
987.1000, 246673.0
988.2140, 246208.0
989.3280, 246802.0
990.4420, 247349.0
991.5560, 247309.0
992.6690, 248305.0
993.7820, 247676.0
994.8950, 248141.0
996.0080, 249232.0
997.1210, 248781.0
998.2340, 250286.0
999.3460, 249498.0
1000.458, 249821.0
1001.571, 250928.0
1002.683, 250417.0
1003.794, 251723.0
1004.906, 250946.0
1006.017, 252076.0
1007.129, 252359.0
1008.240, 252952.0
1009.351, 253209.0
1010.462, 252700.0
1011.572, 253742.0
1012.683, 253298.0
1013.793, 254053.0
1014.904, 254135.0
1016.014, 253985.0
1017.123, 255241.0
1018.233, 254823.0
1019.343, 255591.0
1020.452, 255805.0
1021.561, 256456.0
1022.670, 256603.0
1023.779, 257826.0
1024.888, 258554.0
1025.997, 259591.0
1027.105, 261175.0
1028.213, 262223.0
1029.321, 264332.0
1030.429, 265466.0
1031.537, 268175.0
1032.645, 269774.0
1033.752, 270842.0
1034.859, 273401.0
1035.966, 273428.0
1037.073, 273465.0
1038.180, 273864.0
1039.287, 272083.0
1040.393, 272042.0
1041.500, 270206.0
1042.606, 269003.0
1043.712, 267390.0
1044.818, 266344.6
1045.923, 265413.9
1047.029, 264786.0
1048.134, 264147.0
1049.239, 264195.0
1050.344, 264219.0
1051.449, 263433.0
1052.554, 263528.0
1053.658, 263078.0
1054.763, 263269.0
1055.867, 263601.0
1056.971, 263416.0
1058.075, 263510.0
1059.179, 263260.0
1060.282, 263590.0
1061.385, 263378.0
1062.489, 263296.0
1063.592, 263306.0
1064.695, 263953.0
1065.797, 263808.0
1066.900, 264055.0
1068.002, 263980.0
1069.105, 264622.0
1070.207, 264187.0
1071.309, 264609.0
1072.411, 264511.0
1073.512, 264985.0
1074.614, 265221.0
1075.715, 265637.0
1076.816, 266087.0
1077.917, 265927.0
1079.018, 266699.0
1080.118, 266980.0
1081.219, 267510.0
1082.319, 268990.0
1083.419, 268622.0
1084.519, 269803.0
1085.619, 270037.0
1086.719, 272174.0
1087.818, 273424.0
1088.918, 272792.0
1090.017, 272835.0
1091.116, 271302.0
1092.215, 272132.0
1093.314, 271329.0
1094.412, 271461.0
1095.510, 272822.0
1096.609, 270379.0
1097.707, 270967.0
1098.805, 272688.0
1099.902, 273053.0
1101.000, 273164.0
1102.097, 272941.0
1103.195, 274042.0
1104.292, 272971.0
1105.389, 275098.0
1106.485, 274167.0
1107.582, 274222.0
1108.678, 274593.0
1109.775, 274404.0
1110.871, 274453.0
1111.967, 274339.0
1113.062, 274154.0
1114.158, 275608.0
1115.254, 273882.0
1116.349, 275846.0
1117.444, 275424.0
1118.539, 277772.0
1119.634, 276210.0
1120.728, 275673.0
1121.823, 276048.0
1122.917, 276067.0
1124.011, 276699.0
1125.105, 275927.0
1126.199, 277140.0
1127.293, 277235.0
1128.386, 276798.0
1129.480, 277969.0
1130.573, 277498.0
1131.666, 278551.0
1132.759, 278403.0
1133.851, 277850.0
1134.944, 279398.0
1136.036, 278421.0
1137.129, 279649.0
1138.221, 278982.0
1139.313, 280432.0
1140.404, 279424.0
1141.496, 279595.0
1142.587, 281266.0
1143.678, 280315.0
1144.770, 280930.0
1145.860, 281110.0
1146.951, 281455.0
1148.042, 281302.0
1149.132, 281734.0
1150.223, 282052.0
1151.313, 282208.0
1152.403, 282723.0
1153.492, 283274.0
1154.582, 282199.0
1155.671, 283266.0
1156.761, 282878.0
1157.850, 284354.0
1158.939, 285550.0
1160.028, 284853.0
1161.116, 285932.0
1162.205, 285390.0
1163.293, 286171.0
1164.381, 285514.0
1165.469, 286422.0
1166.557, 286190.0
1167.645, 286992.0
1168.732, 287017.0
1169.820, 287757.0
1170.907, 288211.0
1171.994, 288144.0
1173.081, 287918.0
1174.167, 289228.0
1175.254, 288159.0
1176.340, 289557.0
1177.426, 288724.0
1178.512, 288966.0
1179.598, 289294.0
1180.684, 289359.0
1181.770, 290258.0
1182.855, 290222.0
1183.940, 290590.0
1185.025, 291179.0
1186.110, 290583.0
1187.195, 291503.0
1188.280, 291296.0
1189.364, 291912.0
1190.448, 291676.0
1191.532, 292312.0
1192.616, 292684.0
1193.700, 293774.0
1194.784, 293661.0
1195.867, 293291.0
1196.950, 292770.0
1198.034, 294179.0
1199.117, 293985.0
1200.199, 295135.0
1201.282, 294283.0
1202.364, 294728.0
1203.447, 295666.0
1204.529, 295228.0
1205.611, 295570.0
1206.693, 296126.1
1207.774, 296199.3
1208.856, 297492.0
1209.937, 296654.0
1211.018, 297955.0
1212.099, 297613.0
1213.180, 298556.0
1214.261, 297745.0
1215.341, 298991.0
1216.422, 299209.0
1217.502, 299295.0
1218.582, 299557.0
1219.662, 298482.0
1220.742, 299441.0
1221.821, 299661.0
1222.900, 299339.0
1223.980, 300604.0
1225.059, 300059.0
1226.138, 300942.0
1227.216, 301168.0
1228.295, 300162.0
1229.373, 302048.0
1230.452, 301189.0
1231.530, 301830.0
1232.608, 302023.0
1233.685, 302874.0
1234.763, 302857.0
1235.840, 302431.0
1236.918, 303894.0
1237.995, 303140.0
1239.072, 303898.0
1240.149, 304425.0
1241.225, 304406.0
1242.302, 306417.0
1243.378, 306126.0
1244.454, 306013.0
1245.530, 306343.0
1246.606, 305909.0
1247.681, 307318.0
1248.757, 306615.0
1249.832, 308335.0
1250.907, 307582.0
1251.982, 307548.0
1253.057, 308646.0
1254.132, 307005.0
1255.206, 308779.0
1256.281, 307615.0
1257.355, 308354.0
1258.429, 308477.0
1259.503, 309463.0
1260.576, 309986.0
1261.650, 309360.0
1262.723, 309807.0
1263.797, 310595.0
1264.870, 310457.0
1265.942, 311669.0
1267.015, 310801.0
1268.088, 312041.0
1269.160, 311071.0
1270.232, 311176.0
1271.304, 312444.0
1272.376, 311757.0
1273.448, 313348.0
1274.520, 313102.0
1275.591, 313278.0
1276.662, 313699.0
1277.733, 313774.0
1278.804, 315151.0
1279.875, 313840.0
1280.946, 315545.0
1282.016, 315616.0
1283.086, 315998.0
1284.156, 317116.0
1285.226, 317142.0
1286.296, 318831.0
1287.366, 317425.0
1288.435, 316514.0
1289.505, 317930.0
1290.574, 317038.0
1291.643, 318243.0
1292.711, 318782.0
1293.780, 318623.0
1294.849, 319487.0
1295.917, 319656.0
