##NAMES=Fluorapatite
##RRUFFID=R050274
##IDEAL CHEMISTRY=Ca_5_(PO_4_)_3_F
##LOCALITY=Minas Gerais, Brazil
##OWNER=RRUFF
##SOURCE=Marcus Origlieri
##DESCRIPTION=Aggregate of blue crystal fragments separated by veins of quartz
##STATUS=The identification of this mineral has been confirmed by X-ray diffraction and chemical analysis
##URL=rruff.info/R050274
##MEASURED CHEMISTRY=Ca_5.00_((P_0.97_Si_0.02_S_0.01_)O_4_)_3_(F_0.90_Cl_0.10_)
##PIN_ID=L01565
##ORIENTATION=Laser parallel to -a* (-1 0 0). Fiducial mark perpendicular to laser is parallel to -c [0 0 -1]
118.1340, 6916.000
119.3650, 7017.000
120.5960, 7056.000
121.8270, 7084.000
123.0580, 7146.000
124.2880, 7168.000
125.5190, 7326.000
126.7490, 7473.000
127.9790, 7552.000
129.2090, 7578.000
130.4390, 7665.000
131.6680, 7644.000
132.8980, 7783.000
134.1270, 7763.000
135.3560, 7798.000
136.5850, 7820.000
137.8140, 7825.000
139.0430, 7951.000
140.2710, 7823.000
141.5000, 7828.000
142.7280, 7952.000
143.9560, 7923.000
145.1840, 7968.468
146.4120, 7954.000
147.6390, 8018.000
148.8670, 7998.000
150.0940, 8046.000
151.3210, 8061.000
152.5490, 8071.000
153.7750, 8090.000
155.0020, 8110.000
156.2290, 8135.000
157.4550, 8070.000
158.6810, 8145.000
159.9080, 8185.000
161.1340, 8165.000
162.3590, 8231.000
163.5850, 8237.577
164.8110, 8266.000
166.0360, 8275.000
167.2610, 8325.000
168.4860, 8333.000
169.7110, 8304.000
170.9360, 8342.000
172.1610, 8339.000
173.3850, 8468.000
174.6100, 8501.000
175.8340, 8355.000
177.0580, 8486.000
178.2820, 8444.000
179.5050, 8466.000
180.7290, 8597.000
181.9520, 8594.000
183.1760, 8573.000
184.3990, 8314.000
185.6220, 8476.000
186.8450, 8498.000
188.0670, 8459.000
189.2900, 8661.000
190.5120, 8621.000
191.7340, 8685.000
192.9560, 8625.000
194.1780, 8789.000
195.4000, 8733.000
196.6220, 8723.000
197.8430, 8730.000
199.0640, 8894.000
200.2860, 8896.000
201.5070, 8999.000
202.7270, 9003.000
203.9480, 8901.000
205.1690, 8936.000
206.3890, 9085.000
207.6090, 8996.000
208.8290, 8965.000
210.0490, 8938.000
211.2690, 8882.000
212.4890, 8981.000
213.7080, 9143.000
214.9280, 8958.000
216.1470, 9070.000
217.3660, 8928.000
218.5850, 9065.000
219.8030, 9146.000
221.0220, 9120.000
222.2400, 9295.000
223.4590, 9201.000
224.6770, 9143.000
225.8950, 9276.000
227.1120, 9164.000
228.3300, 9279.000
229.5480, 9179.000
230.7650, 9412.000
231.9820, 9319.000
233.1990, 9268.000
234.4160, 9316.000
235.6330, 9371.000
236.8490, 9334.000
238.0660, 9324.000
239.2820, 9393.000
240.4980, 9330.000
241.7140, 9265.000
242.9300, 9320.000
244.1460, 9389.000
245.3610, 9408.000
246.5770, 9418.000
247.7920, 9371.000
249.0070, 9504.000
250.2220, 9455.000
251.4370, 9525.000
252.6510, 9580.000
253.8660, 9566.000
255.0800, 9570.000
256.2940, 9533.000
257.5080, 9597.000
258.7220, 9647.038
259.9360, 9782.000
261.1490, 9793.000
262.3630, 9777.000
263.5760, 9791.000
264.7890, 9782.000
266.0020, 9836.000
267.2150, 9925.000
268.4270, 9992.000
269.6400, 10012.32
270.8520, 10067.70
272.0640, 10043.00
273.2760, 10080.00
274.4880, 10098.00
275.7000, 10103.53
276.9120, 10121.69
278.1230, 10107.00
279.3340, 10115.00
280.5450, 10059.00
281.7560, 10005.00
282.9670, 10079.00
284.1780, 10157.00
285.3880, 10237.00
286.5980, 10257.65
287.8090, 10295.00
289.0190, 10262.00
290.2290, 10322.00
291.4380, 10271.00
292.6480, 10225.00
293.8570, 10192.00
295.0670, 10285.00
296.2760, 10323.00
297.4850, 10313.00
298.6930, 10478.00
299.9020, 10419.00
301.1110, 10432.00
302.3190, 10397.00
303.5270, 10452.00
304.7350, 10376.00
305.9430, 10552.00
307.1510, 10446.00
308.3580, 10489.00
309.5660, 10379.00
310.7730, 10397.00
311.9800, 10574.00
313.1870, 10547.00
314.3940, 10601.00
315.6010, 10408.00
316.8070, 10678.00
318.0130, 10494.00
319.2200, 10563.00
320.4260, 10650.00
321.6310, 10576.00
322.8370, 10534.00
324.0430, 10529.00
325.2480, 10658.00
326.4540, 10666.00
327.6590, 10639.00
328.8640, 10715.00
330.0680, 10695.00
331.2730, 10813.00
332.4780, 10706.00
333.6820, 10823.00
334.8860, 10788.00
336.0900, 10892.00
337.2940, 10763.00
338.4980, 10865.00
339.7010, 10828.00
340.9050, 10920.00
342.1080, 10893.00
343.3110, 10858.00
344.5140, 10923.00
345.7170, 10869.00
346.9200, 10825.00
348.1220, 10977.00
349.3240, 11049.00
350.5270, 11170.00
351.7290, 11097.00
352.9310, 11134.00
354.1320, 11120.00
355.3340, 11174.00
356.5350, 11132.00
357.7370, 11163.00
358.9380, 11286.00
360.1390, 11117.00
361.3400, 11363.00
362.5400, 11468.00
363.7410, 11443.00
364.9410, 11346.00
366.1410, 11348.00
367.3410, 11363.00
368.5410, 11458.00
369.7410, 11361.00
370.9400, 11400.00
372.1400, 11407.00
373.3390, 11526.00
374.5380, 11566.00
375.7370, 11566.20
376.9360, 11603.78
378.1350, 11580.00
379.3330, 11558.00
380.5310, 11622.00
381.7300, 11523.00
382.9280, 11665.00
384.1260, 11549.00
385.3230, 11614.00
386.5210, 11734.00
387.7180, 11762.00
388.9160, 11826.09
390.1130, 11897.00
391.3100, 11850.00
392.5060, 11853.00
393.7030, 11921.70
394.9000, 11823.00
396.0960, 12051.00
397.2920, 12023.00
398.4880, 12089.00
399.6840, 11954.00
400.8800, 12139.00
402.0750, 12182.00
403.2710, 12087.00
404.4660, 12174.00
405.6610, 12182.00
406.8560, 12470.00
408.0510, 12288.00
409.2450, 12455.00
410.4400, 12384.00
411.6340, 12473.00
412.8280, 12702.00
414.0220, 12733.00
415.2160, 13018.00
416.4100, 12996.00
417.6030, 13158.00
418.7970, 13272.00
419.9900, 13504.00
421.1830, 13643.00
422.3760, 13805.00
423.5690, 13895.00
424.7610, 14050.00
425.9540, 14220.00
427.1460, 14101.00
428.3380, 14242.00
429.5300, 14005.00
430.7220, 14204.00
431.9140, 14047.00
433.1050, 13917.00
434.2970, 14058.00
435.4880, 13808.00
436.6790, 13891.00
437.8700, 13769.00
439.0610, 13742.00
440.2510, 13863.00
441.4420, 13758.00
442.6320, 13703.00
443.8220, 13842.00
445.0120, 13737.00
446.2020, 13771.00
447.3910, 13657.00
448.5810, 13757.00
449.7700, 13694.00
450.9600, 13690.00
452.1490, 13614.00
453.3370, 13555.00
454.5260, 13484.00
455.7150, 13625.00
456.9030, 13693.00
458.0910, 13695.00
459.2800, 13786.93
460.4670, 13797.00
461.6550, 13812.00
462.8430, 13712.00
464.0300, 13568.00
465.2180, 13620.00
466.4050, 13606.00
467.5920, 13602.00
468.7790, 13683.00
469.9650, 13720.00
471.1520, 13664.00
472.3380, 13696.00
473.5250, 13855.00
474.7110, 13777.00
475.8970, 13902.00
477.0820, 13925.00
478.2680, 13961.00
479.4540, 13925.00
480.6390, 13987.00
481.8240, 14017.00
483.0090, 13785.00
484.1940, 13912.00
485.3780, 13941.00
486.5630, 13895.00
487.7470, 14115.00
488.9320, 14102.00
490.1160, 14268.00
491.3000, 14270.00
492.4830, 14169.00
493.6670, 14219.00
494.8500, 14331.00
496.0340, 14282.00
497.2170, 14341.51
498.4000, 14524.00
499.5820, 14358.00
500.7650, 14410.00
501.9480, 14397.00
503.1300, 14516.00
504.3120, 14560.00
505.4940, 14710.00
506.6760, 14694.00
507.8580, 14736.45
509.0390, 14700.00
510.2210, 14740.00
511.4020, 14617.00
512.5830, 14604.00
513.7640, 14738.00
514.9450, 14681.00
516.1250, 14752.00
517.3060, 14815.00
518.4860, 14885.00
519.6660, 14917.00
520.8460, 14973.00
522.0260, 14999.00
523.2060, 15050.00
524.3850, 15253.00
525.5650, 15214.00
526.7440, 15308.00
527.9230, 15264.00
529.1020, 15101.00
530.2810, 15003.00
531.4590, 15307.00
532.6380, 15282.00
533.8160, 15116.00
534.9940, 15421.00
536.1720, 15446.00
537.3500, 15500.00
538.5270, 15522.00
539.7050, 15497.00
540.8820, 15648.00
542.0590, 15557.00
543.2360, 15753.00
544.4130, 15870.00
545.5900, 15663.00
546.7660, 15829.00
547.9430, 15809.00
549.1190, 15820.00
550.2950, 15937.00
551.4710, 15848.00
552.6470, 15995.00
553.8220, 15941.00
554.9980, 16195.00
556.1730, 16103.00
557.3480, 16016.00
558.5230, 16196.00
559.6980, 16274.00
560.8730, 16340.00
562.0470, 16445.79
563.2220, 16493.19
564.3960, 16576.00
565.5700, 16619.00
566.7440, 16657.00
567.9170, 16749.00
569.0910, 16828.00
570.2640, 16947.78
571.4380, 17071.05
572.6110, 17207.00
573.7840, 17377.00
574.9570, 17480.00
576.1290, 17687.00
577.3020, 17691.00
578.4740, 17822.00
579.6460, 17874.00
580.8180, 17895.00
581.9900, 17804.00
583.1620, 18174.00
584.3330, 18035.00
585.5040, 18190.00
586.6760, 18200.00
587.8470, 18040.00
589.0180, 18054.00
590.1880, 18103.00
591.3590, 18057.00
592.5290, 18005.00
593.7000, 17820.00
594.8700, 17912.00
596.0400, 17975.00
597.2090, 17723.00
598.3790, 17821.00
599.5490, 17951.00
600.7180, 17925.00
601.8870, 18018.00
603.0560, 18074.00
604.2250, 18008.00
605.3940, 18110.00
606.5620, 18299.00
607.7300, 18088.00
608.8990, 18302.00
610.0670, 18340.00
611.2350, 18180.00
612.4020, 18340.00
613.5700, 18305.00
614.7370, 18240.00
615.9050, 18470.00
617.0720, 18409.00
618.2390, 18347.00
619.4060, 18137.00
620.5720, 18387.00
621.7390, 18464.00
622.9050, 18498.00
624.0710, 18438.00
625.2370, 18530.00
626.4030, 18591.00
627.5690, 18550.00
628.7340, 18615.00
629.9000, 18658.00
631.0650, 18642.00
632.2300, 18766.00
633.3950, 18837.00
634.5600, 18871.22
635.7240, 18817.00
636.8890, 18872.00
638.0530, 18921.00
639.2170, 18897.00
640.3810, 18950.99
641.5450, 19133.00
642.7080, 19012.00
643.8720, 19115.00
645.0350, 19173.00
646.1980, 19431.00
647.3610, 19319.00
648.5240, 19323.00
649.6870, 19389.00
650.8490, 19346.00
652.0120, 19414.00
653.1740, 19337.00
654.3360, 19491.00
655.4980, 19584.00
656.6600, 19817.00
657.8210, 19532.00
658.9830, 19822.00
660.1440, 19793.00
661.3050, 19776.00
662.4660, 19962.00
663.6270, 19861.00
664.7870, 20010.00
665.9480, 19862.00
667.1080, 20039.00
668.2680, 19928.00
669.4280, 20099.00
670.5880, 20156.00
671.7480, 20081.00
672.9070, 20267.00
674.0670, 20227.00
675.2260, 20409.00
676.3850, 20403.00
677.5440, 20440.00
678.7030, 20580.00
679.8610, 20549.91
681.0200, 20574.00
682.1780, 20583.00
683.3360, 20514.00
684.4940, 20535.00
685.6520, 20536.39
686.8090, 20582.97
687.9670, 20623.00
689.1240, 20696.00
690.2810, 20854.00
691.4380, 20849.00
692.5950, 21024.00
693.7520, 21109.00
694.9080, 21022.00
696.0650, 21100.00
697.2210, 21060.00
698.3770, 21159.00
699.5330, 21119.00
700.6880, 21165.00
701.8440, 21222.00
702.9990, 21273.00
704.1550, 21367.00
705.3100, 21555.00
706.4650, 21455.00
707.6190, 21439.00
708.7740, 21614.00
709.9290, 21514.00
711.0830, 21729.00
712.2370, 21668.00
713.3910, 21625.00
714.5450, 21728.00
715.6980, 21819.00
716.8520, 21669.00
718.0050, 21782.00
719.1580, 21935.00
720.3110, 22027.00
721.4640, 21963.00
722.6170, 22188.00
723.7700, 22027.00
724.9220, 22303.00
726.0740, 22313.00
727.2260, 22328.00
728.3780, 22180.00
729.5300, 22157.00
730.6810, 22464.00
731.8330, 22377.00
732.9840, 22340.00
734.1350, 22471.00
735.2860, 22400.00
736.4370, 22513.00
737.5880, 22562.00
738.7380, 22482.00
739.8880, 22796.00
741.0390, 22742.00
742.1890, 22827.00
743.3380, 22666.00
744.4880, 22822.00
745.6380, 22944.00
746.7870, 23047.00
747.9360, 23094.74
749.0850, 23046.00
750.2340, 23072.00
751.3830, 23135.00
752.5310, 22993.00
753.6800, 23122.00
754.8280, 23141.00
755.9760, 23220.00
757.1240, 23168.00
758.2720, 23204.00
759.4190, 23385.00
760.5670, 23298.00
761.7140, 23403.00
762.8610, 23411.00
764.0080, 23508.00
765.1550, 23641.00
766.3020, 23604.00
767.4480, 23607.00
768.5950, 23740.00
769.7410, 23756.00
770.8870, 23776.20
772.0330, 23799.00
773.1780, 23811.00
774.3240, 23883.00
775.4690, 23954.93
776.6140, 23863.00
777.7590, 23937.00
778.9040, 24077.00
780.0490, 23932.00
781.1940, 24092.00
782.3380, 24067.00
783.4820, 24234.00
784.6260, 24248.00
785.7700, 24127.00
786.9140, 24126.00
788.0580, 24183.43
789.2010, 24384.00
790.3450, 24358.00
791.4880, 24462.00
792.6310, 24585.00
793.7730, 24487.00
794.9160, 24704.00
796.0590, 24617.00
797.2010, 24691.00
798.3430, 24656.00
799.4850, 24684.34
800.6270, 24638.00
801.7690, 24819.00
802.9100, 24844.00
804.0520, 25045.00
805.1930, 25143.00
806.3340, 25033.00
807.4750, 25101.00
808.6160, 25058.00
809.7560, 25177.00
810.8970, 25153.85
812.0370, 25155.00
813.1770, 25161.00
814.3170, 25222.00
815.4570, 25235.86
816.5960, 25351.86
817.7360, 25417.00
818.8750, 25600.00
820.0140, 25665.00
821.1530, 25785.00
822.2920, 25486.00
823.4310, 25526.00
824.5690, 25774.00
825.7070, 25509.00
826.8460, 25827.00
827.9840, 25740.00
829.1220, 25752.00
830.2590, 25914.00
831.3970, 25882.89
832.5340, 26015.00
833.6710, 26005.00
834.8080, 26080.00
835.9450, 26182.00
837.0820, 26120.00
838.2190, 26015.00
839.3550, 26301.00
840.4910, 26200.00
841.6270, 26331.00
842.7630, 26337.00
843.8990, 26439.00
845.0350, 26452.67
846.1700, 26612.00
847.3060, 26480.00
848.4410, 26527.00
849.5760, 26566.00
850.7100, 26954.00
851.8450, 26739.00
852.9800, 26931.00
854.1140, 26816.00
855.2480, 26837.01
856.3820, 26944.61
857.5160, 26846.00
858.6500, 27141.00
859.7830, 27096.00
860.9170, 27245.00
862.0500, 27181.00
863.1830, 27362.00
864.3160, 27229.00
865.4480, 27506.00
866.5810, 27520.00
867.7130, 27283.00
868.8460, 27385.00
869.9780, 27591.00
871.1100, 27691.00
872.2410, 27638.00
873.3730, 27558.00
874.5050, 27596.00
875.6360, 27651.00
876.7670, 27669.82
877.8980, 27583.00
879.0290, 27744.00
880.1590, 27779.00
881.2900, 27707.00
882.4200, 27921.00
883.5500, 28018.00
884.6800, 28226.00
885.8100, 28262.96
886.9400, 28218.00
888.0690, 28294.00
889.1990, 28322.00
890.3280, 28269.00
891.4570, 28474.00
892.5860, 28390.00
893.7140, 28464.00
894.8430, 28633.00
895.9710, 28562.00
897.1000, 28558.00
898.2280, 28635.91
899.3560, 28649.00
900.4830, 28725.00
901.6110, 28692.00
902.7380, 28743.00
903.8660, 28817.00
904.9930, 28936.00
906.1200, 28992.00
907.2460, 28895.00
908.3730, 29192.00
909.5000, 29091.00
910.6260, 28945.00
911.7520, 29102.00
912.8780, 29358.00
914.0040, 29170.00
915.1290, 29355.00
916.2550, 29431.00
917.3800, 29662.00
918.5050, 29721.00
919.6300, 29641.00
920.7550, 29702.00
921.8800, 29643.00
923.0040, 29612.00
924.1290, 29738.00
925.2530, 29824.00
926.3770, 29997.00
927.5010, 29959.00
928.6250, 30006.00
929.7480, 30185.00
930.8720, 30426.00
931.9950, 30450.00
933.1180, 30577.33
934.2410, 30345.00
935.3640, 30614.00
936.4860, 30650.00
937.6090, 30517.00
938.7310, 30887.00
939.8530, 30988.00
940.9750, 31054.00
942.0970, 31278.00
943.2180, 31354.83
944.3400, 31285.00
945.4610, 31659.00
946.5820, 31784.00
947.7030, 32052.00
948.8240, 32625.00
949.9450, 33168.00
951.0650, 33675.00
952.1860, 34669.00
953.3060, 35777.00
954.4260, 37218.00
955.5460, 39138.00
956.6650, 40920.00
957.7850, 42596.00
958.9040, 43739.00
960.0230, 44121.00
961.1420, 44121.00
962.2610, 43472.00
963.3800, 42205.00
964.4990, 40818.00
965.6170, 39459.00
966.7350, 38047.00
967.8530, 36417.00
968.9710, 35254.00
970.0890, 34753.00
971.2070, 34332.00
972.3240, 33909.00
973.4410, 33500.00
974.5580, 32971.00
975.6750, 32952.00
976.7920, 32837.00
977.9090, 32724.39
979.0250, 32983.00
980.1410, 32721.00
981.2580, 32967.00
982.3740, 32935.00
983.4890, 32741.00
984.6050, 32897.00
985.7200, 32960.00
986.8360, 32808.00
987.9510, 32831.00
989.0660, 33035.00
990.1810, 33059.00
991.2950, 32902.00
992.4100, 33314.00
993.5240, 33000.00
994.6390, 33283.00
995.7530, 33234.00
996.8660, 33489.00
997.9800, 33410.00
999.0940, 33567.00
1000.207, 33525.00
1001.320, 33937.00
1002.433, 33959.00
1003.546, 34043.00
1004.659, 33916.00
1005.772, 33978.00
1006.884, 33895.00
1007.996, 34163.00
1009.108, 34083.00
1010.220, 34380.00
1011.332, 34166.00
1012.444, 34177.00
1013.555, 34251.00
1014.666, 34235.98
1015.777, 34381.52
1016.888, 34426.00
1017.999, 34646.00
1019.110, 34817.00
1020.220, 34907.00
1021.331, 34899.00
1022.441, 35244.00
1023.551, 35146.00
1024.661, 35342.00
1025.770, 35452.00
1026.880, 35421.00
1027.989, 35633.17
1029.098, 35626.00
1030.207, 35872.00
1031.316, 35827.00
1032.425, 35824.00
1033.533, 36006.00
1034.642, 36102.00
1035.750, 36334.00
1036.858, 36245.00
1037.966, 36496.00
1039.073, 36639.00
1040.181, 36447.00
1041.288, 36588.00
1042.396, 36742.00
1043.503, 36917.00
1044.610, 36961.00
1045.716, 36931.00
1046.823, 36878.00
1047.929, 37025.00
1049.036, 37030.00
1050.142, 37079.00
1051.248, 37285.00
1052.353, 36948.00
1053.459, 37227.00
1054.564, 37069.00
1055.670, 37220.00
1056.775, 37174.00
1057.880, 37324.00
1058.985, 37153.00
1060.089, 37269.00
1061.194, 37144.00
1062.298, 37061.00
1063.402, 37279.00
1064.506, 37060.00
1065.610, 37412.00
1066.713, 37406.00
1067.817, 37232.00
1068.920, 37401.00
1070.023, 37202.00
1071.126, 37399.00
1072.229, 37509.89
1073.332, 37845.00
1074.435, 37851.00
1075.537, 37826.00
1076.639, 37965.00
1077.741, 38006.00
1078.843, 38021.00
1079.945, 38186.00
1081.046, 38032.00
1082.148, 38240.00
1083.249, 38200.00
1084.350, 38303.00
1085.451, 38390.00
1086.551, 38542.00
1087.652, 38372.00
1088.752, 38490.00
1089.853, 38327.00
1090.953, 38449.00
1092.053, 38529.00
1093.152, 38532.00
1094.252, 38817.00
1095.351, 38867.00
1096.451, 38914.00
1097.550, 38756.00
1098.649, 38738.00
1099.748, 39092.00
1100.846, 39343.00
1101.945, 39030.00
1103.043, 39005.00
1104.141, 39274.00
1105.239, 39353.00
1106.337, 39451.00
1107.434, 39228.00
1108.532, 39501.00
1109.629, 39651.00
1110.726, 39303.00
1111.823, 39626.00
1112.920, 39945.00
1114.017, 39871.00
1115.113, 39860.00
1116.210, 39870.00
1117.306, 39992.00
1118.402, 40199.00
1119.498, 40220.00
1120.593, 40534.00
1121.689, 40216.00
1122.784, 40656.00
1123.879, 40474.00
1124.974, 40317.00
1126.069, 40643.00
1127.164, 40761.00
1128.259, 40751.00
1129.353, 40629.00
1130.447, 40547.00
1131.541, 40766.00
1132.635, 40850.00
1133.729, 40969.00
1134.822, 41081.00
1135.916, 40931.00
1137.009, 41159.00
1138.102, 41035.00
1139.195, 41065.00
1140.288, 41369.00
1141.380, 41470.00
1142.473, 41342.00
1143.565, 41591.00
1144.657, 41422.00
1145.749, 41351.00
1146.841, 41386.00
1147.932, 41488.04
1149.024, 41738.00
1150.115, 41863.00
1151.206, 41850.00
1152.297, 41984.00
1153.388, 41774.00
1154.479, 42099.00
##END=



