##NAMES=Fluorapophyllite-(K)
##RRUFFID=R060554
##IDEAL CHEMISTRY=KCa_4_Si_8_O_20_F&#183;8H_2_O
##LOCALITY=unknown
##OWNER=RRUFF
##SOURCE=Gemological Institute of America
##DESCRIPTION=Colorless polished fragment
##STATUS=The identification of this mineral has been confirmed by X-ray diffraction and chemical analysis
##URL=rruff.info/R060554
##MEASURED CHEMISTRY=(K_0.88_Na_0.12_)Ca_4.00_Si_8.00_O_20_F_1.00_Â·8H2O
##PIN_ID=L01258
##ORIENTATION=Laser parallel to c* (0 0 1). Fiducial mark perpendicular to laser is parallel to a [1 0 0]
53.91000, 508.0000
55.14900, 517.0000
56.38700, 518.0000
57.62600, 533.0000
58.86400, 549.0000
60.10300, 531.0000
61.34100, 564.0000
62.57900, 604.0000
63.81700, 639.0000
65.05400, 691.0000
66.29200, 756.0000
67.52900, 869.0000
68.76700, 1027.000
70.00400, 1216.000
71.24100, 1409.000
72.47700, 1584.000
73.71400, 1986.000
74.95100, 2503.000
76.18700, 3230.000
77.42300, 4035.000
78.65900, 5050.000
79.89500, 6386.000
81.13100, 7917.000
82.36700, 9726.000
83.60200, 11868.00
84.83700, 13801.00
86.07200, 15905.00
87.30800, 18143.00
88.54200, 20165.00
89.77700, 21348.00
91.01200, 22150.00
92.24600, 21793.00
93.48000, 20724.00
94.71400, 19450.00
95.94800, 18518.00
97.18200, 18121.00
98.41600, 17610.00
99.64900, 17814.00
100.8830, 18946.00
102.1160, 21204.00
103.3490, 24540.00
104.5820, 28480.00
105.8150, 32234.00
107.0470, 34927.00
108.2800, 36077.00
109.5120, 33060.00
110.7440, 27653.00
111.9760, 22839.00
113.2080, 18965.00
114.4400, 16877.00
115.6710, 15950.00
116.9030, 16132.00
118.1340, 16450.00
119.3650, 15984.00
120.5960, 16769.00
121.8270, 17923.00
123.0580, 18929.00
124.2880, 19678.00
125.5190, 19808.00
126.7490, 19555.00
127.9790, 18959.00
129.2090, 18390.00
130.4390, 18000.00
131.6680, 16923.00
132.8980, 15830.00
134.1270, 14357.00
135.3560, 12529.00
136.5850, 10812.00
137.8140, 9581.000
139.0430, 8631.000
140.2710, 8334.000
141.5000, 7906.000
142.7280, 7887.000
143.9560, 7925.000
145.1840, 8072.000
146.4120, 8527.000
147.6390, 9342.000
148.8670, 10336.00
150.0940, 11589.00
151.3210, 13206.00
152.5490, 14548.00
153.7750, 16583.00
155.0020, 18502.00
156.2290, 21255.00
157.4550, 24068.00
158.6810, 27038.00
159.9080, 29739.00
161.1340, 31055.00
162.3590, 30825.00
163.5850, 29095.00
164.8110, 26319.00
166.0360, 22317.00
167.2610, 18826.00
168.4860, 16001.00
169.7110, 13698.00
170.9360, 12467.00
172.1610, 11914.00
173.3850, 12231.00
174.6100, 12818.00
175.8340, 14135.00
177.0580, 15490.00
178.2820, 17479.00
179.5050, 19922.00
180.7290, 23211.00
181.9520, 26803.00
183.1760, 29818.00
184.3990, 31570.00
185.6220, 32759.00
186.8450, 31719.00
188.0670, 29451.00
189.2900, 26779.00
190.5120, 23847.00
191.7340, 21675.00
192.9560, 20329.00
194.1780, 19886.00
195.4000, 20342.00
196.6220, 21318.00
197.8430, 23151.00
199.0640, 25524.00
200.2860, 28475.00
201.5070, 31951.00
202.7270, 35686.00
203.9480, 40300.00
205.1690, 45731.00
206.3890, 50695.00
207.6090, 55066.00
208.8290, 58582.00
210.0490, 59974.00
211.2690, 59583.00
212.4890, 56749.00
213.7080, 53383.00
214.9280, 48926.00
216.1470, 44743.00
217.3660, 41659.00
218.5850, 38819.00
219.8030, 36874.00
221.0220, 35328.00
222.2400, 34462.00
223.4590, 33914.00
224.6770, 33286.00
225.8950, 32893.00
227.1120, 32327.00
228.3300, 30976.00
229.5480, 29436.00
230.7650, 27439.00
231.9820, 24961.00
233.1990, 22458.00
234.4160, 20210.00
235.6330, 17837.00
236.8490, 15756.00
238.0660, 14145.00
239.2820, 12559.00
240.4980, 11370.00
241.7140, 10517.00
242.9300, 9617.000
244.1460, 9027.000
245.3610, 8446.000
246.5770, 8185.000
247.7920, 7853.000
249.0070, 7530.000
250.2220, 7447.000
251.4370, 7378.000
252.6510, 7262.000
253.8660, 7615.000
255.0800, 7626.000
256.2940, 7961.000
257.5080, 8580.000
258.7220, 9248.000
259.9360, 9708.000
261.1490, 9997.000
262.3630, 10651.00
263.5760, 11031.00
264.7890, 11793.00
266.0020, 12177.00
267.2150, 12240.00
268.4270, 11977.00
269.6400, 11428.00
270.8520, 10821.00
272.0640, 10130.00
273.2760, 9495.000
274.4880, 9163.000
275.7000, 8741.000
276.9120, 8540.000
278.1230, 8469.000
279.3340, 8515.000
280.5450, 8781.000
281.7560, 9192.000
282.9670, 9586.000
284.1780, 10251.00
285.3880, 11057.00
286.5980, 12098.00
287.8090, 13291.00
289.0190, 14416.00
290.2290, 16030.00
291.4380, 17386.00
292.6480, 19177.00
293.8570, 20361.00
295.0670, 21757.00
296.2760, 22662.00
297.4850, 23011.00
298.6930, 22880.00
299.9020, 21678.00
301.1110, 20240.00
302.3190, 18643.00
303.5270, 16894.00
304.7350, 15144.00
305.9430, 13721.00
307.1510, 12586.00
308.3580, 11711.00
309.5660, 10997.00
310.7730, 10243.00
311.9800, 9911.000
313.1870, 9509.000
314.3940, 9346.000
315.6010, 9140.000
316.8070, 9010.000
318.0130, 8979.000
319.2200, 9143.000
320.4260, 9219.000
321.6310, 9497.000
322.8370, 9717.000
324.0430, 9908.000
325.2480, 10270.00
326.4540, 10661.00
327.6590, 11124.00
328.8640, 11711.00
330.0680, 12181.00
331.2730, 12724.00
332.4780, 13245.00
333.6820, 13470.00
334.8860, 13870.00
336.0900, 13887.00
337.2940, 14010.00
338.4980, 13736.00
339.7010, 13240.00
340.9050, 12562.00
342.1080, 11816.00
343.3110, 10902.00
344.5140, 10072.00
345.7170, 9273.000
346.9200, 8558.321
348.1220, 7741.000
349.3240, 7293.000
350.5270, 6798.000
351.7290, 6299.000
352.9310, 6214.000
354.1320, 5816.000
355.3340, 5572.000
356.5350, 5431.000
357.7370, 5277.000
358.9380, 5185.000
360.1390, 5088.000
361.3400, 5084.000
362.5400, 5115.000
363.7410, 5198.000
364.9410, 5266.000
366.1410, 5282.000
367.3410, 5319.642
368.5410, 5332.000
369.7410, 5335.000
370.9400, 5349.000
372.1400, 5349.000
373.3390, 5248.000
374.5380, 4983.000
375.7370, 4896.000
376.9360, 4745.000
378.1350, 4651.000
379.3330, 4554.000
380.5310, 4461.771
381.7300, 4417.409
382.9280, 4338.000
384.1260, 4353.000
385.3230, 4351.000
386.5210, 4342.000
387.7180, 4399.407
388.9160, 4478.000
390.1130, 4517.000
391.3100, 4563.000
392.5060, 4630.000
393.7030, 4778.000
394.9000, 4904.000
396.0960, 5039.000
397.2920, 4982.000
398.4880, 5026.000
399.6840, 5090.000
400.8800, 5170.000
402.0750, 5219.000
403.2710, 5277.000
404.4660, 5322.000
405.6610, 5384.843
406.8560, 5445.508
408.0510, 5505.000
409.2450, 5598.000
410.4400, 5654.000
411.6340, 5778.000
412.8280, 6029.000
414.0220, 6277.000
415.2160, 6483.000
416.4100, 6864.000
417.6030, 7548.000
418.7970, 8419.000
419.9900, 9482.000
421.1830, 11119.00
422.3760, 12840.00
423.5690, 15076.00
424.7610, 17327.00
425.9540, 20282.00
427.1460, 23911.00
428.3380, 27839.00
429.5300, 31808.00
430.7220, 34605.00
431.9140, 35777.00
433.1050, 34534.00
434.2970, 31122.00
435.4880, 26294.00
436.6790, 21758.00
437.8700, 17583.00
439.0610, 14634.00
440.2510, 12284.00
441.4420, 10742.00
442.6320, 9611.000
443.8220, 8817.000
445.0120, 8172.000
446.2020, 7701.000
447.3910, 7478.000
448.5810, 7349.000
449.7700, 7208.000
450.9600, 7276.000
452.1490, 7176.000
453.3370, 7372.000
454.5260, 7643.000
455.7150, 7908.000
456.9030, 8004.000
458.0910, 8504.000
459.2800, 8693.000
460.4670, 8965.000
461.6550, 9090.000
462.8430, 9179.000
464.0300, 9031.000
465.2180, 8931.000
466.4050, 8486.000
467.5920, 8048.000
468.7790, 7715.000
469.9650, 7395.000
471.1520, 7006.000
472.3380, 6832.000
473.5250, 6610.000
474.7110, 6531.000
475.8970, 6454.000
477.0820, 6489.000
478.2680, 6582.000
479.4540, 6858.000
480.6390, 7081.000
481.8240, 7319.000
483.0090, 7325.000
484.1940, 7413.000
485.3780, 7315.000
486.5630, 7201.000
487.7470, 7002.000
488.9320, 6619.000
490.1160, 6414.000
491.3000, 6164.000
492.4830, 5965.000
493.6670, 5839.000
494.8500, 5717.000
496.0340, 5601.000
497.2170, 5542.000
498.4000, 5525.423
499.5820, 5492.000
500.7650, 5558.000
501.9480, 5598.000
503.1300, 5604.000
504.3120, 5621.000
505.4940, 5606.000
506.6760, 5560.000
507.8580, 5584.000
509.0390, 5624.000
510.2210, 5640.000
511.4020, 5687.683
512.5830, 5884.000
513.7640, 5800.000
514.9450, 5958.000
516.1250, 6071.000
517.3060, 6053.000
518.4860, 6277.000
519.6660, 6434.000
520.8460, 6677.000
522.0260, 6896.000
523.2060, 7019.000
524.3850, 7244.000
525.5650, 7476.000
526.7440, 7720.000
527.9230, 8119.000
529.1020, 8342.000
530.2810, 8792.000
531.4590, 9150.000
532.6380, 9486.000
533.8160, 9863.000
534.9940, 10107.00
536.1720, 10378.00
537.3500, 10502.00
538.5270, 10699.00
539.7050, 10728.00
540.8820, 10631.00
542.0590, 10686.00
543.2360, 10572.00
544.4130, 10444.00
545.5900, 10475.00
546.7660, 10379.00
547.9430, 10338.00
549.1190, 10446.00
550.2950, 10556.00
551.4710, 10669.00
552.6470, 10862.00
553.8220, 10981.00
554.9980, 10900.00
556.1730, 11264.00
557.3480, 11418.00
558.5230, 11499.00
559.6980, 11863.00
560.8730, 12192.00
562.0470, 12644.00
563.2220, 13243.00
564.3960, 13937.00
565.5700, 14332.00
566.7440, 15362.00
567.9170, 16009.00
569.0910, 16959.00
570.2640, 18082.00
571.4380, 19207.00
572.6110, 20804.00
573.7840, 22172.00
574.9570, 23745.00
576.1290, 25345.00
577.3020, 27170.00
578.4740, 28456.00
579.6460, 29842.00
580.8180, 30742.00
581.9900, 31614.00
583.1620, 31341.00
584.3330, 31095.00
585.5040, 30187.00
586.6760, 29122.00
587.8470, 27561.00
589.0180, 25978.00
590.1880, 23937.00
591.3590, 22198.00
592.5290, 20405.00
593.7000, 18883.00
594.8700, 17576.00
596.0400, 16249.00
597.2090, 15453.00
598.3790, 14407.00
599.5490, 13522.00
600.7180, 12821.00
601.8870, 12141.00
603.0560, 11825.00
604.2250, 11204.00
605.3940, 10960.00
606.5620, 10694.00
607.7300, 10355.00
608.8990, 10317.00
610.0670, 10014.00
611.2350, 10144.00
612.4020, 9926.000
613.5700, 9848.000
614.7370, 9872.000
615.9050, 9874.000
617.0720, 9935.000
618.2390, 9971.000
619.4060, 9897.000
620.5720, 9919.000
621.7390, 10015.00
622.9050, 10068.00
624.0710, 10225.00
625.2370, 10262.00
626.4030, 10410.00
627.5690, 10497.00
628.7340, 10477.00
629.9000, 10518.00
631.0650, 10571.00
632.2300, 10698.00
633.3950, 10811.00
634.5600, 10880.00
635.7240, 11229.00
636.8890, 11306.00
638.0530, 11573.00
639.2170, 11842.00
640.3810, 12164.00
641.5450, 12391.00
642.7080, 12824.00
643.8720, 13287.00
645.0350, 13891.00
646.1980, 14354.00
647.3610, 15069.00
648.5240, 15702.00
649.6870, 16573.00
650.8490, 17228.00
652.0120, 18118.46
653.1740, 19061.00
654.3360, 19885.00
655.4980, 20843.00
656.6600, 21693.00
657.8210, 22454.00
658.9830, 23075.00
660.1440, 23612.00
661.3050, 24145.00
662.4660, 24284.00
663.6270, 23969.00
664.7870, 23773.00
665.9480, 23155.00
667.1080, 22004.00
668.2680, 21186.00
669.4280, 20203.00
670.5880, 19147.00
671.7480, 17855.00
672.9070, 16738.00
674.0670, 15694.00
675.2260, 14760.00
676.3850, 13877.00
677.5440, 12857.00
678.7030, 12144.00
679.8610, 11416.00
681.0200, 10797.00
682.1780, 10193.00
683.3360, 9649.286
684.4940, 9205.000
685.6520, 8728.000
686.8090, 8367.000
687.9670, 8053.000
689.1240, 7676.000
690.2810, 7465.000
691.4380, 7235.000
692.5950, 7024.000
693.7520, 6701.000
694.9080, 6551.000
696.0650, 6238.000
697.2210, 6189.000
698.3770, 6162.000
699.5330, 5877.000
700.6880, 5879.000
701.8440, 5616.000
702.9990, 5681.000
704.1550, 5454.000
705.3100, 5533.000
706.4650, 5398.000
707.6190, 5345.000
708.7740, 5309.000
709.9290, 5265.000
711.0830, 5222.000
712.2370, 5121.000
713.3910, 5118.000
714.5450, 5081.000
715.6980, 5141.000
716.8520, 5006.000
718.0050, 5060.000
719.1580, 4970.000
720.3110, 4883.000
721.4640, 4975.000
722.6170, 4909.000
723.7700, 4871.000
724.9220, 4915.000
726.0740, 4844.000
727.2260, 4851.000
728.3780, 4842.000
729.5300, 4793.000
730.6810, 4791.000
731.8330, 4743.000
732.9840, 4738.000
734.1350, 4734.570
735.2860, 4777.000
736.4370, 4755.000
737.5880, 4734.000
738.7380, 4774.000
739.8880, 4752.845
741.0390, 4831.000
742.1890, 4785.000
743.3380, 4840.000
744.4880, 4922.000
745.6380, 4852.000
746.7870, 4956.000
747.9360, 4999.000
749.0850, 5001.000
750.2340, 5194.000
751.3830, 5328.000
752.5310, 5332.000
753.6800, 5507.000
754.8280, 5698.000
755.9760, 5824.000
757.1240, 6118.000
758.2720, 6435.000
759.4190, 6611.000
760.5670, 6870.000
761.7140, 7101.000
762.8610, 7357.000
764.0080, 7450.000
765.1550, 7618.000
766.3020, 7598.000
767.4480, 7538.000
768.5950, 7502.000
769.7410, 7247.000
770.8870, 7154.000
772.0330, 6845.000
773.1780, 6791.000
774.3240, 6484.000
775.4690, 6359.000
776.6140, 6457.000
777.7590, 6257.000
778.9040, 6383.000
780.0490, 6455.000
781.1940, 6533.000
782.3380, 6762.000
783.4820, 7040.000
784.6260, 7367.000
785.7700, 7830.000
786.9140, 8048.000
788.0580, 8445.000
789.2010, 8639.000
790.3450, 8837.000
791.4880, 8755.000
792.6310, 8453.000
793.7730, 8067.000
794.9160, 7683.000
796.0590, 7369.000
797.2010, 6978.000
798.3430, 6699.000
799.4850, 6330.000
800.6270, 6130.000
801.7690, 6012.000
802.9100, 5835.000
804.0520, 5645.000
805.1930, 5676.000
806.3340, 5534.000
807.4750, 5532.000
808.6160, 5523.000
809.7560, 5492.000
810.8970, 5527.000
812.0370, 5568.000
813.1770, 5509.000
814.3170, 5531.000
815.4570, 5527.000
816.5960, 5635.000
817.7360, 5640.000
818.8750, 5666.000
820.0140, 5846.000
821.1530, 5765.000
822.2920, 5873.000
823.4310, 5942.000
824.5690, 6005.000
825.7070, 6060.000
826.8460, 6156.000
827.9840, 6176.000
829.1220, 6330.000
830.2590, 6377.000
831.3970, 6473.000
832.5340, 6514.000
833.6710, 6555.000
834.8080, 6513.000
835.9450, 6537.000
837.0820, 6555.209
838.2190, 6673.000
839.3550, 6570.000
840.4910, 6648.000
841.6270, 6595.000
842.7630, 6610.000
843.8990, 6512.000
845.0350, 6600.000
846.1700, 6455.000
847.3060, 6453.000
848.4410, 6486.000
849.5760, 6300.000
850.7100, 6258.000
851.8450, 6262.000
852.9800, 6239.000
854.1140, 6175.000
855.2480, 6152.000
856.3820, 6079.000
857.5160, 5993.000
858.6500, 5991.000
859.7830, 5925.000
860.9170, 5955.000
862.0500, 5817.000
863.1830, 5852.000
864.3160, 5750.000
865.4480, 5709.000
866.5810, 5580.000
867.7130, 5607.000
868.8460, 5525.000
869.9780, 5553.000
871.1100, 5526.000
872.2410, 5456.000
873.3730, 5552.000
874.5050, 5505.000
875.6360, 5400.000
876.7670, 5447.000
877.8980, 5446.000
879.0290, 5479.000
880.1590, 5293.000
881.2900, 5421.000
882.4200, 5408.000
883.5500, 5301.000
884.6800, 5403.000
885.8100, 5397.000
886.9400, 5289.000
888.0690, 5389.000
889.1990, 5372.000
890.3280, 5394.000
891.4570, 5472.000
892.5860, 5521.000
893.7140, 5384.000
894.8430, 5369.000
895.9710, 5411.000
897.1000, 5305.000
898.2280, 5390.000
899.3560, 5366.000
900.4830, 5371.000
901.6110, 5435.000
902.7380, 5275.000
903.8660, 5365.000
904.9930, 5314.000
906.1200, 5389.000
907.2460, 5196.000
908.3730, 5238.000
909.5000, 5151.000
910.6260, 5211.000
911.7520, 5209.000
912.8780, 5129.000
914.0040, 5085.000
915.1290, 5131.000
916.2550, 5042.000
917.3800, 5135.000
918.5050, 5093.137
919.6300, 5060.634
920.7550, 5073.000
921.8800, 5026.000
923.0040, 5028.000
924.1290, 5017.749
925.2530, 5016.000
926.3770, 5028.000
927.5010, 5031.000
928.6250, 5090.000
929.7480, 5147.000
930.8720, 4992.000
931.9950, 5106.000
933.1180, 5015.000
934.2410, 5049.000
935.3640, 5088.000
936.4860, 5048.000
937.6090, 5061.000
938.7310, 5076.000
939.8530, 5135.000
940.9750, 5104.000
942.0970, 5174.000
943.2180, 5192.000
944.3400, 5234.000
945.4610, 5242.000
946.5820, 5311.000
947.7030, 5439.000
948.8240, 5403.000
949.9450, 5501.000
951.0650, 5403.000
952.1860, 5479.000
953.3060, 5485.000
954.4260, 5550.000
955.5460, 5583.000
956.6650, 5514.000
957.7850, 5646.000
958.9040, 5661.205
960.0230, 5705.000
961.1420, 5818.000
962.2610, 5879.000
963.3800, 6009.000
964.4990, 6004.000
965.6170, 6186.000
966.7350, 6235.000
967.8530, 6438.000
968.9710, 6594.000
970.0890, 6590.000
971.2070, 6586.000
972.3240, 6470.000
973.4410, 6275.000
974.5580, 6093.000
975.6750, 5987.000
976.7920, 5894.000
977.9090, 5824.398
979.0250, 5794.137
980.1410, 5781.000
981.2580, 5810.000
982.3740, 5850.000
983.4890, 5936.000
984.6050, 5960.000
985.7200, 5918.000
986.8360, 6132.000
987.9510, 6127.000
989.0660, 6164.000
990.1810, 6398.000
991.2950, 6403.000
992.4100, 6561.000
993.5240, 6667.000
994.6390, 6868.000
995.7530, 7049.000
996.8660, 7285.402
997.9800, 7483.000
999.0940, 7863.000
1000.207, 8151.000
1001.320, 8543.000
1002.433, 8856.000
1003.546, 9017.000
1004.659, 9376.000
1005.772, 9451.000
1006.884, 9535.000
1007.996, 9455.000
1009.108, 8995.000
1010.220, 8764.000
1011.332, 8400.000
1012.444, 7844.000
1013.555, 7629.000
1014.666, 7360.000
1015.777, 7138.000
1016.888, 6981.000
1017.999, 6946.000
1019.110, 6969.000
1020.220, 6891.000
1021.331, 7037.000
1022.441, 6945.000
1023.551, 7097.000
1024.661, 7102.000
1025.770, 7263.000
1026.880, 7235.000
1027.989, 7601.000
1029.098, 7700.000
1030.207, 7885.000
1031.316, 8138.000
1032.425, 8394.000
1033.533, 8618.000
1034.642, 8990.000
1035.750, 9330.000
1036.858, 9649.000
1037.966, 9937.000
1039.073, 10259.00
1040.181, 10950.00
1041.288, 11377.00
1042.396, 12038.00
1043.503, 12905.00
1044.610, 13958.00
1045.716, 15193.00
1046.823, 16687.00
1047.929, 18597.00
1049.036, 20932.00
1050.142, 23651.00
1051.248, 26963.00
1052.353, 31305.00
1053.459, 35928.00
1054.564, 41102.00
1055.670, 46571.00
1056.775, 51751.00
1057.880, 55305.00
1058.985, 57636.00
1060.089, 57252.00
1061.194, 54641.00
1062.298, 49563.00
1063.402, 43391.00
1064.506, 37531.00
1065.610, 31748.00
1066.713, 26963.00
1067.817, 23274.00
1068.920, 20064.00
1070.023, 17723.00
1071.126, 15615.00
1072.229, 13892.00
1073.332, 12581.00
1074.435, 11284.00
1075.537, 10274.00
1076.639, 9518.000
1077.741, 8864.000
1078.843, 8395.000
1079.945, 8005.000
1081.046, 7585.000
1082.148, 7298.000
1083.249, 7024.015
1084.350, 6781.000
1085.451, 6614.000
1086.551, 6501.000
1087.652, 6353.000
1088.752, 6203.000
1089.853, 6117.000
1090.953, 6016.000
1092.053, 6007.000
1093.152, 5883.000
1094.252, 5743.000
1095.351, 5767.000
1096.451, 5698.000
1097.550, 5672.000
1098.649, 5698.000
1099.748, 5646.000
1100.846, 5635.000
1101.945, 5797.000
1103.043, 5853.000
1104.141, 5834.000
1105.239, 5999.000
1106.337, 6075.000
1107.434, 6185.000
1108.532, 6412.000
1109.629, 6587.000
1110.726, 6818.000
1111.823, 7049.000
1112.920, 7118.000
1114.017, 7174.000
1115.113, 7225.000
1116.210, 7142.000
1117.306, 6975.000
1118.402, 6664.000
1119.498, 6636.000
1120.593, 6337.000
1121.689, 6199.000
1122.784, 6093.000
1123.879, 6043.000
1124.974, 5845.000
1126.069, 5662.000
1127.164, 5564.000
1128.259, 5333.000
1129.353, 5254.000
1130.447, 5146.000
1131.541, 5099.000
1132.635, 4975.000
1133.729, 4961.000
1134.822, 4913.000
1135.916, 4923.000
1137.009, 4894.000
1138.102, 4895.000
1139.195, 4898.000
1140.288, 4924.000
1141.380, 4844.000
1142.473, 4808.000
1143.565, 4783.000
1144.657, 5127.883
1145.749, 5208.183
1146.841, 5497.000
1147.932, 5610.000
1149.024, 4796.000
1150.115, 4766.000
1151.206, 4792.000
1152.297, 4670.000
1153.388, 4732.000
1154.479, 4780.000
1155.569, 4785.000
1156.659, 4741.000
1157.750, 4730.000
1158.839, 4743.000
1159.929, 4801.000
1161.019, 4695.000
1162.108, 4769.000
1163.198, 4738.000
1164.287, 4639.000
1165.376, 4770.000
1166.465, 4729.000
1167.553, 4740.000
1168.642, 4759.000
1169.730, 4773.000
1170.818, 4745.000
1171.906, 4785.000
1172.994, 4778.000
1174.082, 4814.000
1175.170, 4785.000
1176.257, 4809.000
1177.344, 4821.000
1178.431, 4808.000
1179.518, 4751.000
1180.605, 4776.000
1181.691, 4836.000
1182.778, 4736.000
1183.864, 4802.000
1184.950, 4790.000
1186.036, 4782.000
1187.122, 4732.000
1188.207, 4822.000
1189.292, 4740.000
1190.378, 4773.000
1191.463, 4713.000
1192.548, 4760.000
1193.632, 4784.000
1194.717, 4743.000
1195.801, 4741.000
1196.886, 4849.000
1197.970, 4788.000
1199.054, 4803.000
1200.137, 4902.000
1201.221, 4865.000
1202.305, 4804.000
1203.388, 4808.000
1204.471, 4839.000
1205.554, 4836.000
1206.637, 4898.000
1207.719, 4799.000
1208.802, 4885.000
1209.884, 4810.000
1210.966, 4907.000
1212.048, 4933.000
1213.130, 4782.000
1214.212, 4794.000
1215.293, 4861.000
1216.374, 4856.000
1217.456, 4842.000
1218.536, 4882.000
1219.617, 4840.000
1220.698, 4873.000
1221.778, 4894.000
1222.859, 4878.910
1223.939, 4879.000
1225.019, 4876.000
1226.099, 4876.000
1227.178, 4871.000
1228.258, 4900.000
1229.337, 4893.000
1230.417, 4889.000
1231.496, 4907.000
1232.574, 4874.000
1233.653, 4895.896
1234.732, 4906.000
1235.810, 4902.000
1236.888, 4917.000
1237.966, 4887.000
1239.044, 4901.897
1240.122, 4950.000
