##NAMES=Fluorophlogopite
##RRUFFID=R040042
##IDEAL CHEMISTRY=KMg_3_(Si_3_Al)O_10_F_2_
##LOCALITY=Franklin, Sussex County, New Jersey, USA
##OWNER=RRUFF
##SOURCE=University of Arizona Mineral Museum
##DESCRIPTION=Brown flattened hexagonal prism, polytype 1M
##STATUS=The identification of this mineral has been confirmed by X-ray diffraction and chemical analysis
##URL=rruff.info/R040042
##MEASURED CHEMISTRY=(K_0.92_Na_0.08_)_Σ=1_(Mg_2.95_Fe_0.05_)_Σ=3_(Si_3.00_Al_1.00_)O_10_(F_1.40_(OH)_0.60_)_Σ=2_; trace amounts of Ti; OH estimated by charge balance
##PIN_ID=L00305
##ORIENTATION=Laser parallel to (1 0 1). Fiducial mark perpendicular to laser is parallel to b [0 1 0]
82.99200, 38934.00
84.23700, 44911.00
85.48300, 50617.00
86.72800, 56287.00
87.97300, 62851.00
89.21800, 70079.00
90.46200, 78153.00
91.70600, 87135.00
92.95100, 96752.00
94.19400, 107306.0
95.43800, 117091.0
96.68200, 128842.0
97.92500, 141655.0
99.16800, 154516.0
100.4110, 165638.0
101.6540, 174648.0
102.8970, 180082.0
104.1390, 179619.0
105.3810, 173545.0
106.6230, 162313.0
107.8650, 146046.0
109.1070, 129396.0
110.3480, 113094.0
111.5900, 100404.0
112.8310, 89921.00
114.0710, 82103.00
115.3120, 76007.00
116.5530, 71568.00
117.7930, 67055.00
119.0330, 63438.00
120.2730, 60118.00
121.5130, 57676.00
122.7520, 55408.00
123.9910, 53356.00
125.2310, 50999.00
126.4700, 49036.00
127.7080, 47256.00
128.9470, 45738.00
130.1850, 44606.00
131.4230, 43478.00
132.6610, 42374.00
133.8990, 41320.00
135.1370, 40307.00
136.3740, 39409.00
137.6120, 38832.00
138.8490, 38318.00
140.0850, 37941.00
141.3220, 37029.00
142.5580, 36006.00
143.7950, 35816.00
145.0310, 35164.00
146.2670, 34604.00
147.5020, 34001.00
148.7380, 33573.00
149.9730, 33243.00
151.2080, 32622.00
152.4430, 32499.00
153.6780, 32265.00
154.9130, 32225.00
156.1470, 31977.00
157.3810, 31877.00
158.6150, 31957.00
159.8490, 32157.00
161.0830, 32430.00
162.3160, 32615.00
163.5490, 32977.00
164.7820, 33406.00
166.0150, 33867.79
167.2480, 34463.37
168.4800, 35112.00
169.7120, 35804.00
170.9440, 36711.00
172.1760, 37485.00
173.4080, 38851.00
174.6400, 40485.00
175.8710, 42065.00
177.1020, 44065.00
178.3330, 47063.00
179.5640, 50709.00
180.7940, 55266.00
182.0250, 61316.00
183.2550, 68887.00
184.4850, 78718.00
185.7150, 91536.00
186.9440, 106360.0
188.1740, 124241.0
189.4030, 144590.0
190.6320, 167241.0
191.8610, 190576.0
193.0900, 213744.0
194.3180, 233300.0
195.5460, 247640.0
196.7740, 252328.0
198.0020, 248202.0
199.2300, 232445.0
200.4580, 209912.0
201.6850, 183015.0
202.9120, 155206.0
204.1390, 130782.0
205.3660, 109576.0
206.5930, 93060.00
207.8190, 80015.00
209.0450, 69972.00
210.2710, 62612.00
211.4970, 57121.00
212.7230, 52241.00
213.9480, 48851.00
215.1730, 45901.00
216.3990, 43447.00
217.6230, 41577.00
218.8480, 39731.00
220.0730, 37782.00
221.2970, 36570.00
222.5210, 35199.00
223.7450, 34269.00
224.9690, 33264.00
226.1930, 32526.63
227.4160, 32007.62
228.6390, 31529.00
229.8620, 31295.00
231.0850, 31233.00
232.3080, 31020.00
233.5300, 30706.00
234.7520, 30534.00
235.9750, 30056.00
237.1960, 29790.00
238.4180, 29501.00
239.6400, 29204.43
240.8610, 29047.00
242.0820, 28694.00
243.3030, 28465.00
244.5240, 28138.00
245.7450, 27921.98
246.9650, 27522.00
248.1850, 27546.00
249.4050, 27397.56
250.6250, 27306.00
251.8450, 27389.00
253.0640, 27358.00
254.2840, 27334.00
255.5030, 27212.00
256.7220, 27697.00
257.9400, 28125.00
259.1590, 28527.42
260.3770, 29163.91
261.5950, 29810.00
262.8130, 30682.00
264.0310, 31640.00
265.2490, 32960.00
266.4660, 34474.00
267.6830, 36457.00
268.9010, 38765.36
270.1170, 41267.00
271.3340, 44503.00
272.5510, 47977.00
273.7670, 51865.00
274.9830, 56531.00
276.1990, 60219.00
277.4150, 63043.00
278.6300, 65151.00
279.8460, 64870.00
281.0610, 62963.00
282.2760, 60062.00
283.4910, 55905.00
284.7050, 51399.00
285.9200, 48030.00
287.1340, 45443.00
288.3480, 43215.00
289.5620, 41451.00
290.7760, 40459.00
291.9890, 39767.00
293.2030, 39550.00
294.4160, 39770.00
295.6290, 40089.00
296.8420, 40558.00
298.0540, 42122.00
299.2670, 42921.00
300.4790, 44904.00
301.6910, 47023.00
302.9030, 49228.00
304.1150, 52612.00
305.3260, 56008.00
306.5380, 59571.00
307.7490, 64167.00
308.9600, 68260.00
310.1700, 72621.00
311.3810, 76078.00
312.5910, 78914.00
313.8020, 81304.00
315.0120, 81971.00
316.2220, 82639.00
317.4310, 81432.00
318.6410, 80588.00
319.8500, 80004.00
321.0590, 78034.00
322.2680, 75606.00
323.4770, 73001.00
324.6850, 70224.00
325.8940, 66921.00
327.1020, 63652.00
328.3100, 60267.00
329.5180, 56743.00
330.7260, 53182.00
331.9330, 50141.00
333.1400, 47323.00
334.3470, 44666.00
335.5540, 42402.00
336.7610, 40663.00
337.9680, 38936.35
339.1740, 37568.91
340.3800, 36431.00
341.5860, 35479.00
342.7920, 34604.00
343.9980, 33992.00
345.2030, 33211.00
346.4080, 33564.00
347.6130, 32668.00
348.8180, 32758.00
350.0230, 32498.99
351.2280, 32239.00
352.4320, 32213.00
353.6360, 32375.00
354.8400, 32637.00
356.0440, 33110.00
357.2480, 33344.00
358.4510, 34270.00
359.6540, 35357.00
360.8570, 36331.00
362.0600, 37861.00
363.2630, 39650.00
364.4660, 41746.00
365.6680, 43833.00
366.8700, 46448.00
368.0720, 49192.00
369.2740, 51391.00
370.4760, 53297.00
371.6770, 54125.00
372.8780, 53382.00
374.0790, 51974.00
375.2800, 49072.00
376.4810, 46206.00
377.6820, 43279.00
378.8820, 40350.00
380.0820, 37959.00
381.2820, 35959.00
382.4820, 34382.00
383.6820, 33172.00
384.8810, 32282.00
386.0800, 31774.00
387.2800, 30760.00
388.4780, 30033.00
389.6770, 29852.00
390.8760, 29445.00
392.0740, 28969.00
393.2720, 28814.00
394.4700, 28541.00
395.6680, 28617.00
396.8660, 28621.00
398.0630, 28447.00
399.2610, 28306.00
400.4580, 28200.00
401.6550, 27975.00
402.8510, 28042.00
404.0480, 28003.00
405.2440, 28163.00
406.4410, 27737.00
407.6370, 27556.00
408.8320, 27656.00
410.0280, 27363.00
411.2240, 27400.00
412.4190, 27228.26
413.6140, 27298.00
414.8090, 26801.00
416.0040, 26716.00
417.1980, 26302.00
418.3930, 26024.00
419.5870, 25862.00
420.7810, 25672.50
421.9750, 25588.00
423.1690, 25530.00
424.3620, 25402.00
425.5560, 25408.00
426.7490, 25460.00
427.9420, 25323.00
429.1340, 25221.00
430.3270, 25355.00
431.5200, 25401.00
432.7120, 25559.00
433.9040, 25556.00
435.0960, 25838.00
436.2880, 25760.00
437.4790, 25938.23
438.6700, 26263.00
439.8620, 26258.00
441.0530, 26560.00
442.2430, 26876.00
443.4340, 26961.00
444.6250, 27063.00
445.8150, 27546.00
447.0050, 27563.00
448.1950, 27833.00
449.3850, 28330.00
450.5740, 28514.00
451.7640, 28789.00
452.9530, 29103.00
454.1420, 29721.00
455.3310, 30426.00
456.5200, 30768.00
457.7080, 31370.00
458.8960, 31869.00
460.0850, 32551.00
461.2730, 33053.00
462.4600, 33863.00
463.6480, 34170.66
464.8350, 34785.00
466.0230, 34656.00
467.2100, 33909.00
468.3970, 33656.00
469.5830, 31841.00
470.7700, 30395.00
471.9560, 28899.00
473.1430, 27609.00
474.3290, 26589.00
475.5140, 25755.00
476.7000, 25485.00
477.8860, 24824.00
479.0710, 24521.00
480.2560, 24555.00
481.4410, 24257.00
482.6260, 24470.00
483.8100, 24679.00
484.9950, 24763.00
486.1790, 25054.00
487.3630, 25596.00
488.5470, 25900.00
489.7310, 26314.00
490.9140, 26856.00
492.0980, 27007.00
493.2810, 27518.00
494.4640, 28188.00
495.6470, 28856.00
496.8290, 29435.00
498.0120, 29805.00
499.1940, 30557.00
500.3760, 30720.00
501.5580, 31553.00
502.7400, 31674.00
503.9220, 32337.00
505.1030, 32447.00
506.2840, 32810.00
507.4660, 33188.11
508.6460, 33365.34
509.8270, 33805.00
511.0080, 33911.00
512.1880, 34146.00
513.3680, 33750.84
514.5480, 33180.00
515.7280, 32566.00
516.9080, 32077.00
518.0870, 31186.00
519.2670, 30344.79
520.4460, 29331.00
521.6250, 28493.00
522.8040, 27892.00
523.9820, 27286.00
525.1610, 26842.00
526.3390, 26571.00
527.5170, 26231.00
528.6950, 26079.00
529.8730, 25132.67
531.0500, 25577.39
532.2280, 25788.98
533.4050, 25780.11
534.5820, 24890.19
535.7590, 25137.97
536.9350, 24929.88
538.1120, 24703.03
539.2880, 25111.01
540.4640, 24349.31
541.6400, 24747.23
542.8160, 24682.25
543.9920, 24644.00
545.1670, 24723.00
546.3430, 24809.00
547.5180, 24785.00
548.6930, 24734.00
549.8680, 24811.00
551.0420, 24588.00
552.2170, 24676.00
553.3910, 24579.00
554.5650, 24675.00
555.7390, 24704.00
556.9130, 24764.00
558.0860, 24811.00
559.2590, 24708.00
560.4330, 24888.00
561.6060, 24766.00
562.7790, 24679.00
563.9510, 24753.00
565.1240, 24934.00
566.2960, 25044.00
567.4680, 24810.00
568.6400, 24798.00
569.8120, 24703.00
570.9840, 24923.00
572.1550, 24774.00
573.3270, 24782.00
574.4980, 24959.54
575.6690, 24818.00
576.8390, 24737.64
578.0100, 24652.00
579.1800, 24415.00
580.3510, 24331.00
581.5210, 24234.00
582.6910, 24238.00
583.8600, 24113.00
585.0300, 24167.00
586.1990, 24301.00
587.3690, 24281.00
588.5380, 24368.00
589.7060, 24315.00
590.8750, 24333.00
592.0440, 24255.00
593.2120, 24376.00
594.3800, 24488.00
595.5480, 24587.00
596.7160, 24964.00
597.8840, 24910.00
599.0510, 25193.00
600.2190, 25328.00
601.3860, 25315.00
602.5530, 25727.00
603.7200, 26036.00
604.8860, 26095.00
606.0530, 26528.00
607.2190, 26845.00
608.3850, 27349.00
609.5510, 27701.00
610.7170, 28222.00
611.8820, 28506.00
613.0480, 29132.00
614.2130, 30007.00
615.3780, 30462.00
616.5430, 31463.00
617.7080, 32836.00
618.8720, 33242.00
620.0370, 33827.00
621.2010, 35229.00
622.3650, 36084.00
623.5290, 37225.00
624.6930, 38588.00
625.8560, 40326.00
627.0200, 41610.00
628.1830, 43117.00
629.3460, 45039.00
630.5090, 46735.00
631.6710, 48716.00
632.8340, 50565.00
633.9960, 52278.00
635.1580, 53848.00
636.3200, 55577.00
637.4820, 56734.00
638.6440, 57685.00
639.8050, 58407.00
640.9670, 59015.00
642.1280, 58876.00
643.2890, 59180.00
644.4500, 59188.00
645.6100, 59155.00
646.7710, 59375.00
647.9310, 59722.00
649.0910, 60216.00
650.2510, 60331.00
651.4110, 61102.00
652.5700, 61537.00
653.7300, 62657.00
654.8890, 63972.00
656.0480, 64667.00
657.2070, 66466.00
658.3660, 67916.00
659.5250, 69877.00
660.6830, 72150.00
661.8410, 74360.00
662.9990, 77348.00
664.1570, 80896.00
665.3150, 85199.00
666.4730, 89956.00
667.6300, 94764.00
668.7870, 101708.0
669.9440, 108997.0
671.1010, 117261.0
672.2580, 127681.9
673.4140, 138647.0
674.5710, 151417.0
675.7270, 164941.0
676.8830, 179457.0
678.0390, 194612.0
679.1950, 207674.0
680.3500, 219471.0
681.5060, 228132.0
682.6610, 233127.0
683.8160, 234020.0
684.9710, 231773.0
686.1250, 225795.0
687.2800, 216443.0
688.4340, 204834.0
689.5880, 192230.0
690.7420, 179352.0
691.8960, 164972.0
693.0500, 151805.0
694.2030, 137404.0
695.3570, 124589.0
696.5100, 113086.0
697.6630, 102203.0
698.8160, 92525.00
699.9680, 84285.00
701.1210, 76869.00
702.2730, 70428.00
703.4250, 65254.00
704.5770, 61050.00
705.7290, 57063.03
706.8810, 54564.00
708.0320, 51569.00
709.1840, 49322.00
710.3350, 47964.00
711.4860, 45771.00
712.6370, 44629.00
713.7870, 43831.00
714.9380, 43024.00
716.0880, 42144.00
717.2380, 41440.00
718.3880, 40819.00
719.5380, 39997.00
720.6880, 39686.00
721.8370, 39397.00
722.9870, 38831.00
724.1360, 38565.00
725.2850, 37946.00
726.4340, 37492.00
727.5820, 37367.00
728.7310, 36904.56
729.8790, 36631.00
731.0270, 36401.00
732.1750, 36186.00
733.3230, 36090.00
734.4700, 35766.00
735.6180, 35906.00
736.7650, 35682.00
737.9120, 35641.00
739.0590, 35712.00
740.2060, 35312.00
741.3530, 35123.00
742.4990, 35167.00
743.6460, 34829.00
744.7920, 34656.00
745.9380, 34442.00
747.0830, 34474.00
748.2290, 34480.00
749.3750, 34278.00
750.5200, 34015.00
751.6650, 33939.00
752.8100, 33586.00
753.9550, 33390.00
755.0990, 33289.00
756.2440, 33165.00
757.3880, 32863.00
758.5320, 32463.00
759.6760, 32267.00
760.8200, 32055.00
761.9640, 31991.00
763.1070, 31820.00
764.2510, 31601.00
765.3940, 31579.00
766.5370, 31432.00
767.6790, 31300.00
768.8220, 31621.00
769.9650, 31528.00
771.1070, 31752.00
772.2490, 31805.00
773.3910, 31887.00
774.5330, 31893.00
775.6750, 31995.00
776.8160, 32551.00
777.9570, 32903.00
779.0980, 33148.00
780.2390, 33235.00
781.3800, 33421.00
782.5210, 33581.65
783.6610, 33682.37
784.8020, 33836.00
785.9420, 33901.00
787.0820, 33906.00
788.2220, 33988.00
789.3610, 33531.00
790.5010, 33928.00
791.6400, 33863.00
792.7790, 34691.00
793.9180, 34100.00
795.0570, 34937.00
796.1960, 34615.00
797.3340, 34555.00
798.4730, 33786.00
799.6110, 34045.00
800.7490, 33411.00
801.8870, 32500.00
803.0250, 32244.00
804.1620, 31900.00
805.2990, 31313.00
806.4370, 30926.00
807.5740, 30645.00
808.7110, 30558.00
809.8470, 30142.00
810.9840, 29924.00
812.1200, 29718.00
813.2560, 29583.00
814.3920, 29441.10
815.5280, 29230.00
816.6640, 29176.00
817.8000, 29060.00
818.9350, 28802.00
820.0700, 29029.00
821.2050, 28600.00
822.3400, 28587.00
823.4750, 28000.00
824.6100, 28047.00
825.7440, 28058.00
826.8780, 27545.00
828.0120, 27503.00
829.1460, 27496.00
830.2800, 27471.00
831.4140, 27191.00
832.5470, 27227.00
833.6800, 26959.00
834.8130, 26939.87
835.9460, 27089.00
837.0790, 26909.00
838.2120, 27090.00
839.3440, 27169.00
840.4760, 27186.00
841.6090, 27211.79
842.7410, 27159.03
843.8720, 27107.00
845.0040, 27005.00
846.1350, 26885.00
847.2670, 26813.00
848.3980, 26754.12
849.5290, 26713.13
850.6600, 26707.00
851.7900, 26690.00
852.9210, 26736.00
854.0510, 26749.55
855.1810, 26783.00
856.3110, 26728.00
857.4410, 26823.00
858.5710, 26717.00
859.7000, 26866.00
860.8300, 26875.67
861.9590, 26879.57
863.0880, 26924.00
864.2170, 26902.00
865.3460, 26802.08
866.4740, 26770.00
867.6030, 26675.84
868.7310, 26694.89
869.8590, 26593.00
870.9870, 26524.53
872.1140, 26488.00
873.2420, 26381.00
874.3690, 26477.00
875.4970, 26484.00
876.6240, 26632.00
877.7510, 27130.00
878.8770, 26844.00
880.0040, 26953.72
881.1310, 26518.00
882.2570, 26768.00
883.3830, 26646.00
884.5090, 26638.00
885.6350, 26677.00
886.7600, 26666.00
887.8860, 26850.00
889.0110, 27040.00
890.1360, 26981.00
891.2610, 26969.00
892.3860, 26975.00
893.5110, 27217.00
894.6350, 27358.00
895.7600, 27181.00
896.8840, 27103.00
898.0080, 27204.00
899.1320, 27336.00
900.2550, 27222.00
901.3790, 27369.00
902.5020, 27502.00
903.6260, 27162.00
904.7490, 27483.00
905.8720, 27386.00
906.9940, 27154.00
908.1170, 27472.00
909.2390, 27255.00
910.3620, 27398.00
911.4840, 27374.00
912.6060, 27238.00
913.7270, 27426.00
914.8490, 27484.00
915.9710, 27267.00
917.0920, 27569.00
918.2130, 27558.00
919.3340, 27631.00
920.4550, 27681.09
921.5750, 27659.04
922.6960, 27638.62
923.8160, 27613.00
924.9360, 27566.00
926.0560, 27579.63
927.1760, 27649.00
928.2960, 27598.00
929.4160, 27606.00
930.5350, 27616.00
931.6540, 27373.00
932.7730, 27393.00
933.8920, 27243.00
935.0110, 27252.00
936.1290, 27273.00
937.2480, 27251.00
938.3660, 27303.00
939.4840, 27285.00
940.6020, 27599.00
941.7200, 27773.00
942.8380, 27156.00
943.9550, 27090.00
945.0720, 27808.00
946.1900, 28442.00
947.3070, 27353.00
948.4230, 27257.00
949.5400, 27435.00
950.6570, 27517.00
951.7730, 27503.00
952.8890, 27346.00
954.0050, 27431.00
955.1210, 27413.00
956.2370, 27435.24
957.3520, 27501.00
958.4680, 27653.00
959.5830, 27832.00
960.6980, 28174.00
961.8130, 28406.00
962.9280, 28397.00
964.0420, 28572.00
965.1570, 28556.00
966.2710, 29002.00
967.3850, 29224.00
968.4990, 29261.00
969.6130, 29652.00
970.7270, 29776.00
971.8400, 29818.00
972.9540, 30300.00
974.0670, 30587.00
975.1800, 30987.00
976.2930, 31257.00
977.4050, 31384.00
978.5180, 31630.00
979.6300, 32064.00
980.7430, 32174.00
981.8550, 32525.00
982.9670, 32739.00
984.0780, 33182.00
985.1900, 33541.00
986.3010, 33719.00
987.4130, 33651.00
988.5240, 34032.00
989.6350, 34384.00
990.7460, 34779.00
991.8560, 35466.00
992.9670, 36005.06
994.0770, 36792.00
995.1870, 37652.00
996.2970, 38578.00
997.4070, 40038.00
998.5170, 41599.00
999.6270, 43198.00
1000.736, 45416.00
1001.845, 46706.00
1002.954, 47444.00
1004.063, 47260.00
1005.172, 46144.00
1006.281, 44870.00
1007.389, 43365.00
1008.497, 42477.00
1009.606, 41745.00
1010.714, 41240.00
1011.821, 40462.00
1012.929, 39946.41
1014.037, 39213.00
1015.144, 38811.00
1016.251, 38312.00
1017.358, 37639.00
1018.465, 37275.00
1019.572, 36878.00
1020.678, 36723.00
1021.785, 37075.00
1022.891, 37168.00
1023.997, 37700.00
1025.103, 38846.00
1026.209, 40159.00
1027.315, 41561.00
1028.420, 43470.00
1029.526, 45851.00
1030.631, 47785.00
1031.736, 50082.00
1032.841, 51418.00
1033.945, 52862.00
1035.050, 52881.00
1036.154, 52321.00
1037.259, 51135.00
1038.363, 49381.00
1039.467, 47180.00
1040.570, 45515.00
1041.674, 43523.00
1042.777, 41698.00
1043.881, 40524.00
1044.984, 39516.00
1046.087, 38028.00
1047.190, 37981.00
1048.292, 37048.00
1049.395, 36846.00
1050.497, 36379.00
1051.600, 35877.00
1052.702, 35778.00
1053.804, 35562.00
1054.905, 35452.00
1056.007, 35044.00
1057.108, 35415.00
1058.210, 35365.00
1059.311, 35257.00
1060.412, 35548.00
1061.513, 35297.00
1062.613, 35739.00
1063.714, 35722.24
1064.814, 35950.00
1065.914, 35931.00
1067.015, 36202.00
1068.114, 36389.00
1069.214, 36728.00
1070.314, 36921.00
1071.413, 37502.00
1072.512, 38013.00
1073.612, 38596.00
1074.711, 38794.00
1075.809, 39503.00
1076.908, 40060.00
1078.007, 40610.00
1079.105, 41425.00
1080.203, 42290.00
1081.301, 42691.00
1082.399, 43378.00
1083.497, 44636.00
1084.594, 45519.00
1085.692, 45763.00
1086.789, 46944.00
1087.886, 47021.00
1088.983, 47764.00
1090.080, 48302.00
1091.177, 48807.00
1092.273, 48962.00
1093.370, 49041.00
1094.466, 49613.00
1095.562, 49803.00
1096.658, 49376.00
1097.754, 49904.00
1098.849, 49397.00
1099.945, 49315.00
1101.040, 49413.00
1102.135, 48959.00
1103.230, 48806.00
1104.325, 47664.00
1105.419, 46921.52
1106.514, 45958.00
1107.608, 44881.00
1108.703, 43701.00
1109.797, 42572.95
1110.891, 41427.00
1111.984, 40213.00
1113.078, 39140.00
1114.171, 38102.00
1115.265, 36960.00
1116.358, 36063.00
1117.451, 34969.48
1118.544, 34157.00
1119.636, 33078.00
1120.729, 32367.00
1121.821, 31815.00
1122.913, 31292.00
1124.006, 30540.00
1125.097, 30288.00
1126.189, 29822.00
1127.281, 29396.00
1128.372, 29511.00
1129.464, 29313.00
1130.555, 29375.00
1131.646, 29000.00
1132.737, 29066.00
1133.827, 28903.09
1134.918, 28944.00
1136.008, 28646.00
1137.099, 28639.00
1138.189, 28477.00
1139.279, 28420.00
1140.368, 28404.00
1141.458, 28297.00
1142.548, 28238.00
1143.637, 28336.00
1144.726, 28442.00
1145.815, 29391.00
1146.904, 28991.46
1147.993, 28893.68
1149.081, 28757.00
1150.170, 28189.00
1151.258, 28172.00
1152.346, 28267.00
1153.434, 28456.00
1154.522, 28743.00
1155.610, 28571.00
1156.697, 28806.00
1157.784, 28671.00
1158.872, 28679.00
1159.959, 28600.00
1161.046, 28434.00
1162.132, 28293.00
1163.219, 28465.00
1164.305, 28471.00
1165.392, 28356.00
1166.478, 28191.00
1167.564, 28403.00
1168.650, 28482.00
1169.735, 28236.00
1170.821, 28376.00
1171.906, 28564.00
1172.992, 28484.00
1174.077, 28796.00
1175.162, 28812.22
1176.247, 28594.00
1177.331, 28925.00
1178.416, 29026.00
1179.500, 28965.00
1180.584, 28896.00
1181.668, 28921.00
1182.752, 29161.00
1183.836, 29187.00
1184.920, 29165.00
1186.003, 29129.00
1187.086, 29218.86
1188.169, 29498.00
1189.252, 29442.00
1190.335, 29400.00
1191.418, 29624.00
1192.500, 29426.46
1193.583, 29343.38
1194.665, 29316.00
1195.747, 28965.00
1196.829, 29142.00
1197.911, 28984.00
1198.993, 29333.00
1200.074, 29136.00
1201.155, 29114.00
1202.237, 29300.00
1203.318, 29139.00
1204.399, 28907.00
1205.479, 28911.00
1206.560, 28958.00
1207.640, 29237.00
1208.721, 28908.00
1209.801, 28968.00
1210.881, 28790.00
1211.961, 29063.00
1213.040, 29018.01
1214.120, 28869.00
1215.199, 29205.00
1216.279, 29129.00
1217.358, 29357.00
1218.437, 29348.00
1219.515, 29206.00
1220.594, 29240.00
1221.673, 29335.84
1222.751, 29373.79
1223.829, 29621.00
1224.907, 29676.00
1225.985, 29793.00
1227.063, 30077.00
1228.141, 30231.00
1229.218, 30241.00
1230.295, 30162.00
1231.372, 30243.00
1232.449, 30257.00
1233.526, 30135.00
1234.603, 30063.00
1235.680, 30126.00
1236.756, 30226.00
1237.832, 30012.00
1238.908, 30281.00
1239.984, 29932.00
1241.060, 30179.00
1242.136, 29885.00
1243.212, 29983.00
1244.287, 29842.00
1245.362, 30024.00
1246.437, 30023.00
1247.512, 30106.00
1248.587, 29894.00
1249.662, 30093.00
1250.736, 29965.00
1251.810, 30013.00
1252.885, 30055.00
1253.959, 30153.00
1255.033, 30178.00
1256.106, 30017.00
1257.180, 30213.00
