##NAMES=Fluorite
##RRUFFID=R060548
##IDEAL CHEMISTRY=CaF_2_
##LOCALITY=unknown
##OWNER=RRUFF
##SOURCE=Gemological Institute of America
##DESCRIPTION=Pale blue fragment
##STATUS=The identification of this mineral has been confirmed by X-ray diffraction and chemical analysis
##URL=rruff.info/R060548
##MEASURED CHEMISTRY=Ca_1.00_F_2.00_
##PIN_ID=L01039
##ORIENTATION=Laser parallel to -a* (-1 0 0). Fiducial mark perpendicular to laser is parallel to b [0 1 0]
185.1460, 14124.19
186.3730, 14166.58
187.6000, 14196.00
188.8270, 14206.00
190.0530, 14294.00
191.2800, 14320.00
192.5060, 14314.00
193.7320, 14287.00
194.9580, 14362.00
196.1830, 14434.00
197.4090, 14400.00
198.6340, 14490.00
199.8590, 14528.00
201.0840, 14609.00
202.3090, 14562.00
203.5340, 14677.00
204.7580, 14477.00
205.9820, 14549.00
207.2060, 14403.00
208.4300, 14422.68
209.6540, 14671.00
210.8780, 14480.00
212.1010, 14472.00
213.3240, 14522.00
214.5470, 14825.00
215.7700, 14844.00
216.9930, 14922.00
218.2150, 14797.00
219.4380, 15144.00
220.6600, 15051.00
221.8820, 15251.00
223.1040, 15339.00
224.3260, 15336.00
225.5470, 15570.00
226.7680, 15722.00
227.9900, 15466.00
229.2110, 15455.00
230.4310, 15340.00
231.6520, 15258.00
232.8720, 15402.00
234.0930, 15419.00
235.3130, 15506.00
236.5330, 15602.00
237.7530, 15743.00
238.9720, 15771.00
240.1920, 16022.00
241.4110, 15984.00
242.6300, 16169.00
243.8490, 16313.00
245.0680, 15830.00
246.2860, 15922.00
247.5040, 15713.00
248.7230, 15697.00
249.9410, 15682.00
251.1590, 15591.00
252.3760, 15746.00
253.5940, 15761.00
254.8110, 15756.00
256.0280, 15873.41
257.2450, 15814.00
258.4620, 16040.00
259.6790, 16247.00
260.8950, 16371.28
262.1120, 16483.95
263.3280, 16478.00
264.5440, 16471.00
265.7600, 16279.00
266.9750, 15950.00
268.1910, 15685.00
269.4060, 15644.00
270.6210, 15727.00
271.8360, 15588.00
273.0510, 15506.00
274.2650, 15585.00
275.4800, 15580.00
276.6940, 15556.00
277.9080, 15508.00
279.1220, 15506.70
280.3360, 15522.00
281.5490, 15437.00
282.7630, 15562.00
283.9760, 15448.00
285.1890, 15550.00
286.4020, 15466.00
287.6150, 15490.00
288.8270, 15613.00
290.0400, 15468.00
291.2520, 15741.00
292.4640, 15811.00
293.6760, 15630.00
294.8870, 15932.00
296.0990, 15845.00
297.3100, 15776.00
298.5210, 16003.00
299.7320, 16044.00
300.9430, 15958.00
302.1540, 15855.00
303.3640, 16133.00
304.5750, 16217.00
305.7850, 16359.00
306.9950, 16389.00
308.2050, 16732.00
309.4140, 16796.00
310.6240, 17127.00
311.8330, 17511.00
313.0420, 17709.00
314.2510, 18416.00
315.4600, 19063.00
316.6680, 19800.00
317.8770, 20717.00
319.0850, 21840.00
320.2930, 22842.00
321.5010, 23834.00
322.7090, 24086.00
323.9160, 23491.00
325.1240, 22551.00
326.3310, 21503.00
327.5380, 20501.00
328.7450, 19677.00
329.9520, 19193.00
331.1580, 18538.00
332.3650, 18186.00
333.5710, 17991.00
334.7770, 17736.00
335.9830, 17531.00
337.1880, 17614.00
338.3940, 17657.00
339.5990, 17474.00
340.8040, 17332.00
342.0090, 17263.00
343.2140, 17343.00
344.4190, 17449.00
345.6230, 17382.00
346.8280, 17372.00
348.0320, 17340.00
349.2360, 17423.00
350.4400, 17507.00
351.6430, 17547.00
352.8470, 17386.00
354.0500, 17432.00
355.2530, 17675.00
356.4560, 17659.00
357.6590, 17419.00
358.8620, 17620.00
360.0640, 17586.00
361.2660, 17653.00
362.4680, 17580.00
363.6700, 17673.00
364.8720, 17642.00
366.0740, 17559.00
367.2750, 17707.00
368.4760, 17823.00
369.6770, 17474.00
370.8780, 17649.00
372.0790, 17588.00
373.2800, 17476.00
374.4800, 17565.00
375.6800, 17658.00
376.8800, 17609.00
378.0800, 17495.00
379.2800, 17702.00
380.4790, 17543.00
381.6790, 17501.00
382.8780, 17758.00
384.0770, 17675.00
385.2760, 17613.00
386.4750, 17641.00
387.6730, 17706.00
388.8720, 17666.00
390.0700, 17618.00
391.2680, 17533.00
392.4660, 17610.00
393.6630, 17649.00
394.8610, 17775.00
396.0580, 17621.00
397.2550, 17546.00
398.4520, 17745.00
399.6490, 17580.00
400.8460, 17529.00
402.0420, 17593.00
403.2390, 17493.00
404.4350, 17437.00
405.6310, 17373.00
406.8270, 17493.00
408.0220, 17425.00
409.2180, 17288.00
410.4130, 17462.00
411.6080, 17269.00
412.8030, 17556.00
413.9980, 17442.00
415.1920, 17470.00
416.3870, 17565.00
417.5810, 17379.00
418.7750, 17528.00
419.9690, 17499.00
421.1630, 17467.00
422.3570, 17602.00
423.5500, 17702.00
424.7430, 17692.88
425.9360, 17818.00
427.1290, 17748.00
428.3220, 17624.00
429.5150, 17692.00
430.7070, 17715.00
431.8990, 17697.00
433.0910, 17683.00
434.2830, 17720.45
435.4750, 17863.00
436.6670, 17805.00
437.8580, 17932.00
439.0490, 18025.00
440.2400, 17939.00
441.4310, 18054.00
442.6220, 18180.00
443.8130, 18062.00
445.0030, 18071.00
446.1930, 17967.00
447.3830, 18208.00
448.5730, 18273.00
449.7630, 18294.00
450.9520, 18344.00
452.1420, 18222.00
453.3310, 18306.00
454.5200, 18263.00
455.7090, 18304.00
456.8980, 18339.00
458.0860, 18339.00
459.2740, 18403.00
460.4630, 18353.00
461.6510, 18572.00
462.8380, 18514.00
464.0260, 18652.00
465.2140, 18685.00
466.4010, 18709.00
467.5880, 18823.00
468.7750, 18696.00
469.9620, 18723.00
471.1490, 18735.00
472.3350, 18688.00
473.5220, 18799.00
474.7080, 19017.00
475.8940, 18916.00
477.0800, 19013.00
478.2650, 18952.00
479.4510, 19372.00
480.6360, 19202.40
481.8210, 18965.00
483.0060, 19184.00
484.1910, 18938.00
485.3760, 19122.00
486.5600, 19090.00
487.7440, 19348.00
488.9290, 19240.00
490.1130, 19227.00
491.2960, 19204.00
492.4800, 19189.00
493.6630, 19216.22
494.8470, 19352.00
496.0300, 19303.00
497.2130, 19301.00
498.3960, 19385.00
499.5780, 19283.00
500.7610, 19269.00
501.9430, 19213.00
503.1250, 19077.00
504.3070, 19405.00
505.4890, 19170.00
506.6710, 19304.00
507.8520, 19105.00
509.0330, 19256.00
510.2140, 19248.00
511.3950, 19467.00
512.5760, 19513.00
513.7570, 19426.00
514.9370, 19247.00
516.1170, 19336.00
517.2980, 19555.00
518.4780, 19182.00
519.6570, 19499.00
520.8370, 19508.00
522.0160, 19374.00
523.1960, 19436.00
524.3750, 19530.00
525.5540, 19548.00
526.7320, 19547.09
527.9110, 19555.51
529.0890, 19482.00
530.2680, 19497.00
531.4460, 19459.00
532.6240, 19411.00
533.8010, 19494.00
534.9790, 19430.10
536.1560, 19496.00
537.3340, 19429.00
538.5110, 19562.00
539.6880, 19661.00
540.8650, 19638.21
542.0410, 19696.00
543.2180, 19654.00
544.3940, 19747.00
545.5700, 19746.00
546.7460, 19693.00
547.9220, 19760.00
549.0970, 19902.00
550.2730, 19742.00
551.4480, 19898.00
552.6230, 19780.00
553.7980, 19959.00
554.9730, 19881.00
556.1470, 20130.00
557.3210, 20000.00
558.4960, 20056.00
559.6700, 19992.00
560.8440, 20258.00
562.0170, 20145.00
563.1910, 20204.00
564.3640, 20385.00
565.5380, 20320.00
566.7110, 20313.00
567.8840, 20394.00
569.0560, 20428.00
570.2290, 20537.00
571.4010, 20403.00
572.5740, 20519.00
573.7460, 20434.00
574.9180, 20357.00
576.0890, 20405.00
577.2610, 20524.00
578.4320, 20581.00
579.6040, 20611.36
580.7750, 20667.00
581.9450, 20692.00
583.1160, 20654.00
584.2870, 20777.00
585.4570, 20724.00
586.6270, 20678.00
587.7980, 20905.00
588.9670, 20932.00
590.1370, 20859.00
591.3070, 20746.00
592.4760, 21025.00
593.6450, 20885.00
594.8140, 20927.00
595.9830, 21085.00
597.1520, 20928.00
598.3210, 21058.00
599.4890, 21063.00
600.6570, 21181.00
601.8250, 21281.00
602.9930, 21108.00
604.1610, 21214.00
605.3290, 21168.00
606.4960, 21328.00
607.6630, 21189.00
608.8300, 21185.00
609.9970, 21260.00
611.1640, 21268.00
612.3300, 21297.00
613.4970, 21362.69
614.6630, 21468.00
615.8290, 21429.00
616.9950, 21619.00
618.1610, 21555.00
619.3260, 21773.00
620.4920, 22019.00
621.6570, 21950.00
622.8220, 22258.00
623.9870, 22295.00
625.1520, 22320.00
626.3160, 22509.00
627.4810, 22482.00
628.6450, 22446.00
629.8090, 22384.00
630.9730, 21998.00
632.1370, 22088.00
633.3000, 21813.00
634.4640, 21610.00
635.6270, 21915.00
636.7900, 21776.00
637.9530, 21897.00
639.1160, 21973.00
640.2780, 22139.00
641.4410, 21925.00
642.6030, 22176.00
643.7650, 22267.00
644.9270, 22278.00
646.0890, 22506.00
647.2500, 22495.00
648.4120, 22602.00
649.5730, 22541.00
650.7340, 22573.00
651.8950, 22655.00
653.0560, 22420.00
654.2160, 22643.00
655.3770, 22638.00
656.5370, 22432.00
657.6970, 22384.00
658.8570, 22510.00
660.0170, 22402.00
661.1760, 22535.00
662.3360, 22465.00
663.4950, 22665.00
664.6540, 22611.00
665.8130, 22740.00
666.9720, 22913.00
668.1310, 23071.00
669.2890, 23023.00
670.4470, 22819.00
671.6050, 22971.00
672.7630, 22896.00
673.9210, 23105.00
675.0790, 22825.00
676.2360, 23044.00
677.3930, 22753.00
678.5510, 22988.00
679.7080, 22913.00
680.8640, 23131.00
682.0210, 23130.00
683.1770, 23484.00
684.3340, 23702.00
685.4900, 23781.00
686.6460, 23823.00
687.8020, 24058.00
688.9570, 24158.00
690.1130, 24349.00
691.2680, 24406.57
692.4230, 24440.37
693.5780, 24462.00
694.7330, 24416.00
695.8880, 24380.00
697.0420, 24335.00
698.1960, 24316.00
699.3510, 24250.00
700.5040, 24409.00
701.6580, 24409.00
702.8120, 24648.00
703.9650, 24682.00
705.1190, 24691.00
706.2720, 24689.00
707.4250, 24739.86
708.5780, 24929.00
709.7300, 24794.00
710.8830, 24985.00
712.0350, 24953.00
713.1870, 24718.00
714.3390, 24639.00
715.4910, 24723.00
716.6430, 24617.00
717.7940, 24588.00
718.9460, 24492.00
720.0970, 24359.00
721.2480, 24427.00
722.3990, 24249.00
723.5500, 24252.00
724.7000, 24106.00
725.8500, 24129.00
727.0010, 24376.00
728.1510, 24173.00
729.3010, 24340.00
730.4500, 24222.00
731.6000, 24181.00
732.7490, 24197.00
733.8980, 24247.00
735.0470, 24360.00
736.1960, 24140.00
737.3450, 24249.00
738.4940, 24026.00
739.6420, 24084.00
740.7900, 24198.00
741.9380, 24074.00
743.0860, 24187.00
744.2340, 24159.00
745.3810, 24248.00
746.5290, 24225.00
747.6760, 24219.00
748.8230, 24241.00
749.9700, 24115.00
751.1170, 24315.00
752.2630, 24310.00
753.4100, 24693.00
754.5560, 24692.00
755.7020, 24542.00
756.8480, 24795.00
757.9940, 24511.00
759.1390, 24640.00
760.2850, 24635.00
761.4300, 24699.00
762.5750, 24599.00
763.7200, 24752.00
764.8650, 24673.00
766.0100, 24761.00
767.1540, 24651.00
768.2980, 24742.00
769.4420, 24793.00
770.5860, 24673.00
771.7300, 25029.00
772.8740, 24984.00
774.0170, 25093.00
775.1610, 25210.00
776.3040, 25222.00
777.4470, 25238.00
778.5900, 25265.00
779.7320, 25463.00
780.8750, 25446.00
782.0170, 25629.00
783.1590, 25512.00
784.3010, 25538.00
785.4430, 25483.00
786.5850, 25626.00
787.7260, 25745.00
788.8680, 25943.00
790.0090, 26026.62
791.1500, 25878.00
792.2910, 26211.00
793.4310, 26180.00
794.5720, 26226.00
795.7120, 26500.00
796.8520, 26458.00
797.9920, 26506.00
799.1320, 26586.00
800.2720, 26749.00
801.4120, 26971.00
802.5510, 26864.00
803.6900, 27012.00
804.8290, 27517.00
805.9680, 27306.00
807.1070, 27598.00
808.2450, 27618.00
809.3840, 27528.00
810.5220, 27699.00
811.6600, 27921.00
812.7980, 27803.00
813.9360, 27946.00
815.0730, 27837.00
816.2110, 27864.00
817.3480, 27895.00
818.4850, 27952.00
819.6220, 27868.00
820.7590, 27820.00
821.8960, 27920.00
823.0320, 28100.00
824.1680, 27929.00
825.3040, 28061.00
826.4400, 28211.00
827.5760, 28503.00
828.7120, 28799.00
829.8470, 28647.00
830.9830, 29220.00
832.1180, 29712.00
833.2530, 30374.00
834.3880, 31684.00
835.5220, 31790.48
836.6570, 31924.84
837.7910, 32289.00
838.9250, 31612.00
840.0590, 31419.00
841.1930, 31641.00
842.3270, 31771.00
843.4600, 31746.00
844.5940, 32090.00
845.7270, 32300.00
846.8600, 31246.00
847.9930, 31134.00
849.1250, 31081.00
850.2580, 31366.00
851.3900, 31735.00
852.5230, 31281.28
853.6550, 31917.00
854.7870, 30502.00
855.9180, 29938.00
857.0500, 29594.00
858.1810, 29476.00
859.3130, 29279.00
860.4440, 29127.00
861.5750, 28891.00
862.7050, 28834.00
863.8360, 28713.00
864.9660, 28451.00
866.0970, 28292.00
867.2270, 28024.00
868.3570, 27859.00
869.4870, 27804.00
870.6160, 27798.00
871.7460, 27741.00
872.8750, 27732.00
874.0040, 27817.00
875.1330, 27796.00
876.2620, 27727.00
877.3910, 27920.00
878.5190, 27822.00
879.6470, 27903.00
880.7760, 27781.00
881.9040, 27729.00
883.0310, 27846.00
884.1590, 27984.00
885.2870, 27659.00
886.4140, 27739.00
887.5410, 27699.00
888.6680, 27665.00
889.7950, 27787.00
890.9220, 27708.00
892.0480, 27997.00
893.1750, 27976.00
894.3010, 28103.00
895.4270, 28338.00
896.5530, 28450.00
897.6790, 28442.00
898.8040, 28443.00
899.9300, 28673.00
901.0550, 28789.07
902.1800, 28996.00
903.3050, 29365.00
904.4300, 29691.00
905.5540, 30286.00
906.6790, 31171.00
907.8030, 32614.00
908.9270, 34005.00
910.0510, 37409.00
911.1750, 40558.00
912.2990, 42917.00
913.4220, 41633.00
914.5450, 39227.00
915.6690, 36774.00
916.7920, 35200.00
917.9140, 34672.00
919.0370, 35569.00
920.1600, 36860.00
921.2820, 38897.00
922.4040, 40445.00
923.5260, 40023.00
924.6480, 39605.00
925.7700, 40878.00
926.8910, 42917.00
928.0130, 44189.00
929.1340, 43123.00
930.2550, 40768.00
931.3760, 39235.00
932.4970, 38051.00
933.6170, 37238.00
934.7380, 36596.00
935.8580, 37012.00
936.9780, 39022.00
938.0980, 39935.00
939.2180, 38947.00
940.3370, 37435.00
941.4570, 36199.00
942.5760, 36415.00
943.6950, 37722.00
944.8140, 40022.00
945.9330, 44226.00
947.0520, 49710.00
948.1700, 54328.00
949.2890, 53893.00
950.4070, 48633.00
951.5250, 42510.00
952.6430, 37963.00
953.7600, 34858.00
954.8780, 33156.00
955.9950, 32167.00
957.1120, 31565.00
958.2290, 30982.00
959.3460, 31167.00
960.4630, 31120.00
961.5800, 30926.00
962.6960, 30833.00
963.8120, 31138.00
964.9280, 31129.00
966.0440, 30996.00
967.1600, 30846.00
968.2760, 30967.00
969.3910, 30913.00
970.5060, 30772.00
971.6210, 30781.00
972.7360, 30644.00
973.8510, 30487.00
974.9660, 30462.00
976.0800, 30283.00
977.1950, 30495.00
978.3090, 30259.75
979.4230, 30296.00
980.5370, 30098.00
981.6500, 30010.00
982.7640, 30226.00
983.8770, 30106.00
984.9900, 30278.00
986.1030, 30241.00
987.2160, 30561.00
988.3290, 30363.00
989.4420, 30428.00
990.5540, 30529.00
991.6660, 30313.00
992.7780, 30738.00
993.8900, 30826.00
995.0020, 30860.00
996.1140, 30736.00
997.2250, 31287.00
998.3360, 31620.00
999.4470, 31785.00
1000.558, 32095.00
1001.669, 32046.00
1002.780, 32348.00
1003.890, 32532.00
1005.001, 32359.00
1006.111, 32278.00
1007.221, 32233.81
1008.331, 32109.27
1009.440, 32101.00
1010.550, 32019.00
1011.659, 32154.00
1012.768, 32301.46
1013.877, 32411.98
1014.986, 32577.29
1016.095, 32742.00
1017.204, 32895.22
1018.312, 33062.43
1019.420, 33226.00
1020.528, 33324.00
1021.636, 33627.00
1022.744, 33683.00
1023.852, 33748.00
1024.959, 34147.00
1026.066, 34281.00
1027.173, 34062.00
1028.280, 34392.00
1029.387, 34307.00
1030.494, 34474.00
1031.600, 34698.00
1032.707, 34163.00
1033.813, 34628.00
1034.919, 34351.00
1036.025, 34475.00
1037.130, 34411.00
1038.236, 34340.00
1039.341, 34314.00
1040.446, 34566.00
1041.552, 34478.00
1042.656, 34852.00
1043.761, 34574.00
1044.866, 34705.00
1045.970, 34754.00
1047.074, 34935.00
1048.179, 34681.00
1049.282, 34843.00
1050.386, 34843.00
1051.490, 35045.00
1052.593, 34753.00
1053.697, 34815.00
1054.800, 34971.00
1055.903, 34951.00
1057.006, 34624.00
1058.108, 35023.00
1059.211, 35321.00
1060.313, 34661.00
1061.415, 34860.00
1062.517, 34524.00
1063.619, 34541.00
1064.721, 34594.00
1065.823, 34560.00
1066.924, 34597.00
1068.025, 34673.00
1069.126, 34670.18
1070.227, 34686.20
1071.328, 34743.00
1072.429, 34657.00
1073.529, 34710.00
1074.629, 34671.00
1075.729, 34787.00
1076.829, 34555.00
1077.929, 34623.00
1079.029, 34668.00
1080.128, 34753.00
1081.228, 34942.00
1082.327, 34905.00
1083.426, 35018.00
1084.525, 34998.00
1085.623, 34919.00
1086.722, 34924.00
1087.820, 34675.00
1088.919, 34713.00
1090.017, 34756.00
1091.115, 34411.00
1092.212, 34583.00
1093.310, 34322.00
1094.407, 34481.00
1095.505, 34257.00
1096.602, 34275.00
1097.699, 34362.00
1098.795, 34271.00
1099.892, 34153.00
1100.989, 34298.00
1102.085, 34058.00
1103.181, 34131.00
1104.277, 34070.00
1105.373, 34327.00
1106.469, 34436.00
1107.564, 34361.00
1108.660, 34496.00
1109.755, 34597.00
1110.850, 34419.00
1111.945, 34480.00
1113.040, 34404.00
1114.134, 34739.00
1115.229, 34701.00
1116.323, 34823.00
1117.417, 34971.00
1118.511, 35170.00
1119.605, 35392.00
1120.698, 35297.00
1121.792, 35095.00
1122.885, 35694.00
1123.978, 35595.00
1125.071, 35845.00
1126.164, 35907.00
1127.257, 35746.00
1128.349, 35896.00
1129.442, 35991.00
1130.534, 36230.00
1131.626, 36283.00
1132.718, 36422.00
1133.810, 36462.00
1134.901, 36676.00
1135.993, 36775.00
1137.084, 36926.00
1138.175, 37376.00
1139.266, 37442.00
1140.357, 37674.00
1141.448, 37837.00
1142.538, 37970.00
1143.628, 38235.00
1144.719, 38256.00
1145.809, 38225.00
1146.898, 38335.00
1147.988, 38541.00
1149.078, 38778.00
1150.167, 38743.27
1151.256, 38636.00
1152.345, 38652.00
1153.434, 38584.00
1154.523, 38432.00
1155.612, 38379.00
1156.700, 38303.63
1157.788, 38285.73
1158.877, 38245.00
1159.964, 38362.00
1161.052, 38466.00
1162.140, 38627.00
1163.227, 38614.00
1164.315, 38607.67
1165.402, 38576.00
1166.489, 38455.00
1167.576, 38372.00
1168.663, 38280.00
1169.749, 38307.00
1170.836, 38324.00
1171.922, 38232.00
1173.008, 38067.00
1174.094, 37767.00
1175.180, 37921.00
1176.265, 37713.00
1177.351, 37838.00
1178.436, 37571.00
1179.521, 37313.00
1180.606, 37012.00
1181.691, 36934.26
1182.776, 36976.00
1183.860, 36834.00
1184.944, 36901.00
1186.029, 36938.00
1187.113, 36784.00
1188.197, 36617.00
1189.280, 36796.00
1190.364, 36473.00
1191.447, 36637.00
1192.531, 36360.00
1193.614, 36304.00
1194.697, 36693.00
1195.779, 36276.00
1196.862, 36604.00
1197.945, 36411.00
1199.027, 36434.00
1200.109, 36491.00
1201.191, 36343.00
1202.273, 36603.00
1203.355, 36436.00
1204.436, 36363.00
1205.518, 36423.00
1206.599, 36649.00
1207.680, 36336.00
1208.761, 36758.00
1209.842, 36480.00
1210.922, 36814.00
1212.003, 36671.00
1213.083, 36630.00
1214.163, 36725.00
1215.243, 36603.00
1216.323, 37037.00
1217.402, 36951.00
1218.482, 36984.00
1219.561, 36956.00
1220.641, 37037.00
1221.720, 37120.00
1222.798, 37087.00
1223.877, 37297.00
1224.956, 37432.00
1226.034, 37325.00
1227.112, 37219.00
1228.191, 37357.00
1229.269, 37629.00
1230.346, 37490.00
1231.424, 37819.00
1232.501, 37655.00
1233.579, 38011.00
1234.656, 38052.00
1235.733, 38255.00
1236.810, 38378.25
1237.886, 38261.00
1238.963, 38522.00
1240.039, 38562.00
1241.116, 38558.00
1242.192, 38739.77
1243.268, 38947.00
1244.343, 38914.00
1245.419, 39130.00
1246.494, 39129.00
1247.570, 39515.00
1248.645, 39716.00
1249.720, 39847.00
1250.795, 39955.00
1251.869, 39856.00
1252.944, 40072.00
1254.018, 40158.00
1255.093, 40071.00
1256.167, 40385.00
1257.240, 40166.00
1258.314, 40715.00
1259.388, 40685.00
1260.461, 40715.00
1261.535, 40449.00
1262.608, 40646.00
1263.681, 40503.00
1264.753, 40656.00
1265.826, 40685.00
1266.899, 40618.00
1267.971, 41006.00
1269.043, 40738.00
1270.115, 41017.00
1271.187, 40808.00
1272.259, 40825.00
1273.330, 41021.00
1274.402, 40878.00
1275.473, 41095.00
1276.544, 40973.00
1277.615, 41215.00
1278.686, 41163.00
1279.756, 40849.00
1280.827, 41194.00
1281.897, 40810.00
1282.967, 40646.00
1284.037, 40579.00
1285.107, 40944.00
1286.177, 41040.00
1287.247, 41233.00
1288.316, 41768.00
1289.385, 41684.00
1290.454, 42053.00
1291.523, 42150.00
1292.592, 42070.00
1293.661, 42187.00
1294.729, 42205.96
1295.797, 42136.00
1296.866, 42249.00
1297.934, 42114.00
1299.001, 42018.00
1300.069, 41906.00
1301.137, 41880.00
1302.204, 41766.00
1303.271, 41399.00
1304.338, 41454.00
1305.405, 41553.00
1306.472, 41261.00
1307.539, 41472.00
1308.605, 41457.00
1309.671, 41208.00
1310.737, 41682.00
1311.803, 41267.00
1312.869, 41296.00
1313.935, 41460.00
1315.000, 41363.00
1316.066, 41394.00
1317.131, 41215.00
1318.196, 41281.00
1319.261, 41384.00
1320.326, 41592.00
1321.390, 41162.00
1322.455, 41326.00
1323.519, 41014.00
1324.583, 40958.00
1325.647, 40924.00
1326.711, 40458.00
1327.775, 40881.00
1328.838, 40496.00
1329.902, 40242.00
1330.965, 40292.00
1332.028, 40288.00
1333.091, 39972.00
1334.153, 39939.00
1335.216, 39902.00
1336.279, 39811.00
1337.341, 39772.05
1338.403, 39654.05
1339.465, 39676.00
1340.527, 39640.38
1341.588, 39500.00
1342.650, 39628.00
1343.711, 39626.00
1344.772, 39592.00
1345.834, 39762.00
1346.894, 39616.00
1347.955, 39793.00
1349.016, 39835.00
1350.076, 39787.00
1351.136, 40014.00
1352.197, 40380.00
1353.257, 40818.00
1354.316, 41491.00
1355.376, 42284.00
1356.436, 43170.00
1357.495, 44652.00
