##NAMES=Forsterite
##RRUFFID=R060551
##IDEAL CHEMISTRY=Mg_2_SiO_4_
##LOCALITY=Kohiston, Pakistan
##OWNER=RRUFF
##SOURCE=Gemological Institute of America
##DESCRIPTION=Pale green fragment
##STATUS=The identification of this mineral has been confirmed by X-ray diffraction and chemical analysis
##URL=rruff.info/R060551
##MEASURED CHEMISTRY=(Mg_1.82_Fe_0.18_)_Î£=2_Si_1.00_O_4_; trace amounts of Mn
##PIN_ID=M00884
##ORIENTATION=Laser parallel to a* (1 0 0). Fiducial mark perpendicular to laser is parallel to c [0 0 1]
62.89900, 120.0000
64.14700, 164.0000
65.39500, 163.0000
66.64300, 183.0000
67.89000, 188.0000
69.13800, 178.0000
70.38500, 270.0000
71.63200, 250.0000
72.87900, 340.0000
74.12500, 341.0000
75.37200, 431.0000
76.61800, 478.0000
77.86400, 511.0000
79.10900, 555.0000
80.35500, 631.4842
81.60000, 734.0000
82.84600, 794.0000
84.09100, 891.0000
85.33500, 973.0000
86.58000, 1037.000
87.82400, 1078.000
89.06900, 1165.000
90.31300, 1266.000
91.55600, 1337.000
92.80000, 1439.000
94.04300, 1459.000
95.28700, 1495.000
96.53000, 1520.000
97.77300, 1507.000
99.01500, 1613.000
100.2580, 1567.000
101.5000, 1594.000
102.7420, 1617.000
103.9840, 1601.000
105.2260, 1612.000
106.4670, 1698.000
107.7080, 1774.000
108.9490, 1763.000
110.1900, 1683.000
111.4310, 1694.000
112.6720, 1751.000
113.9120, 1707.000
115.1520, 1802.000
116.3920, 1844.000
117.6320, 1816.000
118.8710, 1803.000
120.1110, 1788.000
121.3500, 1734.000
122.5890, 1768.000
123.8270, 1785.000
125.0660, 1815.000
126.3040, 1741.000
127.5430, 1725.000
128.7810, 1772.000
130.0180, 1761.000
131.2560, 1777.000
132.4940, 1852.000
133.7310, 1799.000
134.9680, 1792.000
136.2050, 1808.000
137.4410, 1761.000
138.6780, 1828.000
139.9140, 1898.000
141.1500, 1915.000
142.3860, 1861.000
143.6220, 1884.000
144.8570, 1932.000
146.0920, 1877.000
147.3280, 1991.000
148.5620, 1908.000
149.7970, 1958.000
151.0320, 1907.000
152.2660, 1901.000
153.5000, 1896.000
154.7340, 1988.000
155.9680, 1946.000
157.2020, 1949.000
158.4350, 1881.000
159.6680, 1960.000
160.9010, 1934.000
162.1340, 1932.000
163.3670, 1962.000
164.5990, 1971.000
165.8310, 1945.000
167.0630, 1983.000
168.2950, 1990.000
169.5270, 1985.000
170.7580, 2063.000
171.9900, 2034.000
173.2210, 2046.000
174.4510, 2058.000
175.6820, 2026.000
176.9130, 2041.000
178.1430, 2041.000
179.3730, 2056.000
180.6030, 2098.000
181.8330, 2089.000
183.0620, 2101.000
184.2920, 2123.000
185.5210, 2053.000
186.7500, 2011.000
187.9790, 2079.000
189.2070, 2119.000
190.4360, 2083.000
191.6640, 2153.000
192.8920, 2101.000
194.1200, 2124.000
195.3480, 2134.000
196.5750, 2096.000
197.8020, 2104.000
199.0290, 2095.000
200.2560, 2104.303
201.4830, 2117.513
202.7090, 2146.000
203.9360, 2158.000
205.1620, 2188.308
206.3880, 2223.000
207.6140, 2298.000
208.8390, 2367.000
210.0650, 2473.344
211.2900, 2484.000
212.5150, 2675.000
213.7400, 2733.000
214.9640, 2864.000
216.1890, 3119.000
217.4130, 3234.000
218.6370, 3562.000
219.8610, 3825.000
221.0850, 3961.000
222.3080, 4210.000
223.5310, 4204.000
224.7540, 4292.000
225.9770, 4112.000
227.2000, 4078.000
228.4230, 3874.000
229.6450, 3713.000
230.8670, 3547.000
232.0890, 3331.000
233.3110, 3140.000
234.5320, 3117.000
235.7540, 2979.000
236.9750, 2921.000
238.1960, 2789.000
239.4170, 2703.000
240.6380, 2689.000
241.8580, 2618.000
243.0780, 2492.000
244.2990, 2408.000
245.5180, 2327.000
246.7380, 2271.623
247.9580, 2269.000
249.1770, 2219.000
250.3960, 2195.000
251.6150, 2214.000
252.8340, 2110.000
254.0530, 2125.000
255.2710, 2162.000
256.4890, 2036.000
257.7070, 2050.000
258.9250, 2115.000
260.1430, 2157.000
261.3600, 2146.732
262.5770, 2057.000
263.7950, 2120.000
265.0110, 2111.000
266.2280, 2089.000
267.4450, 2120.000
268.6610, 2068.000
269.8770, 2043.000
271.0930, 2146.000
272.3090, 2067.000
273.5250, 2134.000
274.7400, 2062.000
275.9550, 2115.000
277.1700, 2124.000
278.3850, 2191.000
279.6000, 2150.000
280.8140, 2192.000
282.0290, 2295.000
283.2430, 2250.000
284.4570, 2280.000
285.6700, 2268.000
286.8840, 2311.000
288.0970, 2374.000
289.3100, 2447.000
290.5230, 2528.000
291.7360, 2540.000
292.9490, 2549.000
294.1610, 2737.000
295.3740, 2855.000
296.5860, 3075.000
297.7970, 3295.000
299.0090, 3403.000
300.2210, 3682.000
301.4320, 3940.000
302.6430, 4090.000
303.8540, 4177.000
305.0650, 4118.000
306.2750, 4034.000
307.4860, 3782.000
308.6960, 3651.000
309.9060, 3496.000
311.1160, 3439.000
312.3260, 3370.000
313.5350, 3508.000
314.7440, 3571.000
315.9530, 3662.000
317.1620, 3690.000
318.3710, 3582.000
319.5800, 3758.000
320.7880, 3873.000
321.9960, 4055.000
323.2040, 4328.000
324.4120, 4704.000
325.6200, 4921.000
326.8270, 5153.000
328.0340, 5306.000
329.2410, 5200.000
330.4480, 5188.000
331.6550, 5023.000
332.8610, 4900.000
334.0680, 4757.000
335.2740, 4702.000
336.4800, 4713.000
337.6860, 4716.000
338.8910, 4677.000
340.0970, 4557.000
341.3020, 4291.000
342.5070, 4012.000
343.7120, 3782.000
344.9170, 3481.000
346.1210, 3195.000
347.3250, 2964.000
348.5290, 2917.000
349.7330, 2737.000
350.9370, 2669.000
352.1410, 2571.000
353.3440, 2481.000
354.5470, 2516.000
355.7500, 2417.000
356.9530, 2498.000
358.1560, 2504.000
359.3580, 2478.000
360.5610, 2515.000
361.7630, 2569.000
362.9650, 2650.574
364.1660, 2783.282
365.3680, 2923.000
366.5690, 3154.000
367.7710, 3393.000
368.9720, 3700.000
370.1720, 3941.000
371.3730, 4082.000
372.5740, 4015.000
373.7740, 3906.000
374.9740, 3703.000
376.1740, 3463.000
377.3740, 3165.000
378.5730, 3026.000
379.7730, 2908.000
380.9720, 2585.000
382.1710, 2577.000
383.3700, 2474.000
384.5680, 2404.000
385.7670, 2361.000
386.9650, 2267.000
388.1630, 2309.000
389.3610, 2247.000
390.5590, 2187.000
391.7560, 2201.000
392.9540, 2246.000
394.1510, 2153.000
395.3480, 2228.000
396.5450, 2220.000
397.7420, 2199.000
398.9380, 2274.000
400.1340, 2325.000
401.3300, 2371.000
402.5260, 2493.000
403.7220, 2562.000
404.9180, 2702.000
406.1130, 2880.000
407.3080, 2989.000
408.5030, 3076.000
409.6980, 3005.000
410.8930, 2963.000
412.0870, 2845.000
413.2820, 2794.000
414.4760, 2709.000
415.6700, 2618.000
416.8630, 2654.000
418.0570, 2613.000
419.2500, 2567.000
420.4440, 2661.000
421.6370, 2496.000
422.8290, 2548.000
424.0220, 2558.000
425.2150, 2485.000
426.4070, 2478.000
427.5990, 2494.000
428.7910, 2454.000
429.9830, 2375.000
431.1740, 2410.000
432.3660, 2404.000
433.5570, 2364.000
434.7480, 2427.000
435.9390, 2321.000
437.1300, 2347.000
438.3200, 2285.000
439.5110, 2311.000
440.7010, 2249.000
441.8910, 2298.000
443.0810, 2230.000
444.2700, 2246.000
445.4600, 2232.000
446.6490, 2231.000
447.8380, 2190.000
449.0270, 2180.000
450.2160, 2219.000
451.4040, 2175.000
452.5930, 2193.631
453.7810, 2197.826
454.9690, 2204.000
456.1570, 2203.000
457.3440, 2223.000
458.5320, 2213.000
459.7190, 2215.158
460.9060, 2219.429
462.0930, 2206.000
463.2800, 2216.000
464.4660, 2211.000
465.6530, 2199.000
466.8390, 2241.000
468.0250, 2204.000
469.2110, 2260.000
470.3970, 2243.000
471.5820, 2280.000
472.7680, 2342.000
473.9530, 2310.000
475.1380, 2285.000
476.3230, 2281.000
477.5070, 2298.000
478.6920, 2262.000
479.8760, 2286.000
481.0600, 2271.000
482.2440, 2304.000
483.4280, 2291.000
484.6110, 2276.000
485.7950, 2254.000
486.9780, 2295.000
488.1610, 2334.000
489.3440, 2320.000
490.5260, 2294.000
491.7090, 2291.000
492.8910, 2297.842
494.0730, 2308.000
495.2550, 2316.000
496.4370, 2337.000
497.6190, 2319.000
498.8000, 2307.000
499.9810, 2289.000
501.1620, 2319.000
502.3430, 2329.000
503.5240, 2332.000
504.7050, 2386.000
505.8850, 2373.000
507.0650, 2395.000
508.2450, 2430.000
509.4250, 2439.000
510.6050, 2418.000
511.7840, 2422.000
512.9630, 2495.000
514.1430, 2526.000
515.3220, 2489.000
516.5000, 2459.000
517.6790, 2499.366
518.8570, 2550.000
520.0360, 2566.000
521.2140, 2606.000
522.3920, 2654.000
523.5690, 2674.000
524.7470, 2761.000
525.9240, 2736.000
527.1010, 2799.000
528.2780, 2862.000
529.4550, 2960.000
530.6320, 3095.000
531.8080, 3229.000
532.9850, 3459.000
534.1610, 3625.000
535.3370, 3919.000
536.5130, 4326.000
537.6880, 4747.000
538.8640, 5265.000
540.0390, 5899.000
541.2140, 6451.000
542.3890, 7152.000
543.5640, 7278.000
544.7380, 7286.000
545.9130, 6751.000
547.0870, 6138.000
548.2610, 5383.000
549.4350, 4743.000
550.6090, 4285.000
551.7820, 3905.000
552.9550, 3510.000
554.1290, 3431.000
555.3020, 3196.000
556.4740, 3124.000
557.6470, 2963.000
558.8200, 2912.000
559.9920, 2887.000
561.1640, 2804.000
562.3360, 2802.000
563.5080, 2812.000
564.6790, 2695.000
565.8510, 2811.000
567.0220, 2808.000
568.1930, 2857.000
569.3640, 2840.000
570.5350, 2885.000
571.7050, 2883.000
572.8760, 3012.000
574.0460, 3055.000
575.2160, 3044.000
576.3860, 3221.000
577.5550, 3309.000
578.7250, 3429.000
579.8940, 3681.000
581.0630, 3838.000
582.2320, 4067.000
583.4010, 4287.000
584.5700, 4718.000
585.7380, 5109.000
586.9070, 5526.000
588.0750, 6080.000
589.2430, 6440.000
590.4110, 6781.000
591.5780, 6826.000
592.7460, 6636.000
593.9130, 6224.000
595.0800, 5725.000
596.2470, 5284.000
597.4140, 4810.000
598.5800, 4402.000
599.7470, 4173.000
600.9130, 3948.000
602.0790, 3837.000
603.2450, 3734.000
604.4100, 3711.000
605.5760, 3594.000
606.7410, 3616.000
607.9070, 3606.000
609.0720, 3504.000
610.2360, 3569.000
611.4010, 3468.000
612.5660, 3362.000
613.7300, 3349.000
614.8940, 3204.000
616.0580, 3167.000
617.2220, 3055.000
618.3860, 2981.000
619.5490, 3015.000
620.7120, 2932.000
621.8750, 2937.000
623.0380, 2838.000
624.2010, 2860.000
625.3640, 2805.000
626.5260, 2858.000
627.6880, 2716.000
628.8510, 2765.000
630.0120, 2747.000
631.1740, 2702.000
632.3360, 2683.000
633.4970, 2688.000
634.6580, 2614.000
635.8200, 2657.000
636.9800, 2590.000
638.1410, 2603.000
639.3020, 2607.000
640.4620, 2622.000
641.6220, 2619.641
642.7820, 2582.000
643.9420, 2629.000
645.1020, 2607.000
646.2610, 2639.000
647.4210, 2629.030
648.5800, 2578.000
649.7390, 2605.000
650.8980, 2598.000
652.0570, 2584.000
653.2150, 2570.000
654.3730, 2610.000
655.5320, 2535.000
656.6900, 2580.000
657.8470, 2628.000
659.0050, 2610.000
660.1620, 2625.000
661.3200, 2539.000
662.4770, 2592.000
663.6340, 2526.000
664.7910, 2536.000
665.9470, 2616.000
667.1040, 2591.000
668.2600, 2602.000
669.4160, 2618.000
670.5720, 2593.529
671.7280, 2527.000
672.8840, 2586.000
674.0390, 2573.000
675.1940, 2618.000
676.3490, 2626.000
677.5040, 2578.000
678.6590, 2648.000
679.8140, 2594.000
680.9680, 2574.000
682.1220, 2667.000
683.2760, 2651.000
684.4300, 2684.000
685.5840, 2669.000
686.7380, 2671.000
687.8910, 2647.000
689.0440, 2650.250
690.1970, 2646.514
691.3500, 2652.000
692.5030, 2652.000
693.6560, 2659.000
694.8080, 2673.000
695.9600, 2763.000
697.1120, 2790.000
698.2640, 2719.000
699.4160, 2757.000
700.5670, 2719.000
701.7190, 2716.000
702.8700, 2713.000
704.0210, 2687.000
705.1720, 2725.000
706.3230, 2657.000
707.4730, 2700.000
708.6240, 2851.000
709.7740, 2850.000
710.9240, 2804.000
712.0740, 2837.000
713.2230, 2770.000
714.3730, 2866.000
715.5220, 2871.000
716.6720, 2898.000
717.8210, 2894.000
718.9690, 2929.000
720.1180, 2883.000
721.2670, 2954.000
722.4150, 2895.000
723.5630, 2987.000
724.7110, 2954.000
725.8590, 2986.000
727.0070, 2898.000
728.1540, 2951.000
729.3020, 2988.000
730.4490, 2938.000
731.5960, 3073.000
732.7430, 3058.000
733.8890, 3012.000
735.0360, 3074.000
736.1820, 3089.000
737.3280, 3133.000
738.4740, 3197.000
739.6200, 3144.000
740.7660, 3154.000
741.9120, 3130.000
743.0570, 3154.000
744.2020, 3209.000
745.3470, 3196.000
746.4920, 3231.000
747.6370, 3190.000
748.7810, 3236.000
749.9250, 3288.000
751.0700, 3289.000
752.2140, 3334.000
753.3580, 3365.000
754.5010, 3402.000
755.6450, 3403.000
756.7880, 3460.000
757.9310, 3370.000
759.0740, 3507.000
760.2170, 3627.000
761.3600, 3586.000
762.5020, 3551.000
763.6450, 3621.000
764.7870, 3665.000
765.9290, 3643.000
767.0710, 3690.000
768.2120, 3776.000
769.3540, 3780.000
770.4950, 3890.000
771.6370, 3849.000
772.7780, 3931.000
773.9180, 3938.000
775.0590, 3963.254
776.2000, 4085.000
777.3400, 4044.000
778.4800, 4121.000
779.6200, 4204.000
780.7600, 4302.000
781.9000, 4331.000
783.0390, 4414.000
784.1790, 4484.000
785.3180, 4664.000
786.4570, 4541.000
787.5960, 4754.000
788.7350, 4752.000
789.8730, 4855.000
791.0120, 4926.000
792.1500, 4993.000
793.2880, 5179.000
794.4260, 5403.000
795.5630, 5436.000
796.7010, 5628.000
797.8380, 5962.000
798.9760, 6117.000
800.1130, 6558.000
801.2500, 6784.000
802.3860, 7178.000
803.5230, 7667.000
804.6590, 8118.000
805.7960, 8753.000
806.9320, 9509.000
808.0680, 10417.00
809.2030, 11475.00
810.3390, 12928.00
811.4740, 14518.00
812.6100, 16465.00
813.7450, 19079.00
814.8800, 22419.00
816.0140, 26969.00
817.1490, 32456.00
818.2830, 39104.00
819.4180, 47092.00
820.5520, 56341.00
821.6860, 65314.00
822.8200, 75078.00
823.9530, 77644.00
825.0870, 76122.00
826.2200, 70778.00
827.3530, 63112.00
828.4860, 54488.00
829.6190, 46354.00
830.7510, 39428.00
831.8840, 33853.00
833.0160, 29542.00
834.1480, 26356.00
835.2800, 23998.00
836.4120, 22361.00
837.5440, 21227.00
838.6750, 20645.00
839.8070, 20532.00
840.9380, 20907.00
842.0690, 21537.00
843.2000, 22677.00
844.3300, 24351.00
845.4610, 27006.00
846.5910, 30266.00
847.7220, 34613.00
848.8520, 40164.00
849.9810, 46452.00
851.1110, 54334.00
852.2410, 62616.00
853.3700, 70981.00
854.4990, 77689.00
855.6280, 81316.00
856.7570, 81755.00
857.8860, 77725.00
859.0150, 70426.00
860.1430, 61051.00
861.2710, 52451.00
862.3990, 43857.00
863.5270, 36891.00
864.6550, 30979.00
865.7830, 26193.00
866.9100, 22441.00
868.0370, 19357.00
869.1640, 16995.00
870.2910, 15057.00
871.4180, 13541.00
872.5450, 12255.00
873.6710, 11269.00
874.7980, 10441.00
875.9240, 9673.000
877.0500, 9245.000
878.1760, 8613.000
879.3010, 8168.000
880.4270, 7941.000
881.5520, 7548.000
882.6770, 7383.000
883.8020, 7049.000
884.9270, 6861.000
886.0520, 6589.000
887.1760, 6404.000
888.3010, 6145.000
889.4250, 6038.000
890.5490, 5801.000
891.6730, 5771.000
892.7970, 5570.000
893.9200, 5628.000
895.0440, 5490.000
896.1670, 5378.000
897.2900, 5451.000
898.4130, 5371.000
899.5360, 5437.000
900.6580, 5499.000
901.7810, 5548.000
902.9030, 5715.000
904.0250, 5769.000
905.1470, 5841.000
906.2690, 6154.000
907.3910, 6305.000
908.5120, 6723.000
909.6330, 7204.000
910.7540, 7845.000
911.8750, 8837.000
912.9960, 10060.00
914.1170, 11751.00
915.2380, 13738.00
916.3580, 16220.00
917.4780, 18930.00
918.5980, 21135.00
919.7180, 21500.00
920.8380, 20348.00
921.9570, 17445.00
923.0770, 14472.00
924.1960, 11957.00
925.3150, 9912.000
926.4340, 8601.000
927.5530, 7595.000
928.6710, 6907.000
929.7900, 6543.000
930.9080, 6264.000
932.0260, 6111.000
933.1440, 5955.184
934.2620, 5942.000
935.3800, 5894.000
936.4970, 5913.000
937.6140, 6038.000
938.7320, 6073.000
939.8490, 6290.000
940.9660, 6472.000
942.0820, 6624.000
943.1990, 6887.000
944.3150, 7146.657
945.4310, 7417.000
946.5470, 7797.000
947.6630, 8086.000
948.7790, 8499.000
949.8950, 9002.000
951.0100, 9608.000
952.1250, 10131.00
953.2400, 11057.00
954.3550, 11702.00
955.4700, 12897.00
956.5850, 13544.00
957.6990, 14477.00
958.8140, 15442.00
959.9280, 15761.00
961.0420, 16175.00
962.1560, 16493.00
963.2690, 16066.00
964.3830, 15338.00
965.4960, 14687.00
966.6090, 13662.00
967.7230, 12683.00
968.8350, 11686.00
969.9480, 10580.00
971.0610, 9611.000
972.1730, 9044.000
973.2850, 8093.395
974.3980, 7452.520
975.5100, 6683.000
976.6210, 6271.000
977.7330, 5803.000
978.8440, 5517.000
979.9560, 5245.000
981.0670, 5110.000
982.1780, 4948.000
983.2890, 4683.000
984.3990, 4558.000
985.5100, 4483.000
986.6200, 4359.000
987.7310, 4344.000
988.8410, 4243.000
989.9510, 4108.000
991.0600, 4158.000
992.1700, 4143.000
993.2790, 4072.000
994.3890, 4059.000
995.4980, 4024.358
996.6070, 3946.000
997.7160, 3991.000
998.8240, 3969.000
999.9330, 3998.000
1001.041, 3966.000
1002.149, 3974.000
1003.257, 3906.000
1004.365, 3857.000
1005.473, 3806.000
1006.580, 3798.714
1007.688, 3832.000
1008.795, 3814.000
1009.902, 3782.000
1011.009, 3804.000
1012.116, 3747.000
1013.222, 3782.000
1014.329, 3699.000
1015.435, 3840.000
1016.541, 3751.000
1017.647, 3720.000
1018.753, 3799.000
1019.859, 3765.000
1020.964, 3838.000
1022.070, 3778.000
1023.175, 3784.000
1024.280, 3833.000
1025.385, 3852.000
1026.490, 3746.000
1027.594, 3829.000
1028.699, 3802.000
1029.803, 3725.000
1030.907, 3823.000
1032.011, 3741.000
1033.115, 3806.000
1034.219, 3796.000
1035.322, 3777.000
1036.426, 3808.000
1037.529, 3795.905
1038.632, 3887.000
1039.735, 3833.000
1040.837, 3806.000
1041.940, 3883.000
1043.042, 3792.000
1044.145, 3829.000
1045.247, 3751.000
1046.349, 3825.000
1047.451, 3759.000
1048.552, 3762.000
1049.654, 3809.000
1050.755, 3786.000
1051.856, 3769.000
1052.957, 3770.000
1054.058, 3825.000
1055.159, 3738.000
1056.259, 3753.000
1057.360, 3799.000
1058.460, 3774.000
1059.560, 3642.000
1060.660, 3799.000
1061.760, 3866.000
1062.860, 3710.000
1063.959, 3770.000
1065.058, 3734.000
1066.158, 3695.000
1067.257, 3751.000
1068.355, 3795.000
1069.454, 3740.000
1070.553, 3722.000
1071.651, 3726.000
1072.749, 3658.000
1073.847, 3722.000
1074.945, 3790.000
1076.043, 3781.000
1077.141, 3845.000
1078.238, 3704.000
1079.336, 3850.000
1080.433, 3707.000
1081.530, 3767.000
1082.627, 3727.000
1083.723, 3869.000
1084.820, 3770.000
1085.916, 3775.000
1087.013, 3808.000
1088.109, 3809.000
1089.205, 3781.000
1090.301, 3805.000
1091.396, 3735.000
1092.492, 3889.000
1093.587, 3856.000
1094.682, 3854.000
1095.777, 3791.000
1096.872, 3806.000
1097.967, 3778.000
1099.061, 3781.000
1100.156, 3841.000
1101.250, 3888.000
1102.344, 3853.000
1103.438, 3886.000
1104.532, 3920.000
1105.626, 3907.000
1106.719, 3854.000
1107.813, 3959.000
1108.906, 3954.000
1109.999, 3989.000
1111.092, 3891.000
1112.184, 3959.000
1113.277, 3930.000
1114.370, 3908.000
1115.462, 3929.000
1116.554, 3937.000
1117.646, 3915.044
1118.738, 3878.477
1119.829, 3974.349
1120.921, 4027.826
1122.012, 4041.188
1123.104, 3894.283
1124.195, 3954.330
1125.286, 3931.440
1126.376, 3905.150
1127.467, 3994.324
1128.557, 3870.730
1129.648, 3958.074
1130.738, 3961.215
1131.828, 4002.895
1132.918, 3961.125
1134.008, 3945.129
1135.097, 4012.610
1136.186, 4033.871
1137.276, 3982.494
1138.365, 4026.624
1139.454, 3928.000
1140.543, 3943.000
1141.631, 3971.000
1142.720, 3978.000
1143.808, 4020.000
1144.896, 4024.309
1145.984, 3979.000
1147.072, 4047.000
1148.160, 4028.000
1149.248, 4043.000
1150.335, 4093.000
1151.422, 4003.000
1152.509, 4145.000
1153.596, 4065.000
1154.683, 4122.000
1155.770, 4112.000
1156.857, 4105.000
1157.943, 4144.000
1159.029, 4041.000
1160.115, 4167.000
1161.201, 4092.000
1162.287, 4050.000
1163.373, 4120.000
1164.458, 4108.000
1165.543, 4102.000
1166.629, 4115.000
1167.714, 4080.778
1168.799, 4029.000
1169.883, 4048.000
1170.968, 4024.000
1172.052, 4061.000
1173.137, 4075.000
1174.221, 4142.000
1175.305, 3985.000
1176.389, 4003.000
1177.472, 4003.000
1178.556, 4047.000
1179.639, 4044.000
1180.722, 4013.000
1181.805, 4025.000
1182.888, 4000.272
1183.971, 4040.000
1185.054, 3982.000
1186.136, 3964.000
1187.219, 3990.000
1188.301, 4021.000
1189.383, 4014.000
1190.465, 4031.000
1191.547, 3939.000
1192.628, 4069.000
1193.710, 4014.000
1194.791, 4023.000
1195.872, 4083.000
1196.953, 4006.000
1198.034, 4029.000
1199.115, 4086.000
1200.195, 4054.000
1201.276, 4080.000
1202.356, 4029.000
1203.436, 4101.000
1204.516, 4030.000
1205.596, 4011.000
1206.675, 4194.000
1207.755, 4046.000
1208.834, 4128.000
1209.913, 4116.000
1210.992, 4084.000
1212.071, 4128.000
1213.150, 4134.000
1214.229, 4099.000
1215.307, 4115.000
1216.386, 4093.000
1217.464, 4133.000
1218.542, 4166.000
1219.620, 4178.000
1220.697, 4188.283
1221.775, 4111.000
1222.852, 4168.000
1223.930, 4142.000
1225.007, 4098.000
1226.084, 4199.000
1227.161, 4173.000
1228.237, 4149.000
1229.314, 4156.000
1230.390, 4126.000
1231.466, 4182.000
1232.543, 4169.000
1233.619, 4165.000
1234.694, 4103.000
1235.770, 4164.000
1236.845, 4129.000
1237.921, 4098.000
1238.996, 4121.000
1240.071, 4086.000
1241.146, 4156.000
1242.221, 4110.000
1243.295, 4115.000
1244.370, 4073.000
1245.444, 4085.000
1246.518, 4064.750
1247.592, 4073.000
