##NAMES=Forsterite
##RRUFFID=R060551
##IDEAL CHEMISTRY=Mg_2_SiO_4_
##LOCALITY=Kohiston, Pakistan
##OWNER=RRUFF
##SOURCE=Gemological Institute of America
##DESCRIPTION=Pale green fragment
##STATUS=The identification of this mineral has been confirmed by X-ray diffraction and chemical analysis
##URL=rruff.info/R060551
##MEASURED CHEMISTRY=(Mg_1.82_Fe_0.18_)_Î£=2_Si_1.00_O_4_; trace amounts of Mn
##PIN_ID=M00797
##ORIENTATION=Laser parallel to -c* (0 0 -1). Fiducial mark perpendicular to laser is parallel to a [1 0 0]
62.89900, 258.0000
64.14700, 334.0000
65.39500, 361.0000
66.64300, 439.0000
67.89000, 526.0000
69.13800, 546.0000
70.38500, 713.0000
71.63200, 761.0000
72.87900, 923.0000
74.12500, 1060.000
75.37200, 1342.000
76.61800, 1614.000
77.86400, 1856.000
79.10900, 2281.000
80.35500, 2626.000
81.60000, 2987.000
82.84600, 3480.000
84.09100, 4018.000
85.33500, 4471.000
86.58000, 5100.000
87.82400, 5669.000
89.06900, 6044.000
90.31300, 6623.000
91.55600, 7076.000
92.80000, 7519.000
94.04300, 7718.000
95.28700, 8012.000
96.53000, 8384.000
97.77300, 8569.000
99.01500, 8838.000
100.2580, 8988.000
101.5000, 9153.633
102.7420, 9379.000
103.9840, 9448.000
105.2260, 9681.000
106.4670, 9882.000
107.7080, 10040.00
108.9490, 10070.00
110.1900, 10343.00
111.4310, 10267.00
112.6720, 9990.000
113.9120, 10281.00
115.1520, 10334.00
116.3920, 10489.00
117.6320, 10558.00
118.8710, 10413.00
120.1110, 10420.00
121.3500, 10555.00
122.5890, 10482.00
123.8270, 10524.00
125.0660, 10488.00
126.3040, 10575.00
127.5430, 10618.42
128.7810, 10593.00
130.0180, 10748.00
131.2560, 10778.00
132.4940, 10804.00
133.7310, 10685.00
134.9680, 10742.00
136.2050, 10874.00
137.4410, 10832.00
138.6780, 11011.00
139.9140, 10997.00
141.1500, 11097.00
142.3860, 11084.00
143.6220, 11098.00
144.8570, 11122.00
146.0920, 11173.00
147.3280, 11100.00
148.5620, 11117.00
149.7970, 11175.25
151.0320, 11170.00
152.2660, 11311.00
153.5000, 11398.00
154.7340, 11472.00
155.9680, 11483.00
157.2020, 11537.04
158.4350, 11506.00
159.6680, 11608.00
160.9010, 11618.00
162.1340, 11702.00
163.3670, 11594.00
164.5990, 11558.00
165.8310, 11697.00
167.0630, 11721.00
168.2950, 11800.00
169.5270, 11831.69
170.7580, 11924.00
171.9900, 11856.00
173.2210, 11820.00
174.4510, 11817.00
175.6820, 11936.00
176.9130, 12141.00
178.1430, 11928.00
179.3730, 12090.00
180.6030, 11935.00
181.8330, 11938.00
183.0620, 11799.00
184.2920, 12099.00
185.5210, 11987.00
186.7500, 12023.00
187.9790, 11960.00
189.2070, 11785.00
190.4360, 11922.00
191.6640, 11810.00
192.8920, 11802.00
194.1200, 11824.00
195.3480, 11811.00
196.5750, 11789.71
197.8020, 11826.00
199.0290, 11736.00
200.2560, 11742.00
201.4830, 11730.42
202.7090, 11899.00
203.9360, 11834.00
205.1620, 11919.00
206.3880, 12078.00
207.6140, 11908.00
208.8390, 12134.00
210.0650, 12093.00
211.2900, 12102.00
212.5150, 12112.00
213.7400, 12303.00
214.9640, 12125.00
216.1890, 12408.00
217.4130, 12571.00
218.6370, 12552.00
219.8610, 12881.00
221.0850, 12897.00
222.3080, 13121.00
223.5310, 13225.00
224.7540, 13447.00
225.9770, 13368.00
227.2000, 13460.00
228.4230, 13614.00
229.6450, 13417.00
230.8670, 13546.00
232.0890, 13419.00
233.3110, 13376.00
234.5320, 13401.00
235.7540, 13432.00
236.9750, 13401.00
238.1960, 13437.00
239.4170, 13370.00
240.6380, 13224.00
241.8580, 13232.00
243.0780, 13174.00
244.2990, 13032.00
245.5180, 12962.00
246.7380, 12983.00
247.9580, 13052.00
249.1770, 12902.00
250.3960, 12788.00
251.6150, 12871.00
252.8340, 12966.00
254.0530, 12941.00
255.2710, 12676.00
256.4890, 12889.00
257.7070, 12862.00
258.9250, 12964.00
260.1430, 12617.00
261.3600, 12811.00
262.5770, 12697.00
263.7950, 12941.00
265.0110, 12900.00
266.2280, 12885.00
267.4450, 12939.00
268.6610, 12965.00
269.8770, 13052.00
271.0930, 13053.20
272.3090, 13000.00
273.5250, 13049.00
274.7400, 13043.00
275.9550, 13097.39
277.1700, 13150.17
278.3850, 13236.00
279.6000, 13275.00
280.8140, 13344.00
282.0290, 13399.00
283.2430, 13292.00
284.4570, 13481.00
285.6700, 13609.00
286.8840, 13723.00
288.0970, 13997.00
289.3100, 14060.00
290.5230, 14243.00
291.7360, 14751.00
292.9490, 15067.00
294.1610, 15719.00
295.3740, 16374.00
296.5860, 17024.00
297.7970, 18062.35
299.0090, 19131.39
300.2210, 20146.00
301.4320, 21439.00
302.6430, 22309.00
303.8540, 22957.00
305.0650, 22552.00
306.2750, 22039.00
307.4860, 21007.00
308.6960, 19703.00
309.9060, 18612.00
311.1160, 17553.00
312.3260, 16949.00
313.5350, 16487.00
314.7440, 15840.00
315.9530, 15845.00
317.1620, 15667.00
318.3710, 15507.00
319.5800, 15496.00
320.7880, 15464.00
321.9960, 15646.00
323.2040, 15699.00
324.4120, 15738.00
325.6200, 15607.00
326.8270, 15590.00
328.0340, 15476.00
329.2410, 15337.00
330.4480, 15238.00
331.6550, 14835.00
332.8610, 14699.00
334.0680, 14449.00
335.2740, 14362.00
336.4800, 14192.00
337.6860, 14261.00
338.8910, 14186.00
340.0970, 14209.00
341.3020, 14167.00
342.5070, 14070.00
343.7120, 14011.00
344.9170, 14012.57
346.1210, 14099.00
347.3250, 14040.87
348.5290, 14064.00
349.7330, 14098.00
350.9370, 14115.00
352.1410, 14055.00
353.3440, 14053.00
354.5470, 14102.00
355.7500, 13998.00
356.9530, 14046.00
358.1560, 14033.00
359.3580, 13948.00
360.5610, 14124.00
361.7630, 13845.00
362.9650, 13968.00
364.1660, 13868.00
365.3680, 13940.00
366.5690, 14045.00
367.7710, 14087.00
368.9720, 14065.00
370.1720, 13936.00
371.3730, 14080.00
372.5740, 14015.00
373.7740, 14047.00
374.9740, 14222.00
376.1740, 14120.00
377.3740, 14134.00
378.5730, 14135.00
379.7730, 14086.70
380.9720, 14255.00
382.1710, 14088.00
383.3700, 14065.00
384.5680, 14164.00
385.7670, 14101.00
386.9650, 14262.00
388.1630, 14318.00
389.3610, 14324.00
390.5590, 14200.00
391.7560, 14208.00
392.9540, 14287.00
394.1510, 14211.00
395.3480, 14400.00
396.5450, 14462.00
397.7420, 14475.00
398.9380, 14454.00
400.1340, 14605.00
401.3300, 14561.00
402.5260, 14484.00
403.7220, 14767.00
404.9180, 14602.00
406.1130, 14804.00
407.3080, 14934.00
408.5030, 15002.00
409.6980, 15411.00
410.8930, 15500.00
412.0870, 15846.00
413.2820, 16118.00
414.4760, 16626.00
415.6700, 16691.00
416.8630, 17098.00
418.0570, 16970.00
419.2500, 16841.00
420.4440, 16677.00
421.6370, 16454.00
422.8290, 16156.00
424.0220, 15984.00
425.2150, 15831.00
426.4070, 15492.00
427.5990, 15435.00
428.7910, 15442.00
429.9830, 15318.00
431.1740, 15054.00
432.3660, 15356.00
433.5570, 15029.00
434.7480, 15283.00
435.9390, 15317.00
437.1300, 15142.00
438.3200, 15118.00
439.5110, 15222.00
440.7010, 15170.00
441.8910, 15150.00
443.0810, 15058.00
444.2700, 15098.00
445.4600, 14917.00
446.6490, 14828.00
447.8380, 14929.00
449.0270, 14872.00
450.2160, 14900.90
451.4040, 15067.00
452.5930, 14885.00
453.7810, 14987.00
454.9690, 14846.00
456.1570, 14974.00
457.3440, 15114.00
458.5320, 14967.00
459.7190, 14953.00
460.9060, 14978.00
462.0930, 15022.00
463.2800, 15110.00
464.4660, 15202.00
465.6530, 15233.00
466.8390, 15269.01
468.0250, 15311.83
469.2110, 15271.00
470.3970, 15322.00
471.5820, 15298.00
472.7680, 15347.10
473.9530, 15311.00
475.1380, 15449.00
476.3230, 15434.00
477.5070, 15476.00
478.6920, 15455.00
479.8760, 15344.00
481.0600, 15405.00
482.2440, 15433.00
483.4280, 15327.00
484.6110, 15515.00
485.7950, 15633.00
486.9780, 15541.00
488.1610, 15454.00
489.3440, 15542.00
490.5260, 15380.00
491.7090, 15636.00
492.8910, 15519.00
494.0730, 15593.00
495.2550, 15692.00
496.4370, 15522.00
497.6190, 15770.00
498.8000, 15628.00
499.9810, 15799.00
501.1620, 15686.00
502.3430, 15713.00
503.5240, 15839.00
504.7050, 15589.00
505.8850, 15701.00
507.0650, 15714.00
508.2450, 15748.00
509.4250, 15651.00
510.6050, 15807.00
511.7840, 15722.00
512.9630, 15735.00
514.1430, 15983.00
515.3220, 15830.00
516.5000, 15791.00
517.6790, 15957.00
518.8570, 15867.00
520.0360, 15772.00
521.2140, 16009.00
522.3920, 16139.00
523.5690, 15911.00
524.7470, 15962.00
525.9240, 15960.00
527.1010, 16082.77
528.2780, 16152.20
529.4550, 16328.00
530.6320, 16300.00
531.8080, 16049.00
532.9850, 15951.00
534.1610, 16235.00
535.3370, 16017.00
536.5130, 16134.00
537.6880, 16108.00
538.8640, 16243.00
540.0390, 16416.00
541.2140, 16390.00
542.3890, 16360.00
543.5640, 16528.00
544.7380, 16546.00
545.9130, 16634.00
547.0870, 16602.00
548.2610, 16454.00
549.4350, 16661.00
550.6090, 16457.00
551.7820, 16726.00
552.9550, 16646.00
554.1290, 16653.00
555.3020, 16753.00
556.4740, 16731.00
557.6470, 16887.00
558.8200, 16744.00
559.9920, 16875.00
561.1640, 16985.00
562.3360, 16811.00
563.5080, 16748.00
564.6790, 16912.00
565.8510, 17000.00
567.0220, 16956.00
568.1930, 17186.00
569.3640, 17155.00
570.5350, 17008.00
571.7050, 17240.00
572.8760, 17321.00
574.0460, 17434.00
575.2160, 17557.00
576.3860, 17723.00
577.5550, 17763.00
578.7250, 17822.00
579.8940, 17896.00
581.0630, 18149.00
582.2320, 18077.00
583.4010, 18551.00
584.5700, 18599.00
585.7380, 18878.00
586.9070, 18892.00
588.0750, 18916.00
589.2430, 19378.00
590.4110, 19446.00
591.5780, 19756.00
592.7460, 20003.00
593.9130, 21011.00
595.0800, 21543.00
596.2470, 22428.00
597.4140, 23153.00
598.5800, 24289.00
599.7470, 25524.00
600.9130, 26763.00
602.0790, 28069.00
603.2450, 29329.00
604.4100, 30461.00
605.5760, 31258.00
606.7410, 31750.00
607.9070, 31777.00
609.0720, 31166.00
610.2360, 30536.00
611.4010, 29163.00
612.5660, 27917.00
613.7300, 26501.00
614.8940, 25196.00
616.0580, 23884.00
617.2220, 23164.00
618.3860, 22170.00
619.5490, 21474.00
620.7120, 20972.00
621.8750, 20339.00
623.0380, 19897.00
624.2010, 19740.00
625.3640, 19509.00
626.5260, 19077.00
627.6880, 18986.00
628.8510, 18761.80
630.0120, 18618.85
631.1740, 18509.00
632.3360, 18462.00
633.4970, 18396.00
634.6580, 18348.00
635.8200, 18318.00
636.9800, 18161.00
638.1410, 18106.00
639.3020, 18031.00
640.4620, 18002.00
641.6220, 18164.00
642.7820, 17900.00
643.9420, 18156.00
645.1020, 18001.00
646.2610, 17874.00
647.4210, 17972.00
648.5800, 17962.00
649.7390, 18033.00
650.8980, 18113.00
652.0570, 17916.00
653.2150, 18099.00
654.3730, 18093.00
655.5320, 17911.00
656.6900, 17839.00
657.8470, 17980.00
659.0050, 18166.00
660.1620, 17847.00
661.3200, 17798.00
662.4770, 17749.00
663.6340, 17953.00
664.7910, 17945.00
665.9470, 17944.00
667.1040, 17901.00
668.2600, 17940.32
669.4160, 17930.00
670.5720, 17991.00
671.7280, 18009.00
672.8840, 18008.00
674.0390, 17924.00
675.1940, 18174.00
676.3490, 18160.00
677.5040, 18369.00
678.6590, 18122.00
679.8140, 18096.00
680.9680, 18295.00
682.1220, 18178.00
683.2760, 18240.00
684.4300, 18306.00
685.5840, 18249.00
686.7380, 18329.00
687.8910, 18333.03
689.0440, 18413.00
690.1970, 18395.00
691.3500, 18395.00
692.5030, 18465.00
693.6560, 18585.00
694.8080, 18371.00
695.9600, 18385.00
697.1120, 18611.00
698.2640, 18436.00
699.4160, 18522.00
700.5670, 18556.00
701.7190, 18652.00
702.8700, 18598.00
704.0210, 18582.00
705.1720, 18512.00
706.3230, 18663.00
707.4730, 18653.00
708.6240, 18751.00
709.7740, 18659.00
710.9240, 18761.00
712.0740, 19097.00
713.2230, 19036.00
714.3730, 19000.00
715.5220, 18752.00
716.6720, 18914.00
717.8210, 19085.00
718.9690, 19012.00
720.1180, 18956.00
721.2670, 18956.00
722.4150, 19032.00
723.5630, 19055.00
724.7110, 19211.00
725.8590, 19428.00
727.0070, 19340.00
728.1540, 19303.00
729.3020, 19110.00
730.4490, 19234.00
731.5960, 19355.00
732.7430, 19430.00
733.8890, 19454.00
735.0360, 19373.00
736.1820, 19615.00
737.3280, 19439.00
738.4740, 19515.00
739.6200, 19639.00
740.7660, 19798.00
741.9120, 19685.00
743.0570, 19601.00
744.2020, 19720.00
745.3470, 19660.00
746.4920, 19808.00
747.6370, 19826.00
748.7810, 19884.00
749.9250, 19869.00
751.0700, 20093.00
752.2140, 20028.00
753.3580, 20089.00
754.5010, 20097.00
755.6450, 20043.00
756.7880, 20163.00
757.9310, 20308.00
759.0740, 20285.00
760.2170, 20549.00
761.3600, 20539.00
762.5020, 20496.00
763.6450, 20454.00
764.7870, 20793.00
765.9290, 20761.00
767.0710, 21005.00
768.2120, 20690.00
769.3540, 20912.00
770.4950, 21064.00
771.6370, 20892.00
772.7780, 21179.00
773.9180, 20918.00
775.0590, 21183.00
776.2000, 21167.00
777.3400, 21075.00
778.4800, 21125.00
779.6200, 21295.00
780.7600, 21454.00
781.9000, 21355.00
783.0390, 21394.00
784.1790, 21552.00
785.3180, 21587.00
786.4570, 21772.00
787.5960, 21976.00
788.7350, 22069.00
789.8730, 22206.00
791.0120, 22374.00
792.1500, 22531.00
793.2880, 22740.00
794.4260, 22939.00
795.5630, 23156.00
796.7010, 23397.00
797.8380, 23694.00
798.9760, 24100.00
800.1130, 24480.00
801.2500, 25102.00
802.3860, 25395.00
803.5230, 26007.00
804.6590, 26591.00
805.7960, 27706.00
806.9320, 28518.00
808.0680, 29757.00
809.2030, 31293.00
810.3390, 32794.00
811.4740, 35078.00
812.6100, 37734.00
813.7450, 41030.00
814.8800, 45367.00
816.0140, 50934.00
817.1490, 57608.00
818.2830, 66637.00
819.4180, 76780.00
820.5520, 87986.00
821.6860, 99519.00
822.8200, 108560.0
823.9530, 114594.0
825.0870, 115021.0
826.2200, 108944.0
827.3530, 99403.00
828.4860, 87549.00
829.6190, 77110.00
830.7510, 67590.00
831.8840, 60062.00
833.0160, 54026.00
834.1480, 49708.00
835.2800, 46459.00
836.4120, 43970.00
837.5440, 42755.00
838.6750, 41931.00
839.8070, 41384.00
840.9380, 41759.00
842.0690, 42278.00
843.2000, 44048.00
844.3300, 45987.00
845.4610, 49493.00
846.5910, 53384.00
847.7220, 59100.00
848.8520, 65771.00
849.9810, 74027.00
851.1110, 84076.00
852.2410, 94660.00
853.3700, 105073.0
854.4990, 115251.0
855.6280, 121441.0
856.7570, 123311.0
857.8860, 119183.0
859.0150, 111815.0
860.1430, 100475.0
861.2710, 88996.00
862.3990, 77151.00
863.5270, 67483.00
864.6550, 59193.00
865.7830, 52382.00
866.9100, 47192.00
868.0370, 42814.00
869.1640, 39972.00
870.2910, 36813.00
871.4180, 35158.00
872.5450, 33491.00
873.6710, 32111.00
874.7980, 31371.00
875.9240, 30303.00
877.0500, 30102.00
878.1760, 29494.00
879.3010, 29291.00
880.4270, 29104.00
881.5520, 28970.00
882.6770, 28589.00
883.8020, 27999.00
884.9270, 27508.00
886.0520, 26694.00
887.1760, 26027.00
888.3010, 25283.00
889.4250, 24779.00
890.5490, 24351.00
891.6730, 24099.00
892.7970, 23878.00
893.9200, 23478.00
895.0440, 23532.00
896.1670, 23193.00
897.2900, 22945.00
898.4130, 23023.00
899.5360, 22670.00
900.6580, 22642.00
901.7810, 22713.00
902.9030, 22384.00
904.0250, 22467.00
905.1470, 22449.00
906.2690, 22448.00
907.3910, 22370.00
908.5120, 22399.00
909.6330, 22382.64
910.7540, 22346.00
911.8750, 22402.00
912.9960, 22406.00
914.1170, 22434.00
915.2380, 22249.00
916.3580, 22614.00
917.4780, 22391.00
918.5980, 22514.00
919.7180, 22404.00
920.8380, 22342.00
921.9570, 22492.00
923.0770, 22066.00
924.1960, 22248.00
925.3150, 22171.00
926.4340, 22186.00
927.5530, 22323.00
928.6710, 22347.00
929.7900, 22293.00
930.9080, 22282.00
932.0260, 22251.00
933.1440, 22266.00
934.2620, 22486.00
935.3800, 22438.00
936.4970, 22533.00
937.6140, 22661.00
938.7320, 22722.00
939.8490, 22950.00
940.9660, 22939.00
942.0820, 23073.00
943.1990, 23280.00
944.3150, 23303.00
945.4310, 23572.00
946.5470, 23850.00
947.6630, 24167.00
948.7790, 24410.00
949.8950, 25027.00
951.0100, 25446.00
952.1250, 26140.00
953.2400, 27072.00
954.3550, 28009.00
955.4700, 29072.00
956.5850, 30166.00
957.6990, 31525.00
958.8140, 32690.00
959.9280, 33964.00
961.0420, 34690.00
962.1560, 35328.00
963.2690, 35577.00
964.3830, 35709.00
965.4960, 34865.00
966.6090, 34578.00
967.7230, 33502.00
968.8350, 32315.00
969.9480, 31141.00
971.0610, 30219.00
972.1730, 29374.00
973.2850, 28227.00
974.3980, 27594.00
975.5100, 26680.00
976.6210, 26094.00
977.7330, 25462.00
978.8440, 25260.00
979.9560, 24867.00
981.0670, 24683.00
982.1780, 24713.00
983.2890, 23907.00
984.3990, 24045.00
985.5100, 23694.00
986.6200, 23641.00
987.7310, 23712.00
988.8410, 23548.00
989.9510, 23548.00
991.0600, 23291.00
992.1700, 23502.00
993.2790, 23269.00
994.3890, 23528.00
995.4980, 23465.00
996.6070, 23356.00
997.7160, 23389.00
998.8240, 23311.00
999.9330, 23125.00
1001.041, 23392.00
1002.149, 23132.00
1003.257, 23346.00
1004.365, 23257.00
1005.473, 23035.00
1006.580, 23039.00
1007.688, 23043.00
1008.795, 22990.00
1009.902, 23172.00
1011.009, 23038.00
1012.116, 23052.00
1013.222, 23183.00
1014.329, 22897.00
1015.435, 23108.00
1016.541, 23102.00
1017.647, 23089.00
1018.753, 23112.00
1019.859, 23027.00
1020.964, 22999.00
1022.070, 22957.00
1023.175, 23209.00
1024.280, 23080.00
1025.385, 23216.00
1026.490, 23039.00
1027.594, 23089.00
1028.699, 23237.00
1029.803, 23051.00
1030.907, 22941.00
1032.011, 22937.00
1033.115, 23123.00
1034.219, 23192.00
1035.322, 23093.00
1036.426, 22882.00
1037.529, 23019.00
1038.632, 23051.00
1039.735, 23291.00
1040.837, 22925.00
1041.940, 23170.00
1043.042, 22918.00
1044.145, 23137.00
1045.247, 23092.00
1046.349, 22983.00
1047.451, 23076.00
1048.552, 22943.00
1049.654, 23075.00
1050.755, 23025.00
1051.856, 23028.00
1052.957, 22888.00
1054.058, 22976.00
1055.159, 23210.00
1056.259, 23093.00
1057.360, 23106.00
1058.460, 23183.00
1059.560, 22968.00
1060.660, 23163.00
1061.760, 23025.00
1062.860, 23113.00
1063.959, 23186.00
1065.058, 22960.00
1066.158, 23212.00
1067.257, 23146.00
1068.355, 23206.00
1069.454, 23183.00
1070.553, 23330.00
1071.651, 23196.00
1072.749, 23114.00
1073.847, 23230.00
1074.945, 23413.00
1076.043, 23167.00
1077.141, 23300.00
1078.238, 23294.00
1079.336, 23400.00
1080.433, 23390.00
1081.530, 23399.00
1082.627, 23251.00
1083.723, 23479.00
1084.820, 23512.00
1085.916, 23280.00
1087.013, 23531.00
1088.109, 23358.00
1089.205, 23550.00
1090.301, 23501.00
1091.396, 23583.00
1092.492, 23354.00
1093.587, 23503.00
1094.682, 23511.00
1095.777, 23529.00
1096.872, 23525.00
1097.967, 23573.00
1099.061, 23567.00
1100.156, 23574.00
1101.250, 23694.00
1102.344, 23746.00
1103.438, 23779.00
1104.532, 23672.00
1105.626, 23676.00
1106.719, 23701.51
1107.813, 23698.00
1108.906, 23762.00
1109.999, 23839.00
1111.092, 23845.00
1112.184, 23874.00
1113.277, 23926.25
1114.370, 23955.00
1115.462, 23971.00
1116.554, 24035.00
1117.646, 23971.00
1118.738, 23754.00
1119.829, 23898.00
1120.921, 23727.00
1122.012, 24087.00
1123.104, 23930.00
1124.195, 23821.00
1125.286, 24175.00
1126.376, 24224.00
1127.467, 23913.00
1128.557, 23945.00
1129.648, 24105.00
1130.738, 23878.00
1131.828, 24175.00
1132.918, 24211.00
1134.008, 24182.00
1135.097, 24279.00
1136.186, 24228.00
1137.276, 24098.00
1138.365, 24228.00
1139.454, 24326.00
1140.543, 24123.00
1141.631, 24137.00
1142.720, 24439.00
1143.808, 24338.00
1144.896, 24045.00
1145.984, 24427.00
1147.072, 24394.00
1148.160, 24305.00
1149.248, 24440.00
1150.335, 24197.00
1151.422, 24558.00
1152.509, 24296.00
1153.596, 24511.00
1154.683, 24389.00
1155.770, 24485.00
1156.857, 24456.00
1157.943, 24632.00
1159.029, 24335.00
1160.115, 24567.00
1161.201, 24583.00
1162.287, 24495.00
1163.373, 24684.00
1164.458, 24744.00
1165.543, 24744.00
1166.629, 24582.00
1167.714, 24533.00
1168.799, 24644.00
1169.883, 24564.00
1170.968, 24617.00
1172.052, 24613.00
1173.137, 24632.00
1174.221, 24660.68
1175.305, 24712.55
1176.389, 24728.00
1177.472, 24784.00
1178.556, 24869.00
1179.639, 24771.00
1180.722, 24926.00
1181.805, 24856.72
1182.888, 24857.15
1183.971, 24754.00
1185.054, 24815.00
1186.136, 24693.00
1187.219, 24649.00
1188.301, 24828.00
1189.383, 24774.00
1190.465, 24828.00
1191.547, 24891.00
1192.628, 24874.00
1193.710, 24934.00
1194.791, 24957.00
1195.872, 24795.00
1196.953, 24960.00
1198.034, 25037.00
1199.115, 24863.00
1200.195, 24820.00
1201.276, 24977.00
1202.356, 25089.00
1203.436, 24950.00
1204.516, 25112.00
1205.596, 24838.00
1206.675, 25191.00
1207.755, 25148.00
1208.834, 25094.00
1209.913, 25181.00
1210.992, 25024.00
1212.071, 25214.00
1213.150, 25008.00
1214.229, 25109.00
1215.307, 25244.00
1216.386, 25359.00
1217.464, 25561.00
1218.542, 25157.00
1219.620, 25203.00
1220.697, 25313.00
1221.775, 25400.00
1222.852, 25405.00
1223.930, 25339.00
1225.007, 25394.54
1226.084, 25534.00
1227.161, 25354.00
1228.237, 25490.00
1229.314, 25358.00
1230.390, 25662.00
1231.466, 25425.00
1232.543, 25422.00
1233.619, 25692.00
1234.694, 25624.00
1235.770, 25592.00
1236.845, 25533.00
1237.921, 25696.00
1238.996, 25484.00
1240.071, 25722.00
1241.146, 25543.00
1242.221, 25548.00
1243.295, 25701.00
1244.370, 25469.00
1245.444, 25595.00
1246.518, 25656.00
1247.592, 25461.00
