##NAMES=Forsterite
##RRUFFID=R060551
##IDEAL CHEMISTRY=Mg_2_SiO_4_
##LOCALITY=Kohiston, Pakistan
##OWNER=RRUFF
##SOURCE=Gemological Institute of America
##DESCRIPTION=Pale green fragment
##STATUS=The identification of this mineral has been confirmed by X-ray diffraction and chemical analysis
##URL=rruff.info/R060551
##MEASURED CHEMISTRY=(Mg_1.82_Fe_0.18_)_Î£=2_Si_1.00_O_4_; trace amounts of Mn
##PIN_ID=M01244
##ORIENTATION=Laser parallel to b* (0 1 0). Fiducial mark perpendicular to laser is parallel to c [0 0 1]
62.89900, 280.0000
64.14700, 307.0000
65.39500, 331.0000
66.64300, 366.0000
67.89000, 435.0000
69.13800, 511.0000
70.38500, 644.0000
71.63200, 728.0000
72.87900, 880.0000
74.12500, 985.0000
75.37200, 1212.000
76.61800, 1401.000
77.86400, 1636.000
79.10900, 1960.000
80.35500, 2295.000
81.60000, 2584.000
82.84600, 2988.000
84.09100, 3406.000
85.33500, 3859.000
86.58000, 4213.000
87.82400, 4713.000
89.06900, 5124.709
90.31300, 5629.000
91.55600, 5979.000
92.80000, 6432.000
94.04300, 6805.000
95.28700, 7119.000
96.53000, 7357.000
97.77300, 7614.000
99.01500, 7913.000
100.2580, 8003.000
101.5000, 8251.000
102.7420, 8369.000
103.9840, 8482.000
105.2260, 8662.000
106.4670, 8851.000
107.7080, 9056.000
108.9490, 9048.000
110.1900, 9047.000
111.4310, 9250.000
112.6720, 9222.000
113.9120, 9156.000
115.1520, 9301.000
116.3920, 9391.000
117.6320, 9314.000
118.8710, 9449.000
120.1110, 9417.714
121.3500, 9422.137
122.5890, 9397.000
123.8270, 9431.000
125.0660, 9391.000
126.3040, 9424.000
127.5430, 9490.000
128.7810, 9385.000
130.0180, 9516.000
131.2560, 9602.000
132.4940, 9627.000
133.7310, 9493.000
134.9680, 9579.000
136.2050, 9610.000
137.4410, 9625.000
138.6780, 9740.000
139.9140, 9721.000
141.1500, 9871.000
142.3860, 9810.000
143.6220, 9847.000
144.8570, 10042.00
146.0920, 9954.000
147.3280, 10109.00
148.5620, 9989.000
149.7970, 10028.00
151.0320, 10090.00
152.2660, 10016.00
153.5000, 10061.00
154.7340, 10037.00
155.9680, 10134.00
157.2020, 10150.00
158.4350, 10107.00
159.6680, 10185.00
160.9010, 10197.00
162.1340, 10251.00
163.3670, 10234.00
164.5990, 10310.00
165.8310, 10176.00
167.0630, 10195.00
168.2950, 10234.00
169.5270, 10417.00
170.7580, 10279.00
171.9900, 10284.00
173.2210, 10353.00
174.4510, 10259.00
175.6820, 10208.00
176.9130, 10452.00
178.1430, 10343.00
179.3730, 10330.00
180.6030, 10316.00
181.8330, 10307.00
183.0620, 10476.00
184.2920, 10401.00
185.5210, 10529.00
186.7500, 10367.00
187.9790, 10442.00
189.2070, 10356.00
190.4360, 10339.00
191.6640, 10311.00
192.8920, 10418.00
194.1200, 10272.00
195.3480, 10438.00
196.5750, 10450.00
197.8020, 10530.00
199.0290, 10481.00
200.2560, 10483.00
201.4830, 10474.00
202.7090, 10526.00
203.9360, 10522.00
205.1620, 10605.00
206.3880, 10598.00
207.6140, 10543.00
208.8390, 10704.00
210.0650, 10732.00
211.2900, 10772.00
212.5150, 10954.00
213.7400, 10949.00
214.9640, 11145.00
216.1890, 11343.00
217.4130, 11485.00
218.6370, 11661.77
219.8610, 11895.00
221.0850, 11945.00
222.3080, 12058.00
223.5310, 12143.00
224.7540, 12102.00
225.9770, 12028.00
227.2000, 12066.00
228.4230, 11948.00
229.6450, 11913.00
230.8670, 11765.00
232.0890, 11891.00
233.3110, 11762.00
234.5320, 11802.00
235.7540, 11737.00
236.9750, 11676.00
238.1960, 11755.00
239.4170, 11567.00
240.6380, 11713.00
241.8580, 11604.00
243.0780, 11612.00
244.2990, 11494.00
245.5180, 11353.00
246.7380, 11300.00
247.9580, 11271.00
249.1770, 11261.00
250.3960, 11242.00
251.6150, 11071.00
252.8340, 11291.00
254.0530, 11305.00
255.2710, 11231.00
256.4890, 11070.00
257.7070, 11096.00
258.9250, 11250.00
260.1430, 11159.00
261.3600, 11356.00
262.5770, 11147.00
263.7950, 11286.00
265.0110, 11360.00
266.2280, 11190.00
267.4450, 11252.00
268.6610, 11330.00
269.8770, 11190.00
271.0930, 11448.00
272.3090, 11410.00
273.5250, 11366.00
274.7400, 11394.00
275.9550, 11412.00
277.1700, 11474.00
278.3850, 11501.00
279.6000, 11583.00
280.8140, 11569.00
282.0290, 11516.00
283.2430, 11679.00
284.4570, 11575.00
285.6700, 11747.00
286.8840, 11914.00
288.0970, 11924.00
289.3100, 11969.00
290.5230, 12222.00
291.7360, 12327.00
292.9490, 12409.00
294.1610, 12780.00
295.3740, 13072.00
296.5860, 13402.00
297.7970, 13786.00
299.0090, 14384.00
300.2210, 14809.00
301.4320, 15327.00
302.6430, 15897.00
303.8540, 15918.00
305.0650, 15620.00
306.2750, 15576.00
307.4860, 14705.00
308.6960, 14504.00
309.9060, 14200.00
311.1160, 13746.00
312.3260, 13479.00
313.5350, 13309.00
314.7440, 13087.00
315.9530, 13315.00
317.1620, 13133.00
318.3710, 13183.00
319.5800, 13407.00
320.7880, 13316.00
321.9960, 13275.00
323.2040, 13674.00
324.4120, 13479.00
325.6200, 13316.00
326.8270, 13552.00
328.0340, 13568.00
329.2410, 13363.00
330.4480, 13478.00
331.6550, 13243.00
332.8610, 13233.00
334.0680, 13117.00
335.2740, 13169.00
336.4800, 13106.00
337.6860, 13208.00
338.8910, 13102.00
340.0970, 13123.00
341.3020, 13289.00
342.5070, 13057.00
343.7120, 13132.00
344.9170, 13112.00
346.1210, 12876.00
347.3250, 12943.00
348.5290, 12880.00
349.7330, 12801.00
350.9370, 12815.00
352.1410, 12755.00
353.3440, 12802.00
354.5470, 12798.62
355.7500, 12760.00
356.9530, 12813.00
358.1560, 12787.00
359.3580, 12741.00
360.5610, 12756.00
361.7630, 12661.00
362.9650, 12812.00
364.1660, 12751.00
365.3680, 12714.00
366.5690, 12660.00
367.7710, 12860.00
368.9720, 12679.00
370.1720, 12686.00
371.3730, 12627.00
372.5740, 12493.00
373.7740, 12576.00
374.9740, 12629.00
376.1740, 12655.00
377.3740, 12677.96
378.5730, 12568.00
379.7730, 12640.00
380.9720, 12648.00
382.1710, 12552.00
383.3700, 12649.00
384.5680, 12686.00
385.7670, 12670.00
386.9650, 12673.00
388.1630, 12568.00
389.3610, 12694.00
390.5590, 12639.00
391.7560, 12581.00
392.9540, 12633.00
394.1510, 12548.00
395.3480, 12617.26
396.5450, 12665.00
397.7420, 12718.00
398.9380, 12785.00
400.1340, 12806.00
401.3300, 12653.00
402.5260, 12803.00
403.7220, 12859.00
404.9180, 12863.00
406.1130, 13060.00
407.3080, 13079.00
408.5030, 13156.00
409.6980, 13092.00
410.8930, 13307.00
412.0870, 13411.00
413.2820, 13524.00
414.4760, 13706.00
415.6700, 13873.00
416.8630, 13940.00
418.0570, 14011.00
419.2500, 13987.00
420.4440, 13857.00
421.6370, 13796.00
422.8290, 13731.00
424.0220, 13790.00
425.2150, 13653.00
426.4070, 13636.00
427.5990, 14006.00
428.7910, 13949.00
429.9830, 14074.00
431.1740, 14278.00
432.3660, 14503.00
433.5570, 14480.00
434.7480, 14989.00
435.9390, 14969.00
437.1300, 15020.00
438.3200, 15174.00
439.5110, 14858.00
440.7010, 14696.00
441.8910, 14629.00
443.0810, 14222.00
444.2700, 14102.00
445.4600, 13803.00
446.6490, 13604.00
447.8380, 13703.00
449.0270, 13528.00
450.2160, 13516.00
451.4040, 13284.00
452.5930, 13422.00
453.7810, 13307.00
454.9690, 13248.00
456.1570, 13351.00
457.3440, 13344.00
458.5320, 13224.00
459.7190, 13283.00
460.9060, 13330.00
462.0930, 13220.00
463.2800, 13263.00
464.4660, 13343.00
465.6530, 13329.00
466.8390, 13344.00
468.0250, 13241.00
469.2110, 13613.00
470.3970, 13453.00
471.5820, 13590.00
472.7680, 13499.00
473.9530, 13572.00
475.1380, 13422.00
476.3230, 13571.00
477.5070, 13490.00
478.6920, 13447.00
479.8760, 13516.00
481.0600, 13468.00
482.2440, 13464.00
483.4280, 13449.00
484.6110, 13432.00
485.7950, 13426.00
486.9780, 13530.00
488.1610, 13511.49
489.3440, 13550.00
490.5260, 13543.00
491.7090, 13529.00
492.8910, 13505.00
494.0730, 13485.00
495.2550, 13656.00
496.4370, 13646.00
497.6190, 13656.00
498.8000, 13692.00
499.9810, 13569.00
501.1620, 13778.00
502.3430, 13728.00
503.5240, 13648.00
504.7050, 13798.00
505.8850, 13821.00
507.0650, 13822.00
508.2450, 13766.00
509.4250, 13851.00
510.6050, 13904.00
511.7840, 13854.00
512.9630, 13947.00
514.1430, 13857.00
515.3220, 13995.00
516.5000, 13934.00
517.6790, 14073.00
518.8570, 14056.18
520.0360, 13876.00
521.2140, 14057.00
522.3920, 14085.00
523.5690, 14105.00
524.7470, 13989.00
525.9240, 14214.00
527.1010, 14133.00
528.2780, 14321.00
529.4550, 14362.00
530.6320, 14412.00
531.8080, 14571.00
532.9850, 14534.13
534.1610, 14494.00
535.3370, 14563.00
536.5130, 14610.00
537.6880, 14710.00
538.8640, 14918.00
540.0390, 15116.00
541.2140, 15160.00
542.3890, 15532.00
543.5640, 15523.00
544.7380, 15472.00
545.9130, 15532.00
547.0870, 15380.00
548.2610, 15187.00
549.4350, 15002.00
550.6090, 14948.00
551.7820, 14933.00
552.9550, 14795.00
554.1290, 14857.00
555.3020, 14962.00
556.4740, 14762.00
557.6470, 14918.00
558.8200, 14822.00
559.9920, 14961.00
561.1640, 14883.00
562.3360, 15016.00
563.5080, 14994.00
564.6790, 15053.00
565.8510, 15095.00
567.0220, 15196.00
568.1930, 15214.00
569.3640, 15343.00
570.5350, 15410.00
571.7050, 15555.00
572.8760, 15605.00
574.0460, 15787.90
575.2160, 15949.00
576.3860, 16185.00
577.5550, 16361.00
578.7250, 16645.00
579.8940, 17020.00
581.0630, 17360.00
582.2320, 17850.00
583.4010, 18080.00
584.5700, 18294.00
585.7380, 18573.00
586.9070, 18390.00
588.0750, 18248.00
589.2430, 18095.00
590.4110, 17948.00
591.5780, 17818.00
592.7460, 17663.00
593.9130, 17445.00
595.0800, 17521.00
596.2470, 17655.00
597.4140, 17844.00
598.5800, 18170.00
599.7470, 18251.00
600.9130, 18774.00
602.0790, 19149.00
603.2450, 19265.00
604.4100, 19877.00
605.5760, 19919.00
606.7410, 20378.00
607.9070, 20198.00
609.0720, 20115.00
610.2360, 19613.00
611.4010, 19409.00
612.5660, 19037.00
613.7300, 18689.00
614.8940, 18167.00
616.0580, 18041.00
617.2220, 17635.00
618.3860, 17270.00
619.5490, 17138.00
620.7120, 16811.00
621.8750, 16808.00
623.0380, 16644.00
624.2010, 16510.00
625.3640, 16412.00
626.5260, 16356.00
627.6880, 16291.00
628.8510, 16285.00
630.0120, 16300.00
631.1740, 16251.00
632.3360, 16278.00
633.4970, 16413.00
634.6580, 16208.00
635.8200, 16163.00
636.9800, 16297.00
638.1410, 16348.00
639.3020, 16123.00
640.4620, 16107.00
641.6220, 16309.00
642.7820, 16103.00
643.9420, 16217.00
645.1020, 16419.00
646.2610, 16310.00
647.4210, 16466.00
648.5800, 16133.00
649.7390, 16323.00
650.8980, 16510.00
652.0570, 16223.00
653.2150, 16236.00
654.3730, 16294.00
655.5320, 16479.00
656.6900, 16284.00
657.8470, 16500.00
659.0050, 16424.00
660.1620, 16452.00
661.3200, 16431.00
662.4770, 16471.00
663.6340, 16390.00
664.7910, 16479.00
665.9470, 16243.00
667.1040, 16591.00
668.2600, 16398.00
669.4160, 16638.00
670.5720, 16641.00
671.7280, 16394.00
672.8840, 16432.00
674.0390, 16462.00
675.1940, 16487.00
676.3490, 16443.00
677.5040, 16498.00
678.6590, 16499.00
679.8140, 16543.00
680.9680, 16510.00
682.1220, 16497.00
683.2760, 16643.00
684.4300, 16698.00
685.5840, 16635.00
686.7380, 16533.00
687.8910, 16619.00
689.0440, 16770.00
690.1970, 16741.00
691.3500, 16782.00
692.5030, 16584.00
693.6560, 16849.00
694.8080, 16814.00
695.9600, 16938.00
697.1120, 16731.00
698.2640, 16837.00
699.4160, 16810.00
700.5670, 16838.00
701.7190, 16957.00
702.8700, 16737.00
704.0210, 16880.00
705.1720, 16866.00
706.3230, 16967.00
707.4730, 17014.95
708.6240, 17022.00
709.7740, 17103.00
710.9240, 17072.00
712.0740, 17101.00
713.2230, 17141.90
714.3730, 16955.00
715.5220, 17156.00
716.6720, 17157.00
717.8210, 17042.00
718.9690, 17141.00
720.1180, 17188.00
721.2670, 17114.00
722.4150, 17335.00
723.5630, 17066.00
724.7110, 17240.00
725.8590, 17267.00
727.0070, 17357.00
728.1540, 17436.00
729.3020, 17291.00
730.4490, 17457.00
731.5960, 17349.00
732.7430, 17538.00
733.8890, 17533.00
735.0360, 17365.00
736.1820, 17659.00
737.3280, 17526.00
738.4740, 17761.00
739.6200, 17530.00
740.7660, 17502.00
741.9120, 17669.00
743.0570, 17614.00
744.2020, 17557.00
745.3470, 17615.00
746.4920, 17887.00
747.6370, 17778.00
748.7810, 17772.00
749.9250, 17898.00
751.0700, 17822.00
752.2140, 17830.00
753.3580, 17757.00
754.5010, 18124.00
755.6450, 17944.00
756.7880, 18138.00
757.9310, 18247.00
759.0740, 18227.00
760.2170, 18142.00
761.3600, 18152.00
762.5020, 18170.71
763.6450, 18285.00
764.7870, 18287.00
765.9290, 18403.00
767.0710, 18522.00
768.2120, 18669.00
769.3540, 18554.00
770.4950, 18496.00
771.6370, 18597.00
772.7780, 18640.00
773.9180, 18652.00
775.0590, 18548.00
776.2000, 18687.00
777.3400, 18733.00
778.4800, 18711.00
779.6200, 18829.00
780.7600, 18839.59
781.9000, 18898.00
783.0390, 18914.00
784.1790, 18949.00
785.3180, 18956.91
786.4570, 19039.59
787.5960, 19082.00
788.7350, 19236.00
789.8730, 19373.00
791.0120, 19532.00
792.1500, 19657.00
793.2880, 19784.00
794.4260, 19734.00
795.5630, 19803.00
796.7010, 19991.00
797.8380, 20263.00
798.9760, 20520.00
800.1130, 20607.00
801.2500, 20713.00
802.3860, 21038.00
803.5230, 21558.00
804.6590, 21770.00
805.7960, 22253.00
806.9320, 22605.00
808.0680, 23171.00
809.2030, 23951.00
810.3390, 24975.00
811.4740, 26119.00
812.6100, 27287.00
813.7450, 29203.00
814.8800, 31337.00
816.0140, 34051.00
817.1490, 37366.00
818.2830, 41683.00
819.4180, 46809.00
820.5520, 51983.00
821.6860, 57948.00
822.8200, 62749.00
823.9530, 65439.00
825.0870, 65190.00
826.2200, 62272.00
827.3530, 57548.00
828.4860, 52545.00
829.6190, 47797.00
830.7510, 43338.00
831.8840, 40259.00
833.0160, 38130.00
834.1480, 35748.00
835.2800, 34592.00
836.4120, 34222.00
837.5440, 33613.00
838.6750, 33586.00
839.8070, 34003.00
840.9380, 34846.00
842.0690, 36089.00
843.2000, 37874.00
844.3300, 40149.00
845.4610, 43318.00
846.5910, 46880.00
847.7220, 51990.00
848.8520, 58117.00
849.9810, 65431.00
851.1110, 74158.00
852.2410, 83507.00
853.3700, 92817.00
854.4990, 100244.0
855.6280, 105749.0
856.7570, 106433.0
857.8860, 102449.0
859.0150, 95401.00
860.1430, 85643.00
861.2710, 76072.00
862.3990, 66394.00
863.5270, 58667.00
864.6550, 51652.00
865.7830, 46667.00
866.9100, 42397.00
868.0370, 39112.00
869.1640, 36874.00
870.2910, 34749.00
871.4180, 33328.00
872.5450, 32278.00
873.6710, 31685.00
874.7980, 31357.00
875.9240, 31153.00
877.0500, 31785.00
878.1760, 32340.00
879.3010, 33370.00
880.4270, 34194.00
881.5520, 34635.00
882.6770, 34690.00
883.8020, 33878.00
884.9270, 32460.00
886.0520, 30717.00
887.1760, 28668.00
888.3010, 27109.00
889.4250, 25842.00
890.5490, 24970.00
891.6730, 24319.00
892.7970, 23515.00
893.9200, 23069.00
895.0440, 23040.00
896.1670, 22661.00
897.2900, 22650.00
898.4130, 22395.00
899.5360, 22251.00
900.6580, 22376.00
901.7810, 22128.00
902.9030, 22031.00
904.0250, 22200.00
905.1470, 21872.00
906.2690, 21859.00
907.3910, 21852.00
908.5120, 22221.00
909.6330, 21945.00
910.7540, 22004.00
911.8750, 21876.00
912.9960, 21954.00
914.1170, 21988.00
915.2380, 22062.00
916.3580, 22344.00
917.4780, 22743.00
918.5980, 22945.00
919.7180, 23009.00
920.8380, 22658.00
921.9570, 22572.00
923.0770, 22466.00
924.1960, 22475.00
925.3150, 22144.00
926.4340, 22335.00
927.5530, 22095.82
928.6710, 22165.00
929.7900, 21930.00
930.9080, 21929.00
932.0260, 22136.00
933.1440, 22141.00
934.2620, 22328.00
935.3800, 22204.00
936.4970, 22359.00
937.6140, 22468.49
938.7320, 22625.00
939.8490, 22724.00
940.9660, 22991.00
942.0820, 23083.00
943.1990, 23251.00
944.3150, 23636.00
945.4310, 23976.00
946.5470, 24140.00
947.6630, 24742.00
948.7790, 25126.00
949.8950, 25490.00
951.0100, 26160.00
952.1250, 26547.00
953.2400, 27272.00
954.3550, 28182.00
955.4700, 29310.00
956.5850, 29939.00
957.6990, 31013.00
958.8140, 31905.00
959.9280, 32615.00
961.0420, 32900.00
962.1560, 33297.00
963.2690, 33201.00
964.3830, 32309.00
965.4960, 31793.00
966.6090, 31245.00
967.7230, 30066.00
968.8350, 29255.00
969.9480, 28250.00
971.0610, 27406.00
972.1730, 26471.00
973.2850, 25763.00
974.3980, 25165.00
975.5100, 24434.00
976.6210, 24075.00
977.7330, 23649.00
978.8440, 23175.00
979.9560, 23241.00
981.0670, 22994.00
982.1780, 22940.00
983.2890, 22676.00
984.3990, 22752.00
985.5100, 22355.00
986.6200, 22287.00
987.7310, 22374.00
988.8410, 22477.00
989.9510, 22187.00
991.0600, 22026.00
992.1700, 22058.00
993.2790, 22170.00
994.3890, 21924.00
995.4980, 21984.00
996.6070, 22029.00
997.7160, 22092.00
998.8240, 21993.00
999.9330, 22184.00
1001.041, 22003.00
1002.149, 21959.00
1003.257, 22024.00
1004.365, 21940.00
1005.473, 22060.00
1006.580, 22097.00
1007.688, 21947.00
1008.795, 21829.00
1009.902, 21803.00
1011.009, 21869.00
1012.116, 21776.00
1013.222, 21975.00
1014.329, 21796.00
1015.435, 22057.00
1016.541, 22075.00
1017.647, 21883.00
1018.753, 21917.00
1019.859, 21865.00
1020.964, 22059.00
1022.070, 21936.00
1023.175, 22050.00
1024.280, 22133.00
1025.385, 22264.00
1026.490, 22258.74
1027.594, 22106.00
1028.699, 22239.00
1029.803, 22024.00
1030.907, 21993.00
1032.011, 21922.00
1033.115, 21983.00
1034.219, 22047.00
1035.322, 22043.00
1036.426, 21989.00
1037.529, 22246.00
1038.632, 22270.00
1039.735, 22105.00
1040.837, 21959.00
1041.940, 22306.00
1043.042, 22193.00
1044.145, 22266.00
1045.247, 22248.00
1046.349, 21903.00
1047.451, 22075.00
1048.552, 21954.00
1049.654, 22306.00
1050.755, 22107.00
1051.856, 22088.00
1052.957, 22126.00
1054.058, 22048.00
1055.159, 22259.00
1056.259, 22228.00
1057.360, 22282.00
1058.460, 22279.00
1059.560, 22199.00
1060.660, 22240.00
1061.760, 22219.00
1062.860, 22290.00
1063.959, 22319.00
1065.058, 22399.00
1066.158, 22107.00
1067.257, 22309.00
1068.355, 22202.00
1069.454, 22439.00
1070.553, 22232.00
1071.651, 22186.00
1072.749, 22509.00
1073.847, 22436.00
1074.945, 22334.00
1076.043, 22380.00
1077.141, 22364.00
1078.238, 22290.00
1079.336, 22477.00
1080.433, 22537.00
1081.530, 22377.00
1082.627, 22408.00
1083.723, 22576.00
1084.820, 22578.00
1085.916, 22569.00
1087.013, 22553.00
1088.109, 22528.00
1089.205, 22486.00
1090.301, 22683.00
1091.396, 22867.00
1092.492, 22676.00
1093.587, 22648.00
1094.682, 22745.00
1095.777, 22815.00
1096.872, 22717.00
1097.967, 22690.00
1099.061, 22983.00
1100.156, 22646.00
1101.250, 22893.00
1102.344, 22915.00
1103.438, 22795.00
1104.532, 22934.00
1105.626, 23082.00
1106.719, 23043.00
1107.813, 22719.00
1108.906, 22765.00
1109.999, 23054.00
1111.092, 22990.00
1112.184, 23164.00
1113.277, 23076.00
1114.370, 23052.00
1115.462, 23385.00
1116.554, 22989.00
1117.646, 23094.00
1118.738, 23224.00
1119.829, 23152.00
1120.921, 23429.00
1122.012, 23122.00
1123.104, 23341.00
1124.195, 23226.00
1125.286, 23303.00
1126.376, 23400.00
1127.467, 23386.00
1128.557, 23312.00
1129.648, 23176.00
1130.738, 23441.00
1131.828, 23584.00
1132.918, 23711.00
1134.008, 23690.00
1135.097, 23537.00
1136.186, 23526.00
1137.276, 23514.00
1138.365, 23479.63
1139.454, 23510.92
1140.543, 23481.00
1141.631, 23665.00
1142.720, 23642.00
1143.808, 23924.00
1144.896, 23763.00
1145.984, 23605.00
1147.072, 24026.00
1148.160, 23915.00
1149.248, 23957.00
1150.335, 23877.00
1151.422, 23991.00
1152.509, 24056.00
1153.596, 24224.00
1154.683, 24078.00
1155.770, 24108.00
1156.857, 24177.00
1157.943, 24340.00
1159.029, 24167.00
1160.115, 24199.00
1161.201, 24204.00
1162.287, 24304.00
1163.373, 24131.00
1164.458, 24285.00
1165.543, 24200.00
1166.629, 24093.00
1167.714, 24234.00
1168.799, 24139.00
1169.883, 24443.00
1170.968, 24263.00
1172.052, 24502.00
1173.137, 24560.00
1174.221, 24313.00
1175.305, 24387.00
1176.389, 24435.00
1177.472, 24592.00
1178.556, 24217.00
1179.639, 24317.00
1180.722, 24439.00
1181.805, 24447.00
1182.888, 24588.00
1183.971, 24510.00
1185.054, 24522.00
1186.136, 24492.00
1187.219, 24629.00
1188.301, 24752.00
1189.383, 24742.83
1190.465, 24723.00
1191.547, 24776.00
1192.628, 24765.00
1193.710, 24752.00
1194.791, 24804.00
1195.872, 24780.00
1196.953, 24783.00
1198.034, 24772.00
1199.115, 24836.00
1200.195, 24831.00
1201.276, 24965.00
1202.356, 24984.00
1203.436, 25010.87
1204.516, 24701.00
1205.596, 25044.00
1206.675, 24963.00
1207.755, 24969.00
1208.834, 25162.00
1209.913, 25198.00
1210.992, 24994.00
1212.071, 24990.00
1213.150, 25243.00
1214.229, 25339.00
1215.307, 25148.00
1216.386, 25063.00
1217.464, 25303.00
1218.542, 25217.00
1219.620, 25322.00
1220.697, 25256.00
1221.775, 25306.00
1222.852, 25340.00
1223.930, 25155.00
1225.007, 25382.00
1226.084, 25263.00
1227.161, 25029.00
1228.237, 25399.00
1229.314, 25299.00
1230.390, 25432.00
1231.466, 25258.00
1232.543, 25298.00
1233.619, 25511.00
1234.694, 25393.00
1235.770, 25604.00
1236.845, 25526.00
1237.921, 25472.00
1238.996, 25473.00
1240.071, 25469.00
1241.146, 25325.00
1242.221, 25573.00
1243.295, 25495.00
1244.370, 25482.00
1245.444, 25318.00
1246.518, 25383.56
1247.592, 25355.82
