##NAMES=Forsterite
##RRUFFID=R060551
##IDEAL CHEMISTRY=Mg_2_SiO_4_
##LOCALITY=Kohiston, Pakistan
##OWNER=RRUFF
##SOURCE=Gemological Institute of America
##DESCRIPTION=Pale green fragment
##STATUS=The identification of this mineral has been confirmed by X-ray diffraction and chemical analysis
##URL=rruff.info/R060551
##MEASURED CHEMISTRY=(Mg_1.82_Fe_0.18_)_Î£=2_Si_1.00_O_4_; trace amounts of Mn
##PIN_ID=M01244
##ORIENTATION=Laser parallel to b* (0 1 0). Fiducial mark perpendicular to laser is parallel to c [0 0 1]
62.89900, 393.0000
64.14700, 429.0000
65.39500, 468.0000
66.64300, 551.0000
67.89000, 617.0000
69.13800, 721.0000
70.38500, 935.0000
71.63200, 1073.639
72.87900, 1278.000
74.12500, 1496.000
75.37200, 1805.000
76.61800, 2089.000
77.86400, 2513.000
79.10900, 2909.000
80.35500, 3357.000
81.60000, 3777.000
82.84600, 4301.000
84.09100, 4847.000
85.33500, 5333.000
86.58000, 5868.679
87.82400, 6422.000
89.06900, 6885.000
90.31300, 7374.000
91.55600, 7752.428
92.80000, 8070.000
94.04300, 8390.000
95.28700, 8596.000
96.53000, 8781.000
97.77300, 8921.000
99.01500, 9188.000
100.2580, 9234.000
101.5000, 9317.000
102.7420, 9604.000
103.9840, 9601.000
105.2260, 9825.000
106.4670, 10014.00
107.7080, 10270.00
108.9490, 10259.00
110.1900, 10329.00
111.4310, 10275.00
112.6720, 10253.00
113.9120, 10347.00
115.1520, 10390.00
116.3920, 10472.00
117.6320, 10449.00
118.8710, 10476.00
120.1110, 10553.00
121.3500, 10583.00
122.5890, 10535.00
123.8270, 10622.00
125.0660, 10561.00
126.3040, 10492.00
127.5430, 10708.00
128.7810, 10688.00
130.0180, 10676.00
131.2560, 10727.00
132.4940, 10656.00
133.7310, 10730.00
134.9680, 10903.00
136.2050, 10815.00
137.4410, 10967.00
138.6780, 10998.00
139.9140, 10908.00
141.1500, 10963.00
142.3860, 10954.00
143.6220, 11119.00
144.8570, 11070.00
146.0920, 11116.00
147.3280, 11187.00
148.5620, 11235.00
149.7970, 11150.00
151.0320, 11313.00
152.2660, 11107.00
153.5000, 11341.00
154.7340, 11363.00
155.9680, 11483.00
157.2020, 11383.00
158.4350, 11511.00
159.6680, 11395.00
160.9010, 11613.00
162.1340, 11597.00
163.3670, 11567.00
164.5990, 11698.00
165.8310, 11523.00
167.0630, 11572.00
168.2950, 11674.00
169.5270, 11701.00
170.7580, 11821.00
171.9900, 11792.00
173.2210, 11530.00
174.4510, 11814.00
175.6820, 11683.00
176.9130, 11578.00
178.1430, 11713.00
179.3730, 11678.00
180.6030, 11698.00
181.8330, 11681.00
183.0620, 11705.00
184.2920, 11720.00
185.5210, 11737.00
186.7500, 11617.00
187.9790, 11684.00
189.2070, 11634.00
190.4360, 11864.00
191.6640, 11794.00
192.8920, 11628.00
194.1200, 11780.00
195.3480, 11709.00
196.5750, 11716.00
197.8020, 11832.00
199.0290, 11854.00
200.2560, 11972.00
201.4830, 11910.00
202.7090, 11909.00
203.9360, 11830.00
205.1620, 11873.00
206.3880, 12010.00
207.6140, 12161.00
208.8390, 12132.00
210.0650, 12211.00
211.2900, 12310.53
212.5150, 12389.56
213.7400, 12510.00
214.9640, 12680.00
216.1890, 12803.00
217.4130, 13045.00
218.6370, 13289.00
219.8610, 13404.00
221.0850, 13623.00
222.3080, 13814.00
223.5310, 13950.00
224.7540, 13929.00
225.9770, 13928.00
227.2000, 13790.00
228.4230, 13625.00
229.6450, 13622.00
230.8670, 13616.00
232.0890, 13335.00
233.3110, 13167.00
234.5320, 13290.00
235.7540, 13099.00
236.9750, 13203.00
238.1960, 13102.00
239.4170, 13076.00
240.6380, 13004.00
241.8580, 12975.00
243.0780, 12840.00
244.2990, 12910.00
245.5180, 12749.00
246.7380, 12631.00
247.9580, 12653.00
249.1770, 12606.00
250.3960, 12658.00
251.6150, 12470.00
252.8340, 12422.00
254.0530, 12514.00
255.2710, 12480.00
256.4890, 12511.00
257.7070, 12534.00
258.9250, 12503.00
260.1430, 12611.00
261.3600, 12538.00
262.5770, 12589.00
263.7950, 12564.00
265.0110, 12390.00
266.2280, 12596.00
267.4450, 12495.00
268.6610, 12510.00
269.8770, 12601.00
271.0930, 12528.00
272.3090, 12662.00
273.5250, 12663.00
274.7400, 12646.00
275.9550, 12767.00
277.1700, 12812.00
278.3850, 12788.00
279.6000, 12825.00
280.8140, 12877.00
282.0290, 12873.00
283.2430, 13019.00
284.4570, 13070.00
285.6700, 13201.00
286.8840, 13198.00
288.0970, 13303.00
289.3100, 13465.00
290.5230, 13669.00
291.7360, 13977.00
292.9490, 14155.00
294.1610, 14441.00
295.3740, 15059.00
296.5860, 15477.00
297.7970, 16325.00
299.0090, 16931.00
300.2210, 17859.00
301.4320, 18637.00
302.6430, 19263.00
303.8540, 19326.00
305.0650, 19328.00
306.2750, 18873.00
307.4860, 17969.00
308.6960, 17181.00
309.9060, 16765.00
311.1160, 16041.00
312.3260, 15688.00
313.5350, 15209.00
314.7440, 15023.00
315.9530, 14953.00
317.1620, 14722.00
318.3710, 14915.00
319.5800, 14866.00
320.7880, 14897.00
321.9960, 14950.00
323.2040, 15115.00
324.4120, 15224.00
325.6200, 15187.00
326.8270, 15285.00
328.0340, 15234.00
329.2410, 15145.00
330.4480, 14993.00
331.6550, 14844.00
332.8610, 14675.00
334.0680, 14530.00
335.2740, 14528.00
336.4800, 14439.00
337.6860, 14536.00
338.8910, 14355.00
340.0970, 14706.00
341.3020, 14440.00
342.5070, 14536.00
343.7120, 14127.00
344.9170, 14237.00
346.1210, 14100.00
347.3250, 14162.00
348.5290, 14161.00
349.7330, 14044.00
350.9370, 13856.00
352.1410, 13855.00
353.3440, 13851.00
354.5470, 13870.00
355.7500, 13807.00
356.9530, 13745.00
358.1560, 13732.65
359.3580, 13849.00
360.5610, 13686.00
361.7630, 13598.00
362.9650, 13611.02
364.1660, 13790.00
365.3680, 13721.00
366.5690, 13732.00
367.7710, 13898.00
368.9720, 13756.00
370.1720, 13688.00
371.3730, 13789.00
372.5740, 13750.00
373.7740, 13645.00
374.9740, 13817.00
376.1740, 13618.00
377.3740, 13769.00
378.5730, 13724.00
379.7730, 13855.00
380.9720, 13682.00
382.1710, 13732.00
383.3700, 13645.00
384.5680, 13844.00
385.7670, 13701.00
386.9650, 13723.00
388.1630, 13664.00
389.3610, 13780.00
390.5590, 13822.00
391.7560, 13733.00
392.9540, 13768.00
394.1510, 13884.00
395.3480, 13878.00
396.5450, 13807.00
397.7420, 13832.00
398.9380, 13790.00
400.1340, 13915.00
401.3300, 13781.00
402.5260, 14077.00
403.7220, 14171.00
404.9180, 14180.00
406.1130, 14135.00
407.3080, 13996.00
408.5030, 14291.00
409.6980, 14524.00
410.8930, 14456.00
412.0870, 14700.00
413.2820, 14949.00
414.4760, 15248.00
415.6700, 15527.00
416.8630, 15528.00
418.0570, 15752.00
419.2500, 15504.00
420.4440, 15490.00
421.6370, 15354.00
422.8290, 15282.00
424.0220, 15124.00
425.2150, 15099.00
426.4070, 15078.00
427.5990, 15022.00
428.7910, 14966.00
429.9830, 14919.00
431.1740, 15266.00
432.3660, 15142.00
433.5570, 15341.00
434.7480, 15487.00
435.9390, 15500.00
437.1300, 15677.00
438.3200, 15385.00
439.5110, 15447.00
440.7010, 15238.00
441.8910, 15370.00
443.0810, 15159.00
444.2700, 14861.00
445.4600, 14835.00
446.6490, 14761.00
447.8380, 14645.00
449.0270, 14669.00
450.2160, 14662.00
451.4040, 14457.00
452.5930, 14408.00
453.7810, 14608.00
454.9690, 14459.00
456.1570, 14460.00
457.3440, 14584.00
458.5320, 14509.00
459.7190, 14554.60
460.9060, 14467.00
462.0930, 14557.00
463.2800, 14616.00
464.4660, 14614.00
465.6530, 14724.00
466.8390, 14639.00
468.0250, 14644.00
469.2110, 14698.00
470.3970, 14689.00
471.5820, 14777.00
472.7680, 14602.00
473.9530, 14872.00
475.1380, 14711.00
476.3230, 14768.00
477.5070, 14872.00
478.6920, 14744.00
479.8760, 14896.00
481.0600, 14716.00
482.2440, 14874.00
483.4280, 14795.00
484.6110, 14798.00
485.7950, 14811.00
486.9780, 14895.00
488.1610, 14839.00
489.3440, 14921.00
490.5260, 14824.00
491.7090, 14921.00
492.8910, 14910.00
494.0730, 15054.00
495.2550, 15048.00
496.4370, 15080.00
497.6190, 15120.00
498.8000, 14951.00
499.9810, 15052.00
501.1620, 15014.00
502.3430, 15092.00
503.5240, 15180.00
504.7050, 15089.00
505.8850, 15166.00
507.0650, 15111.00
508.2450, 15063.00
509.4250, 15212.00
510.6050, 15078.00
511.7840, 15122.00
512.9630, 15221.00
514.1430, 15349.00
515.3220, 15221.00
516.5000, 15137.00
517.6790, 15441.00
518.8570, 15203.00
520.0360, 15327.00
521.2140, 15303.00
522.3920, 15438.00
523.5690, 15414.00
524.7470, 15339.00
525.9240, 15477.00
527.1010, 15456.00
528.2780, 15551.00
529.4550, 15618.00
530.6320, 15659.90
531.8080, 15633.00
532.9850, 15791.00
534.1610, 15993.00
535.3370, 16079.04
536.5130, 15939.00
537.6880, 16323.00
538.8640, 16272.00
540.0390, 16521.00
541.2140, 16866.00
542.3890, 16977.00
543.5640, 17198.00
544.7380, 17132.00
545.9130, 16939.00
547.0870, 16788.00
548.2610, 16546.00
549.4350, 16397.00
550.6090, 16361.00
551.7820, 16284.00
552.9550, 16008.00
554.1290, 16108.00
555.3020, 15855.00
556.4740, 16064.00
557.6470, 16069.00
558.8200, 16040.00
559.9920, 16118.00
561.1640, 16235.00
562.3360, 16064.00
563.5080, 16336.00
564.6790, 16219.00
565.8510, 16353.00
567.0220, 16163.00
568.1930, 16399.00
569.3640, 16336.00
570.5350, 16429.00
571.7050, 16527.00
572.8760, 16698.00
574.0460, 16793.00
575.2160, 17007.00
576.3860, 17022.00
577.5550, 17359.00
578.7250, 17453.00
579.8940, 17755.00
581.0630, 17903.00
582.2320, 18144.00
583.4010, 18499.00
584.5700, 18665.00
585.7380, 18675.00
586.9070, 18784.00
588.0750, 18813.00
589.2430, 18849.64
590.4110, 18804.00
591.5780, 18936.00
592.7460, 18957.00
593.9130, 19052.00
595.0800, 19100.00
596.2470, 19629.00
597.4140, 19927.00
598.5800, 20410.00
599.7470, 20969.00
600.9130, 21734.00
602.0790, 22434.00
603.2450, 22929.00
604.4100, 23802.00
605.5760, 24077.00
606.7410, 24281.00
607.9070, 24387.00
609.0720, 24187.00
610.2360, 24108.00
611.4010, 22838.00
612.5660, 22332.00
613.7300, 21643.00
614.8940, 21029.00
616.0580, 20510.00
617.2220, 20138.87
618.3860, 19570.26
619.5490, 19495.00
620.7120, 18759.00
621.8750, 18220.00
623.0380, 18165.00
624.2010, 17960.00
625.3640, 17934.00
626.5260, 17726.00
627.6880, 17637.00
628.8510, 17696.00
630.0120, 17550.00
631.1740, 17576.00
632.3360, 17430.00
633.4970, 17235.00
634.6580, 17429.00
635.8200, 17128.00
636.9800, 17208.00
638.1410, 17164.00
639.3020, 17245.00
640.4620, 17196.00
641.6220, 17311.00
642.7820, 17084.00
643.9420, 17094.00
645.1020, 17244.00
646.2610, 17117.00
647.4210, 17175.00
648.5800, 17202.00
649.7390, 17196.00
650.8980, 17232.00
652.0570, 17223.96
653.2150, 17161.00
654.3730, 17255.00
655.5320, 17203.00
656.6900, 17297.00
657.8470, 17272.00
659.0050, 17053.00
660.1620, 17134.00
661.3200, 17183.00
662.4770, 17251.00
663.6340, 17261.00
664.7910, 17241.00
665.9470, 17335.00
667.1040, 17292.00
668.2600, 17319.38
669.4160, 17466.00
670.5720, 17381.00
671.7280, 17281.00
672.8840, 17408.00
674.0390, 17426.00
675.1940, 17376.00
676.3490, 17342.00
677.5040, 17479.00
678.6590, 17479.00
679.8140, 17483.00
680.9680, 17646.00
682.1220, 17441.00
683.2760, 17614.00
684.4300, 17542.00
685.5840, 17653.00
686.7380, 17474.00
687.8910, 17469.00
689.0440, 17733.00
690.1970, 17667.00
691.3500, 17779.00
692.5030, 17685.00
693.6560, 17703.00
694.8080, 17618.00
695.9600, 17786.00
697.1120, 18010.00
698.2640, 17743.00
699.4160, 17663.00
700.5670, 17897.00
701.7190, 17804.00
702.8700, 17903.00
704.0210, 17843.00
705.1720, 17890.00
706.3230, 17829.00
707.4730, 17868.00
708.6240, 18057.00
709.7740, 17995.00
710.9240, 17842.00
712.0740, 18304.00
713.2230, 18117.00
714.3730, 18226.00
715.5220, 18063.00
716.6720, 18103.00
717.8210, 18121.00
718.9690, 17992.00
720.1180, 18173.00
721.2670, 18141.00
722.4150, 18435.00
723.5630, 18204.00
724.7110, 18325.00
725.8590, 18287.00
727.0070, 18432.00
728.1540, 18465.00
729.3020, 18466.00
730.4490, 18607.00
731.5960, 18628.00
732.7430, 18411.00
733.8890, 18615.00
735.0360, 18514.00
736.1820, 18605.00
737.3280, 18570.00
738.4740, 18783.00
739.6200, 18813.00
740.7660, 18726.00
741.9120, 18727.00
743.0570, 18794.00
744.2020, 18905.00
745.3470, 18806.00
746.4920, 18920.00
747.6370, 18952.00
748.7810, 19073.00
749.9250, 19075.00
751.0700, 19077.00
752.2140, 19067.00
753.3580, 19209.00
754.5010, 19206.78
755.6450, 19320.00
756.7880, 19352.00
757.9310, 19319.00
759.0740, 19477.00
760.2170, 19642.00
761.3600, 19385.00
762.5020, 19600.00
763.6450, 19735.00
764.7870, 19755.00
765.9290, 19933.00
767.0710, 20005.00
768.2120, 19953.00
769.3540, 20113.00
770.4950, 20101.00
771.6370, 20006.00
772.7780, 20001.00
773.9180, 20089.00
775.0590, 20049.00
776.2000, 20213.00
777.3400, 20271.00
778.4800, 20226.00
779.6200, 20196.00
780.7600, 20343.00
781.9000, 20366.00
783.0390, 20512.00
784.1790, 20515.00
785.3180, 20541.00
786.4570, 20737.00
787.5960, 20767.00
788.7350, 21096.00
789.8730, 21086.00
791.0120, 21190.00
792.1500, 21232.00
793.2880, 21486.00
794.4260, 21708.00
795.5630, 21907.00
796.7010, 21954.00
797.8380, 22257.00
798.9760, 22229.00
800.1130, 22680.00
801.2500, 23155.00
802.3860, 23291.00
803.5230, 23898.00
804.6590, 24353.00
805.7960, 24920.00
806.9320, 25770.00
808.0680, 26420.00
809.2030, 27467.00
810.3390, 29055.00
811.4740, 30348.00
812.6100, 32319.00
813.7450, 34511.00
814.8800, 37648.00
816.0140, 42085.00
817.1490, 46881.00
818.2830, 52895.00
819.4180, 60504.00
820.5520, 68495.00
821.6860, 77200.00
822.8200, 83776.00
823.9530, 88258.00
825.0870, 88074.00
826.2200, 84194.00
827.3530, 77479.00
828.4860, 69352.00
829.6190, 62082.00
830.7510, 55827.00
831.8840, 50617.00
833.0160, 46717.00
834.1480, 44065.00
835.2800, 42121.00
836.4120, 40703.00
837.5440, 39955.00
838.6750, 39956.00
839.8070, 40392.00
840.9380, 41218.00
842.0690, 42497.00
843.2000, 44847.00
844.3300, 47422.00
845.4610, 51731.00
846.5910, 56240.00
847.7220, 63108.00
848.8520, 71650.00
849.9810, 81037.00
851.1110, 93103.00
852.2410, 106061.0
853.3700, 117603.0
854.4990, 127732.0
855.6280, 134811.0
856.7570, 136120.0
857.8860, 131139.0
859.0150, 121569.0
860.1430, 109347.0
861.2710, 95811.00
862.3990, 83048.00
863.5270, 72620.00
864.6550, 63224.00
865.7830, 56227.00
866.9100, 49966.00
868.0370, 45426.00
869.1640, 41920.00
870.2910, 39072.00
871.4180, 37243.00
872.5450, 35287.00
873.6710, 34130.00
874.7980, 33143.00
875.9240, 32737.00
877.0500, 32487.00
878.1760, 32453.00
879.3010, 32830.00
880.4270, 33273.00
881.5520, 33210.00
882.6770, 33289.00
883.8020, 32212.00
884.9270, 31471.00
886.0520, 29788.00
887.1760, 28465.00
888.3010, 27221.00
889.4250, 26258.00
890.5490, 25627.00
891.6730, 24674.00
892.7970, 24527.00
893.9200, 24016.00
895.0440, 23851.00
896.1670, 23562.00
897.2900, 23348.00
898.4130, 23396.00
899.5360, 22968.00
900.6580, 23210.00
901.7810, 22754.00
902.9030, 22621.00
904.0250, 22598.00
905.1470, 22374.00
906.2690, 22692.00
907.3910, 22462.00
908.5120, 22624.00
909.6330, 22442.00
910.7540, 22514.00
911.8750, 22702.00
912.9960, 22780.00
914.1170, 22674.00
915.2380, 22843.00
916.3580, 22987.00
917.4780, 23062.00
918.5980, 23486.00
919.7180, 23240.00
920.8380, 23167.00
921.9570, 23176.00
923.0770, 22796.00
924.1960, 22879.00
925.3150, 22736.00
926.4340, 22660.00
927.5530, 22590.00
928.6710, 22667.00
929.7900, 22748.00
930.9080, 22803.00
932.0260, 22796.00
933.1440, 22792.00
934.2620, 22999.00
935.3800, 22922.00
936.4970, 23269.00
937.6140, 23629.00
938.7320, 23379.00
939.8490, 23695.00
940.9660, 23839.00
942.0820, 24018.00
943.1990, 24252.00
944.3150, 24735.00
945.4310, 24901.00
946.5470, 25428.00
947.6630, 25892.00
948.7790, 26307.00
949.8950, 26939.00
951.0100, 27716.00
952.1250, 28518.55
953.2400, 29676.00
954.3550, 30541.00
955.4700, 31730.00
956.5850, 33023.00
957.6990, 34003.00
958.8140, 35281.00
959.9280, 36191.00
961.0420, 37293.00
962.1560, 37364.00
963.2690, 37117.00
964.3830, 36557.00
965.4960, 35686.00
966.6090, 34759.00
967.7230, 33599.00
968.8350, 32337.00
969.9480, 30928.00
971.0610, 29852.00
972.1730, 28697.00
973.2850, 27603.00
974.3980, 27002.00
975.5100, 26041.00
976.6210, 25608.00
977.7330, 24971.00
978.8440, 24492.00
979.9560, 24209.00
981.0670, 23935.00
982.1780, 23774.00
983.2890, 23444.00
984.3990, 23500.00
985.5100, 23393.00
986.6200, 23217.00
987.7310, 23080.00
988.8410, 22923.00
989.9510, 22988.00
991.0600, 22892.00
992.1700, 22893.00
993.2790, 22686.00
994.3890, 22919.00
995.4980, 22764.00
996.6070, 22759.00
997.7160, 22771.00
998.8240, 22599.00
999.9330, 22741.00
1001.041, 22668.00
1002.149, 22570.00
1003.257, 23038.00
1004.365, 22535.00
1005.473, 22707.00
1006.580, 22487.00
1007.688, 22359.00
1008.795, 22412.00
1009.902, 22594.00
1011.009, 22466.00
1012.116, 22512.00
1013.222, 22612.00
1014.329, 22281.00
1015.435, 22400.00
1016.541, 22395.00
1017.647, 22348.00
1018.753, 22452.00
1019.859, 22592.00
1020.964, 22674.00
1022.070, 22451.00
1023.175, 22756.00
1024.280, 22578.00
1025.385, 22769.00
1026.490, 22785.00
1027.594, 22671.00
1028.699, 22596.00
1029.803, 22736.00
1030.907, 22517.00
1032.011, 22696.00
1033.115, 22698.00
1034.219, 22698.00
1035.322, 22576.00
1036.426, 22634.00
1037.529, 22706.00
1038.632, 22645.00
1039.735, 22726.00
1040.837, 22676.00
1041.940, 22617.00
1043.042, 22707.00
1044.145, 22730.00
1045.247, 22652.00
1046.349, 22799.00
1047.451, 22562.00
1048.552, 22721.00
1049.654, 22932.00
1050.755, 22780.00
1051.856, 22775.00
1052.957, 22773.00
1054.058, 22658.00
1055.159, 22883.00
1056.259, 22795.95
1057.360, 23100.00
1058.460, 22777.00
1059.560, 22876.00
1060.660, 22814.00
1061.760, 22715.00
1062.860, 22958.00
1063.959, 22927.00
1065.058, 22898.00
1066.158, 22782.00
1067.257, 22908.00
1068.355, 22879.00
1069.454, 22873.00
1070.553, 23015.00
1071.651, 22993.61
1072.749, 22947.00
1073.847, 23043.00
1074.945, 22999.00
1076.043, 22955.00
1077.141, 22939.00
1078.238, 23026.00
1079.336, 22900.00
1080.433, 23186.00
1081.530, 23060.00
1082.627, 22893.00
1083.723, 23228.00
1084.820, 22992.00
1085.916, 23257.00
1087.013, 23038.00
1088.109, 23117.00
1089.205, 23036.00
1090.301, 23270.00
1091.396, 23195.00
1092.492, 23199.00
1093.587, 23251.53
1094.682, 23200.54
1095.777, 23223.00
1096.872, 23213.00
1097.967, 23159.00
1099.061, 23247.00
1100.156, 23425.00
1101.250, 23082.00
1102.344, 23373.00
1103.438, 23367.00
1104.532, 23353.00
1105.626, 23575.00
1106.719, 23304.00
1107.813, 23521.00
1108.906, 23448.00
1109.999, 23563.00
1111.092, 23379.00
1112.184, 23564.00
1113.277, 23645.00
1114.370, 23509.00
1115.462, 23488.00
1116.554, 23444.00
1117.646, 23665.00
1118.738, 23635.00
1119.829, 23826.00
1120.921, 23636.00
1122.012, 23728.00
1123.104, 23756.00
1124.195, 23662.00
1125.286, 23610.00
1126.376, 23925.00
1127.467, 23674.00
1128.557, 23825.00
1129.648, 23545.00
1130.738, 23753.00
1131.828, 23865.00
1132.918, 24041.00
1134.008, 23834.00
1135.097, 23662.00
1136.186, 23762.00
1137.276, 23879.00
1138.365, 24005.00
1139.454, 23847.00
1140.543, 23787.00
1141.631, 23996.00
1142.720, 23816.00
1143.808, 24205.00
1144.896, 24120.00
1145.984, 23970.00
1147.072, 24070.00
1148.160, 23962.00
1149.248, 24014.00
1150.335, 24155.00
1151.422, 24277.00
1152.509, 24206.00
1153.596, 24168.00
1154.683, 24052.00
1155.770, 24118.00
1156.857, 24080.00
1157.943, 24394.00
1159.029, 24234.00
1160.115, 24326.00
1161.201, 24125.00
1162.287, 24389.00
1163.373, 24484.00
1164.458, 24528.00
1165.543, 24402.00
1166.629, 24371.00
1167.714, 24343.00
1168.799, 24220.00
1169.883, 24523.00
1170.968, 24246.00
1172.052, 24385.00
1173.137, 24420.00
1174.221, 24239.00
1175.305, 24554.00
1176.389, 24337.00
1177.472, 24308.00
1178.556, 24233.00
1179.639, 24314.00
1180.722, 24364.00
1181.805, 24348.00
1182.888, 24663.00
1183.971, 24533.00
1185.054, 24465.00
1186.136, 24483.00
1187.219, 24232.00
1188.301, 24645.00
1189.383, 24661.00
1190.465, 24531.00
1191.547, 24587.00
1192.628, 24667.00
1193.710, 24732.00
1194.791, 24567.00
1195.872, 24573.00
1196.953, 24376.00
1198.034, 24375.00
1199.115, 24650.00
1200.195, 24925.00
1201.276, 24934.00
1202.356, 24718.00
1203.436, 24653.00
1204.516, 24868.00
1205.596, 24892.00
1206.675, 24802.00
1207.755, 25006.00
1208.834, 24962.82
1209.913, 25086.00
1210.992, 24993.00
1212.071, 24967.00
1213.150, 24898.00
1214.229, 25027.00
1215.307, 24914.00
1216.386, 24957.00
1217.464, 25302.00
1218.542, 24976.00
1219.620, 25370.00
1220.697, 24976.00
1221.775, 25031.00
1222.852, 25337.00
1223.930, 25221.00
1225.007, 25224.00
1226.084, 25164.00
1227.161, 25116.00
1228.237, 25024.00
1229.314, 25052.96
1230.390, 25308.00
1231.466, 25160.00
1232.543, 25144.00
1233.619, 25310.00
1234.694, 25110.00
1235.770, 25353.00
1236.845, 25185.00
1237.921, 25448.00
1238.996, 25315.00
1240.071, 25354.00
1241.146, 25170.00
1242.221, 25265.00
1243.295, 25397.00
1244.370, 25441.00
1245.444, 25265.00
1246.518, 25542.00
1247.592, 25120.00
