##NAMES=Forsterite
##RRUFFID=R060539
##IDEAL CHEMISTRY=Mg_2_SiO_4_
##LOCALITY=Sri Lanka
##OWNER=RRUFF
##SOURCE=Gemological Institute of America
##DESCRIPTION=Brown cut gemstone
##STATUS=The identification of this mineral has been confirmed by X-ray diffraction and chemical analysis
##URL=rruff.info/R060539
##MEASURED CHEMISTRY=(Mg_1.67_Fe_0.33_)_Î£=2_Si_1.00_O_4_; trace amounts of Mn and Ca
##PIN_ID=L01074
##ORIENTATION=Laser parallel to a* (1 0 0). Fiducial mark perpendicular to laser is parallel to b [0 1 0]
132.4390, 771.0000
133.6710, 780.0000
134.9030, 806.0000
136.1350, 815.0000
137.3670, 842.0000
138.5980, 873.0000
139.8290, 842.0000
141.0600, 857.0000
142.2910, 831.0000
143.5220, 855.0000
144.7530, 860.0000
145.9830, 866.0000
147.2130, 843.0000
148.4440, 862.0000
149.6730, 841.0000
150.9030, 907.0000
152.1330, 893.0000
153.3630, 853.0000
154.5920, 895.0000
155.8210, 875.0000
157.0500, 875.0000
158.2790, 871.0000
159.5080, 895.0000
160.7360, 877.0000
161.9650, 891.0000
163.1930, 910.0000
164.4210, 913.0000
165.6490, 913.0000
166.8770, 907.0000
168.1040, 919.0000
169.3320, 934.0000
170.5590, 921.0000
171.7860, 950.0000
173.0130, 953.0000
174.2400, 964.0000
175.4670, 992.0000
176.6930, 956.0000
177.9200, 960.0000
179.1460, 988.0000
180.3720, 973.0000
181.5980, 1007.000
182.8230, 994.0000
184.0490, 1030.000
185.2740, 1003.000
186.5000, 1002.000
187.7250, 992.0000
188.9500, 1039.000
190.1740, 1014.000
191.3990, 1018.000
192.6230, 1032.000
193.8480, 1018.000
195.0720, 992.0000
196.2960, 1033.000
197.5200, 1034.000
198.7430, 1078.000
199.9670, 1102.000
201.1900, 1139.000
202.4130, 1166.000
203.6360, 1194.795
204.8590, 1200.000
206.0820, 1245.000
207.3050, 1285.000
208.5270, 1297.000
209.7490, 1365.000
210.9710, 1476.000
212.1930, 1496.000
213.4150, 1558.000
214.6370, 1604.000
215.8580, 1642.000
217.0790, 1636.000
218.3010, 1631.000
219.5210, 1671.000
220.7420, 1614.000
221.9630, 1560.000
223.1830, 1542.000
224.4040, 1564.000
225.6240, 1525.000
226.8440, 1526.000
228.0640, 1483.000
229.2840, 1498.000
230.5030, 1479.000
231.7230, 1451.000
232.9420, 1491.000
234.1610, 1438.000
235.3800, 1417.956
236.5990, 1397.621
237.8170, 1350.000
239.0360, 1320.000
240.2540, 1310.000
241.4720, 1257.000
242.6900, 1197.000
243.9080, 1193.000
245.1250, 1163.000
246.3430, 1144.000
247.5600, 1103.000
248.7770, 1092.000
249.9940, 1092.000
251.2110, 1080.000
252.4280, 1069.000
253.6450, 1056.000
254.8610, 1043.000
256.0770, 1002.000
257.2930, 1044.000
258.5090, 1062.000
259.7250, 1067.000
260.9400, 1016.000
262.1560, 1009.000
263.3710, 975.0000
264.5860, 1010.000
265.8010, 1003.000
267.0160, 1017.000
268.2310, 1024.998
269.4450, 1009.000
270.6600, 1030.000
271.8740, 1004.000
273.0880, 999.0000
274.3020, 1016.000
275.5150, 1023.000
276.7290, 1035.580
277.9420, 1055.000
279.1550, 1066.000
280.3680, 1078.000
281.5810, 1091.000
282.7940, 1129.000
284.0070, 1145.000
285.2190, 1161.000
286.4310, 1203.000
287.6430, 1215.000
288.8550, 1277.000
290.0670, 1344.000
291.2790, 1390.000
292.4900, 1429.000
293.7020, 1500.000
294.9130, 1549.000
296.1240, 1541.000
297.3350, 1625.000
298.5450, 1635.000
299.7560, 1599.000
300.9660, 1550.000
302.1760, 1531.000
303.3860, 1535.000
304.5960, 1532.000
305.8060, 1515.000
307.0150, 1472.000
308.2250, 1560.000
309.4340, 1578.000
310.6430, 1658.000
311.8520, 1723.000
313.0610, 1780.000
314.2700, 1884.000
315.4780, 1925.000
316.6860, 1977.000
317.8940, 2074.000
319.1020, 2112.000
320.3100, 2165.000
321.5180, 2209.000
322.7250, 2221.000
323.9330, 2215.000
325.1400, 2143.000
326.3470, 2169.000
327.5540, 2122.000
328.7600, 2072.000
329.9670, 2065.000
331.1730, 1968.000
332.3800, 1975.000
333.5860, 1910.000
334.7920, 1865.000
335.9970, 1734.000
337.2030, 1657.000
338.4080, 1575.000
339.6140, 1484.000
340.8190, 1389.000
342.0240, 1345.000
343.2290, 1282.000
344.4330, 1225.000
345.6380, 1187.000
346.8420, 1144.000
348.0460, 1144.000
349.2500, 1101.000
350.4540, 1103.000
351.6580, 1068.000
352.8610, 1101.000
354.0650, 1084.000
355.2680, 1049.000
356.4710, 1062.000
357.6740, 1056.000
358.8760, 1053.000
360.0790, 1069.000
361.2810, 1059.000
362.4840, 1065.000
363.6860, 1065.000
364.8880, 1069.000
366.0900, 1066.000
367.2910, 1076.000
368.4930, 1050.000
369.6940, 1041.000
370.8950, 1023.000
372.0960, 1041.000
373.2970, 1034.000
374.4980, 1031.000
375.6980, 1016.000
376.8980, 979.0000
378.0990, 988.0000
379.2990, 990.0000
380.4980, 980.0000
381.6980, 994.0000
382.8980, 975.0000
384.0970, 982.0000
385.2960, 965.0000
386.4950, 944.0000
387.6940, 1003.000
388.8930, 955.0000
390.0920, 964.0000
391.2900, 975.0000
392.4880, 966.0000
393.6860, 940.0000
394.8840, 948.0000
396.0820, 984.0000
397.2800, 958.0000
398.4770, 1022.000
399.6750, 1000.000
400.8720, 1035.000
402.0690, 1033.000
403.2660, 1058.000
404.4620, 1102.000
405.6590, 1082.000
406.8550, 1091.000
408.0510, 1083.000
409.2480, 1130.000
410.4430, 1147.000
411.6390, 1237.000
412.8350, 1256.000
414.0300, 1349.000
415.2250, 1454.000
416.4200, 1463.000
417.6150, 1597.000
418.8100, 1712.000
420.0050, 1841.000
421.1990, 1843.000
422.3940, 1975.000
423.5880, 1939.000
424.7820, 1939.000
425.9750, 1929.000
427.1690, 1770.000
428.3630, 1639.000
429.5560, 1607.000
430.7490, 1437.000
431.9420, 1364.000
433.1350, 1313.000
434.3280, 1204.000
435.5200, 1161.000
436.7130, 1118.000
437.9050, 1118.000
439.0970, 1096.000
440.2890, 1079.000
441.4810, 1056.000
442.6720, 1065.000
443.8640, 1018.000
445.0550, 1045.000
446.2460, 1036.000
447.4370, 1012.000
448.6280, 1028.000
449.8180, 1007.000
451.0090, 1031.000
452.1990, 1016.000
453.3890, 1013.913
454.5790, 1021.000
455.7690, 1009.000
456.9590, 1020.000
458.1480, 1029.000
459.3380, 1015.000
460.5270, 1047.000
461.7160, 1041.000
462.9050, 1054.000
464.0940, 1071.000
465.2820, 1050.000
466.4700, 1056.000
467.6590, 1087.000
468.8470, 1038.000
470.0350, 1075.000
471.2220, 1071.000
472.4100, 1071.000
473.5970, 1090.000
474.7850, 1071.000
475.9720, 1098.000
477.1590, 1064.000
478.3460, 1099.000
479.5320, 1071.000
480.7190, 1091.000
481.9050, 1062.000
483.0910, 1072.000
484.2770, 1095.000
485.4630, 1074.000
486.6490, 1100.000
487.8340, 1096.000
489.0200, 1102.000
490.2050, 1124.000
491.3900, 1099.000
492.5750, 1076.000
493.7600, 1093.000
494.9440, 1117.000
496.1290, 1119.000
497.3130, 1114.000
498.4970, 1098.000
499.6810, 1123.000
500.8650, 1089.000
502.0480, 1150.000
503.2320, 1129.000
504.4150, 1191.000
505.5980, 1124.000
506.7810, 1135.000
507.9640, 1174.000
509.1460, 1182.000
510.3290, 1169.000
511.5110, 1207.000
512.6930, 1205.376
513.8750, 1240.000
515.0570, 1244.000
516.2390, 1268.000
517.4210, 1321.000
518.6020, 1283.000
519.7830, 1352.000
520.9640, 1358.000
522.1450, 1392.000
523.3260, 1458.000
524.5060, 1524.000
525.6870, 1657.000
526.8670, 1739.000
528.0470, 1875.000
529.2270, 2056.000
530.4070, 2209.000
531.5870, 2489.000
532.7660, 2715.000
533.9450, 2997.000
535.1240, 3187.000
536.3030, 3466.000
537.4820, 3603.000
538.6610, 3596.000
539.8390, 3481.000
541.0180, 3248.000
542.1960, 2984.000
543.3740, 2619.000
544.5520, 2315.000
545.7290, 2042.000
546.9070, 1872.000
548.0840, 1766.000
549.2620, 1619.000
550.4390, 1562.000
551.6160, 1463.000
552.7920, 1434.000
553.9690, 1415.000
555.1450, 1359.000
556.3220, 1351.000
557.4980, 1347.000
558.6740, 1343.000
559.8490, 1332.000
561.0250, 1345.919
562.2000, 1364.000
563.3760, 1379.000
564.5510, 1379.000
565.7260, 1407.000
566.9010, 1426.000
568.0750, 1464.000
569.2500, 1511.000
570.4240, 1563.000
571.5980, 1561.000
572.7720, 1616.000
573.9460, 1623.000
575.1200, 1657.000
576.2930, 1644.000
577.4670, 1631.000
578.6400, 1647.000
579.8130, 1622.000
580.9860, 1646.000
582.1590, 1580.000
583.3310, 1616.000
584.5040, 1601.000
585.6760, 1603.000
586.8480, 1559.000
588.0200, 1566.000
589.1920, 1493.000
590.3630, 1482.000
591.5350, 1465.000
592.7060, 1491.000
593.8770, 1434.000
595.0480, 1495.000
596.2190, 1485.000
597.3900, 1464.000
598.5600, 1517.000
599.7310, 1496.000
600.9010, 1524.000
602.0710, 1569.000
603.2410, 1536.000
604.4100, 1539.000
605.5800, 1572.000
606.7490, 1560.000
607.9190, 1546.000
609.0880, 1491.000
610.2570, 1439.000
611.4250, 1436.000
612.5940, 1414.000
613.7620, 1370.000
614.9310, 1370.000
616.0990, 1342.976
617.2670, 1351.000
618.4340, 1316.000
619.6020, 1348.000
620.7690, 1349.000
621.9370, 1289.000
623.1040, 1299.000
624.2710, 1275.000
625.4380, 1246.000
626.6040, 1240.000
627.7710, 1230.000
628.9370, 1214.000
630.1030, 1203.638
631.2690, 1207.000
632.4350, 1188.000
633.6010, 1192.000
634.7660, 1212.000
635.9320, 1220.000
637.0970, 1179.000
638.2620, 1195.000
639.4270, 1162.000
640.5920, 1172.000
641.7560, 1172.000
642.9210, 1166.000
644.0850, 1167.000
645.2490, 1162.000
646.4130, 1156.000
647.5770, 1181.000
648.7400, 1133.000
649.9040, 1171.000
651.0670, 1208.000
652.2300, 1127.000
653.3930, 1159.000
654.5560, 1178.000
655.7190, 1180.000
656.8810, 1177.000
658.0440, 1180.000
659.2060, 1178.000
660.3680, 1178.000
661.5300, 1160.000
662.6910, 1202.000
663.8530, 1172.000
665.0140, 1204.000
666.1750, 1176.000
667.3360, 1206.000
668.4970, 1202.000
669.6580, 1201.000
670.8190, 1183.000
671.9790, 1182.000
673.1390, 1225.000
674.2990, 1208.000
675.4590, 1221.000
676.6190, 1177.000
677.7790, 1215.000
678.9380, 1210.000
680.0970, 1239.000
681.2570, 1230.000
682.4160, 1279.000
683.5740, 1269.000
684.7330, 1270.000
685.8920, 1256.000
687.0500, 1293.000
688.2080, 1246.000
689.3660, 1288.000
690.5240, 1273.000
691.6820, 1285.000
692.8390, 1256.000
693.9960, 1321.000
695.1540, 1280.000
696.3110, 1258.000
697.4680, 1359.000
698.6240, 1342.000
699.7810, 1363.000
700.9370, 1356.000
702.0940, 1318.000
703.2500, 1348.000
704.4060, 1329.000
705.5610, 1372.000
706.7170, 1348.000
707.8720, 1373.000
709.0280, 1367.000
710.1830, 1355.000
711.3380, 1381.000
712.4920, 1435.000
713.6470, 1355.000
714.8020, 1397.000
715.9560, 1426.000
717.1100, 1390.000
718.2640, 1418.000
719.4180, 1418.000
720.5720, 1443.000
721.7250, 1458.000
722.8780, 1434.000
724.0320, 1460.000
725.1850, 1445.000
726.3380, 1438.000
727.4900, 1423.000
728.6430, 1430.166
729.7950, 1470.000
730.9470, 1453.000
732.1000, 1483.000
733.2510, 1508.000
734.4030, 1508.000
735.5550, 1533.000
736.7060, 1521.000
737.8570, 1519.000
739.0090, 1526.000
740.1600, 1527.264
741.3100, 1575.000
742.4610, 1544.000
743.6110, 1594.000
744.7620, 1606.000
745.9120, 1577.000
747.0620, 1616.000
748.2120, 1640.000
749.3610, 1655.000
750.5110, 1667.000
751.6600, 1702.000
752.8090, 1695.000
753.9580, 1709.000
755.1070, 1706.000
756.2560, 1775.000
757.4050, 1776.000
758.5530, 1811.000
759.7010, 1766.000
760.8490, 1842.000
761.9970, 1844.000
763.1450, 1896.000
764.2920, 1900.000
765.4400, 1933.000
766.5870, 1962.373
767.7340, 1995.000
768.8810, 2024.000
770.0280, 2042.000
771.1740, 2087.000
772.3210, 2068.000
773.4670, 2094.000
774.6130, 2079.000
775.7590, 2152.000
776.9050, 2202.000
778.0510, 2229.000
779.1960, 2253.000
780.3420, 2314.000
781.4870, 2359.425
782.6320, 2400.000
783.7770, 2484.000
784.9210, 2578.000
786.0660, 2649.331
787.2100, 2656.000
788.3540, 2804.000
789.4980, 2828.000
790.6420, 2947.000
791.7860, 3028.000
792.9300, 3225.000
794.0730, 3370.000
795.2160, 3554.000
796.3590, 3706.000
797.5020, 3989.000
798.6450, 4264.000
799.7880, 4622.000
800.9300, 4925.000
802.0720, 5428.000
803.2150, 5875.000
804.3560, 6447.000
805.4980, 7268.000
806.6400, 8143.000
807.7810, 9306.000
808.9230, 10799.00
810.0640, 12508.00
811.2050, 14993.00
812.3460, 17820.00
813.4860, 21644.00
814.6270, 25854.00
815.7670, 30758.00
816.9070, 35985.00
818.0470, 40842.00
819.1870, 44944.00
820.3270, 46985.00
821.4670, 47031.00
822.6060, 44584.00
823.7450, 40560.00
824.8840, 35435.00
826.0230, 30706.00
827.1620, 26480.00
828.3010, 22685.00
829.4390, 19884.00
830.5770, 17450.00
831.7150, 15810.00
832.8530, 14486.00
833.9910, 13496.00
835.1290, 12796.00
836.2660, 12190.00
837.4030, 12058.00
838.5410, 11653.00
839.6780, 11927.00
840.8140, 12142.00
841.9510, 13013.00
843.0870, 13731.00
844.2240, 14693.00
845.3600, 16240.00
846.4960, 17733.00
847.6320, 19463.00
848.7680, 21192.00
849.9030, 22626.00
851.0380, 23784.00
852.1740, 24055.00
853.3090, 23908.00
854.4440, 22453.00
855.5780, 20579.00
856.7130, 18662.00
857.8470, 16449.00
858.9820, 14544.00
860.1160, 12463.00
861.2500, 10993.00
862.3830, 9612.000
863.5170, 8492.000
864.6500, 7597.000
865.7840, 6720.000
866.9170, 6127.000
868.0500, 5418.000
869.1830, 4969.000
870.3150, 4610.000
871.4480, 4300.000
872.5800, 3991.000
873.7120, 3757.362
874.8440, 3545.000
875.9760, 3374.000
877.1080, 3237.000
878.2390, 3118.000
879.3710, 3020.000
880.5020, 2896.000
881.6330, 2817.000
882.7640, 2745.000
883.8940, 2612.000
885.0250, 2554.000
886.1550, 2462.000
887.2850, 2388.000
888.4160, 2344.000
889.5450, 2329.000
890.6750, 2249.000
891.8050, 2208.000
892.9340, 2142.000
894.0630, 2123.934
895.1930, 2145.000
896.3220, 2122.000
897.4500, 2137.000
898.5790, 2183.000
899.7070, 2176.000
900.8360, 2161.000
901.9640, 2179.000
903.0920, 2167.000
904.2200, 2209.000
905.3470, 2194.000
906.4750, 2241.000
907.6020, 2303.000
908.7290, 2388.128
909.8560, 2566.000
910.9830, 2663.000
912.1100, 2868.000
913.2360, 3104.000
914.3630, 3277.000
915.4890, 3413.000
916.6150, 3459.000
917.7410, 3419.000
918.8670, 3276.000
919.9920, 3193.000
921.1180, 2921.000
922.2430, 2708.000
923.3680, 2544.000
924.4930, 2401.000
925.6180, 2344.000
926.7420, 2320.000
927.8670, 2216.000
928.9910, 2230.000
930.1150, 2236.000
931.2390, 2239.000
932.3630, 2270.000
933.4860, 2246.000
934.6100, 2334.000
935.7330, 2282.000
936.8560, 2344.000
937.9790, 2401.000
939.1020, 2432.000
940.2250, 2518.000
941.3470, 2602.000
942.4700, 2610.000
943.5920, 2749.000
944.7140, 2872.000
945.8360, 3016.000
946.9570, 3058.000
948.0790, 3160.000
949.2000, 3326.000
950.3220, 3464.000
951.4430, 3500.000
952.5640, 3752.000
953.6840, 3851.000
954.8050, 3907.000
955.9250, 3878.000
957.0460, 3901.000
958.1660, 3898.000
959.2860, 3805.000
960.4050, 3735.000
961.5250, 3668.000
962.6440, 3528.000
963.7640, 3476.000
964.8830, 3332.000
966.0020, 3232.000
967.1210, 3023.000
968.2390, 2986.000
969.3580, 2813.000
970.4760, 2785.000
971.5940, 2622.000
972.7120, 2475.000
973.8300, 2450.000
974.9480, 2383.000
976.0650, 2323.000
977.1830, 2273.201
978.3000, 2158.000
979.4170, 2159.000
980.5340, 2098.000
981.6500, 2049.000
982.7670, 2050.000
983.8830, 2024.000
985.0000, 1983.000
986.1160, 1993.000
987.2320, 1935.000
988.3470, 1963.000
989.4630, 1948.000
990.5780, 1957.000
991.6940, 1929.000
992.8090, 1881.000
993.9240, 1933.000
995.0380, 1917.000
996.1530, 1888.000
997.2680, 1849.000
998.3820, 1875.000
999.4960, 1869.000
1000.610, 1852.000
1001.724, 1842.000
1002.837, 1828.000
1003.951, 1819.161
1005.064, 1830.000
1006.177, 1813.000
1007.291, 1778.000
1008.403, 1793.000
1009.516, 1777.279
1010.629, 1799.000
1011.741, 1778.000
1012.853, 1810.000
1013.965, 1818.000
1015.077, 1841.000
1016.189, 1797.000
1017.300, 1840.000
1018.412, 1826.000
1019.523, 1800.000
1020.634, 1810.000
1021.745, 1791.000
1022.856, 1804.000
1023.966, 1833.000
1025.077, 1824.000
1026.187, 1820.000
1027.297, 1831.162
1028.407, 1832.000
1029.517, 1828.000
1030.627, 1840.000
1031.736, 1820.000
1032.845, 1870.000
1033.955, 1840.000
1035.064, 1858.000
1036.172, 1879.000
1037.281, 1817.000
1038.390, 1780.000
1039.498, 1836.000
1040.606, 1793.000
1041.714, 1755.000
1042.822, 1788.000
1043.930, 1765.000
1045.037, 1833.000
1046.145, 1834.000
1047.252, 1814.000
1048.359, 1870.000
1049.466, 1793.000
1050.573, 1849.000
1051.679, 1816.000
1052.786, 1790.000
1053.892, 1790.000
1054.998, 1774.000
1056.104, 1745.000
1057.210, 1824.000
1058.315, 1779.000
1059.421, 1764.000
1060.526, 1824.000
1061.631, 1779.000
1062.736, 1782.000
1063.841, 1782.000
1064.946, 1772.000
1066.050, 1783.000
1067.154, 1807.000
1068.258, 1783.000
1069.362, 1845.000
1070.466, 1791.000
1071.570, 1796.000
1072.674, 1816.000
1073.777, 1816.000
1074.880, 1800.000
1075.983, 1778.000
1077.086, 1770.000
1078.189, 1778.817
1079.291, 1845.000
1080.394, 1808.000
1081.496, 1824.000
1082.598, 1833.000
1083.700, 1780.000
1084.802, 1814.000
1085.903, 1835.000
1087.005, 1774.000
1088.106, 1873.000
1089.207, 1811.000
1090.308, 1825.000
1091.409, 1837.000
1092.509, 1820.000
1093.610, 1835.254
1094.710, 1814.000
1095.810, 1826.000
1096.910, 1827.000
1098.010, 1784.000
1099.110, 1789.000
1100.209, 1808.000
1101.309, 1829.000
1102.408, 1830.000
1103.507, 1830.000
1104.606, 1868.000
1105.704, 1822.000
1106.803, 1817.000
1107.901, 1887.000
1108.999, 1823.000
1110.097, 1838.000
1111.195, 1832.000
1112.293, 1801.000
1113.391, 1811.000
1114.488, 1835.000
1115.585, 1855.000
1116.682, 1840.000
1117.779, 1851.000
1118.876, 1867.000
1119.973, 1792.000
1121.069, 1804.000
1122.165, 1803.000
1123.261, 1837.000
1124.357, 1880.000
1125.453, 1807.000
1126.549, 1854.000
1127.644, 1827.000
1128.739, 1816.000
1129.835, 1831.000
1130.930, 1800.000
1132.024, 1822.000
1133.119, 1870.000
1134.214, 1861.000
1135.308, 1875.000
1136.402, 1824.000
1137.496, 1786.000
1138.590, 1895.000
1139.684, 1833.000
1140.777, 1867.000
1141.871, 1881.000
1142.964, 1848.000
1144.057, 1837.000
1145.150, 1883.000
1146.243, 1851.000
1147.335, 1893.000
1148.428, 1855.000
1149.520, 1877.000
1150.612, 1814.000
1151.704, 1840.000
1152.796, 1874.000
1153.887, 1887.000
1154.979, 1882.000
1156.070, 1889.000
1157.161, 1864.000
1158.252, 1877.000
1159.343, 1831.000
1160.433, 1866.000
1161.524, 1890.000
1162.614, 1827.000
1163.704, 1854.000
1164.794, 1881.000
1165.884, 1853.000
1166.974, 1884.000
1168.063, 1860.000
1169.153, 1834.000
1170.242, 1909.000
1171.331, 1875.000
1172.420, 1883.000
1173.508, 1889.000
1174.597, 1802.000
1175.685, 1812.000
1176.774, 1876.000
1177.862, 1780.000
1178.950, 1809.000
1180.037, 1808.000
1181.125, 1868.000
1182.212, 1797.000
1183.300, 1806.000
1184.387, 1855.000
1185.474, 1828.000
1186.560, 1869.000
1187.647, 1867.000
1188.733, 1839.000
1189.820, 1814.000
1190.906, 1804.000
1191.992, 1866.000
1193.078, 1827.000
1194.163, 1880.000
1195.249, 1839.000
1196.334, 1816.000
1197.419, 1898.000
1198.504, 1905.000
1199.589, 1904.000
1200.674, 1862.000
1201.758, 1869.000
1202.843, 1905.000
1203.927, 1845.000
1205.011, 1913.000
1206.095, 1855.000
1207.179, 1859.000
1208.262, 1855.000
1209.345, 1850.000
1210.429, 1883.000
1211.512, 1878.000
1212.595, 1879.000
1213.677, 1872.000
1214.760, 1877.246
1215.842, 1870.000
1216.925, 1878.000
1218.007, 1867.000
1219.089, 1847.000
1220.171, 1907.000
1221.252, 1887.000
1222.334, 1858.000
1223.415, 1881.000
1224.496, 1834.000
1225.577, 1873.000
1226.658, 1833.000
1227.738, 1846.000
1228.819, 1856.000
1229.899, 1835.000
1230.979, 1814.000
1232.060, 1849.000
1233.139, 1846.000
1234.219, 1865.000
1235.299, 1847.000
1236.378, 1868.000
1237.457, 1867.000
1238.536, 1862.000
1239.615, 1872.000
1240.694, 1830.000
1241.772, 1786.000
1242.851, 1810.000
1243.929, 1802.000
1245.007, 1841.000
1246.085, 1803.000
1247.163, 1836.000
1248.240, 1806.000
1249.318, 1838.000
1250.395, 1810.000
1251.472, 1769.000
1252.549, 1794.000
1253.626, 1759.000
1254.703, 1815.000
1255.779, 1785.000
1256.855, 1776.000
1257.931, 1770.000
1259.007, 1752.876
1260.083, 1762.000
1261.159, 1741.000
1262.234, 1759.000
1263.310, 1773.000
1264.385, 1727.000
1265.460, 1787.000
1266.535, 1805.000
1267.610, 1747.000
1268.684, 1776.000
1269.758, 1758.000
1270.833, 1792.000
1271.907, 1765.000
1272.981, 1744.000
1274.054, 1775.000
1275.128, 1778.000
1276.201, 1742.000
1277.275, 1729.000
1278.348, 1744.000
1279.421, 1763.000
1280.493, 1748.000
1281.566, 1744.000
1282.638, 1739.000
1283.711, 1708.000
1284.783, 1702.231
1285.855, 1664.000
1286.927, 1708.000
1287.998, 1716.000
1289.070, 1801.000
1290.141, 1723.000
1291.212, 1725.000
1292.283, 1672.000
1293.354, 1720.000
1294.425, 1700.000
1295.495, 1735.000
1296.566, 1744.839
1297.636, 1771.000
1298.706, 1748.000
1299.776, 1760.000
1300.845, 1720.000
1301.915, 1719.000
1302.984, 1716.000
1304.054, 1757.000
1305.123, 1732.000
1306.191, 1748.000
1307.260, 1726.000
1308.329, 1735.000
1309.397, 1763.000
1310.465, 1736.000
