##NAMES=Forsterite
##RRUFFID=R060551
##IDEAL CHEMISTRY=Mg_2_SiO_4_
##LOCALITY=Kohiston, Pakistan
##OWNER=RRUFF
##SOURCE=Gemological Institute of America
##DESCRIPTION=Pale green fragment
##STATUS=The identification of this mineral has been confirmed by X-ray diffraction and chemical analysis
##URL=rruff.info/R060551
##MEASURED CHEMISTRY=(Mg_1.82_Fe_0.18_)_Î£=2_Si_1.00_O_4_; trace amounts of Mn
##PIN_ID=M01244
##ORIENTATION=Laser parallel to b* (0 1 0). Fiducial mark perpendicular to laser is parallel to c [0 0 1]
62.89900, 239.0000
64.14700, 281.0000
65.39500, 313.0000
66.64300, 337.0000
67.89000, 355.0000
69.13800, 426.0000
70.38500, 507.0000
71.63200, 596.0000
72.87900, 754.0000
74.12500, 835.0000
75.37200, 1035.000
76.61800, 1243.000
77.86400, 1395.000
79.10900, 1582.000
80.35500, 1833.000
81.60000, 2116.000
82.84600, 2407.000
84.09100, 2788.000
85.33500, 3039.000
86.58000, 3502.000
87.82400, 3681.000
89.06900, 4137.000
90.31300, 4342.000
91.55600, 4624.000
92.80000, 4927.000
94.04300, 5196.000
95.28700, 5407.000
96.53000, 5696.000
97.77300, 5813.000
99.01500, 6066.000
100.2580, 6098.000
101.5000, 6256.000
102.7420, 6461.000
103.9840, 6454.000
105.2260, 6628.000
106.4670, 6763.000
107.7080, 6882.000
108.9490, 6905.000
110.1900, 7023.000
111.4310, 7060.000
112.6720, 7079.000
113.9120, 7145.000
115.1520, 7181.000
116.3920, 7290.000
117.6320, 7230.000
118.8710, 7324.000
120.1110, 7343.000
121.3500, 7301.000
122.5890, 7434.000
123.8270, 7396.000
125.0660, 7383.000
126.3040, 7440.000
127.5430, 7532.000
128.7810, 7614.000
130.0180, 7510.000
131.2560, 7530.000
132.4940, 7551.000
133.7310, 7551.000
134.9680, 7570.339
136.2050, 7653.000
137.4410, 7627.000
138.6780, 7703.000
139.9140, 7808.000
141.1500, 7845.000
142.3860, 7853.000
143.6220, 7830.000
144.8570, 7883.062
146.0920, 7903.521
147.3280, 7988.000
148.5620, 7978.000
149.7970, 8090.000
151.0320, 8105.000
152.2660, 8112.000
153.5000, 8185.364
154.7340, 8124.000
155.9680, 8252.000
157.2020, 8199.000
158.4350, 8172.000
159.6680, 8118.000
160.9010, 8265.000
162.1340, 8283.000
163.3670, 8206.000
164.5990, 8270.000
165.8310, 8224.000
167.0630, 8295.000
168.2950, 8223.000
169.5270, 8329.000
170.7580, 8355.000
171.9900, 8307.000
173.2210, 8347.578
174.4510, 8178.000
175.6820, 8269.000
176.9130, 8231.000
178.1430, 8071.000
179.3730, 8167.000
180.6030, 8270.000
181.8330, 8113.000
183.0620, 8204.000
184.2920, 8250.000
185.5210, 8359.000
186.7500, 8389.000
187.9790, 8291.000
189.2070, 8483.000
190.4360, 8533.000
191.6640, 8388.000
192.8920, 8500.000
194.1200, 8517.000
195.3480, 8639.000
196.5750, 8619.000
197.8020, 8613.000
199.0290, 8622.000
200.2560, 8655.521
201.4830, 8685.991
202.7090, 8768.000
203.9360, 8789.000
205.1620, 8875.000
206.3880, 8947.930
207.6140, 9093.000
208.8390, 9173.000
210.0650, 9375.000
211.2900, 9527.000
212.5150, 9687.000
213.7400, 9964.000
214.9640, 10229.00
216.1890, 10524.00
217.4130, 10869.00
218.6370, 11262.00
219.8610, 11406.00
221.0850, 11606.00
222.3080, 11723.00
223.5310, 11737.00
224.7540, 11701.00
225.9770, 11572.70
227.2000, 11323.00
228.4230, 11125.00
229.6450, 10744.00
230.8670, 10399.00
232.0890, 10166.00
233.3110, 9992.000
234.5320, 9877.000
235.7540, 9736.000
236.9750, 9596.000
238.1960, 9484.000
239.4170, 9303.000
240.6380, 9140.000
241.8580, 9091.000
243.0780, 9104.000
244.2990, 8902.000
245.5180, 8916.000
246.7380, 8934.000
247.9580, 8818.000
249.1770, 8809.000
250.3960, 8816.000
251.6150, 8781.000
252.8340, 8736.000
254.0530, 8833.000
255.2710, 8745.000
256.4890, 8600.000
257.7070, 8777.000
258.9250, 8716.000
260.1430, 8724.000
261.3600, 8822.000
262.5770, 8674.000
263.7950, 8755.000
265.0110, 8847.000
266.2280, 8801.000
267.4450, 8820.000
268.6610, 8821.000
269.8770, 8872.000
271.0930, 8958.000
272.3090, 8869.000
273.5250, 9009.000
274.7400, 9048.000
275.9550, 8893.000
277.1700, 9103.000
278.3850, 8963.000
279.6000, 9067.000
280.8140, 9174.000
282.0290, 9128.000
283.2430, 9242.000
284.4570, 9244.000
285.6700, 9318.000
286.8840, 9348.000
288.0970, 9470.931
289.3100, 9638.000
290.5230, 9786.000
291.7360, 10017.00
292.9490, 10271.07
294.1610, 10554.98
295.3740, 10875.00
296.5860, 11251.00
297.7970, 11711.00
299.0090, 12161.00
300.2210, 12733.00
301.4320, 13322.00
302.6430, 13741.00
303.8540, 13812.00
305.0650, 13571.00
306.2750, 13225.00
307.4860, 12658.00
308.6960, 12097.00
309.9060, 11555.00
311.1160, 11236.00
312.3260, 11023.00
313.5350, 10818.00
314.7440, 10695.00
315.9530, 10739.00
317.1620, 10773.00
318.3710, 10677.00
319.5800, 10993.00
320.7880, 11034.00
321.9960, 11133.00
323.2040, 11347.00
324.4120, 11663.00
325.6200, 11618.00
326.8270, 11807.00
328.0340, 11822.00
329.2410, 11767.00
330.4480, 11637.00
331.6550, 11682.00
332.8610, 11600.00
334.0680, 11661.00
335.2740, 11838.00
336.4800, 12027.00
337.6860, 11896.00
338.8910, 11973.00
340.0970, 12010.00
341.3020, 11712.00
342.5070, 11551.00
343.7120, 11367.00
344.9170, 11189.00
346.1210, 10924.00
347.3250, 10640.00
348.5290, 10593.00
349.7330, 10375.00
350.9370, 10303.00
352.1410, 10165.00
353.3440, 10092.00
354.5470, 10046.00
355.7500, 10086.00
356.9530, 9929.000
358.1560, 9965.000
359.3580, 9973.000
360.5610, 9932.000
361.7630, 9898.000
362.9650, 9976.000
364.1660, 9819.000
365.3680, 9926.000
366.5690, 9963.000
367.7710, 9984.000
368.9720, 10109.00
370.1720, 9996.000
371.3730, 9946.000
372.5740, 10010.00
373.7740, 10107.00
374.9740, 10016.71
376.1740, 9950.000
377.3740, 9895.000
378.5730, 9874.000
379.7730, 9811.000
380.9720, 9761.000
382.1710, 9833.000
383.3700, 9695.000
384.5680, 9765.000
385.7670, 9778.000
386.9650, 9858.000
388.1630, 9798.000
389.3610, 9797.000
390.5590, 9752.000
391.7560, 9752.121
392.9540, 9831.000
394.1510, 9766.000
395.3480, 9805.000
396.5450, 9829.000
397.7420, 9718.000
398.9380, 9701.000
400.1340, 9730.459
401.3300, 9756.000
402.5260, 9827.000
403.7220, 9859.000
404.9180, 9955.000
406.1130, 9962.000
407.3080, 9987.000
408.5030, 10182.00
409.6980, 10129.00
410.8930, 10221.00
412.0870, 10450.00
413.2820, 10460.00
414.4760, 10605.00
415.6700, 10812.00
416.8630, 10848.00
418.0570, 10954.00
419.2500, 10860.00
420.4440, 10846.00
421.6370, 10919.00
422.8290, 10651.00
424.0220, 10797.00
425.2150, 10636.00
426.4070, 10596.00
427.5990, 10536.00
428.7910, 10689.00
429.9830, 10745.00
431.1740, 10634.00
432.3660, 10662.00
433.5570, 10683.00
434.7480, 10594.00
435.9390, 10675.00
437.1300, 10820.00
438.3200, 10558.00
439.5110, 10733.00
440.7010, 10599.00
441.8910, 10677.00
443.0810, 10508.00
444.2700, 10562.00
445.4600, 10450.00
446.6490, 10505.00
447.8380, 10458.00
449.0270, 10356.00
450.2160, 10303.00
451.4040, 10287.22
452.5930, 10358.00
453.7810, 10282.00
454.9690, 10373.00
456.1570, 10389.00
457.3440, 10448.00
458.5320, 10359.00
459.7190, 10450.00
460.9060, 10457.00
462.0930, 10515.00
463.2800, 10349.00
464.4660, 10465.00
465.6530, 10452.00
466.8390, 10584.00
468.0250, 10499.00
469.2110, 10631.00
470.3970, 10550.00
471.5820, 10607.00
472.7680, 10696.00
473.9530, 10662.00
475.1380, 10705.81
476.3230, 10798.00
477.5070, 10683.00
478.6920, 10724.00
479.8760, 10653.00
481.0600, 10763.00
482.2440, 10617.00
483.4280, 10691.00
484.6110, 10691.00
485.7950, 10614.00
486.9780, 10788.00
488.1610, 10683.00
489.3440, 10708.00
490.5260, 10704.00
491.7090, 10817.00
492.8910, 10780.00
494.0730, 10752.00
495.2550, 10766.00
496.4370, 10696.00
497.6190, 10900.00
498.8000, 10641.00
499.9810, 10817.00
501.1620, 10716.00
502.3430, 10865.00
503.5240, 10705.00
504.7050, 10840.00
505.8850, 10843.00
507.0650, 11019.00
508.2450, 10894.00
509.4250, 10970.00
510.6050, 10857.00
511.7840, 11020.00
512.9630, 11051.00
514.1430, 11042.00
515.3220, 11033.00
516.5000, 11089.00
517.6790, 11110.00
518.8570, 11118.00
520.0360, 11192.00
521.2140, 11284.00
522.3920, 11253.00
523.5690, 11317.19
524.7470, 11424.00
525.9240, 11381.00
527.1010, 11492.33
528.2780, 11417.00
529.4550, 11628.00
530.6320, 11691.00
531.8080, 11746.00
532.9850, 11923.00
534.1610, 12062.00
535.3370, 12375.00
536.5130, 12467.00
537.6880, 12919.00
538.8640, 13118.00
540.0390, 13614.00
541.2140, 14089.00
542.3890, 14500.00
543.5640, 14321.00
544.7380, 14380.00
545.9130, 13961.00
547.0870, 13526.00
548.2610, 13056.00
549.4350, 12713.10
550.6090, 12390.63
551.7820, 12075.00
552.9550, 11933.00
554.1290, 11762.00
555.3020, 11711.00
556.4740, 11612.82
557.6470, 11559.00
558.8200, 11525.00
559.9920, 11468.00
561.1640, 11468.00
562.3360, 11424.00
563.5080, 11490.00
564.6790, 11547.00
565.8510, 11407.00
567.0220, 11516.00
568.1930, 11560.00
569.3640, 11617.00
570.5350, 11566.00
571.7050, 11595.00
572.8760, 11701.00
574.0460, 11822.00
575.2160, 11849.23
576.3860, 11942.47
577.5550, 11967.00
578.7250, 12058.00
579.8940, 12165.00
581.0630, 12217.00
582.2320, 12360.00
583.4010, 12319.00
584.5700, 12477.00
585.7380, 12477.00
586.9070, 12613.00
588.0750, 12803.00
589.2430, 12437.00
590.4110, 12682.00
591.5780, 12385.00
592.7460, 12406.00
593.9130, 12329.00
595.0800, 12256.00
596.2470, 12232.00
597.4140, 12250.74
598.5800, 12273.24
599.7470, 12392.00
600.9130, 12433.00
602.0790, 12592.00
603.2450, 12763.00
604.4100, 12926.00
605.5760, 12888.00
606.7410, 13041.00
607.9070, 12944.00
609.0720, 13071.00
610.2360, 13152.00
611.4010, 13271.00
612.5660, 13003.00
613.7300, 12810.00
614.8940, 12780.00
616.0580, 12664.00
617.2220, 12674.00
618.3860, 12477.00
619.5490, 12378.00
620.7120, 12357.00
621.8750, 12263.00
623.0380, 12275.70
624.2010, 12327.00
625.3640, 12318.00
626.5260, 12246.00
627.6880, 12282.00
628.8510, 12200.00
630.0120, 12181.00
631.1740, 12145.00
632.3360, 12156.00
633.4970, 12136.00
634.6580, 12146.00
635.8200, 12076.00
636.9800, 12089.26
638.1410, 12090.83
639.3020, 12080.00
640.4620, 12134.00
641.6220, 12140.00
642.7820, 12190.00
643.9420, 12230.00
645.1020, 12208.00
646.2610, 12219.00
647.4210, 12138.00
648.5800, 12118.00
649.7390, 12186.00
650.8980, 12302.00
652.0570, 12259.00
653.2150, 12286.00
654.3730, 12148.00
655.5320, 12129.00
656.6900, 12175.00
657.8470, 12295.00
659.0050, 12381.00
660.1620, 12252.00
661.3200, 12418.00
662.4770, 12474.00
663.6340, 12308.00
664.7910, 12260.00
665.9470, 12376.00
667.1040, 12190.00
668.2600, 12170.00
669.4160, 12413.00
670.5720, 12403.00
671.7280, 12279.00
672.8840, 12317.00
674.0390, 12533.00
675.1940, 12474.00
676.3490, 12424.00
677.5040, 12336.00
678.6590, 12354.39
679.8140, 12552.00
680.9680, 12404.00
682.1220, 12496.00
683.2760, 12565.00
684.4300, 12489.00
685.5840, 12655.00
686.7380, 12551.00
687.8910, 12596.00
689.0440, 12721.00
690.1970, 12546.00
691.3500, 12612.00
692.5030, 12581.00
693.6560, 12561.00
694.8080, 12619.00
695.9600, 12717.00
697.1120, 12683.36
698.2640, 12764.00
699.4160, 12710.00
700.5670, 12642.00
701.7190, 12726.00
702.8700, 12808.00
704.0210, 12921.00
705.1720, 12909.00
706.3230, 12891.00
707.4730, 12919.00
708.6240, 12959.00
709.7740, 13098.00
710.9240, 12895.00
712.0740, 12944.00
713.2230, 12883.00
714.3730, 13104.00
715.5220, 13000.00
716.6720, 13128.00
717.8210, 13031.00
718.9690, 13063.00
720.1180, 13085.00
721.2670, 13098.00
722.4150, 13125.00
723.5630, 13179.00
724.7110, 13302.00
725.8590, 13129.00
727.0070, 13110.00
728.1540, 13242.00
729.3020, 13342.00
730.4490, 13337.00
731.5960, 13356.00
732.7430, 13425.00
733.8890, 13440.00
735.0360, 13522.42
736.1820, 13544.77
737.3280, 13642.00
738.4740, 13607.00
739.6200, 13567.00
740.7660, 13596.00
741.9120, 13678.00
743.0570, 13664.00
744.2020, 13733.00
745.3470, 13693.00
746.4920, 13702.00
747.6370, 13665.00
748.7810, 13887.00
749.9250, 13861.00
751.0700, 13930.00
752.2140, 14002.90
753.3580, 14013.55
754.5010, 14081.00
755.6450, 14049.00
756.7880, 14087.00
757.9310, 14025.00
759.0740, 14128.00
760.2170, 14176.00
761.3600, 14142.00
762.5020, 14256.17
763.6450, 14325.00
764.7870, 14449.00
765.9290, 14405.00
767.0710, 14588.00
768.2120, 14605.00
769.3540, 14577.00
770.4950, 14628.00
771.6370, 14621.60
772.7780, 14645.00
773.9180, 14650.00
775.0590, 14723.00
776.2000, 14758.00
777.3400, 14804.00
778.4800, 14783.00
779.6200, 14830.00
780.7600, 14928.00
781.9000, 14967.00
783.0390, 14880.00
784.1790, 14954.00
785.3180, 15168.00
786.4570, 15119.00
787.5960, 15276.00
788.7350, 15255.00
789.8730, 15377.00
791.0120, 15585.00
792.1500, 15538.00
793.2880, 15721.00
794.4260, 15941.00
795.5630, 15982.00
796.7010, 16233.00
797.8380, 16181.00
798.9760, 16389.00
800.1130, 16504.00
801.2500, 16919.00
802.3860, 17123.00
803.5230, 17456.00
804.6590, 17808.00
805.7960, 18255.00
806.9320, 18857.00
808.0680, 19419.00
809.2030, 20130.00
810.3390, 21093.00
811.4740, 22196.00
812.6100, 23814.00
813.7450, 25461.00
814.8800, 27842.00
816.0140, 30646.00
817.1490, 34356.00
818.2830, 38908.00
819.4180, 44320.00
820.5520, 49950.00
821.6860, 56254.00
822.8200, 61077.00
823.9530, 63821.00
825.0870, 63327.00
826.2200, 60302.00
827.3530, 56001.00
828.4860, 51044.00
829.6190, 46502.00
830.7510, 42782.00
831.8840, 39765.00
833.0160, 37929.00
834.1480, 36422.00
835.2800, 35383.00
836.4120, 35488.00
837.5440, 35697.00
838.6750, 36535.00
839.8070, 38243.00
840.9380, 39971.00
842.0690, 42765.00
843.2000, 46268.00
844.3300, 50591.00
845.4610, 56508.00
846.5910, 64082.00
847.7220, 73664.00
848.8520, 85262.00
849.9810, 99070.00
851.1110, 114426.0
852.2410, 130874.0
853.3700, 146764.0
854.4990, 159618.0
855.6280, 167152.0
856.7570, 166519.0
857.8860, 159758.0
859.0150, 145647.0
860.1430, 127859.0
861.2710, 110598.0
862.3990, 94267.00
863.5270, 80616.00
864.6550, 69207.00
865.7830, 59154.00
866.9100, 52199.00
868.0370, 45949.00
869.1640, 41276.00
870.2910, 37691.00
871.4180, 34782.00
872.5450, 32451.00
873.6710, 30660.00
874.7980, 29098.00
875.9240, 27935.00
877.0500, 27311.00
878.1760, 26772.00
879.3010, 26352.00
880.4270, 26060.00
881.5520, 25472.66
882.6770, 24933.34
883.8020, 24359.00
884.9270, 23556.00
886.0520, 22824.00
887.1760, 21907.00
888.3010, 20907.00
889.4250, 20503.00
890.5490, 19832.00
891.6730, 19163.00
892.7970, 19066.00
893.9200, 18619.00
895.0440, 18666.00
896.1670, 18327.00
897.2900, 18122.00
898.4130, 17940.00
899.5360, 17878.00
900.6580, 17758.00
901.7810, 17526.00
902.9030, 17486.00
904.0250, 17716.00
905.1470, 17547.00
906.2690, 17642.00
907.3910, 17378.00
908.5120, 17309.00
909.6330, 17569.00
910.7540, 17504.00
911.8750, 17955.00
912.9960, 17822.00
914.1170, 18078.00
915.2380, 18411.00
916.3580, 18777.00
917.4780, 19075.00
918.5980, 19157.47
919.7180, 19309.00
920.8380, 19052.00
921.9570, 18794.00
923.0770, 18352.00
924.1960, 18123.00
925.3150, 18064.00
926.4340, 17947.00
927.5530, 18106.00
928.6710, 17962.00
929.7900, 17908.00
930.9080, 17862.00
932.0260, 18263.00
933.1440, 18205.00
934.2620, 18532.00
935.3800, 18822.00
936.4970, 18772.00
937.6140, 19146.00
938.7320, 19300.00
939.8490, 19641.00
940.9660, 19876.00
942.0820, 20292.00
943.1990, 20848.00
944.3150, 21349.00
945.4310, 21826.00
946.5470, 22321.00
947.6630, 23182.00
948.7790, 23782.00
949.8950, 24771.00
951.0100, 25843.00
952.1250, 26920.00
953.2400, 28140.00
954.3550, 29723.00
955.4700, 31285.00
956.5850, 32207.00
957.6990, 33911.00
958.8140, 35045.00
959.9280, 36032.00
961.0420, 36571.00
962.1560, 36256.00
963.2690, 35551.00
964.3830, 34217.00
965.4960, 32905.00
966.6090, 31160.00
967.7230, 29528.00
968.8350, 27895.00
969.9480, 26175.00
971.0610, 24703.00
972.1730, 23257.00
973.2850, 22150.00
974.3980, 21175.00
975.5100, 20233.00
976.6210, 19513.00
977.7330, 18907.00
978.8440, 18558.00
979.9560, 18151.00
981.0670, 17808.00
982.1780, 17524.00
983.2890, 17200.00
984.3990, 16976.00
985.5100, 16835.00
986.6200, 16716.00
987.7310, 16689.00
988.8410, 16543.00
989.9510, 16343.00
991.0600, 16454.00
992.1700, 16574.00
993.2790, 16264.00
994.3890, 16321.00
995.4980, 16222.00
996.6070, 16089.00
997.7160, 16360.00
998.8240, 16137.00
999.9330, 16328.00
1001.041, 16193.00
1002.149, 16280.00
1003.257, 16231.00
1004.365, 16098.00
1005.473, 15977.00
1006.580, 15959.24
1007.688, 16001.00
1008.795, 15904.00
1009.902, 16025.00
1011.009, 16006.00
1012.116, 16064.00
1013.222, 16117.00
1014.329, 16089.42
1015.435, 16116.00
1016.541, 16064.00
1017.647, 16034.00
1018.753, 16028.00
1019.859, 16113.00
1020.964, 16011.00
1022.070, 16085.00
1023.175, 15930.00
1024.280, 16148.00
1025.385, 16195.00
1026.490, 16179.00
1027.594, 16151.00
1028.699, 16108.00
1029.803, 16198.00
1030.907, 16189.00
1032.011, 16308.00
1033.115, 16277.54
1034.219, 16324.00
1035.322, 16200.00
1036.426, 16315.00
1037.529, 16202.00
1038.632, 16189.00
1039.735, 16252.00
1040.837, 16236.00
1041.940, 16251.57
1043.042, 16232.00
1044.145, 16293.00
1045.247, 16155.00
1046.349, 16228.00
1047.451, 16151.00
1048.552, 16253.00
1049.654, 16283.00
1050.755, 16253.00
1051.856, 16235.00
1052.957, 16261.00
1054.058, 16248.00
1055.159, 16180.00
1056.259, 16219.00
1057.360, 16193.61
1058.460, 16125.00
1059.560, 16185.00
1060.660, 16307.00
1061.760, 16289.00
1062.860, 16326.00
1063.959, 16169.00
1065.058, 16243.00
1066.158, 16087.00
1067.257, 16224.00
1068.355, 16128.00
1069.454, 16267.00
1070.553, 16317.00
1071.651, 16358.00
1072.749, 16225.00
1073.847, 16269.00
1074.945, 16121.00
1076.043, 16118.42
1077.141, 16341.00
1078.238, 16169.00
1079.336, 16202.00
1080.433, 16428.00
1081.530, 16387.00
1082.627, 16319.00
1083.723, 16405.00
1084.820, 16237.00
1085.916, 16400.00
1087.013, 16560.00
1088.109, 16308.00
1089.205, 16443.00
1090.301, 16461.00
1091.396, 16472.00
1092.492, 16528.46
1093.587, 16527.36
1094.682, 16554.00
1095.777, 16551.00
1096.872, 16532.00
1097.967, 16541.00
1099.061, 16554.20
1100.156, 16530.85
1101.250, 16566.00
1102.344, 16522.00
1103.438, 16452.00
1104.532, 16495.00
1105.626, 16525.00
1106.719, 16647.00
1107.813, 16583.00
1108.906, 16611.00
1109.999, 16667.00
1111.092, 16538.00
1112.184, 16708.00
1113.277, 16568.00
1114.370, 16587.00
1115.462, 16699.00
1116.554, 16760.00
1117.646, 16700.00
1118.738, 16789.40
1119.829, 16664.00
1120.921, 16831.00
1122.012, 16730.00
1123.104, 16695.00
1124.195, 16869.00
1125.286, 16800.00
1126.376, 16535.00
1127.467, 16668.00
1128.557, 17049.00
1129.648, 16735.00
1130.738, 16811.00
1131.828, 16703.00
1132.918, 16654.00
1134.008, 16808.00
1135.097, 16867.00
1136.186, 16814.00
1137.276, 16910.00
1138.365, 16863.00
1139.454, 16865.00
1140.543, 16758.00
1141.631, 17053.00
1142.720, 16858.00
1143.808, 17099.00
1144.896, 16910.00
1145.984, 16983.00
1147.072, 17078.00
1148.160, 16938.00
1149.248, 17079.00
1150.335, 17006.00
1151.422, 17063.00
1152.509, 17328.00
1153.596, 17104.00
1154.683, 17183.00
1155.770, 17146.00
1156.857, 17096.00
1157.943, 17208.00
1159.029, 17292.00
1160.115, 17283.00
1161.201, 17186.00
1162.287, 17268.00
1163.373, 17219.00
1164.458, 17165.00
1165.543, 17150.00
1166.629, 17155.00
1167.714, 17232.00
1168.799, 17295.00
1169.883, 17278.00
1170.968, 17322.64
1172.052, 17363.73
1173.137, 17303.00
1174.221, 17387.00
1175.305, 17307.00
1176.389, 17167.00
1177.472, 17054.00
1178.556, 17037.67
1179.639, 17252.00
1180.722, 17130.00
1181.805, 17100.00
1182.888, 17388.00
1183.971, 17248.00
1185.054, 17095.00
1186.136, 17236.00
1187.219, 17210.00
1188.301, 17307.00
1189.383, 17304.74
1190.465, 17129.00
1191.547, 17230.00
1192.628, 17199.00
1193.710, 17040.00
1194.791, 17232.00
1195.872, 17246.00
1196.953, 17307.00
1198.034, 17180.00
1199.115, 17393.00
1200.195, 17180.00
1201.276, 17257.00
1202.356, 17396.00
1203.436, 17195.00
1204.516, 17407.00
1205.596, 17294.00
1206.675, 17467.00
1207.755, 17298.00
1208.834, 17276.00
1209.913, 17395.00
1210.992, 17398.00
1212.071, 17391.21
1213.150, 17402.00
1214.229, 17407.00
1215.307, 17454.00
1216.386, 17581.00
1217.464, 17479.00
1218.542, 17431.00
1219.620, 17607.00
1220.697, 17274.00
1221.775, 17506.00
1222.852, 17420.00
1223.930, 17496.00
1225.007, 17661.00
1226.084, 17578.00
1227.161, 17326.00
1228.237, 17699.00
1229.314, 17495.00
1230.390, 17613.00
1231.466, 17529.00
1232.543, 17537.00
1233.619, 17530.00
1234.694, 17481.00
1235.770, 17710.00
1236.845, 17574.00
1237.921, 17684.00
1238.996, 17456.00
1240.071, 17588.00
1241.146, 17620.00
1242.221, 17660.00
1243.295, 17689.94
1244.370, 17593.00
1245.444, 17701.00
1246.518, 17533.00
1247.592, 17551.00
