##NAMES=Forsterite
##RRUFFID=R060551
##IDEAL CHEMISTRY=Mg_2_SiO_4_
##LOCALITY=Kohiston, Pakistan
##OWNER=RRUFF
##SOURCE=Gemological Institute of America
##DESCRIPTION=Pale green fragment
##STATUS=The identification of this mineral has been confirmed by X-ray diffraction and chemical analysis
##URL=rruff.info/R060551
##MEASURED CHEMISTRY=(Mg_1.82_Fe_0.18_)_Î£=2_Si_1.00_O_4_; trace amounts of Mn
##PIN_ID=M00797
##ORIENTATION=Laser parallel to -c* (0 0 -1). Fiducial mark perpendicular to laser is parallel to a [1 0 0]
62.89900, 263.0000
64.14700, 266.0000
65.39500, 320.0000
66.64300, 346.0000
67.89000, 415.0000
69.13800, 519.0000
70.38500, 654.0000
71.63200, 731.0000
72.87900, 902.0000
74.12500, 1041.000
75.37200, 1330.000
76.61800, 1609.000
77.86400, 1856.000
79.10900, 2208.000
80.35500, 2549.000
81.60000, 2949.000
82.84600, 3429.000
84.09100, 4016.000
85.33500, 4508.000
86.58000, 4898.000
87.82400, 5341.000
89.06900, 5913.000
90.31300, 6354.000
91.55600, 6970.000
92.80000, 7297.000
94.04300, 7708.000
95.28700, 7845.000
96.53000, 8216.000
97.77300, 8544.000
99.01500, 8617.000
100.2580, 8755.000
101.5000, 9021.000
102.7420, 9252.000
103.9840, 9370.784
105.2260, 9583.000
106.4670, 9628.000
107.7080, 9791.000
108.9490, 9917.000
110.1900, 9936.000
111.4310, 9787.000
112.6720, 9974.000
113.9120, 10078.00
115.1520, 10103.00
116.3920, 10238.00
117.6320, 10052.00
118.8710, 10156.00
120.1110, 10269.00
121.3500, 9966.000
122.5890, 10327.00
123.8270, 10387.00
125.0660, 10453.00
126.3040, 10346.00
127.5430, 10300.00
128.7810, 10376.00
130.0180, 10354.85
131.2560, 10421.00
132.4940, 10447.00
133.7310, 10506.00
134.9680, 10547.00
136.2050, 10719.00
137.4410, 10664.00
138.6780, 10612.00
139.9140, 10813.00
141.1500, 10850.00
142.3860, 10863.00
143.6220, 10835.00
144.8570, 10876.00
146.0920, 10917.00
147.3280, 10943.00
148.5620, 10973.00
149.7970, 11148.00
151.0320, 11155.00
152.2660, 11174.00
153.5000, 11226.00
154.7340, 11167.00
155.9680, 11129.00
157.2020, 11234.00
158.4350, 11238.00
159.6680, 11278.00
160.9010, 11387.00
162.1340, 11410.00
163.3670, 11439.35
164.5990, 11488.00
165.8310, 11459.00
167.0630, 11432.00
168.2950, 11436.00
169.5270, 11524.00
170.7580, 11598.00
171.9900, 11552.00
173.2210, 11553.00
174.4510, 11588.00
175.6820, 11673.00
176.9130, 11690.00
178.1430, 11763.00
179.3730, 11588.00
180.6030, 11789.00
181.8330, 11681.00
183.0620, 11789.00
184.2920, 11815.00
185.5210, 11970.00
186.7500, 11878.30
187.9790, 11835.89
189.2070, 11748.00
190.4360, 11662.00
191.6640, 11687.00
192.8920, 11735.00
194.1200, 11605.00
195.3480, 11613.00
196.5750, 11707.00
197.8020, 11717.00
199.0290, 11701.00
200.2560, 11564.00
201.4830, 11791.00
202.7090, 11834.00
203.9360, 11883.00
205.1620, 11653.00
206.3880, 11813.00
207.6140, 11850.00
208.8390, 12018.00
210.0650, 12086.00
211.2900, 12249.00
212.5150, 12420.00
213.7400, 12624.00
214.9640, 12797.00
216.1890, 13044.00
217.4130, 13377.00
218.6370, 13577.00
219.8610, 13751.00
221.0850, 14049.00
222.3080, 14175.00
223.5310, 14264.00
224.7540, 14488.00
225.9770, 14316.00
227.2000, 14429.00
228.4230, 14402.00
229.6450, 14061.00
230.8670, 13945.00
232.0890, 13873.00
233.3110, 13764.00
234.5320, 13757.00
235.7540, 13495.00
236.9750, 13580.00
238.1960, 13445.00
239.4170, 13235.00
240.6380, 13292.00
241.8580, 12961.00
243.0780, 13055.00
244.2990, 12829.00
245.5180, 12713.00
246.7380, 12611.00
247.9580, 12492.58
249.1770, 12431.91
250.3960, 12374.00
251.6150, 12309.00
252.8340, 12326.00
254.0530, 12251.00
255.2710, 12243.00
256.4890, 12380.00
257.7070, 12353.00
258.9250, 12322.00
260.1430, 12205.00
261.3600, 12284.00
262.5770, 12380.00
263.7950, 12448.00
265.0110, 12366.00
266.2280, 12363.00
267.4450, 12376.00
268.6610, 12332.00
269.8770, 12382.00
271.0930, 12295.00
272.3090, 12323.76
273.5250, 12423.00
274.7400, 12409.00
275.9550, 12482.00
277.1700, 12497.95
278.3850, 12642.00
279.6000, 12548.00
280.8140, 12628.00
282.0290, 12705.00
283.2430, 12653.00
284.4570, 12852.00
285.6700, 12964.00
286.8840, 13059.00
288.0970, 13233.00
289.3100, 13394.00
290.5230, 13670.00
291.7360, 13864.00
292.9490, 14140.00
294.1610, 14735.00
295.3740, 15306.00
296.5860, 15723.00
297.7970, 16741.00
299.0090, 17368.00
300.2210, 18064.00
301.4320, 18850.00
302.6430, 19373.00
303.8540, 19564.00
305.0650, 19617.00
306.2750, 19367.00
307.4860, 18440.00
308.6960, 17823.00
309.9060, 17128.00
311.1160, 16689.00
312.3260, 16404.00
313.5350, 16146.00
314.7440, 16010.00
315.9530, 16064.00
317.1620, 16265.00
318.3710, 16246.00
319.5800, 16492.00
320.7880, 16653.00
321.9960, 16801.00
323.2040, 17143.00
324.4120, 17382.00
325.6200, 17380.00
326.8270, 17646.00
328.0340, 17504.00
329.2410, 17663.00
330.4480, 17241.00
331.6550, 16917.00
332.8610, 16613.00
334.0680, 16452.00
335.2740, 16325.00
336.4800, 16132.00
337.6860, 15908.00
338.8910, 15705.00
340.0970, 15605.00
341.3020, 15401.00
342.5070, 15008.00
343.7120, 14756.00
344.9170, 14395.00
346.1210, 14224.00
347.3250, 13988.00
348.5290, 13954.00
349.7330, 13804.00
350.9370, 13714.00
352.1410, 13616.00
353.3440, 13718.00
354.5470, 13552.00
355.7500, 13574.00
356.9530, 13445.00
358.1560, 13608.00
359.3580, 13447.00
360.5610, 13265.00
361.7630, 13371.00
362.9650, 13406.00
364.1660, 13271.00
365.3680, 13496.00
366.5690, 13307.00
367.7710, 13391.00
368.9720, 13320.00
370.1720, 13269.00
371.3730, 13424.00
372.5740, 13324.00
373.7740, 13553.00
374.9740, 13454.00
376.1740, 13621.00
377.3740, 13476.00
378.5730, 13529.00
379.7730, 13519.00
380.9720, 13458.00
382.1710, 13647.00
383.3700, 13498.00
384.5680, 13732.00
385.7670, 13554.00
386.9650, 13722.00
388.1630, 13625.00
389.3610, 13613.00
390.5590, 13742.00
391.7560, 13636.00
392.9540, 13619.00
394.1510, 13564.00
395.3480, 13757.00
396.5450, 13573.00
397.7420, 13866.00
398.9380, 13756.00
400.1340, 13972.00
401.3300, 13855.00
402.5260, 13894.00
403.7220, 13957.00
404.9180, 14167.00
406.1130, 14042.00
407.3080, 14458.00
408.5030, 14414.00
409.6980, 14462.00
410.8930, 14818.00
412.0870, 15222.00
413.2820, 15258.00
414.4760, 15623.00
415.6700, 15895.00
416.8630, 15985.00
418.0570, 16244.00
419.2500, 16333.00
420.4440, 16280.00
421.6370, 16331.00
422.8290, 16538.00
424.0220, 16376.00
425.2150, 16787.00
426.4070, 16988.00
427.5990, 17377.00
428.7910, 17698.00
429.9830, 17905.00
431.1740, 17959.00
432.3660, 18094.00
433.5570, 17618.00
434.7480, 17121.00
435.9390, 16628.00
437.1300, 16196.00
438.3200, 15766.00
439.5110, 15546.00
440.7010, 15068.00
441.8910, 15097.00
443.0810, 14845.00
444.2700, 14652.00
445.4600, 14586.00
446.6490, 14514.00
447.8380, 14482.00
449.0270, 14475.00
450.2160, 14455.29
451.4040, 14447.59
452.5930, 14458.00
453.7810, 14437.00
454.9690, 14423.00
456.1570, 14412.00
457.3440, 14452.00
458.5320, 14473.00
459.7190, 14552.00
460.9060, 14492.00
462.0930, 14541.00
463.2800, 14465.00
464.4660, 14614.00
465.6530, 14464.00
466.8390, 14491.00
468.0250, 14566.00
469.2110, 14564.00
470.3970, 14651.00
471.5820, 14687.00
472.7680, 14691.00
473.9530, 14705.00
475.1380, 14663.00
476.3230, 14706.94
477.5070, 14768.00
478.6920, 14727.00
479.8760, 14769.00
481.0600, 14693.00
482.2440, 14758.00
483.4280, 14706.00
484.6110, 14838.00
485.7950, 14720.00
486.9780, 14942.00
488.1610, 14823.00
489.3440, 14919.00
490.5260, 14705.00
491.7090, 14837.00
492.8910, 14844.00
494.0730, 15021.00
495.2550, 14923.00
496.4370, 14937.00
497.6190, 15019.00
498.8000, 14951.00
499.9810, 14967.00
501.1620, 14912.00
502.3430, 15117.00
503.5240, 14925.00
504.7050, 14974.00
505.8850, 14793.00
507.0650, 15161.00
508.2450, 14980.00
509.4250, 15097.00
510.6050, 15044.00
511.7840, 15218.00
512.9630, 15143.00
514.1430, 15036.00
515.3220, 15391.00
516.5000, 15258.00
517.6790, 15370.00
518.8570, 15512.00
520.0360, 15373.00
521.2140, 15536.00
522.3920, 15297.00
523.5690, 15598.00
524.7470, 15648.00
525.9240, 15691.00
527.1010, 15559.00
528.2780, 15779.00
529.4550, 15861.00
530.6320, 16201.00
531.8080, 16190.00
532.9850, 16439.00
534.1610, 16777.00
535.3370, 17331.00
536.5130, 17596.00
537.6880, 18027.00
538.8640, 18814.00
540.0390, 19285.00
541.2140, 20162.00
542.3890, 20563.00
543.5640, 20931.00
544.7380, 20802.00
545.9130, 20412.00
547.0870, 19693.00
548.2610, 19090.00
549.4350, 18548.00
550.6090, 17886.00
551.7820, 17459.00
552.9550, 17041.00
554.1290, 17008.00
555.3020, 16715.00
556.4740, 16536.00
557.6470, 16479.00
558.8200, 16440.00
559.9920, 16429.00
561.1640, 16242.00
562.3360, 16397.00
563.5080, 16528.00
564.6790, 16362.00
565.8510, 16560.00
567.0220, 16694.00
568.1930, 16657.00
569.3640, 16700.00
570.5350, 16871.00
571.7050, 17027.00
572.8760, 17104.00
574.0460, 17286.00
575.2160, 17388.00
576.3860, 17716.00
577.5550, 17825.00
578.7250, 18234.00
579.8940, 18102.00
581.0630, 18392.00
582.2320, 18490.00
583.4010, 18687.00
584.5700, 18372.00
585.7380, 18444.00
586.9070, 18433.00
588.0750, 18658.00
589.2430, 18582.00
590.4110, 18812.00
591.5780, 19078.00
592.7460, 19134.00
593.9130, 19469.00
595.0800, 20068.00
596.2470, 20389.00
597.4140, 21232.00
598.5800, 21977.00
599.7470, 22728.00
600.9130, 23507.00
602.0790, 24339.00
603.2450, 24988.00
604.4100, 25865.00
605.5760, 26320.00
606.7410, 26617.00
607.9070, 26668.00
609.0720, 26224.00
610.2360, 25676.00
611.4010, 24536.00
612.5660, 23942.00
613.7300, 23114.00
614.8940, 22409.00
616.0580, 21412.00
617.2220, 20538.00
618.3860, 20303.00
619.5490, 19740.00
620.7120, 19244.00
621.8750, 19004.00
623.0380, 18827.00
624.2010, 18446.00
625.3640, 18321.00
626.5260, 18105.00
627.6880, 18068.00
628.8510, 18077.00
630.0120, 17960.00
631.1740, 17795.00
632.3360, 17765.00
633.4970, 17584.00
634.6580, 17584.00
635.8200, 17451.00
636.9800, 17437.00
638.1410, 17363.00
639.3020, 17446.00
640.4620, 17351.00
641.6220, 17572.00
642.7820, 17257.00
643.9420, 17314.00
645.1020, 17215.00
646.2610, 17455.00
647.4210, 17492.00
648.5800, 17334.00
649.7390, 17245.00
650.8980, 17362.00
652.0570, 17468.00
653.2150, 17376.00
654.3730, 17287.00
655.5320, 17336.00
656.6900, 17320.00
657.8470, 17176.00
659.0050, 17188.00
660.1620, 17218.00
661.3200, 17159.05
662.4770, 17257.00
663.6340, 17196.00
664.7910, 17207.00
665.9470, 17346.00
667.1040, 17338.00
668.2600, 17402.00
669.4160, 17264.00
670.5720, 17353.00
671.7280, 17312.00
672.8840, 17375.00
674.0390, 17384.00
675.1940, 17536.00
676.3490, 17556.00
677.5040, 17504.00
678.6590, 17245.00
679.8140, 17526.00
680.9680, 17696.00
682.1220, 17375.00
683.2760, 17779.00
684.4300, 17648.00
685.5840, 17805.00
686.7380, 17690.00
687.8910, 17654.00
689.0440, 17596.00
690.1970, 17674.00
691.3500, 17726.00
692.5030, 17649.00
693.6560, 17703.00
694.8080, 17900.00
695.9600, 17845.00
697.1120, 17867.00
698.2640, 18022.00
699.4160, 17984.00
700.5670, 17813.00
701.7190, 17925.00
702.8700, 17837.25
704.0210, 17854.89
705.1720, 17920.00
706.3230, 17896.00
707.4730, 18186.00
708.6240, 18205.00
709.7740, 18211.00
710.9240, 18103.00
712.0740, 18390.00
713.2230, 18234.00
714.3730, 18413.00
715.5220, 18249.00
716.6720, 18426.00
717.8210, 18429.00
718.9690, 18219.00
720.1180, 18475.00
721.2670, 18666.00
722.4150, 18427.00
723.5630, 18639.00
724.7110, 18698.00
725.8590, 18567.00
727.0070, 18802.00
728.1540, 18664.00
729.3020, 18630.00
730.4490, 18679.00
731.5960, 18852.00
732.7430, 18708.00
733.8890, 18851.00
735.0360, 18881.04
736.1820, 18896.00
737.3280, 18952.00
738.4740, 19075.00
739.6200, 19043.00
740.7660, 18920.00
741.9120, 19024.00
743.0570, 19045.25
744.2020, 19434.00
745.3470, 19231.00
746.4920, 19282.00
747.6370, 19370.00
748.7810, 19295.00
749.9250, 19499.00
751.0700, 19329.00
752.2140, 19629.00
753.3580, 19587.00
754.5010, 19652.00
755.6450, 19755.00
756.7880, 19952.00
757.9310, 19748.00
759.0740, 20047.00
760.2170, 19927.00
761.3600, 20101.00
762.5020, 20115.00
763.6450, 20198.00
764.7870, 20479.00
765.9290, 20313.00
767.0710, 20532.00
768.2120, 20587.00
769.3540, 20626.00
770.4950, 20667.00
771.6370, 20780.93
772.7780, 20734.00
773.9180, 20995.00
775.0590, 21143.00
776.2000, 21202.00
777.3400, 21128.00
778.4800, 21421.00
779.6200, 21414.00
780.7600, 21467.00
781.9000, 21638.00
783.0390, 21735.00
784.1790, 21864.00
785.3180, 22069.76
786.4570, 22287.00
787.5960, 22505.00
788.7350, 22625.00
789.8730, 22882.00
791.0120, 23150.00
792.1500, 23266.00
793.2880, 23762.00
794.4260, 23750.00
795.5630, 24290.00
796.7010, 24799.00
797.8380, 25063.00
798.9760, 25777.00
800.1130, 26256.00
801.2500, 26869.00
802.3860, 27669.00
803.5230, 28843.00
804.6590, 29866.00
805.7960, 31262.00
806.9320, 32962.00
808.0680, 34859.00
809.2030, 37545.00
810.3390, 40160.00
811.4740, 44017.00
812.6100, 48290.00
813.7450, 54007.00
814.8800, 61424.00
816.0140, 70614.00
817.1490, 82894.00
818.2830, 96120.00
819.4180, 112365.0
820.5520, 128128.0
821.6860, 143929.0
822.8200, 156412.0
823.9530, 162684.0
825.0870, 162174.0
826.2200, 153254.0
827.3530, 139709.0
828.4860, 122776.0
829.6190, 106628.0
830.7510, 92475.00
831.8840, 80972.00
833.0160, 72308.00
834.1480, 65596.00
835.2800, 60551.00
836.4120, 56820.00
837.5440, 54306.00
838.6750, 52343.00
839.8070, 51187.00
840.9380, 50618.00
842.0690, 50850.00
843.2000, 52131.00
844.3300, 53933.00
845.4610, 56999.00
846.5910, 61333.00
847.7220, 66927.00
848.8520, 74314.00
849.9810, 82918.00
851.1110, 93090.00
852.2410, 102530.0
853.3700, 112454.0
854.4990, 120693.0
855.6280, 125795.0
856.7570, 125877.0
857.8860, 121572.0
859.0150, 113614.0
860.1430, 103587.0
861.2710, 91604.00
862.3990, 80980.00
863.5270, 71151.00
864.6550, 63082.00
865.7830, 56633.00
866.9100, 51391.00
868.0370, 46601.00
869.1640, 43150.00
870.2910, 39944.00
871.4180, 37013.00
872.5450, 35227.00
873.6710, 33249.00
874.7980, 32021.00
875.9240, 30796.00
877.0500, 29781.00
878.1760, 29098.00
879.3010, 28492.00
880.4270, 28077.00
881.5520, 27295.00
882.6770, 26947.00
883.8020, 26554.00
884.9270, 26195.00
886.0520, 25630.00
887.1760, 25104.00
888.3010, 24825.00
889.4250, 24580.00
890.5490, 24220.00
891.6730, 23826.00
892.7970, 23729.00
893.9200, 23411.00
895.0440, 23430.00
896.1670, 23270.00
897.2900, 22842.00
898.4130, 23030.00
899.5360, 22852.00
900.6580, 22825.00
901.7810, 22899.00
902.9030, 22637.00
904.0250, 22684.00
905.1470, 22519.00
906.2690, 22650.00
907.3910, 22465.00
908.5120, 22609.00
909.6330, 22557.00
910.7540, 22428.00
911.8750, 22789.00
912.9960, 22584.00
914.1170, 22751.00
915.2380, 22752.00
916.3580, 22945.00
917.4780, 22922.00
918.5980, 23156.00
919.7180, 23083.00
920.8380, 23105.00
921.9570, 22930.00
923.0770, 22684.00
924.1960, 22896.00
925.3150, 22614.00
926.4340, 22595.00
927.5530, 22582.00
928.6710, 22531.00
929.7900, 22617.00
930.9080, 22646.00
932.0260, 22578.00
933.1440, 22647.00
934.2620, 22741.00
935.3800, 22886.00
936.4970, 23114.00
937.6140, 23181.00
938.7320, 23271.00
939.8490, 23531.00
940.9660, 23511.00
942.0820, 23763.00
943.1990, 24009.00
944.3150, 24216.00
945.4310, 24573.00
946.5470, 25029.00
947.6630, 25585.00
948.7790, 25977.00
949.8950, 26533.00
951.0100, 27598.00
952.1250, 28208.00
953.2400, 29417.00
954.3550, 30330.00
955.4700, 32102.00
956.5850, 33175.00
957.6990, 34619.00
958.8140, 35883.00
959.9280, 37063.00
961.0420, 38106.00
962.1560, 38455.00
963.2690, 38313.00
964.3830, 38186.00
965.4960, 37300.00
966.6090, 36526.00
967.7230, 35136.00
968.8350, 33997.00
969.9480, 32619.00
971.0610, 31459.00
972.1730, 30177.00
973.2850, 29082.00
974.3980, 28192.00
975.5100, 27215.00
976.6210, 26657.00
977.7330, 26016.00
978.8440, 25574.00
979.9560, 25234.00
981.0670, 24614.00
982.1780, 24514.00
983.2890, 24172.00
984.3990, 24085.00
985.5100, 23867.00
986.6200, 23714.00
987.7310, 23559.00
988.8410, 23460.92
989.9510, 23330.00
991.0600, 23358.00
992.1700, 23374.00
993.2790, 23410.00
994.3890, 23240.00
995.4980, 23202.00
996.6070, 23189.00
997.7160, 23113.37
998.8240, 23199.00
999.9330, 23077.00
1001.041, 23214.00
1002.149, 23248.00
1003.257, 23114.00
1004.365, 22981.00
1005.473, 23119.00
1006.580, 23063.00
1007.688, 23032.00
1008.795, 22915.00
1009.902, 22892.00
1011.009, 22864.19
1012.116, 22876.00
1013.222, 22894.00
1014.329, 22845.00
1015.435, 22965.00
1016.541, 22823.00
1017.647, 22802.00
1018.753, 23012.00
1019.859, 23082.00
1020.964, 23265.00
1022.070, 23055.00
1023.175, 23106.00
1024.280, 23057.00
1025.385, 23156.00
1026.490, 23162.00
1027.594, 23087.00
1028.699, 23115.00
1029.803, 23099.76
1030.907, 23220.00
1032.011, 23074.00
1033.115, 23170.00
1034.219, 23095.00
1035.322, 23303.00
1036.426, 23259.00
1037.529, 23265.00
1038.632, 23141.00
1039.735, 23142.00
1040.837, 23029.00
1041.940, 23311.00
1043.042, 23122.00
1044.145, 23202.00
1045.247, 23284.00
1046.349, 23034.00
1047.451, 23182.00
1048.552, 23189.00
1049.654, 23256.00
1050.755, 23259.00
1051.856, 23340.00
1052.957, 23188.00
1054.058, 23037.00
1055.159, 23154.00
1056.259, 23243.00
1057.360, 23221.00
1058.460, 23308.00
1059.560, 23247.00
1060.660, 23320.00
1061.760, 23336.69
1062.860, 23385.00
1063.959, 23328.00
1065.058, 23422.00
1066.158, 23290.00
1067.257, 23361.00
1068.355, 23380.00
1069.454, 23258.00
1070.553, 23379.71
1071.651, 23455.00
1072.749, 23496.00
1073.847, 23527.00
1074.945, 23552.00
1076.043, 23585.00
1077.141, 23481.00
1078.238, 23661.00
1079.336, 23594.00
1080.433, 23525.00
1081.530, 23825.00
1082.627, 23699.00
1083.723, 23757.00
1084.820, 23738.00
1085.916, 23765.02
1087.013, 23929.00
1088.109, 23847.00
1089.205, 23939.00
1090.301, 23919.00
1091.396, 23741.00
1092.492, 24002.00
1093.587, 23638.00
1094.682, 23842.00
1095.777, 23813.00
1096.872, 24057.00
1097.967, 23900.00
1099.061, 23751.00
1100.156, 23850.00
1101.250, 23964.00
1102.344, 24145.00
1103.438, 24076.00
1104.532, 24054.00
1105.626, 23978.00
1106.719, 24069.00
1107.813, 24151.00
1108.906, 24354.00
1109.999, 24326.00
1111.092, 24214.00
1112.184, 24268.00
1113.277, 24132.00
1114.370, 24108.00
1115.462, 24241.00
1116.554, 24309.00
1117.646, 24298.00
1118.738, 24275.00
1119.829, 24221.00
1120.921, 24210.00
1122.012, 24233.28
1123.104, 24339.00
1124.195, 24352.00
1125.286, 24319.00
1126.376, 24461.00
1127.467, 24079.00
1128.557, 24247.00
1129.648, 24201.00
1130.738, 24244.00
1131.828, 24358.00
1132.918, 24304.79
1134.008, 24385.02
1135.097, 24378.00
1136.186, 24419.00
1137.276, 24477.68
1138.365, 24602.00
1139.454, 24561.00
1140.543, 24622.00
1141.631, 24604.00
1142.720, 24457.00
1143.808, 24419.00
1144.896, 24578.00
1145.984, 24786.00
1147.072, 24863.00
1148.160, 24684.00
1149.248, 24934.00
1150.335, 24719.00
1151.422, 24759.00
1152.509, 24750.00
1153.596, 24729.00
1154.683, 24694.00
1155.770, 24877.00
1156.857, 24875.00
1157.943, 25011.00
1159.029, 24962.00
1160.115, 24875.00
1161.201, 24920.00
1162.287, 24843.00
1163.373, 25259.00
1164.458, 24961.00
1165.543, 25176.00
1166.629, 25069.00
1167.714, 24928.00
1168.799, 24917.00
1169.883, 24915.36
1170.968, 25153.00
1172.052, 25058.00
1173.137, 25079.00
1174.221, 25227.00
1175.305, 24902.00
1176.389, 25077.00
1177.472, 25104.00
1178.556, 25074.00
1179.639, 25033.00
1180.722, 24960.00
1181.805, 25213.00
1182.888, 25232.00
1183.971, 25162.00
1185.054, 25110.00
1186.136, 25417.00
1187.219, 25104.00
1188.301, 25384.00
1189.383, 25239.00
1190.465, 25170.00
1191.547, 25348.00
1192.628, 25277.00
1193.710, 25296.00
1194.791, 25222.00
1195.872, 25409.00
1196.953, 25169.00
1198.034, 25434.00
1199.115, 25552.00
1200.195, 25266.00
1201.276, 25427.00
1202.356, 25569.00
1203.436, 25581.00
1204.516, 25690.00
1205.596, 25718.63
1206.675, 25571.00
1207.755, 25702.00
1208.834, 25699.00
1209.913, 25553.00
1210.992, 25628.00
1212.071, 25857.00
1213.150, 25610.00
1214.229, 25831.00
1215.307, 25802.00
1216.386, 25656.00
1217.464, 25726.00
1218.542, 25737.00
1219.620, 25989.00
1220.697, 25892.00
1221.775, 26030.00
1222.852, 25811.00
1223.930, 25903.31
1225.007, 26125.00
1226.084, 25935.00
1227.161, 26070.00
1228.237, 26022.00
1229.314, 25939.00
1230.390, 26165.00
1231.466, 25953.00
1232.543, 26067.00
1233.619, 26058.00
1234.694, 25953.00
1235.770, 26133.00
1236.845, 25976.00
1237.921, 26013.00
1238.996, 26064.00
1240.071, 26029.00
1241.146, 26333.00
1242.221, 26067.00
1243.295, 26258.00
1244.370, 26068.00
1245.444, 26016.00
1246.518, 25925.00
1247.592, 26151.00
