##NAMES=Forsterite
##RRUFFID=R060551
##IDEAL CHEMISTRY=Mg_2_SiO_4_
##LOCALITY=Kohiston, Pakistan
##OWNER=RRUFF
##SOURCE=Gemological Institute of America
##DESCRIPTION=Pale green fragment
##STATUS=The identification of this mineral has been confirmed by X-ray diffraction and chemical analysis
##URL=rruff.info/R060551
##MEASURED CHEMISTRY=(Mg_1.82_Fe_0.18_)_Î£=2_Si_1.00_O_4_; trace amounts of Mn
##PIN_ID=M00797
##ORIENTATION=Laser parallel to -c* (0 0 -1). Fiducial mark perpendicular to laser is parallel to a [1 0 0]
62.89900, 240.0000
64.14700, 250.0000
65.39500, 270.0000
66.64300, 300.0000
67.89000, 352.0000
69.13800, 368.0000
70.38500, 496.0000
71.63200, 530.0000
72.87900, 673.0000
74.12500, 796.0000
75.37200, 972.0000
76.61800, 1186.000
77.86400, 1419.000
79.10900, 1601.000
80.35500, 1918.000
81.60000, 2184.000
82.84600, 2488.000
84.09100, 2951.000
85.33500, 3315.000
86.58000, 3682.000
87.82400, 4102.000
89.06900, 4501.000
90.31300, 5045.000
91.55600, 5391.000
92.80000, 5829.000
94.04300, 6092.000
95.28700, 6306.000
96.53000, 6625.000
97.77300, 6884.000
99.01500, 7295.000
100.2580, 7301.000
101.5000, 7459.000
102.7420, 7793.000
103.9840, 7870.000
105.2260, 8065.000
106.4670, 8274.000
107.7080, 8377.000
108.9490, 8493.000
110.1900, 8517.000
111.4310, 8466.000
112.6720, 8661.000
113.9120, 8624.000
115.1520, 8808.000
116.3920, 8775.000
117.6320, 8901.000
118.8710, 8877.000
120.1110, 8927.000
121.3500, 8898.000
122.5890, 8890.000
123.8270, 8937.000
125.0660, 8943.000
126.3040, 8958.000
127.5430, 9100.000
128.7810, 9145.000
130.0180, 9054.000
131.2560, 9116.000
132.4940, 9265.000
133.7310, 9075.000
134.9680, 9206.000
136.2050, 9285.000
137.4410, 9247.000
138.6780, 9378.000
139.9140, 9431.000
141.1500, 9348.000
142.3860, 9387.000
143.6220, 9529.000
144.8570, 9588.000
146.0920, 9503.000
147.3280, 9748.000
148.5620, 9785.000
149.7970, 9699.000
151.0320, 9879.000
152.2660, 9743.000
153.5000, 9948.000
154.7340, 9979.000
155.9680, 10005.00
157.2020, 10076.00
158.4350, 10135.00
159.6680, 10040.00
160.9010, 10010.00
162.1340, 9936.000
163.3670, 10061.00
164.5990, 10113.00
165.8310, 10159.00
167.0630, 10184.00
168.2950, 10097.00
169.5270, 10171.00
170.7580, 10161.00
171.9900, 10317.00
173.2210, 10325.00
174.4510, 10303.00
175.6820, 10284.00
176.9130, 10350.00
178.1430, 10284.00
179.3730, 10287.00
180.6030, 10441.00
181.8330, 10262.00
183.0620, 10346.00
184.2920, 10178.00
185.5210, 10251.00
186.7500, 10166.00
187.9790, 10081.00
189.2070, 10151.00
190.4360, 10002.00
191.6640, 10052.00
192.8920, 10020.00
194.1200, 10045.00
195.3480, 10113.00
196.5750, 10028.00
197.8020, 9995.000
199.0290, 10013.00
200.2560, 9921.000
201.4830, 10047.00
202.7090, 10116.00
203.9360, 10108.00
205.1620, 10171.00
206.3880, 10208.00
207.6140, 10245.00
208.8390, 10371.00
210.0650, 10299.00
211.2900, 10518.00
212.5150, 10639.00
213.7400, 10589.00
214.9640, 10886.00
216.1890, 11062.00
217.4130, 11232.00
218.6370, 11515.00
219.8610, 11510.00
221.0850, 11818.00
222.3080, 11899.00
223.5310, 12158.00
224.7540, 12198.00
225.9770, 12458.00
227.2000, 12351.00
228.4230, 12374.00
229.6450, 12398.00
230.8670, 12431.00
232.0890, 12097.00
233.3110, 12124.00
234.5320, 12179.00
235.7540, 12279.00
236.9750, 12004.00
238.1960, 11942.00
239.4170, 11967.00
240.6380, 11781.00
241.8580, 11845.00
243.0780, 11659.00
244.2990, 11492.00
245.5180, 11535.00
246.7380, 11345.00
247.9580, 11294.00
249.1770, 11338.00
250.3960, 11303.00
251.6150, 11153.00
252.8340, 11063.00
254.0530, 11064.00
255.2710, 10949.00
256.4890, 11083.00
257.7070, 11056.00
258.9250, 11042.00
260.1430, 10933.00
261.3600, 11031.00
262.5770, 11051.00
263.7950, 10946.00
265.0110, 11088.00
266.2280, 11114.00
267.4450, 11177.00
268.6610, 11192.00
269.8770, 11259.00
271.0930, 11302.00
272.3090, 11122.00
273.5250, 11309.00
274.7400, 11414.00
275.9550, 11342.00
277.1700, 11576.00
278.3850, 11581.00
279.6000, 11587.00
280.8140, 11661.00
282.0290, 11822.00
283.2430, 11794.00
284.4570, 11860.00
285.6700, 12127.00
286.8840, 12343.00
288.0970, 12807.00
289.3100, 13143.00
290.5230, 13713.00
291.7360, 14378.00
292.9490, 15290.00
294.1610, 16242.00
295.3740, 17431.00
296.5860, 18950.00
297.7970, 20291.00
299.0090, 21943.00
300.2210, 23445.00
301.4320, 24292.00
302.6430, 25277.00
303.8540, 25427.00
305.0650, 25124.00
306.2750, 24217.00
307.4860, 22584.00
308.6960, 20939.00
309.9060, 19258.00
311.1160, 18012.00
312.3260, 16862.00
313.5350, 16123.00
314.7440, 15628.00
315.9530, 15238.00
317.1620, 15046.00
318.3710, 14659.00
319.5800, 14846.00
320.7880, 14643.00
321.9960, 14726.00
323.2040, 14804.00
324.4120, 14786.00
325.6200, 14646.00
326.8270, 14508.41
328.0340, 14284.84
329.2410, 14018.00
330.4480, 13716.00
331.6550, 13399.00
332.8610, 13066.00
334.0680, 12747.00
335.2740, 12592.00
336.4800, 12461.00
337.6860, 12309.00
338.8910, 12265.00
340.0970, 12117.00
341.3020, 11977.00
342.5070, 11944.00
343.7120, 12088.00
344.9170, 11996.00
346.1210, 11946.00
347.3250, 11797.00
348.5290, 11872.00
349.7330, 11935.00
350.9370, 12231.00
352.1410, 12083.90
353.3440, 11866.00
354.5470, 11986.00
355.7500, 11798.00
356.9530, 11923.00
358.1560, 11915.00
359.3580, 11830.00
360.5610, 11818.00
361.7630, 11849.00
362.9650, 11809.00
364.1660, 11711.00
365.3680, 11941.00
366.5690, 11854.00
367.7710, 11777.00
368.9720, 11860.00
370.1720, 11814.00
371.3730, 11928.00
372.5740, 11736.00
373.7740, 11975.00
374.9740, 11765.00
376.1740, 11890.00
377.3740, 11959.00
378.5730, 11983.00
379.7730, 11993.00
380.9720, 12009.87
382.1710, 12025.53
383.3700, 11991.00
384.5680, 12056.00
385.7670, 12030.00
386.9650, 12046.05
388.1630, 11934.00
389.3610, 12076.00
390.5590, 12071.00
391.7560, 12210.00
392.9540, 12335.00
394.1510, 12110.00
395.3480, 12225.00
396.5450, 12289.00
397.7420, 12361.00
398.9380, 12368.00
400.1340, 12458.54
401.3300, 12484.00
402.5260, 12643.00
403.7220, 12738.00
404.9180, 12921.00
406.1130, 13161.00
407.3080, 13434.00
408.5030, 13603.00
409.6980, 13957.00
410.8930, 14273.00
412.0870, 14838.00
413.2820, 15060.00
414.4760, 15624.00
415.6700, 15916.00
416.8630, 16266.00
418.0570, 16183.00
419.2500, 16087.00
420.4440, 15893.00
421.6370, 15614.00
422.8290, 15004.00
424.0220, 14785.00
425.2150, 14359.00
426.4070, 14209.00
427.5990, 14138.00
428.7910, 14125.00
429.9830, 13811.00
431.1740, 13731.00
432.3660, 13747.00
433.5570, 13601.00
434.7480, 13564.00
435.9390, 13424.00
437.1300, 13525.00
438.3200, 13282.00
439.5110, 13257.00
440.7010, 12982.00
441.8910, 13173.00
443.0810, 13003.00
444.2700, 12911.00
445.4600, 12673.00
446.6490, 12868.00
447.8380, 12815.00
449.0270, 12730.00
450.2160, 12726.00
451.4040, 12634.00
452.5930, 12710.00
453.7810, 12686.00
454.9690, 12841.00
456.1570, 12677.00
457.3440, 12790.00
458.5320, 12659.00
459.7190, 12797.00
460.9060, 12741.00
462.0930, 12677.00
463.2800, 12876.00
464.4660, 12703.00
465.6530, 12901.00
466.8390, 12707.00
468.0250, 12823.00
469.2110, 12764.00
470.3970, 12768.00
471.5820, 12983.00
472.7680, 12872.00
473.9530, 12989.00
475.1380, 13051.00
476.3230, 13096.00
477.5070, 13169.57
478.6920, 13171.65
479.8760, 13242.00
481.0600, 13181.00
482.2440, 13147.00
483.4280, 13162.00
484.6110, 13204.00
485.7950, 13251.00
486.9780, 13212.00
488.1610, 13264.00
489.3440, 13241.00
490.5260, 13241.00
491.7090, 13289.00
492.8910, 13210.00
494.0730, 13202.00
495.2550, 13404.00
496.4370, 13204.00
497.6190, 13294.00
498.8000, 13387.00
499.9810, 13298.00
501.1620, 13402.00
502.3430, 13472.00
503.5240, 13449.00
504.7050, 13396.00
505.8850, 13307.00
507.0650, 13452.00
508.2450, 13432.00
509.4250, 13616.00
510.6050, 13603.97
511.7840, 13572.00
512.9630, 13599.00
514.1430, 13617.00
515.3220, 13564.00
516.5000, 13672.00
517.6790, 13580.00
518.8570, 13730.00
520.0360, 13645.00
521.2140, 13832.00
522.3920, 13651.00
523.5690, 13631.00
524.7470, 13735.00
525.9240, 13626.00
527.1010, 13660.00
528.2780, 13758.00
529.4550, 13781.00
530.6320, 13823.94
531.8080, 13761.00
532.9850, 13848.00
534.1610, 13890.00
535.3370, 13828.00
536.5130, 13862.00
537.6880, 13789.00
538.8640, 14054.00
540.0390, 13901.00
541.2140, 14170.00
542.3890, 14147.00
543.5640, 14361.00
544.7380, 14432.00
545.9130, 14301.00
547.0870, 14407.00
548.2610, 14223.00
549.4350, 14372.00
550.6090, 14317.00
551.7820, 14261.00
552.9550, 14379.00
554.1290, 14527.00
555.3020, 14546.00
556.4740, 14574.00
557.6470, 14651.00
558.8200, 14642.37
559.9920, 14588.00
561.1640, 14700.00
562.3360, 14607.00
563.5080, 14717.00
564.6790, 14760.00
565.8510, 14832.00
567.0220, 15114.00
568.1930, 15063.00
569.3640, 15231.00
570.5350, 15265.00
571.7050, 15392.00
572.8760, 15526.00
574.0460, 15649.79
575.2160, 15903.00
576.3860, 15974.00
577.5550, 16296.00
578.7250, 16494.00
579.8940, 16646.00
581.0630, 16971.00
582.2320, 17124.00
583.4010, 17482.00
584.5700, 17480.00
585.7380, 17973.00
586.9070, 18230.00
588.0750, 18514.00
589.2430, 18935.00
590.4110, 19393.00
591.5780, 20068.00
592.7460, 20846.00
593.9130, 21820.00
595.0800, 23109.00
596.2470, 24537.00
597.4140, 26049.00
598.5800, 27748.00
599.7470, 29645.00
600.9130, 31489.00
602.0790, 33689.00
603.2450, 35286.00
604.4100, 36592.00
605.5760, 37445.00
606.7410, 37693.00
607.9070, 37493.00
609.0720, 36535.00
610.2360, 35090.00
611.4010, 32979.00
612.5660, 31088.00
613.7300, 28952.00
614.8940, 26904.00
616.0580, 25280.00
617.2220, 23653.00
618.3860, 22273.00
619.5490, 21274.00
620.7120, 20364.00
621.8750, 19667.00
623.0380, 19158.00
624.2010, 18545.00
625.3640, 18226.00
626.5260, 17746.00
627.6880, 17408.00
628.8510, 17291.00
630.0120, 17067.00
631.1740, 16795.00
632.3360, 16712.00
633.4970, 16386.00
634.6580, 16396.00
635.8200, 16358.00
636.9800, 16259.00
638.1410, 16192.98
639.3020, 15978.00
640.4620, 15990.00
641.6220, 15859.00
642.7820, 15784.00
643.9420, 15805.00
645.1020, 15734.00
646.2610, 15807.00
647.4210, 15707.00
648.5800, 15721.00
649.7390, 15722.00
650.8980, 15681.34
652.0570, 15677.00
653.2150, 15694.00
654.3730, 15644.00
655.5320, 15736.00
656.6900, 15639.00
657.8470, 15684.00
659.0050, 15805.00
660.1620, 15557.00
661.3200, 15631.00
662.4770, 15626.73
663.6340, 15561.56
664.7910, 15715.00
665.9470, 15504.00
667.1040, 15620.00
668.2600, 15497.00
669.4160, 15625.00
670.5720, 15640.00
671.7280, 15602.00
672.8840, 15731.00
674.0390, 15677.00
675.1940, 15798.00
676.3490, 15611.00
677.5040, 15688.00
678.6590, 15651.00
679.8140, 15739.00
680.9680, 15778.00
682.1220, 15851.00
683.2760, 15915.64
684.4300, 15911.53
685.5840, 15988.00
686.7380, 15917.00
687.8910, 15822.00
689.0440, 15853.00
690.1970, 15918.00
691.3500, 15912.00
692.5030, 16028.00
693.6560, 16060.74
694.8080, 16097.00
695.9600, 16173.00
697.1120, 16241.00
698.2640, 16285.00
699.4160, 16085.00
700.5670, 16179.00
701.7190, 16243.00
702.8700, 16306.00
704.0210, 16400.00
705.1720, 16343.00
706.3230, 16424.00
707.4730, 16485.00
708.6240, 16679.00
709.7740, 16587.00
710.9240, 16602.00
712.0740, 16592.00
713.2230, 16456.00
714.3730, 16743.00
715.5220, 16728.54
716.6720, 16997.87
717.8210, 17162.13
718.9690, 17226.95
720.1180, 16894.64
721.2670, 17075.17
722.4150, 17050.16
723.5630, 17016.71
724.7110, 17269.40
725.8590, 16994.83
727.0070, 17242.98
728.1540, 17282.45
729.3020, 17417.43
730.4490, 17345.60
731.5960, 17337.65
732.7430, 17536.54
733.8890, 17620.88
735.0360, 17525.25
736.1820, 17666.25
737.3280, 17384.41
738.4740, 17505.00
739.6200, 17525.00
740.7660, 17569.00
741.9120, 17578.79
743.0570, 17782.00
744.2020, 17672.00
745.3470, 17900.00
746.4920, 17909.00
747.6370, 17847.00
748.7810, 17974.00
749.9250, 17875.00
751.0700, 18018.00
752.2140, 17867.00
753.3580, 18146.00
754.5010, 18268.00
755.6450, 18206.00
756.7880, 18532.00
757.9310, 18383.00
759.0740, 18574.00
760.2170, 18563.00
761.3600, 18755.00
762.5020, 18866.00
763.6450, 18746.00
764.7870, 18842.00
765.9290, 19002.00
767.0710, 19165.00
768.2120, 19189.00
769.3540, 19442.00
770.4950, 19351.00
771.6370, 19295.00
772.7780, 19400.00
773.9180, 19456.00
775.0590, 19694.00
776.2000, 19740.00
777.3400, 19825.00
778.4800, 19886.00
779.6200, 19924.00
780.7600, 20107.00
781.9000, 20033.00
783.0390, 20391.00
784.1790, 20538.00
785.3180, 20741.00
786.4570, 20797.00
787.5960, 21135.00
788.7350, 21256.00
789.8730, 21614.00
791.0120, 21852.00
792.1500, 21943.00
793.2880, 22497.00
794.4260, 22719.00
795.5630, 23256.00
796.7010, 23514.00
797.8380, 24126.00
798.9760, 24772.00
800.1130, 25598.00
801.2500, 26183.00
802.3860, 27069.00
803.5230, 28446.00
804.6590, 29668.00
805.7960, 31625.00
806.9320, 34769.00
808.0680, 35274.00
809.2030, 37840.00
810.3390, 41140.00
811.4740, 45488.00
812.6100, 50737.00
813.7450, 57297.00
814.8800, 66410.00
816.0140, 77036.00
817.1490, 90118.00
818.2830, 104805.0
819.4180, 121424.0
820.5520, 137384.0
821.6860, 151691.0
822.8200, 161385.0
823.9530, 165996.0
825.0870, 163149.0
826.2200, 153604.0
827.3530, 139151.0
828.4860, 121799.0
829.6190, 106287.0
830.7510, 92135.00
831.8840, 80262.00
833.0160, 71766.00
834.1480, 65252.00
835.2800, 60800.00
836.4120, 58035.00
837.5440, 55781.00
838.6750, 55260.00
839.8070, 54795.00
840.9380, 55732.00
842.0690, 57561.00
843.2000, 60672.00
844.3300, 65477.00
845.4610, 72258.00
846.5910, 81012.44
847.7220, 91067.00
848.8520, 104063.0
849.9810, 118689.0
851.1110, 134734.0
852.2410, 151060.0
853.3700, 166079.0
854.4990, 175878.0
855.6280, 181001.0
856.7570, 180564.0
857.8860, 173113.0
859.0150, 160524.0
860.1430, 142621.0
861.2710, 125350.0
862.3990, 107306.0
863.5270, 92586.00
864.6550, 79698.00
865.7830, 68986.00
866.9100, 60784.00
868.0370, 54373.00
869.1640, 48977.00
870.2910, 44621.00
871.4180, 41112.00
872.5450, 38417.00
873.6710, 36276.00
874.7980, 34557.00
875.9240, 33149.00
877.0500, 32026.00
878.1760, 31200.00
879.3010, 30271.00
880.4270, 30007.00
881.5520, 29245.00
882.6770, 28698.00
883.8020, 27975.00
884.9270, 26921.00
886.0520, 26146.00
887.1760, 25331.00
888.3010, 24417.00
889.4250, 23713.00
890.5490, 23405.00
891.6730, 22854.00
892.7970, 22475.00
893.9200, 22220.00
895.0440, 21830.00
896.1670, 21636.90
897.2900, 21475.00
898.4130, 21271.00
899.5360, 21150.00
900.6580, 21020.00
901.7810, 20787.00
902.9030, 20696.00
904.0250, 20694.00
905.1470, 20753.00
906.2690, 20629.00
907.3910, 20405.00
908.5120, 20514.00
909.6330, 20337.00
910.7540, 20313.00
911.8750, 20372.38
912.9960, 20321.75
914.1170, 20537.00
915.2380, 20349.00
916.3580, 20547.00
917.4780, 20514.00
918.5980, 20634.00
919.7180, 20623.00
920.8380, 20584.00
921.9570, 20395.00
923.0770, 20314.00
924.1960, 20363.00
925.3150, 20364.00
926.4340, 20193.00
927.5530, 20044.00
928.6710, 20427.00
929.7900, 20184.00
930.9080, 20337.00
932.0260, 20402.00
933.1440, 20355.00
934.2620, 20414.00
935.3800, 20640.00
936.4970, 20608.00
937.6140, 20892.00
938.7320, 20799.00
939.8490, 20836.00
940.9660, 21012.00
942.0820, 21389.00
943.1990, 21677.00
944.3150, 21829.00
945.4310, 22395.00
946.5470, 22668.00
947.6630, 23286.00
948.7790, 23971.00
949.8950, 24678.00
951.0100, 25659.00
952.1250, 26797.00
953.2400, 28031.00
954.3550, 29496.00
955.4700, 31259.00
956.5850, 33209.00
957.6990, 34801.00
958.8140, 36600.00
959.9280, 38252.00
961.0420, 39465.00
962.1560, 40064.00
963.2690, 40235.00
964.3830, 39777.00
965.4960, 38916.00
966.6090, 37867.00
967.7230, 36229.00
968.8350, 34977.00
969.9480, 33002.00
971.0610, 31625.00
972.1730, 30089.00
973.2850, 28723.00
974.3980, 27825.00
975.5100, 26668.89
976.6210, 25587.00
977.7330, 25012.00
978.8440, 24223.00
979.9560, 23709.00
981.0670, 23354.00
982.1780, 23019.00
983.2890, 22610.00
984.3990, 22535.00
985.5100, 22344.00
986.6200, 22090.00
987.7310, 22015.00
988.8410, 21806.00
989.9510, 21815.00
991.0600, 21706.00
992.1700, 21434.00
993.2790, 21662.00
994.3890, 21359.00
995.4980, 21490.00
996.6070, 21313.00
997.7160, 21395.00
998.8240, 21303.00
999.9330, 21284.00
1001.041, 21354.00
1002.149, 21374.00
1003.257, 21289.00
1004.365, 21225.00
1005.473, 21025.00
1006.580, 20977.00
1007.688, 20807.00
1008.795, 20797.00
1009.902, 20678.00
1011.009, 20758.00
1012.116, 20731.00
1013.222, 20727.00
1014.329, 20757.43
1015.435, 20776.00
1016.541, 20744.00
1017.647, 20786.00
1018.753, 20708.00
1019.859, 20693.00
1020.964, 20673.00
1022.070, 20718.00
1023.175, 20683.47
1024.280, 20906.00
1025.385, 20725.00
1026.490, 20740.00
1027.594, 20912.00
1028.699, 20851.00
1029.803, 20956.00
1030.907, 20826.00
1032.011, 20773.00
1033.115, 20817.00
1034.219, 20612.00
1035.322, 20675.00
1036.426, 20590.00
1037.529, 20675.00
1038.632, 20740.00
1039.735, 20699.00
1040.837, 20726.00
1041.940, 20602.00
1043.042, 20564.00
1044.145, 20532.00
1045.247, 20509.92
1046.349, 20608.00
1047.451, 20578.00
1048.552, 20607.00
1049.654, 20742.00
1050.755, 20493.00
1051.856, 20681.00
1052.957, 20601.00
1054.058, 20379.00
1055.159, 20504.00
1056.259, 20565.00
1057.360, 20644.00
1058.460, 20508.00
1059.560, 20605.00
1060.660, 20685.00
1061.760, 20425.00
1062.860, 20559.00
1063.959, 20663.00
1065.058, 20497.00
1066.158, 20505.00
1067.257, 20661.00
1068.355, 20546.00
1069.454, 20836.00
1070.553, 20667.00
1071.651, 20563.00
1072.749, 20600.00
1073.847, 20781.00
1074.945, 20762.00
1076.043, 20755.00
1077.141, 20864.00
1078.238, 20557.00
1079.336, 20628.00
1080.433, 20800.00
1081.530, 20948.00
1082.627, 21242.00
1083.723, 21287.00
1084.820, 21274.00
1085.916, 21539.00
1087.013, 21467.00
1088.109, 21355.00
1089.205, 21297.00
1090.301, 21237.34
1091.396, 21184.83
1092.492, 21149.00
1093.587, 21135.00
1094.682, 21103.00
1095.777, 21119.00
1096.872, 21013.00
1097.967, 21290.00
1099.061, 20959.00
1100.156, 21342.00
1101.250, 21194.00
1102.344, 21191.00
1103.438, 21253.00
1104.532, 21105.00
1105.626, 21207.00
1106.719, 21214.00
1107.813, 21355.00
1108.906, 21390.00
1109.999, 21395.00
1111.092, 21452.00
1112.184, 21356.00
1113.277, 21498.00
1114.370, 21371.00
1115.462, 21481.00
1116.554, 21515.00
1117.646, 21463.00
1118.738, 21438.00
1119.829, 21415.00
1120.921, 21329.00
1122.012, 21465.00
1123.104, 21595.00
1124.195, 21411.00
1125.286, 21370.00
1126.376, 21569.00
1127.467, 21463.00
1128.557, 21512.00
1129.648, 21577.00
1130.738, 21464.00
1131.828, 21527.00
1132.918, 21782.00
1134.008, 21621.00
1135.097, 21709.00
1136.186, 21513.00
1137.276, 21759.00
1138.365, 21692.00
1139.454, 21789.00
1140.543, 21638.00
1141.631, 21717.00
1142.720, 21754.41
1143.808, 21700.00
1144.896, 21884.00
1145.984, 22002.00
1147.072, 22076.00
1148.160, 21963.00
1149.248, 22167.00
1150.335, 21815.00
1151.422, 22022.00
1152.509, 22099.00
1153.596, 22097.00
1154.683, 22171.00
1155.770, 21897.00
1156.857, 22011.00
1157.943, 21985.00
1159.029, 22179.00
1160.115, 22104.00
1161.201, 22201.00
1162.287, 22166.00
1163.373, 22041.00
1164.458, 22182.00
1165.543, 22329.00
1166.629, 22266.00
1167.714, 22456.00
1168.799, 22277.00
1169.883, 22335.00
1170.968, 22141.00
1172.052, 22031.00
1173.137, 22266.00
1174.221, 22260.00
1175.305, 22331.00
1176.389, 22212.00
1177.472, 22211.00
1178.556, 22283.00
1179.639, 22294.00
1180.722, 22271.00
1181.805, 22257.00
1182.888, 22250.83
1183.971, 22261.52
1185.054, 22269.64
1186.136, 22313.00
1187.219, 22315.00
1188.301, 22365.00
1189.383, 22407.00
1190.465, 22540.00
1191.547, 22484.00
1192.628, 22389.00
1193.710, 22329.00
1194.791, 22503.00
1195.872, 22346.00
1196.953, 22574.00
1198.034, 22629.00
1199.115, 22617.00
1200.195, 22674.00
1201.276, 22618.00
1202.356, 22758.00
1203.436, 22634.00
1204.516, 22726.73
1205.596, 22763.72
1206.675, 22890.00
1207.755, 22763.00
1208.834, 22946.00
1209.913, 22743.00
1210.992, 22913.00
1212.071, 23138.00
1213.150, 22891.00
1214.229, 23006.00
1215.307, 22963.00
1216.386, 22962.00
1217.464, 23045.00
1218.542, 23157.00
1219.620, 23112.00
1220.697, 22975.00
1221.775, 23148.00
1222.852, 23143.00
1223.930, 23079.00
1225.007, 23146.00
1226.084, 23087.00
1227.161, 23233.00
1228.237, 23393.00
1229.314, 23169.00
1230.390, 23300.00
1231.466, 23214.00
1232.543, 23274.00
1233.619, 22993.00
1234.694, 23273.00
1235.770, 23297.00
1236.845, 23180.00
1237.921, 23416.00
1238.996, 23174.00
1240.071, 23302.00
1241.146, 23088.00
1242.221, 23191.00
1243.295, 23223.00
1244.370, 23195.00
1245.444, 23183.00
1246.518, 23121.00
1247.592, 23244.00
