##NAMES=Franklinite
##RRUFFID=R070137
##IDEAL CHEMISTRY=Zn^2+^Fe^3+^_2_O_4_
##LOCALITY=Franklin mine, Franklin, Sussex County, New Jersey, USA
##OWNER=RRUFF
##SOURCE=Michael Scott
##DESCRIPTION=Gray semi-metallic octahedral crystals associated with calcite
##STATUS=The identification of this mineral has been confirmed by X-ray diffraction and chemical analysis
##URL=rruff.info/R070137
##MEASURED CHEMISTRY=(Zn_0.63_Mn_0.36_Mg_0.01_)_Σ=1_(Fe^3+^_1.96_Al_0.04_)_Σ=2_O_4_
##PIN_ID=L01062
##ORIENTATION=Laser parallel to c* (0 0 1). Fiducial mark perpendicular to laser is parallel to a [1 0 0]
134.7660, 17170.00
135.9930, 17118.00
137.2200, 17333.00
138.4460, 17421.00
139.6720, 17632.00
140.8980, 17373.00
142.1240, 17367.00
143.3500, 17169.00
144.5760, 17095.00
145.8020, 17124.00
147.0270, 17187.00
148.2520, 17267.00
149.4780, 17346.00
150.7030, 17267.00
151.9270, 17014.00
153.1520, 17140.00
154.3770, 17431.00
155.6010, 17526.00
156.8260, 17257.00
158.0500, 17470.00
159.2740, 17472.00
160.4980, 17405.00
161.7210, 17493.00
162.9450, 17732.00
164.1690, 17731.00
165.3920, 17587.00
166.6150, 17347.00
167.8380, 17202.00
169.0610, 17162.00
170.2840, 17135.00
171.5070, 17047.91
172.7290, 17088.76
173.9510, 16975.00
175.1740, 17166.00
176.3960, 17222.00
177.6180, 17293.00
178.8390, 17281.04
180.0610, 17133.00
181.2830, 17107.00
182.5040, 17162.00
183.7250, 16969.00
184.9460, 16956.00
186.1670, 17059.00
187.3880, 17006.00
188.6090, 17083.00
189.8290, 17140.00
191.0500, 17072.00
192.2700, 17025.00
193.4900, 17123.00
194.7100, 17049.00
195.9300, 17182.00
197.1490, 17199.00
198.3690, 17184.00
199.5880, 17018.00
200.8080, 17291.00
202.0270, 17270.00
203.2460, 17240.22
204.4650, 17386.14
205.6830, 17194.00
206.9020, 17308.00
208.1200, 17329.00
209.3380, 16837.00
210.5570, 16835.00
211.7750, 17051.00
212.9920, 16991.00
214.2100, 17033.00
215.4280, 17113.00
216.6450, 17158.00
217.8620, 17221.00
219.0790, 17205.54
220.2960, 17160.00
221.5130, 17136.00
222.7300, 17123.00
223.9460, 17061.00
225.1630, 17194.00
226.3790, 17248.00
227.5950, 17071.00
228.8110, 17161.94
230.0270, 17126.00
231.2430, 17190.00
232.4580, 17109.00
233.6740, 17247.00
234.8890, 17234.00
236.1040, 17236.00
237.3190, 17498.00
238.5340, 17232.00
239.7490, 17379.00
240.9630, 17196.00
242.1780, 17338.00
243.3920, 17244.00
244.6060, 17306.00
245.8200, 17539.00
247.0340, 17278.00
248.2470, 17370.00
249.4610, 17514.00
250.6740, 17585.00
251.8880, 17465.00
253.1010, 17592.07
254.3140, 17604.80
255.5270, 17605.00
256.7390, 17698.00
257.9520, 17569.00
259.1640, 17554.00
260.3760, 17389.00
261.5880, 17527.00
262.8000, 17457.00
264.0120, 17551.00
265.2240, 17770.00
266.4350, 17497.00
267.6470, 17702.00
268.8580, 17687.00
270.0690, 17711.00
271.2800, 17846.00
272.4910, 17860.00
273.7020, 17754.00
274.9120, 17730.00
276.1230, 17612.00
277.3330, 17955.00
278.5430, 17789.77
279.7530, 17824.26
280.9630, 17791.00
282.1720, 17692.92
283.3820, 17874.09
284.5910, 17993.62
285.8000, 18054.87
287.0090, 17883.24
288.2180, 18012.31
289.4270, 18020.88
290.6360, 18024.51
291.8440, 18195.88
293.0530, 18058.12
294.2610, 18226.83
295.4690, 18273.18
296.6770, 18375.54
297.8850, 18356.64
299.0920, 18375.16
300.3000, 18515.00
301.5070, 18587.65
302.7140, 18554.76
303.9210, 18660.64
305.1280, 18518.58
306.3350, 18594.09
307.5420, 18763.47
308.7480, 18736.64
309.9540, 18844.71
311.1600, 18901.40
312.3660, 18724.61
313.5720, 18953.86
314.7780, 19007.51
315.9840, 18880.87
317.1890, 19096.17
318.3940, 18994.35
319.6000, 19005.75
320.8050, 19044.00
322.0090, 19100.00
323.2140, 19100.00
324.4190, 19197.00
325.6230, 19239.00
326.8270, 19391.00
328.0320, 19490.00
329.2360, 19510.00
330.4390, 19646.00
331.6430, 19657.59
332.8470, 19698.56
334.0500, 19711.00
335.2530, 19704.00
336.4560, 19726.00
337.6590, 19806.91
338.8620, 19902.00
340.0650, 19921.73
341.2670, 20132.48
342.4700, 20281.68
343.6720, 20372.53
344.8740, 20441.77
346.0760, 20481.67
347.2780, 20427.37
348.4790, 20460.54
349.6810, 20461.37
350.8820, 20379.37
352.0830, 20500.43
353.2840, 20559.89
354.4850, 20561.05
355.6860, 20329.35
356.8870, 20398.35
358.0870, 20346.85
359.2870, 20290.42
360.4880, 20401.74
361.6880, 20203.92
362.8870, 20312.61
364.0870, 20023.03
365.2870, 20052.44
366.4860, 19964.12
367.6850, 19873.59
368.8850, 19953.51
370.0840, 19727.04
371.2820, 19809.84
372.4810, 19772.98
373.6800, 19794.84
374.8780, 19698.19
376.0760, 19641.72
377.2740, 19709.27
378.4720, 19630.00
379.6700, 19585.00
380.8680, 19604.00
382.0650, 19623.00
383.2630, 19610.80
384.4600, 19546.00
385.6570, 19557.00
386.8540, 19531.00
388.0510, 19510.38
389.2470, 19505.28
390.4440, 19507.00
391.6400, 19483.00
392.8360, 19529.00
394.0320, 19529.91
395.2280, 19423.00
396.4240, 19516.00
397.6190, 19470.83
398.8150, 19573.00
400.0100, 19378.00
401.2050, 19411.00
402.4000, 19430.00
403.5950, 19500.00
404.7900, 19534.00
405.9840, 19582.37
407.1790, 19620.61
408.3730, 19640.93
409.5670, 19637.00
410.7610, 19576.00
411.9550, 19474.00
413.1480, 19565.00
414.3420, 19807.00
415.5350, 19831.00
416.7280, 19592.00
417.9220, 19727.00
419.1140, 19569.00
420.3070, 19690.00
421.5000, 19885.00
422.6920, 19818.00
423.8850, 19796.00
425.0770, 19684.00
426.2690, 19679.00
427.4610, 19787.00
428.6520, 19732.00
429.8440, 19875.00
431.0350, 19749.00
432.2260, 19944.00
433.4180, 19841.00
434.6090, 20006.90
435.7990, 20130.00
436.9900, 20218.00
438.1800, 20379.00
439.3710, 20256.00
440.5610, 20221.00
441.7510, 20292.00
442.9410, 20298.52
444.1310, 20291.00
445.3200, 20430.00
446.5100, 20318.00
447.6990, 20305.00
448.8880, 20404.16
450.0770, 20472.00
451.2660, 20523.00
452.4550, 20541.00
453.6430, 20512.00
454.8320, 20547.81
456.0200, 20487.00
457.2080, 20550.00
458.3960, 20627.00
459.5840, 20597.00
460.7720, 20906.00
461.9590, 20851.00
463.1460, 20871.27
464.3340, 20939.81
465.5210, 20775.00
466.7080, 20911.00
467.8940, 20834.00
469.0810, 20792.00
470.2670, 21003.00
471.4540, 20981.00
472.6400, 20856.00
473.8260, 21088.00
475.0120, 21208.00
476.1970, 20989.00
477.3830, 21365.00
478.5680, 21257.21
479.7540, 21312.76
480.9390, 21313.00
482.1240, 21331.00
483.3080, 21421.00
484.4930, 21327.00
485.6780, 21588.00
486.8620, 21647.00
488.0460, 21442.00
489.2300, 21730.00
490.4140, 21828.00
491.5980, 21832.62
492.7810, 21833.00
493.9650, 21917.00
495.1480, 21909.00
496.3310, 21857.00
497.5140, 22025.00
498.6970, 21991.00
499.8800, 22164.00
501.0620, 22183.00
502.2440, 22223.00
503.4270, 22237.44
504.6090, 22375.00
505.7910, 22297.00
506.9720, 22179.00
508.1540, 22456.00
509.3350, 22294.00
510.5170, 22431.00
511.6980, 22423.00
512.8790, 22648.00
514.0600, 22367.00
515.2400, 22732.00
516.4210, 22590.00
517.6010, 22624.00
518.7810, 22659.00
519.9620, 22520.00
521.1410, 22814.00
522.3210, 22833.00
523.5010, 22787.00
524.6800, 22888.00
525.8600, 22832.00
527.0390, 23003.00
528.2180, 22835.00
529.3970, 23085.00
530.5750, 23062.00
531.7540, 23180.00
532.9320, 22990.00
534.1110, 23063.00
535.2890, 23163.00
536.4670, 23084.00
537.6440, 23062.00
538.8220, 23278.00
540.0000, 23324.00
541.1770, 23268.00
542.3540, 23276.00
543.5310, 23305.68
544.7080, 23562.00
545.8850, 23362.00
547.0610, 23530.00
548.2380, 23561.00
549.4140, 23474.00
550.5900, 23676.00
551.7660, 23708.13
552.9420, 23813.44
554.1170, 23993.36
555.2930, 24117.59
556.4680, 24189.38
557.6430, 24034.18
558.8180, 24185.56
559.9930, 24222.31
561.1680, 24260.01
562.3430, 24471.36
563.5170, 24379.35
564.6910, 24599.70
565.8650, 24703.59
567.0390, 24869.33
568.2130, 24919.70
569.3870, 25013.38
570.5600, 24956.00
571.7340, 25238.00
572.9070, 25161.00
574.0800, 25215.00
575.2530, 25492.00
576.4250, 25444.00
577.5980, 25529.00
578.7700, 25670.00
579.9430, 26085.00
581.1150, 26157.00
582.2870, 26454.65
583.4590, 26990.00
584.6300, 27049.00
585.8020, 27141.00
586.9730, 27639.00
588.1440, 28184.00
589.3150, 28617.00
590.4860, 29567.00
591.6570, 29875.00
592.8270, 30421.00
593.9980, 31429.00
595.1680, 31891.00
596.3380, 32344.00
597.5080, 33203.00
598.6780, 33664.00
599.8480, 34654.00
601.0170, 34772.00
602.1860, 35061.47
603.3550, 35284.00
604.5240, 35304.00
605.6930, 35260.00
606.8620, 35659.00
608.0310, 35425.00
609.1990, 35790.00
610.3670, 35685.00
611.5350, 35635.00
612.7030, 35353.00
613.8710, 35150.00
615.0390, 35072.00
616.2060, 34932.00
617.3730, 34714.00
618.5410, 34454.00
619.7080, 34333.00
620.8740, 34324.00
622.0410, 34174.00
623.2080, 33884.00
624.3740, 33731.00
625.5400, 33500.00
626.7060, 33418.00
627.8720, 33187.26
629.0380, 32989.01
630.2040, 32776.00
631.3690, 32635.00
632.5340, 32417.00
633.6990, 32417.00
634.8640, 32450.00
636.0290, 32283.97
637.1940, 32122.61
638.3580, 32037.00
639.5230, 31696.00
640.6870, 31461.00
641.8510, 31400.00
643.0150, 31176.00
644.1790, 30689.00
645.3420, 30709.00
646.5060, 30321.00
647.6690, 30327.00
648.8320, 30194.00
649.9950, 30116.00
651.1580, 29910.00
652.3200, 29759.00
653.4830, 29485.00
654.6450, 29162.24
655.8070, 29184.93
656.9690, 29146.02
658.1310, 29048.82
659.2930, 28718.74
660.4540, 28689.48
661.6160, 28539.60
662.7770, 28384.88
663.9380, 28397.94
665.0990, 28101.84
666.2600, 28112.23
667.4200, 28000.39
668.5810, 27944.43
669.7410, 27767.32
670.9010, 27627.67
672.0610, 27609.31
673.2210, 27523.78
674.3810, 27225.14
675.5400, 27201.25
676.6990, 27115.76
677.8590, 26971.83
679.0180, 26595.18
680.1760, 26519.37
681.3350, 26322.91
682.4940, 26121.51
683.6520, 26088.04
684.8100, 25745.39
685.9680, 25709.25
687.1260, 25550.76
688.2840, 25448.27
689.4420, 25224.51
690.5990, 25038.36
691.7560, 24973.50
692.9140, 24841.33
694.0710, 24603.77
695.2270, 24505.11
696.3840, 24158.38
697.5410, 24029.21
698.6970, 23880.80
699.8530, 23887.46
701.0090, 23837.42
702.1650, 23733.98
703.3210, 23402.55
704.4760, 23376.82
705.6320, 23235.38
706.7870, 23093.98
707.9420, 23125.24
709.0970, 22852.22
710.2520, 22890.59
711.4060, 22811.56
712.5610, 22793.35
713.7150, 22658.82
714.8690, 22454.81
716.0230, 22532.23
717.1770, 22549.77
718.3310, 22510.75
719.4840, 22240.62
720.6380, 22272.88
721.7910, 22186.40
722.9440, 22096.71
724.0970, 22176.51
725.2490, 21948.92
726.4020, 22029.51
727.5540, 21989.51
728.7070, 22007.19
729.8590, 21905.37
731.0110, 21842.72
732.1620, 21903.12
733.3140, 21898.04
734.4650, 21789.18
735.6170, 21820.77
736.7680, 21606.17
737.9190, 21610.86
739.0700, 21711.13
740.2200, 21616.97
741.3710, 21659.40
742.5210, 21652.18
743.6710, 21413.21
744.8210, 21581.98
745.9710, 21576.88
747.1210, 21393.18
748.2700, 21553.20
749.4200, 21397.79
750.5690, 21357.29
751.7180, 21403.70
752.8670, 21363.01
754.0160, 21446.00
755.1640, 21418.00
756.3130, 21534.00
757.4610, 21536.00
758.6090, 21396.00
759.7570, 21412.00
760.9050, 21368.00
762.0530, 21404.00
763.2000, 21360.00
764.3470, 21415.00
765.4940, 21415.00
766.6410, 21368.00
767.7880, 21283.00
768.9350, 21217.15
770.0810, 21356.32
771.2280, 21433.89
772.3740, 21453.17
773.5200, 21239.58
774.6660, 21326.70
775.8120, 21293.30
776.9570, 21254.97
778.1030, 21384.41
779.2480, 21204.69
780.3930, 21331.47
781.5380, 21335.90
782.6830, 21396.33
783.8270, 21335.50
784.9720, 21312.13
786.1160, 21410.05
787.2600, 21440.81
788.4040, 21366.02
789.5480, 21430.01
790.6910, 21246.06
791.8350, 21279.68
792.9780, 21407.17
794.1210, 21338.49
795.2640, 21404.70
796.4070, 21419.53
797.5500, 21200.89
798.6920, 21388.28
799.8350, 21168.00
800.9770, 21314.00
802.1190, 21265.89
803.2610, 21238.60
804.4030, 21368.00
805.5440, 21243.00
806.6850, 21377.00
807.8270, 21279.28
808.9680, 21322.16
810.1090, 21107.00
811.2490, 21316.00
812.3900, 21242.00
813.5300, 21080.00
814.6710, 21308.00
815.8110, 21146.00
816.9510, 21160.00
818.0910, 21313.00
819.2300, 21369.00
820.3700, 21121.00
821.5090, 21210.00
822.6480, 21293.00
823.7870, 21173.00
824.9260, 21311.00
826.0640, 21183.00
827.2030, 21232.00
828.3410, 21203.00
829.4790, 21143.00
830.6170, 21197.49
831.7550, 21193.78
832.8930, 21187.00
834.0310, 21320.00
835.1680, 21183.00
836.3050, 21350.00
837.4420, 21367.46
838.5790, 21354.00
839.7160, 21374.00
840.8520, 21334.00
841.9890, 21088.00
843.1250, 21410.00
844.2610, 21197.00
845.3970, 21363.00
846.5330, 21137.00
847.6680, 21181.00
848.8040, 21335.00
849.9390, 21373.00
851.0740, 21271.00
852.2090, 21208.00
853.3440, 21219.00
854.4780, 21150.00
855.6130, 21182.82
856.7470, 21378.00
857.8810, 21229.00
859.0150, 21275.00
860.1490, 21267.00
861.2830, 21560.00
862.4160, 21402.00
863.5490, 21496.00
864.6830, 21367.00
865.8160, 21304.00
866.9480, 21321.00
868.0810, 21236.00
869.2140, 21240.00
870.3460, 21237.00
871.4780, 21336.00
872.6100, 21337.00
873.7420, 21151.00
874.8740, 21506.00
876.0050, 21440.00
877.1370, 21263.00
878.2680, 21197.00
879.3990, 21246.73
880.5300, 21360.00
881.6600, 21287.00
882.7910, 21547.00
883.9210, 21315.00
885.0520, 21174.00
886.1820, 21360.00
887.3120, 21336.00
888.4410, 21373.00
889.5710, 21205.00
890.7000, 21496.00
891.8300, 21554.00
892.9590, 21465.00
894.0880, 21311.00
895.2160, 21628.00
896.3450, 21481.00
897.4730, 21583.00
898.6020, 21739.00
899.7300, 21853.00
900.8580, 21521.00
901.9860, 21521.00
903.1130, 21690.00
904.2410, 21413.00
905.3680, 21759.00
906.4950, 21769.00
907.6220, 21617.00
908.7490, 21384.00
909.8760, 21574.79
911.0020, 21722.46
912.1280, 21808.53
913.2550, 21836.32
914.3810, 21631.23
915.5060, 21726.84
916.6320, 21701.95
917.7580, 21672.11
918.8830, 21810.05
920.0080, 21638.82
921.1330, 21774.10
922.2580, 21787.02
923.3830, 21855.94
924.5070, 21803.60
925.6310, 21788.71
926.7560, 21895.12
927.8800, 21934.37
929.0040, 21868.07
930.1270, 21940.54
931.2510, 21765.07
932.3740, 21807.17
933.4970, 21943.14
934.6200, 21882.93
935.7430, 21957.62
936.8660, 21980.93
937.9890, 21770.76
939.1110, 21966.63
940.2330, 21986.90
941.3550, 21826.86
942.4770, 22008.82
943.5990, 21873.64
944.7200, 21851.65
945.8420, 21914.86
946.9630, 21889.26
948.0840, 21891.94
949.2050, 21890.00
950.3260, 21891.41
951.4460, 21894.88
952.5670, 21935.00
953.6870, 21916.00
954.8070, 21920.00
955.9270, 22006.00
957.0470, 22160.00
958.1660, 22064.00
959.2860, 22044.00
960.4050, 22077.00
961.5240, 21974.00
962.6430, 22084.00
963.7620, 22052.81
964.8810, 21905.00
965.9990, 22052.57
967.1170, 22041.35
968.2350, 21990.00
969.3530, 22104.00
970.4710, 22056.00
971.5890, 22029.00
972.7060, 21952.00
973.8240, 22135.00
974.9410, 22080.00
976.0580, 22271.00
977.1740, 22043.00
978.2910, 22076.00
979.4080, 22233.00
980.5240, 22214.00
981.6400, 22212.00
982.7560, 22162.00
983.8720, 22223.21
984.9870, 22268.56
986.1030, 22323.00
987.2180, 22381.00
988.3330, 22400.00
989.4480, 22338.00
990.5630, 22271.00
991.6780, 22229.06
992.7920, 22377.81
993.9070, 22464.97
995.0210, 22493.83
996.1350, 22289.81
997.2490, 22386.51
998.3620, 22362.69
999.4760, 22333.93
1000.589, 22472.94
1001.702, 22302.79
1002.815, 22439.14
1003.928, 22453.14
1005.041, 22523.14
1006.153, 22471.88
1007.266, 22458.07
1008.378, 22565.55
1009.490, 22605.87
1010.602, 22540.65
1011.713, 22614.19
1012.825, 22439.80
1013.936, 22482.97
1015.047, 22620.02
1016.158, 22560.88
1017.269, 22636.64
1018.380, 22661.03
1019.490, 22451.93
1020.601, 22648.88
1021.711, 22670.22
1022.821, 22511.26
1023.931, 22694.29
1025.040, 22560.17
1026.150, 22539.27
1027.259, 22603.54
1028.368, 22579.01
1029.477, 22578.59
1030.586, 22727.10
1031.695, 22814.01
1032.803, 22842.62
1033.912, 22638.37
1035.020, 22734.82
1036.128, 22710.75
1037.236, 22681.75
1038.343, 22820.51
1039.451, 22650.12
1040.558, 22786.23
1041.665, 22799.98
1042.772, 22869.73
1043.879, 22818.23
1044.986, 22804.18
1046.093, 22911.42
1047.199, 22951.49
1048.305, 22886.02
1049.411, 22959.32
1050.517, 22784.68
1051.623, 22827.62
1052.728, 22964.42
1053.833, 22905.04
1054.939, 22980.56
1056.044, 23004.70
1057.148, 22795.35
1058.253, 22992.05
1059.358, 23013.15
1060.462, 22853.95
1061.566, 23036.73
1062.670, 22902.38
1063.774, 22881.22
1064.878, 22945.26
1065.981, 22920.48
1067.085, 22725.00
1068.188, 22923.00
1069.291, 22928.00
1070.394, 23056.00
1071.496, 23210.00
1072.599, 22911.00
1073.701, 23046.00
1074.803, 22909.00
1075.905, 23015.00
1077.007, 23008.00
1078.109, 23076.00
1079.210, 23016.00
1080.312, 23051.65
1081.413, 23047.00
1082.514, 23065.00
1083.615, 23052.00
1084.715, 23046.00
1085.816, 23053.00
1086.916, 23029.01
1088.016, 23324.00
1089.116, 23064.00
1090.216, 23136.00
1091.316, 23318.00
1092.415, 23229.00
1093.515, 22985.00
1094.614, 23131.00
1095.713, 23173.00
1096.812, 23167.00
1097.910, 23276.04
1099.009, 23271.00
1100.107, 23352.00
1101.205, 23337.00
1102.303, 23252.00
1103.401, 23400.00
1104.499, 23492.00
1105.596, 23314.00
1106.693, 23458.61
1107.791, 23162.00
1108.888, 23479.00
1109.984, 23312.00
1111.081, 23209.00
1112.177, 23385.00
1113.274, 23155.00
1114.370, 23294.00
1115.466, 23266.00
1116.562, 23413.00
1117.657, 23307.00
1118.753, 23497.00
1119.848, 23103.00
1120.943, 23326.00
1122.038, 23313.00
1123.133, 23176.00
1124.228, 23415.00
1125.322, 23222.55
1126.416, 23294.00
1127.510, 23127.00
1128.604, 23227.00
1129.698, 23427.00
1130.792, 23238.00
1131.885, 23561.00
1132.978, 23316.00
1134.071, 23283.00
1135.164, 23353.00
1136.257, 23466.00
1137.350, 23507.00
1138.442, 23511.48
1139.534, 23571.11
1140.627, 23461.00
1141.718, 23546.00
1142.810, 23514.00
1143.902, 23338.00
1144.993, 23396.00
1146.084, 23227.00
1147.176, 23412.00
1148.266, 23534.00
1149.357, 23258.00
1150.448, 23433.00
1151.538, 23326.00
1152.628, 23359.00
1153.718, 23344.00
1154.808, 23447.00
1155.898, 23518.00
1156.988, 23498.00
1158.077, 23421.00
1159.166, 23434.00
1160.255, 23403.00
1161.344, 23451.00
1162.433, 23475.00
1163.521, 23372.00
1164.610, 23423.00
1165.698, 23459.00
1166.786, 23449.00
1167.874, 23510.00
1168.961, 23493.00
1170.049, 23698.00
1171.136, 23625.00
1172.224, 23390.00
1173.311, 23690.00
1174.397, 23582.00
1175.484, 23610.00
1176.571, 23626.00
1177.657, 23549.00
1178.743, 23659.00
1179.829, 23603.72
1180.915, 23494.00
1182.001, 23707.00
1183.086, 23632.00
1184.171, 23961.00
1185.256, 23887.52
1186.341, 23849.00
1187.426, 23868.00
1188.511, 23775.00
1189.595, 23802.00
1190.680, 23897.00
1191.764, 23731.00
1192.848, 23922.00
1193.932, 23807.63
1195.015, 23957.00
1196.099, 23761.00
1197.182, 23859.00
1198.265, 24018.00
1199.348, 23794.00
1200.431, 23865.00
1201.513, 23625.00
1202.596, 24148.00
1203.678, 23722.00
1204.760, 23886.00
1205.842, 23899.00
1206.924, 23749.00
1208.005, 24129.00
1209.087, 23937.00
1210.168, 23964.00
1211.249, 23789.00
1212.330, 24083.00
1213.411, 23915.00
1214.491, 23941.00
1215.572, 23955.00
1216.652, 23875.00
1217.732, 23918.00
1218.812, 23865.17
1219.891, 23887.00
1220.971, 23803.00
1222.050, 23750.00
1223.129, 23735.04
1224.208, 23825.00
1225.287, 23748.00
1226.366, 23873.00
1227.444, 23806.00
1228.523, 24042.00
1229.601, 24049.00
1230.679, 23782.00
1231.757, 24057.00
1232.834, 23858.00
1233.912, 23947.37
1234.989, 24004.00
1236.066, 24027.00
1237.143, 23960.00
1238.220, 23854.00
1239.297, 24137.00
1240.373, 23709.00
1241.449, 23950.00
1242.526, 23883.00
1243.601, 23818.00
1244.677, 24005.00
1245.753, 23660.00
1246.828, 23878.00
1247.904, 23819.22
1248.979, 23949.75
1250.054, 24018.69
1251.128, 24029.34
1252.203, 23807.11
1253.277, 23885.60
1254.351, 23843.57
1255.426, 23796.60
1256.499, 23917.42
1257.573, 23729.07
1258.647, 23847.22
1259.720, 23843.03
1260.793, 23894.84
1261.866, 23825.39
1262.939, 23793.39
1264.012, 23882.69
1265.084, 23904.84
1266.157, 23821.43
1267.229, 23876.81
1268.301, 23850.07
1269.373, 23709.25
1270.444, 23828.14
1271.516, 23750.84
1272.587, 23701.14
1273.658, 23836.10
1274.729, 23909.46
1275.800, 23924.52
1276.871, 23706.71
1277.941, 23789.62
1279.011, 23752.02
1280.082, 23709.46
1281.151, 23834.70
1282.221, 23650.77
1283.291, 23773.34
1284.360, 23773.56
1285.430, 23829.78
1286.499, 23764.74
1287.568, 23737.16
1288.636, 23830.88
1289.705, 23857.43
1290.773, 23778.45
1291.841, 23838.23
1292.909, 23650.07
1293.977, 23679.49
1295.045, 23802.78
1296.113, 23729.89
1297.180, 23791.90
1298.247, 23802.53
1299.314, 23579.69
1300.381, 23762.89
1301.448, 23770.48
1302.514, 23597.79
1303.580, 23767.08
1304.647, 23619.23
1305.713, 23584.58
1306.778, 23304.00
