##NAMES=Franklinite
##RRUFFID=R070137
##IDEAL CHEMISTRY=Zn^2+^Fe^3+^_2_O_4_
##LOCALITY=Franklin mine, Franklin, Sussex County, New Jersey, USA
##OWNER=RRUFF
##SOURCE=Michael Scott
##DESCRIPTION=Gray semi-metallic octahedral crystals associated with calcite
##STATUS=The identification of this mineral has been confirmed by X-ray diffraction and chemical analysis
##URL=rruff.info/R070137
##MEASURED CHEMISTRY=(Zn_0.63_Mn_0.36_Mg_0.01_)_Σ=1_(Fe^3+^_1.96_Al_0.04_)_Σ=2_O_4_
##PIN_ID=L01062
##ORIENTATION=Laser parallel to c* (0 0 1). Fiducial mark perpendicular to laser is parallel to a [1 0 0]
151.9270, 17328.00
153.1520, 17272.00
154.3770, 17584.00
155.6010, 17508.04
156.8260, 17531.39
158.0500, 17574.00
159.2740, 17465.00
160.4980, 17450.75
161.7210, 17482.38
162.9450, 17490.02
164.1690, 17474.98
165.3920, 17369.34
166.6150, 17380.71
167.8380, 17345.19
169.0610, 17307.75
170.2840, 17293.00
171.5070, 17339.05
172.7290, 17361.14
173.9510, 17360.54
175.1740, 17269.33
176.3960, 17295.13
177.6180, 17274.04
178.8390, 17251.03
180.0610, 17233.55
181.2830, 17224.00
182.5040, 17168.00
183.7250, 17121.00
184.9460, 17089.57
186.1670, 17138.00
187.3880, 17067.72
188.6090, 17128.84
189.8290, 17165.98
191.0500, 17180.44
192.2700, 17104.28
193.4900, 17145.14
194.7100, 17139.10
195.9300, 17131.14
197.1490, 17188.46
198.3690, 17125.48
199.5880, 17181.76
200.8080, 17190.44
202.0270, 17220.91
203.2460, 17204.19
204.4650, 17202.04
205.6830, 17247.09
206.9020, 17266.01
208.1200, 17243.85
209.3380, 17275.70
210.5570, 17211.06
211.7750, 17231.09
212.9920, 17287.64
214.2100, 17223.42
215.4280, 17292.54
216.6450, 17337.68
217.8620, 17360.14
219.0790, 17291.98
220.2960, 17340.83
221.5130, 17342.79
222.7300, 17342.83
223.9460, 17408.14
225.1630, 17353.17
226.3790, 17417.44
227.5950, 17434.11
228.8110, 17472.57
230.0270, 17463.84
231.2430, 17469.69
232.4580, 17522.72
233.6740, 17549.63
234.8890, 17535.46
236.1040, 17575.29
237.3190, 17518.64
238.5340, 17546.65
239.7490, 17611.19
240.9630, 17599.38
242.1780, 17640.08
243.3920, 17659.36
244.6060, 17615.51
245.8200, 17661.60
247.0340, 17685.00
248.2470, 17617.77
249.4610, 17667.57
250.6740, 17670.46
251.8880, 17671.44
253.1010, 17737.70
254.3140, 17683.65
255.5270, 17748.87
256.7390, 17723.01
257.9520, 17801.26
259.1640, 17855.53
260.3760, 17887.10
261.5880, 17828.07
262.8000, 17886.04
264.0120, 17897.12
265.2240, 17906.28
266.4350, 17980.71
267.6470, 17934.85
268.8580, 18008.24
270.0690, 18034.02
271.2800, 18081.59
272.4910, 18081.98
273.7020, 18096.94
274.9120, 18159.08
276.1230, 18195.10
277.3330, 18190.04
278.5430, 18113.46
279.7530, 18178.53
280.9630, 18196.70
282.1720, 18212.93
283.3820, 18294.46
284.5910, 18255.67
285.8000, 18336.14
287.0090, 18369.01
288.2180, 18423.66
289.4270, 18431.13
290.6360, 18453.18
291.8440, 18522.40
293.0530, 18565.51
294.2610, 18567.52
295.4690, 18623.54
296.6770, 18583.07
297.8850, 18627.27
299.0920, 18663.52
300.3000, 18751.29
301.5070, 18815.06
302.7140, 18856.15
303.9210, 18806.63
305.1280, 18874.12
306.3350, 18894.71
307.5420, 18913.38
308.7480, 18997.31
309.9540, 18960.94
311.1600, 19043.83
312.3660, 19079.12
313.5720, 19136.19
314.7780, 19148.62
315.9840, 19151.66
317.1890, 19162.00
318.3940, 19169.00
319.6000, 19197.34
320.8050, 19302.52
322.0090, 19383.68
323.2140, 19442.21
324.4190, 19410.12
325.6230, 19495.00
326.8270, 19532.99
328.0320, 19569.10
329.2360, 19670.45
330.4390, 19651.45
331.6430, 19751.77
332.8470, 19804.48
334.0500, 19878.93
335.2530, 19886.00
336.4560, 19949.00
337.6590, 20095.00
338.8620, 20145.00
340.0650, 20127.00
341.2670, 20297.00
342.4700, 20098.00
343.6720, 20281.00
344.8740, 20411.00
346.0760, 20470.00
347.2780, 20399.00
348.4790, 20559.00
349.6810, 20594.30
350.8820, 20719.02
352.0830, 20795.22
353.2840, 20824.19
354.4850, 20815.94
355.6860, 20744.27
356.8870, 20679.10
358.0870, 20587.54
359.2870, 20448.00
360.4880, 20489.00
361.6880, 20272.00
362.8870, 20252.00
364.0870, 20186.00
365.2870, 20238.00
366.4860, 20121.00
367.6850, 20089.46
368.8850, 20105.20
370.0840, 20098.86
371.2820, 20071.72
372.4810, 19955.79
373.6800, 19958.74
374.8780, 19916.68
376.0760, 19874.55
377.2740, 19899.56
378.4720, 19806.12
379.6700, 19833.81
380.8680, 19815.74
382.0650, 19821.34
383.2630, 19781.59
384.4600, 19758.28
385.6570, 19784.02
386.8540, 19785.48
388.0510, 19747.73
389.2470, 19728.45
390.4440, 19791.53
391.6400, 19830.63
392.8360, 19847.05
394.0320, 19772.85
395.2280, 19815.67
396.4240, 19811.59
397.6190, 19805.58
398.8150, 19864.87
400.0100, 19803.85
401.2050, 19862.09
402.4000, 19840.84
403.5950, 19833.69
404.7900, 19894.18
405.9840, 19836.71
407.1790, 19900.86
408.3730, 19919.74
409.5670, 19962.75
410.7610, 19960.93
411.9550, 19976.03
413.1480, 20040.64
414.3420, 20081.50
415.5350, 19933.00
416.7280, 20035.00
417.9220, 20144.00
419.1140, 20270.00
420.3070, 20053.00
421.5000, 20176.00
422.6920, 20131.00
423.8850, 20254.00
425.0770, 20380.00
426.2690, 20399.00
427.4610, 20287.00
428.6520, 20180.00
429.8440, 20332.00
431.0350, 20221.00
432.2260, 20497.00
433.4180, 20504.57
434.6090, 20560.42
435.7990, 20658.00
436.9900, 20622.00
438.1800, 20683.00
439.3710, 20599.00
440.5610, 20596.00
441.7510, 20871.00
442.9410, 20731.00
444.1310, 20845.00
445.3200, 20853.11
446.5100, 20864.31
447.6990, 20828.00
448.8880, 20911.00
450.0770, 20928.00
451.2660, 20862.00
452.4550, 20911.00
453.6430, 20943.00
454.8320, 21008.00
456.0200, 21123.00
457.2080, 21115.00
458.3960, 21055.00
459.5840, 21071.00
460.7720, 21189.00
461.9590, 21264.00
463.1460, 21189.00
464.3340, 21271.37
465.5210, 21255.00
466.7080, 21392.00
467.8940, 21300.00
469.0810, 21352.81
470.2670, 21285.00
471.4540, 21370.00
472.6400, 21334.00
473.8260, 21339.00
475.0120, 21539.00
476.1970, 21611.00
477.3830, 21530.00
478.5680, 21509.72
479.7540, 21727.24
480.9390, 21865.63
482.1240, 21929.17
483.3080, 21693.64
484.4930, 21844.29
485.6780, 21840.19
486.8620, 21829.71
488.0460, 22034.67
489.2300, 21842.64
490.4140, 22044.19
491.5980, 22088.63
492.7810, 22204.94
493.9650, 22165.58
495.1480, 22174.28
496.3310, 22338.73
497.5140, 22416.94
498.6970, 22359.63
499.8800, 22480.51
501.0620, 22282.97
502.2440, 22364.83
503.4270, 22567.26
504.6090, 22517.74
505.7910, 22641.44
506.9720, 22699.13
508.1540, 22723.11
509.3350, 22736.34
510.5170, 22790.17
511.6980, 22766.00
512.8790, 22746.00
514.0600, 22851.00
515.2400, 23007.00
516.4210, 23091.29
517.6010, 23058.00
518.7810, 23133.89
519.9620, 23152.88
521.1410, 23121.00
522.3210, 23198.00
523.5010, 23138.00
524.6800, 23135.00
525.8600, 23198.00
527.0390, 23271.00
528.2180, 23154.00
529.3970, 23331.00
530.5750, 23232.00
531.7540, 23346.00
532.9320, 23611.00
534.1110, 23314.00
535.2890, 23477.00
536.4670, 23329.00
537.6440, 23415.00
538.8220, 23498.00
540.0000, 23566.00
541.1770, 23516.01
542.3540, 23818.00
543.5310, 23441.00
544.7080, 23734.00
545.8850, 23881.00
547.0610, 23635.00
548.2380, 23894.00
549.4140, 23764.00
550.5900, 24079.00
551.7660, 24008.00
552.9420, 24399.00
554.1170, 24097.22
555.2930, 24369.76
556.4680, 24563.11
557.6430, 24681.62
558.8180, 24501.09
559.9930, 24706.70
561.1680, 24757.56
562.3430, 24802.08
563.5170, 25061.96
564.6910, 24924.85
565.8650, 25181.31
567.0390, 25280.67
568.2130, 25451.93
569.3870, 25467.49
570.5600, 25531.05
571.7340, 25750.46
572.9070, 25883.54
574.0800, 25881.09
575.2530, 26056.84
576.4250, 25914.13
577.5980, 25901.00
578.7700, 26143.00
579.9430, 26152.00
581.1150, 26508.00
582.2870, 26599.00
583.4590, 26835.00
584.6300, 27295.00
585.8020, 27543.47
586.9730, 27875.91
588.1440, 28486.00
589.3150, 28564.00
590.4860, 29395.00
591.6570, 29917.00
592.8270, 30419.00
593.9980, 30922.00
595.1680, 31363.68
596.3380, 31879.68
597.5080, 32316.59
598.6780, 32678.65
599.8480, 32741.69
601.0170, 33190.58
602.1860, 33484.70
603.3550, 33772.50
604.5240, 34275.74
605.6930, 34620.00
606.8620, 34569.79
608.0310, 34690.21
609.1990, 34731.59
610.3670, 34698.11
611.5350, 34365.60
612.7030, 34419.23
613.8710, 34291.00
615.0390, 34230.00
616.2060, 34137.00
617.3730, 34025.77
618.5410, 33669.00
619.7080, 33770.00
620.8740, 33493.00
622.0410, 33269.00
623.2080, 33187.00
624.3740, 33148.00
625.5400, 32953.00
626.7060, 32802.48
627.8720, 32611.17
629.0380, 32431.00
630.2040, 32261.68
631.3690, 32086.00
632.5340, 31927.79
633.6990, 31707.88
634.8640, 31429.99
636.0290, 31443.99
637.1940, 31381.85
638.3580, 31247.97
639.5230, 30817.87
640.6870, 30777.01
641.8510, 30584.37
643.0150, 30388.34
644.1790, 30410.72
645.3420, 30039.19
646.5060, 30064.07
647.6690, 29934.91
648.8320, 29880.63
649.9950, 29673.59
651.1580, 29517.60
652.3200, 29520.43
653.4830, 29439.87
654.6450, 29226.82
655.8070, 29194.94
656.9690, 28847.62
658.1310, 28782.64
659.2930, 28841.15
660.4540, 28650.79
661.6160, 28636.50
662.7770, 28559.29
663.9380, 28185.20
665.0990, 28335.46
666.2600, 28263.18
667.4200, 27826.00
668.5810, 27957.00
669.7410, 27627.00
670.9010, 27627.00
672.0610, 27315.00
673.2210, 27375.00
674.3810, 27101.00
675.5400, 27057.00
676.6990, 26903.79
677.8590, 26799.00
679.0180, 26611.00
680.1760, 26191.00
681.3350, 26099.00
682.4940, 26056.00
683.6520, 25743.00
684.8100, 25716.00
685.9680, 25381.00
687.1260, 25336.00
688.2840, 25012.00
689.4420, 25139.00
690.5990, 25085.00
691.7560, 24827.00
692.9140, 24842.00
694.0710, 24675.61
695.2270, 24532.00
696.3840, 24403.00
697.5410, 24205.00
698.6970, 24000.00
699.8530, 23916.00
701.0090, 23823.00
702.1650, 23653.00
703.3210, 23716.00
704.4760, 23556.21
705.6320, 23509.92
706.7870, 23298.00
707.9420, 23432.00
709.0970, 23189.00
710.2520, 23246.00
711.4060, 23110.00
712.5610, 22914.00
713.7150, 22985.00
714.8690, 22824.00
716.0230, 22774.00
717.1770, 22700.00
718.3310, 22685.00
719.4840, 22490.00
720.6380, 22632.00
721.7910, 22303.00
722.9440, 22418.00
724.0970, 22456.00
725.2490, 22323.00
726.4020, 22412.00
727.5540, 22451.00
728.7070, 22178.00
729.8590, 22092.00
731.0110, 22204.00
732.1620, 22152.00
733.3140, 22147.00
734.4650, 22211.00
735.6170, 22283.00
736.7680, 22270.83
737.9190, 22181.00
739.0700, 22180.00
740.2200, 22098.00
741.3710, 21833.00
742.5210, 21853.50
743.6710, 21803.60
744.8210, 21856.00
745.9710, 21619.54
747.1210, 21791.12
748.2700, 21883.60
749.4200, 21901.23
750.5690, 21619.82
751.7180, 21724.56
752.8670, 21674.55
754.0160, 21618.20
755.1640, 21777.29
756.3130, 21539.39
757.4610, 21695.07
758.6090, 21693.63
759.7570, 21764.11
760.9050, 21678.88
762.0530, 21641.74
763.2000, 21760.37
764.3470, 21792.75
765.4940, 21689.60
766.6410, 21627.00
767.7880, 21572.00
768.9350, 21492.00
770.0810, 21617.00
771.2280, 21578.00
772.3740, 21588.00
773.5200, 21456.00
774.6660, 21583.00
775.8120, 21708.00
776.9570, 21555.00
778.1030, 21589.00
779.2480, 21428.80
780.3930, 21608.36
781.5380, 21708.81
782.6830, 21734.42
783.8270, 21460.99
784.9720, 21573.71
786.1160, 21531.67
787.2600, 21483.29
788.4040, 21650.36
789.5480, 21420.42
790.6910, 21584.07
791.8350, 21590.61
792.9780, 21669.05
794.1210, 21591.79
795.2640, 21562.62
796.4070, 21689.20
797.5500, 21729.54
798.6920, 21634.36
799.8350, 21717.37
800.9770, 21663.96
802.1190, 21505.00
803.2610, 21575.30
804.4030, 21575.41
805.5440, 21460.68
806.6850, 21643.46
807.8270, 21747.14
808.9680, 21775.97
810.1090, 21505.76
811.2490, 21621.70
812.3900, 21582.88
813.5300, 21537.72
814.6710, 21708.01
815.8110, 21481.29
816.9510, 21648.16
818.0910, 21657.91
819.2300, 21739.57
820.3700, 21665.53
821.5090, 21639.57
822.6480, 21769.38
823.7870, 21812.93
824.9260, 21720.96
826.0640, 21807.19
827.2030, 21575.04
828.3410, 21622.27
829.4790, 21790.04
830.6170, 21705.89
831.7550, 21794.97
832.8930, 21818.07
834.0310, 21541.37
835.1680, 21786.06
836.3050, 21805.26
837.4420, 21592.94
838.5790, 21819.76
839.7160, 21639.36
840.8520, 21604.31
841.9890, 21678.65
843.1250, 21638.95
844.2610, 21779.05
845.3970, 21745.94
846.5330, 21605.79
847.6680, 21562.81
848.8040, 21745.21
849.9390, 21848.51
851.0740, 21876.96
852.2090, 21606.37
853.3440, 21721.93
854.4780, 21682.73
855.6130, 21637.19
856.7470, 21807.09
857.8810, 21579.99
859.0150, 21746.48
860.1490, 21755.85
861.2830, 21837.13
862.4160, 21762.70
863.5490, 21736.37
864.6830, 21865.79
865.8160, 21908.97
866.9480, 21816.62
868.0810, 21902.46
869.2140, 21669.93
870.3460, 21716.78
871.4780, 21884.17
872.6100, 21799.64
873.7420, 21888.34
874.8740, 21911.06
876.0050, 21633.97
877.1370, 21878.29
878.2680, 21897.11
879.3990, 21568.00
880.5300, 21433.00
881.6600, 21767.00
882.7910, 21796.00
883.9210, 21940.00
885.0520, 21688.00
886.1820, 21770.00
887.3120, 21535.00
888.4410, 21652.00
889.5710, 21710.00
890.7000, 21812.00
891.8300, 21851.95
892.9590, 21837.25
894.0880, 21849.00
895.2160, 21784.00
896.3450, 21621.00
897.4730, 21631.44
898.6020, 21616.01
899.7300, 21709.00
900.8580, 21693.00
901.9860, 21806.00
903.1130, 21867.00
904.2410, 21782.00
905.3680, 21830.00
906.4950, 21677.00
907.6220, 21695.00
908.7490, 22004.00
909.8760, 21830.00
911.0020, 21938.00
912.1280, 21844.00
913.2550, 21895.00
914.3810, 21874.00
915.5060, 21806.00
916.6320, 22006.00
917.7580, 21955.00
918.8830, 22069.00
920.0080, 21870.00
921.1330, 21844.00
922.2580, 22090.00
923.3830, 21969.00
924.5070, 22041.95
925.6310, 21948.00
926.7560, 21979.00
927.8800, 22087.00
929.0040, 21904.00
930.1270, 21855.00
931.2510, 21878.00
932.3740, 22036.00
933.4970, 21923.00
934.6200, 22175.00
935.7430, 21920.00
936.8660, 22209.00
937.9890, 22081.00
939.1110, 22037.00
940.2330, 21959.00
941.3550, 22031.00
942.4770, 22175.00
943.5990, 22108.00
944.7200, 21973.00
945.8420, 22232.00
946.9630, 21876.00
948.0840, 21892.00
949.2050, 22202.00
950.3260, 21978.00
951.4460, 22009.00
952.5670, 22312.00
953.6870, 21913.00
954.8070, 22178.00
955.9270, 22276.00
957.0470, 22064.00
958.1660, 22200.00
959.2860, 22055.00
960.4050, 22157.00
961.5240, 22135.00
962.6430, 22235.00
963.7620, 22256.00
964.8810, 22235.77
965.9990, 22223.51
967.1170, 22163.00
968.2350, 22132.00
969.3530, 22042.00
970.4710, 22046.19
971.5890, 22069.53
972.7060, 22141.00
973.8240, 22174.00
974.9410, 22198.00
976.0580, 22245.00
977.1740, 22329.93
978.2910, 22421.00
979.4080, 22494.00
980.5240, 22497.05
981.6400, 22502.00
982.7560, 22319.00
983.8720, 22409.00
984.9870, 22290.00
986.1030, 22431.00
987.2180, 22342.00
988.3330, 22379.00
989.4480, 22498.00
990.5630, 22432.00
991.6780, 22401.00
992.7920, 22365.00
993.9070, 22227.00
995.0210, 22448.00
996.1350, 22536.00
997.2490, 22382.00
998.3620, 22444.00
999.4760, 22304.00
1000.589, 22311.20
1001.702, 22485.00
1002.815, 22316.00
1003.928, 22334.00
1005.041, 22359.00
1006.153, 22476.00
1007.266, 22479.45
1008.378, 22362.54
1009.490, 22550.03
1010.602, 22658.43
1011.713, 22691.96
1012.825, 22426.47
1013.936, 22547.12
1015.047, 22513.02
1016.158, 22472.57
1017.269, 22647.56
1018.380, 22425.55
1019.490, 22597.12
1020.601, 22611.59
1021.711, 22697.96
1022.821, 22628.62
1023.931, 22607.37
1025.040, 22741.87
1026.150, 22790.14
1027.259, 22702.87
1028.368, 22793.80
1029.477, 22566.34
1030.586, 22618.28
1031.695, 22790.75
1032.803, 22577.50
1033.912, 22767.82
1035.020, 22879.04
1036.128, 22915.40
1037.236, 22652.73
1038.343, 22776.20
1039.451, 22744.92
1040.558, 22707.29
1041.665, 22885.10
1042.772, 22665.92
1043.879, 22840.31
1044.986, 22857.60
1046.093, 22946.79
1047.199, 22880.27
1048.305, 22861.84
1049.411, 22999.16
1050.517, 23050.24
1051.623, 22965.80
1052.728, 23059.54
1053.833, 22834.90
1054.939, 22889.66
1056.044, 23064.95
1057.148, 22988.31
1058.253, 23084.91
1059.358, 23115.53
1060.462, 22846.33
1061.566, 23098.53
1062.670, 23125.24
1063.774, 22920.43
1064.878, 23154.77
1065.981, 22965.00
1067.085, 22829.00
1068.188, 22990.00
1069.291, 23034.00
1070.394, 23028.00
1071.496, 23122.54
1072.599, 22915.00
1073.701, 23110.00
1074.803, 23203.00
1075.905, 22988.00
1077.007, 22855.00
1078.109, 23213.00
1079.210, 23187.00
1080.312, 22955.00
1081.413, 23027.00
1082.514, 23168.00
1083.615, 23067.00
1084.715, 23234.00
1085.816, 23066.00
1086.916, 23261.00
1088.016, 23179.00
1089.116, 23129.00
1090.216, 23125.00
1091.316, 22994.00
1092.415, 23090.00
1093.515, 23180.00
1094.614, 23002.00
1095.713, 23147.00
1096.812, 23217.00
1097.910, 23281.00
1099.009, 23349.13
1100.107, 23180.00
1101.205, 23411.00
1102.303, 23307.00
1103.401, 23284.00
1104.499, 23341.54
1105.596, 23247.07
1106.693, 23398.00
1107.791, 23146.00
1108.888, 23290.00
1109.984, 23239.11
1111.081, 23394.00
1112.177, 23329.00
1113.274, 23449.00
1114.370, 23444.08
1115.466, 23188.00
1116.562, 23450.00
1117.657, 23332.00
1118.753, 23347.00
1119.848, 23418.00
1120.943, 23407.00
1122.038, 23191.00
1123.133, 23269.00
1124.228, 23233.00
1125.322, 23269.00
1126.416, 23412.00
1127.510, 23359.46
1128.604, 23392.00
1129.698, 23372.00
1130.792, 23316.00
1131.885, 23345.00
1132.978, 23287.00
1134.071, 23331.00
1135.164, 23229.00
1136.257, 23217.62
1137.350, 23232.38
1138.442, 23136.00
1139.534, 23288.00
1140.627, 23114.96
1141.718, 23306.09
1142.810, 23418.12
1143.902, 23455.30
1144.993, 23193.43
1146.084, 23317.71
1147.176, 23287.25
1148.266, 23250.42
1149.357, 23429.05
1150.448, 23210.68
1151.538, 23385.88
1152.628, 23403.97
1153.718, 23345.95
1154.808, 23531.15
1155.898, 23637.26
1156.988, 23668.51
1158.077, 23400.72
1159.166, 23519.08
1160.255, 23482.69
1161.344, 23439.95
1162.433, 23612.65
1163.521, 23388.36
1164.610, 23557.64
1165.698, 23569.82
1166.786, 23653.90
1167.874, 23582.27
1168.961, 23558.73
1170.049, 23690.95
1171.136, 23736.93
1172.224, 23647.38
1173.311, 23736.02
1174.397, 23506.28
1175.484, 23555.93
1176.571, 23726.12
1177.657, 23644.39
1178.743, 23735.88
1179.829, 23761.39
1180.915, 23487.10
1182.001, 23734.21
1183.086, 23755.82
1184.171, 23545.91
1185.256, 23775.15
1186.341, 23597.15
1187.426, 23564.52
1188.511, 23641.27
1189.595, 23603.98
1190.680, 23746.49
1191.764, 23715.79
1192.848, 23669.62
1193.932, 23690.97
1195.015, 23650.04
1196.099, 23705.97
1197.182, 23648.47
1198.265, 23711.52
1199.348, 23801.89
1200.431, 23683.04
1201.513, 23785.69
1202.596, 23544.85
1203.678, 23591.41
1204.760, 23607.03
1205.842, 23806.35
1206.924, 23567.18
1208.005, 23605.75
1209.087, 23762.59
1210.168, 23753.96
1211.249, 23575.00
1212.330, 23725.00
1213.411, 23597.00
1214.491, 23656.00
1215.572, 23641.00
1216.652, 23654.00
1217.732, 23667.77
1218.812, 23659.63
1219.891, 23675.59
1220.971, 23675.00
1222.050, 23682.00
1223.129, 23728.34
1224.208, 23527.00
1225.287, 23736.00
1226.366, 23673.00
1227.444, 23583.00
1228.523, 23711.60
1229.601, 23626.81
1230.679, 23740.00
1231.757, 23727.00
1232.834, 23572.94
1233.912, 23878.00
1234.989, 23630.00
1236.066, 23533.00
1237.143, 23728.00
1238.220, 23624.00
1239.297, 23589.00
1240.373, 23592.00
1241.449, 23855.00
1242.526, 23749.54
1243.601, 23509.00
1244.677, 23755.00
1245.753, 23596.00
1246.828, 23642.00
1247.904, 23504.00
1248.979, 23579.00
1250.054, 23792.00
1251.128, 23678.00
1252.203, 23589.00
1253.277, 23663.00
1254.351, 23466.00
1255.426, 23548.00
1256.499, 23637.00
1257.573, 23685.00
1258.647, 23722.60
1259.720, 23602.00
1260.793, 23715.00
1261.866, 23737.00
1262.939, 23639.00
1264.012, 23760.49
1265.084, 23660.90
1266.157, 23607.46
1267.229, 23545.00
1268.301, 23443.00
1269.373, 23384.00
1270.444, 23312.43
1271.516, 23354.00
1272.587, 23382.00
1273.658, 23478.00
1274.729, 23631.00
1275.800, 23541.00
1276.871, 23464.00
1277.941, 23515.00
1279.011, 23276.00
1280.082, 23359.00
1281.151, 23437.00
1282.221, 23200.00
1283.291, 23302.00
1284.360, 23217.00
1285.430, 23353.71
1286.499, 23255.00
1287.568, 23275.00
1288.636, 23248.51
1289.705, 23190.00
1290.773, 23138.00
1291.841, 23367.00
1292.909, 23321.00
1293.977, 23090.00
1295.045, 23283.00
1296.113, 23044.00
1297.180, 23270.00
1298.247, 22987.00
1299.314, 23165.00
1300.381, 23065.00
1301.448, 23234.00
1302.514, 23166.00
1303.580, 23070.00
1304.647, 23295.00
1305.713, 23130.00
1306.778, 23268.00
1307.844, 23081.00
1308.910, 23217.00
1309.975, 22975.00
1311.040, 23168.00
1312.105, 23158.00
1313.170, 23086.00
1314.234, 23131.00
1315.299, 23047.00
1316.363, 23045.00
1317.427, 23236.00
1318.491, 22855.00
1319.555, 23247.00
1320.618, 23111.00
1321.682, 23002.00
