##NAMES=Franklinite
##RRUFFID=R070137
##IDEAL CHEMISTRY=Zn^2+^Fe^3+^_2_O_4_
##LOCALITY=Franklin mine, Franklin, Sussex County, New Jersey, USA
##OWNER=RRUFF
##SOURCE=Michael Scott
##DESCRIPTION=Gray semi-metallic octahedral crystals associated with calcite
##STATUS=The identification of this mineral has been confirmed by X-ray diffraction and chemical analysis
##URL=rruff.info/R070137
##MEASURED CHEMISTRY=(Zn_0.63_Mn_0.36_Mg_0.01_)_Σ=1_(Fe^3+^_1.96_Al_0.04_)_Σ=2_O_4_
##PIN_ID=L01062
##ORIENTATION=Laser parallel to c* (0 0 1). Fiducial mark perpendicular to laser is parallel to a [1 0 0]
135.9930, 20437.00
137.2200, 20760.00
138.4460, 20927.00
139.6720, 21029.00
140.8980, 20602.00
142.1240, 20328.00
143.3500, 20400.00
144.5760, 20493.00
145.8020, 20614.00
147.0270, 20613.00
148.2520, 20645.00
149.4780, 20790.00
150.7030, 20685.30
151.9270, 20567.00
153.1520, 20563.00
154.3770, 20823.00
155.6010, 20824.00
156.8260, 20837.00
158.0500, 20717.00
159.2740, 20698.00
160.4980, 20851.00
161.7210, 20775.28
162.9450, 20979.00
164.1690, 20726.00
165.3920, 20752.00
166.6150, 20561.00
167.8380, 20662.00
169.0610, 20493.00
170.2840, 20414.46
171.5070, 20596.79
172.7290, 20700.01
173.9510, 20728.38
175.1740, 20457.72
176.3960, 20573.20
177.6180, 20533.93
178.8390, 20488.31
180.0610, 20658.14
181.2830, 20430.97
182.5040, 20597.38
183.7250, 20606.68
184.9460, 20687.89
186.1670, 20613.39
187.3880, 20586.98
188.6090, 20716.33
189.8290, 20759.43
191.0500, 20667.01
192.2700, 21038.00
193.4900, 21036.00
194.7100, 20665.00
195.9300, 20398.00
197.1490, 20702.00
198.3690, 20351.86
199.5880, 20524.93
200.8080, 20618.89
202.0270, 20638.00
203.2460, 20358.08
204.4650, 20464.31
205.6830, 20415.79
206.9020, 20360.91
208.1200, 20521.49
209.3380, 20285.07
210.5570, 20442.22
211.7750, 20442.28
212.9920, 20514.24
214.2100, 20430.49
215.4280, 20394.83
216.6450, 20514.94
217.8620, 20328.00
219.0790, 20350.61
220.2960, 20392.00
221.5130, 20430.00
222.7300, 20418.00
223.9460, 20578.00
225.1630, 20535.00
226.3790, 20448.00
227.5950, 20702.00
228.8110, 20548.00
230.0270, 20529.00
231.2430, 20324.00
232.4580, 20555.00
233.6740, 20555.00
234.8890, 20747.00
236.1040, 20793.62
237.3190, 20872.24
238.5340, 20811.00
239.7490, 20995.00
240.9630, 20853.00
242.1780, 20840.00
243.3920, 20676.00
244.6060, 20593.00
245.8200, 20641.39
247.0340, 20840.71
248.2470, 20960.91
249.4610, 21006.27
250.6740, 20752.59
251.8880, 20885.06
253.1010, 20862.77
254.3140, 20834.13
255.5270, 21020.94
256.7390, 20810.73
257.9520, 20994.12
259.1640, 21020.38
260.3760, 21118.55
261.5880, 21061.01
262.8000, 21051.57
264.0120, 21197.88
265.2240, 21257.95
266.4350, 21182.47
267.6470, 21285.21
268.8580, 21069.55
270.0690, 21133.27
271.2800, 21317.54
272.4910, 21249.89
273.7020, 21355.47
274.9120, 21395.05
276.1230, 21134.84
277.3330, 21396.02
278.5430, 21061.00
279.7530, 21128.00
280.9630, 21126.00
282.1720, 21319.00
283.3820, 21285.74
284.5910, 21452.00
285.8000, 21359.00
287.0090, 21237.00
288.2180, 21368.00
289.4270, 21319.00
290.6360, 21264.00
291.8440, 21287.00
293.0530, 21351.83
294.2610, 21384.78
295.4690, 21426.79
296.6770, 21645.55
297.8850, 21785.22
299.0920, 21850.00
300.3000, 21615.78
301.5070, 21767.66
302.7140, 21764.80
303.9210, 21755.60
305.1280, 21961.84
306.3350, 21771.08
307.5420, 21973.90
308.7480, 22019.57
309.9540, 22137.16
311.1600, 22099.04
312.3660, 22109.01
313.5720, 22274.74
314.7780, 22354.22
315.9840, 22140.00
317.1890, 22204.00
318.3940, 22242.00
319.6000, 22307.00
320.8050, 22350.21
322.0090, 22432.00
323.2140, 22480.00
324.4190, 22534.00
325.6230, 22684.00
326.8270, 22620.00
328.0320, 22769.00
329.2360, 22695.00
330.4390, 23052.00
331.6430, 22819.00
332.8470, 22966.00
334.0500, 22763.00
335.2530, 22895.00
336.4560, 22996.00
337.6590, 23024.00
338.8620, 23174.00
340.0650, 23087.00
341.2670, 23020.00
342.4700, 23146.00
343.6720, 23221.00
344.8740, 23457.00
346.0760, 23480.00
347.2780, 23455.00
348.4790, 23645.00
349.6810, 23421.00
350.8820, 23665.00
352.0830, 23631.00
353.2840, 23538.00
354.4850, 23623.00
355.6860, 23533.00
356.8870, 23470.40
358.0870, 23680.00
359.2870, 23331.00
360.4880, 23196.00
361.6880, 23195.00
362.8870, 23216.00
364.0870, 23156.58
365.2870, 23380.00
366.4860, 23167.00
367.6850, 23207.00
368.8850, 23299.00
370.0840, 23126.00
371.2820, 23229.00
372.4810, 23069.00
373.6800, 23080.81
374.8780, 23091.13
376.0760, 23097.00
377.2740, 23040.00
378.4720, 23100.00
379.6700, 22936.00
380.8680, 23084.00
382.0650, 22923.00
383.2630, 22786.00
384.4600, 22990.00
385.6570, 23104.00
386.8540, 23117.00
388.0510, 23131.28
389.2470, 23138.05
390.4440, 22954.00
391.6400, 23100.00
392.8360, 22931.00
394.0320, 22935.00
395.2280, 23171.00
396.4240, 23017.00
397.6190, 23072.00
398.8150, 22905.00
400.0100, 22774.00
401.2050, 23086.00
402.4000, 22986.00
403.5950, 22966.00
404.7900, 23049.73
405.9840, 22976.00
407.1790, 23033.00
408.3730, 23175.00
409.5670, 23146.00
410.7610, 23161.00
411.9550, 23152.00
413.1480, 23135.00
414.3420, 23202.14
415.5350, 23222.46
416.7280, 23287.00
417.9220, 23291.00
419.1140, 23357.52
420.3070, 23170.00
421.5000, 23495.00
422.6920, 23472.00
423.8850, 23575.00
425.0770, 23410.00
426.2690, 23765.00
427.4610, 23510.00
428.6520, 23565.00
429.8440, 23694.00
431.0350, 23604.96
432.2260, 23773.00
433.4180, 23685.00
434.6090, 23863.00
435.7990, 23987.00
436.9900, 23890.00
438.1800, 23750.00
439.3710, 23811.00
440.5610, 23765.46
441.7510, 23980.77
442.9410, 24116.98
444.1310, 24178.34
445.3200, 23940.63
446.5100, 24089.10
447.6990, 24082.79
448.8880, 24070.13
450.0770, 24272.91
451.2660, 24078.70
452.4550, 24278.07
453.6430, 24320.30
454.8320, 24434.46
456.0200, 24392.89
457.2080, 24399.41
458.3960, 24561.69
459.5840, 24637.72
460.7720, 24639.00
461.9590, 24655.00
463.1460, 24673.12
464.3340, 24582.41
465.5210, 24804.47
466.7080, 24947.43
467.8940, 25015.51
469.0810, 24784.58
470.2670, 24939.76
471.4540, 24940.23
472.6400, 24934.32
473.8260, 25143.85
475.0120, 24956.38
476.1970, 25162.46
477.3830, 25211.47
478.5680, 25332.34
479.7540, 25297.55
480.9390, 25310.81
482.1240, 25479.83
483.3080, 25562.57
484.4930, 25509.81
485.6780, 25635.26
486.8620, 25442.28
488.0460, 25528.69
489.2300, 25735.65
490.4140, 25690.69
491.5980, 25818.95
492.7810, 25881.20
493.9650, 25643.67
495.1480, 25927.51
496.3310, 25985.87
497.5140, 25812.69
498.6970, 26078.67
499.8800, 25937.41
501.0620, 25941.48
502.2440, 26054.93
503.4270, 26054.39
504.6090, 26233.60
505.7910, 26239.61
506.9720, 26230.10
508.1540, 26094.00
509.3350, 26203.00
510.5170, 26249.00
511.6980, 26307.00
512.8790, 26524.00
514.0600, 26478.35
515.2400, 26375.00
516.4210, 26484.00
517.6010, 26352.00
518.7810, 26338.00
519.9620, 26348.80
521.1410, 26436.09
522.3210, 26505.43
523.5010, 26557.76
524.6800, 26542.08
525.8600, 26614.21
527.0390, 26651.13
528.2180, 26686.60
529.3970, 26771.04
530.5750, 26765.21
531.7540, 26848.88
532.9320, 26896.79
534.1110, 26961.09
535.2890, 26989.96
536.4670, 27029.75
537.6440, 27104.91
538.8220, 27160.51
540.0000, 27196.00
541.1770, 27243.83
542.3540, 27239.79
543.5310, 27147.50
544.7080, 27397.68
545.8850, 27568.75
547.0610, 27664.92
548.2380, 27462.11
549.4140, 27645.39
550.5900, 27673.92
551.7660, 27696.10
552.9420, 27933.72
554.1170, 27774.29
555.2930, 28008.50
556.4680, 28085.54
557.6430, 28234.48
558.8180, 28285.00
559.9930, 28297.00
561.1680, 28392.86
562.3430, 28295.00
563.5170, 28609.00
564.6910, 28735.00
565.8650, 28881.00
567.0390, 28810.00
568.2130, 28879.54
569.3870, 29145.22
570.5600, 29349.53
571.7340, 29496.51
572.9070, 29382.16
574.0800, 29629.47
575.2530, 29746.70
576.4250, 29868.64
577.5980, 30197.20
578.7700, 30175.29
579.9430, 30521.95
581.1150, 30736.22
582.2870, 31026.46
583.4590, 31185.74
584.6300, 31399.14
585.8020, 31775.00
586.9730, 32509.00
588.1440, 32790.00
589.3150, 33340.00
590.4860, 34188.00
591.6570, 34708.00
592.8270, 35274.00
593.9980, 35985.00
595.1680, 36432.00
596.3380, 37140.02
597.5080, 37921.48
598.6780, 38439.13
599.8480, 38475.20
601.0170, 39084.22
602.1860, 39429.37
603.3550, 39285.80
604.5240, 39706.50
605.6930, 39948.40
606.8620, 40012.48
608.0310, 39847.80
609.1990, 39610.37
610.3670, 39799.00
611.5350, 39541.74
612.7030, 39547.14
613.8710, 39480.63
615.0390, 39346.07
616.2060, 38939.80
617.3730, 38884.57
618.5410, 38688.52
619.7080, 38486.84
620.8740, 38383.26
622.0410, 38198.12
623.2080, 38078.00
624.3740, 37935.00
625.5400, 37805.00
626.7060, 37748.00
627.8720, 37711.00
629.0380, 37229.00
630.2040, 37174.82
631.3690, 37000.00
632.5340, 36686.00
633.6990, 36746.00
634.8640, 36396.00
636.0290, 36355.00
637.1940, 36184.00
638.3580, 35956.00
639.5230, 35759.00
640.6870, 35449.22
641.8510, 35462.81
643.0150, 35404.49
644.1790, 35278.12
645.3420, 34880.04
646.5060, 34832.86
647.6690, 34645.13
648.8320, 34451.64
649.9950, 34453.99
651.1580, 34095.44
652.3200, 34094.82
653.4830, 33951.25
654.6450, 33873.17
655.8070, 33653.54
656.9690, 33477.63
658.1310, 33443.32
659.2930, 33123.00
660.4540, 33259.00
661.6160, 32907.00
662.7770, 32806.00
663.9380, 32539.00
665.0990, 32514.00
666.2600, 32449.00
667.4200, 32428.00
668.5810, 32319.56
669.7410, 32059.67
670.9010, 31982.96
672.0610, 31838.21
673.2210, 31421.59
674.3810, 31356.02
675.5400, 31149.92
676.6990, 30938.04
677.8590, 30921.87
679.0180, 30544.95
680.1760, 30525.97
681.3350, 30364.02
682.4940, 30267.43
683.6520, 30029.45
684.8100, 29835.18
685.9680, 29782.51
687.1260, 29651.44
688.2840, 29397.15
689.4420, 29304.87
690.5990, 28923.29
691.7560, 28795.71
692.9140, 28777.55
694.0710, 28530.54
695.2270, 28441.13
696.3840, 28192.12
697.5410, 28077.00
698.6970, 28022.00
699.8530, 27864.00
701.0090, 27678.00
702.1650, 27393.00
703.3210, 27475.00
704.4760, 27338.00
705.6320, 27354.00
706.7870, 27184.00
707.9420, 27239.00
709.0970, 27130.20
710.2520, 26993.79
711.4060, 26866.23
712.5610, 26972.41
713.7150, 26999.55
714.8690, 26951.84
716.0230, 26605.10
717.1770, 26644.50
718.3310, 26529.15
719.4840, 26407.51
720.6380, 26501.26
721.7910, 26198.08
722.9440, 26288.48
724.0970, 26221.76
725.2490, 25919.00
726.4020, 25939.00
727.5540, 25956.19
728.7070, 25795.06
729.8590, 26039.00
731.0110, 25765.00
732.1620, 25623.00
733.3140, 25893.00
734.4650, 25643.00
735.6170, 25592.00
736.7680, 25472.00
737.9190, 25587.00
739.0700, 25515.00
740.2200, 25601.00
741.3710, 25449.55
742.5210, 25610.26
743.6710, 25691.87
744.8210, 25698.63
745.9710, 25406.36
747.1210, 25500.23
748.2700, 25439.36
749.4200, 25372.14
750.5690, 25520.37
751.7180, 25271.61
752.8670, 25416.42
754.0160, 25404.13
755.1640, 25463.76
756.3130, 25367.67
757.4610, 25185.04
758.6090, 25354.26
759.7570, 25444.38
760.9050, 25459.65
762.0530, 25175.89
763.2000, 25278.28
764.3470, 25225.91
765.4940, 25167.21
766.6410, 25323.94
767.7880, 25083.68
768.9350, 25237.00
770.0810, 25233.22
771.2280, 25301.34
772.3740, 25213.76
773.5200, 25174.27
774.6660, 25290.54
775.8120, 25320.56
776.9570, 25215.07
778.1030, 25287.77
779.2480, 25042.09
780.3930, 24896.00
781.5380, 25090.00
782.6830, 25212.00
783.8270, 25336.00
784.9720, 25292.49
786.1160, 25302.11
787.2600, 25154.00
788.4040, 25176.00
789.5480, 25195.08
790.6910, 25152.58
791.8350, 25153.00
792.9780, 24984.00
794.1210, 25094.00
795.2640, 25047.00
796.4070, 25144.00
797.5500, 25132.49
798.6920, 25051.00
799.8350, 24993.18
800.9770, 25176.36
802.1190, 25280.45
803.2610, 25309.68
804.4030, 25039.87
805.5440, 25156.21
806.6850, 25117.79
807.8270, 25073.04
808.9680, 25243.72
810.1090, 25017.41
811.2490, 25184.67
812.3900, 25194.83
813.5300, 25276.89
814.6710, 25203.25
815.8110, 25177.70
816.9510, 25307.90
818.0910, 25155.00
819.2300, 25124.00
820.3700, 25069.00
821.5090, 25161.00
822.6480, 24951.00
823.7870, 25063.00
824.9260, 25096.00
826.0640, 25024.00
827.2030, 24946.89
828.3410, 25128.10
829.4790, 25230.20
830.6170, 25257.45
831.7550, 24985.66
832.8930, 25100.02
834.0310, 25059.63
835.1680, 25012.89
836.3050, 25181.60
837.4420, 24953.30
838.5790, 25118.59
839.7160, 25126.77
840.8520, 25206.85
841.9890, 25131.23
843.1250, 25103.70
844.2610, 25231.93
845.3970, 25273.91
846.5330, 25180.37
847.6680, 25265.02
848.8040, 25031.29
849.9390, 25076.95
851.0740, 25243.14
852.2090, 25157.43
853.3440, 25244.93
854.4780, 25266.46
855.6130, 24988.18
856.7470, 25231.29
857.8810, 25160.00
859.0150, 25075.00
860.1490, 25392.00
861.2830, 25093.00
862.4160, 25364.00
863.5490, 25181.00
864.6830, 25345.00
865.8160, 25217.00
866.9480, 25025.00
868.0810, 25300.00
869.2140, 25169.00
870.3460, 25111.00
871.4780, 25392.00
872.6100, 25226.00
873.7420, 25251.00
874.8740, 25162.00
876.0050, 25321.00
877.1370, 25352.00
878.2680, 25272.00
879.3990, 25201.59
880.5300, 25385.36
881.6600, 25490.02
882.7910, 25519.83
883.9210, 25250.61
885.0520, 25367.53
886.1820, 25329.70
887.3120, 25285.52
888.4410, 25456.78
889.5710, 25231.05
890.7000, 25398.90
891.8300, 25409.64
892.9590, 25492.28
894.0880, 25419.22
895.2160, 25394.24
896.3450, 25525.03
897.4730, 25569.57
898.6020, 25478.58
899.7300, 25565.79
900.8580, 25334.61
901.9860, 25382.83
903.1130, 25551.58
904.2410, 25468.42
905.3680, 25558.47
906.4950, 25582.55
907.6220, 25306.83
908.7490, 25552.50
909.8760, 25576.00
911.0020, 25285.00
912.1280, 25480.00
913.2550, 25551.00
914.3810, 25263.00
915.5060, 25623.00
916.6320, 25452.82
917.7580, 25645.24
918.8830, 25758.55
920.0080, 25797.02
921.1330, 25536.44
922.2580, 25662.01
923.3830, 25632.83
924.5070, 25597.29
925.6310, 25777.19
926.7560, 25560.11
927.8800, 25736.60
929.0040, 25755.98
930.1270, 25847.25
931.2510, 25782.83
932.3740, 25766.49
933.4970, 25905.91
934.6200, 25959.08
935.7430, 25876.72
936.8660, 25972.57
937.9890, 25750.03
939.1110, 25806.86
940.2330, 25984.24
941.3550, 25909.71
942.4770, 26008.39
943.5990, 26041.10
944.7200, 25773.99
945.8420, 26028.29
946.9630, 25777.00
948.0840, 25854.54
949.2050, 26044.41
950.3260, 26155.17
951.4460, 26191.07
952.5670, 25927.94
953.6870, 26050.95
954.8070, 26019.21
955.9270, 25981.13
957.0470, 26158.49
958.1660, 25938.84
959.2860, 26112.78
960.4050, 26129.61
961.5240, 26218.33
962.6430, 26011.81
963.7620, 26193.98
964.8810, 26297.04
965.9990, 26325.26
967.1170, 26054.44
968.2350, 26169.76
969.3530, 26130.33
970.4710, 26084.56
971.5890, 26254.23
972.7060, 26026.90
973.8240, 26193.15
974.9410, 26202.30
976.0580, 26283.34
977.1740, 26208.69
978.2910, 26182.12
979.4080, 26311.31
980.5240, 26354.26
981.6400, 26261.67
982.7560, 26347.29
983.8720, 26325.51
984.9870, 26161.14
986.1030, 26328.30
987.2180, 26243.54
988.3330, 26209.04
989.4480, 26397.05
990.5630, 26505.96
991.6780, 26540.01
992.7920, 26275.03
993.9070, 26396.19
995.0210, 26362.60
996.1350, 26322.66
997.2490, 26498.17
998.3620, 26276.67
999.4760, 26291.55
1000.589, 26474.80
1001.702, 26578.96
1002.815, 26608.26
1003.928, 26338.52
1005.041, 26454.93
1006.153, 26416.59
1007.266, 26371.90
1008.378, 26542.65
1009.490, 26316.41
1010.602, 26483.75
1011.713, 26493.97
1012.825, 26576.10
1013.936, 26502.53
1015.047, 26477.05
1016.158, 26607.32
1017.269, 26651.35
1018.380, 26559.85
1019.490, 26646.55
1020.601, 26414.86
1021.711, 26462.56
1022.821, 26630.80
1023.931, 26547.13
1025.040, 26636.67
1026.150, 26660.25
1027.259, 26384.01
1028.368, 26629.17
1029.477, 26496.00
1030.586, 26400.00
1031.695, 26543.00
1032.803, 26431.00
1033.912, 26515.00
1035.020, 26572.00
1036.128, 26662.00
1037.236, 26684.38
1038.343, 26696.37
1039.451, 26707.00
1040.558, 26611.00
1041.665, 26570.00
1042.772, 26393.00
1043.879, 26617.00
1044.986, 26571.23
1046.093, 26786.00
1047.199, 26706.00
1048.305, 26715.00
1049.411, 26749.00
1050.517, 26594.13
1051.623, 26786.07
1052.728, 26898.91
1053.833, 26936.89
1054.939, 26675.85
1056.044, 26800.94
1057.148, 26771.27
1058.253, 26735.27
1059.358, 26914.71
1060.462, 26697.14
1061.566, 26873.16
1062.670, 26892.06
1063.774, 26982.87
1064.878, 26917.97
1065.981, 26901.15
1067.085, 27040.10
1068.188, 27092.80
1069.291, 27009.97
1070.394, 27105.34
1071.496, 26882.31
1072.599, 26938.68
1073.701, 27115.58
1074.803, 27040.57
1075.905, 27138.78
1077.007, 27171.01
1078.109, 26903.44
1079.210, 27157.25
1080.312, 27185.58
1081.413, 26837.54
1082.514, 27028.03
1083.615, 27139.42
1084.715, 27175.95
1085.816, 26913.45
1086.916, 27037.09
1088.016, 27005.97
1089.116, 26968.51
1090.216, 27146.50
1091.316, 26927.48
1092.415, 27102.04
1093.515, 27119.50
1094.614, 27208.85
1095.713, 27142.50
1096.812, 27124.24
1097.910, 27261.73
1099.009, 27312.98
1100.107, 27228.70
1101.205, 27322.61
1102.303, 27098.14
1103.401, 27153.06
1104.499, 27328.52
1105.596, 27252.05
1106.693, 27348.81
1107.791, 27379.60
1108.888, 27110.57
1109.984, 27362.93
1111.081, 27389.82
1112.177, 27185.16
1113.274, 27419.67
1114.370, 27246.94
1115.466, 27219.56
1116.562, 27494.00
1117.657, 27360.00
1118.753, 27210.00
1119.848, 27423.00
1120.943, 27479.00
1122.038, 27291.00
1123.133, 27460.20
1124.228, 27320.00
1125.322, 27507.00
1126.416, 27342.00
1127.510, 27273.00
1128.604, 27341.00
1129.698, 27358.75
1130.792, 27461.00
1131.885, 27513.00
1132.978, 27421.00
1134.071, 27334.00
1135.164, 27518.00
1136.257, 27487.00
1137.350, 27388.20
1138.442, 27569.76
1139.534, 27672.21
1140.627, 27699.82
1141.718, 27428.39
1142.810, 27543.10
1143.902, 27503.07
1144.993, 27456.69
1146.084, 27625.75
1147.176, 27397.81
1148.266, 27563.45
1149.357, 27571.99
1150.448, 27652.43
1151.538, 27577.16
1152.628, 27549.98
1153.718, 27678.56
1154.808, 27720.90
1155.898, 27627.71
1156.988, 27712.72
1158.077, 27479.34
1159.166, 27525.35
1160.255, 27691.90
1161.344, 27606.54
1162.433, 27694.40
1163.521, 27716.28
1164.610, 27438.35
1165.698, 27681.83
1166.786, 27387.00
1167.874, 27559.00
1168.961, 27438.00
1170.049, 27583.00
1171.136, 27596.00
1172.224, 27595.46
1173.311, 27663.47
1174.397, 27666.00
1175.484, 27664.00
1176.571, 27759.00
1177.657, 27655.00
1178.743, 27749.00
1179.829, 27554.00
1180.915, 27584.00
1182.001, 27665.00
1183.086, 27818.00
1184.171, 27742.00
1185.256, 27651.00
1186.341, 27703.00
1187.426, 27786.00
1188.511, 27959.00
1189.595, 27930.00
1190.680, 27610.00
1191.764, 27899.00
1192.848, 27709.00
1193.932, 27890.00
1195.015, 27821.00
1196.099, 27801.00
1197.182, 27879.95
1198.265, 27759.00
1199.348, 27878.00
1200.431, 27926.00
1201.513, 27783.00
1202.596, 27885.00
1203.678, 27757.00
1204.760, 27778.00
1205.842, 27921.00
1206.924, 27818.00
1208.005, 27931.00
1209.087, 28004.00
1210.168, 27851.00
1211.249, 27950.00
1212.330, 27988.00
1213.411, 27945.00
1214.491, 27831.00
1215.572, 27960.00
1216.652, 27676.00
1217.732, 27937.00
1218.812, 28140.00
1219.891, 28032.00
1220.971, 27864.00
1222.050, 27836.00
1223.129, 28010.00
1224.208, 27870.60
1225.287, 28050.30
1226.366, 28150.91
1227.444, 28176.67
1228.523, 27903.39
1229.601, 28016.25
1230.679, 27974.37
1231.757, 27926.14
1232.834, 28093.35
1233.912, 27863.57
1234.989, 28027.37
1236.066, 28034.05
1237.143, 28112.64
1238.220, 28035.53
1239.297, 28006.51
1240.373, 28133.24
1241.449, 28173.73
1242.526, 27896.00
1243.601, 27900.00
1244.677, 27979.00
1245.753, 27858.14
1246.828, 27898.00
1247.904, 27773.00
1248.979, 27959.00
1250.054, 27847.78
1251.128, 28016.54
1252.203, 28106.19
1253.277, 28121.00
1254.351, 27836.77
1255.426, 27938.67
1256.499, 27885.85
1257.573, 27826.66
1258.647, 27982.93
1259.720, 27742.20
1260.793, 27895.06
1261.866, 27890.80
1262.939, 27958.46
1264.012, 27870.40
1265.084, 27830.45
1266.157, 27946.25
1267.229, 27975.81
1268.301, 27869.84
1269.373, 27942.07
1270.444, 27695.93
1271.516, 27729.16
1272.587, 27882.95
1273.658, 27784.83
1274.729, 27577.00
1275.800, 27724.00
1276.871, 27503.00
1277.941, 27604.38
1279.011, 27777.71
1280.082, 27871.93
1281.151, 27891.31
1282.221, 27611.65
1283.291, 27718.13
1284.360, 27669.88
1285.430, 27615.27
1286.499, 27776.11
1287.568, 27539.95
1288.636, 27697.38
1289.705, 27697.69
1290.773, 27769.91
1291.841, 27686.43
1292.909, 27651.04
1293.977, 27771.41
1295.045, 27805.54
1296.113, 27704.13
1297.180, 27780.93
1298.247, 27539.35
1299.314, 27577.15
1300.381, 27735.50
1301.448, 27641.93
1302.514, 27721.59
1303.580, 27735.27
1304.647, 27449.14
1305.713, 27684.42
1306.778, 27694.21
1307.844, 27472.47
