##NAMES=Franklinite
##RRUFFID=R070137
##IDEAL CHEMISTRY=Zn^2+^Fe^3+^_2_O_4_
##LOCALITY=Franklin mine, Franklin, Sussex County, New Jersey, USA
##OWNER=RRUFF
##SOURCE=Michael Scott
##DESCRIPTION=Gray semi-metallic octahedral crystals associated with calcite
##STATUS=The identification of this mineral has been confirmed by X-ray diffraction and chemical analysis
##URL=rruff.info/R070137
##MEASURED CHEMISTRY=(Zn_0.63_Mn_0.36_Mg_0.01_)_Σ=1_(Fe^3+^_1.96_Al_0.04_)_Σ=2_O_4_
##PIN_ID=L01062
##ORIENTATION=Laser parallel to c* (0 0 1). Fiducial mark perpendicular to laser is parallel to a [1 0 0]
134.7660, 16910.91
135.9930, 17082.31
137.2200, 17192.12
138.4460, 17243.61
139.6720, 17062.22
140.8980, 17181.54
142.1240, 17180.36
143.3500, 17174.23
144.5760, 17335.88
145.8020, 17188.36
147.0270, 17347.32
148.2520, 17383.93
149.4780, 17476.57
150.7030, 17447.92
151.9270, 17456.70
153.1520, 17586.80
154.3770, 17649.74
155.6010, 17607.11
156.8260, 17703.27
158.0500, 17551.47
159.2740, 17617.24
160.4980, 17776.89
161.7210, 17740.33
162.9450, 17838.69
164.1690, 17885.67
165.3920, 17615.00
166.6150, 17625.00
167.8380, 17572.43
169.0610, 17331.00
170.2840, 17246.36
171.5070, 17387.02
172.7290, 17466.08
173.9510, 17486.86
175.1740, 17274.75
176.3960, 17363.36
177.6180, 17331.45
178.8390, 17294.61
180.0610, 17425.54
181.2830, 17247.30
182.5040, 17375.57
183.7250, 17381.49
184.9460, 17443.41
186.1670, 17384.07
187.3880, 17362.18
188.6090, 17461.59
189.8290, 17493.83
191.0500, 17420.54
192.2700, 17486.01
193.4900, 17303.54
194.7100, 17338.65
195.9300, 17467.63
197.1490, 17400.43
198.3690, 17468.13
199.5880, 17484.45
200.8080, 17272.00
202.0270, 17301.00
203.2460, 17345.00
204.4650, 17266.25
205.6830, 17411.75
206.9020, 17495.66
208.1200, 17521.27
209.3380, 17314.01
210.5570, 17407.46
211.7750, 17380.40
212.9920, 17348.39
214.2100, 17484.16
215.4280, 17310.77
216.6450, 17443.88
217.8620, 17454.64
219.0790, 17290.00
220.2960, 17254.00
221.5130, 17337.00
222.7300, 17309.00
223.9460, 17320.21
225.1630, 17471.92
226.3790, 17562.02
227.5950, 17593.83
228.8110, 17392.77
230.0270, 17492.42
231.2430, 17471.55
232.4580, 17445.74
233.6740, 17587.71
234.8890, 17420.51
236.1040, 17559.81
237.3190, 17576.76
238.5340, 17649.71
239.7490, 17601.40
240.9630, 17590.54
242.1780, 17700.97
243.3920, 17744.24
244.6060, 17681.97
245.8200, 17758.46
247.0340, 17587.02
248.2470, 17633.14
249.4610, 17773.14
250.6740, 17716.96
251.8880, 17795.67
253.1010, 17823.00
254.3140, 17616.86
255.5270, 17816.75
256.7390, 17705.45
257.9520, 17687.18
259.1640, 17836.66
260.3760, 17676.98
261.5880, 17823.81
262.8000, 17848.28
264.0120, 17928.75
265.2240, 17887.97
266.4350, 17884.62
267.6470, 18002.58
268.8580, 18053.37
270.0690, 17998.61
271.2800, 18082.62
272.4910, 17918.70
273.7020, 17972.34
274.9120, 18119.84
276.1230, 18071.18
277.3330, 18157.40
278.5430, 18192.24
279.7530, 17993.61
280.9630, 18201.01
282.1720, 18232.80
283.3820, 18013.00
284.5910, 18031.00
285.8000, 18151.00
287.0090, 18134.00
288.2180, 18201.00
289.4270, 18196.18
290.6360, 18211.17
291.8440, 18262.00
293.0530, 18181.00
294.2610, 18426.00
295.4690, 18324.00
296.6770, 18342.00
297.8850, 18154.00
299.0920, 18559.00
300.3000, 18448.00
301.5070, 18471.00
302.7140, 18579.00
303.9210, 18555.38
305.1280, 18506.51
306.3350, 18674.85
307.5420, 18781.59
308.7480, 18830.01
309.9540, 18645.55
311.1600, 18761.81
312.3660, 18757.56
313.5720, 18748.36
314.7780, 18906.94
315.9840, 18756.36
317.1890, 18912.26
318.3940, 18945.80
319.6000, 19035.37
320.8050, 19003.66
322.0090, 19009.38
323.2140, 19136.41
324.4190, 19196.28
325.6230, 19150.59
326.8270, 19243.67
328.0320, 19088.83
329.2360, 19182.00
330.4390, 19065.00
331.6430, 19256.00
332.8470, 19427.00
334.0500, 19169.00
335.2530, 19296.00
336.4560, 19242.00
337.6590, 19434.00
338.8620, 19307.83
340.0650, 19467.83
341.2670, 19566.22
342.4700, 19606.34
343.6720, 19413.56
344.8740, 19521.50
346.0760, 19508.92
347.2780, 19491.40
348.4790, 19641.64
349.6810, 19482.74
350.8820, 19630.32
352.0830, 19655.55
353.2840, 19736.78
354.4850, 19696.75
355.6860, 19694.18
356.8870, 19812.89
358.0870, 19864.44
359.2870, 19810.43
360.4880, 19895.22
361.6880, 19732.05
362.8870, 19786.44
364.0870, 19934.71
365.2870, 19886.81
366.4860, 19804.00
367.6850, 19900.00
368.8850, 19853.00
370.0840, 19674.88
371.2820, 19812.96
372.4810, 19889.43
373.6800, 19907.62
374.8780, 19692.93
376.0760, 19778.95
377.2740, 19744.46
378.4720, 19705.03
379.6700, 19833.38
380.8680, 19652.56
382.0650, 19778.25
383.2630, 19781.58
384.4600, 19840.91
385.6570, 19560.00
386.8540, 19591.00
388.0510, 19611.00
389.2470, 19554.00
390.4440, 19684.00
391.6400, 19683.00
392.8360, 19881.00
394.0320, 19808.15
395.2280, 19806.00
396.4240, 19730.00
397.6190, 19783.00
398.8150, 19808.00
400.0100, 19927.00
401.2050, 19900.18
402.4000, 19986.14
403.5950, 19903.33
404.7900, 20013.93
405.9840, 20066.21
407.1790, 19885.63
408.3730, 20005.74
409.5670, 20005.35
410.7610, 20000.01
411.9550, 20162.44
413.1480, 20015.69
414.3420, 20175.46
415.5350, 20212.86
416.7280, 20306.26
417.9220, 20278.42
419.1140, 20287.99
420.3070, 20418.88
421.5000, 20482.60
422.6920, 20440.76
423.8850, 20537.71
425.0770, 20386.70
426.2690, 20453.25
427.4610, 20613.69
428.6520, 20577.91
429.8440, 20677.06
431.0350, 20724.80
432.2260, 20539.07
433.4180, 20759.40
434.6090, 20804.11
435.7990, 20668.49
436.9900, 20874.88
438.1800, 20764.12
439.3710, 20610.05
440.5610, 20732.50
441.7510, 20734.44
442.9410, 20731.44
444.1310, 20896.21
445.3200, 20751.79
446.5100, 20913.90
447.6990, 20953.64
448.8880, 21049.37
450.0770, 21023.84
451.2660, 21035.77
452.4550, 21168.99
453.6430, 21235.02
454.8320, 21195.54
456.0200, 21294.80
457.2080, 21146.12
458.3960, 21215.01
459.5840, 21377.78
460.7720, 21344.36
461.9590, 21445.81
463.1460, 21495.89
464.3340, 21312.51
465.5210, 21535.15
466.7080, 21582.19
467.8940, 21448.90
469.0810, 21657.62
470.2670, 21549.19
471.4540, 21553.98
472.6400, 21643.93
473.8260, 21645.08
475.0120, 21786.23
476.1970, 21792.48
477.3830, 21786.70
478.5680, 21877.65
479.7540, 21877.99
480.9390, 21806.38
482.1240, 21973.38
483.3080, 21944.18
484.4930, 22049.90
485.6780, 22157.00
486.8620, 21928.00
488.0460, 22280.00
489.2300, 22427.00
490.4140, 22052.00
491.5980, 22079.00
492.7810, 22257.00
493.9650, 22491.00
495.1480, 22281.00
496.3310, 22502.00
497.5140, 22609.00
498.6970, 22345.92
499.8800, 22520.29
501.0620, 22633.03
502.2440, 22687.48
503.4270, 22509.08
504.6090, 22631.37
505.7910, 22633.14
506.9720, 22629.95
508.1540, 22794.55
509.3350, 22649.97
510.5170, 22811.92
511.6980, 22851.49
512.8790, 22947.06
514.0600, 22921.37
515.2400, 22933.10
516.4210, 23066.16
517.6010, 23132.03
518.7810, 23092.35
519.9620, 23191.48
521.1410, 23042.60
522.3210, 23111.33
523.5010, 23273.93
524.6800, 22990.52
525.8600, 23116.71
527.0390, 23122.35
528.2180, 23123.06
529.3970, 23291.53
530.5750, 23150.82
531.7540, 23316.63
532.9320, 23360.07
534.1110, 23459.53
535.2890, 23437.71
536.4670, 23453.33
537.6440, 23590.22
538.8220, 23659.99
540.0000, 23624.20
541.1770, 23727.16
542.3540, 23745.70
543.5310, 23654.76
544.7080, 23821.23
545.8850, 23929.00
547.0610, 23956.00
548.2380, 23942.00
549.4140, 23831.00
550.5900, 24244.00
551.7660, 23978.00
552.9420, 24209.00
554.1170, 24138.00
555.2930, 24023.00
556.4680, 24220.00
557.6430, 24315.00
558.8180, 24515.00
559.9930, 24409.00
561.1680, 24612.00
562.3430, 24616.00
563.5170, 24940.00
564.6910, 24818.00
565.8650, 25043.00
567.0390, 25145.00
568.2130, 25361.00
569.3870, 25438.00
570.5600, 25337.00
571.7340, 25758.00
572.9070, 25787.00
574.0800, 25772.00
575.2530, 25977.00
576.4250, 25835.00
577.5980, 26159.00
578.7700, 26184.00
579.9430, 26624.00
581.1150, 26602.00
582.2870, 26868.00
583.4590, 27052.00
584.6300, 27235.00
585.8020, 27726.00
586.9730, 27906.00
588.1440, 28424.00
589.3150, 28995.00
590.4860, 29504.00
591.6570, 30039.15
592.8270, 30699.00
593.9980, 31134.00
595.1680, 31672.00
596.3380, 32315.00
597.5080, 32793.46
598.6780, 33660.00
599.8480, 33677.00
601.0170, 34359.00
602.1860, 34374.00
603.3550, 34543.00
604.5240, 34771.00
605.6930, 35055.00
606.8620, 35063.00
608.0310, 35092.00
609.1990, 34934.00
610.3670, 35056.00
611.5350, 35061.00
612.7030, 34660.00
613.8710, 34553.00
615.0390, 34548.00
616.2060, 34349.00
617.3730, 34282.00
618.5410, 34049.00
619.7080, 33767.00
620.8740, 33879.00
622.0410, 33625.00
623.2080, 33366.00
624.3740, 33153.00
625.5400, 32909.84
626.7060, 32900.27
627.8720, 32829.11
629.0380, 32699.66
630.2040, 32337.34
631.3690, 32275.85
632.5340, 32093.86
633.6990, 31906.92
634.8640, 31887.75
636.0290, 31559.43
637.1940, 31537.61
638.3580, 31393.57
639.5230, 31305.38
640.6870, 31096.08
641.8510, 30924.23
643.0150, 30873.68
644.1790, 30755.96
645.3420, 30532.83
646.5060, 30448.35
647.6690, 30116.04
648.8320, 29983.21
649.9950, 29810.00
651.1580, 29743.00
652.3200, 29455.00
653.4830, 29594.00
654.6450, 29391.00
655.8070, 29138.00
656.9690, 29211.00
658.1310, 29059.00
659.2930, 28793.00
660.4540, 28830.00
661.6160, 28690.00
662.7770, 28652.00
663.9380, 28569.02
665.0990, 28449.43
666.2600, 28353.00
667.4200, 28175.00
668.5810, 28013.00
669.7410, 27766.00
670.9010, 27643.00
672.0610, 27710.00
673.2210, 27419.00
674.3810, 27354.00
675.5400, 27165.00
676.6990, 26995.00
677.8590, 26867.00
679.0180, 26717.30
680.1760, 26852.00
681.3350, 26370.00
682.4940, 26505.00
683.6520, 26146.00
684.8100, 25825.00
685.9680, 25802.00
687.1260, 25346.00
688.2840, 25470.00
689.4420, 25288.00
690.5990, 24832.00
691.7560, 24926.00
692.9140, 24831.00
694.0710, 24453.00
695.2270, 24299.00
696.3840, 24262.00
697.5410, 24174.94
698.6970, 24185.92
699.8530, 24140.33
701.0090, 24041.46
702.1650, 23714.74
703.3210, 23693.75
704.4760, 23557.36
705.6320, 23420.96
706.7870, 23457.43
707.9420, 23189.75
709.0970, 23233.59
710.2520, 23160.09
711.4060, 23147.66
712.5610, 23018.92
713.7150, 22932.70
714.8690, 22972.77
716.0230, 22950.69
717.1770, 22828.07
718.3310, 22849.23
719.4840, 22694.00
720.6380, 22669.00
721.7910, 22593.90
722.9440, 22560.00
724.0970, 22479.00
725.2490, 22355.00
726.4020, 22371.00
727.5540, 22293.64
728.7070, 22240.59
729.8590, 22259.00
731.0110, 22166.00
732.1620, 22215.00
733.3140, 22239.00
734.4650, 22165.00
735.6170, 22134.00
736.7680, 22069.46
737.9190, 22170.72
739.0700, 22211.93
740.2200, 22196.41
741.3710, 21949.53
742.5210, 22004.93
743.6710, 21941.36
744.8210, 21874.39
745.9710, 21976.73
747.1210, 21771.44
748.2700, 21874.22
749.4200, 21856.17
750.5690, 21895.67
751.7180, 21815.45
752.8670, 21774.22
754.0160, 21855.82
755.1640, 21871.81
756.3130, 21783.78
757.4610, 21836.06
758.6090, 21641.94
759.7570, 21666.93
760.9050, 21787.32
762.0530, 21713.06
763.2000, 21775.24
764.3470, 21787.57
765.4940, 21770.79
766.6410, 21755.92
767.7880, 21769.81
768.9350, 21735.89
770.0810, 21634.00
771.2280, 21668.30
772.3740, 21682.00
773.5200, 21614.00
774.6660, 21728.00
775.8120, 21620.00
776.9570, 21624.00
778.1030, 21626.00
779.2480, 21587.00
780.3930, 21574.00
781.5380, 21544.69
782.6830, 21569.22
783.8270, 21418.00
784.9720, 21659.00
786.1160, 21485.00
787.2600, 21463.29
788.4040, 21593.20
789.5480, 21662.20
790.6910, 21673.60
791.8350, 21452.82
792.9780, 21533.44
794.1210, 21494.24
795.2640, 21450.78
796.4070, 21575.79
797.5500, 21392.33
798.6920, 21516.07
799.8350, 21518.14
800.9770, 21576.89
802.1190, 21515.09
803.2610, 21491.42
804.4030, 21589.73
805.5440, 21621.57
806.6850, 21548.55
807.8270, 21615.00
808.9680, 21434.19
810.1090, 21471.64
811.2490, 21603.64
812.3900, 21540.16
813.5300, 21612.25
814.6710, 21633.66
815.8110, 21422.27
816.9510, 21617.61
818.0910, 21638.04
819.2300, 21478.84
820.3700, 21497.23
821.5090, 21463.79
822.6480, 21598.14
823.7870, 21423.32
824.9260, 21555.00
826.0640, 21564.33
827.2030, 21629.66
828.3410, 21573.73
829.4790, 21555.25
830.6170, 21658.07
831.7550, 21693.72
832.8930, 21623.83
834.0310, 21692.72
835.1680, 21513.66
836.3050, 21552.17
837.4420, 21684.55
838.5790, 21620.76
839.7160, 21691.86
840.8520, 21711.58
841.9890, 21497.83
843.1250, 21690.11
844.2610, 21706.80
845.3970, 21543.18
846.5330, 21721.55
847.6680, 21582.79
848.8040, 21557.22
849.9390, 21616.85
851.0740, 21587.66
852.2090, 21698.49
853.3440, 21674.43
854.4780, 21638.32
855.6130, 21654.81
856.7470, 21622.79
857.8810, 21666.20
859.0150, 21621.27
860.1490, 21670.22
861.2830, 21740.45
862.4160, 21549.91
863.5490, 21605.33
864.6830, 21587.26
865.8160, 21640.00
866.9480, 21560.00
868.0810, 21583.00
869.2140, 21585.00
870.3460, 21612.00
871.4780, 21591.12
872.6100, 21628.00
873.7420, 21580.00
874.8740, 21656.00
876.0050, 21727.00
877.1370, 21800.00
878.2680, 21783.73
879.3990, 21718.00
880.5300, 21756.00
881.6600, 21578.00
882.7910, 21613.00
883.9210, 21562.83
885.0520, 21707.02
886.1820, 21789.60
887.3120, 21813.90
888.4410, 21605.31
889.5710, 21697.44
890.7000, 21669.06
891.8300, 21635.74
892.9590, 21770.19
894.0880, 21595.47
895.2160, 21727.26
896.3450, 21736.70
897.4730, 21687.57
898.6020, 21835.95
899.7300, 21922.71
900.8580, 21951.19
901.9860, 21746.79
903.1130, 21843.09
904.2410, 21818.89
905.3680, 21789.74
906.4950, 21928.37
907.6220, 21757.84
908.7490, 21893.80
909.8760, 21907.42
911.0020, 21977.03
912.1280, 21925.38
913.2550, 21911.19
914.3810, 22018.29
915.5060, 22058.21
916.6320, 21992.61
917.7580, 22065.77
918.8830, 21890.99
920.0080, 21933.78
921.1330, 22070.44
922.2580, 22010.92
923.3830, 22086.30
924.5070, 22110.29
925.6310, 21900.81
926.7560, 22097.38
927.8800, 22118.33
929.0040, 21958.99
930.1270, 22141.63
931.2510, 22007.14
932.3740, 21985.84
933.4970, 22049.73
934.6200, 22024.82
935.7430, 22139.92
936.8660, 22120.13
937.9890, 22088.29
939.1110, 22109.04
940.2330, 21980.76
941.3550, 22128.96
942.4770, 21913.00
943.5990, 22149.00
944.7200, 22147.00
945.8420, 21988.00
946.9630, 21940.00
948.0840, 21962.00
949.2050, 21896.79
950.3260, 22069.00
951.4460, 21926.00
952.5670, 21953.00
953.6870, 22052.00
954.8070, 21973.00
955.9270, 22232.00
957.0470, 22065.00
958.1660, 22159.00
959.2860, 22073.00
960.4050, 22087.00
961.5240, 22134.00
962.6430, 22249.00
963.7620, 22153.00
964.8810, 22099.74
965.9990, 22247.54
967.1170, 22333.74
968.2350, 22361.65
969.3530, 22156.68
970.4710, 22252.43
971.5890, 22227.66
972.7060, 22197.94
973.8240, 22336.01
974.9410, 22164.91
976.0580, 22300.31
977.1740, 22313.35
978.2910, 22382.40
979.4080, 22330.19
980.5240, 22315.43
981.6400, 22421.96
982.7560, 22461.33
983.8720, 22395.15
984.9870, 22467.75
986.1030, 22292.40
987.2180, 22334.63
988.3330, 22470.72
989.4480, 22410.64
990.5630, 22485.45
991.6780, 22508.89
992.7920, 22298.84
993.9070, 22494.84
995.0210, 22515.23
996.1350, 22355.32
997.2490, 22537.40
998.3620, 22402.35
999.4760, 22380.49
1000.589, 22443.82
1001.702, 22416.00
1002.815, 22519.00
1003.928, 22512.00
1005.041, 22427.00
1006.153, 22369.00
1007.266, 22425.00
1008.378, 22382.64
1009.490, 22531.03
1010.602, 22617.82
1011.713, 22646.32
1012.825, 22441.95
1013.936, 22538.28
1015.047, 22514.10
1016.158, 22484.98
1017.269, 22623.64
1018.380, 22453.13
1019.490, 22589.12
1020.601, 22602.76
1021.711, 22672.40
1022.821, 22620.78
1023.931, 22606.61
1025.040, 22713.73
1026.150, 22753.69
1027.259, 22688.11
1028.368, 22761.29
1029.477, 22685.50
1030.586, 22589.72
1031.695, 22573.79
1032.803, 22564.00
1033.912, 22534.00
1035.020, 22673.00
1036.128, 22512.00
1037.236, 22681.00
1038.343, 22841.00
1039.451, 22835.00
1040.558, 22686.00
1041.665, 22744.00
1042.772, 22860.00
1043.879, 22744.00
1044.986, 22864.00
1046.093, 22733.00
1047.199, 22802.00
1048.305, 22670.00
1049.411, 22610.00
1050.517, 22947.00
1051.623, 22962.00
1052.728, 22966.00
1053.833, 23033.00
1054.939, 22999.28
1056.044, 22940.00
1057.148, 22938.00
1058.253, 22862.00
1059.358, 22776.00
1060.462, 22764.00
1061.566, 23158.00
1062.670, 23030.00
1063.774, 23066.00
1064.878, 22958.00
1065.981, 22913.00
1067.085, 22919.00
1068.188, 23062.00
1069.291, 22882.00
1070.394, 23141.00
1071.496, 23231.00
1072.599, 23107.00
1073.701, 23171.29
1074.803, 23014.00
1075.905, 23071.00
1077.007, 23138.00
1078.109, 23204.00
1079.210, 23198.00
1080.312, 22911.00
1081.413, 22874.00
1082.514, 23057.00
1083.615, 23002.43
1084.715, 23223.00
1085.816, 23159.00
1086.916, 23134.00
1088.016, 23073.99
1089.116, 23115.24
1090.216, 23190.00
1091.316, 23205.00
1092.415, 23299.00
1093.515, 23327.00
1094.614, 23389.00
1095.713, 23377.44
1096.812, 23184.00
1097.910, 23377.00
1099.009, 23421.00
1100.107, 23537.00
1101.205, 23297.00
1102.303, 23397.00
1103.401, 23285.00
1104.499, 23301.00
1105.596, 23374.00
1106.693, 23344.00
1107.791, 23338.00
1108.888, 23350.97
1109.984, 23283.00
1111.081, 23316.00
1112.177, 23407.00
1113.274, 23353.00
1114.370, 23416.00
1115.466, 23488.00
1116.562, 23266.00
1117.657, 23126.00
1118.753, 23225.00
1119.848, 23417.00
1120.943, 23255.38
1122.038, 23367.53
1123.133, 23066.00
1124.228, 23417.00
1125.322, 23298.00
1126.416, 23409.00
1127.510, 23326.00
1128.604, 23387.00
1129.698, 23242.00
1130.792, 23304.00
1131.885, 23346.00
1132.978, 23283.00
1134.071, 23432.00
1135.164, 23306.00
1136.257, 23530.00
1137.350, 23319.00
1138.442, 23400.00
1139.534, 23488.00
1140.627, 23251.00
1141.718, 23377.00
1142.810, 23286.00
1143.902, 23469.00
1144.993, 23396.00
1146.084, 23215.00
1147.176, 23422.00
1148.266, 23520.00
1149.357, 23353.00
1150.448, 23553.00
1151.538, 23369.00
1152.628, 23419.00
1153.718, 23430.00
1154.808, 23412.00
1155.898, 23326.00
1156.988, 23424.00
1158.077, 23197.00
1159.166, 23391.00
1160.255, 23382.36
1161.344, 23533.29
1162.433, 23622.62
1163.521, 23653.65
1164.610, 23451.82
1165.698, 23550.68
1166.786, 23529.04
1167.874, 23502.46
1168.961, 23643.64
1170.049, 23475.66
1171.136, 23614.18
1172.224, 23630.36
1173.311, 23702.53
1174.397, 23653.43
1175.484, 23641.80
1176.571, 23751.46
1177.657, 23793.94
1178.743, 23730.89
1179.829, 23806.60
1180.915, 23634.38
1182.001, 23679.72
1183.086, 23818.94
1184.171, 23761.97
1185.256, 23839.89
1186.341, 23696.00
1187.426, 23697.00
1188.511, 23734.00
1189.595, 23698.00
1190.680, 23800.00
1191.764, 23804.00
1192.848, 23826.00
1193.932, 23615.00
1195.015, 23610.80
1196.099, 23567.95
1197.182, 23515.00
1198.265, 23550.00
1199.348, 23683.00
1200.431, 23746.00
1201.513, 23697.00
1202.596, 23892.00
1203.678, 23713.00
1204.760, 23628.00
1205.842, 23792.00
1206.924, 23754.00
1208.005, 23692.00
1209.087, 23706.16
1210.168, 23816.00
1211.249, 23622.00
1212.330, 23743.00
1213.411, 23773.00
1214.491, 23714.00
1215.572, 23710.00
1216.652, 23703.00
1217.732, 23922.00
1218.812, 24011.00
1219.891, 23998.57
1220.971, 23970.00
1222.050, 23950.00
1223.129, 23749.00
1224.208, 23667.00
1225.287, 23625.07
1226.366, 23864.00
1227.444, 23600.00
1228.523, 23670.00
1229.601, 23776.00
1230.679, 23705.00
1231.757, 23778.43
1232.834, 23716.00
1233.912, 23763.00
1234.989, 23749.00
1236.066, 23638.00
1237.143, 23724.00
1238.220, 23688.00
1239.297, 23663.00
1240.373, 23818.00
1241.449, 23939.00
1242.526, 23728.00
1243.601, 23792.00
1244.677, 23940.00
1245.753, 23775.00
1246.828, 23711.19
1247.904, 23845.60
1248.979, 23918.41
1250.054, 23932.94
1251.128, 23714.59
1252.203, 23796.96
1253.277, 23758.81
1254.351, 23715.72
1255.426, 23840.41
1256.499, 23655.94
1257.573, 23777.97
1258.647, 23777.65
1259.720, 23833.33
1260.793, 23767.76
1261.866, 23739.64
1262.939, 23832.81
1264.012, 23858.82
1265.084, 23779.29
1266.157, 23838.54
1267.229, 23649.84
1268.301, 23678.71
1269.373, 23801.47
1270.444, 23728.04
1271.516, 23789.51
1272.587, 23799.60
1273.658, 23576.22
1274.729, 23270.00
1275.800, 23467.00
1276.871, 23422.00
1277.941, 23502.00
1279.011, 23571.00
1280.082, 23479.00
1281.151, 23598.00
1282.221, 23323.00
1283.291, 23501.00
1284.360, 23666.00
1285.430, 23463.00
1286.499, 23433.00
1287.568, 23598.00
1288.636, 23271.00
1289.705, 23540.00
1290.773, 23371.00
1291.841, 23359.00
1292.909, 23398.00
1293.977, 23509.00
1295.045, 23496.00
1296.113, 23332.00
1297.180, 23531.00
1298.247, 23480.00
1299.314, 23574.00
1300.381, 23345.00
1301.448, 23220.00
1302.514, 23456.00
1303.580, 23127.00
1304.647, 23421.00
1305.713, 23369.00
1306.778, 23239.00
