##NAMES=Gaylussite
##RRUFFID=R040146
##IDEAL CHEMISTRY=Na_2_Ca(CO_3_)_2_&#183;5H_2_O
##LOCALITY=Searles Lake, Trona, San Bernardino County, California, USA
##OWNER=RRUFF
##SOURCE=University of Arizona Mineral Museum
##DESCRIPTION=Colorless crystal fragments
##STATUS=The identification of this mineral has been confirmed by X-ray diffraction and chemical analysis
##URL=rruff.info/R040146
##MEASURED CHEMISTRY=Na_2.00_Ca_1.00_(C_1.00_O_3_)_2_Â·5H_2_O
##PIN_ID=L00121
##ORIENTATION=Laser parallel to c* (0 0 1). Fiducial mark perpendicular to laser is parallel to a [1 0 0]
63.96800, 577.0000
65.21800, 681.0000
66.46800, 619.0000
67.71800, 690.0000
68.96700, 741.0000
70.21700, 775.0000
71.46600, 680.0000
72.71500, 902.0000
73.96300, 924.0000
75.21200, 947.0000
76.46000, 1106.000
77.70800, 1360.000
78.95600, 1508.000
80.20300, 1723.000
81.45100, 1859.000
82.69800, 2154.000
83.94500, 2607.000
85.19100, 3098.000
86.43800, 4057.000
87.68400, 5390.000
88.93100, 6908.000
90.17600, 8885.000
91.42200, 11052.00
92.66800, 13363.00
93.91300, 15871.00
95.15800, 18765.00
96.40300, 22350.00
97.64800, 27382.00
98.89200, 32741.00
100.1370, 37647.00
101.3810, 41803.00
102.6250, 43943.00
103.8680, 44192.00
105.1120, 43334.00
106.3550, 41945.00
107.5980, 40911.00
108.8410, 40549.00
110.0840, 41267.00
111.3260, 42360.00
112.5680, 43778.00
113.8100, 45215.00
115.0520, 45987.00
116.2940, 46969.00
117.5350, 47344.00
118.7770, 47444.00
120.0180, 47855.00
121.2590, 47874.00
122.4990, 48723.00
123.7400, 48657.00
124.9800, 48194.00
126.2200, 47427.00
127.4600, 46509.00
128.6990, 45422.00
129.9390, 44300.00
131.1780, 43621.00
132.4170, 42691.00
133.6560, 41791.00
134.8940, 40991.00
136.1330, 40098.00
137.3710, 39201.00
138.6090, 38801.00
139.8470, 38073.00
141.0840, 37937.00
142.3220, 38292.00
143.5590, 38778.00
144.7960, 39236.00
146.0320, 39803.00
147.2690, 40578.00
148.5050, 41043.00
149.7420, 41624.00
150.9780, 41763.00
152.2130, 41872.00
153.4490, 42519.00
154.6840, 42997.00
155.9190, 43739.00
157.1540, 44796.00
158.3890, 45953.00
159.6240, 47718.00
160.8580, 48740.00
162.0920, 49977.00
163.3260, 51022.00
164.5600, 51791.00
165.7930, 51359.00
167.0270, 50441.00
168.2600, 49158.00
169.4930, 47635.00
170.7260, 45939.00
171.9580, 44610.00
173.1900, 43498.00
174.4230, 42219.00
175.6550, 41513.00
176.8860, 40941.00
178.1180, 40186.00
179.3490, 39847.00
180.5800, 39058.00
181.8110, 38703.00
183.0420, 38381.00
184.2730, 37736.00
185.5030, 37860.00
186.7330, 37340.00
187.9630, 37616.00
189.1930, 37458.00
190.4220, 37580.00
191.6520, 37756.00
192.8810, 37891.00
194.1100, 37873.00
195.3390, 37957.00
196.5670, 38116.00
197.7960, 38155.28
199.0240, 38243.00
200.2520, 38382.00
201.4790, 38687.00
202.7070, 38895.00
203.9340, 39616.00
205.1620, 39544.00
206.3890, 40197.00
207.6150, 40478.00
208.8420, 40609.00
210.0680, 40239.00
211.2940, 39876.00
212.5200, 40034.00
213.7460, 40080.00
214.9720, 39942.00
216.1970, 40047.00
217.4220, 40031.00
218.6470, 40562.00
219.8720, 40469.00
221.0970, 41224.00
222.3210, 41529.00
223.5450, 41661.00
224.7690, 42419.00
225.9930, 42428.00
227.2170, 43296.00
228.4400, 43323.00
229.6630, 43922.00
230.8860, 44475.00
232.1090, 44685.00
233.3320, 44638.00
234.5540, 44808.00
235.7770, 44582.00
236.9990, 44216.00
238.2210, 44152.00
239.4420, 43588.00
240.6640, 43174.00
241.8850, 43165.00
243.1060, 43636.00
244.3270, 44004.00
245.5480, 44597.00
246.7680, 45266.00
247.9880, 46250.00
249.2080, 47285.00
250.4280, 48902.00
251.6480, 50257.00
252.8670, 51773.00
254.0870, 53364.00
255.3060, 55040.00
256.5250, 56151.00
257.7440, 56748.00
258.9620, 57591.00
260.1800, 57919.00
261.3990, 58051.00
262.6160, 57696.52
263.8340, 56886.00
265.0520, 56075.00
266.2690, 54859.00
267.4860, 53465.00
268.7030, 51582.00
269.9200, 49658.00
271.1370, 48126.00
272.3530, 46549.00
273.5690, 45664.00
274.7850, 44694.00
276.0010, 43952.00
277.2170, 43559.00
278.4320, 43136.00
279.6470, 42654.00
280.8620, 42498.00
282.0770, 42184.34
283.2920, 41914.00
284.5060, 41827.00
285.7210, 41687.00
286.9350, 41567.00
288.1490, 41034.00
289.3620, 41037.00
290.5760, 40986.00
291.7890, 40919.00
293.0020, 40978.00
294.2150, 40819.13
295.4280, 40569.00
296.6400, 40623.00
297.8530, 40503.00
299.0650, 40539.00
300.2770, 40765.00
301.4890, 40368.00
302.7000, 40483.00
303.9120, 40328.00
305.1230, 40184.00
306.3340, 40598.00
307.5450, 40418.00
308.7550, 40164.00
309.9660, 40399.00
311.1760, 40073.00
312.3860, 40284.00
313.5960, 40201.00
314.8050, 40447.00
316.0150, 40253.00
317.2240, 40212.00
318.4330, 40275.00
319.6420, 40407.00
320.8510, 40470.00
322.0590, 40700.00
323.2680, 40684.00
324.4760, 40862.00
325.6840, 40618.00
326.8910, 40723.00
328.0990, 40669.00
329.3060, 40757.00
330.5140, 40799.00
331.7210, 41051.00
332.9270, 41209.00
334.1340, 41409.00
335.3400, 41399.00
336.5470, 41601.00
337.7530, 41599.00
338.9590, 41762.00
340.1640, 41805.00
341.3700, 41900.00
342.5750, 41756.00
343.7800, 41778.00
344.9850, 42088.00
346.1900, 41710.00
347.3940, 41977.00
348.5990, 41779.00
349.8030, 41814.00
351.0070, 41820.00
352.2100, 41767.89
353.4140, 41789.68
354.6170, 41758.00
355.8210, 41803.00
357.0240, 41764.00
358.2260, 41828.00
359.4290, 41590.00
360.6320, 41985.00
361.8340, 42061.00
363.0360, 41739.00
364.2380, 41978.00
365.4400, 42020.00
366.6410, 42067.00
367.8420, 42007.00
369.0440, 42403.00
370.2440, 42123.00
371.4450, 42204.00
372.6460, 42595.00
373.8460, 42333.00
375.0460, 42533.00
376.2460, 42416.00
377.4460, 42678.00
378.6460, 42669.00
379.8450, 42744.00
381.0450, 42775.00
382.2440, 42823.00
383.4430, 42987.00
384.6410, 43054.00
385.8400, 42818.00
387.0380, 42990.00
388.2360, 42851.00
389.4340, 43127.00
390.6320, 42941.00
391.8300, 43057.00
393.0270, 43347.00
394.2240, 43436.00
395.4210, 43515.00
396.6180, 43399.00
397.8150, 43748.00
399.0110, 43483.00
400.2080, 43518.00
401.4040, 43793.00
402.6000, 44043.00
403.7950, 43712.00
404.9910, 43786.00
406.1860, 43809.00
407.3810, 43928.00
408.5760, 44140.00
409.7710, 44046.00
410.9660, 44026.00
412.1600, 44215.00
413.3540, 44551.00
414.5490, 44118.00
415.7420, 44395.00
416.9360, 44753.00
418.1300, 44444.00
419.3230, 44346.00
420.5160, 44616.00
421.7090, 44432.00
422.9020, 44675.00
424.0940, 44885.00
425.2870, 44614.00
426.4790, 45092.00
427.6710, 44947.00
428.8630, 44630.00
430.0550, 45040.00
431.2460, 45281.00
432.4370, 45306.00
433.6290, 45150.00
434.8190, 45144.00
436.0100, 45435.00
437.2010, 45356.00
438.3910, 45341.00
439.5810, 45697.00
440.7710, 45385.00
441.9610, 45911.00
443.1510, 45784.00
444.3400, 45957.00
445.5300, 45821.00
446.7190, 46033.00
447.9080, 46095.00
449.0960, 46151.00
450.2850, 46352.00
451.4730, 46161.00
452.6620, 46426.00
453.8500, 46068.00
455.0370, 46633.00
456.2250, 46449.00
457.4120, 46626.00
458.6000, 46727.00
459.7870, 46644.00
460.9740, 46781.00
462.1610, 46871.00
463.3470, 47096.00
464.5330, 47187.00
465.7200, 47235.00
466.9060, 46822.00
468.0910, 47318.00
469.2770, 46966.00
470.4630, 47080.00
471.6480, 47715.00
472.8330, 47587.00
474.0180, 47651.00
475.2030, 47651.00
476.3870, 47837.00
477.5720, 47635.00
478.7560, 47957.00
479.9400, 47780.00
481.1240, 47970.00
482.3070, 48324.00
483.4910, 48363.00
484.6740, 48578.00
485.8570, 48886.00
487.0400, 48859.90
488.2230, 48856.00
489.4050, 48943.00
490.5880, 49012.00
491.7700, 49078.00
492.9520, 49170.00
494.1340, 48888.00
495.3160, 49281.00
496.4970, 49169.00
497.6780, 49770.00
498.8600, 49506.00
500.0400, 49945.00
501.2210, 49895.00
502.4020, 49730.00
503.5820, 50196.00
504.7630, 50142.00
505.9430, 50279.00
507.1220, 50593.00
508.3020, 50882.00
509.4820, 50713.00
510.6610, 51229.00
511.8400, 51150.00
513.0190, 51275.00
514.1980, 52077.00
515.3770, 51894.00
516.5550, 52171.00
517.7330, 51907.00
518.9110, 52420.00
520.0890, 52335.00
521.2670, 52559.00
522.4450, 52494.00
523.6220, 52736.00
524.7990, 52519.00
525.9760, 52768.00
527.1530, 52179.00
528.3300, 52256.00
529.5060, 52158.00
530.6830, 52502.00
531.8590, 52160.00
533.0350, 52156.00
534.2100, 52292.00
535.3860, 51899.00
536.5610, 51861.00
537.7370, 51592.00
538.9120, 51634.00
540.0870, 51612.75
541.2610, 51612.00
542.4360, 51731.00
543.6100, 51781.00
544.7850, 51887.00
545.9590, 51834.00
547.1320, 52053.00
548.3060, 51995.00
549.4800, 51973.00
550.6530, 52115.00
551.8260, 52106.00
552.9990, 52206.00
554.1720, 52456.00
555.3440, 52709.00
556.5170, 52654.00
557.6890, 52778.00
558.8610, 52988.00
560.0330, 53074.00
561.2050, 53067.00
562.3760, 53106.00
563.5480, 53039.00
564.7190, 53299.00
565.8900, 53445.00
567.0610, 53623.00
568.2310, 53542.00
569.4020, 53703.00
570.5720, 54077.00
571.7420, 53615.00
572.9120, 54533.00
574.0820, 54066.00
575.2520, 54159.00
576.4210, 54226.00
577.5900, 54410.00
578.7590, 54428.20
579.9280, 54086.00
581.0970, 54605.00
582.2660, 54295.00
583.4340, 54532.00
584.6020, 54458.00
585.7700, 54709.00
586.9380, 54439.00
588.1060, 54454.00
589.2730, 54749.00
590.4410, 54801.00
591.6080, 54694.00
592.7750, 54583.00
593.9420, 54856.00
595.1080, 54744.00
596.2750, 54950.00
597.4410, 54830.00
598.6070, 55252.00
599.7730, 55354.00
600.9390, 55489.00
602.1050, 55416.84
603.2700, 55675.00
604.4350, 54930.00
605.6010, 55109.00
606.7660, 54662.00
607.9300, 55134.00
609.0950, 55088.00
610.2590, 55544.00
611.4230, 55006.00
612.5880, 55331.00
613.7510, 55155.00
614.9150, 55232.00
616.0790, 55143.00
617.2420, 55518.00
618.4050, 55593.00
619.5680, 55725.00
620.7310, 55844.00
621.8940, 55893.00
623.0560, 55985.00
624.2190, 55739.00
625.3810, 56139.00
626.5430, 56533.00
627.7050, 56621.00
628.8660, 55881.00
630.0280, 56431.00
631.1890, 56352.00
632.3500, 56343.00
633.5110, 56468.00
634.6720, 56475.00
635.8330, 56744.00
636.9930, 56794.00
638.1530, 56698.00
639.3130, 57007.00
640.4730, 56923.00
641.6330, 56794.00
642.7930, 57091.00
643.9520, 57132.28
645.1110, 57257.00
646.2710, 57513.00
647.4290, 57748.00
648.5880, 57876.00
649.7470, 57652.00
650.9050, 57936.00
652.0630, 58200.00
653.2210, 58210.00
654.3790, 58512.00
655.5370, 58711.29
656.6950, 58681.00
657.8520, 59185.00
659.0090, 59042.00
660.1660, 59204.00
661.3230, 58778.00
662.4800, 59504.00
663.6360, 59181.00
664.7930, 59467.00
665.9490, 59657.00
667.1050, 60043.00
668.2610, 59349.00
669.4160, 59573.00
670.5720, 59670.00
671.7270, 59422.00
672.8830, 59609.00
674.0380, 59147.00
675.1920, 59914.00
676.3470, 59553.00
677.5020, 59649.00
678.6560, 59506.00
679.8100, 59544.00
680.9640, 59999.00
682.1180, 59796.00
683.2720, 59915.00
684.4250, 60389.00
685.5780, 60514.00
686.7320, 60234.00
687.8850, 60368.00
689.0370, 60965.00
690.1900, 60679.00
691.3420, 60846.00
692.4950, 60605.00
693.6470, 60859.00
694.7990, 60645.00
695.9510, 60673.00
697.1020, 60587.00
698.2540, 60714.00
699.4050, 60788.11
700.5560, 60764.00
701.7070, 61024.00
702.8580, 61136.00
704.0090, 61178.00
705.1590, 61422.00
706.3100, 60959.00
707.4600, 61209.00
708.6100, 61322.00
709.7590, 61506.00
710.9090, 61724.00
712.0590, 61899.00
713.2080, 62095.00
714.3570, 62350.36
715.5060, 62624.00
716.6550, 62913.00
717.8030, 63244.00
718.9520, 63627.00
720.1000, 63721.00
721.2480, 63822.00
722.3960, 63795.00
723.5440, 63395.00
724.6920, 63098.00
725.8390, 62630.00
726.9870, 62453.14
728.1340, 62125.00
729.2810, 62004.00
730.4280, 61827.00
731.5740, 61458.00
732.7210, 62055.00
733.8670, 61816.00
735.0130, 61688.00
736.1590, 62100.00
737.3050, 61841.00
738.4510, 62156.00
739.5960, 61973.00
740.7410, 62150.00
741.8870, 61943.00
743.0320, 62534.00
744.1760, 62531.00
745.3210, 62244.00
746.4660, 62636.00
747.6100, 62281.00
748.7540, 62515.00
749.8980, 62960.00
751.0420, 62563.00
752.1860, 62931.00
753.3290, 62909.00
754.4720, 63042.00
755.6160, 62715.00
756.7590, 63266.00
757.9020, 63341.00
759.0440, 63589.00
760.1870, 63054.00
761.3290, 63396.00
762.4710, 63252.00
763.6130, 63232.00
764.7550, 63446.00
765.8970, 63402.00
767.0390, 63846.00
768.1800, 63560.00
769.3210, 63816.00
770.4620, 63598.00
771.6030, 63968.00
772.7440, 64230.00
773.8840, 63981.00
775.0250, 64281.00
776.1650, 64305.00
777.3050, 64077.00
778.4450, 63828.00
779.5850, 64323.00
780.7240, 64666.00
781.8640, 64339.00
783.0030, 64721.00
784.1420, 64394.00
785.2810, 64693.00
786.4200, 64437.00
787.5590, 65082.00
788.6970, 65133.00
789.8350, 64901.00
790.9730, 65177.00
792.1110, 64791.00
793.2490, 65036.00
794.3870, 64943.00
795.5240, 65259.00
796.6620, 65578.00
797.7990, 65788.00
798.9360, 65428.00
800.0730, 65457.00
801.2090, 65777.00
802.3460, 65753.00
803.4820, 66007.00
804.6180, 65865.00
805.7540, 65860.00
806.8900, 66209.00
808.0260, 65962.00
809.1620, 66508.00
810.2970, 66195.00
811.4320, 66658.00
812.5670, 66622.00
813.7020, 66669.00
814.8370, 66499.00
815.9710, 66722.00
817.1060, 66999.00
818.2400, 67027.87
819.3740, 67198.80
820.5080, 67106.00
821.6420, 67215.63
822.7760, 67243.57
823.9090, 67305.00
825.0420, 67277.00
826.1760, 67285.00
827.3090, 67242.00
828.4410, 67258.00
829.5740, 67534.00
830.7060, 67730.00
831.8390, 67580.00
832.9710, 67908.00
834.1030, 67724.00
835.2350, 67995.00
836.3670, 67842.00
837.4980, 68051.00
838.6300, 68100.00
839.7610, 68334.00
840.8920, 68423.00
842.0230, 68332.00
843.1530, 68824.00
844.2840, 68592.00
845.4140, 68579.00
846.5450, 68473.00
847.6750, 69055.00
848.8050, 69237.00
849.9350, 69247.00
851.0640, 69372.00
852.1940, 69004.00
853.3230, 69251.00
854.4520, 69305.00
855.5810, 69315.00
856.7100, 69686.00
857.8390, 69353.00
858.9670, 70000.00
860.0960, 70049.00
861.2240, 70037.00
862.3520, 69989.00
863.4800, 70039.41
864.6080, 70295.00
865.7350, 70084.00
866.8630, 70380.00
867.9900, 70415.00
869.1170, 70494.00
870.2440, 70364.00
871.3710, 70732.00
872.4970, 70751.00
873.6240, 70462.00
874.7500, 71158.00
875.8760, 70746.00
877.0020, 71388.00
878.1280, 71054.00
879.2540, 71158.00
880.3790, 71628.00
881.5050, 71400.00
882.6300, 71778.00
883.7550, 71647.00
884.8800, 72071.00
886.0050, 71780.00
887.1290, 72061.00
888.2540, 72395.00
889.3780, 72333.00
890.5020, 72736.00
891.6260, 72379.00
892.7500, 72738.00
893.8730, 72746.00
894.9970, 73204.00
896.1200, 73570.00
897.2440, 73365.00
898.3670, 73415.00
899.4890, 73273.00
900.6120, 73544.00
901.7350, 73285.00
902.8570, 73643.00
903.9790, 73606.00
905.1010, 73843.00
906.2230, 73854.00
907.3450, 73852.00
908.4670, 73841.00
909.5880, 73870.55
910.7100, 73849.60
911.8310, 73908.00
912.9520, 73864.00
914.0730, 73846.00
915.1930, 73927.00
916.3140, 73863.69
917.4340, 73832.00
918.5550, 73774.00
919.6750, 73861.00
920.7950, 73735.00
921.9140, 73766.00
923.0340, 73982.00
924.1530, 74204.00
925.2730, 73781.00
926.3920, 74129.00
927.5110, 74494.00
928.6300, 74230.00
929.7480, 74784.00
930.8670, 74544.00
931.9850, 74522.00
933.1040, 74416.00
934.2220, 74712.00
935.3400, 74814.00
936.4570, 74682.00
937.5750, 74610.00
938.6920, 74394.00
939.8100, 75165.00
940.9270, 74747.00
942.0440, 75108.00
943.1610, 75244.00
944.2770, 75058.00
945.3940, 75289.00
946.5100, 75274.00
947.6270, 74907.00
948.7430, 75476.00
949.8590, 75456.00
950.9740, 75539.00
952.0900, 75139.00
953.2050, 75751.00
954.3210, 75358.00
955.4360, 75846.00
956.5510, 76038.00
957.6660, 75927.00
958.7800, 75762.00
959.8950, 75944.00
961.0090, 75891.00
962.1240, 76189.00
963.2380, 76230.20
964.3520, 76142.00
965.4650, 76437.00
966.5790, 76568.00
967.6930, 76668.00
968.8060, 76766.00
969.9190, 76460.00
971.0320, 76789.00
972.1450, 76428.00
973.2580, 76817.00
974.3700, 77086.00
975.4830, 76964.00
976.5950, 76872.00
977.7070, 76766.00
978.8190, 77330.00
979.9310, 76906.00
981.0430, 77065.00
982.1540, 77601.00
983.2650, 77085.00
984.3770, 77375.00
985.4880, 77345.00
986.5990, 77746.00
987.7090, 77895.00
988.8200, 77767.00
989.9300, 77940.00
991.0410, 77945.00
992.1510, 78315.00
993.2610, 78230.00
994.3710, 78349.00
995.4810, 78451.62
996.5900, 78846.00
997.6990, 78728.00
998.8090, 78471.00
999.9180, 78960.00
1001.027, 79093.00
1002.136, 79286.00
1003.244, 79016.00
1004.353, 79412.00
1005.461, 79490.00
1006.569, 79159.00
1007.677, 79445.00
1008.785, 79268.00
1009.893, 79248.00
1011.001, 79479.00
1012.108, 79139.00
1013.215, 79574.00
1014.323, 79449.00
1015.430, 79580.00
1016.536, 80116.00
1017.643, 80250.00
1018.750, 79749.00
1019.856, 80295.00
1020.962, 80605.00
1022.068, 80065.00
1023.174, 80658.00
1024.280, 80623.00
1025.386, 80574.00
1026.491, 80834.00
1027.597, 80853.00
1028.702, 81104.00
1029.807, 81015.00
1030.912, 81083.00
1032.017, 81070.00
1033.121, 81019.38
1034.226, 81565.00
1035.330, 81059.00
1036.434, 81468.00
1037.538, 81796.00
1038.642, 81517.00
1039.746, 82011.00
1040.850, 82126.00
1041.953, 82576.00
1043.056, 82085.00
1044.159, 82835.00
1045.262, 82859.00
1046.365, 82947.00
1047.468, 83848.00
1048.571, 84178.00
1049.673, 85044.00
1050.775, 84596.00
1051.877, 84975.00
1052.979, 84993.00
1054.081, 85096.00
1055.183, 85622.00
1056.284, 85585.00
1057.386, 86730.00
1058.487, 86926.00
1059.588, 88090.00
1060.689, 90769.00
1061.790, 93027.00
1062.890, 97793.00
1063.991, 104834.0
1065.091, 117964.0
1066.191, 139329.0
1067.291, 168754.0
1068.391, 210560.0
1069.491, 260831.0
1070.591, 310295.0
1071.690, 320458.0
1072.790, 281319.0
1073.889, 217916.0
1074.988, 161917.0
1076.087, 129562.0
1077.185, 111415.0
1078.284, 101864.0
1079.382, 96298.00
1080.481, 92224.00
1081.579, 90321.00
1082.677, 88855.00
1083.775, 88341.00
1084.872, 87522.00
1085.970, 87329.00
1087.067, 86915.00
1088.165, 86527.00
1089.262, 86780.00
1090.359, 86080.00
1091.456, 86339.00
1092.552, 85878.00
1093.649, 85775.51
1094.745, 85787.70
1095.842, 85682.00
1096.938, 85815.00
1098.034, 85994.00
1099.130, 86235.00
1100.225, 86593.00
1101.321, 86278.00
1102.416, 86835.00
1103.511, 86072.00
1104.607, 86520.00
1105.702, 86313.00
1106.796, 86300.00
1107.891, 86849.00
1108.986, 86828.00
1110.080, 86685.00
1111.174, 86682.00
1112.268, 87231.00
1113.362, 87235.00
1114.456, 86954.00
1115.550, 87115.00
1116.643, 86698.00
1117.737, 86712.00
1118.830, 87141.00
1119.923, 87558.00
1121.016, 87650.00
1122.109, 87372.00
1123.201, 87753.00
1124.294, 87162.00
1125.386, 87496.00
1126.478, 87607.00
1127.571, 87715.00
1128.663, 88286.00
1129.754, 87793.00
1130.846, 87877.00
1131.937, 88270.00
1133.029, 88450.00
1134.120, 88647.00
1135.211, 88212.00
1136.302, 88704.00
1137.393, 88378.00
1138.484, 88790.00
1139.574, 88917.00
1140.664, 88879.00
1141.755, 89029.00
1142.845, 89079.00
1143.935, 89207.00
1145.025, 89378.00
1146.114, 89312.00
1147.204, 89535.23
1148.293, 89496.00
1149.382, 89754.00
1150.471, 89750.00
1151.560, 89644.00
1152.649, 90336.00
1153.738, 90198.00
1154.826, 90904.00
1155.915, 90782.00
1157.003, 90584.00
1158.091, 90461.00
1159.179, 91154.00
1160.267, 91794.00
1161.355, 91099.00
1162.442, 90990.00
1163.529, 90848.00
1164.617, 91066.00
1165.704, 91109.00
1166.791, 90885.00
1167.878, 91139.00
1168.964, 90895.00
1170.051, 91501.00
1171.137, 91091.00
1172.224, 91364.00
1173.310, 91794.00
1174.396, 91341.00
1175.481, 91420.00
1176.567, 91685.00
1177.653, 91683.00
1178.738, 91641.00
1179.823, 91932.00
1180.909, 91906.00
1181.994, 91963.00
1183.078, 92526.00
1184.163, 91739.00
1185.248, 92225.00
1186.332, 93057.00
1187.416, 92423.00
1188.501, 92291.00
1189.585, 92316.00
1190.669, 92546.00
1191.752, 92410.00
1192.836, 92504.00
1193.919, 93184.00
1195.003, 92837.00
1196.086, 92702.00
1197.169, 93270.00
1198.252, 93006.00
1199.334, 93524.00
1200.417, 93601.91
1201.500, 93372.00
1202.582, 93794.00
1203.664, 93481.00
1204.746, 93380.00
1205.828, 93649.00
1206.910, 93553.00
1207.992, 94041.00
1209.073, 93536.00
1210.154, 94615.00
1211.236, 93861.00
1212.317, 94311.00
1213.398, 94241.00
1214.479, 94636.00
1215.559, 94177.00
1216.640, 94274.00
1217.720, 95001.00
1218.800, 94538.00
1219.881, 94686.00
1220.961, 94511.00
1222.040, 95020.00
1223.120, 95135.00
1224.200, 94724.00
1225.279, 95111.00
1226.358, 95293.00
1227.438, 95313.00
1228.517, 95171.00
1229.595, 95103.00
1230.674, 95596.00
1231.753, 95118.00
1232.831, 95522.00
1233.910, 95084.00
1234.988, 95216.00
1236.066, 95722.00
1237.144, 95631.00
1238.222, 96352.00
1239.299, 95960.00
1240.377, 95931.00
1241.454, 96243.00
1242.531, 96280.00
1243.608, 96147.00
1244.685, 96002.00
1245.762, 96436.00
