##NAMES=Gaylussite
##RRUFFID=R040146
##IDEAL CHEMISTRY=Na_2_Ca(CO_3_)_2_&#183;5H_2_O
##LOCALITY=Searles Lake, Trona, San Bernardino County, California, USA
##OWNER=RRUFF
##SOURCE=University of Arizona Mineral Museum
##DESCRIPTION=Colorless crystal fragments
##STATUS=The identification of this mineral has been confirmed by X-ray diffraction and chemical analysis
##URL=rruff.info/R040146
##MEASURED CHEMISTRY=Na_2.00_Ca_1.00_(C_1.00_O_3_)_2_Â·5H_2_O
##PIN_ID=L00121
##ORIENTATION=Laser parallel to c* (0 0 1). Fiducial mark perpendicular to laser is parallel to a [1 0 0]
63.96800, 475.0000
65.21800, 547.0000
66.46800, 492.0000
67.71800, 600.0000
68.96700, 692.0000
70.21700, 658.0000
71.46600, 638.0000
72.71500, 822.0000
73.96300, 804.0000
75.21200, 871.0000
76.46000, 1112.000
77.70800, 1348.000
78.95600, 1547.000
80.20300, 1740.000
81.45100, 1832.000
82.69800, 2031.000
83.94500, 2370.000
85.19100, 2796.000
86.43800, 3621.000
87.68400, 4891.000
88.93100, 6339.000
90.17600, 8290.000
91.42200, 10269.00
92.66800, 12321.00
93.91300, 14124.00
95.15800, 15729.00
96.40300, 17102.00
97.64800, 18909.00
98.89200, 20928.00
100.1370, 23387.00
101.3810, 25347.00
102.6250, 26832.00
103.8680, 27616.00
105.1120, 27539.00
106.3550, 27224.00
107.5980, 27151.00
108.8410, 27533.00
110.0840, 28738.00
111.3260, 30726.00
112.5680, 32280.00
113.8100, 34237.00
115.0520, 35116.00
116.2940, 35567.00
117.5350, 35250.00
118.7770, 34821.00
120.0180, 34665.00
121.2590, 34643.12
122.4990, 34650.00
123.7400, 34996.00
124.9800, 35157.00
126.2200, 35694.91
127.4600, 35921.00
128.6990, 36533.00
129.9390, 37093.00
131.1780, 37531.00
132.4170, 38060.00
133.6560, 37394.00
134.8940, 36353.00
136.1330, 34480.00
137.3710, 33091.00
138.6090, 31588.00
139.8470, 30575.00
141.0840, 29981.00
142.3220, 29612.00
143.5590, 29830.00
144.7960, 30360.00
146.0320, 30618.00
147.2690, 31659.00
148.5050, 32484.00
149.7420, 33280.00
150.9780, 34199.00
152.2130, 35571.00
153.4490, 37318.00
154.6840, 39364.00
155.9190, 41981.00
157.1540, 45023.00
158.3890, 48532.00
159.6240, 52964.00
160.8580, 57488.00
162.0920, 61792.00
163.3260, 66155.00
164.5600, 68929.00
165.7930, 69688.00
167.0270, 67965.00
168.2600, 64052.00
169.4930, 59120.00
170.7260, 53177.00
171.9580, 48395.00
173.1900, 44602.60
174.4230, 41236.27
175.6550, 38359.00
176.8860, 36879.00
178.1180, 35231.00
179.3490, 34212.00
180.5800, 33080.00
181.8110, 32499.00
183.0420, 31712.00
184.2730, 31557.00
185.5030, 30911.00
186.7330, 30700.00
187.9630, 30889.00
189.1930, 30779.00
190.4220, 30938.00
191.6520, 30921.00
192.8810, 31144.00
194.1100, 30778.00
195.3390, 30788.00
196.5670, 30543.00
197.7960, 30198.00
199.0240, 29967.00
200.2520, 29590.00
201.4790, 29419.00
202.7070, 29359.00
203.9340, 29743.00
205.1620, 29594.00
206.3890, 30115.00
207.6150, 30208.00
208.8420, 30545.00
210.0680, 30806.00
211.2940, 30672.00
212.5200, 30440.00
213.7460, 30679.00
214.9720, 30179.00
216.1970, 30383.00
217.4220, 30357.00
218.6470, 30737.00
219.8720, 31136.51
221.0970, 31797.00
222.3210, 32311.00
223.5450, 32975.00
224.7690, 33832.00
225.9930, 34734.00
227.2170, 35686.00
228.4400, 36384.00
229.6630, 37498.00
230.8860, 38313.00
232.1090, 38752.00
233.3320, 38636.00
234.5540, 38341.00
235.7770, 37430.00
236.9990, 36293.00
238.2210, 34967.00
239.4420, 33805.00
240.6640, 33005.00
241.8850, 31991.00
243.1060, 31492.00
244.3270, 30772.00
245.5480, 30439.00
246.7680, 30350.00
247.9880, 30979.00
249.2080, 30583.70
250.4280, 30858.00
251.6480, 30636.00
252.8670, 30551.00
254.0870, 31062.00
255.3060, 30998.00
256.5250, 31303.00
257.7440, 31027.00
258.9620, 30682.00
260.1800, 30417.00
261.3990, 30387.00
262.6160, 29842.00
263.8340, 30141.00
265.0520, 29511.00
266.2690, 29850.00
267.4860, 29320.00
268.7030, 29586.00
269.9200, 29305.00
271.1370, 29608.00
272.3530, 30027.00
273.5690, 29918.00
274.7850, 30456.00
276.0010, 30722.00
277.2170, 31123.00
278.4320, 31309.00
279.6470, 31606.00
280.8620, 31819.00
282.0770, 32387.00
283.2920, 32058.00
284.5060, 32329.00
285.7210, 32032.00
286.9350, 32112.00
288.1490, 31960.00
289.3620, 31476.00
290.5760, 31375.00
291.7890, 31022.00
293.0020, 30791.00
294.2150, 30491.00
295.4280, 30350.00
296.6400, 30184.00
297.8530, 29828.00
299.0650, 29787.00
300.2770, 29579.00
301.4890, 29413.00
302.7000, 29640.00
303.9120, 29340.00
305.1230, 28982.00
306.3340, 29311.00
307.5450, 29190.00
308.7550, 29170.00
309.9660, 29059.00
311.1760, 29061.00
312.3860, 28975.00
313.5960, 28947.00
314.8050, 28997.27
316.0150, 29013.00
317.2240, 29095.00
318.4330, 29052.00
319.6420, 29046.00
320.8510, 29103.00
322.0590, 29025.00
323.2680, 29194.00
324.4760, 29288.00
325.6840, 29319.25
326.8910, 29206.00
328.0990, 29431.00
329.3060, 29426.00
330.5140, 29422.00
331.7210, 29506.00
332.9270, 29443.00
334.1340, 29618.00
335.3400, 29746.00
336.5470, 29698.00
337.7530, 29803.58
338.9590, 29852.13
340.1640, 29825.00
341.3700, 29912.00
342.5750, 29880.00
343.7800, 29778.00
344.9850, 29932.00
346.1900, 29914.00
347.3940, 29994.00
348.5990, 29804.00
349.8030, 29720.00
351.0070, 29812.00
352.2100, 29801.00
353.4140, 29953.00
354.6170, 29875.00
355.8210, 29885.00
357.0240, 29913.00
358.2260, 29948.00
359.4290, 29729.00
360.6320, 29825.00
361.8340, 29777.00
363.0360, 29840.00
364.2380, 29827.00
365.4400, 29964.00
366.6410, 29971.00
367.8420, 30168.00
369.0440, 29983.00
370.2440, 30064.00
371.4450, 30192.00
372.6460, 30026.00
373.8460, 29895.00
375.0460, 30303.00
376.2460, 30208.00
377.4460, 30053.00
378.6460, 30246.00
379.8450, 30338.00
381.0450, 30259.00
382.2440, 30474.00
383.4430, 30358.00
384.6410, 30414.00
385.8400, 30411.00
387.0380, 30680.00
388.2360, 30572.00
389.4340, 30608.00
390.6320, 30740.00
391.8300, 30431.00
393.0270, 30811.00
394.2240, 30739.00
395.4210, 30831.00
396.6180, 30961.00
397.8150, 31109.00
399.0110, 31100.23
400.2080, 31008.00
401.4040, 31072.00
402.6000, 31013.00
403.7950, 30964.00
404.9910, 30941.00
406.1860, 31020.01
407.3810, 31296.00
408.5760, 31252.00
409.7710, 31260.00
410.9660, 31401.00
412.1600, 31304.00
413.3540, 31508.00
414.5490, 31333.00
415.7420, 31569.00
416.9360, 31647.00
418.1300, 31506.00
419.3230, 31737.00
420.5160, 31618.00
421.7090, 31442.00
422.9020, 31857.00
424.0940, 31723.97
425.2870, 31815.00
426.4790, 31929.00
427.6710, 31543.00
428.8630, 31737.00
430.0550, 31690.00
431.2460, 31853.00
432.4370, 32114.00
433.6290, 32006.00
434.8190, 32135.00
436.0100, 32172.00
437.2010, 32110.00
438.3910, 32114.00
439.5810, 32098.66
440.7710, 32117.86
441.9610, 32094.00
443.1510, 32209.00
444.3400, 32285.00
445.5300, 32375.00
446.7190, 32308.00
447.9080, 32370.00
449.0960, 32635.00
450.2850, 32781.00
451.4730, 32484.00
452.6620, 32762.00
453.8500, 33154.00
455.0370, 33153.00
456.2250, 32676.00
457.4120, 33080.00
458.6000, 32977.00
459.7870, 33075.00
460.9740, 33001.00
462.1610, 33077.00
463.3470, 33237.00
464.5330, 32945.00
465.7200, 33259.00
466.9060, 33313.00
468.0910, 33207.00
469.2770, 33306.00
470.4630, 33323.00
471.6480, 33560.00
472.8330, 33525.00
474.0180, 33602.00
475.2030, 33636.00
476.3870, 33868.00
477.5720, 33392.00
478.7560, 33718.00
479.9400, 33975.00
481.1240, 33617.00
482.3070, 33818.00
483.4910, 34167.00
484.6740, 34035.00
485.8570, 34049.00
487.0400, 34123.00
488.2230, 34228.00
489.4050, 34218.00
490.5880, 34235.00
491.7700, 34480.00
492.9520, 34604.00
494.1340, 34387.00
495.3160, 34594.00
496.4970, 34332.00
497.6780, 34342.00
498.8600, 34638.00
500.0400, 34888.00
501.2210, 34872.00
502.4020, 35026.57
503.5820, 34959.00
504.7630, 35095.00
505.9430, 35128.00
507.1220, 35186.00
508.3020, 35236.00
509.4820, 35409.00
510.6610, 35450.00
511.8400, 35657.00
513.0190, 35836.00
514.1980, 35611.00
515.3770, 35949.00
516.5550, 36018.00
517.7330, 35801.00
518.9110, 36159.00
520.0890, 36228.00
521.2670, 36204.00
522.4450, 36202.00
523.6220, 36481.00
524.7990, 36439.00
525.9760, 36443.00
527.1530, 36421.00
528.3300, 36425.00
529.5060, 36266.00
530.6830, 36380.00
531.8590, 36659.00
533.0350, 36351.00
534.2100, 36597.00
535.3860, 36479.00
536.5610, 36801.00
537.7370, 36558.00
538.9120, 36393.00
540.0870, 36713.00
541.2610, 36472.00
542.4360, 36929.00
543.6100, 36647.00
544.7850, 36689.00
545.9590, 36762.00
547.1320, 37004.00
548.3060, 36999.00
549.4800, 37182.00
550.6530, 36943.00
551.8260, 37209.00
552.9990, 37291.00
554.1720, 37395.00
555.3440, 37703.00
556.5170, 37543.00
557.6890, 37565.00
558.8610, 37806.00
560.0330, 38095.00
561.2050, 38085.00
562.3760, 38166.00
563.5480, 38133.00
564.7190, 38339.00
565.8900, 38623.00
567.0610, 38571.00
568.2310, 38812.00
569.4020, 38799.00
570.5720, 38801.00
571.7420, 38809.00
572.9120, 39011.00
574.0820, 39140.00
575.2520, 39154.02
576.4210, 39190.00
577.5900, 39252.00
578.7590, 39276.00
579.9280, 39415.00
581.0970, 39336.00
582.2660, 39269.00
583.4340, 39666.00
584.6020, 39296.00
585.7700, 39389.00
586.9380, 39200.00
588.1060, 39532.00
589.2730, 39715.00
590.4410, 39820.00
591.6080, 39765.82
592.7750, 39367.00
593.9420, 39447.00
595.1080, 39430.00
596.2750, 39297.00
597.4410, 39343.00
598.6070, 39326.00
599.7730, 39161.00
600.9390, 39314.00
602.1050, 39391.00
603.2700, 39471.00
604.4350, 39306.00
605.6010, 39346.20
606.7660, 39339.00
607.9300, 39266.00
609.0950, 39241.00
610.2590, 39265.00
611.4230, 39224.40
612.5880, 39406.00
613.7510, 39204.00
614.9150, 39371.00
616.0790, 39368.00
617.2420, 39370.00
618.4050, 39436.00
619.5680, 39417.00
620.7310, 39769.00
621.8940, 39329.00
623.0560, 39807.00
624.2190, 39544.00
625.3810, 39535.00
626.5430, 39642.00
627.7050, 39721.00
628.8660, 39901.00
630.0280, 40001.00
631.1890, 39795.00
632.3500, 39760.00
633.5110, 39925.00
634.6720, 39815.00
635.8330, 40105.00
636.9930, 40122.00
638.1530, 40225.00
639.3130, 40103.00
640.4730, 40016.00
641.6330, 40504.00
642.7930, 40318.00
643.9520, 40780.00
645.1110, 40500.00
646.2710, 40542.00
647.4290, 40670.00
648.5880, 40820.00
649.7470, 40762.00
650.9050, 41006.00
652.0630, 40833.00
653.2210, 40896.00
654.3790, 41219.00
655.5370, 41120.00
656.6950, 41139.00
657.8520, 41275.00
659.0090, 41304.00
660.1660, 41344.00
661.3230, 41463.00
662.4800, 41470.14
663.6360, 41572.00
664.7930, 41551.00
665.9490, 41498.00
667.1050, 41550.27
668.2610, 41590.00
669.4160, 41670.00
670.5720, 41773.18
671.7270, 41753.00
672.8830, 41930.00
674.0380, 41874.00
675.1920, 41926.00
676.3470, 41902.00
677.5020, 42036.00
678.6560, 41882.00
679.8100, 41933.00
680.9640, 42176.00
682.1180, 42233.00
683.2720, 42094.00
684.4250, 42329.00
685.5780, 42125.00
686.7320, 42341.00
687.8850, 42722.00
689.0370, 42493.00
690.1900, 42502.00
691.3420, 42670.00
692.4950, 42423.00
693.6470, 42592.09
694.7990, 42927.00
695.9510, 42616.00
697.1020, 42933.00
698.2540, 42723.00
699.4050, 42966.00
700.5560, 42696.00
701.7070, 42705.00
702.8580, 42657.00
704.0090, 42835.00
705.1590, 43028.00
706.3100, 43207.00
707.4600, 42796.00
708.6100, 42581.00
709.7590, 42978.00
710.9090, 42953.00
712.0590, 43001.00
713.2080, 42749.00
714.3570, 43180.00
715.5060, 42980.00
716.6550, 42909.00
717.8030, 43068.00
718.9520, 42807.00
720.1000, 43196.00
721.2480, 42877.00
722.3960, 43068.00
723.5440, 42853.00
724.6920, 42927.00
725.8390, 42927.00
726.9870, 42775.00
728.1340, 43195.00
729.2810, 42845.00
730.4280, 43159.00
731.5740, 42882.00
732.7210, 43282.00
733.8670, 43024.00
735.0130, 43001.00
736.1590, 42994.00
737.3050, 43327.00
738.4510, 43465.00
739.5960, 43338.00
740.7410, 43251.00
741.8870, 43713.00
743.0320, 43721.00
744.1760, 43537.00
745.3210, 43539.00
746.4660, 43538.00
747.6100, 43713.00
748.7540, 43921.00
749.8980, 43825.00
751.0420, 43840.00
752.1860, 43870.00
753.3290, 43853.00
754.4720, 43589.00
755.6160, 43678.00
756.7590, 44061.00
757.9020, 43858.00
759.0440, 44294.00
760.1870, 44052.00
761.3290, 44155.00
762.4710, 44081.00
763.6130, 44021.00
764.7550, 44166.00
765.8970, 44076.00
767.0390, 44638.00
768.1800, 44119.00
769.3210, 44463.00
770.4620, 44306.00
771.6030, 44332.00
772.7440, 44369.00
773.8840, 44511.00
775.0250, 44785.00
776.1650, 44665.00
777.3050, 44564.00
778.4450, 44531.00
779.5850, 44784.00
780.7240, 44850.00
781.8640, 44971.00
783.0030, 44844.00
784.1420, 44726.00
785.2810, 45149.00
786.4200, 44872.00
787.5590, 45096.00
788.6970, 45165.00
789.8350, 45164.00
790.9730, 45113.00
792.1110, 45231.00
793.2490, 45205.00
794.3870, 45269.87
795.5240, 45454.00
796.6620, 45446.00
797.7990, 45459.00
798.9360, 45658.00
800.0730, 45608.00
801.2090, 45699.00
802.3460, 45860.00
803.4820, 46108.00
804.6180, 45904.00
805.7540, 46008.00
806.8900, 46325.00
808.0260, 46157.00
809.1620, 46079.00
810.2970, 46060.00
811.4320, 46308.00
812.5670, 46182.00
813.7020, 46496.00
814.8370, 46581.00
815.9710, 46469.00
817.1060, 46350.00
818.2400, 46465.00
819.3740, 46840.00
820.5080, 46545.00
821.6420, 46826.00
822.7760, 46790.00
823.9090, 46956.00
825.0420, 46683.00
826.1760, 46809.00
827.3090, 46902.00
828.4410, 47119.00
829.5740, 47093.00
830.7060, 47055.00
831.8390, 46856.00
832.9710, 47050.00
834.1030, 46883.00
835.2350, 47224.00
836.3670, 47134.00
837.4980, 47068.00
838.6300, 47108.00
839.7610, 47178.00
840.8920, 47361.00
842.0230, 47446.00
843.1530, 47534.00
844.2840, 47473.00
845.4140, 47467.00
846.5450, 47604.00
847.6750, 47658.00
848.8050, 47700.00
849.9350, 47815.62
851.0640, 47856.00
852.1940, 47971.00
853.3230, 48048.00
854.4520, 48066.00
855.5810, 48143.80
856.7100, 48245.00
857.8390, 48269.00
858.9670, 48422.00
860.0960, 48576.00
861.2240, 48745.00
862.3520, 48382.00
863.4800, 48647.00
864.6080, 48763.00
865.7350, 48577.00
866.8630, 49127.00
867.9900, 48928.00
869.1170, 49142.00
870.2440, 48826.00
871.3710, 48870.93
872.4970, 49271.00
873.6240, 48892.00
874.7500, 48855.00
875.8760, 49060.00
877.0020, 49232.00
878.1280, 49012.00
879.2540, 49099.00
880.3790, 49005.00
881.5050, 48815.00
882.6300, 49389.00
883.7550, 49186.00
884.8800, 49217.00
886.0050, 49220.00
887.1290, 49393.00
888.2540, 49112.00
889.3780, 49342.00
890.5020, 49326.00
891.6260, 49430.00
892.7500, 49619.00
893.8730, 49644.00
894.9970, 49729.00
896.1200, 49859.00
897.2440, 49811.00
898.3670, 50116.00
899.4890, 50025.00
900.6120, 49981.00
901.7350, 49982.00
902.8570, 50137.00
903.9790, 50252.00
905.1010, 50154.00
906.2230, 50372.00
907.3450, 50084.00
908.4670, 50363.00
909.5880, 50242.00
910.7100, 50141.00
911.8310, 50249.00
912.9520, 50697.00
914.0730, 50368.00
915.1930, 50502.00
916.3140, 50400.00
917.4340, 50364.00
918.5550, 50648.00
919.6750, 50589.00
920.7950, 50407.00
921.9140, 50537.00
923.0340, 50469.00
924.1530, 50759.00
925.2730, 50464.00
926.3920, 50820.00
927.5110, 50727.00
928.6300, 50898.00
929.7480, 51230.00
930.8670, 50668.00
931.9850, 51215.00
933.1040, 51060.00
934.2220, 51455.00
935.3400, 50868.00
936.4570, 50981.00
937.5750, 51058.00
938.6920, 51076.00
939.8100, 51430.00
940.9270, 51360.00
942.0440, 51669.00
943.1610, 51305.00
944.2770, 51300.00
945.3940, 51344.00
946.5100, 51577.00
947.6270, 51726.00
948.7430, 51235.00
949.8590, 51686.00
950.9740, 51363.00
952.0900, 51814.00
953.2050, 51665.00
954.3210, 51577.00
955.4360, 51974.00
956.5510, 51841.00
957.6660, 51897.00
958.7800, 51952.00
959.8950, 52110.00
961.0090, 52077.00
962.1240, 52200.21
963.2380, 52204.00
964.3520, 52250.00
965.4650, 52318.00
966.5790, 52095.00
967.6930, 52522.00
968.8060, 52169.00
969.9190, 52264.00
971.0320, 52618.00
972.1450, 52246.00
973.2580, 52601.00
974.3700, 52172.00
975.4830, 52543.00
976.5950, 52425.00
977.7070, 52553.00
978.8190, 53019.00
979.9310, 52314.00
981.0430, 52808.00
982.1540, 52635.00
983.2650, 52624.00
984.3770, 52896.00
985.4880, 53430.00
986.5990, 53171.74
987.7090, 53967.00
988.8200, 52953.00
989.9300, 53229.00
991.0410, 53260.00
992.1510, 53276.00
993.2610, 53307.00
994.3710, 53378.00
995.4810, 53624.00
996.5900, 53702.00
997.6990, 53737.00
998.8090, 53491.00
999.9180, 53861.00
1001.027, 53727.00
1002.136, 54146.00
1003.244, 54210.00
1004.353, 54019.00
1005.461, 53777.00
1006.569, 54074.00
1007.677, 53961.00
1008.785, 53926.00
1009.893, 53828.00
1011.001, 53882.51
1012.108, 54194.00
1013.215, 54009.00
1014.323, 54261.00
1015.430, 54317.00
1016.536, 54462.00
1017.643, 54336.00
1018.750, 54183.00
1019.856, 54374.00
1020.962, 54740.00
1022.068, 54490.00
1023.174, 54519.00
1024.280, 54728.00
1025.386, 54468.00
1026.491, 54735.00
1027.597, 54899.00
1028.702, 55139.00
1029.807, 54948.00
1030.912, 54951.00
1032.017, 54842.00
1033.121, 54898.00
1034.226, 55850.00
1035.330, 55251.00
1036.434, 55807.00
1037.538, 55326.00
1038.642, 55800.00
1039.746, 55724.00
1040.850, 55733.00
1041.953, 56018.00
1043.056, 55766.00
1044.159, 56706.00
1045.262, 56762.00
1046.365, 56514.00
1047.468, 56324.00
1048.571, 56917.00
1049.673, 57217.00
1050.775, 57291.00
1051.877, 57647.00
1052.979, 57600.00
1054.081, 57555.00
1055.183, 57780.00
1056.284, 57684.00
1057.386, 58230.00
1058.487, 58590.84
1059.588, 59399.00
1060.689, 60360.00
1061.790, 61790.00
1062.890, 64185.00
1063.991, 68268.00
1065.091, 74935.00
1066.191, 85549.00
1067.291, 101169.0
1068.391, 123807.0
1069.491, 153219.0
1070.591, 185247.0
1071.690, 198336.0
1072.790, 176125.0
1073.889, 136559.0
1074.988, 102863.0
1076.087, 83877.00
1077.185, 73353.00
1078.284, 67715.00
1079.382, 64236.00
1080.481, 62139.00
1081.579, 61302.00
1082.677, 60026.00
1083.775, 59726.00
1084.872, 59190.00
1085.970, 59138.00
1087.067, 58895.00
1088.165, 58528.00
1089.262, 58483.00
1090.359, 58138.00
1091.456, 58847.00
1092.552, 58410.00
1093.649, 58534.00
1094.745, 58533.00
1095.842, 58028.00
1096.938, 57895.00
1098.034, 58370.00
1099.130, 58440.00
1100.225, 58232.00
1101.321, 57988.00
1102.416, 58629.00
1103.511, 57998.00
1104.607, 58712.00
1105.702, 58519.00
1106.796, 58928.00
1107.891, 58374.00
1108.986, 58630.00
1110.080, 58712.00
1111.174, 58616.00
1112.268, 58792.00
1113.362, 59029.00
1114.456, 58805.00
1115.550, 58996.00
1116.643, 58929.00
1117.737, 58865.00
1118.830, 59242.00
1119.923, 59183.00
1121.016, 59421.00
1122.109, 59504.00
1123.201, 59273.00
1124.294, 59524.65
1125.386, 59499.00
1126.478, 59675.00
1127.571, 59653.00
1128.663, 59589.00
1129.754, 59385.00
1130.846, 59387.00
1131.937, 59216.00
1133.029, 59904.00
1134.120, 60054.00
1135.211, 59892.00
1136.302, 59947.00
1137.393, 59925.19
1138.484, 60055.00
1139.574, 59973.00
1140.664, 59885.00
1141.755, 60125.00
1142.845, 59905.00
1143.935, 60001.81
1145.025, 60073.00
1146.114, 60021.00
1147.204, 60094.00
1148.293, 60073.00
1149.382, 60138.52
1150.471, 60609.00
1151.560, 60294.00
1152.649, 60371.00
1153.738, 60476.00
1154.826, 61000.00
1155.915, 60724.00
1157.003, 60429.00
1158.091, 61023.00
1159.179, 60832.00
1160.267, 61013.00
1161.355, 61019.00
1162.442, 61092.00
1163.529, 60774.00
1164.617, 60980.00
1165.704, 60920.20
1166.791, 60832.00
1167.878, 61073.00
1168.964, 61152.00
1170.051, 61403.00
1171.137, 61327.00
1172.224, 61541.00
1173.310, 61640.00
1174.396, 61628.53
1175.481, 61701.00
1176.567, 61821.00
1177.653, 61600.00
1178.738, 62028.00
1179.823, 61860.00
1180.909, 61698.00
1181.994, 61644.00
1183.078, 61953.00
1184.163, 61817.00
1185.248, 62094.00
1186.332, 61939.00
1187.416, 61828.00
1188.501, 62117.00
1189.585, 62074.00
1190.669, 61917.00
1191.752, 62191.00
1192.836, 62086.00
1193.919, 62448.00
1195.003, 62144.00
1196.086, 62343.00
1197.169, 62278.00
1198.252, 62615.00
1199.334, 62698.00
1200.417, 62769.00
1201.500, 62840.00
1202.582, 62816.38
1203.664, 62742.00
1204.746, 62842.00
1205.828, 62836.00
1206.910, 63076.00
1207.992, 63096.00
1209.073, 63327.00
1210.154, 63024.00
1211.236, 63277.00
1212.317, 63254.00
1213.398, 63289.00
1214.479, 63299.00
1215.559, 63370.00
1216.640, 63387.00
1217.720, 63741.00
1218.800, 63529.00
1219.881, 63735.00
1220.961, 63987.00
1222.040, 63360.00
1223.120, 63832.00
1224.200, 63657.00
1225.279, 63826.00
1226.358, 63714.00
1227.438, 63542.00
1228.517, 63663.00
1229.595, 63571.00
1230.674, 64088.00
1231.753, 63590.00
1232.831, 63713.00
1233.910, 63948.00
1234.988, 63666.00
1236.066, 63997.00
1237.144, 64052.00
1238.222, 64434.00
1239.299, 64020.00
1240.377, 64048.00
1241.454, 64317.00
1242.531, 63921.00
1243.608, 64622.00
1244.685, 64377.00
1245.762, 64984.00
