##NAMES=Gaylussite
##RRUFFID=R040146
##IDEAL CHEMISTRY=Na_2_Ca(CO_3_)_2_&#183;5H_2_O
##LOCALITY=Searles Lake, Trona, San Bernardino County, California, USA
##OWNER=RRUFF
##SOURCE=University of Arizona Mineral Museum
##DESCRIPTION=Colorless crystal fragments
##STATUS=The identification of this mineral has been confirmed by X-ray diffraction and chemical analysis
##URL=rruff.info/R040146
##MEASURED CHEMISTRY=Na_2.00_Ca_1.00_(C_1.00_O_3_)_2_Â·5H_2_O
##PIN_ID=L00121
##ORIENTATION=Laser parallel to c* (0 0 1). Fiducial mark perpendicular to laser is parallel to a [1 0 0]
63.96800, 432.0000
65.21800, 496.0000
66.46800, 479.0000
67.71800, 556.0000
68.96700, 577.0000
70.21700, 620.0000
71.46600, 523.0000
72.71500, 644.0000
73.96300, 634.0000
75.21200, 659.0000
76.46000, 819.0000
77.70800, 1053.000
78.95600, 1191.000
80.20300, 1278.000
81.45100, 1361.000
82.69800, 1606.000
83.94500, 1996.000
85.19100, 2419.000
86.43800, 3233.000
87.68400, 4390.000
88.93100, 5847.000
90.17600, 7651.000
91.42200, 9746.000
92.66800, 12109.00
93.91300, 14683.00
95.15800, 17956.00
96.40300, 22532.00
97.64800, 28445.00
98.89200, 35659.00
100.1370, 42125.00
101.3810, 47259.00
102.6250, 49286.00
103.8680, 47852.00
105.1120, 44634.00
106.3550, 40624.00
107.5980, 37362.00
108.8410, 34913.00
110.0840, 34215.00
111.3260, 34215.00
112.5680, 34717.00
113.8100, 35048.00
115.0520, 35970.64
116.2940, 37209.00
117.5350, 38342.00
118.7770, 39677.00
120.0180, 41337.00
121.2590, 42717.00
122.4990, 43862.00
123.7400, 44098.00
124.9800, 43389.00
126.2200, 41567.00
127.4600, 39845.00
128.6990, 37658.00
129.9390, 35875.00
131.1780, 34493.00
132.4170, 33151.00
133.6560, 31646.00
134.8940, 30907.00
136.1330, 29278.00
137.3710, 28112.00
138.6090, 27340.00
139.8470, 26855.00
141.0840, 26784.00
142.3220, 27055.00
143.5590, 27456.00
144.7960, 28128.00
146.0320, 28862.00
147.2690, 29529.00
148.5050, 29893.00
149.7420, 30456.00
150.9780, 30706.00
152.2130, 30686.00
153.4490, 30298.00
154.6840, 30771.00
155.9190, 31180.00
157.1540, 31439.00
158.3890, 32050.00
159.6240, 32888.00
160.8580, 33900.00
162.0920, 34399.00
163.3260, 35225.00
164.5600, 35417.00
165.7930, 34963.00
167.0270, 34064.00
168.2600, 32493.00
169.4930, 31070.00
170.7260, 29312.00
171.9580, 27797.00
173.1900, 26828.00
174.4230, 25827.00
175.6550, 25096.00
176.8860, 24469.00
178.1180, 23895.00
179.3490, 23653.00
180.5800, 23148.00
181.8110, 22975.00
183.0420, 22672.00
184.2730, 22712.00
185.5030, 22369.00
186.7330, 22253.00
187.9630, 22309.00
189.1930, 22312.00
190.4220, 22433.00
191.6520, 22397.00
192.8810, 22679.00
194.1100, 22746.00
195.3390, 23075.00
196.5670, 23146.00
197.7960, 23580.00
199.0240, 23904.00
200.2520, 24225.00
201.4790, 24671.00
202.7070, 25270.00
203.9340, 25756.00
205.1620, 26476.00
206.3890, 26503.00
207.6150, 26849.00
208.8420, 26732.00
210.0680, 26325.00
211.2940, 26116.00
212.5200, 25964.00
213.7460, 25438.00
214.9720, 25327.00
216.1970, 25416.00
217.4220, 25429.00
218.6470, 25868.00
219.8720, 25930.00
221.0970, 26567.00
222.3210, 26848.00
223.5450, 27133.00
224.7690, 27346.00
225.9930, 27707.00
227.2170, 27587.00
228.4400, 27445.00
229.6630, 27646.00
230.8860, 27887.00
232.1090, 27927.00
233.3320, 27673.00
234.5540, 27660.92
235.7770, 27816.00
236.9990, 27207.00
238.2210, 27145.00
239.4420, 26790.00
240.6640, 26193.00
241.8850, 25997.00
243.1060, 26058.53
244.3270, 26355.00
245.5480, 26626.00
246.7680, 26965.00
247.9880, 27564.00
249.2080, 28304.00
250.4280, 29606.00
251.6480, 30248.00
252.8670, 31776.00
254.0870, 32787.00
255.3060, 33819.00
256.5250, 34796.00
257.7440, 35557.00
258.9620, 35838.00
260.1800, 36373.00
261.3990, 36074.00
262.6160, 35882.00
263.8340, 35893.00
265.0520, 35195.00
266.2690, 34115.00
267.4860, 33166.00
268.7030, 31914.00
269.9200, 30484.00
271.1370, 29665.00
272.3530, 28681.00
273.5690, 27546.00
274.7850, 26876.00
276.0010, 26536.00
277.2170, 25872.00
278.4320, 25412.00
279.6470, 25230.00
280.8620, 24909.00
282.0770, 24652.00
283.2920, 24566.00
284.5060, 24473.00
285.7210, 24102.00
286.9350, 23934.00
288.1490, 23734.00
289.3620, 23331.00
290.5760, 23289.00
291.7890, 23194.00
293.0020, 23099.00
294.2150, 23074.00
295.4280, 22904.00
296.6400, 23029.00
297.8530, 23020.00
299.0650, 22933.00
300.2770, 23066.00
301.4890, 22909.00
302.7000, 22894.00
303.9120, 22876.00
305.1230, 22732.00
306.3340, 22688.00
307.5450, 22686.00
308.7550, 22700.00
309.9660, 22411.00
311.1760, 22388.00
312.3860, 22403.00
313.5960, 22473.00
314.8050, 22400.00
316.0150, 22375.00
317.2240, 22389.00
318.4330, 22293.00
319.6420, 22364.00
320.8510, 22477.00
322.0590, 22450.00
323.2680, 22354.00
324.4760, 22629.00
325.6840, 22619.00
326.8910, 22776.00
328.0990, 22565.00
329.3060, 22740.00
330.5140, 22859.00
331.7210, 23143.00
332.9270, 23153.00
334.1340, 23028.00
335.3400, 23054.00
336.5470, 23321.00
337.7530, 23457.00
338.9590, 23619.00
340.1640, 23607.00
341.3700, 23693.00
342.5750, 23679.97
343.7800, 23615.00
344.9850, 23599.00
346.1900, 23475.00
347.3940, 23403.00
348.5990, 23152.00
349.8030, 23254.00
351.0070, 23325.00
352.2100, 23111.00
353.4140, 23123.00
354.6170, 22996.00
355.8210, 23114.00
357.0240, 22961.00
358.2260, 22982.00
359.4290, 22937.00
360.6320, 23176.00
361.8340, 22870.00
363.0360, 23012.00
364.2380, 23066.00
365.4400, 22998.00
366.6410, 23006.00
367.8420, 23003.00
369.0440, 23012.00
370.2440, 23065.26
371.4450, 22987.00
372.6460, 23225.00
373.8460, 23132.00
375.0460, 23279.00
376.2460, 23062.00
377.4460, 23208.00
378.6460, 23348.00
379.8450, 23166.00
381.0450, 23484.00
382.2440, 23530.00
383.4430, 23389.00
384.6410, 23456.00
385.8400, 23392.00
387.0380, 23514.00
388.2360, 23507.00
389.4340, 23573.00
390.6320, 23422.00
391.8300, 23234.00
393.0270, 23409.00
394.2240, 23611.00
395.4210, 23643.00
396.6180, 23541.00
397.8150, 23829.00
399.0110, 23740.00
400.2080, 24022.00
401.4040, 23722.00
402.6000, 23979.00
403.7950, 23883.00
404.9910, 23616.00
406.1860, 24022.00
407.3810, 24088.00
408.5760, 24024.00
409.7710, 24019.00
410.9660, 24085.00
412.1600, 24185.00
413.3540, 24188.00
414.5490, 24263.20
415.7420, 24131.00
416.9360, 24302.00
418.1300, 24349.00
419.3230, 24248.00
420.5160, 24461.00
421.7090, 24240.00
422.9020, 24369.00
424.0940, 24450.00
425.2870, 24436.00
426.4790, 24623.00
427.6710, 24427.00
428.8630, 24566.00
430.0550, 24346.00
431.2460, 24665.00
432.4370, 24890.00
433.6290, 24732.00
434.8190, 24890.00
436.0100, 24881.00
437.2010, 25124.00
438.3910, 24897.00
439.5810, 24752.00
440.7710, 24910.00
441.9610, 24957.00
443.1510, 25080.00
444.3400, 25238.00
445.5300, 24963.00
446.7190, 24964.00
447.9080, 25174.00
449.0960, 25049.00
450.2850, 25377.00
451.4730, 25198.00
452.6620, 25406.00
453.8500, 25597.00
455.0370, 25290.00
456.2250, 25603.00
457.4120, 25714.00
458.6000, 25488.00
459.7870, 25675.00
460.9740, 25990.00
462.1610, 25672.00
463.3470, 25784.00
464.5330, 26158.00
465.7200, 25861.00
466.9060, 26015.00
468.0910, 26157.00
469.2770, 26049.00
470.4630, 26262.00
471.6480, 26589.00
472.8330, 26205.00
474.0180, 26570.00
475.2030, 26301.00
476.3870, 26626.00
477.5720, 26575.00
478.7560, 26623.00
479.9400, 26617.00
481.1240, 26642.00
482.3070, 27036.00
483.4910, 26813.00
484.6740, 26845.00
485.8570, 27146.00
487.0400, 27571.00
488.2230, 27403.00
489.4050, 27442.00
490.5880, 27503.00
491.7700, 27580.00
492.9520, 27648.00
494.1340, 27812.00
495.3160, 28064.00
496.4970, 27738.00
497.6780, 27995.00
498.8600, 28235.00
500.0400, 28301.00
501.2210, 28626.00
502.4020, 28505.00
503.5820, 28740.00
504.7630, 28970.00
505.9430, 28969.00
507.1220, 29373.00
508.3020, 29199.00
509.4820, 29624.00
510.6610, 30008.00
511.8400, 29893.00
513.0190, 30258.00
514.1980, 30708.00
515.3770, 30727.00
516.5550, 30878.00
517.7330, 30989.00
518.9110, 31189.00
520.0890, 31477.00
521.2670, 31506.00
522.4450, 31640.00
523.6220, 31494.00
524.7990, 31220.00
525.9760, 31462.00
527.1530, 30873.00
528.3300, 31023.00
529.5060, 30609.00
530.6830, 30449.00
531.8590, 30091.00
533.0350, 29853.00
534.2100, 29909.00
535.3860, 29497.00
536.5610, 29745.00
537.7370, 29063.00
538.9120, 29035.00
540.0870, 29050.00
541.2610, 28908.00
542.4360, 29030.00
543.6100, 28979.00
544.7850, 28937.00
545.9590, 29045.00
547.1320, 28970.00
548.3060, 28861.00
549.4800, 29073.00
550.6530, 28828.00
551.8260, 28976.00
552.9990, 29113.27
554.1720, 29044.09
555.3440, 29410.00
556.5170, 29160.00
557.6890, 29142.00
558.8610, 29314.00
560.0330, 29431.00
561.2050, 29226.00
562.3760, 29421.00
563.5480, 29521.00
564.7190, 29704.00
565.8900, 29827.00
567.0610, 29845.00
568.2310, 30068.00
569.4020, 29837.00
570.5720, 30052.00
571.7420, 29835.00
572.9120, 30078.00
574.0820, 30019.00
575.2520, 30067.00
576.4210, 30137.00
577.5900, 30023.00
578.7590, 30103.00
579.9280, 30214.00
581.0970, 30074.00
582.2660, 29815.00
583.4340, 29979.00
584.6020, 29955.00
585.7700, 30102.00
586.9380, 29931.00
588.1060, 29995.00
589.2730, 29947.00
590.4410, 29838.00
591.6080, 29881.00
592.7750, 29838.12
593.9420, 29793.00
595.1080, 29838.00
596.2750, 29915.00
597.4410, 29915.00
598.6070, 30078.00
599.7730, 29887.00
600.9390, 29977.41
602.1050, 30146.00
603.2700, 29946.00
604.4350, 30040.00
605.6010, 29945.00
606.7660, 29729.00
607.9300, 29876.32
609.0950, 30177.00
610.2590, 30039.00
611.4230, 30229.00
612.5880, 30368.00
613.7510, 30294.00
614.9150, 30287.00
616.0790, 30127.00
617.2420, 30316.00
618.4050, 30153.00
619.5680, 30248.00
620.7310, 30301.00
621.8940, 30201.00
623.0560, 30298.00
624.2190, 30232.00
625.3810, 30454.00
626.5430, 30545.00
627.7050, 30647.00
628.8660, 30743.00
630.0280, 30801.57
631.1890, 30871.09
632.3500, 30889.46
633.5110, 30890.00
634.6720, 30884.00
635.8330, 30910.00
636.9930, 31015.00
638.1530, 31179.00
639.3130, 31110.00
640.4730, 31168.00
641.6330, 31376.00
642.7930, 31483.00
643.9520, 31657.00
645.1110, 31662.00
646.2710, 31618.00
647.4290, 31816.00
648.5880, 31894.00
649.7470, 32003.00
650.9050, 32164.74
652.0630, 32147.00
653.2210, 32407.00
654.3790, 32587.00
655.5370, 32614.00
656.6950, 32704.00
657.8520, 32758.00
659.0090, 32998.00
660.1660, 33177.00
661.3230, 33335.00
662.4800, 33450.00
663.6360, 33519.70
664.7930, 33531.55
665.9490, 33512.00
667.1050, 33499.00
668.2610, 33322.00
669.4160, 33362.00
670.5720, 33190.00
671.7270, 33126.00
672.8830, 33116.00
674.0380, 32851.00
675.1920, 33083.00
676.3470, 32956.00
677.5020, 32879.00
678.6560, 32978.00
679.8100, 32867.00
680.9640, 33045.00
682.1180, 33264.00
683.2720, 32939.00
684.4250, 33500.00
685.5780, 33350.00
686.7320, 33493.00
687.8850, 33470.00
689.0370, 33685.00
690.1900, 33569.00
691.3420, 33731.00
692.4950, 33735.00
693.6470, 33697.00
694.7990, 33929.00
695.9510, 33538.00
697.1020, 33786.00
698.2540, 34002.00
699.4050, 33755.00
700.5560, 33902.00
701.7070, 33925.00
702.8580, 33787.00
704.0090, 33993.00
705.1590, 34060.00
706.3100, 33786.00
707.4600, 33670.00
708.6100, 33913.00
709.7590, 34097.00
710.9090, 34011.00
712.0590, 34279.00
713.2080, 34197.00
714.3570, 34294.00
715.5060, 34335.00
716.6550, 34556.00
717.8030, 35118.00
718.9520, 35126.00
720.1000, 35259.00
721.2480, 35274.00
722.3960, 35235.00
723.5440, 34765.00
724.6920, 34528.00
725.8390, 34272.00
726.9870, 33831.00
728.1340, 33848.00
729.2810, 33874.00
730.4280, 33926.00
731.5740, 33532.00
732.7210, 33590.00
733.8670, 33511.00
735.0130, 33702.00
736.1590, 33715.89
737.3050, 33642.00
738.4510, 33808.00
739.5960, 33840.00
740.7410, 33737.00
741.8870, 33542.00
743.0320, 34148.00
744.1760, 33888.00
745.3210, 33840.00
746.4660, 34139.00
747.6100, 33944.00
748.7540, 33860.00
749.8980, 34085.00
751.0420, 33812.00
752.1860, 33930.00
753.3290, 34093.00
754.4720, 33912.00
755.6160, 34267.00
756.7590, 34426.00
757.9020, 34172.00
759.0440, 34223.00
760.1870, 34485.00
761.3290, 34481.00
762.4710, 34575.90
763.6130, 34471.00
764.7550, 34704.00
765.8970, 34563.00
767.0390, 34690.00
768.1800, 34311.00
769.3210, 34523.00
770.4620, 34650.00
771.6030, 34442.00
772.7440, 34638.00
773.8840, 34823.00
775.0250, 34956.00
776.1650, 34573.00
777.3050, 34735.00
778.4450, 34862.00
779.5850, 35058.00
780.7240, 35072.00
781.8640, 35068.00
783.0030, 35025.00
784.1420, 35000.00
785.2810, 34946.00
786.4200, 35005.38
787.5590, 35258.00
788.6970, 35181.00
789.8350, 35270.00
790.9730, 35456.00
792.1110, 35456.00
793.2490, 35346.00
794.3870, 35443.00
795.5240, 35555.00
796.6620, 35786.00
797.7990, 35659.00
798.9360, 35784.00
800.0730, 35544.00
801.2090, 35835.00
802.3460, 35501.00
803.4820, 35776.00
804.6180, 35997.00
805.7540, 35863.00
806.8900, 36016.00
808.0260, 35827.00
809.1620, 36107.00
810.2970, 35968.00
811.4320, 36334.00
812.5670, 36320.00
813.7020, 36321.00
814.8370, 36163.00
815.9710, 36368.00
817.1060, 36392.00
818.2400, 36409.00
819.3740, 36675.00
820.5080, 36495.00
821.6420, 36481.00
822.7760, 36368.00
823.9090, 36465.00
825.0420, 36407.18
826.1760, 36548.75
827.3090, 36536.00
828.4410, 36786.00
829.5740, 36836.09
830.7060, 37135.00
831.8390, 36955.00
832.9710, 37055.00
834.1030, 36924.00
835.2350, 37071.00
836.3670, 36940.00
837.4980, 37254.00
838.6300, 37182.00
839.7610, 37323.00
840.8920, 37192.00
842.0230, 37394.00
843.1530, 37509.00
844.2840, 37250.00
845.4140, 37132.00
846.5450, 37139.00
847.6750, 37682.00
848.8050, 37406.00
849.9350, 37601.00
851.0640, 37693.00
852.1940, 37711.00
853.3230, 37981.00
854.4520, 37731.00
855.5810, 37894.02
856.7100, 37939.00
857.8390, 37878.00
858.9670, 38002.66
860.0960, 38089.00
861.2240, 38146.00
862.3520, 38262.00
863.4800, 38272.71
864.6080, 38640.00
865.7350, 38312.00
866.8630, 38278.00
867.9900, 38305.00
869.1170, 38763.00
870.2440, 38283.00
871.3710, 38738.00
872.4970, 38595.00
873.6240, 38877.00
874.7500, 38742.00
875.8760, 38940.00
877.0020, 39221.00
878.1280, 38706.00
879.2540, 39081.00
880.3790, 39240.00
881.5050, 39401.00
882.6300, 39405.00
883.7550, 39304.00
884.8800, 39570.00
886.0050, 39306.00
887.1290, 39623.00
888.2540, 39477.00
889.3780, 39632.00
890.5020, 39736.00
891.6260, 39760.00
892.7500, 39894.29
893.8730, 40047.00
894.9970, 40041.00
896.1200, 40305.00
897.2440, 40315.00
898.3670, 40570.00
899.4890, 40309.00
900.6120, 40617.00
901.7350, 41068.00
902.8570, 40924.00
903.9790, 40485.00
905.1010, 40162.00
906.2230, 40493.00
907.3450, 40485.00
908.4670, 40966.00
909.5880, 40485.00
910.7100, 40298.00
911.8310, 40426.00
912.9520, 40607.00
914.0730, 40467.00
915.1930, 40525.00
916.3140, 40601.00
917.4340, 40550.09
918.5550, 40476.00
919.6750, 40508.00
920.7950, 40520.00
921.9140, 40375.00
923.0340, 40679.00
924.1530, 40633.00
925.2730, 40797.00
926.3920, 40551.00
927.5110, 40659.00
928.6300, 40763.00
929.7480, 40895.00
930.8670, 40856.00
931.9850, 40949.00
933.1040, 40739.00
934.2220, 41026.00
935.3400, 40702.00
936.4570, 40924.00
937.5750, 40684.00
938.6920, 40868.00
939.8100, 40969.00
940.9270, 41180.00
942.0440, 41233.88
943.1610, 41151.00
944.2770, 41315.00
945.3940, 41244.00
946.5100, 41186.00
947.6270, 41308.29
948.7430, 41035.00
949.8590, 41378.00
950.9740, 41221.00
952.0900, 41072.00
953.2050, 41354.00
954.3210, 41153.00
955.4360, 41721.00
956.5510, 41625.00
957.6660, 41770.00
958.7800, 41655.00
959.8950, 41454.00
961.0090, 41922.00
962.1240, 41451.00
963.2380, 41934.00
964.3520, 42072.00
965.4650, 42143.00
966.5790, 41634.00
967.6930, 41615.00
968.8060, 41961.00
969.9190, 41990.00
971.0320, 42152.00
972.1450, 42118.00
973.2580, 42007.00
974.3700, 42149.00
975.4830, 42234.00
976.5950, 42243.00
977.7070, 42318.15
978.8190, 42318.00
979.9310, 42438.00
981.0430, 42325.00
982.1540, 42515.00
983.2650, 42319.00
984.3770, 42587.00
985.4880, 42322.00
986.5990, 42749.00
987.7090, 42821.00
988.8200, 42872.00
989.9300, 42769.00
991.0410, 42987.00
992.1510, 42925.00
993.2610, 42991.00
994.3710, 43030.00
995.4810, 42897.00
996.5900, 43236.00
997.6990, 43235.00
998.8090, 42896.00
999.9180, 43160.00
1001.027, 43287.00
1002.136, 43342.00
1003.244, 43540.00
1004.353, 43230.00
1005.461, 43374.00
1006.569, 43558.00
1007.677, 43553.00
1008.785, 43736.00
1009.893, 43724.15
1011.001, 43685.00
1012.108, 43646.00
1013.215, 43654.00
1014.323, 43475.00
1015.430, 43635.00
1016.536, 43654.85
1017.643, 43919.00
1018.750, 43832.00
1019.856, 44018.00
1020.962, 44029.26
1022.068, 44187.00
1023.174, 44235.00
1024.280, 44160.00
1025.386, 44180.00
1026.491, 44541.00
1027.597, 44532.00
1028.702, 44488.00
1029.807, 44582.00
1030.912, 45072.00
1032.017, 44747.00
1033.121, 44837.00
1034.226, 44581.00
1035.330, 44959.00
1036.434, 45112.00
1037.538, 45379.00
1038.642, 45190.00
1039.746, 45597.00
1040.850, 45221.00
1041.953, 45522.00
1043.056, 45566.00
1044.159, 45729.00
1045.262, 46084.00
1046.365, 45977.00
1047.468, 46316.00
1048.571, 46699.00
1049.673, 47527.00
1050.775, 47329.00
1051.877, 47602.00
1052.979, 47463.00
1054.081, 47454.00
1055.183, 47829.00
1056.284, 48087.00
1057.386, 48783.00
1058.487, 49632.00
1059.588, 50459.00
1060.689, 51559.00
1061.790, 53879.00
1062.890, 57361.00
1063.991, 63655.00
1065.091, 74385.00
1066.191, 90943.00
1067.291, 115431.0
1068.391, 149198.0
1069.491, 188143.0
1070.591, 223406.0
1071.690, 226639.0
1072.790, 195541.0
1073.889, 147350.0
1074.988, 104752.0
1076.087, 80574.00
1077.185, 67326.00
1078.284, 60144.00
1079.382, 55301.00
1080.481, 52926.00
1081.579, 50831.00
1082.677, 50031.00
1083.775, 49480.00
1084.872, 48700.00
1085.970, 48780.00
1087.067, 48450.00
1088.165, 48126.00
1089.262, 47883.00
1090.359, 48148.00
1091.456, 48360.00
1092.552, 47618.00
1093.649, 47977.00
1094.745, 47896.00
1095.842, 47367.00
1096.938, 47532.00
1098.034, 47944.00
1099.130, 47546.00
1100.225, 47626.00
1101.321, 47504.00
1102.416, 48034.00
1103.511, 47512.00
1104.607, 47844.00
1105.702, 47670.00
1106.796, 47745.00
1107.891, 47759.00
1108.986, 47817.00
1110.080, 48000.70
1111.174, 47810.00
1112.268, 48251.00
1113.362, 48397.00
1114.456, 48192.00
1115.550, 48159.00
1116.643, 48057.00
1117.737, 48059.00
1118.830, 48288.00
1119.923, 48364.00
1121.016, 48434.00
1122.109, 48438.00
1123.201, 48527.00
1124.294, 48482.00
1125.386, 48491.00
1126.478, 48661.00
1127.571, 48505.00
1128.663, 48604.00
1129.754, 48415.00
1130.846, 48844.00
1131.937, 48908.00
1133.029, 48728.00
1134.120, 48978.00
1135.211, 48712.00
1136.302, 48963.00
1137.393, 48979.00
1138.484, 49156.00
1139.574, 48935.00
1140.664, 49069.00
1141.755, 49304.00
1142.845, 48807.00
1143.935, 49555.00
1145.025, 49194.00
1146.114, 49416.00
1147.204, 49267.00
1148.293, 49511.00
1149.382, 49690.00
1150.471, 49592.00
1151.560, 49580.00
1152.649, 49724.00
1153.738, 49762.00
1154.826, 49794.00
1155.915, 49788.00
1157.003, 50161.00
1158.091, 50248.00
1159.179, 50121.00
1160.267, 49995.00
1161.355, 50137.00
1162.442, 50388.00
1163.529, 50175.00
1164.617, 50262.00
1165.704, 50457.00
1166.791, 50193.00
1167.878, 50516.00
1168.964, 50305.00
1170.051, 50563.00
1171.137, 50604.00
1172.224, 50585.00
1173.310, 50552.00
1174.396, 50166.00
1175.481, 50480.00
1176.567, 50979.00
1177.653, 50507.00
1178.738, 50881.00
1179.823, 50668.00
1180.909, 51097.00
1181.994, 50812.00
1183.078, 51072.00
1184.163, 50924.00
1185.248, 50884.00
1186.332, 51346.00
1187.416, 51023.00
1188.501, 51245.00
1189.585, 51310.00
1190.669, 51117.00
1191.752, 51406.00
1192.836, 51341.00
1193.919, 51445.00
1195.003, 51482.00
1196.086, 51576.00
1197.169, 51473.00
1198.252, 51560.00
1199.334, 51608.85
1200.417, 51783.00
1201.500, 51737.00
1202.582, 51715.00
1203.664, 51734.00
1204.746, 51808.90
1205.828, 52072.00
1206.910, 52079.00
1207.992, 52085.00
1209.073, 52317.00
1210.154, 52231.00
1211.236, 51987.00
1212.317, 52379.00
1213.398, 52158.00
1214.479, 52476.00
1215.559, 52299.00
1216.640, 52346.00
1217.720, 52399.00
1218.800, 52401.00
1219.881, 52889.00
1220.961, 52492.00
1222.040, 52820.00
1223.120, 52648.00
1224.200, 52764.00
1225.279, 52832.00
1226.358, 53037.00
1227.438, 53015.00
1228.517, 53045.23
1229.595, 52947.00
1230.674, 53039.00
1231.753, 53034.00
1232.831, 53149.00
1233.910, 53015.00
1234.988, 53047.00
1236.066, 53378.00
1237.144, 53289.00
1238.222, 53809.00
1239.299, 53354.00
1240.377, 53201.00
1241.454, 53721.00
1242.531, 53364.00
1243.608, 53701.00
1244.685, 53341.00
1245.762, 53571.00
