##NAMES=Gehlenite
##RRUFFID=R060841
##IDEAL CHEMISTRY=Ca_2_Al(SiAl)O_7_
##LOCALITY=Monzoni, Tyrol, Italy
##OWNER=RRUFF
##SOURCE=Michael Scott
##DESCRIPTION=Brown rectangular prism
##STATUS=The identification of this mineral has been confirmed by X-ray diffraction and chemical analysis
##URL=rruff.info/R060841
##MEASURED CHEMISTRY=(Ca_1.92_Na_0.07_K_0.01_)_Σ=2_(Al_0.62_Mg_0.25_Fe^2+^_0.13_)_Σ=1_(Si_1.46_Al_0.54_)O_7_ ; = lighter phase, and the darker phase is calcite
##PIN_ID=L01166
##ORIENTATION=Laser parallel to c* (0 0 1). Fiducial mark perpendicular to laser is parallel to b [0 1 0]
169.1790, 16750.00
170.4080, 16864.00
171.6380, 16921.57
172.8670, 16971.00
174.0950, 17011.00
175.3240, 17096.00
176.5520, 17123.00
177.7810, 17323.00
179.0090, 17233.00
180.2370, 17365.00
181.4640, 17595.00
182.6920, 17573.00
183.9190, 17553.00
185.1460, 17614.00
186.3730, 17777.00
187.6000, 18026.00
188.8270, 18089.00
190.0530, 18402.00
191.2800, 18634.00
192.5060, 18929.00
193.7320, 19058.00
194.9580, 19248.00
196.1830, 19529.00
197.4090, 19560.00
198.6340, 19539.00
199.8590, 19654.00
201.0840, 19762.00
202.3090, 19720.00
203.5340, 19483.00
204.7580, 19339.00
205.9820, 19209.00
207.2060, 19084.00
208.4300, 19028.61
209.6540, 18950.00
210.8780, 19056.00
212.1010, 19133.00
213.3240, 19384.00
214.5470, 19434.81
215.7700, 19620.00
216.9930, 19657.00
218.2150, 19865.00
219.4380, 20023.00
220.6600, 20195.00
221.8820, 20323.00
223.1040, 20488.00
224.3260, 20944.00
225.5470, 21231.00
226.7680, 21428.00
227.9900, 21748.00
229.2110, 21883.02
230.4310, 22028.16
231.6520, 22127.00
232.8720, 22160.00
234.0930, 22184.00
235.3130, 22116.96
236.5330, 22126.73
237.7530, 22004.00
238.9720, 22066.00
240.1920, 22019.00
241.4110, 21980.00
242.6300, 21788.00
243.8490, 21716.12
245.0680, 21565.00
246.2860, 21431.00
247.5040, 21519.00
248.7230, 21341.00
249.9410, 21189.00
251.1590, 21110.00
252.3760, 20846.11
253.5940, 20896.90
254.8110, 20896.96
256.0280, 20848.97
257.2450, 20609.01
258.4620, 20616.93
259.6790, 20525.52
260.8950, 20430.08
262.1120, 20472.90
263.3280, 20260.91
264.5440, 20301.58
265.7600, 20241.40
266.9750, 20039.00
268.1910, 19952.00
269.4060, 19938.00
270.6210, 20125.00
271.8360, 19960.00
273.0510, 19993.00
274.2650, 20019.00
275.4800, 19888.00
276.6940, 20265.00
277.9080, 20267.00
279.1220, 20511.00
280.3360, 20435.00
281.5490, 20555.00
282.7630, 20662.00
283.9760, 20432.00
285.1890, 20271.00
286.4020, 20150.00
287.6150, 19955.00
288.8270, 19736.00
290.0400, 19638.00
291.2520, 19395.00
292.4640, 19365.00
293.6760, 19354.00
294.8870, 19478.00
296.0990, 19436.69
297.3100, 19581.00
298.5210, 19481.00
299.7320, 19536.00
300.9430, 19609.00
302.1540, 19512.00
303.3640, 19556.00
304.5750, 19421.00
305.7850, 19467.69
306.9950, 19627.00
308.2050, 19531.00
309.4140, 19675.00
310.6240, 19733.00
311.8330, 19605.00
313.0420, 19674.00
314.2510, 19471.00
315.4600, 19373.00
316.6680, 19540.00
317.8770, 19496.00
319.0850, 19553.00
320.2930, 19573.19
321.5010, 19428.00
322.7090, 19542.00
323.9160, 19567.00
325.1240, 19507.00
326.3310, 19394.00
327.5380, 19576.00
328.7450, 19519.00
329.9520, 19426.00
331.1580, 19822.00
332.3650, 19633.00
333.5710, 19411.00
334.7770, 19613.00
335.9830, 19618.00
337.1880, 19812.00
338.3940, 19860.00
339.5990, 20063.00
340.8040, 19969.88
342.0090, 19700.00
343.2140, 19769.00
344.4190, 19792.00
345.6230, 19710.00
346.8280, 19684.00
348.0320, 19765.00
349.2360, 19829.00
350.4400, 19921.00
351.6430, 19936.00
352.8470, 19693.00
354.0500, 19875.00
355.2530, 19612.00
356.4560, 19612.00
357.6590, 19694.00
358.8620, 19480.00
360.0640, 19193.00
361.2660, 19152.00
362.4680, 19015.00
363.6700, 18938.00
364.8720, 18822.00
366.0740, 18929.00
367.2750, 18634.00
368.4760, 18406.00
369.6770, 18545.00
370.8780, 18307.00
372.0790, 18361.00
373.2800, 18259.00
374.4800, 18272.00
375.6800, 18036.00
376.8800, 18129.00
378.0800, 18020.00
379.2800, 18048.00
380.4790, 18035.00
381.6790, 18054.00
382.8780, 17945.00
384.0770, 17932.00
385.2760, 17936.00
386.4750, 17805.00
387.6730, 17855.00
388.8720, 17816.00
390.0700, 17851.00
391.2680, 17894.00
392.4660, 17804.00
393.6630, 17691.00
394.8610, 17837.00
396.0580, 17443.00
397.2550, 17538.00
398.4520, 17555.00
399.6490, 17582.00
400.8460, 17362.00
402.0420, 17487.00
403.2390, 17479.00
404.4350, 17649.00
405.6310, 17648.00
406.8270, 17682.00
408.0220, 17704.00
409.2180, 17608.00
410.4130, 17668.00
411.6080, 17675.00
412.8030, 17605.00
413.9980, 17661.00
415.1920, 17679.02
416.3870, 17774.00
417.5810, 17788.00
418.7750, 17824.00
419.9690, 17896.00
421.1630, 17833.00
422.3570, 17855.00
423.5500, 17880.00
424.7430, 17969.00
425.9360, 18041.00
427.1290, 18060.00
428.3220, 18206.00
429.5150, 18327.00
430.7070, 18253.00
431.8990, 18230.00
433.0910, 18400.00
434.2830, 18320.00
435.4750, 18267.00
436.6670, 18475.00
437.8580, 18410.00
439.0490, 18477.00
440.2400, 18498.00
441.4310, 18548.00
442.6220, 18587.09
443.8130, 18647.28
445.0030, 18684.00
446.1930, 18799.00
447.3830, 18904.00
448.5730, 19020.48
449.7630, 19023.00
450.9520, 19211.00
452.1420, 19112.00
453.3310, 19195.00
454.5200, 19339.00
455.7090, 19501.00
456.8980, 19638.00
458.0860, 19763.00
459.2740, 19921.54
460.4630, 19965.00
461.6510, 20163.00
462.8380, 20326.00
464.0260, 20329.00
465.2140, 20440.00
466.4010, 20512.00
467.5880, 20860.00
468.7750, 20690.00
469.9620, 20960.00
471.1490, 21273.00
472.3350, 21246.00
473.5220, 21571.00
474.7080, 21448.00
475.8940, 21524.00
477.0800, 21682.00
478.2650, 21864.00
479.4510, 21732.00
480.6360, 21849.00
481.8210, 21928.00
483.0060, 21910.00
484.1910, 21939.00
485.3760, 21761.00
486.5600, 21739.00
487.7440, 21760.00
488.9290, 21791.00
490.1130, 21666.00
491.2960, 21645.00
492.4800, 21640.00
493.6630, 21515.00
494.8470, 21641.00
496.0300, 21576.00
497.2130, 21500.00
498.3960, 21481.00
499.5780, 21623.00
500.7610, 21550.00
501.9430, 21741.00
503.1250, 21790.00
504.3070, 21863.00
505.4890, 21913.00
506.6710, 22089.00
507.8520, 22166.20
509.0330, 22131.00
510.2140, 22378.00
511.3950, 22507.00
512.5760, 22555.00
513.7570, 22741.00
514.9370, 22851.00
516.1170, 22995.00
517.2980, 23062.12
518.4780, 23150.66
519.6570, 23164.00
520.8370, 23291.00
522.0160, 23357.00
523.1960, 23452.00
524.3750, 23724.03
525.5540, 23542.47
526.7320, 24111.00
527.9110, 23363.00
529.0890, 23062.00
530.2680, 23180.00
531.4460, 23127.00
532.6240, 23001.00
533.8010, 22986.00
534.9790, 22996.00
536.1560, 22789.00
537.3340, 22887.00
538.5110, 22741.00
539.6880, 22699.00
540.8650, 22651.00
542.0410, 22770.00
543.2180, 22324.00
544.3940, 22708.00
545.5700, 22397.00
546.7460, 22359.00
547.9220, 22487.00
549.0970, 22308.00
550.2730, 22222.00
551.4480, 22334.00
552.6230, 21885.00
553.7980, 21907.00
554.9730, 21874.00
556.1470, 21903.00
557.3210, 22008.00
558.4960, 21879.00
559.6700, 22018.00
560.8440, 21927.00
562.0170, 21991.00
563.1910, 22066.99
564.3640, 22428.00
565.5380, 22156.00
566.7110, 22331.00
567.8840, 22241.00
569.0560, 22038.00
570.2290, 22127.00
571.4010, 22266.00
572.5740, 22033.00
573.7460, 22204.00
574.9180, 22331.00
576.0890, 22368.00
577.2610, 22469.52
578.4320, 22507.42
579.6040, 22576.00
580.7750, 22630.00
581.9450, 22696.00
583.1160, 22886.00
584.2870, 23125.00
585.4570, 23398.00
586.6270, 23613.00
587.7980, 23962.00
588.9670, 24404.00
590.1370, 24717.00
591.3070, 25003.00
592.4760, 25833.00
593.6450, 26461.00
594.8140, 26843.00
595.9830, 27868.00
597.1520, 28471.00
598.3210, 29637.00
599.4890, 30429.00
600.6570, 31923.00
601.8250, 33197.00
602.9930, 34432.00
604.1610, 35863.00
605.3290, 37838.00
606.4960, 39678.00
607.6630, 41319.00
608.8300, 43437.00
609.9970, 45335.00
611.1640, 47609.00
612.3300, 48803.76
613.4970, 50099.00
614.6630, 50857.00
615.8290, 51284.00
616.9950, 51627.00
618.1610, 50860.00
619.3260, 50161.00
620.4920, 49051.00
621.6570, 47786.00
622.8220, 46710.00
623.9870, 45044.00
625.1520, 43930.00
626.3160, 42756.00
627.4810, 41840.00
628.6450, 41026.00
629.8090, 39992.00
630.9730, 39352.00
632.1370, 38584.00
633.3000, 37783.00
634.4640, 37079.00
635.6270, 36401.00
636.7900, 35583.00
637.9530, 34896.00
639.1160, 34199.00
640.2780, 33253.00
641.4410, 32957.00
642.6030, 32515.00
643.7650, 32505.00
644.9270, 32663.00
646.0890, 33065.00
647.2500, 33848.00
648.4120, 34981.00
649.5730, 36112.00
650.7340, 37432.00
651.8950, 39724.00
653.0560, 41058.00
654.2160, 42869.00
655.3770, 44309.00
656.5370, 45128.00
657.6970, 45998.00
658.8570, 46333.00
660.0170, 46039.00
661.1760, 45123.00
662.3360, 44519.00
663.4950, 43206.00
664.6540, 41886.00
665.8130, 40154.00
666.9720, 38810.00
668.1310, 37492.00
669.2890, 36125.00
670.4470, 35265.00
671.6050, 34022.00
672.7630, 33008.62
673.9210, 32106.26
675.0790, 31057.00
676.2360, 30320.00
677.3930, 29494.00
678.5510, 28645.00
679.7080, 28079.00
680.8640, 27579.00
682.0210, 27093.00
683.1770, 26532.00
684.3340, 26162.00
685.4900, 25796.00
686.6460, 25569.00
687.8020, 25180.84
688.9570, 24893.38
690.1130, 24540.00
691.2680, 24336.00
692.4230, 24103.00
693.5780, 23958.00
694.7330, 23991.00
695.8880, 23777.04
697.0420, 23469.00
698.1960, 23463.00
699.3510, 23224.00
700.5040, 22931.00
701.6580, 22894.00
702.8120, 22645.00
703.9650, 22689.00
705.1190, 22729.00
706.2720, 22515.00
707.4250, 22383.00
708.5780, 22446.00
709.7300, 22310.00
710.8830, 22335.00
712.0350, 22281.00
713.1870, 22139.00
714.3390, 22173.00
715.4910, 21743.00
716.6430, 21694.00
717.7940, 21561.00
718.9460, 21590.00
720.0970, 21566.00
721.2480, 21538.00
722.3990, 21481.00
723.5500, 21666.00
724.7000, 21718.00
725.8500, 21852.00
727.0010, 22102.00
728.1510, 22001.00
729.3010, 22111.00
730.4500, 22022.00
731.6000, 22189.00
732.7490, 22054.00
733.8980, 21862.00
735.0470, 21802.00
736.1960, 21459.00
737.3450, 21402.00
738.4940, 21098.00
739.6420, 20992.00
740.7900, 20813.00
741.9380, 20543.00
743.0860, 20339.00
744.2340, 20216.42
745.3810, 20084.62
746.5290, 20018.73
747.6760, 19931.00
748.8230, 19881.00
749.9700, 19779.00
751.1170, 19792.00
752.2630, 19588.00
753.4100, 19456.00
754.5560, 19585.00
755.7020, 19370.00
756.8480, 19383.00
757.9940, 19515.00
759.1390, 19237.00
760.2850, 19286.00
761.4300, 19413.00
762.5750, 19427.00
763.7200, 19340.00
764.8650, 19423.00
766.0100, 19352.20
767.1540, 19340.46
768.2980, 19290.00
769.4420, 19347.00
770.5860, 19360.00
771.7300, 19383.51
772.8740, 19431.04
774.0170, 19474.00
775.1610, 19516.00
776.3040, 19589.00
777.4470, 19640.00
778.5900, 19684.85
779.7320, 19697.00
780.8750, 19814.00
782.0170, 19942.00
783.1590, 20104.00
784.3010, 20109.00
785.4430, 20281.00
786.5850, 20285.00
787.7260, 20478.00
788.8680, 20668.00
790.0090, 20876.00
791.1500, 21027.00
792.2910, 21081.00
793.4310, 21281.00
794.5720, 21440.96
795.7120, 21854.00
796.8520, 21904.00
797.9920, 22199.00
799.1320, 22595.00
800.2720, 22639.00
801.4120, 22636.00
802.5510, 22810.00
803.6900, 22807.00
804.8290, 22916.00
805.9680, 22888.00
807.1070, 23093.00
808.2450, 22978.00
809.3840, 23126.00
810.5220, 23245.00
811.6600, 23246.00
812.7980, 23129.00
813.9360, 23446.00
815.0730, 23353.00
816.2110, 23316.00
817.3480, 23496.00
818.4850, 23533.00
819.6220, 23826.00
820.7590, 23833.44
821.8960, 23960.00
823.0320, 23893.00
824.1680, 23993.00
825.3040, 23937.00
826.4400, 24039.78
827.5760, 24390.00
828.7120, 24325.00
829.8470, 24681.00
830.9830, 25023.00
832.1180, 25127.40
833.2530, 25242.00
834.3880, 25511.00
835.5220, 25830.00
836.6570, 25963.00
837.7910, 26375.33
838.9250, 26583.00
840.0590, 27080.00
841.1930, 27320.00
842.3270, 27577.00
843.4600, 27761.00
844.5940, 27873.00
845.7270, 28135.00
846.8600, 28572.00
847.9930, 28704.00
849.1250, 28883.00
850.2580, 29306.00
851.3900, 29370.00
852.5230, 29639.00
853.6550, 29764.00
854.7870, 29722.00
855.9180, 29939.00
857.0500, 30249.00
858.1810, 30440.00
859.3130, 30459.00
860.4440, 30675.00
861.5750, 30503.00
862.7050, 30863.00
863.8360, 30945.00
864.9660, 30726.00
866.0970, 30824.00
867.2270, 30873.00
868.3570, 30787.00
869.4870, 30671.00
870.6160, 30449.00
871.7460, 30387.00
872.8750, 30291.85
874.0040, 30275.00
875.1330, 30234.00
876.2620, 30207.00
877.3910, 30293.00
878.5190, 30281.00
879.6470, 30554.00
880.7760, 30741.00
881.9040, 30687.00
883.0310, 31026.00
884.1590, 31442.00
885.2870, 31838.00
886.4140, 32481.00
887.5410, 32667.00
888.6680, 33244.00
889.7950, 33999.00
890.9220, 34362.00
892.0480, 34624.00
893.1750, 35312.00
894.3010, 35920.66
895.4270, 36771.00
896.5530, 37522.00
897.6790, 38191.00
898.8040, 39086.00
899.9300, 39940.00
901.0550, 41080.00
902.1800, 41814.00
903.3050, 42272.00
904.4300, 43159.00
905.5540, 43382.00
906.6790, 43321.00
907.8030, 43299.00
908.9270, 43135.00
910.0510, 42722.00
911.1750, 42008.00
912.2990, 41558.00
913.4220, 41170.00
914.5450, 40799.00
915.6690, 40066.00
916.7920, 39752.00
917.9140, 39143.00
919.0370, 39087.00
920.1600, 38583.00
921.2820, 39002.00
922.4040, 38860.00
923.5260, 38960.00
924.6480, 38824.00
925.7700, 39254.00
926.8910, 39108.00
928.0130, 38964.00
929.1340, 38930.00
930.2550, 38335.00
931.3760, 38067.00
932.4970, 37448.00
933.6170, 37027.00
934.7380, 36467.00
935.8580, 35460.00
936.9780, 35040.00
938.0980, 34068.00
939.2180, 33706.00
940.3370, 33111.00
941.4570, 32322.00
942.5760, 31872.00
943.6950, 31380.00
944.8140, 31084.00
945.9330, 30602.00
947.0520, 30390.00
948.1700, 30128.00
949.2890, 30035.00
950.4070, 29767.00
951.5250, 29661.00
952.6430, 29443.86
953.7600, 29188.00
954.8780, 28951.00
955.9950, 29043.00
957.1120, 28662.00
958.2290, 28420.00
959.3460, 28186.00
960.4630, 27813.00
961.5800, 27601.00
962.6960, 27441.00
963.8120, 27168.00
964.9280, 26795.00
966.0440, 26676.00
967.1600, 26861.00
968.2760, 26556.00
969.3910, 26688.00
970.5060, 26470.00
971.6210, 26365.00
972.7360, 26350.00
973.8510, 26196.00
974.9660, 26182.00
976.0800, 26070.00
977.1950, 26223.00
978.3090, 26074.00
979.4230, 25969.00
980.5370, 26009.00
981.6500, 25595.00
982.7640, 25840.00
983.8770, 25570.00
984.9900, 25567.00
986.1030, 25462.00
987.2160, 25263.00
988.3290, 25211.00
989.4420, 25081.00
990.5540, 25091.00
991.6660, 24868.00
992.7780, 24828.00
993.8900, 24723.00
995.0020, 24556.00
996.1140, 24454.00
997.2250, 24373.00
998.3360, 24320.00
999.4470, 24281.00
1000.558, 24210.00
1001.669, 24257.00
1002.780, 24037.00
1003.890, 24084.00
1005.001, 23904.00
1006.111, 23772.00
1007.221, 23842.00
1008.331, 23707.82
1009.440, 23707.64
1010.550, 23672.00
1011.659, 23622.00
1012.768, 23714.00
1013.877, 23571.00
1014.986, 23426.00
1016.095, 23530.00
1017.204, 23537.00
1018.312, 23576.00
1019.420, 23457.00
1020.528, 23404.00
1021.636, 23391.00
1022.744, 23361.54
1023.852, 23360.15
1024.959, 23258.78
1026.066, 23368.88
1027.173, 23428.21
1028.280, 23439.48
1029.387, 23258.78
1030.494, 23325.97
1031.600, 23293.83
1032.707, 23257.60
1033.813, 23359.69
1034.919, 23206.92
1036.025, 23306.81
1037.130, 23305.85
1038.236, 23351.05
1039.341, 23296.29
1040.446, 23272.41
1041.552, 23348.51
1042.656, 23369.26
1043.761, 23303.00
1044.866, 23351.13
1045.970, 23194.88
1047.074, 23217.98
1048.179, 23318.47
1049.282, 23257.24
1050.386, 23307.21
1051.490, 23314.83
1052.593, 23129.98
1053.697, 23279.86
1054.800, 23284.97
1055.903, 23141.46
1057.006, 23279.87
1058.108, 23156.85
1059.211, 23127.14
1060.313, 23167.66
1061.415, 23134.98
1062.517, 23217.71
1063.619, 23189.26
1064.721, 23150.87
1065.823, 23155.83
1066.924, 23037.94
1068.025, 23147.97
1069.126, 23102.32
1070.227, 23134.05
1071.328, 23183.33
1072.429, 23098.29
1073.529, 23155.45
1074.629, 22992.11
1075.729, 23013.27
1076.829, 23014.56
1077.929, 23133.79
1079.029, 22971.51
1080.128, 22987.55
1081.228, 23079.51
1082.327, 23065.24
1083.426, 23095.38
1084.525, 22994.04
1085.623, 23016.22
1086.722, 23004.36
1087.820, 23110.15
1088.919, 23123.05
1090.017, 23023.95
1091.115, 22925.31
1092.212, 23039.58
1093.310, 22952.06
1094.407, 22973.40
1095.505, 22882.31
1096.602, 22888.29
1097.699, 22892.74
1098.795, 22946.96
1099.892, 22850.28
1100.989, 22949.33
1102.085, 22935.25
1103.181, 22954.50
1104.277, 22970.05
1105.373, 22833.79
1106.469, 22821.97
1107.564, 22988.22
1108.660, 22882.91
1109.755, 22832.41
1110.850, 22875.00
1111.945, 22934.00
1113.040, 22805.00
1114.134, 22877.00
1115.229, 22952.00
1116.323, 23118.00
1117.417, 22997.00
1118.511, 22870.00
1119.605, 23054.00
1120.698, 22999.00
1121.792, 22850.00
1122.885, 23196.00
1123.978, 23113.00
1125.071, 22929.00
1126.164, 23203.00
1127.257, 22976.00
1128.349, 23076.00
1129.442, 22930.00
1130.534, 22991.00
1131.626, 23071.00
1132.718, 23055.00
1133.810, 23166.00
1134.901, 22978.00
1135.993, 22855.00
1137.084, 23146.00
1138.175, 23174.00
1139.266, 23328.00
1140.357, 23309.00
1141.448, 23128.00
1142.538, 23138.00
1143.628, 23209.00
1144.719, 23160.00
1145.809, 23142.00
1146.898, 23227.00
1147.988, 23254.00
1149.078, 23263.20
1150.167, 23382.00
1151.256, 23295.00
1152.345, 23349.00
1153.434, 23383.00
1154.523, 23326.00
1155.612, 23456.00
1156.700, 23403.00
1157.788, 23557.00
1158.877, 23523.00
1159.964, 23421.00
1161.052, 23726.00
1162.140, 23500.00
1163.227, 23560.00
1164.315, 23612.00
1165.402, 23454.00
1166.489, 23564.00
1167.576, 23398.00
1168.663, 23459.00
1169.749, 23656.00
1170.836, 23663.00
1171.922, 23613.00
1173.008, 23773.00
1174.094, 23718.00
1175.180, 23898.00
1176.265, 23730.00
1177.351, 23703.00
1178.436, 23696.00
1179.521, 23795.00
1180.606, 23643.00
1181.691, 23803.00
1182.776, 23675.00
1183.860, 23820.00
1184.944, 23731.00
1186.029, 23848.00
1187.113, 23925.00
1188.197, 23863.00
1189.280, 23969.00
1190.364, 23983.00
1191.447, 24006.00
1192.531, 24019.94
1193.614, 23864.00
1194.697, 23935.00
1195.779, 24040.00
1196.862, 23883.00
1197.945, 24015.00
1199.027, 24218.00
1200.109, 23921.00
1201.191, 24025.00
1202.273, 24007.00
1203.355, 23847.00
1204.436, 24107.00
1205.518, 24137.00
1206.599, 24121.00
1207.680, 23975.00
1208.761, 24061.00
1209.842, 24164.00
1210.922, 24170.00
1212.003, 24175.00
1213.083, 24207.00
1214.163, 24145.00
1215.243, 24230.00
1216.323, 24247.00
1217.402, 24169.00
1218.482, 24421.00
1219.561, 24181.00
1220.641, 24297.00
1221.720, 24323.00
1222.798, 24199.00
1223.877, 24367.00
1224.956, 24448.00
1226.034, 24361.00
1227.112, 24295.00
1228.191, 24493.00
1229.269, 24513.00
1230.346, 24519.00
1231.424, 24372.00
1232.501, 24268.00
1233.579, 24481.00
1234.656, 24372.00
1235.733, 24598.00
1236.810, 24530.00
1237.886, 24610.00
1238.963, 24581.00
1240.039, 24609.00
1241.116, 24699.00
1242.192, 24668.00
1243.268, 24681.00
1244.343, 24787.00
1245.419, 24666.00
1246.494, 24812.10
1247.570, 24977.00
1248.645, 24878.00
1249.720, 24934.00
1250.795, 24684.00
1251.869, 24808.00
1252.944, 24801.00
1254.018, 24923.00
1255.093, 24955.14
1256.167, 24955.00
1257.240, 25034.00
1258.314, 25021.01
1259.388, 24915.00
1260.461, 25041.00
1261.535, 24974.00
1262.608, 25004.00
1263.681, 25070.00
1264.753, 24926.00
1265.826, 25025.00
1266.899, 25063.00
1267.971, 25062.00
1269.043, 25105.00
1270.115, 25081.00
1271.187, 25056.00
1272.259, 25066.00
1273.330, 25189.00
1274.402, 25131.00
1275.473, 25161.00
1276.544, 25214.00
1277.615, 25409.00
1278.686, 25142.00
1279.756, 25284.00
1280.827, 25090.00
1281.897, 25177.00
1282.967, 25088.00
1284.037, 25031.00
1285.107, 24917.00
1286.177, 25157.00
1287.247, 25124.00
1288.316, 25241.00
1289.385, 25166.00
1290.454, 25226.00
1291.523, 25395.00
1292.592, 25443.00
1293.661, 25474.45
1294.729, 25617.00
1295.797, 25469.00
1296.866, 25610.00
1297.934, 25583.00
1299.001, 25445.00
1300.069, 25476.00
1301.137, 25571.00
1302.204, 25478.00
1303.271, 25696.00
1304.338, 25725.00
1305.405, 25747.92
1306.472, 25736.00
1307.539, 25778.00
1308.605, 25736.96
1309.671, 25848.00
1310.737, 25697.00
1311.803, 25670.00
1312.869, 25721.00
1313.935, 25735.00
1315.000, 25963.00
1316.066, 25863.00
1317.131, 25796.00
1318.196, 26101.00
1319.261, 26081.00
1320.326, 25986.00
1321.390, 26124.00
1322.455, 25968.00
1323.519, 25916.00
1324.583, 25855.00
1325.647, 26049.00
1326.711, 26061.00
1327.775, 26128.00
1328.838, 26114.00
1329.902, 26102.00
1330.965, 26250.00
1332.028, 26300.00
1333.091, 26379.00
1334.153, 26261.00
1335.216, 26447.00
1336.279, 26187.00
