##NAMES=Gehlenite
##RRUFFID=R060841
##IDEAL CHEMISTRY=Ca_2_Al(SiAl)O_7_
##LOCALITY=Monzoni, Tyrol, Italy
##OWNER=RRUFF
##SOURCE=Michael Scott
##DESCRIPTION=Brown rectangular prism
##STATUS=The identification of this mineral has been confirmed by X-ray diffraction and chemical analysis
##URL=rruff.info/R060841
##MEASURED CHEMISTRY=(Ca_1.92_Na_0.07_K_0.01_)_Σ=2_(Al_0.62_Mg_0.25_Fe^2+^_0.13_)_Σ=1_(Si_1.46_Al_0.54_)O_7_ ; = lighter phase, and the darker phase is calcite
##PIN_ID=L01166
##ORIENTATION=Laser parallel to c* (0 0 1). Fiducial mark perpendicular to laser is parallel to b [0 1 0]
169.1790, 13969.11
170.4080, 14120.00
171.6380, 14021.00
172.8670, 13919.00
174.0950, 13867.00
175.3240, 13928.00
176.5520, 14044.00
177.7810, 14138.00
179.0090, 14081.00
180.2370, 14263.00
181.4640, 14305.00
182.6920, 14540.00
183.9190, 14480.00
185.1460, 14586.00
186.3730, 15043.00
187.6000, 15040.00
188.8270, 15291.00
190.0530, 15405.00
191.2800, 15531.00
192.5060, 15545.00
193.7320, 15891.00
194.9580, 16042.00
196.1830, 16001.00
197.4090, 16076.00
198.6340, 16363.00
199.8590, 16271.00
201.0840, 16598.00
202.3090, 16634.00
203.5340, 16479.00
204.7580, 16425.00
205.9820, 16228.00
207.2060, 16143.00
208.4300, 16108.00
209.6540, 16148.00
210.8780, 16129.00
212.1010, 16229.08
213.3240, 16452.00
214.5470, 16454.00
215.7700, 16763.00
216.9930, 16899.00
218.2150, 16964.00
219.4380, 17197.00
220.6600, 17387.00
221.8820, 17718.00
223.1040, 18115.00
224.3260, 18357.00
225.5470, 18684.00
226.7680, 18805.00
227.9900, 19282.00
229.2110, 19403.00
230.4310, 19500.00
231.6520, 19809.00
232.8720, 19894.00
234.0930, 19915.00
235.3130, 19692.00
236.5330, 19871.00
237.7530, 19713.00
238.9720, 19458.00
240.1920, 19478.00
241.4110, 19141.00
242.6300, 19123.00
243.8490, 18877.00
245.0680, 18659.00
246.2860, 18408.00
247.5040, 18215.48
248.7230, 18027.16
249.9410, 17852.00
251.1590, 17708.00
252.3760, 17575.00
253.5940, 17462.00
254.8110, 17302.00
256.0280, 17167.00
257.2450, 16956.74
258.4620, 16922.92
259.6790, 16848.49
260.8950, 16735.71
262.1120, 16469.25
263.3280, 16401.21
264.5440, 16253.70
265.7600, 16219.00
266.9750, 16176.00
268.1910, 16050.00
269.4060, 16030.50
270.6210, 15956.57
271.8360, 15941.00
273.0510, 15901.00
274.2650, 15866.00
275.4800, 15959.00
276.6940, 16025.00
277.9080, 16116.00
279.1220, 16073.00
280.3360, 16187.00
281.5490, 16169.00
282.7630, 16053.00
283.9760, 15971.00
285.1890, 15951.00
286.4020, 16137.00
287.6150, 16221.00
288.8270, 16281.00
290.0400, 16286.00
291.2520, 16402.00
292.4640, 16296.00
293.6760, 16476.00
294.8870, 16408.00
296.0990, 16467.00
297.3100, 16597.00
298.5210, 16512.00
299.7320, 16628.00
300.9430, 16457.00
302.1540, 16580.00
303.3640, 16364.00
304.5750, 16425.00
305.7850, 16462.00
306.9950, 16255.00
308.2050, 16203.20
309.4140, 16189.00
310.6240, 15913.00
311.8330, 15652.00
313.0420, 15568.00
314.2510, 15325.00
315.4600, 15082.00
316.6680, 15001.00
317.8770, 14908.00
319.0850, 14591.00
320.2930, 14646.00
321.5010, 14481.00
322.7090, 14468.00
323.9160, 14394.00
325.1240, 14252.00
326.3310, 14226.00
327.5380, 14203.00
328.7450, 14092.00
329.9520, 13969.00
331.1580, 13851.00
332.3650, 13865.00
333.5710, 13869.00
334.7770, 13912.00
335.9830, 13672.00
337.1880, 13735.00
338.3940, 13784.00
339.5990, 13631.00
340.8040, 13342.00
342.0090, 13389.00
343.2140, 13427.00
344.4190, 13428.00
345.6230, 13389.00
346.8280, 13250.00
348.0320, 13171.00
349.2360, 13159.00
350.4400, 13151.00
351.6430, 13056.29
352.8470, 12903.00
354.0500, 12881.00
355.2530, 12759.00
356.4560, 12641.00
357.6590, 12569.00
358.8620, 12555.00
360.0640, 12687.00
361.2660, 12488.00
362.4680, 12451.00
363.6700, 12372.00
364.8720, 12235.00
366.0740, 12229.00
367.2750, 12114.38
368.4760, 11917.00
369.6770, 11965.00
370.8780, 11854.00
372.0790, 11811.00
373.2800, 11796.00
374.4800, 11754.41
375.6800, 11666.00
376.8800, 11725.00
378.0800, 11702.00
379.2800, 11659.00
380.4790, 11704.00
381.6790, 11679.00
382.8780, 11640.00
384.0770, 11648.00
385.2760, 11618.96
386.4750, 11735.00
387.6730, 11598.00
388.8720, 11677.00
390.0700, 11694.00
391.2680, 11516.00
392.4660, 11775.00
393.6630, 11685.00
394.8610, 11687.00
396.0580, 11733.00
397.2550, 11677.00
398.4520, 11714.00
399.6490, 11646.00
400.8460, 11713.52
402.0420, 11859.00
403.2390, 11838.00
404.4350, 12071.00
405.6310, 12142.00
406.8270, 12148.00
408.0220, 12254.00
409.2180, 12267.00
410.4130, 12365.00
411.6080, 12593.00
412.8030, 12664.00
413.9980, 12787.00
415.1920, 13025.00
416.3870, 13187.00
417.5810, 13448.00
418.7750, 13808.00
419.9690, 13945.00
421.1630, 14108.00
422.3570, 14463.00
423.5500, 14594.00
424.7430, 14852.00
425.9360, 15177.00
427.1290, 15477.00
428.3220, 15494.00
429.5150, 15507.00
430.7070, 15524.00
431.8990, 15743.00
433.0910, 15732.00
434.2830, 15790.00
435.4750, 15694.00
436.6670, 15576.00
437.8580, 15361.00
439.0490, 15444.00
440.2400, 15284.00
441.4310, 15288.00
442.6220, 15328.00
443.8130, 15131.00
445.0030, 15266.00
446.1930, 15216.00
447.3830, 15144.00
448.5730, 15151.00
449.7630, 15141.45
450.9520, 15190.00
452.1420, 15222.00
453.3310, 15242.00
454.5200, 15368.00
455.7090, 15770.00
456.8980, 15740.50
458.0860, 15851.38
459.2740, 15947.00
460.4630, 15925.00
461.6510, 16083.00
462.8380, 16263.00
464.0260, 16339.00
465.2140, 16541.00
466.4010, 16706.00
467.5880, 17147.00
468.7750, 17082.79
469.9620, 17474.00
471.1490, 17218.00
472.3350, 17040.00
473.5220, 17397.00
474.7080, 17314.00
475.8940, 17405.00
477.0800, 17572.00
478.2650, 17576.00
479.4510, 17624.00
480.6360, 17463.00
481.8210, 17352.00
483.0060, 17167.00
484.1910, 17037.00
485.3760, 16862.00
486.5600, 17426.00
487.7440, 17673.00
488.9290, 16985.00
490.1130, 15991.00
491.2960, 16234.00
492.4800, 15650.08
493.6630, 15669.00
494.8470, 15304.00
496.0300, 15119.00
497.2130, 14959.00
498.3960, 14844.00
499.5780, 14890.00
500.7610, 14789.00
501.9430, 14830.00
503.1250, 14848.00
504.3070, 14770.00
505.4890, 14944.00
506.6710, 14846.00
507.8520, 14865.00
509.0330, 15058.00
510.2140, 15278.00
511.3950, 15315.00
512.5760, 15634.00
513.7570, 15655.00
514.9370, 15915.00
516.1170, 16181.00
517.2980, 16080.00
518.4780, 16161.00
519.6570, 16118.00
520.8370, 16108.00
522.0160, 16200.00
523.1960, 16256.00
524.3750, 16086.00
525.5540, 15950.00
526.7320, 15899.00
527.9110, 15892.00
529.0890, 15603.00
530.2680, 15634.00
531.4460, 15313.00
532.6240, 15510.00
533.8010, 15346.00
534.9790, 15299.00
536.1560, 15537.00
537.3340, 15359.00
538.5110, 15169.00
539.6880, 15351.00
540.8650, 15359.00
542.0410, 15340.00
543.2180, 15533.00
544.3940, 15277.00
545.5700, 15287.00
546.7460, 15220.00
547.9220, 15334.00
549.0970, 15467.00
550.2730, 15373.00
551.4480, 15403.00
552.6230, 15466.00
553.7980, 15497.00
554.9730, 15580.00
556.1470, 15745.00
557.3210, 15959.00
558.4960, 15929.00
559.6700, 16178.00
560.8440, 16570.00
562.0170, 16461.00
563.1910, 16404.00
564.3640, 16720.00
565.5380, 16693.00
566.7110, 16873.00
567.8840, 16742.00
569.0560, 16906.00
570.2290, 16939.00
571.4010, 16787.00
572.5740, 16860.00
573.7460, 16897.00
574.9180, 16877.00
576.0890, 16978.00
577.2610, 17177.00
578.4320, 17117.00
579.6040, 17278.00
580.7750, 17586.00
581.9450, 18048.00
583.1160, 18002.00
584.2870, 18208.00
585.4570, 18679.00
586.6270, 19242.00
587.7980, 19669.00
588.9670, 20216.04
590.1370, 20892.00
591.3070, 21594.82
592.4760, 22332.00
593.6450, 23287.00
594.8140, 24257.00
595.9830, 25414.47
597.1520, 26596.00
598.3210, 28083.00
599.4890, 29642.00
600.6570, 31314.00
601.8250, 33370.00
602.9930, 35590.00
604.1610, 38247.00
605.3290, 40739.00
606.4960, 43463.00
607.6630, 46561.00
608.8300, 49288.00
609.9970, 52329.00
611.1640, 55063.00
612.3300, 58131.00
613.4970, 60031.00
614.6630, 61705.00
615.8290, 62431.00
616.9950, 62276.00
618.1610, 61827.00
619.3260, 60317.00
620.4920, 58774.00
621.6570, 56552.00
622.8220, 54422.00
623.9870, 52645.00
625.1520, 50650.00
626.3160, 49023.03
627.4810, 47123.00
628.6450, 45954.00
629.8090, 44708.00
630.9730, 43357.00
632.1370, 42334.00
633.3000, 41089.00
634.4640, 39743.00
635.6270, 38736.00
636.7900, 37503.00
637.9530, 36348.00
639.1160, 35221.00
640.2780, 34264.00
641.4410, 33406.00
642.6030, 32725.00
643.7650, 32203.00
644.9270, 32310.00
646.0890, 32977.00
647.2500, 34123.00
648.4120, 35618.00
649.5730, 37461.00
650.7340, 40246.00
651.8950, 43066.00
653.0560, 45995.00
654.2160, 48849.00
655.3770, 50997.00
656.5370, 53035.00
657.6970, 54380.00
658.8570, 54395.00
660.0170, 53856.00
661.1760, 52994.00
662.3360, 51412.00
663.4950, 49760.00
664.6540, 47210.00
665.8130, 46433.00
666.9720, 42854.00
668.1310, 40078.00
669.2890, 38091.00
670.4470, 36110.00
671.6050, 33954.00
672.7630, 32415.00
673.9210, 30860.00
675.0790, 29142.00
676.2360, 27846.00
677.3930, 26443.00
678.5510, 25678.00
679.7080, 24445.00
680.8640, 23745.00
682.0210, 23035.00
683.1770, 22257.00
684.3340, 21681.00
685.4900, 20951.00
686.6460, 20520.00
687.8020, 19918.00
688.9570, 19520.00
690.1130, 19242.00
691.2680, 18728.00
692.4230, 18451.00
693.5780, 18215.78
694.7330, 17969.48
695.8880, 17921.00
697.0420, 17684.00
698.1960, 17719.00
699.3510, 17614.00
700.5040, 17311.00
701.6580, 17209.00
702.8120, 17005.00
703.9650, 16838.00
705.1190, 16717.00
706.2720, 16639.00
707.4250, 16314.00
708.5780, 16244.00
709.7300, 16034.00
710.8830, 15725.00
712.0350, 15722.00
713.1870, 15444.00
714.3390, 15185.00
715.4910, 15126.00
716.6430, 14990.00
717.7940, 14922.00
718.9460, 14892.00
720.0970, 14875.00
721.2480, 15008.00
722.3990, 15211.00
723.5500, 15254.00
724.7000, 15693.00
725.8500, 15645.00
727.0010, 15807.00
728.1510, 15802.00
729.3010, 15896.00
730.4500, 15990.00
731.6000, 15894.00
732.7490, 15931.00
733.8980, 15679.00
735.0470, 15407.00
736.1960, 15187.00
737.3450, 14922.00
738.4940, 14616.00
739.6420, 14230.00
740.7900, 14017.00
741.9380, 13711.00
743.0860, 13482.00
744.2340, 13155.00
745.3810, 12950.00
746.5290, 12690.00
747.6760, 12514.00
748.8230, 12463.00
749.9700, 12294.00
751.1170, 12186.00
752.2630, 12093.00
753.4100, 11901.00
754.5560, 11834.00
755.7020, 11710.00
756.8480, 11673.00
757.9940, 11558.00
759.1390, 11562.00
760.2850, 11579.00
761.4300, 11389.00
762.5750, 11463.00
763.7200, 11344.00
764.8650, 11296.00
766.0100, 11140.00
767.1540, 11133.53
768.2980, 11034.00
769.4420, 11103.00
770.5860, 11093.00
771.7300, 11088.00
772.8740, 11121.04
774.0170, 11074.00
775.1610, 11131.00
776.3040, 11153.00
777.4470, 11120.00
778.5900, 11194.00
779.7320, 11171.00
780.8750, 11170.00
782.0170, 11347.00
783.1590, 11369.00
784.3010, 11526.82
785.4430, 11538.00
786.5850, 11826.00
787.7260, 12051.00
788.8680, 12173.00
790.0090, 12369.00
791.1500, 12558.86
792.2910, 12744.00
793.4310, 12914.00
794.5720, 13261.00
795.7120, 13392.00
796.8520, 13651.00
797.9920, 13844.00
799.1320, 14036.00
800.2720, 14079.00
801.4120, 14142.00
802.5510, 14111.00
803.6900, 14123.75
804.8290, 14105.47
805.9680, 14080.00
807.1070, 14017.00
808.2450, 13991.00
809.3840, 13957.83
810.5220, 13906.00
811.6600, 13903.00
812.7980, 13840.00
813.9360, 13813.00
815.0730, 13839.00
816.2110, 13922.00
817.3480, 13886.00
818.4850, 13750.00
819.6220, 13909.00
820.7590, 13759.00
821.8960, 13763.00
823.0320, 13942.00
824.1680, 13988.00
825.3040, 14017.00
826.4400, 14075.00
827.5760, 14153.00
828.7120, 14347.00
829.8470, 14491.63
830.9830, 14644.00
832.1180, 14900.00
833.2530, 15023.00
834.3880, 15227.00
835.5220, 15525.00
836.6570, 15806.00
837.7910, 15935.00
838.9250, 16102.00
840.0590, 16402.00
841.1930, 16685.00
842.3270, 16962.00
843.4600, 17169.00
844.5940, 17264.00
845.7270, 17307.00
846.8600, 17318.00
847.9930, 17708.00
849.1250, 17923.00
850.2580, 17903.00
851.3900, 18036.00
852.5230, 18270.00
853.6550, 18276.00
854.7870, 18396.00
855.9180, 18411.00
857.0500, 18557.96
858.1810, 18723.00
859.3130, 18815.00
860.4440, 18899.00
861.5750, 18932.00
862.7050, 18956.00
863.8360, 19032.16
864.9660, 19228.00
866.0970, 19153.00
867.2270, 19266.00
868.3570, 19327.00
869.4870, 19196.00
870.6160, 19023.00
871.7460, 18910.00
872.8750, 18860.00
874.0040, 19045.00
875.1330, 19107.00
876.2620, 19305.00
877.3910, 19574.71
878.5190, 19864.93
879.6470, 20259.00
880.7760, 20733.00
881.9040, 21247.00
883.0310, 21951.00
884.1590, 22795.00
885.2870, 23840.00
886.4140, 24823.00
887.5410, 25769.00
888.6680, 26641.00
889.7950, 27805.00
890.9220, 30684.00
892.0480, 33265.00
893.1750, 34942.00
894.3010, 31430.00
895.4270, 32568.00
896.5530, 33867.00
897.6790, 35185.00
898.8040, 36809.00
899.9300, 38280.00
901.0550, 39873.00
902.1800, 41499.00
903.3050, 43006.00
904.4300, 43283.00
905.5540, 43946.00
906.6790, 44326.00
907.8030, 43983.00
908.9270, 43554.00
910.0510, 42969.00
911.1750, 42417.00
912.2990, 41466.00
913.4220, 40682.00
914.5450, 39978.00
915.6690, 38905.00
916.7920, 38247.00
917.9140, 37608.00
919.0370, 37207.00
920.1600, 37092.00
921.2820, 36488.00
922.4040, 36632.00
923.5260, 36713.00
924.6480, 36745.00
925.7700, 36806.00
926.8910, 36526.00
928.0130, 36682.00
929.1340, 36387.00
930.2550, 35829.00
931.3760, 35254.00
932.4970, 34480.00
933.6170, 33600.00
934.7380, 32257.00
935.8580, 31401.00
936.9780, 29887.00
938.0980, 29210.00
939.2180, 27864.00
940.3370, 26754.00
941.4570, 25730.00
942.5760, 24895.00
943.6950, 24253.00
944.8140, 23593.00
945.9330, 23204.00
947.0520, 22614.00
948.1700, 22243.00
949.2890, 21766.00
950.4070, 21653.00
951.5250, 21441.00
952.6430, 21114.00
953.7600, 20943.00
954.8780, 20823.00
955.9950, 20392.00
957.1120, 20248.00
958.2290, 19702.00
959.3460, 19449.00
960.4630, 18904.00
961.5800, 18744.00
962.6960, 18313.00
963.8120, 17938.00
964.9280, 17570.00
966.0440, 17171.00
967.1600, 16919.04
968.2760, 16627.12
969.3910, 16454.00
970.5060, 16232.00
971.6210, 16061.00
972.7360, 16026.00
973.8510, 15848.00
974.9660, 15517.00
976.0800, 15669.00
977.1950, 15362.00
978.3090, 15365.00
979.4230, 15071.00
980.5370, 14914.00
981.6500, 14902.00
982.7640, 14623.00
983.8770, 14672.00
984.9900, 14503.00
986.1030, 14394.00
987.2160, 14403.00
988.3290, 14285.00
989.4420, 14194.88
990.5540, 14046.00
991.6660, 13940.00
992.7780, 13815.00
993.8900, 13613.00
995.0020, 13662.00
996.1140, 13631.00
997.2250, 13304.00
998.3360, 13463.00
999.4470, 13229.00
1000.558, 13255.00
1001.669, 13208.00
1002.780, 13156.00
1003.890, 13112.62
1005.001, 13035.45
1006.111, 12982.00
1007.221, 12878.00
1008.331, 12826.00
1009.440, 12750.00
1010.550, 12771.00
1011.659, 12692.00
1012.768, 12644.00
1013.877, 12780.00
1014.986, 12453.00
1016.095, 12594.00
1017.204, 12594.00
1018.312, 12446.00
1019.420, 12442.00
1020.528, 12572.00
1021.636, 12454.00
1022.744, 12497.32
1023.852, 12664.00
1024.959, 12441.00
1026.066, 12338.00
1027.173, 12245.00
1028.280, 12289.00
1029.387, 12301.00
1030.494, 12277.00
1031.600, 12142.00
1032.707, 12139.00
1033.813, 12138.00
1034.919, 12106.00
1036.025, 12109.00
1037.130, 12065.97
1038.236, 12015.07
1039.341, 12007.00
1040.446, 11965.85
1041.552, 11921.00
1042.656, 11902.00
1043.761, 11880.00
1044.866, 11826.00
1045.970, 11776.35
1047.074, 11751.00
1048.179, 11691.00
1049.282, 11540.00
1050.386, 11590.00
1051.490, 11569.00
1052.593, 11367.00
1053.697, 11434.87
1054.800, 11299.00
1055.903, 11390.00
1057.006, 11274.00
1058.108, 11196.00
1059.211, 11062.00
1060.313, 11208.00
1061.415, 10982.00
1062.517, 11137.00
1063.619, 10966.00
1064.721, 10803.00
1065.823, 10918.00
1066.924, 10963.00
1068.025, 10871.00
1069.126, 10791.00
1070.227, 10816.00
1071.328, 10793.00
1072.429, 10846.00
1073.529, 10692.00
1074.629, 10607.00
1075.729, 10741.00
1076.829, 10785.00
1077.929, 10795.00
1079.029, 10740.00
1080.128, 10809.00
1081.228, 10790.00
1082.327, 11007.00
1083.426, 10885.00
1084.525, 10893.00
1085.623, 10966.00
1086.722, 10834.00
1087.820, 10678.00
1088.919, 10547.00
1090.017, 10488.00
1091.115, 10490.00
1092.212, 10275.00
1093.310, 10271.00
1094.407, 10167.00
1095.505, 10204.00
1096.602, 10187.00
1097.699, 10107.00
1098.795, 10113.00
1099.892, 10162.00
1100.989, 10199.00
1102.085, 10118.00
1103.181, 10053.00
1104.277, 9985.000
1105.373, 10111.00
1106.469, 10133.00
1107.564, 10079.00
1108.660, 10223.00
1109.755, 10085.00
1110.850, 9992.000
1111.945, 10078.00
1113.040, 10136.00
1114.134, 9996.000
1115.229, 10079.00
1116.323, 10178.00
1117.417, 10053.00
1118.511, 10139.00
1119.605, 10163.00
1120.698, 10148.00
1121.792, 10204.00
1122.885, 10083.00
1123.978, 10259.00
1125.071, 10257.00
1126.164, 10054.00
1127.257, 10142.00
1128.349, 10070.00
1129.442, 10107.00
1130.534, 10112.00
1131.626, 10144.00
1132.718, 10183.00
1133.810, 10091.00
1134.901, 9964.298
1135.993, 10057.73
1137.084, 10110.53
1138.175, 10124.90
1139.266, 9985.683
1140.357, 10044.78
1141.448, 10024.41
1142.538, 10000.77
1143.628, 10087.78
1144.719, 9970.906
1145.809, 10056.16
1146.898, 10060.73
1147.988, 10102.23
1149.078, 10063.76
1150.167, 10049.99
1151.256, 10116.21
1152.345, 10138.14
1153.434, 10090.46
1154.523, 10134.31
1155.612, 10014.64
1156.700, 10038.45
1157.788, 10124.18
1158.877, 10080.52
1159.964, 10125.83
1161.052, 10137.25
1162.140, 9994.701
1163.227, 10119.93
1164.315, 10129.35
1165.402, 10019.87
1166.489, 10135.92
1167.576, 10042.83
1168.663, 10024.38
1169.749, 10062.12
1170.836, 10041.30
1171.922, 10112.81
1173.008, 10095.36
1174.094, 10069.97
1175.180, 10079.26
1176.265, 9990.268
1177.351, 10083.61
1178.436, 10052.40
1179.521, 10083.11
1180.606, 10127.84
1181.691, 10065.13
1182.776, 10116.17
1183.860, 9990.805
1184.944, 10013.04
1186.029, 10019.39
1187.113, 10120.08
1188.197, 9995.577
1189.280, 10013.72
1190.364, 10092.59
1191.447, 10086.48
1192.531, 10115.91
1193.614, 10040.14
1194.697, 10063.19
1195.779, 10059.00
1196.862, 10148.94
1197.945, 10164.57
1199.027, 10090.58
1200.109, 10016.98
1201.191, 10113.69
1202.273, 10048.97
1203.355, 10071.35
1204.436, 10003.77
1205.518, 10013.86
1206.599, 10022.72
1207.680, 10071.38
1208.761, 9999.334
1209.842, 10083.87
1210.922, 10077.90
1212.003, 10098.60
1213.083, 10116.33
1214.163, 10012.61
1215.243, 10008.45
1216.323, 10146.74
1217.402, 10067.78
1218.482, 10032.67
1219.561, 10028.73
1220.641, 10171.90
1221.720, 10178.34
1222.798, 10021.33
1223.877, 10158.02
1224.956, 10114.02
1226.034, 10123.71
1227.112, 10113.82
1228.191, 10109.72
1229.269, 10041.00
1230.346, 10182.00
1231.424, 10151.00
1232.501, 10246.00
1233.579, 10189.00
1234.656, 10094.00
1235.733, 9957.000
1236.810, 10054.00
1237.886, 10085.00
1238.963, 10064.00
1240.039, 10124.00
1241.116, 10077.00
1242.192, 10227.00
1243.268, 10164.00
1244.343, 10096.00
1245.419, 10200.00
1246.494, 10103.00
1247.570, 10145.00
1248.645, 10166.00
1249.720, 10093.00
1250.795, 10081.00
1251.869, 10133.00
1252.944, 10094.00
1254.018, 10140.00
1255.093, 10134.00
1256.167, 10174.00
1257.240, 10185.00
1258.314, 10160.00
1259.388, 10202.00
1260.461, 10078.00
1261.535, 10059.00
1262.608, 10129.00
1263.681, 10012.00
1264.753, 10081.00
1265.826, 10087.00
1266.899, 10193.00
1267.971, 10068.00
1269.043, 10285.00
1270.115, 10222.00
1271.187, 10125.00
1272.259, 10134.00
1273.330, 10079.00
1274.402, 10125.00
1275.473, 10178.00
1276.544, 10102.00
1277.615, 10173.00
1278.686, 10073.00
1279.756, 10170.00
1280.827, 10111.00
1281.897, 10185.00
1282.967, 10057.00
1284.037, 10116.00
1285.107, 10067.00
1286.177, 10127.00
1287.247, 10042.00
1288.316, 10030.00
1289.385, 10046.06
1290.454, 10043.75
1291.523, 10091.00
1292.592, 10117.00
1293.661, 10205.00
1294.729, 10259.00
1295.797, 10185.00
1296.866, 10262.00
1297.934, 10267.00
1299.001, 10241.00
1300.069, 10274.50
1301.137, 10293.00
1302.204, 10242.00
1303.271, 10266.00
1304.338, 10175.00
1305.405, 10219.00
1306.472, 10059.00
1307.539, 10245.00
1308.605, 10313.00
1309.671, 10199.00
1310.737, 10308.00
1311.803, 10221.00
1312.869, 10332.00
1313.935, 10217.00
1315.000, 10246.00
1316.066, 10241.38
1317.131, 10233.86
1318.196, 10234.00
1319.261, 10294.00
1320.326, 10335.00
1321.390, 10395.00
1322.455, 10340.00
1323.519, 10292.00
1324.583, 10388.00
1325.647, 10336.00
1326.711, 10439.00
1327.775, 10277.00
1328.838, 10312.00
1329.902, 10377.00
1330.965, 10323.00
1332.028, 10510.00
1333.091, 10462.34
1334.153, 10493.46
1335.216, 10422.00
1336.279, 10507.00
