##NAMES=Gehlenite
##RRUFFID=R061091
##IDEAL CHEMISTRY=Ca_2_Al(SiAl)O_7_
##LOCALITY=Carneal Plug, Glenoe Larne District, County Antrim, Northern Ireland
##OWNER=RRUFF
##SOURCE=Michael Scott
##DESCRIPTION=Yellowish-brown anhedral blebs associated with black magnetite and white wollastonite
##STATUS=The identification of this mineral is confirmed by single-crystal X-ray diffraction and chemical analysis.
##URL=rruff.info/R061091
##MEASURED CHEMISTRY=(Ca_1.64_Na_0.36_)_Σ=2_(Al_0.38_Fe_0.36_Mg_0.26_)_Σ=1_(Si_1.98_Al_0.02_)_Σ=2_O_7_
##PIN_ID=M01302
##ORIENTATION=Laser parallel to a* (1 0 0). Fiducial mark perpendicular to laser is parallel to -c [0 0 -1]
87.51300, 20630.00
88.74500, 20748.00
89.97700, 21370.00
91.20900, 22093.00
92.44100, 23029.00
93.67200, 22983.00
94.90400, 22900.00
96.13500, 23579.00
97.36600, 22922.00
98.59700, 22641.00
99.82800, 23029.00
101.0590, 22781.00
102.2900, 22749.00
103.5200, 22885.00
104.7500, 23547.00
105.9810, 24026.00
107.2110, 24654.00
108.4410, 24111.00
109.6700, 23900.00
110.9000, 23923.00
112.1300, 24302.00
113.3590, 24918.00
114.5880, 25350.00
115.8170, 26395.00
117.0460, 28049.00
118.2750, 28512.00
119.5040, 29641.00
120.7320, 35172.00
121.9610, 40984.00
123.1890, 44589.00
124.4170, 43083.00
125.6450, 34635.00
126.8730, 27539.00
128.1010, 25004.00
129.3280, 24322.00
130.5560, 24296.00
131.7830, 23897.00
133.0100, 23538.00
134.2380, 23741.00
135.4640, 24076.00
136.6910, 24146.00
137.9180, 24145.00
139.1440, 24141.00
140.3710, 24223.00
141.5970, 24086.00
142.8230, 24227.00
144.0490, 24103.00
145.2750, 24278.00
146.5000, 24423.00
147.7260, 24463.00
148.9510, 24604.00
150.1770, 24825.00
151.4020, 24873.00
152.6270, 24907.00
153.8520, 25037.00
155.0760, 25060.00
156.3010, 25151.00
157.5250, 25189.00
158.7500, 25180.00
159.9740, 25172.00
161.1980, 25138.33
162.4220, 25007.29
163.6450, 25019.01
164.8690, 24977.73
166.0920, 24886.47
167.3160, 24595.11
168.5390, 24562.11
169.7620, 24425.61
170.9850, 24284.86
172.2080, 24288.22
173.4300, 24026.12
174.6530, 24027.19
175.8750, 23672.00
177.0970, 23777.00
178.3190, 23824.00
179.5410, 23793.00
180.7630, 23409.00
181.9850, 23262.00
183.2060, 22966.00
184.4270, 22901.06
185.6490, 22815.52
186.8700, 22871.00
188.0910, 22734.00
189.3110, 22777.00
190.5320, 22666.00
191.7530, 22676.00
192.9730, 22704.00
194.1930, 22648.00
195.4130, 22533.00
196.6330, 22627.00
197.8530, 22774.00
199.0730, 22943.00
200.2920, 22907.00
201.5120, 22884.00
202.7310, 23110.00
203.9500, 23003.00
205.1690, 23342.00
206.3880, 23585.00
207.6070, 23758.00
208.8250, 23775.00
210.0440, 24017.00
211.2620, 24573.00
212.4800, 24827.00
213.6980, 25410.00
214.9160, 26253.20
216.1340, 26496.66
217.3510, 26687.12
218.5690, 26827.60
219.7860, 26933.83
221.0030, 26966.63
222.2200, 27061.77
223.4370, 27139.00
224.6540, 27224.00
225.8700, 27323.00
227.0870, 27269.00
228.3030, 27048.00
229.5190, 26623.00
230.7350, 26636.00
231.9510, 26287.43
233.1670, 26190.65
234.3820, 26041.14
235.5980, 25841.40
236.8130, 25441.82
238.0280, 25300.53
239.2430, 24950.00
240.4580, 24535.00
241.6730, 24419.00
242.8880, 24144.00
244.1020, 23894.00
245.3160, 23553.00
246.5300, 23264.00
247.7450, 23090.66
248.9580, 22907.23
250.1720, 22792.00
251.3860, 22640.00
252.5990, 22551.00
253.8130, 22317.71
255.0260, 22167.00
256.2390, 22095.00
257.4520, 21854.00
258.6640, 21855.00
259.8770, 21576.00
261.0890, 21545.00
262.3020, 21341.00
263.5140, 21248.00
264.7260, 21353.00
265.9380, 21177.00
267.1500, 21163.13
268.3610, 20939.97
269.5730, 20969.84
270.7840, 20949.68
271.9950, 20729.51
273.2060, 20767.62
274.4170, 20702.22
275.6280, 20632.57
276.8390, 20707.03
278.0490, 20676.26
279.2590, 20702.00
280.4690, 20720.00
281.6800, 20771.00
282.8890, 20777.00
284.0990, 20894.00
285.3090, 20946.00
286.5180, 20989.00
287.7280, 21275.00
288.9370, 21258.00
290.1460, 21331.00
291.3550, 21749.00
292.5630, 21685.00
293.7720, 21978.00
294.9800, 22140.00
296.1890, 22319.00
297.3970, 22580.00
298.6050, 22489.00
299.8130, 22651.00
301.0200, 22834.00
302.2280, 23191.00
303.4360, 22933.96
304.6430, 22780.00
305.8500, 22474.00
307.0570, 22569.00
308.2640, 22416.00
309.4710, 22184.00
310.6770, 21774.00
311.8840, 21588.00
313.0900, 21299.00
314.2960, 21095.03
315.5020, 21190.00
316.7080, 20631.00
317.9140, 20591.00
319.1190, 20103.00
320.3250, 20106.00
321.5300, 19985.00
322.7350, 19770.00
323.9400, 19525.00
325.1450, 19430.36
326.3500, 19174.00
327.5540, 19128.00
328.7580, 18800.60
329.9630, 18817.83
331.1670, 18772.03
332.3710, 18666.46
333.5750, 18322.17
334.7780, 18286.25
335.9820, 18126.69
337.1850, 17962.17
338.3880, 17969.64
339.5920, 17660.07
340.7950, 17764.00
341.9970, 17507.00
343.2000, 17496.00
344.4030, 17392.00
345.6050, 17313.00
346.8070, 17066.00
348.0090, 17275.00
349.2110, 17091.00
350.4130, 16818.00
351.6150, 16954.00
352.8160, 16802.00
354.0170, 16645.00
355.2190, 16490.00
356.4200, 16416.96
357.6210, 16419.00
358.8210, 16353.00
360.0220, 16369.00
361.2220, 16478.00
362.4230, 16313.00
363.6230, 16024.00
364.8230, 16094.00
366.0230, 15981.00
367.2230, 15942.00
368.4220, 15892.00
369.6220, 15948.00
370.8210, 15857.00
372.0200, 15936.00
373.2190, 15873.00
374.4180, 15773.00
375.6170, 15648.00
376.8150, 15587.00
378.0140, 15586.00
379.2120, 15699.00
380.4100, 15664.00
381.6080, 15688.00
382.8060, 15786.00
384.0040, 15673.00
385.2010, 15725.00
386.3980, 15664.00
387.5960, 15523.00
388.7930, 15645.00
389.9900, 15611.00
391.1870, 15517.00
392.3830, 15538.00
393.5800, 15477.00
394.7760, 15383.00
395.9720, 15701.00
397.1680, 15534.00
398.3640, 15645.00
399.5600, 15660.00
400.7560, 15568.00
401.9510, 15530.00
403.1460, 15609.00
404.3420, 15636.00
405.5370, 15602.00
406.7320, 15630.00
407.9260, 15718.00
409.1210, 15718.17
410.3150, 15670.00
411.5100, 15790.00
412.7040, 15753.00
413.8980, 15767.00
415.0920, 15698.00
416.2850, 15822.00
417.4790, 15762.00
418.6720, 15806.00
419.8650, 15764.00
421.0590, 15948.00
422.2510, 15777.00
423.4440, 15907.00
424.6370, 15835.00
425.8290, 15665.30
427.0220, 16032.89
428.2140, 16269.92
429.4060, 16383.47
430.5980, 16003.64
431.7900, 16260.90
432.9810, 16262.78
434.1730, 16254.25
435.3640, 16601.12
436.5550, 16292.99
437.7460, 16634.21
438.9370, 16716.23
440.1280, 16916.88
441.3190, 16860.64
442.5090, 16911.00
443.6990, 17253.00
444.8890, 17544.00
446.0790, 17452.00
447.2690, 17463.00
448.4590, 17793.00
449.6480, 18075.00
450.8380, 18033.00
452.0270, 18420.00
453.2160, 18545.00
454.4050, 18612.00
455.5940, 18946.00
456.7820, 19129.00
457.9710, 19237.00
459.1590, 19434.00
460.3470, 19635.00
461.5350, 19695.00
462.7230, 20115.00
463.9110, 20157.00
465.0990, 20520.00
466.2860, 20856.00
467.4730, 21112.00
468.6600, 21408.69
469.8470, 21652.00
471.0340, 21939.00
472.2210, 22184.00
473.4070, 22500.00
474.5940, 22698.00
475.7800, 22895.00
476.9660, 23216.00
478.1520, 23287.00
479.3380, 23588.00
480.5230, 23483.00
481.7090, 23144.54
482.8940, 23534.93
484.0790, 23203.96
485.2650, 23204.00
486.4490, 22882.00
487.6340, 22734.00
488.8190, 22442.00
490.0030, 22148.00
491.1870, 21837.00
492.3720, 21591.00
493.5550, 21458.00
494.7390, 21088.00
495.9230, 21008.00
497.1060, 20586.00
498.2900, 20650.00
499.4730, 20464.00
500.6560, 20577.00
501.8390, 20428.00
503.0220, 20274.00
504.2040, 20139.00
505.3870, 20066.00
506.5690, 20185.00
507.7510, 20257.00
508.9330, 20156.00
510.1150, 20089.00
511.2970, 20162.00
512.4780, 20178.80
513.6600, 20298.69
514.8410, 20427.00
516.0220, 20485.00
517.2030, 20579.46
518.3840, 20602.00
519.5650, 20680.00
520.7450, 20833.00
521.9250, 20819.00
523.1060, 20932.81
524.2860, 21034.06
525.4660, 21073.00
526.6450, 21196.00
527.8250, 21262.00
529.0040, 21226.00
530.1840, 21219.00
531.3630, 21255.00
532.5420, 21318.00
533.7200, 21440.00
534.8990, 21358.00
536.0780, 21443.25
537.2560, 21736.00
538.4340, 21597.00
539.6120, 21753.00
540.7900, 22064.00
541.9680, 21995.79
543.1460, 22143.34
544.3230, 22126.00
545.5000, 22247.00
546.6770, 22343.00
547.8540, 22458.00
549.0310, 22711.00
550.2080, 22763.00
551.3840, 23060.00
552.5610, 23195.00
553.7370, 23254.00
554.9130, 23249.00
556.0890, 23434.00
557.2650, 23427.00
558.4400, 23519.00
559.6160, 23573.00
560.7910, 23777.00
561.9660, 23682.00
563.1410, 23681.00
564.3160, 23976.00
565.4910, 23929.00
566.6650, 23999.00
567.8400, 23845.00
569.0140, 23958.00
570.1880, 24051.00
571.3620, 24084.00
572.5360, 24190.00
573.7090, 24196.00
574.8830, 24236.00
576.0560, 24345.45
577.2290, 24588.00
578.4020, 24727.78
579.5750, 25255.97
580.7480, 25720.99
581.9200, 26125.95
583.0930, 26292.52
584.2650, 26767.01
585.4370, 27117.96
586.6090, 27463.86
587.7810, 27981.74
588.9520, 28182.38
590.1240, 28988.00
591.2950, 29472.00
592.4660, 30500.00
593.6370, 31008.00
594.8080, 32225.00
595.9790, 32922.00
597.1500, 34382.00
598.3200, 35167.75
599.4900, 35904.00
600.6600, 37245.00
601.8300, 38251.00
603.0000, 39866.00
604.1700, 41622.00
605.3390, 42981.14
606.5080, 45794.00
607.6770, 46552.00
608.8460, 49013.00
610.0150, 51744.00
611.1840, 54529.00
612.3520, 58360.00
613.5210, 62511.00
614.6890, 66638.00
615.8570, 71485.00
617.0250, 77759.00
618.1930, 83830.00
619.3600, 91726.00
620.5280, 99730.00
621.6950, 108452.0
622.8620, 117500.0
624.0290, 127149.0
625.1960, 136381.0
626.3630, 143485.0
627.5290, 149769.0
628.6960, 153973.0
629.8620, 155876.0
631.0280, 154238.0
632.1940, 149063.0
633.3600, 142554.0
634.5250, 133460.0
635.6910, 125231.0
636.8560, 115862.0
638.0210, 107335.0
639.1860, 99551.00
640.3510, 93421.00
641.5150, 88706.00
642.6800, 85966.00
643.8440, 84938.27
645.0080, 85986.00
646.1720, 88234.00
647.3360, 91983.00
648.5000, 98203.00
649.6640, 105028.0
650.8270, 113046.0
651.9900, 121864.0
653.1530, 130424.0
654.3160, 139343.0
655.4790, 147679.0
656.6420, 155638.0
657.8040, 161827.0
658.9660, 167439.0
660.1290, 170814.0
661.2910, 173543.0
662.4520, 173172.0
663.6140, 172279.0
664.7760, 170010.0
665.9370, 165031.0
667.0980, 159626.0
668.2590, 152096.0
669.4200, 144314.0
670.5810, 135809.0
671.7420, 127249.0
672.9020, 117785.0
674.0620, 109233.0
675.2220, 101252.0
676.3820, 93406.00
677.5420, 86278.00
678.7020, 79833.00
679.8610, 74284.00
681.0210, 68623.00
682.1800, 63783.00
683.3390, 59508.00
684.4980, 55348.00
685.6560, 52094.00
686.8150, 48904.00
687.9730, 46272.00
689.1320, 43544.00
690.2900, 41620.07
691.4480, 39776.00
692.6050, 38288.00
693.7630, 36615.00
694.9200, 35321.22
696.0780, 34157.00
697.2350, 33049.00
698.3920, 32107.00
699.5490, 31349.00
700.7050, 30809.00
701.8620, 30053.00
703.0180, 29892.00
704.1740, 29349.05
705.3300, 28634.00
706.4860, 28575.51
707.6420, 27995.06
708.7970, 27509.00
709.9530, 27095.00
711.1080, 26907.00
712.2630, 26751.00
713.4180, 26496.00
714.5730, 26383.00
715.7280, 26306.49
716.8820, 26104.00
718.0360, 26199.00
719.1900, 26150.00
720.3440, 26012.00
721.4980, 26051.00
722.6520, 26066.00
723.8050, 25973.00
724.9590, 26171.00
726.1120, 26276.00
727.2650, 26514.00
728.4180, 26697.00
729.5700, 26738.00
730.7230, 27020.00
731.8750, 27018.00
733.0280, 27307.00
734.1800, 27339.00
735.3320, 27619.00
736.4830, 27526.00
737.6350, 27804.00
738.7860, 27964.00
739.9380, 27912.96
741.0890, 27848.00
742.2400, 27936.00
743.3910, 27961.63
744.5410, 28268.00
745.6920, 28217.00
746.8420, 28447.00
747.9920, 28337.53
749.1420, 28260.00
750.2920, 28069.00
751.4420, 27901.00
752.5910, 27754.00
753.7410, 27444.00
754.8900, 27149.00
756.0390, 26958.00
757.1880, 26242.00
758.3370, 26017.00
759.4850, 25258.00
760.6340, 24681.00
761.7820, 24177.00
762.9300, 23601.00
764.0780, 23084.93
765.2260, 22512.00
766.3730, 22139.00
767.5210, 21666.00
768.6680, 21398.00
769.8150, 21154.00
770.9620, 20633.00
772.1090, 20637.00
773.2560, 20289.00
774.4020, 20438.00
775.5490, 20140.00
776.6950, 20094.00
777.8410, 20064.00
778.9870, 19991.00
780.1330, 20015.00
781.2780, 20023.00
782.4230, 20033.48
783.5690, 20134.00
784.7140, 20064.00
785.8590, 19748.70
787.0030, 20034.89
788.1480, 20190.57
789.2920, 20222.77
790.4370, 19761.59
791.5810, 19937.50
792.7250, 19858.10
793.8690, 19768.23
795.0120, 20033.82
796.1560, 19644.41
797.2990, 19904.36
798.4420, 19905.10
799.5850, 20024.48
800.7280, 19886.96
801.8710, 19828.80
803.0130, 20027.61
804.1550, 20084.13
805.2980, 19917.05
806.4400, 19790.00
807.5810, 19669.00
808.7230, 19618.00
809.8650, 19767.00
811.0060, 19913.00
812.1470, 19877.00
813.2880, 19755.00
814.4290, 19998.00
815.5700, 19893.00
816.7110, 20139.00
817.8510, 20172.00
818.9910, 20219.00
820.1310, 20460.00
821.2710, 20280.00
822.4110, 20371.75
823.5510, 20683.95
824.6900, 20896.19
825.8290, 21015.48
826.9680, 20671.96
828.1070, 20996.05
829.2460, 21095.38
830.3850, 21214.79
831.5230, 21719.97
832.6620, 21600.90
833.8000, 22152.00
834.9380, 22281.00
836.0760, 22479.00
837.2130, 22966.00
838.3510, 23532.00
839.4880, 23571.00
840.6250, 24520.00
841.7620, 24882.00
842.8990, 25306.00
844.0360, 26035.00
845.1720, 26828.00
846.3090, 27551.00
847.4450, 28186.00
848.5810, 29332.00
849.7170, 30096.00
850.8530, 31235.00
851.9880, 32807.00
853.1240, 33599.00
854.2590, 34188.00
855.3940, 34569.00
856.5290, 34889.44
857.6640, 34683.00
858.7980, 35114.00
859.9330, 34939.00
861.0670, 34898.00
862.2010, 34135.00
863.3350, 33867.00
864.4690, 32985.00
865.6030, 32484.00
866.7360, 31924.00
867.8690, 31366.00
869.0020, 30664.00
870.1350, 30308.00
871.2680, 30124.00
872.4010, 30024.00
873.5330, 30200.00
874.6660, 30198.00
875.7980, 30550.00
876.9300, 30575.00
878.0620, 31149.00
879.1930, 31948.00
880.3250, 32317.00
881.4560, 33211.00
882.5870, 34025.00
883.7180, 34933.00
884.8490, 35783.00
885.9800, 36851.00
887.1100, 37949.00
888.2410, 39001.00
889.3710, 40262.00
890.5010, 41978.00
891.6310, 43720.00
892.7610, 45579.00
893.8900, 47580.00
895.0200, 50098.00
896.1490, 52457.00
897.2780, 55600.00
898.4070, 58900.00
899.5360, 62735.64
900.6640, 66935.00
901.7920, 71687.00
902.9210, 76852.00
904.0490, 82403.00
905.1770, 88454.00
906.3040, 96151.00
907.4320, 103562.0
908.5600, 112193.0
909.6870, 121719.0
910.8140, 131226.0
911.9410, 141544.0
913.0680, 151855.0
914.1940, 163059.0
915.3210, 173294.0
916.4470, 182946.0
917.5730, 190075.5
918.6990, 199525.1
919.8250, 205358.9
920.9500, 207579.4
922.0760, 206011.8
923.2010, 201205.3
924.3260, 192728.7
925.4510, 186323.0
926.5760, 177173.0
927.7010, 167448.0
928.8250, 157110.0
929.9500, 147225.0
931.0740, 138294.0
932.1980, 129525.0
933.3220, 120310.0
934.4450, 113689.0
935.5690, 106097.0
936.6920, 99105.00
937.8150, 94173.00
938.9380, 88762.00
940.0610, 84566.00
941.1840, 81208.00
942.3060, 77440.00
943.4290, 74609.81
944.5510, 71502.00
945.6730, 69612.00
946.7950, 67734.00
947.9160, 65885.00
949.0380, 64546.00
950.1590, 63398.00
951.2800, 62955.00
952.4010, 62435.00
953.5220, 62063.00
954.6430, 61402.00
955.7630, 60894.00
956.8840, 61250.00
958.0040, 60839.00
959.1240, 60835.00
960.2440, 60639.00
961.3640, 60480.00
962.4830, 60234.00
963.6030, 60057.00
964.7220, 59685.00
965.8410, 59328.00
966.9600, 58862.00
968.0780, 58257.00
969.1970, 57759.00
970.3150, 56853.00
971.4340, 56206.00
972.5520, 56051.00
973.6700, 55465.00
974.7870, 55319.00
975.9050, 55037.00
977.0220, 55150.00
978.1390, 55515.00
979.2560, 55593.00
980.3730, 56002.00
981.4900, 56479.00
982.6070, 57328.00
983.7230, 58191.00
984.8390, 59276.00
985.9550, 60999.00
987.0710, 61947.00
988.1870, 63683.00
989.3030, 65165.00
990.4180, 66490.00
991.5330, 68718.00
992.6480, 70421.00
993.7630, 72431.00
994.8780, 74678.00
995.9930, 76493.00
997.1070, 78470.00
998.2210, 80258.00
999.3350, 81971.57
1000.449, 83571.00
1001.563, 84800.00
1002.677, 85859.00
1003.790, 86151.00
1004.903, 86596.00
1006.016, 86712.00
1007.129, 85944.78
1008.242, 85278.00
1009.355, 83812.00
1010.467, 82782.00
1011.579, 81391.00
1012.691, 79670.00
1013.803, 77670.00
1014.915, 75441.00
1016.027, 73570.70
1017.138, 71587.00
1018.249, 69345.00
1019.360, 67525.00
1020.471, 65082.00
1021.582, 62960.00
1022.693, 60548.00
1023.803, 58666.48
1024.913, 56623.12
1026.023, 54849.00
1027.133, 53489.00
1028.243, 51376.00
1029.353, 51204.00
1030.462, 48354.00
1031.571, 47334.00
1032.680, 46052.00
1033.789, 44185.00
1034.898, 43000.00
1036.007, 42029.00
1037.115, 40950.00
1038.223, 39847.00
1039.331, 38642.00
1040.439, 38240.00
1041.547, 37688.00
1042.655, 36386.00
1043.762, 35536.00
1044.869, 34684.00
1045.976, 34245.00
1047.083, 33580.00
1048.190, 32855.00
1049.297, 32494.00
1050.403, 31749.00
1051.509, 31369.00
1052.615, 30806.32
1053.721, 30365.82
1054.827, 29712.00
1055.933, 29545.00
1057.038, 28966.00
1058.143, 28470.00
1059.248, 28191.00
1060.353, 27817.00
1061.458, 27403.65
1062.563, 27210.00
1063.667, 26754.00
1064.771, 26552.00
1065.875, 26231.72
1066.979, 26038.00
1068.083, 25638.00
1069.186, 25509.00
1070.290, 25225.00
1071.393, 25372.00
1072.496, 24982.00
1073.599, 25166.00
1074.702, 24767.00
1075.804, 24731.00
1076.907, 24430.00
1078.009, 24338.00
1079.111, 24220.00
1080.213, 24035.00
1081.315, 24020.00
1082.416, 23804.00
1083.517, 23702.00
1084.619, 23817.00
1085.720, 23509.00
1086.821, 23299.00
1087.921, 23354.00
1089.022, 23060.00
1090.122, 22838.00
1091.222, 22433.00
1092.322, 22319.00
1093.422, 22189.00
1094.522, 21742.00
1095.622, 21709.00
1096.721, 21247.00
1097.820, 21037.00
1098.919, 20611.00
1100.018, 20265.00
1101.117, 20036.00
1102.215, 19546.00
1103.314, 19323.00
1104.412, 19099.00
1105.510, 18786.00
1106.608, 18611.00
1107.705, 18370.00
1108.803, 18410.00
1109.900, 18268.00
1110.997, 18205.00
1112.094, 18318.00
1113.191, 18145.00
1114.288, 17981.00
1115.384, 17879.00
1116.481, 17931.51
1117.577, 17800.51
1118.673, 18091.00
1119.769, 17795.00
1120.864, 17729.00
1121.960, 17957.00
1123.055, 17562.00
1124.150, 17558.00
1125.245, 17764.00
1126.340, 17763.00
1127.434, 17716.00
1128.529, 17547.00
1129.623, 17600.00
1130.717, 17453.00
1131.811, 17489.12
1132.905, 17581.00
1133.999, 17507.00
1135.092, 17592.00
1136.185, 17498.00
1137.279, 17678.00
1138.371, 17521.00
1139.464, 17548.00
1140.557, 17600.00
1141.649, 17641.00
1142.742, 17432.00
1143.834, 17472.00
1144.926, 17519.00
1146.017, 17298.00
1147.109, 17539.00
1148.200, 17488.02
1149.292, 17549.00
1150.383, 17559.00
1151.474, 17350.00
1152.564, 17292.00
1153.655, 17669.00
1154.745, 17420.00
1155.835, 17604.00
1156.925, 17423.00
1158.015, 17747.00
1159.105, 17596.00
1160.195, 17545.00
1161.284, 17471.00
1162.373, 17359.00
1163.462, 17422.00
1164.551, 17411.00
1165.640, 17232.00
1166.728, 17481.00
1167.817, 17561.00
1168.905, 17795.00
1169.993, 17606.00
1171.081, 17565.00
1172.168, 17524.00
1173.256, 17405.00
1174.343, 17453.79
1175.430, 17365.00
1176.517, 17490.00
1177.604, 17350.53
1178.691, 17640.90
1179.777, 17800.77
1180.864, 17837.14
1181.950, 17380.16
1183.036, 17560.25
1184.121, 17485.04
1185.207, 17399.35
1186.293, 17669.10
1187.378, 17283.88
1188.463, 17548.01
1189.548, 17552.93
1190.633, 17676.48
1191.717, 17543.15
1192.802, 17465.00
1193.886, 17595.00
1194.970, 17421.00
1196.054, 17411.00
1197.138, 17594.00
1198.221, 17566.00
1199.305, 17523.00
1200.388, 17379.00
1201.471, 17527.00
1202.554, 17442.00
1203.637, 17420.00
1204.719, 17439.00
1205.801, 17427.00
1206.884, 17544.00
1207.966, 17397.00
1209.048, 17542.00
1210.129, 17532.00
1211.211, 17467.00
1212.292, 17736.00
1213.373, 17541.88
1214.454, 17647.00
1215.535, 17338.00
1216.616, 17304.00
1217.696, 17222.00
1218.777, 17213.77
1219.857, 17259.24
1220.937, 17401.00
1222.017, 17348.00
1223.096, 17537.00
1224.176, 17469.00
1225.255, 17376.00
1226.334, 17293.00
1227.413, 17530.00
1228.492, 17326.00
1229.570, 17564.00
1230.649, 17343.00
1231.727, 17515.00
1232.805, 17491.00
1233.883, 17578.00
1234.961, 17508.03
1236.038, 17795.00
1237.116, 17338.00
1238.193, 17376.00
1239.270, 17367.00
1240.347, 17605.00
1241.424, 17425.00
1242.500, 17556.00
1243.577, 17506.00
1244.653, 17515.00
1245.729, 17477.00
1246.805, 17376.00
1247.880, 17451.00
1248.956, 17443.00
1250.031, 17536.00
1251.106, 17416.00
1252.181, 17434.00
1253.256, 17596.00
1254.331, 17203.00
1255.405, 17276.00
1256.480, 17368.00
1257.554, 17421.00
1258.628, 17292.00
1259.701, 17552.00
1260.775, 17737.00
1261.849, 17483.00
1262.922, 17544.00
