##NAMES=Gehlenite
##RRUFFID=R060841
##IDEAL CHEMISTRY=Ca_2_Al(SiAl)O_7_
##LOCALITY=Monzoni, Tyrol, Italy
##OWNER=RRUFF
##SOURCE=Michael Scott
##DESCRIPTION=Brown rectangular prism
##STATUS=The identification of this mineral has been confirmed by X-ray diffraction and chemical analysis
##URL=rruff.info/R060841
##MEASURED CHEMISTRY=(Ca_1.92_Na_0.07_K_0.01_)_Σ=2_(Al_0.62_Mg_0.25_Fe^2+^_0.13_)_Σ=1_(Si_1.46_Al_0.54_)O_7_ ; = lighter phase, and the darker phase is calcite
##PIN_ID=L01166
##ORIENTATION=Laser parallel to c* (0 0 1). Fiducial mark perpendicular to laser is parallel to b [0 1 0]
177.7810, 20479.00
179.0090, 20508.72
180.2370, 20583.00
181.4640, 20755.00
182.6920, 20919.00
183.9190, 21238.00
185.1460, 21302.73
186.3730, 21187.00
187.6000, 21522.00
188.8270, 21552.00
190.0530, 21667.00
191.2800, 21815.00
192.5060, 21989.00
193.7320, 22269.00
194.9580, 22272.00
196.1830, 22531.00
197.4090, 22590.00
198.6340, 22705.00
199.8590, 22902.00
201.0840, 22842.00
202.3090, 22890.44
203.5340, 22879.00
204.7580, 22810.00
205.9820, 22561.00
207.2060, 22494.00
208.4300, 22422.00
209.6540, 22483.00
210.8780, 22673.00
212.1010, 22828.00
213.3240, 23000.00
214.5470, 23061.00
215.7700, 23199.43
216.9930, 23299.00
218.2150, 23375.00
219.4380, 23525.00
220.6600, 23570.00
221.8820, 23751.00
223.1040, 23960.00
224.3260, 24322.00
225.5470, 24491.00
226.7680, 24826.00
227.9900, 24835.00
229.2110, 24941.00
230.4310, 24972.00
231.6520, 25428.00
232.8720, 25423.00
234.0930, 25771.00
235.3130, 25569.00
236.5330, 25745.00
237.7530, 25473.00
238.9720, 25551.00
240.1920, 25357.00
241.4110, 25226.00
242.6300, 25287.00
243.8490, 25275.00
245.0680, 24981.00
246.2860, 25169.00
247.5040, 25116.00
248.7230, 24734.00
249.9410, 24724.00
251.1590, 24823.00
252.3760, 24713.00
253.5940, 24711.00
254.8110, 24592.00
256.0280, 24164.95
257.2450, 24278.65
258.4620, 24311.11
259.6790, 24266.69
260.8950, 23915.16
262.1120, 23960.21
263.3280, 23846.36
264.5440, 23726.00
265.7600, 23826.93
266.9750, 23834.00
268.1910, 23608.00
269.4060, 23797.00
270.6210, 23655.00
271.8360, 23616.00
273.0510, 23555.00
274.2650, 23770.00
275.4800, 23590.00
276.6940, 23745.00
277.9080, 23754.00
279.1220, 23845.00
280.3360, 23919.00
281.5490, 23679.00
282.7630, 23687.00
283.9760, 23725.00
285.1890, 23713.00
286.4020, 23730.00
287.6150, 23592.00
288.8270, 23523.00
290.0400, 23724.00
291.2520, 23663.00
292.4640, 23785.00
293.6760, 23623.00
294.8870, 23648.00
296.0990, 23719.00
297.3100, 23966.00
298.5210, 23829.00
299.7320, 23839.00
300.9430, 24102.00
302.1540, 24040.00
303.3640, 23988.00
304.5750, 23905.00
305.7850, 24188.00
306.9950, 24261.00
308.2050, 24078.00
309.4140, 24306.00
310.6240, 24226.00
311.8330, 24194.00
313.0420, 24158.12
314.2510, 23754.00
315.4600, 23969.00
316.6680, 23738.00
317.8770, 23722.00
319.0850, 23789.00
320.2930, 23750.00
321.5010, 23702.00
322.7090, 23813.00
323.9160, 23828.00
325.1240, 23686.00
326.3310, 23631.00
327.5380, 23699.00
328.7450, 23685.98
329.9520, 23938.00
331.1580, 23866.00
332.3650, 23834.00
333.5710, 24015.00
334.7770, 23903.00
335.9830, 23968.00
337.1880, 23910.00
338.3940, 23814.00
339.5990, 24022.00
340.8040, 24024.00
342.0090, 23902.00
343.2140, 24008.00
344.4190, 24102.00
345.6230, 23913.00
346.8280, 24198.00
348.0320, 24070.00
349.2360, 23847.00
350.4400, 23925.00
351.6430, 24115.00
352.8470, 23902.00
354.0500, 23924.00
355.2530, 23962.00
356.4560, 23864.00
357.6590, 23904.00
358.8620, 23779.19
360.0640, 23715.00
361.2660, 23599.00
362.4680, 23530.00
363.6700, 23583.00
364.8720, 23574.00
366.0740, 23345.00
367.2750, 23182.00
368.4760, 23226.00
369.6770, 23170.00
370.8780, 23160.00
372.0790, 22957.00
373.2800, 22985.00
374.4800, 22903.00
375.6800, 22925.00
376.8800, 22810.00
378.0800, 22692.00
379.2800, 22772.00
380.4790, 22713.00
381.6790, 22640.00
382.8780, 22666.00
384.0770, 22797.00
385.2760, 22797.00
386.4750, 22657.00
387.6730, 22842.00
388.8720, 22651.00
390.0700, 22755.00
391.2680, 22675.00
392.4660, 22793.00
393.6630, 22759.00
394.8610, 22745.31
396.0580, 22701.00
397.2550, 22681.00
398.4520, 22597.00
399.6490, 22510.00
400.8460, 22558.00
402.0420, 22725.00
403.2390, 22698.00
404.4350, 22789.84
405.6310, 22543.00
406.8270, 22826.00
408.0220, 22847.00
409.2180, 22725.00
410.4130, 22917.00
411.6080, 22883.00
412.8030, 23004.00
413.9980, 23057.00
415.1920, 22921.00
416.3870, 23035.00
417.5810, 22979.00
418.7750, 23264.00
419.9690, 23407.00
421.1630, 23366.00
422.3570, 23372.00
423.5500, 23726.00
424.7430, 23539.00
425.9360, 23736.00
427.1290, 23856.00
428.3220, 23797.00
429.5150, 23963.00
430.7070, 24035.00
431.8990, 24146.00
433.0910, 24080.00
434.2830, 24188.00
435.4750, 24354.00
436.6670, 24111.00
437.8580, 23985.00
439.0490, 24149.00
440.2400, 23955.00
441.4310, 24264.00
442.6220, 24204.00
443.8130, 24149.00
445.0030, 24253.00
446.1930, 24267.00
447.3830, 24353.00
448.5730, 24305.00
449.7630, 24323.00
450.9520, 24546.00
452.1420, 24413.81
453.3310, 24712.57
454.5200, 24930.07
455.7090, 25070.70
456.8980, 24904.17
458.0860, 25134.17
459.2740, 25205.22
460.4630, 25269.85
461.6510, 25555.67
462.8380, 25433.62
464.0260, 25620.00
465.2140, 25744.00
466.4010, 25771.00
467.5880, 25932.00
468.7750, 26241.00
469.9620, 26149.00
471.1490, 26290.00
472.3350, 26517.00
473.5220, 26318.00
474.7080, 26859.00
475.8940, 26626.00
477.0800, 26981.00
478.2650, 26873.00
479.4510, 26863.00
480.6360, 27119.00
481.8210, 27116.00
483.0060, 26947.00
484.1910, 26864.00
485.3760, 27017.00
486.5600, 26902.19
487.7440, 26798.00
488.9290, 26870.00
490.1130, 26819.00
491.2960, 26742.00
492.4800, 26721.00
493.6630, 26658.00
494.8470, 26627.00
496.0300, 26727.00
497.2130, 26483.00
498.3960, 26451.00
499.5780, 26598.00
500.7610, 26641.00
501.9430, 26836.00
503.1250, 26602.00
504.3070, 26805.00
505.4890, 27091.00
506.6710, 26912.00
507.8520, 27116.00
509.0330, 27187.00
510.2140, 27406.00
511.3950, 27442.00
512.5760, 27700.00
513.7570, 27794.00
514.9370, 27831.00
516.1170, 27823.00
517.2980, 27980.00
518.4780, 28013.00
519.6570, 28127.96
520.8370, 28311.00
522.0160, 28356.00
523.1960, 28348.00
524.3750, 28431.00
525.5540, 28355.27
526.7320, 28314.00
527.9110, 28205.00
529.0890, 28225.00
530.2680, 28128.00
531.4460, 28011.00
532.6240, 28005.00
533.8010, 27820.00
534.9790, 27673.00
536.1560, 28022.00
537.3340, 27823.00
538.5110, 27760.00
539.6880, 27765.00
540.8650, 27523.00
542.0410, 27634.00
543.2180, 27387.00
544.3940, 27448.00
545.5700, 27458.00
546.7460, 27382.00
547.9220, 27420.00
549.0970, 27314.00
550.2730, 27323.00
551.4480, 27271.00
552.6230, 27204.00
553.7980, 27253.00
554.9730, 27139.00
556.1470, 27125.00
557.3210, 27337.00
558.4960, 27199.00
559.6700, 27276.00
560.8440, 27468.00
562.0170, 27443.00
563.1910, 27519.12
564.3640, 27672.00
565.5380, 27547.00
566.7110, 27577.00
567.8840, 27568.00
569.0560, 27668.00
570.2290, 27546.00
571.4010, 27509.00
572.5740, 27580.00
573.7460, 27556.00
574.9180, 27601.00
576.0890, 27739.00
577.2610, 27751.00
578.4320, 27969.00
579.6040, 27709.00
580.7750, 27765.00
581.9450, 28215.00
583.1160, 28273.00
584.2870, 28570.00
585.4570, 28640.00
586.6270, 28716.00
587.7980, 29209.00
588.9670, 29485.00
590.1370, 29930.00
591.3070, 30232.00
592.4760, 30669.00
593.6450, 31356.00
594.8140, 32021.00
595.9830, 32424.00
597.1520, 33564.00
598.3210, 34277.00
599.4890, 34870.00
600.6570, 36244.00
601.8250, 37375.00
602.9930, 38706.00
604.1610, 40188.00
605.3290, 41573.00
606.4960, 43183.00
607.6630, 44856.00
608.8300, 46772.00
609.9970, 48557.00
611.1640, 49866.00
612.3300, 51715.00
613.4970, 52893.00
614.6630, 53573.00
615.8290, 54225.00
616.9950, 54448.00
618.1610, 54020.00
619.3260, 53459.00
620.4920, 52256.00
621.6570, 51429.00
622.8220, 49977.00
623.9870, 49146.00
625.1520, 47557.00
626.3160, 46632.00
627.4810, 46066.00
628.6450, 44926.00
629.8090, 44229.00
630.9730, 43488.00
632.1370, 43181.00
633.3000, 42187.00
634.4640, 41708.00
635.6270, 41139.00
636.7900, 40242.00
637.9530, 39560.00
639.1160, 38970.00
640.2780, 38553.00
641.4410, 37883.00
642.6030, 37574.00
643.7650, 37289.00
644.9270, 37485.00
646.0890, 37728.00
647.2500, 38351.00
648.4120, 39235.00
649.5730, 40447.00
650.7340, 41760.00
651.8950, 43399.00
653.0560, 44902.00
654.2160, 46626.00
655.3770, 48082.00
656.5370, 48822.00
657.6970, 49831.00
658.8570, 50070.00
660.0170, 49796.00
661.1760, 49440.00
662.3360, 48867.00
663.4950, 47816.00
664.6540, 46335.00
665.8130, 45238.00
666.9720, 43972.00
668.1310, 42609.00
669.2890, 41228.00
670.4470, 40205.00
671.6050, 38952.00
672.7630, 38196.00
673.9210, 36821.00
675.0790, 35956.00
676.2360, 35445.00
677.3930, 34816.00
678.5510, 34300.00
679.7080, 33574.00
680.8640, 32895.00
682.0210, 32534.00
683.1770, 32191.00
684.3340, 31747.00
685.4900, 31344.00
686.6460, 31302.00
687.8020, 30900.00
688.9570, 30851.00
690.1130, 30585.89
691.2680, 30321.00
692.4230, 30115.00
693.5780, 29951.00
694.7330, 29729.00
695.8880, 29606.24
697.0420, 29486.00
698.1960, 29380.00
699.3510, 29282.00
700.5040, 29222.00
701.6580, 29128.00
702.8120, 28879.00
703.9650, 28980.00
705.1190, 28930.00
706.2720, 28593.00
707.4250, 28828.00
708.5780, 28471.00
709.7300, 28459.00
710.8830, 28180.00
712.0350, 28228.00
713.1870, 28005.00
714.3390, 27846.00
715.4910, 27966.00
716.6430, 27811.00
717.7940, 27789.00
718.9460, 27846.00
720.0970, 27613.00
721.2480, 27944.00
722.3990, 28034.00
723.5500, 27981.00
724.7000, 28227.00
725.8500, 28255.00
727.0010, 28482.00
728.1510, 28384.00
729.3010, 28344.00
730.4500, 28519.00
731.6000, 28275.00
732.7490, 28356.00
733.8980, 28280.00
735.0470, 28201.00
736.1960, 28027.00
737.3450, 28004.00
738.4940, 27482.70
739.6420, 27537.18
740.7900, 27510.42
741.9380, 27406.77
743.0860, 26995.96
744.2340, 26981.78
745.3810, 26808.77
746.5290, 26629.12
747.6760, 26670.88
748.8230, 26304.87
749.9700, 26343.12
751.1170, 26292.00
752.2630, 26253.00
753.4100, 26199.00
754.5560, 26180.12
755.7020, 26468.00
756.8480, 26154.00
757.9940, 26195.00
759.1390, 26257.00
760.2850, 26008.00
761.4300, 26279.00
762.5750, 26343.00
763.7200, 26262.00
764.8650, 25981.00
766.0100, 25844.00
767.1540, 26109.00
768.2980, 26222.00
769.4420, 26042.00
770.5860, 26136.00
771.7300, 26208.00
772.8740, 26345.00
774.0170, 26276.00
775.1610, 26251.00
776.3040, 26400.00
777.4470, 26488.00
778.5900, 26560.00
779.7320, 26607.00
780.8750, 26552.00
782.0170, 26527.00
783.1590, 26687.00
784.3010, 26921.00
785.4430, 27200.00
786.5850, 27020.00
787.7260, 27322.00
788.8680, 27422.00
790.0090, 27579.00
791.1500, 27876.00
792.2910, 27864.00
793.4310, 28175.00
794.5720, 28493.00
795.7120, 28606.00
796.8520, 28685.00
797.9920, 29080.00
799.1320, 29126.00
800.2720, 29348.00
801.4120, 29442.00
802.5510, 29455.67
803.6900, 29626.00
804.8290, 29540.00
805.9680, 29483.00
807.1070, 29707.00
808.2450, 29645.00
809.3840, 29688.00
810.5220, 29681.00
811.6600, 29966.00
812.7980, 30069.00
813.9360, 30152.00
815.0730, 30060.00
816.2110, 30120.00
817.3480, 30105.00
818.4850, 30294.00
819.6220, 30212.00
820.7590, 30334.00
821.8960, 30130.00
823.0320, 30681.00
824.1680, 30359.00
825.3040, 30655.00
826.4400, 30963.00
827.5760, 30909.00
828.7120, 31009.00
829.8470, 31265.00
830.9830, 31233.00
832.1180, 31596.00
833.2530, 31470.00
834.3880, 32067.00
835.5220, 32184.00
836.6570, 32430.00
837.7910, 32570.00
838.9250, 32832.77
840.0590, 33159.00
841.1930, 33407.00
842.3270, 33639.00
843.4600, 33874.08
844.5940, 34048.00
845.7270, 34252.00
846.8600, 34425.00
847.9930, 34558.00
849.1250, 34870.00
850.2580, 34972.00
851.3900, 35234.07
852.5230, 35332.00
853.6550, 35677.00
854.7870, 35798.00
855.9180, 35940.00
857.0500, 35937.00
858.1810, 36091.00
859.3130, 36354.00
860.4440, 36539.00
861.5750, 36535.00
862.7050, 36535.00
863.8360, 36512.00
864.9660, 36585.00
866.0970, 36602.00
867.2270, 36662.00
868.3570, 36639.42
869.4870, 36640.00
870.6160, 36524.00
871.7460, 36446.00
872.8750, 36267.00
874.0040, 36162.00
875.1330, 35973.00
876.2620, 36214.00
877.3910, 36029.00
878.5190, 36286.00
879.6470, 36242.00
880.7760, 36354.00
881.9040, 36732.00
883.0310, 37013.00
884.1590, 37658.00
885.2870, 37699.00
886.4140, 38372.00
887.5410, 38915.00
888.6680, 39153.00
889.7950, 39637.00
890.9220, 40108.00
892.0480, 40567.00
893.1750, 41253.00
894.3010, 41896.00
895.4270, 42841.00
896.5530, 42987.00
897.6790, 43696.00
898.8040, 44110.00
899.9300, 45157.68
901.0550, 46757.00
902.1800, 47245.00
903.3050, 47637.00
904.4300, 48078.00
905.5540, 48516.00
906.6790, 48593.63
907.8030, 48665.24
908.9270, 48536.00
910.0510, 48334.00
911.1750, 47960.00
912.2990, 47530.00
913.4220, 47012.00
914.5450, 46632.00
915.6690, 46224.00
916.7920, 45867.00
917.9140, 45139.00
919.0370, 45035.00
920.1600, 44856.00
921.2820, 44900.00
922.4040, 44800.00
923.5260, 45044.00
924.6480, 44946.00
925.7700, 45066.00
926.8910, 45139.00
928.0130, 45064.00
929.1340, 45021.00
930.2550, 44741.00
931.3760, 44355.00
932.4970, 44043.00
933.6170, 43184.00
934.7380, 42704.00
935.8580, 41860.00
936.9780, 41172.00
938.0980, 40596.00
939.2180, 39866.00
940.3370, 39275.00
941.4570, 38739.00
942.5760, 38366.00
943.6950, 37885.96
944.8140, 37572.47
945.9330, 37193.00
947.0520, 37009.00
948.1700, 36750.53
949.2890, 36658.00
950.4070, 36407.00
951.5250, 36269.00
952.6430, 36192.00
953.7600, 35903.00
954.8780, 35777.00
955.9950, 35605.00
957.1120, 35563.00
958.2290, 35371.00
959.3460, 35309.00
960.4630, 34810.00
961.5800, 34637.00
962.6960, 34676.00
963.8120, 34311.00
964.9280, 34274.00
966.0440, 34176.00
967.1600, 33799.00
968.2760, 33682.00
969.3910, 33802.00
970.5060, 33633.00
971.6210, 34658.00
972.7360, 34319.00
973.8510, 34030.00
974.9660, 33354.00
976.0800, 33323.00
977.1950, 33280.00
978.3090, 33337.00
979.4230, 33096.00
980.5370, 33120.00
981.6500, 33065.00
982.7640, 33129.00
983.8770, 32715.00
984.9900, 32988.00
986.1030, 32394.00
987.2160, 32684.00
988.3290, 32727.00
989.4420, 32609.00
990.5540, 32563.00
991.6660, 32362.00
992.7780, 32229.00
993.8900, 32147.00
995.0020, 32180.00
996.1140, 32192.00
997.2250, 32083.00
998.3360, 31932.00
999.4470, 31955.00
1000.558, 31870.00
1001.669, 31969.00
1002.780, 31727.00
1003.890, 31807.00
1005.001, 31386.00
1006.111, 31401.00
1007.221, 31553.00
1008.331, 31637.00
1009.440, 31601.00
1010.550, 31494.00
1011.659, 31553.00
1012.768, 31401.00
1013.877, 31568.00
1014.986, 31448.00
1016.095, 31513.00
1017.204, 31326.00
1018.312, 31670.00
1019.420, 31397.00
1020.528, 31219.00
1021.636, 31539.00
1022.744, 31466.00
1023.852, 31595.00
1024.959, 31539.02
1026.066, 31340.00
1027.173, 31270.00
1028.280, 31281.00
1029.387, 31052.00
1030.494, 31355.00
1031.600, 31490.00
1032.707, 31258.00
1033.813, 31159.00
1034.919, 31376.00
1036.025, 31227.00
1037.130, 31460.00
1038.236, 31453.00
1039.341, 31340.00
1040.446, 31528.00
1041.552, 31293.00
1042.656, 31352.00
1043.761, 31266.00
1044.866, 31269.00
1045.970, 31286.28
1047.074, 31293.59
1048.179, 31350.00
1049.282, 31315.00
1050.386, 31415.00
1051.490, 31293.00
1052.593, 31191.00
1053.697, 31360.00
1054.800, 31476.00
1055.903, 31372.00
1057.006, 31419.93
1058.108, 31256.00
1059.211, 31312.00
1060.313, 31302.00
1061.415, 31123.45
1062.517, 31312.97
1063.619, 31421.24
1064.721, 31452.62
1065.823, 31176.85
1066.924, 31297.70
1068.025, 31259.61
1069.126, 31214.99
1070.227, 31391.67
1071.328, 31160.57
1072.429, 31333.74
1073.529, 31345.53
1074.629, 31431.17
1075.729, 31356.88
1076.829, 31331.99
1077.929, 31467.09
1079.029, 31513.60
1080.128, 31420.90
1081.228, 31511.24
1082.327, 31274.55
1083.426, 31324.83
1084.525, 31498.92
1085.623, 31414.26
1086.722, 31507.52
1087.820, 31533.02
1088.919, 31250.56
1090.017, 31503.67
1091.115, 31525.16
1092.212, 31308.83
1093.310, 31543.58
1094.407, 31360.04
1095.505, 31325.81
1096.602, 31403.93
1097.699, 31364.92
1098.795, 31510.58
1099.892, 31478.34
1100.989, 31430.20
1102.085, 31451.42
1103.181, 31276.08
1104.277, 31465.41
1105.373, 31405.63
1106.469, 31469.68
1107.564, 31020.00
1108.660, 31568.00
1109.755, 31446.00
1110.850, 31637.00
1111.945, 31279.00
1113.040, 31415.00
1114.134, 31492.00
1115.229, 31426.00
1116.323, 31567.00
1117.417, 31721.00
1118.511, 31538.00
1119.605, 31699.00
1120.698, 31525.00
1121.792, 31712.00
1122.885, 31879.00
1123.978, 31623.00
1125.071, 31698.00
1126.164, 31767.00
1127.257, 31761.00
1128.349, 31778.00
1129.442, 31811.00
1130.534, 31795.00
1131.626, 31857.00
1132.718, 31740.00
1133.810, 31687.00
1134.901, 31754.72
1135.993, 31909.00
1137.084, 31847.00
1138.175, 31824.00
1139.266, 31825.00
1140.357, 32058.00
1141.448, 31795.00
1142.538, 32148.00
1143.628, 32144.00
1144.719, 32018.00
1145.809, 32008.00
1146.898, 31892.00
1147.988, 32052.00
1149.078, 32082.00
1150.167, 32211.00
1151.256, 32435.00
1152.345, 32110.00
1153.434, 32261.00
1154.523, 32327.00
1155.612, 32160.00
1156.700, 32179.00
1157.788, 32445.00
1158.877, 32353.00
1159.964, 32458.00
1161.052, 32514.00
1162.140, 32408.00
1163.227, 32498.21
1164.315, 32480.00
1165.402, 32529.00
1166.489, 32582.00
1167.576, 32588.00
1168.663, 32624.00
1169.749, 32522.00
1170.836, 32592.00
1171.922, 32893.00
1173.008, 32642.00
1174.094, 32807.00
1175.180, 32805.00
1176.265, 32658.00
1177.351, 32552.00
1178.436, 32858.00
1179.521, 32782.00
1180.606, 32868.00
1181.691, 32890.00
1182.776, 32895.00
1183.860, 32869.00
1184.944, 33153.00
1186.029, 32847.00
1187.113, 32987.00
1188.197, 33322.00
1189.280, 33037.73
1190.364, 33233.00
1191.447, 32878.00
1192.531, 33167.00
1193.614, 33281.00
1194.697, 33263.00
1195.779, 33333.00
1196.862, 33285.00
1197.945, 33289.00
1199.027, 33047.00
1200.109, 32991.00
1201.191, 33222.00
1202.273, 33162.00
1203.355, 33574.00
1204.436, 33433.00
1205.518, 33427.00
1206.599, 33323.00
1207.680, 33327.40
1208.761, 33346.75
1209.842, 33349.00
1210.922, 33540.00
1212.003, 33550.00
1213.083, 33876.00
1214.163, 33882.00
1215.243, 33607.00
1216.323, 33720.00
1217.402, 33555.00
1218.482, 33684.00
1219.561, 33809.00
1220.641, 33792.00
1221.720, 34001.00
1222.798, 34019.71
1223.877, 33771.00
1224.956, 34025.00
1226.034, 33955.00
1227.112, 33703.00
1228.191, 34041.00
1229.269, 33886.00
1230.346, 33766.00
1231.424, 33874.00
1232.501, 33777.00
1233.579, 34054.00
1234.656, 34085.00
1235.733, 33978.00
1236.810, 34342.00
1237.886, 34052.00
1238.963, 33850.00
1240.039, 34269.00
1241.116, 34118.00
1242.192, 34224.00
1243.268, 34175.00
1244.343, 34284.00
1245.419, 34395.00
1246.494, 34289.00
1247.570, 34475.00
1248.645, 34456.00
1249.720, 34640.00
1250.795, 34518.00
1251.869, 34567.00
1252.944, 34326.00
1254.018, 34643.00
1255.093, 34655.00
1256.167, 34690.00
1257.240, 34396.00
1258.314, 34498.00
1259.388, 34513.00
1260.461, 34903.00
1261.535, 34752.00
1262.608, 34604.00
1263.681, 34621.00
1264.753, 34550.00
1265.826, 34841.00
1266.899, 34715.00
1267.971, 35075.00
1269.043, 34898.00
1270.115, 34692.00
1271.187, 34981.00
1272.259, 34837.00
1273.330, 34694.00
1274.402, 35034.00
1275.473, 35101.00
1276.544, 34881.00
1277.615, 34979.00
1278.686, 34830.00
1279.756, 34870.00
1280.827, 35090.00
1281.897, 35103.00
1282.967, 34927.00
1284.037, 35079.00
1285.107, 34974.00
1286.177, 35284.00
1287.247, 35360.00
1288.316, 35334.00
1289.385, 35416.00
1290.454, 35466.00
1291.523, 35353.00
1292.592, 35480.00
1293.661, 35641.00
1294.729, 35397.00
1295.797, 35742.00
1296.866, 35541.00
1297.934, 35653.00
1299.001, 35577.00
1300.069, 35704.00
1301.137, 35878.00
1302.204, 35790.00
1303.271, 35751.00
1304.338, 35679.00
1305.405, 35832.00
1306.472, 35945.00
1307.539, 35903.00
1308.605, 35988.00
1309.671, 35859.00
1310.737, 36075.00
1311.803, 35975.00
1312.869, 36085.00
1313.935, 36196.00
1315.000, 35864.00
1316.066, 36303.00
1317.131, 35978.00
1318.196, 35933.00
1319.261, 36262.00
1320.326, 36190.00
1321.390, 36556.00
1322.455, 36402.00
1323.519, 36421.00
1324.583, 36499.00
1325.647, 36383.00
1326.711, 36519.00
1327.775, 36461.00
1328.838, 36499.00
1329.902, 36355.00
1330.965, 36670.00
1332.028, 36515.00
1333.091, 36633.45
1334.153, 36708.81
1335.216, 36713.00
1336.279, 36846.00
1337.341, 36750.00
1338.403, 36890.00
1339.465, 36814.00
1340.527, 36740.00
1341.588, 37024.00
1342.650, 36876.00
1343.711, 36847.00
