##NAMES=Gehlenite
##RRUFFID=R061091
##IDEAL CHEMISTRY=Ca_2_Al(SiAl)O_7_
##LOCALITY=Carneal Plug, Glenoe Larne District, County Antrim, Northern Ireland
##OWNER=RRUFF
##SOURCE=Michael Scott
##DESCRIPTION=Yellowish-brown anhedral blebs associated with black magnetite and white wollastonite
##STATUS=The identification of this mineral is confirmed by single-crystal X-ray diffraction and chemical analysis.
##URL=rruff.info/R061091
##MEASURED CHEMISTRY=(Ca_1.64_Na_0.36_)_Σ=2_(Al_0.38_Fe_0.36_Mg_0.26_)_Σ=1_(Si_1.98_Al_0.02_)_Σ=2_O_7_
##PIN_ID=M01302
##ORIENTATION=Laser parallel to a* (1 0 0). Fiducial mark perpendicular to laser is parallel to -c [0 0 -1]
104.7500, 41048.00
105.9810, 41161.00
107.2110, 41653.00
108.4410, 41597.00
109.6700, 41923.00
110.9000, 38556.00
112.1300, 38524.00
113.3590, 38735.00
114.5880, 38885.00
115.8170, 39637.00
117.0460, 40657.00
118.2750, 40455.00
119.5040, 40264.00
120.7320, 43963.00
121.9610, 50128.00
123.1890, 54062.00
124.4170, 55265.00
125.6450, 47687.00
126.8730, 39672.00
128.1010, 35582.00
129.3280, 34373.00
130.5560, 33783.00
131.7830, 33146.00
133.0100, 32833.99
134.2380, 32902.93
135.4640, 32916.22
136.6910, 32876.72
137.9180, 32489.00
139.1440, 32331.00
140.3710, 32024.00
141.5970, 31609.00
142.8230, 31432.00
144.0490, 31117.00
145.2750, 30888.36
146.5000, 30890.29
147.7260, 30836.37
148.9510, 30729.81
150.1770, 30412.41
151.4020, 30367.24
152.6270, 30213.01
153.8520, 30054.31
155.0760, 30047.53
156.3010, 29760.89
157.5250, 29751.71
158.7500, 29631.71
159.9740, 29562.48
161.1980, 29383.54
162.4220, 29136.58
163.6450, 29280.27
164.8690, 29368.22
166.0920, 29403.41
167.3160, 29227.89
168.5390, 29324.47
169.7620, 29312.00
170.9850, 29295.05
172.2080, 29429.93
173.4300, 29285.03
174.6530, 29417.50
175.8750, 29439.24
177.0970, 29511.65
178.3190, 29474.34
179.5410, 29470.92
180.7630, 29577.25
181.9850, 29622.82
183.2060, 29572.86
184.4270, 29648.48
185.6490, 29499.75
186.8700, 29547.88
188.0910, 29680.97
189.3110, 29636.51
190.5320, 29615.29
191.7530, 29650.05
192.9730, 29670.00
194.1930, 29776.00
195.4130, 29744.00
196.6330, 29797.00
197.8530, 29905.00
199.0730, 29915.54
200.2920, 30226.34
201.5120, 30481.54
202.7310, 30683.84
203.9500, 30675.42
205.1690, 30939.12
206.3880, 31093.76
207.6070, 31525.00
208.8250, 31959.00
210.0440, 32670.00
211.2620, 32921.00
212.4800, 33435.00
213.6980, 33727.00
214.9160, 34042.00
216.1340, 34678.00
217.3510, 35247.00
218.5690, 35616.00
219.7860, 35896.00
221.0030, 36190.90
222.2200, 36141.00
223.4370, 36425.00
224.6540, 36492.00
225.8700, 36304.00
227.0870, 36304.00
228.3030, 36134.00
229.5190, 36000.00
230.7350, 35587.00
231.9510, 35186.00
233.1670, 35060.00
234.3820, 34744.00
235.5980, 34129.00
236.8130, 33895.00
238.0280, 33248.00
239.2430, 32788.10
240.4580, 32734.37
241.6730, 32573.44
242.8880, 32311.08
244.1020, 31643.72
245.3160, 31298.00
246.5300, 30993.00
247.7450, 30705.00
248.9580, 30437.15
250.1720, 30209.40
251.3860, 30062.00
252.5990, 29836.00
253.8130, 29674.00
255.0260, 29491.13
256.2390, 29218.00
257.4520, 29134.00
258.6640, 28987.00
259.8770, 28817.00
261.0890, 28566.00
262.3020, 28372.00
263.5140, 28323.00
264.7260, 27977.00
265.9380, 27754.57
267.1500, 27941.93
268.3610, 28022.14
269.5730, 28000.86
270.7840, 27574.38
271.9950, 27671.20
273.2060, 27558.31
274.4170, 27436.81
275.6280, 27607.28
276.8390, 27239.74
278.0490, 27405.63
279.2590, 27490.00
280.4690, 27355.00
281.6800, 27385.00
282.8890, 27492.00
284.0990, 27332.00
285.3090, 27518.00
286.5180, 27614.00
287.7280, 27535.00
288.9370, 27556.00
290.1460, 27999.00
291.3550, 28042.00
292.5630, 28096.00
293.7720, 28330.02
294.9800, 28377.27
296.1890, 28479.00
297.3970, 28652.00
298.6050, 28497.00
299.8130, 28700.00
301.0200, 28857.00
302.2280, 28768.00
303.4360, 28725.00
304.6430, 28642.00
305.8500, 28312.00
307.0570, 27986.00
308.2640, 27956.00
309.4710, 27636.00
310.6770, 27356.00
311.8840, 26917.00
313.0900, 26766.00
314.2960, 26632.00
315.5020, 26046.00
316.7080, 25676.00
317.9140, 25512.00
319.1190, 25246.00
320.3250, 24804.00
321.5300, 24811.00
322.7350, 24347.00
323.9400, 24175.00
325.1450, 23668.00
326.3500, 23475.00
327.5540, 23531.00
328.7580, 23110.00
329.9630, 22964.00
331.1670, 22830.15
332.3710, 22524.00
333.5750, 22479.00
334.7780, 22311.00
335.9820, 22045.00
337.1850, 21871.00
338.3880, 21722.00
339.5920, 21624.00
340.7950, 21608.62
341.9970, 21370.04
343.2000, 21230.74
344.4030, 21018.00
345.6050, 20841.00
346.8070, 20700.08
348.0090, 20521.15
349.2110, 20419.00
350.4130, 20272.00
351.6150, 20142.00
352.8160, 20145.00
354.0170, 20205.00
355.2190, 19906.00
356.4200, 19938.00
357.6210, 19765.00
358.8210, 19680.00
360.0220, 19529.65
361.2220, 19181.01
362.4230, 19339.08
363.6230, 19390.03
364.8230, 19339.54
366.0230, 18883.79
367.2230, 18951.35
368.4220, 18809.26
369.6220, 18658.50
370.8210, 18799.78
372.0200, 18403.05
373.2190, 18539.70
374.4180, 18463.44
375.6170, 18484.62
376.8150, 18294.86
378.0140, 18170.21
379.2120, 18256.00
380.4100, 18190.00
381.6080, 18017.00
382.8060, 18113.00
384.0040, 18036.00
385.2010, 17994.19
386.3980, 18051.00
387.5960, 17998.00
388.7930, 17906.00
389.9900, 18055.00
391.1870, 18017.00
392.3830, 17911.00
393.5800, 17983.00
394.7760, 18035.00
395.9720, 17919.00
397.1680, 17956.00
398.3640, 17907.00
399.5600, 17970.00
400.7560, 17955.00
401.9510, 18172.00
403.1460, 17808.73
404.3420, 17993.31
405.5370, 18122.11
406.7320, 18198.15
407.9260, 18063.42
409.1210, 18200.85
410.3150, 18229.18
411.5100, 18253.08
412.7040, 18428.76
413.8980, 18384.00
415.0920, 18310.00
416.2850, 18437.00
417.4790, 18558.00
418.6720, 18482.00
419.8650, 18836.00
421.0590, 18886.00
422.2510, 18985.00
423.4440, 19133.00
424.6370, 19451.00
425.8290, 19716.00
427.0220, 20074.00
428.2140, 20363.48
429.4060, 20787.00
430.5980, 20848.00
431.7900, 21513.00
432.9810, 21498.00
434.1730, 21808.00
435.3640, 22494.00
436.5550, 22785.00
437.7460, 23317.00
438.9370, 23846.00
440.1280, 24432.00
441.3190, 25152.00
442.5090, 25807.00
443.6990, 26519.00
444.8890, 27262.00
446.0790, 28003.78
447.2690, 28641.00
448.4590, 29314.00
449.6480, 30336.00
450.8380, 30357.81
452.0270, 30576.88
453.2160, 30740.19
454.4050, 30850.76
455.5940, 30750.60
456.7820, 30922.47
457.9710, 30985.37
459.1590, 30867.12
460.3470, 30630.05
461.5350, 30631.00
462.7230, 30482.00
463.9110, 30280.00
465.0990, 30255.00
466.2860, 29984.00
467.4730, 29981.00
468.6600, 30081.00
469.8470, 30331.00
471.0340, 30477.00
472.2210, 30894.00
473.4070, 31023.00
474.5940, 31631.00
475.7800, 31589.89
476.9660, 31985.18
478.1520, 32264.33
479.3380, 32433.60
480.5230, 32163.73
481.7090, 32460.88
482.8940, 32530.73
484.0790, 32468.00
485.2650, 32304.00
486.4490, 31904.00
487.6340, 31707.00
488.8190, 31339.00
490.0030, 30539.00
491.1870, 30235.00
492.3720, 29662.00
493.5550, 29039.00
494.7390, 28630.00
495.9230, 28272.51
497.1060, 28166.00
498.2900, 27749.00
499.4730, 27636.00
500.6560, 27385.00
501.8390, 27019.00
503.0220, 26951.00
504.2040, 26820.00
505.3870, 26746.00
506.5690, 26702.00
507.7510, 26726.00
508.9330, 26751.00
510.1150, 26678.00
511.2970, 26798.00
512.4780, 26715.53
513.6600, 26697.75
514.8410, 26682.00
516.0220, 26581.00
517.2030, 26680.00
518.3840, 26580.00
519.5650, 26522.00
520.7450, 26318.00
521.9250, 26340.00
523.1060, 26314.00
524.2860, 26431.00
525.4660, 26391.38
526.6450, 26437.00
527.8250, 26340.00
529.0040, 26234.00
530.1840, 26108.64
531.3630, 26107.00
532.5420, 25883.00
533.7200, 25789.00
534.8990, 25671.00
536.0780, 25671.00
537.2560, 25457.00
538.4340, 25267.00
539.6120, 25102.00
540.7900, 25447.00
541.9680, 25002.00
543.1460, 24914.00
544.3230, 25195.00
545.5000, 24884.00
546.6770, 24736.00
547.8540, 24681.00
549.0310, 24411.00
550.2080, 24496.00
551.3840, 24388.00
552.5610, 24360.00
553.7370, 23968.00
554.9130, 24403.33
556.0890, 24025.00
557.2650, 23991.21
558.4400, 24051.00
559.6160, 23818.00
560.7910, 23689.00
561.9660, 23738.00
563.1410, 23681.00
564.3160, 23686.00
565.4910, 23736.00
566.6650, 23573.00
567.8400, 23490.00
569.0140, 23434.00
570.1880, 23418.00
571.3620, 23376.00
572.5360, 23482.00
573.7090, 23425.90
574.8830, 23447.00
576.0560, 23388.59
577.2290, 23449.00
578.4020, 23407.00
579.5750, 23445.00
580.7480, 23443.00
581.9200, 23481.00
583.0930, 23565.00
584.2650, 23636.00
585.4370, 23801.68
586.6090, 24016.00
587.7810, 24204.00
588.9520, 24394.00
590.1240, 24658.00
591.2950, 24990.00
592.4660, 25462.00
593.6370, 25668.00
594.8080, 26001.00
595.9790, 26642.00
597.1500, 27067.00
598.3200, 27678.00
599.4900, 28077.00
600.6600, 28918.00
601.8300, 29764.00
603.0000, 30350.00
604.1700, 31152.00
605.3390, 32123.00
606.5080, 33192.00
607.6770, 34171.00
608.8460, 35681.00
610.0150, 37422.00
611.1840, 39084.00
612.3520, 41242.00
613.5210, 43739.00
614.6890, 46496.00
615.8570, 49707.00
617.0250, 53459.00
618.1930, 57290.00
619.3600, 62226.00
620.5280, 67482.00
621.6950, 73388.00
622.8620, 79805.00
624.0290, 85682.00
625.1960, 92026.00
626.3630, 98247.00
627.5290, 103571.0
628.6960, 106990.0
629.8620, 108873.0
631.0280, 109039.0
632.1940, 107417.0
633.3600, 104590.3
634.5250, 99369.00
635.6910, 95182.00
636.8560, 88121.00
638.0210, 82062.00
639.1860, 77438.00
640.3510, 73185.00
641.5150, 70311.00
642.6800, 67923.00
643.8440, 67233.00
645.0080, 67475.00
646.1720, 69654.00
647.3360, 72358.00
648.5000, 78584.00
649.6640, 81137.00
650.8270, 86953.00
651.9900, 93863.00
653.1530, 99369.00
654.3160, 106241.0
655.4790, 111814.0
656.6420, 119057.0
657.8040, 123604.0
658.9660, 128370.0
660.1290, 131890.0
661.2910, 133495.0
662.4520, 135403.0
663.6140, 134446.0
664.7760, 132999.2
665.9370, 130328.0
667.0980, 126410.0
668.2590, 121424.0
669.4200, 115960.0
670.5810, 109354.0
671.7420, 103277.0
672.9020, 96353.00
674.0620, 90108.00
675.2220, 84067.00
676.3820, 77954.00
677.5420, 73082.00
678.7020, 68137.00
679.8610, 63744.00
681.0210, 59834.30
682.1800, 56172.65
683.3390, 53058.00
684.4980, 50116.00
685.6560, 47685.00
686.8150, 45484.00
687.9730, 43324.00
689.1320, 41536.96
690.2900, 39682.00
691.4480, 38472.00
692.6050, 37103.00
693.7630, 36066.00
694.9200, 34979.00
696.0780, 33895.00
697.2350, 33193.00
698.3920, 32391.00
699.5490, 31728.00
700.7050, 30948.00
701.8620, 30351.00
703.0180, 29816.00
704.1740, 29464.00
705.3300, 28954.00
706.4860, 28698.00
707.6420, 28007.00
708.7970, 27570.00
709.9530, 27208.00
711.1080, 26577.00
712.2630, 26493.00
713.4180, 26315.00
714.5730, 25963.00
715.7280, 25390.00
716.8820, 25267.00
718.0360, 24893.00
719.1900, 24454.00
720.3440, 24240.00
721.4980, 23841.47
722.6520, 23644.00
723.8050, 23266.00
724.9590, 22851.00
726.1120, 22745.00
727.2650, 22595.00
728.4180, 22429.00
729.5700, 22147.00
730.7230, 21869.00
731.8750, 21607.00
733.0280, 21479.00
734.1800, 21197.00
735.3320, 21175.00
736.4830, 20999.00
737.6350, 20698.00
738.7860, 20507.00
739.9380, 20540.00
741.0890, 20321.00
742.2400, 20191.00
743.3910, 20044.00
744.5410, 19916.46
745.6920, 19834.96
746.8420, 19738.25
747.9920, 19627.04
749.1420, 19457.93
750.2920, 19363.60
751.4420, 19239.29
752.5910, 19113.86
753.7410, 19030.04
754.8900, 18869.46
756.0390, 18785.08
757.1880, 18660.00
758.3370, 18508.00
759.4850, 18399.00
760.6340, 18283.79
761.7820, 18191.00
762.9300, 18133.15
764.0780, 17968.73
765.2260, 17995.00
766.3730, 17908.00
767.5210, 17859.90
768.6680, 17968.72
769.8150, 17795.00
770.9620, 17755.00
772.1090, 17736.83
773.2560, 17804.00
774.4020, 17738.00
775.5490, 17674.00
776.6950, 17534.00
777.8410, 17513.45
778.9870, 17577.50
780.1330, 17626.24
781.2780, 17660.47
782.4230, 17636.80
783.5690, 17687.91
784.7140, 17709.04
785.8590, 17728.94
787.0030, 17790.53
788.1480, 17812.00
789.2920, 17900.00
790.4370, 17878.29
791.5810, 17900.00
792.7250, 17871.00
793.8690, 17744.00
795.0120, 17718.00
796.1560, 17846.00
797.2990, 17949.00
798.4420, 17890.00
799.5850, 17955.55
800.7280, 17955.92
801.8710, 17962.00
803.0130, 17943.00
804.1550, 17991.00
805.2980, 17961.00
806.4400, 17869.90
807.5810, 18011.14
808.7230, 18137.16
809.8650, 18248.68
811.0060, 18302.22
812.1470, 18430.52
813.2880, 18528.86
814.4290, 18625.97
815.5700, 18729.00
816.7110, 18824.03
817.8510, 18914.00
818.9910, 18997.00
820.1310, 19168.00
821.2710, 19137.00
822.4110, 19402.00
823.5510, 19486.00
824.6900, 19717.00
825.8290, 19690.00
826.9680, 20060.00
828.1070, 20171.00
829.2460, 20577.00
830.3850, 20850.00
831.5230, 21064.00
832.6620, 21337.00
833.8000, 21648.00
834.9380, 22004.00
836.0760, 22244.00
837.2130, 22536.00
838.3510, 23078.00
839.4880, 23329.00
840.6250, 23805.00
841.7620, 24413.00
842.8990, 24938.00
844.0360, 25440.00
845.1720, 26181.00
846.3090, 26789.00
847.4450, 27054.00
848.5810, 27707.00
849.7170, 28460.00
850.8530, 29400.00
851.9880, 29783.00
853.1240, 30256.00
854.2590, 30658.50
855.3940, 31100.84
856.5290, 31487.43
857.6640, 31821.26
858.7980, 31785.63
859.9330, 31813.44
861.0670, 31788.53
862.2010, 31376.00
863.3350, 30874.00
864.4690, 30493.00
865.6030, 29805.00
866.7360, 29352.00
867.8690, 28809.00
869.0020, 28438.00
870.1350, 27960.00
871.2680, 27610.00
872.4010, 27576.00
873.5330, 27374.00
874.6660, 27547.00
875.7980, 27606.00
876.9300, 28162.00
878.0620, 28429.00
879.1930, 28805.00
880.3250, 29566.00
881.4560, 29996.00
882.5870, 30938.00
883.7180, 31181.00
884.8490, 32170.00
885.9800, 33295.00
887.1100, 34400.00
888.2410, 35206.00
889.3710, 36137.00
890.5010, 37431.00
891.6310, 38596.00
892.7610, 40128.00
893.8900, 41709.00
895.0200, 43115.00
896.1490, 45005.00
897.2780, 47047.00
898.4070, 49226.00
899.5360, 51607.00
900.6640, 54240.00
901.7920, 57076.00
902.9210, 60223.00
904.0490, 63883.00
905.1770, 67491.00
906.3040, 71747.00
907.4320, 76325.95
908.5600, 81161.84
909.6870, 86539.00
910.8140, 92106.00
911.9410, 98047.00
913.0680, 104551.0
914.1940, 110851.0
915.3210, 117103.0
916.4470, 123161.0
917.5730, 128913.0
918.6990, 134095.0
919.8250, 136952.0
920.9500, 137955.0
922.0760, 138260.0
923.2010, 136076.0
924.3260, 132366.0
925.4510, 127483.0
926.5760, 121137.0
927.7010, 115299.0
928.8250, 108868.0
929.9500, 102106.0
931.0740, 95878.00
932.1980, 90054.00
933.3220, 84353.00
934.4450, 79396.00
935.5690, 75240.00
936.6920, 70978.00
937.8150, 67591.00
938.9380, 63854.00
940.0610, 60900.00
941.1840, 58661.00
942.3060, 56496.00
943.4290, 54367.00
944.5510, 52394.00
945.6730, 51280.00
946.7950, 49683.00
947.9160, 48773.00
949.0380, 47067.00
950.1590, 46446.00
951.2800, 45682.00
952.4010, 44662.00
953.5220, 44165.00
954.6430, 43566.00
955.7630, 42770.00
956.8840, 42270.00
958.0040, 41753.00
959.1240, 41084.00
960.2440, 40412.00
961.3640, 39863.00
962.4830, 39001.00
963.6030, 38382.00
964.7220, 37636.00
965.8410, 36818.00
966.9600, 35958.00
968.0780, 35226.00
969.1970, 34479.00
970.3150, 33799.60
971.4340, 33128.00
972.5520, 32599.00
973.6700, 32035.00
974.7870, 31592.00
975.9050, 30969.00
977.0220, 30752.00
978.1390, 30602.00
979.2560, 29894.00
980.3730, 29700.00
981.4900, 29376.00
982.6070, 29452.00
983.7230, 29102.00
984.8390, 29198.00
985.9550, 29092.00
987.0710, 28623.00
988.1870, 28659.00
989.3030, 28503.69
990.4180, 28747.00
991.5330, 28418.00
992.6480, 28172.00
993.7630, 28142.00
994.8780, 27929.00
995.9930, 27650.00
997.1070, 27514.00
998.2210, 27332.00
999.3350, 27034.00
1000.449, 26929.00
1001.563, 26881.00
1002.677, 26735.00
1003.790, 26544.23
1004.903, 26284.00
1006.016, 26064.00
1007.129, 25935.00
1008.242, 25643.00
1009.355, 25528.68
1010.467, 25240.06
1011.579, 25256.44
1012.691, 25217.08
1013.803, 25124.98
1014.915, 24822.14
1016.027, 24791.42
1017.138, 24651.75
1018.249, 24507.60
1019.360, 24515.28
1020.471, 24243.19
1021.582, 24248.47
1022.693, 24143.02
1023.803, 24088.35
1024.913, 23923.95
1026.023, 23793.44
1027.133, 23772.00
1028.243, 23645.00
1029.353, 23621.00
1030.462, 23526.69
1031.571, 23229.00
1032.680, 23253.00
1033.789, 23148.00
1034.898, 22907.00
1036.007, 22943.53
1037.115, 22736.55
1038.223, 22848.00
1039.331, 22535.00
1040.439, 22426.00
1041.547, 22519.00
1042.655, 21996.00
1043.762, 22069.00
1044.869, 21698.00
1045.976, 21717.00
1047.083, 21553.00
1048.190, 21331.00
1049.297, 21286.00
1050.403, 21141.00
1051.509, 21175.00
1052.615, 20722.00
1053.721, 20823.00
1054.827, 20722.00
1055.933, 20279.00
1057.038, 20432.00
1058.143, 20084.00
1059.248, 20162.00
1060.353, 19802.00
1061.458, 19839.00
1062.563, 19258.00
1063.667, 19394.00
1064.771, 19511.00
1065.875, 19244.00
1066.979, 19263.58
1068.083, 19165.00
1069.186, 18960.00
1070.290, 19071.00
1071.393, 18895.00
1072.496, 18856.45
1073.599, 18766.00
1074.702, 18812.00
1075.804, 18582.00
1076.907, 18700.00
1078.009, 18547.00
1079.111, 18378.00
1080.213, 18224.00
1081.315, 18125.00
1082.416, 18126.00
1083.517, 18159.00
1084.619, 18033.00
1085.720, 18023.00
1086.821, 17914.00
1087.921, 17862.75
1089.022, 17817.15
1090.122, 17727.00
1091.222, 17737.00
1092.322, 17617.00
1093.422, 17610.00
1094.522, 17284.00
1095.622, 17537.00
1096.721, 17172.00
1097.820, 17089.00
1098.919, 17077.00
1100.018, 16855.00
1101.117, 16904.00
1102.215, 16829.00
1103.314, 16684.00
1104.412, 16696.00
1105.510, 16547.00
1106.608, 16699.00
1107.705, 16396.00
1108.803, 16478.00
1109.900, 16496.00
1110.997, 16157.00
1112.094, 16388.00
1113.191, 16278.00
1114.288, 16308.00
1115.384, 16187.00
1116.481, 16114.00
1117.577, 16090.00
1118.673, 16214.00
1119.769, 16245.00
1120.864, 16261.85
1121.960, 16133.00
1123.055, 16292.00
1124.150, 16054.00
1125.245, 16034.00
1126.340, 16012.00
1127.434, 15992.00
1128.529, 16118.00
1129.623, 16106.00
1130.717, 16022.00
1131.811, 16000.00
1132.905, 15942.00
1133.999, 15913.53
1135.092, 15947.00
1136.185, 15899.00
1137.279, 15928.14
1138.371, 15988.00
1139.464, 15973.00
1140.557, 15963.00
1141.649, 15933.00
1142.742, 15961.00
1143.834, 15915.00
1144.926, 15912.00
1146.017, 15843.00
1147.109, 15817.00
1148.200, 15739.00
1149.292, 15930.00
1150.383, 15645.00
1151.474, 15811.00
1152.564, 15860.00
1153.655, 15697.00
1154.745, 15757.00
1155.835, 15866.00
1156.925, 15787.00
1158.015, 15608.00
1159.105, 15797.00
1160.195, 15723.00
1161.284, 15695.00
1162.373, 15571.13
1163.462, 15820.67
1164.551, 15954.71
1165.640, 15979.47
1166.728, 15565.85
1167.817, 15719.74
1168.905, 15647.08
1169.993, 15565.72
1171.081, 15801.28
1172.168, 15454.62
1173.256, 15686.41
1174.343, 15688.17
1175.430, 15796.11
1176.517, 15676.08
1177.604, 15627.27
1178.691, 15807.75
1179.777, 15862.25
1180.864, 15718.38
1181.950, 15836.76
1183.036, 15488.33
1184.121, 15550.69
1185.207, 15790.65
1186.293, 15661.38
1187.378, 15787.03
1188.463, 15816.45
1189.548, 15406.32
1190.633, 15762.30
1191.717, 15787.84
1192.802, 15474.10
1193.886, 15805.70
1194.970, 15540.04
1196.054, 15488.41
1197.138, 15597.99
1198.221, 15540.77
1199.305, 15748.12
1200.388, 15701.79
1201.471, 15633.36
1202.554, 15664.70
1203.637, 15415.69
1204.719, 15688.52
1205.801, 15605.93
1206.884, 15736.29
1207.966, 15860.00
1209.048, 15797.00
1210.129, 15742.00
1211.211, 15589.00
1212.292, 15765.00
1213.373, 15559.00
1214.454, 15669.00
1215.535, 15537.00
1216.616, 15630.00
1217.696, 15722.00
1218.777, 15570.00
1219.857, 15788.00
1220.937, 15478.00
1222.017, 15612.00
1223.096, 15646.00
1224.176, 15494.00
1225.255, 15656.00
1226.334, 15444.00
1227.413, 15526.00
1228.492, 15657.00
1229.570, 15498.00
1230.649, 15616.00
1231.727, 15493.00
1232.805, 15611.00
1233.883, 15545.00
1234.961, 15688.00
1236.038, 15707.00
1237.116, 15487.00
1238.193, 15619.00
1239.270, 15402.00
1240.347, 15492.00
1241.424, 15666.00
1242.500, 15652.00
1243.577, 15488.00
1244.653, 15674.75
1245.729, 15559.08
1246.805, 15854.00
1247.880, 15499.00
1248.956, 15277.56
1250.031, 15593.53
1251.106, 15770.14
1252.181, 15814.89
1253.256, 15332.81
1254.331, 15531.02
1255.405, 15456.60
1256.480, 15371.00
1257.554, 15664.96
1258.628, 15259.51
1259.701, 15547.45
1260.775, 15558.60
1261.849, 15696.43
1262.922, 15559.95
1263.995, 15508.20
1265.068, 15730.84
1266.141, 15801.55
1267.213, 15633.50
1268.286, 15779.38
1269.358, 15364.35
1270.430, 15441.53
1271.502, 15731.08
1272.573, 15576.82
1273.645, 15727.72
1274.716, 15762.40
1275.788, 15268.89
1276.859, 15693.96
1277.929, 15721.77
