##NAMES=Gmelinite-Na
##RRUFFID=R060168
##IDEAL CHEMISTRY=Na_4_(Si_8_Al_4_)O_24_&#183;11H_2_O
##LOCALITY=Five Islands, Nova Scotia, Canada
##OWNER=RRUFF
##SOURCE=Guy Ouellet
##DESCRIPTION=Salmon-red interpenetrating prismatic rhombohedral crystals
##STATUS=The identification of this mineral has been confirmed by X-ray diffraction and chemical analysis
##URL=rruff.info/R060168
##MEASURED CHEMISTRY=(Na_3.90_Ca_0.10_)(Si_7.90_Al_4.10_)O_24_Â·8.98H_2_O
##PIN_ID=M01916
##ORIENTATION=Laser parallel to a* (1 0 0). Fiducial mark perpendicular to laser is parallel to c [0 0 1]
249.5780, 17542.00
250.8000, 17579.00
252.0230, 17547.00
253.2440, 17273.00
254.4660, 17379.00
255.6880, 17497.00
256.9090, 17406.00
258.1300, 17600.00
259.3510, 17622.35
260.5720, 18014.00
261.7920, 17664.00
263.0130, 17517.00
264.2330, 17298.00
265.4530, 17487.00
266.6730, 17559.00
267.8920, 17427.00
269.1120, 17451.00
270.3310, 17459.00
271.5500, 17409.00
272.7690, 17491.00
273.9880, 17331.00
275.2060, 17217.00
276.4240, 17423.00
277.6430, 17430.00
278.8600, 17536.00
280.0780, 17479.00
281.2960, 17485.00
282.5130, 17587.00
283.7300, 17633.00
284.9470, 17680.00
286.1640, 17961.00
287.3810, 18047.00
288.5970, 18144.00
289.8130, 18206.00
291.0290, 18323.62
292.2450, 18352.21
293.4610, 18568.00
294.6760, 18630.00
295.8910, 18796.21
297.1060, 18930.97
298.3210, 19038.00
299.5360, 19149.00
300.7510, 19272.00
301.9650, 19285.00
303.1790, 19384.00
304.3930, 19611.00
305.6070, 19696.00
306.8200, 20027.00
308.0340, 20253.00
309.2470, 20509.26
310.4600, 20890.00
311.6730, 21015.00
312.8850, 21411.00
314.0980, 21514.00
315.3100, 21826.00
316.5220, 22155.00
317.7340, 22460.00
318.9460, 22494.00
320.1570, 22697.00
321.3690, 22668.00
322.5800, 22800.00
323.7910, 22375.00
325.0010, 22216.00
326.2120, 21794.00
327.4220, 21796.00
328.6330, 21269.00
329.8430, 20974.00
331.0520, 20803.00
332.2620, 20394.00
333.4720, 20165.00
334.6810, 20012.00
335.8900, 19719.00
337.0990, 19487.00
338.3070, 19278.00
339.5160, 19062.00
340.7240, 18805.00
341.9320, 18859.00
343.1400, 18603.00
344.3480, 18691.00
345.5560, 18473.00
346.7630, 18576.00
347.9700, 18453.00
349.1770, 18327.00
350.3840, 18206.00
351.5910, 18319.00
352.7970, 18322.00
354.0040, 18395.00
355.2100, 18426.00
356.4160, 18234.00
357.6220, 18405.00
358.8270, 18308.00
360.0320, 18468.00
361.2380, 18437.00
362.4430, 18356.00
363.6470, 18421.00
364.8520, 18379.00
366.0560, 18398.10
367.2610, 18535.00
368.4650, 18517.00
369.6690, 18536.00
370.8720, 18754.00
372.0760, 18711.00
373.2790, 18760.00
374.4820, 18824.00
375.6850, 18967.00
376.8880, 19127.00
378.0910, 19261.00
379.2930, 19324.00
380.4950, 19485.00
381.6970, 19684.00
382.8990, 19788.00
384.1010, 20021.00
385.3020, 20179.55
386.5040, 20444.00
387.7050, 20538.00
388.9060, 20846.00
390.1060, 21026.00
391.3070, 21155.00
392.5070, 21446.00
393.7080, 21795.00
394.9080, 22032.00
396.1070, 22773.00
397.3070, 23107.00
398.5070, 23728.00
399.7060, 24318.00
400.9050, 25080.00
402.1040, 25872.00
403.3030, 26601.00
404.5010, 27456.00
405.7000, 28371.00
406.8980, 28769.00
408.0960, 29460.00
409.2940, 29825.00
410.4910, 29778.00
411.6890, 30011.00
412.8860, 29755.00
414.0830, 29538.00
415.2800, 28723.00
416.4770, 28242.00
417.6730, 27310.00
418.8690, 26709.00
420.0660, 25692.00
421.2620, 25100.00
422.4570, 24408.00
423.6530, 23812.00
424.8480, 23220.00
426.0440, 22633.00
427.2390, 22068.00
428.4340, 21800.00
429.6280, 21744.00
430.8230, 21517.00
432.0170, 21254.00
433.2110, 21191.00
434.4050, 21094.00
435.5990, 20984.00
436.7930, 20849.00
437.9860, 21021.00
439.1800, 21103.00
440.3730, 20997.00
441.5660, 21296.00
442.7580, 21083.00
443.9510, 21410.00
445.1430, 21843.00
446.3350, 21659.00
447.5270, 21881.00
448.7190, 22085.00
449.9110, 22591.00
451.1020, 22797.00
452.2930, 23252.00
453.4850, 23479.00
454.6750, 23871.00
455.8660, 24404.00
457.0570, 24953.00
458.2470, 25437.00
459.4370, 25853.00
460.6270, 26535.00
461.8170, 27060.11
463.0070, 27780.00
464.1960, 28402.00
465.3850, 28959.00
466.5750, 29866.00
467.7630, 30127.00
468.9520, 30975.00
470.1410, 31305.00
471.3290, 32064.00
472.5170, 33074.00
473.7050, 33785.00
474.8930, 34616.00
476.0810, 35531.00
477.2680, 36958.00
478.4560, 38148.00
479.6430, 39766.00
480.8300, 41128.00
482.0160, 42856.00
483.2030, 44555.00
484.3890, 46358.00
485.5760, 47945.00
486.7620, 49665.00
487.9480, 51415.00
489.1330, 52770.88
490.3190, 54275.00
491.5040, 55324.00
492.6890, 56041.00
493.8740, 56883.00
495.0590, 56715.00
496.2440, 56694.00
497.4280, 56111.00
498.6120, 54854.00
499.7960, 53905.00
500.9800, 51817.00
502.1640, 50030.00
503.3470, 48040.00
504.5310, 45650.00
505.7140, 43544.00
506.8970, 41678.00
508.0800, 39177.00
509.2620, 37237.00
510.4450, 35118.00
511.6270, 33477.00
512.8090, 31497.00
513.9910, 30003.00
515.1730, 28790.00
516.3550, 27411.00
517.5360, 26342.00
518.7170, 25562.00
519.8980, 24460.00
521.0790, 23874.00
522.2600, 23244.00
523.4400, 22606.00
524.6210, 22078.00
525.8010, 21604.60
526.9810, 21155.00
528.1610, 20865.00
529.3400, 20620.00
530.5200, 20456.00
531.6990, 19894.00
532.8780, 19625.00
534.0570, 19638.00
535.2360, 19372.00
536.4140, 19284.00
537.5930, 19177.00
538.7710, 18878.00
539.9490, 18723.00
541.1270, 18781.00
542.3040, 18594.00
543.4820, 18585.00
544.6590, 18443.00
545.8360, 18466.00
547.0130, 18487.00
548.1900, 18356.00
549.3670, 18217.00
550.5430, 18106.00
551.7190, 17997.00
552.8960, 17880.00
554.0710, 17945.00
555.2470, 18034.00
556.4230, 18093.00
557.5980, 17905.00
558.7730, 18075.00
559.9480, 17658.00
561.1230, 17590.00
562.2980, 17519.00
563.4720, 17591.00
564.6470, 17584.00
565.8210, 17569.00
566.9950, 17547.65
568.1690, 17222.00
569.3420, 17464.00
570.5160, 17273.00
571.6890, 17265.00
572.8620, 17338.00
574.0350, 17231.00
575.2080, 17260.00
576.3800, 17295.36
577.5530, 17170.00
578.7250, 17350.00
579.8970, 17321.00
581.0690, 17272.00
582.2410, 17198.00
583.4120, 17123.00
584.5830, 17172.21
585.7550, 17127.00
586.9260, 17293.00
588.0960, 17281.00
589.2670, 17354.00
590.4380, 17423.28
591.6080, 17415.59
592.7780, 17509.00
593.9480, 17430.00
595.1180, 17424.00
596.2870, 17422.00
597.4570, 17367.00
598.6260, 17447.00
599.7950, 17383.00
600.9640, 17518.00
602.1330, 17684.00
603.3010, 17470.00
604.4700, 17675.00
605.6380, 17541.00
606.8060, 17595.00
607.9740, 17665.00
609.1420, 17574.00
610.3090, 17630.00
611.4760, 17545.00
612.6440, 17536.00
613.8110, 17392.00
614.9770, 17503.00
616.1440, 17373.00
617.3110, 17373.00
618.4770, 17545.00
619.6430, 17416.00
620.8090, 17450.00
621.9750, 17343.00
623.1400, 17326.00
624.3060, 17292.00
625.4710, 17412.00
626.6360, 17376.00
627.8010, 17299.00
628.9660, 17471.00
630.1300, 17411.00
631.2950, 17161.00
632.4590, 17766.00
633.6230, 17591.00
634.7870, 17422.00
635.9510, 17654.00
637.1140, 17558.00
638.2780, 17669.00
639.4410, 17801.00
640.6040, 17624.00
641.7670, 17673.00
642.9290, 17823.30
644.0920, 17932.00
645.2540, 18092.00
646.4160, 18092.00
647.5780, 18049.00
648.7400, 18076.00
649.9020, 18029.00
651.0630, 17956.00
652.2250, 18178.00
653.3860, 18189.00
654.5470, 18062.00
655.7080, 18240.00
656.8680, 18131.93
658.0290, 18306.00
659.1890, 18070.00
660.3490, 17977.00
661.5090, 17975.00
662.6690, 18020.00
663.8280, 17942.00
664.9880, 17974.00
666.1470, 17844.00
667.3060, 17841.00
668.4650, 17650.00
669.6240, 17616.00
670.7820, 17548.00
671.9410, 17772.00
673.0990, 17648.00
674.2570, 17596.00
675.4150, 17585.00
676.5720, 17456.00
677.7300, 17443.00
678.8870, 17371.00
680.0450, 17338.00
681.2020, 17298.00
682.3590, 17382.00
683.5150, 17379.00
684.6720, 17358.00
685.8280, 17322.00
686.9840, 17386.00
688.1400, 17239.00
689.2960, 17366.00
690.4520, 17185.00
691.6070, 16998.00
692.7630, 17123.00
693.9180, 17059.00
695.0730, 16996.00
696.2280, 17222.00
697.3820, 17154.00
698.5370, 17284.00
699.6910, 17071.00
700.8450, 17301.00
701.9990, 17133.00
703.1530, 17262.00
704.3070, 17209.00
705.4600, 17269.00
706.6130, 17244.00
707.7660, 17248.09
708.9190, 17233.00
710.0720, 17233.00
711.2250, 17221.00
712.3770, 17166.00
713.5300, 17169.34
714.6820, 17226.00
715.8340, 17187.00
716.9850, 17122.00
718.1370, 17227.00
719.2880, 17185.00
720.4400, 17253.00
721.5910, 17350.00
722.7420, 17297.72
723.8930, 17227.00
725.0430, 17258.00
726.1940, 17260.00
727.3440, 17243.00
728.4940, 17394.00
729.6440, 17349.00
730.7940, 17300.00
731.9430, 17211.00
733.0930, 17354.00
734.2420, 17354.00
735.3910, 17337.00
736.5400, 17255.00
737.6890, 17328.00
738.8370, 17338.00
739.9860, 17472.00
741.1340, 17303.00
742.2820, 17242.00
743.4300, 17436.00
744.5780, 17340.00
745.7250, 17193.00
746.8730, 17390.00
748.0200, 17309.00
749.1670, 17340.00
750.3140, 17281.00
751.4610, 17520.00
752.6070, 17479.00
753.7540, 17558.00
754.9000, 17560.00
756.0460, 17619.00
757.1920, 17700.00
758.3380, 17805.00
759.4830, 17881.00
760.6280, 17909.12
761.7740, 17900.00
762.9190, 17944.00
764.0640, 17959.00
765.2080, 17984.00
766.3530, 18025.00
767.4970, 18019.27
768.6420, 18014.87
769.7860, 18023.23
770.9300, 18047.00
772.0730, 18061.00
773.2170, 18040.00
774.3600, 18016.00
775.5040, 18071.00
776.6470, 18021.00
777.7900, 17933.00
778.9320, 18005.00
780.0750, 17961.52
781.2170, 18088.00
782.3600, 17995.00
783.5020, 18014.00
784.6440, 18066.00
785.7850, 18067.00
786.9270, 18138.14
788.0680, 18212.00
789.2100, 18245.00
790.3510, 18253.00
791.4920, 18249.00
792.6320, 18526.00
793.7730, 18483.00
794.9130, 18483.00
796.0540, 18543.00
797.1940, 18485.00
798.3340, 18545.00
799.4730, 18707.00
800.6130, 18556.00
801.7520, 18500.00
802.8920, 18429.00
804.0310, 18170.00
805.1700, 18271.00
806.3090, 18298.00
807.4470, 18118.00
808.5860, 18083.00
809.7240, 18095.00
810.8620, 17804.00
812.0000, 17840.00
813.1380, 17852.00
814.2750, 17744.00
815.4130, 17680.00
816.5500, 17624.00
817.6870, 17539.00
818.8240, 17605.00
819.9610, 17648.00
821.0980, 17648.00
822.2340, 17629.00
823.3700, 17711.00
824.5070, 17681.00
825.6430, 17599.00
826.7780, 17559.00
827.9140, 17372.00
829.0500, 17537.00
830.1850, 17408.00
831.3200, 17668.00
832.4550, 17445.00
833.5900, 17406.00
834.7250, 17541.00
835.8590, 17561.00
836.9930, 17478.00
838.1280, 17697.00
839.2620, 17391.00
840.3950, 17543.00
841.5290, 17594.00
842.6630, 17665.00
843.7960, 17692.41
844.9290, 17622.00
846.0620, 17624.00
847.1950, 17703.00
848.3280, 17537.00
849.4600, 17493.00
850.5930, 17516.80
851.7250, 17577.00
852.8570, 17579.00
853.9890, 17628.00
855.1210, 17747.00
856.2520, 17603.00
857.3840, 17574.00
858.5150, 17612.71
859.6460, 17768.00
860.7770, 17697.00
861.9080, 17738.00
863.0380, 17891.00
864.1690, 17748.00
865.2990, 17655.00
866.4290, 17795.00
867.5590, 17737.00
868.6890, 17690.00
869.8190, 17663.00
870.9480, 17758.00
872.0770, 17780.00
873.2070, 17807.00
874.3360, 17898.00
875.4640, 17759.00
876.5930, 17696.00
877.7220, 17747.00
878.8500, 17804.00
879.9780, 17818.00
881.1060, 17801.00
882.2340, 17755.00
883.3620, 17751.00
884.4890, 17833.00
885.6170, 17787.00
886.7440, 18058.00
887.8710, 17829.00
888.9980, 17664.00
890.1240, 17777.00
891.2510, 17929.00
892.3770, 18010.00
893.5040, 17924.00
894.6300, 17889.00
895.7560, 17953.00
896.8810, 17950.00
898.0070, 17832.00
899.1330, 17979.00
900.2580, 18017.00
901.3830, 17863.00
902.5080, 17966.00
903.6330, 17935.00
904.7570, 17969.00
905.8820, 17989.00
907.0060, 18129.00
908.1300, 18215.00
909.2540, 18157.00
910.3780, 18138.00
911.5020, 18061.00
912.6250, 18165.00
913.7490, 18116.00
914.8720, 18233.00
915.9950, 18266.00
917.1180, 18162.00
918.2400, 18251.00
919.3630, 18268.00
920.4850, 18308.00
921.6080, 18221.00
922.7300, 18246.00
923.8520, 18258.00
924.9730, 18311.00
926.0950, 18288.00
927.2160, 18238.00
928.3380, 18186.00
929.4590, 18572.00
930.5800, 18497.00
931.7010, 18535.00
932.8210, 18494.00
933.9420, 18509.32
935.0620, 18603.00
936.1820, 18536.00
937.3020, 18533.00
938.4220, 18512.00
939.5420, 18642.00
940.6610, 18520.00
941.7810, 18470.00
942.9000, 18615.00
944.0190, 18693.00
945.1380, 18610.00
946.2570, 18696.00
947.3750, 18640.00
948.4940, 18789.00
949.6120, 18777.00
950.7300, 18755.00
951.8480, 18616.00
952.9660, 18774.00
954.0830, 18955.00
955.2010, 18977.00
956.3180, 18786.00
957.4350, 18995.00
958.5520, 18910.00
959.6690, 18968.00
960.7860, 19130.00
961.9020, 19113.00
963.0190, 19192.70
964.1350, 19140.00
965.2510, 19306.00
966.3670, 19240.00
967.4830, 19369.00
968.5980, 19269.00
969.7140, 19449.00
970.8290, 19346.00
971.9440, 19314.00
973.0590, 19331.00
974.1740, 19548.00
975.2880, 19745.00
976.4030, 19661.00
977.5170, 19959.00
978.6310, 19838.00
979.7450, 19893.00
980.8590, 19933.00
981.9730, 20089.00
983.0860, 20058.00
984.2000, 20095.00
985.3130, 20149.00
986.4260, 20131.00
987.5390, 20411.00
988.6520, 20226.00
989.7640, 20556.00
990.8770, 20539.00
991.9890, 20423.00
993.1010, 20794.00
994.2130, 20684.00
995.3250, 20878.00
996.4370, 20842.00
997.5480, 20815.00
998.6590, 21022.00
999.7710, 21011.00
1000.882, 21225.00
1001.993, 21112.00
1003.103, 21360.00
1004.214, 21330.00
1005.324, 21234.00
1006.434, 21103.00
1007.545, 21345.00
1008.655, 21122.00
1009.764, 21479.00
1010.874, 21431.00
1011.983, 21322.00
1013.093, 21434.00
1014.202, 21395.00
1015.311, 21316.00
1016.420, 21488.00
1017.528, 21513.00
1018.637, 21624.00
1019.745, 21584.00
1020.854, 21635.00
1021.962, 21666.00
1023.070, 21743.00
1024.177, 21743.00
1025.285, 21799.00
1026.392, 21784.00
1027.500, 21784.00
1028.607, 21714.00
1029.714, 21744.00
1030.821, 21774.00
1031.927, 21849.00
1033.034, 21816.00
1034.140, 21761.00
1035.246, 21861.00
1036.352, 21754.00
1037.458, 21858.00
1038.564, 21756.00
1039.670, 21606.00
1040.775, 21770.00
1041.880, 21679.00
1042.986, 21639.00
1044.090, 21550.00
1045.195, 21703.00
1046.300, 21687.00
1047.404, 21540.00
1048.509, 21874.00
1049.613, 21624.00
1050.717, 21550.00
1051.821, 21488.00
1052.925, 21625.00
1054.028, 21658.00
1055.132, 21681.00
1056.235, 21847.00
1057.338, 21748.00
1058.441, 21702.00
1059.544, 21733.00
1060.647, 22007.00
1061.749, 21933.00
1062.851, 22021.00
1063.954, 21915.00
1065.056, 21987.00
1066.158, 22104.00
1067.259, 22144.00
1068.361, 22266.64
1069.462, 22437.00
1070.564, 22512.00
1071.665, 22651.00
1072.766, 22831.00
1073.867, 22888.00
1074.967, 23007.00
1076.068, 23168.00
1077.168, 23233.00
1078.268, 23336.00
1079.368, 23413.00
1080.468, 23568.00
1081.568, 23662.00
1082.668, 23938.00
1083.767, 23899.00
1084.866, 23973.00
1085.966, 24213.00
1087.065, 24270.00
1088.163, 24542.00
1089.262, 24465.00
1090.361, 24763.00
1091.459, 24696.00
1092.557, 25054.00
1093.655, 25111.00
1094.753, 25132.00
1095.851, 25000.00
1096.949, 25269.00
1098.046, 25229.00
1099.143, 25546.00
1100.241, 25699.00
1101.338, 25627.00
1102.434, 25670.00
1103.531, 25682.00
1104.628, 25831.00
1105.724, 25944.00
1106.820, 25950.00
1107.916, 26068.28
1109.012, 26090.00
1110.108, 26183.00
1111.204, 26244.00
1112.299, 26258.00
1113.395, 26250.00
1114.490, 26498.00
1115.585, 26237.00
1116.680, 26438.78
1117.775, 26579.60
1118.869, 26660.32
1119.964, 26684.18
1121.058, 26480.87
1122.152, 26570.90
1123.246, 26543.37
1124.340, 26511.03
1125.434, 26642.34
1126.527, 26472.07
1127.620, 26288.00
1128.714, 26256.00
1129.807, 26051.00
1130.900, 26217.00
1131.992, 25884.00
1133.085, 25901.00
1134.178, 25813.00
1135.270, 25943.00
1136.362, 25720.00
1137.454, 25685.00
1138.546, 25772.00
1139.638, 25569.00
1140.729, 25450.00
1141.821, 25653.00
1142.912, 25420.00
1144.003, 25503.00
1145.094, 25285.00
1146.185, 25265.00
1147.276, 25124.00
1148.366, 25238.00
1149.456, 25194.00
1150.547, 25004.00
1151.637, 24883.00
1152.727, 24921.00
1153.816, 24661.00
1154.906, 24669.00
1155.995, 24813.00
1157.085, 24782.00
1158.174, 24642.56
1159.263, 24210.00
1160.352, 24251.00
1161.441, 24166.00
1162.529, 23975.00
1163.618, 24125.00
1164.706, 23598.00
1165.794, 23746.00
1166.882, 23701.00
1167.970, 23698.00
1169.058, 23698.18
1170.145, 23483.00
1171.232, 23532.00
1172.320, 23362.00
1173.407, 23096.00
1174.494, 23176.00
1175.580, 23072.00
1176.667, 23186.00
1177.754, 22888.00
1178.840, 22853.00
1179.926, 22949.00
1181.012, 22666.00
1182.098, 22687.00
1183.184, 22705.00
1184.269, 22754.00
1185.355, 22429.00
1186.440, 22450.00
1187.525, 22341.00
1188.610, 22359.00
1189.695, 22436.00
1190.780, 22507.00
1191.864, 22508.46
1192.949, 22369.00
1194.033, 22489.00
1195.117, 22326.00
1196.201, 22220.00
1197.285, 22379.00
1198.369, 22232.00
1199.452, 22166.00
1200.536, 22194.95
1201.619, 22202.24
1202.702, 22222.00
1203.785, 22231.00
1204.868, 22394.00
1205.950, 22140.00
1207.033, 22321.00
1208.115, 22423.00
1209.197, 22217.00
1210.279, 22226.00
1211.361, 22077.00
1212.443, 22084.44
1213.525, 22048.00
1214.606, 22172.00
1215.687, 22255.00
1216.769, 22404.00
1217.850, 22329.00
1218.930, 22282.00
1220.011, 22379.00
1221.092, 22476.00
1222.172, 22336.00
1223.252, 22525.00
1224.333, 22420.00
1225.413, 22587.00
1226.492, 22358.00
1227.572, 22499.00
1228.652, 22652.00
1229.731, 22491.00
1230.810, 22423.00
1231.889, 22733.00
1232.968, 22717.00
1234.047, 22508.00
1235.126, 22716.00
1236.204, 22699.00
1237.283, 22602.00
1238.361, 22426.00
1239.439, 22803.00
1240.517, 22787.00
1241.595, 22632.00
1242.673, 22718.00
1243.750, 22684.00
1244.827, 22705.32
1245.905, 22950.00
1246.982, 22907.00
1248.059, 23068.00
1249.135, 23400.00
1250.212, 23277.53
1251.288, 23004.00
1252.365, 23179.00
1253.441, 23121.00
1254.517, 22974.00
1255.593, 23193.00
1256.669, 22993.00
1257.744, 23145.00
1258.820, 23338.00
1259.895, 23280.00
1260.970, 23202.00
1262.045, 23289.07
1263.120, 23464.23
1264.195, 23579.30
1265.270, 23637.52
1266.344, 23468.52
1267.418, 23592.86
1268.492, 23599.65
1269.566, 23601.62
1270.640, 23767.25
1271.714, 23631.29
1272.788, 23794.33
1273.861, 23837.98
1274.934, 23843.00
1276.007, 24042.00
1277.080, 23978.00
1278.153, 23866.00
1279.226, 23853.00
1280.299, 23832.16
1281.371, 23813.50
1282.443, 23912.00
1283.515, 23872.00
1284.587, 24030.00
1285.659, 24151.00
1286.731, 24285.00
1287.802, 24175.00
1288.874, 24337.00
1289.945, 24333.00
1291.016, 24340.00
1292.087, 24534.00
1293.158, 24748.00
1294.229, 24554.00
1295.299, 24927.00
1296.370, 24945.26
1297.440, 24819.00
1298.510, 24839.00
1299.580, 24901.81
1300.650, 25003.39
1301.720, 25056.00
1302.789, 25288.00
1303.859, 25310.00
1304.928, 25292.81
1305.997, 25171.00
1307.066, 25427.00
1308.135, 25334.00
1309.203, 25352.00
1310.272, 25221.00
1311.340, 25519.00
1312.409, 25464.00
1313.477, 25683.00
1314.545, 25564.00
1315.612, 25516.00
1316.680, 25412.00
1317.748, 25475.00
1318.815, 25422.00
1319.882, 25502.00
1320.949, 25295.00
1322.016, 25463.00
1323.083, 25391.00
1324.150, 25242.00
1325.216, 25306.00
1326.283, 25416.00
1327.349, 25394.00
1328.415, 25293.00
1329.481, 25384.00
1330.547, 25362.00
1331.613, 25146.00
1332.678, 25153.00
1333.744, 25240.00
1334.809, 25157.00
1335.874, 25229.00
1336.939, 25426.00
1338.004, 24956.00
1339.068, 24922.00
1340.133, 25108.00
1341.197, 24737.00
1342.262, 24827.00
1343.326, 24700.00
1344.390, 24868.00
1345.453, 24907.00
1346.517, 24655.00
1347.581, 24774.00
1348.644, 24603.00
1349.707, 24710.00
1350.770, 24757.00
1351.833, 24709.00
1352.896, 24895.00
1353.959, 24705.00
1355.022, 24766.00
1356.084, 24554.00
1357.146, 24423.00
1358.208, 24365.00
1359.270, 24420.00
1360.332, 24432.00
1361.394, 24715.00
1362.455, 24505.00
1363.517, 24539.00
1364.578, 24524.00
1365.639, 24381.00
1366.700, 24495.00
1367.761, 24338.00
1368.822, 24534.00
1369.883, 24421.00
1370.943, 24259.00
1372.003, 24354.00
1373.063, 24543.00
1374.123, 24416.00
1375.183, 24207.00
1376.243, 24435.00
1377.303, 24443.00
1378.362, 24273.00
1379.421, 24475.00
1380.481, 24284.00
1381.540, 24389.00
1382.598, 24220.00
1383.657, 24361.00
1384.716, 24266.00
1385.774, 24327.00
1386.833, 24238.00
1387.891, 24421.00
1388.949, 24388.00
1390.007, 24312.00
1391.065, 24473.00
1392.122, 24333.00
1393.180, 24526.00
1394.237, 24299.00
1395.294, 24557.00
1396.351, 24446.00
1397.408, 24288.00
1398.465, 24351.00
1399.522, 24336.00
1400.578, 24285.00
1401.635, 24300.00
1402.691, 24388.00
1403.747, 24448.00
1404.803, 24473.44
1405.859, 24323.00
1406.914, 24570.00
1407.970, 24421.60
