##NAMES=Gmelinite-Na
##RRUFFID=R050371
##IDEAL CHEMISTRY=Na_4_(Si_8_Al_4_)O_24_&#183;11H_2_O
##LOCALITY=Cairns Bay, Flinders Range, Australia
##OWNER=RRUFF
##SOURCE=Eugene Schlepp
##DESCRIPTION=Colorless to pink crystals lining a basalt vug
##STATUS=The identification of this mineral has been confirmed by X-ray diffraction and chemical analysis
##URL=rruff.info/R050371
##MEASURED CHEMISTRY=Na_3.81_(Si_8.13_Al_3.88_)O_24_Â·4.27H_2_O
##PIN_ID=L01937
##ORIENTATION=Laser parallel to -c* (0 0 -1). Fiducial mark perpendicular to laser is parallel to a [1 0 0]
264.8880, 11786.00
266.1030, 11818.00
267.3170, 11748.00
268.5320, 11746.00
269.7460, 11814.00
270.9600, 11677.00
272.1740, 11541.00
273.3880, 11627.00
274.6010, 11617.00
275.8150, 11677.00
277.0280, 11726.00
278.2410, 11733.00
279.4540, 11761.00
280.6670, 11823.00
281.8790, 11822.00
283.0920, 11873.00
284.3040, 11929.00
285.5160, 12050.00
286.7280, 12261.00
287.9400, 12217.00
289.1510, 12323.00
290.3630, 12529.00
291.5740, 12528.00
292.7850, 12679.00
293.9960, 12818.00
295.2070, 12929.00
296.4170, 13199.00
297.6280, 13173.00
298.8380, 13507.00
300.0480, 13603.00
301.2580, 14009.00
302.4680, 14190.08
303.6770, 14307.00
304.8870, 14640.00
306.0960, 14936.00
307.3050, 15157.00
308.5140, 15633.00
309.7230, 16182.00
310.9310, 16684.00
312.1400, 17287.00
313.3480, 17788.55
314.5560, 18318.00
315.7640, 18822.00
316.9720, 19313.00
318.1790, 19799.22
319.3870, 20500.00
320.5940, 20585.00
321.8010, 20869.00
323.0080, 21087.00
324.2150, 20932.00
325.4210, 20710.00
326.6280, 20475.00
327.8340, 20489.00
329.0400, 19433.00
330.2460, 18926.00
331.4510, 18072.00
332.6570, 17891.00
333.8620, 17056.00
335.0680, 16592.00
336.2730, 16070.00
337.4780, 15745.00
338.6820, 15287.35
339.8870, 14906.00
341.0910, 14515.00
342.2950, 14313.00
343.5000, 13985.00
344.7030, 13816.00
345.9070, 13644.00
347.1110, 13339.00
348.3140, 13274.00
349.5170, 13181.00
350.7200, 13003.00
351.9230, 13016.00
353.1260, 12898.00
354.3290, 12946.00
355.5310, 12772.00
356.7330, 12735.00
357.9350, 12648.00
359.1370, 12828.00
360.3390, 12673.00
361.5400, 12808.00
362.7420, 12862.00
363.9430, 12782.00
365.1440, 12908.00
366.3450, 12890.00
367.5460, 12932.00
368.7460, 12974.00
369.9470, 13073.00
371.1470, 13171.00
372.3470, 13260.00
373.5470, 13333.00
374.7460, 13459.00
375.9460, 13569.33
377.1450, 13702.00
378.3450, 13829.00
379.5440, 13989.56
380.7430, 14194.00
381.9410, 14332.00
383.1400, 14563.00
384.3380, 14747.00
385.5370, 14837.00
386.7350, 15180.00
387.9320, 15415.00
389.1300, 15559.00
390.3280, 15846.00
391.5250, 16313.00
392.7220, 16579.00
393.9190, 17022.00
395.1160, 17387.00
396.3130, 17925.28
397.5100, 18459.00
398.7060, 19221.00
399.9020, 19986.00
401.0980, 20938.00
402.2940, 21667.00
403.4900, 22769.00
404.6860, 23815.00
405.8810, 24659.00
407.0760, 25542.00
408.2710, 26039.00
409.4660, 26445.00
410.6610, 26509.00
411.8550, 26502.00
413.0500, 25882.00
414.2440, 25348.00
415.4380, 24695.00
416.6320, 23912.00
417.8260, 22638.00
419.0190, 21963.00
420.2130, 20941.00
421.4060, 20262.00
422.5990, 19471.00
423.7920, 18836.00
424.9850, 18246.00
426.1770, 17682.00
427.3700, 17459.00
428.5620, 17128.00
429.7540, 16728.00
430.9460, 16652.00
432.1380, 16396.00
433.3290, 16321.00
434.5210, 16268.00
435.7120, 16188.00
436.9030, 16293.00
438.0940, 16225.00
439.2850, 16330.00
440.4750, 16380.00
441.6660, 16486.00
442.8560, 16537.00
444.0460, 16685.00
445.2360, 16672.00
446.4260, 17000.00
447.6160, 17123.00
448.8050, 17410.00
449.9940, 17383.00
451.1830, 17656.00
452.3720, 17979.00
453.5610, 18117.00
454.7500, 18548.00
455.9380, 19216.00
457.1260, 19452.00
458.3150, 19578.00
459.5020, 20301.00
460.6900, 20615.00
461.8780, 21064.00
463.0650, 21767.00
464.2530, 22310.00
465.4400, 23121.00
466.6270, 23965.00
467.8130, 24680.00
469.0000, 25830.00
470.1870, 26582.00
471.3730, 27841.00
472.5590, 28978.00
473.7450, 30009.00
474.9310, 31612.00
476.1160, 33048.00
477.3020, 34465.00
478.4870, 36141.00
479.6720, 37996.00
480.8570, 39412.00
482.0420, 41662.00
483.2270, 43618.00
484.4110, 45314.00
485.5960, 47436.00
486.7800, 49301.00
487.9640, 51207.00
489.1480, 52749.00
490.3310, 54595.00
491.5150, 55524.00
492.6980, 56507.00
493.8810, 57459.00
495.0640, 57812.00
496.2470, 57538.00
497.4300, 56912.00
498.6120, 56310.00
499.7950, 54968.00
500.9770, 53569.00
502.1590, 51622.00
503.3410, 49049.00
504.5220, 46535.00
505.7040, 44016.00
506.8850, 41254.00
508.0660, 38294.00
509.2470, 35879.00
510.4280, 33423.00
511.6090, 30987.00
512.7890, 28732.00
513.9700, 27110.00
515.1500, 25201.00
516.3300, 23652.00
517.5100, 22550.00
518.6900, 21056.00
519.8690, 20070.00
521.0490, 19187.00
522.2280, 18325.00
523.4070, 17748.00
524.5860, 16961.00
525.7640, 16422.00
526.9430, 16114.00
528.1210, 15593.00
529.3000, 15145.00
530.4780, 14819.00
531.6560, 14565.00
532.8330, 14150.00
534.0110, 13900.00
535.1880, 13800.00
536.3650, 13628.00
537.5430, 13385.00
538.7190, 13296.00
539.8960, 13169.00
541.0730, 12961.00
542.2490, 12957.00
543.4250, 12853.00
544.6020, 12815.00
545.7780, 12520.00
546.9530, 12612.00
548.1290, 12400.00
549.3040, 12246.00
550.4800, 12318.00
551.6550, 12287.00
552.8300, 12306.00
554.0040, 12071.00
555.1790, 12053.00
556.3540, 11989.00
557.5280, 12019.00
558.7020, 11970.45
559.8760, 11921.09
561.0500, 11909.00
562.2230, 11812.00
563.3970, 11760.00
564.5700, 11717.00
565.7430, 11755.00
566.9160, 11613.00
568.0890, 11751.00
569.2620, 11902.00
570.4340, 11651.00
571.6070, 11741.00
572.7790, 11721.00
573.9510, 11696.00
575.1230, 11646.00
576.2940, 11839.00
577.4660, 11702.00
578.6370, 11766.00
579.8080, 11726.00
580.9790, 11650.00
582.1500, 11693.00
583.3210, 11671.93
584.4910, 11771.00
585.6620, 11724.00
586.8320, 11768.00
588.0020, 11831.00
589.1720, 11943.00
590.3410, 11784.00
591.5110, 11875.00
592.6800, 11820.00
593.8500, 11739.00
595.0190, 11835.00
596.1880, 11878.00
597.3560, 11834.00
598.5250, 11811.00
599.6930, 11795.00
600.8620, 11760.84
602.0300, 11758.00
603.1970, 11719.00
604.3650, 11755.00
605.5330, 11761.00
606.7000, 11845.00
607.8680, 11878.00
609.0350, 11832.00
610.2020, 11802.00
611.3680, 11787.88
612.5350, 11870.00
613.7010, 11718.00
614.8680, 11723.00
616.0340, 11672.00
617.2000, 11826.00
618.3660, 11692.00
619.5310, 11715.00
620.6970, 11659.00
621.8620, 11669.00
623.0270, 11726.00
624.1920, 11683.00
625.3570, 11802.00
626.5220, 11576.00
627.6860, 11750.00
628.8500, 11672.00
630.0140, 11776.00
631.1780, 11836.00
632.3420, 11681.00
633.5060, 11785.00
634.6700, 11763.00
635.8330, 11776.00
636.9960, 11811.00
638.1590, 11963.00
639.3220, 12034.00
640.4850, 12046.00
641.6470, 11953.00
642.8100, 12030.00
643.9720, 12142.00
645.1340, 12083.00
646.2960, 12283.00
647.4570, 12216.00
648.6190, 12300.00
649.7800, 12405.00
650.9420, 12266.00
652.1030, 12278.00
653.2640, 12395.00
654.4240, 12285.00
655.5850, 12269.00
656.7450, 12251.00
657.9060, 12270.00
659.0660, 12145.00
660.2260, 12126.00
661.3850, 12145.00
662.5450, 12103.00
663.7040, 11978.00
664.8640, 11907.00
666.0230, 11921.00
667.1820, 11821.00
668.3410, 11787.00
669.4990, 11686.00
670.6580, 11544.00
671.8160, 11764.00
672.9740, 11709.00
674.1320, 11654.00
675.2900, 11617.00
676.4480, 11640.00
677.6050, 11597.00
678.7630, 11596.00
679.9200, 11575.12
681.0770, 11525.00
682.2340, 11538.00
683.3900, 11513.00
684.5470, 11520.00
685.7030, 11463.00
686.8590, 11516.00
688.0150, 11473.00
689.1710, 11473.00
690.3270, 11425.00
691.4830, 11502.00
692.6380, 11412.00
693.7930, 11591.00
694.9480, 11507.00
696.1030, 11656.00
697.2580, 11508.00
698.4130, 11516.00
699.5670, 11376.00
700.7210, 11535.00
701.8750, 11537.00
703.0290, 11619.00
704.1830, 11606.00
705.3370, 11709.00
706.4900, 11764.62
707.6430, 11799.41
708.7970, 11885.00
709.9490, 11838.00
711.1020, 11822.00
712.2550, 11716.00
713.4070, 11754.00
714.5600, 11639.00
715.7120, 11878.00
716.8640, 11720.00
718.0160, 11791.00
719.1670, 11790.54
720.3190, 11791.09
721.4700, 11700.00
722.6210, 11894.00
723.7720, 11794.00
724.9230, 11876.00
726.0740, 11911.00
727.2250, 11817.00
728.3750, 11918.00
729.5250, 11965.00
730.6750, 11913.00
731.8250, 11879.00
732.9750, 11989.00
734.1240, 11835.00
735.2740, 12061.00
736.4230, 11870.00
737.5720, 11999.00
738.7210, 11901.00
739.8700, 12122.00
741.0190, 12012.00
742.1670, 12125.00
743.3150, 12026.00
744.4630, 12055.00
745.6110, 12178.00
746.7590, 12318.00
747.9070, 12271.00
749.0540, 12153.00
750.2020, 12347.00
751.3490, 12524.00
752.4960, 12420.00
753.6430, 12585.00
754.7890, 12621.00
755.9360, 12759.00
757.0820, 12939.00
758.2280, 13003.00
759.3740, 13071.00
760.5200, 13120.00
761.6660, 13209.00
762.8120, 13274.00
763.9570, 13184.00
765.1020, 13215.00
766.2470, 13347.00
767.3920, 13280.00
768.5370, 13157.00
769.6810, 13070.00
770.8260, 13126.00
771.9700, 13000.00
773.1140, 13097.00
774.2580, 13072.00
775.4020, 13007.00
776.5460, 13017.82
777.6890, 12915.35
778.8320, 12925.00
779.9750, 12747.00
781.1180, 12662.00
782.2610, 12614.00
783.4040, 12565.00
784.5460, 12509.25
785.6890, 12461.00
786.8310, 12468.00
787.9730, 12403.00
789.1150, 12484.00
790.2560, 12365.00
791.3980, 12438.00
792.5390, 12385.00
793.6810, 12362.00
794.8220, 12395.00
795.9630, 12206.00
797.1030, 12234.00
798.2440, 12206.00
799.3840, 12243.00
800.5240, 12207.47
801.6650, 12107.00
802.8040, 12109.00
803.9440, 12113.00
805.0840, 11989.00
806.2230, 11866.00
807.3630, 11923.00
808.5020, 11982.00
809.6410, 11901.00
810.7790, 11805.00
811.9180, 12026.00
813.0570, 11826.00
814.1950, 11794.00
815.3330, 11897.00
816.4710, 11850.00
817.6090, 11818.00
818.7470, 11781.00
819.8840, 11871.00
821.0220, 11860.00
822.1590, 11832.00
823.2960, 11751.00
824.4330, 11717.00
825.5690, 11765.00
826.7060, 11752.13
827.8420, 11808.00
828.9790, 11806.00
830.1150, 11843.00
831.2510, 11832.00
832.3860, 11878.00
833.5220, 11898.00
834.6570, 11871.40
835.7930, 11810.00
836.9280, 11800.00
838.0630, 11863.00
839.1980, 11795.00
840.3320, 11878.00
841.4670, 11923.00
842.6010, 11907.00
843.7350, 11785.00
844.8690, 11855.00
846.0030, 11750.00
847.1370, 11857.00
848.2700, 11821.00
849.4040, 11854.00
850.5370, 11894.00
851.6700, 11851.00
852.8030, 11846.00
853.9360, 11838.00
855.0680, 11902.00
856.2000, 11839.00
857.3330, 11904.00
858.4650, 11982.00
859.5970, 11853.00
860.7290, 11955.00
861.8600, 11812.00
862.9920, 11902.00
864.1230, 11901.00
865.2540, 11908.00
866.3850, 11992.00
867.5160, 11975.00
868.6460, 11941.00
869.7770, 11901.00
870.9070, 11940.00
872.0370, 11819.00
873.1670, 11833.00
874.2970, 12033.00
875.4270, 12059.00
876.5570, 11886.00
877.6860, 12126.00
878.8150, 12142.00
879.9440, 12067.00
881.0730, 12140.35
882.2020, 12067.75
883.3300, 12081.00
884.4590, 11994.00
885.5870, 11951.00
886.7150, 11961.00
887.8430, 12038.00
888.9710, 12096.00
890.0990, 12005.00
891.2260, 12129.00
892.3530, 11979.00
893.4810, 12092.00
894.6080, 11999.00
895.7340, 12033.00
896.8610, 12031.00
897.9880, 12012.00
899.1140, 12025.00
900.2400, 12157.00
901.3660, 12105.00
902.4920, 12144.00
903.6180, 12181.00
904.7430, 12072.00
905.8690, 12076.00
906.9940, 12143.00
908.1190, 12652.00
909.2440, 12461.00
910.3690, 12746.00
911.4930, 12635.00
912.6180, 12916.00
913.7420, 12674.07
914.8660, 12226.00
915.9900, 12263.00
917.1140, 12274.00
918.2380, 12261.00
919.3610, 12304.15
920.4850, 12266.00
921.6080, 12378.00
922.7310, 12337.00
923.8540, 12399.00
924.9760, 12271.00
926.0990, 12317.00
927.2210, 12292.00
928.3440, 12396.00
929.4660, 12456.00
930.5880, 12443.00
931.7090, 12445.00
932.8310, 12611.00
933.9520, 12414.00
935.0740, 12708.00
936.1950, 12496.00
937.3160, 12570.00
938.4360, 12464.00
939.5570, 12628.00
940.6780, 12566.00
941.7980, 12666.00
942.9180, 12488.00
944.0380, 12584.00
945.1580, 12639.00
946.2780, 12587.00
947.3970, 12711.00
948.5170, 12758.00
949.6360, 12816.00
950.7550, 12693.00
951.8740, 12809.00
952.9930, 12651.00
954.1110, 12820.00
955.2300, 12814.00
956.3480, 12738.00
957.4660, 12966.00
958.5840, 12928.00
959.7020, 12942.00
960.8190, 13009.00
961.9370, 12897.00
963.0540, 13083.00
964.1710, 13098.00
965.2880, 13055.00
966.4050, 13088.00
967.5220, 13275.00
968.6380, 13143.00
969.7550, 13430.00
970.8710, 13326.00
971.9870, 13571.00
973.1030, 13590.00
974.2190, 13641.00
975.3340, 13643.00
976.4500, 13752.00
977.5650, 13868.00
978.6800, 13853.00
979.7950, 13973.00
980.9100, 13873.00
982.0250, 14064.00
983.1390, 14111.00
984.2530, 14213.00
985.3680, 14106.00
986.4820, 14090.00
987.5950, 14256.00
988.7090, 14465.00
989.8230, 14396.00
990.9360, 14279.00
992.0490, 14505.00
993.1620, 14483.00
994.2750, 14547.00
995.3880, 14631.00
996.5010, 14618.00
997.6130, 14638.00
998.7250, 14756.00
999.8370, 14875.00
1000.949, 14838.00
1002.061, 14981.00
1003.173, 14817.00
1004.284, 14956.00
1005.396, 14998.00
1006.507, 15073.00
1007.618, 15037.00
1008.729, 15138.00
1009.839, 15149.00
1010.950, 15144.00
1012.060, 15259.00
1013.171, 15287.00
1014.281, 15140.00
1015.391, 15261.00
1016.500, 15193.00
1017.610, 15286.00
1018.719, 15292.00
1019.829, 15267.00
1020.938, 15264.00
1022.047, 15328.00
1023.156, 15296.00
1024.264, 15191.00
1025.373, 15330.00
1026.481, 15110.00
1027.589, 15234.00
1028.697, 15163.00
1029.805, 15119.00
1030.913, 15195.00
1032.020, 15159.00
1033.128, 15237.00
1034.235, 15048.00
1035.342, 15118.00
1036.449, 15036.00
1037.556, 14964.00
1038.663, 15057.00
1039.769, 15076.00
1040.875, 15010.00
1041.981, 14938.00
1043.087, 14878.00
1044.193, 14934.00
1045.299, 14901.00
1046.404, 14928.00
1047.510, 14898.00
1048.615, 14905.98
1049.720, 14800.00
1050.825, 14940.00
1051.930, 14996.00
1053.034, 15071.00
1054.139, 14988.00
1055.243, 15032.00
1056.347, 15080.23
1057.451, 15240.00
1058.555, 15220.00
1059.658, 15306.00
1060.762, 15424.00
1061.865, 15464.00
1062.968, 15654.00
1064.071, 15846.00
1065.174, 15993.00
1066.277, 16034.00
1067.380, 16259.00
1068.482, 16318.00
1069.584, 16379.00
1070.686, 16622.00
1071.788, 16597.00
1072.890, 16848.00
1073.992, 17023.00
1075.093, 17001.00
1076.194, 17235.00
1077.295, 17317.00
1078.396, 17636.00
1079.497, 17703.00
1080.598, 17758.00
1081.698, 17977.00
1082.799, 18220.00
1083.899, 18272.00
1084.999, 18485.00
1086.099, 18439.00
1087.199, 18669.00
1088.298, 18746.00
1089.398, 19060.00
1090.497, 19071.00
1091.596, 19006.00
1092.695, 19169.00
1093.794, 19400.00
1094.892, 19293.00
1095.991, 19536.00
1097.089, 19606.00
1098.187, 19693.00
1099.285, 19552.00
1100.383, 19868.00
1101.481, 19715.00
1102.579, 19795.00
1103.676, 20027.00
1104.773, 19927.00
1105.870, 19936.00
1106.967, 20088.00
1108.064, 20129.00
1109.161, 19870.00
1110.257, 19903.00
1111.353, 19853.00
1112.449, 19804.00
1113.545, 19944.00
1114.641, 19987.00
1115.737, 19945.31
1116.832, 19884.00
1117.928, 19859.00
1119.023, 19739.00
1120.118, 19665.00
1121.213, 19846.00
1122.308, 19720.00
1123.402, 19694.00
1124.497, 19367.00
1125.591, 19367.00
1126.685, 19178.00
1127.779, 19020.00
1128.873, 19060.00
1129.967, 18833.00
1131.060, 18513.00
1132.153, 18763.00
1133.247, 18548.00
1134.340, 18676.00
1135.433, 18419.01
1136.525, 18295.00
1137.618, 17968.00
1138.710, 17982.00
1139.802, 18060.00
1140.895, 17789.00
1141.987, 17815.00
1143.078, 17694.00
1144.170, 17401.00
1145.261, 17525.00
1146.353, 17326.00
1147.444, 17355.00
1148.535, 17075.00
1149.626, 17028.00
1150.716, 16917.00
1151.807, 16739.00
1152.897, 16817.00
1153.988, 16634.00
1155.078, 16588.00
1156.168, 16597.00
1157.257, 16318.00
1158.347, 16340.00
1159.436, 16298.00
1160.526, 16187.00
1161.615, 16123.00
1162.704, 16054.79
1163.793, 15991.00
1164.881, 15923.00
1165.970, 15845.00
1167.058, 15789.00
1168.147, 15581.00
1169.235, 15674.00
1170.323, 15543.00
1171.410, 15666.00
1172.498, 15459.00
1173.585, 15419.00
1174.673, 15187.00
1175.760, 15254.00
1176.847, 15350.00
1177.934, 15349.00
1179.020, 14985.00
1180.107, 15220.00
1181.193, 15183.00
1182.279, 14950.00
1183.365, 15108.00
1184.451, 15074.00
1185.537, 14961.00
1186.623, 15037.00
1187.708, 15098.00
1188.793, 15022.00
1189.878, 15017.00
1190.963, 14976.00
1192.048, 15002.00
1193.133, 14882.00
1194.217, 14991.00
1195.302, 14844.00
1196.386, 14726.00
1197.470, 14825.00
1198.554, 15028.00
1199.638, 14778.00
1200.721, 14826.00
1201.805, 14901.00
1202.888, 14861.00
1203.971, 14928.00
1205.054, 14879.00
1206.137, 14953.00
1207.219, 14866.00
1208.302, 14872.00
1209.384, 14920.00
1210.466, 14879.00
1211.548, 14894.89
1212.630, 14831.00
1213.712, 14882.00
1214.794, 14859.00
1215.875, 14854.00
1216.956, 14958.00
1218.037, 15010.00
1219.118, 14941.00
1220.199, 14956.00
1221.280, 14823.00
1222.360, 14849.00
1223.441, 14822.00
1224.521, 14912.00
1225.601, 14900.00
1226.681, 15074.00
1227.760, 14955.00
1228.840, 14947.00
1229.919, 15110.00
1230.999, 15032.66
1232.078, 15101.49
1233.157, 15039.00
1234.236, 15076.00
1235.314, 15034.00
1236.393, 14854.00
1237.471, 15136.00
1238.549, 14788.00
1239.627, 15106.00
1240.705, 15046.00
1241.783, 15118.00
1242.860, 14913.00
1243.938, 15095.00
1245.015, 14989.00
1246.092, 15039.00
1247.169, 15038.00
1248.246, 15059.00
1249.323, 15062.00
1250.399, 15145.00
1251.475, 15127.69
1252.552, 15146.00
1253.628, 15106.00
1254.703, 15184.00
1255.779, 15117.00
1256.855, 15166.00
1257.930, 15231.00
1259.005, 15251.00
1260.080, 15137.00
1261.155, 15177.00
1262.230, 15301.00
1263.305, 15198.00
1264.379, 15310.00
1265.454, 15264.00
1266.528, 15251.00
1267.602, 15312.00
1268.676, 15270.00
1269.750, 15345.00
1270.823, 15301.00
1271.897, 15421.00
1272.970, 15136.00
1274.043, 15381.00
1275.116, 15342.00
1276.189, 15337.00
1277.261, 15510.00
1278.334, 15504.00
1279.406, 15388.00
1280.478, 15534.00
1281.550, 15461.00
1282.622, 15591.00
1283.694, 15608.00
1284.766, 15432.00
1285.837, 15538.00
1286.908, 15495.00
1287.979, 15542.00
1289.050, 15636.00
1290.121, 15752.00
1291.192, 15741.92
1292.262, 15687.00
1293.333, 15731.00
1294.403, 15746.00
1295.473, 15716.00
1296.543, 15660.00
1297.613, 15849.00
1298.682, 15721.00
1299.752, 15806.00
1300.821, 15772.00
1301.890, 15822.00
1302.959, 15823.00
1304.028, 15810.00
1305.096, 15893.00
1306.165, 15871.00
1307.233, 16017.00
1308.301, 15944.00
1309.370, 15932.00
1310.437, 16050.00
1311.505, 15974.00
1312.573, 16127.00
1313.640, 15908.00
1314.708, 16004.00
1315.775, 15979.00
1316.842, 16081.00
1317.908, 16081.00
1318.975, 16025.00
1320.042, 15964.00
1321.108, 16071.00
1322.174, 16100.00
1323.240, 16195.00
1324.306, 16091.00
1325.372, 16230.00
1326.438, 16086.00
1327.503, 16078.00
1328.568, 16153.00
1329.634, 15965.00
1330.699, 15957.00
1331.763, 16061.00
1332.828, 16125.00
1333.893, 16184.00
1334.957, 16084.00
1336.021, 16116.00
1337.085, 16010.00
1338.149, 16140.00
1339.213, 15895.00
1340.277, 15852.00
1341.340, 15979.00
1342.404, 15885.00
1343.467, 16000.00
1344.530, 16086.00
1345.593, 15923.00
1346.655, 15850.00
1347.718, 16057.00
1348.780, 15992.00
1349.843, 16172.00
1350.905, 16115.00
1351.967, 16071.00
1353.028, 16186.00
1354.090, 16180.00
1355.152, 16066.00
1356.213, 16134.00
1357.274, 15978.00
1358.335, 16128.00
1359.396, 16108.00
1360.457, 15819.00
1361.517, 16008.00
1362.578, 16107.00
1363.638, 16045.00
1364.698, 15865.00
1365.758, 16100.00
1366.818, 16094.00
1367.878, 16032.00
1368.937, 16182.00
1369.997, 16131.00
1371.056, 16093.00
1372.115, 16036.00
1373.174, 16159.00
1374.232, 16085.00
1375.291, 16095.00
1376.350, 16194.00
1377.408, 16070.00
1378.466, 15914.00
1379.524, 16210.00
1380.582, 16096.00
1381.640, 16158.00
1382.697, 15913.00
1383.754, 16044.00
1384.812, 16062.00
1385.869, 16237.00
1386.926, 16112.00
1387.983, 16088.00
1389.039, 16128.00
1390.096, 16002.00
1391.152, 16183.00
1392.208, 16042.00
1393.264, 16192.00
1394.320, 16236.00
1395.376, 16131.00
1396.431, 16326.00
1397.487, 16076.00
1398.542, 16294.00
1399.597, 16229.00
1400.652, 16214.00
1401.707, 15997.00
1402.762, 16182.00
1403.816, 16160.00
1404.871, 16336.00
1405.925, 16182.00
1406.979, 16248.00
1408.033, 16230.00
1409.086, 16246.00
1410.140, 16305.00
1411.194, 16221.00
1412.247, 16237.00
1413.300, 16408.00
1414.353, 16318.00
1415.406, 16502.00
1416.458, 16226.00
1417.511, 16500.00
1418.563, 16512.00
1419.616, 16297.00
1420.668, 16310.00
1421.720, 16479.00
