##NAMES=Grossular
##RRUFFID=R070551
##IDEAL CHEMISTRY=Ca_3_Al_2_(SiO_4_)_3_
##LOCALITY=Mali
##OWNER=RRUFF
##SOURCE=www.multicolour.com
##DESCRIPTION=Green gem fragments
##STATUS=The identification of this mineral has been confirmed by X-ray diffraction and chemical analysis
##URL=rruff.info/R070551
##MEASURED CHEMISTRY=(Ca_2.95_Mg_0.04_Mn_0.01_)_Σ=3_(Al_1.63_Fe^3+^_0.37_)_Σ=2_(Si_1.00_O_4_)_3_
##PIN_ID=L01189
##ORIENTATION=Laser parallel to a* (1 0 0). Fiducial mark perpendicular to laser is parallel to c [0 0 1]
63.48900, 186.0000
64.73000, 166.0000
65.97200, 142.0000
67.21400, 161.0000
68.45500, 118.0000
69.69600, 147.0000
70.93700, 146.2701
72.17800, 162.9271
73.41900, 164.0000
74.65900, 193.0000
75.90000, 196.0000
77.14000, 153.0000
78.38000, 161.0000
79.62000, 192.0000
80.85900, 249.0000
82.09900, 242.0000
83.33800, 278.0000
84.57700, 329.0000
85.81600, 364.0000
87.05500, 453.0000
88.29400, 568.0000
89.53200, 690.0000
90.77000, 883.0000
92.00800, 1052.000
93.24600, 1285.000
94.48400, 1524.000
95.72200, 1812.000
96.95900, 2143.000
98.19600, 2459.000
99.43300, 2846.000
100.6700, 3237.000
101.9070, 3511.000
103.1430, 4017.000
104.3800, 4620.000
105.6160, 4957.000
106.8520, 5555.000
108.0880, 5810.000
109.3230, 6215.000
110.5590, 6532.000
111.7940, 6676.000
113.0290, 6955.000
114.2640, 7068.000
115.4990, 7437.000
116.7340, 7637.000
117.9680, 7700.000
119.2030, 7842.000
120.4370, 7946.000
121.6710, 8002.000
122.9040, 8187.000
124.1380, 8158.000
125.3710, 8287.000
126.6050, 8353.000
127.8380, 8304.000
129.0710, 8417.000
130.3030, 8567.000
131.5360, 8418.000
132.7680, 8637.000
134.0000, 8619.000
135.2320, 8710.000
136.4640, 8851.000
137.6960, 8827.000
138.9270, 8865.000
140.1590, 8833.000
141.3900, 8864.000
142.6210, 9001.000
143.8520, 8952.000
145.0820, 8947.000
146.3130, 9192.000
147.5430, 9139.000
148.7730, 9161.000
150.0030, 9148.000
151.2330, 9225.000
152.4630, 9298.000
153.6920, 9363.000
154.9210, 9415.158
156.1510, 9480.000
157.3790, 9497.000
158.6080, 9562.000
159.8370, 9586.113
161.0650, 9656.000
162.2930, 9701.000
163.5220, 9784.000
164.7490, 9912.000
165.9770, 9960.000
167.2050, 10270.00
168.4320, 10446.00
169.6590, 10875.00
170.8860, 11345.00
172.1130, 11981.00
173.3400, 12845.00
174.5660, 13627.00
175.7930, 14827.00
177.0190, 16419.00
178.2450, 17609.00
179.4710, 19509.00
180.6960, 21956.00
181.9220, 22894.00
183.1470, 21718.00
184.3720, 19645.00
185.5970, 17258.00
186.8220, 15147.00
188.0470, 13315.00
189.2710, 12234.00
190.4950, 11810.00
191.7200, 11533.00
192.9430, 11275.00
194.1670, 11121.00
195.3910, 11170.00
196.6140, 11025.00
197.8380, 11035.00
199.0610, 11039.00
200.2830, 11019.00
201.5060, 11011.00
202.7290, 11068.00
203.9510, 10911.00
205.1730, 10973.91
206.3950, 11148.00
207.6170, 10994.00
208.8390, 11086.00
210.0610, 11120.00
211.2820, 11265.00
212.5030, 11254.00
213.7240, 11452.00
214.9450, 11602.00
216.1660, 11445.00
217.3860, 11572.00
218.6070, 11470.00
219.8270, 11741.00
221.0470, 11697.00
222.2670, 11744.00
223.4860, 11715.00
224.7060, 11717.00
225.9250, 11894.00
227.1440, 12028.68
228.3630, 12306.00
229.5820, 12537.00
230.8000, 12807.00
232.0190, 13183.00
233.2370, 13370.00
234.4550, 13763.00
235.6730, 14172.00
236.8910, 14525.00
238.1090, 14953.00
239.3260, 15199.00
240.5430, 15238.00
241.7600, 15214.00
242.9770, 15440.00
244.1940, 15411.00
245.4110, 15542.00
246.6270, 15650.00
247.8430, 15342.00
249.0590, 15168.00
250.2750, 14831.00
251.4910, 14444.00
252.7070, 14215.00
253.9220, 13859.00
255.1370, 13959.00
256.3520, 13725.00
257.5670, 13842.00
258.7820, 13955.00
259.9960, 14051.00
261.2110, 14178.00
262.4250, 14310.00
263.6390, 14600.00
264.8530, 14637.00
266.0660, 14773.00
267.2800, 15054.00
268.4930, 14970.00
269.7060, 15271.00
270.9190, 15477.00
272.1320, 15714.00
273.3450, 15848.00
274.5570, 16018.00
275.7700, 16266.00
276.9820, 16419.77
278.1940, 16730.00
279.4050, 16708.00
280.6170, 16754.00
281.8290, 16678.16
283.0400, 16449.00
284.2510, 16563.00
285.4620, 16402.00
286.6730, 16344.00
287.8830, 16399.00
289.0940, 16226.00
290.3040, 16236.00
291.5140, 15829.00
292.7240, 15513.00
293.9340, 15406.00
295.1430, 15027.00
296.3530, 14852.00
297.5620, 14573.00
298.7710, 14799.00
299.9800, 14663.00
301.1890, 14747.00
302.3970, 14739.00
303.6060, 15008.00
304.8140, 15080.00
306.0220, 15376.00
307.2300, 15474.00
308.4380, 15661.00
309.6450, 15925.00
310.8520, 16028.00
312.0600, 16209.00
313.2670, 16294.00
314.4740, 16277.00
315.6800, 16165.00
316.8870, 16386.00
318.0930, 16406.00
319.2990, 16489.00
320.5050, 16702.00
321.7110, 16750.00
322.9170, 17018.00
324.1220, 17410.00
325.3280, 17623.00
326.5330, 17857.00
327.7380, 18180.00
328.9430, 18227.00
330.1470, 18086.00
331.3520, 17943.00
332.5560, 17970.00
333.7600, 17921.00
334.9640, 17651.00
336.1680, 17707.00
337.3720, 18098.00
338.5750, 18060.00
339.7790, 18368.00
340.9820, 18291.00
342.1850, 18923.00
343.3880, 19059.00
344.5900, 19332.00
345.7930, 19891.00
346.9950, 20422.00
348.1970, 20612.00
349.3990, 21500.00
350.6010, 22092.00
351.8020, 23125.00
353.0040, 24145.00
354.2050, 25479.00
355.4060, 27620.00
356.6070, 29952.00
357.8080, 33331.00
359.0090, 37243.00
360.2090, 41910.00
361.4090, 48344.00
362.6090, 55417.00
363.8090, 63951.00
365.0090, 73756.00
366.2090, 84352.00
367.4080, 94083.00
368.6070, 103114.0
369.8060, 109504.0
371.0050, 114856.0
372.2040, 120672.0
373.4030, 127183.0
374.6010, 130380.0
375.7990, 130396.0
376.9970, 130392.0
378.1950, 127472.0
379.3930, 115835.0
380.5910, 100065.0
381.7880, 85070.00
382.9850, 70504.00
384.1820, 59000.00
385.3790, 49949.00
386.5760, 42765.00
387.7720, 37587.00
388.9690, 33110.00
390.1650, 29937.00
391.3610, 27573.00
392.5570, 25538.00
393.7530, 24027.00
394.9480, 22875.00
396.1440, 21820.00
397.3390, 21159.00
398.5340, 20686.00
399.7290, 20189.00
400.9230, 20114.00
402.1180, 20044.00
403.3120, 20042.00
404.5060, 20480.00
405.7000, 20791.00
406.8940, 21489.00
408.0880, 22211.00
409.2820, 23276.00
410.4750, 24185.00
411.6680, 24978.00
412.8610, 25252.00
414.0540, 24819.00
415.2470, 23718.00
416.4390, 22135.00
417.6310, 20454.00
418.8240, 19049.00
420.0160, 17864.00
421.2080, 16849.00
422.3990, 16361.00
423.5910, 15702.00
424.7820, 15281.00
425.9730, 15053.00
427.1640, 14813.00
428.3550, 14511.00
429.5460, 14470.00
430.7360, 14445.00
431.9270, 14537.00
433.1170, 14365.00
434.3070, 14388.00
435.4970, 14321.00
436.6860, 14363.00
437.8760, 14310.00
439.0650, 14239.00
440.2540, 14488.00
441.4430, 14616.00
442.6320, 14592.00
443.8210, 14891.00
445.0090, 15005.04
446.1970, 15152.00
447.3860, 15440.00
448.5740, 15703.00
449.7610, 15999.00
450.9490, 16199.00
452.1370, 16387.00
453.3240, 16449.00
454.5110, 16580.00
455.6980, 16780.00
456.8850, 16818.00
458.0710, 16687.00
459.2580, 16827.00
460.4440, 16868.00
461.6300, 16667.00
462.8160, 16839.00
464.0020, 16724.00
465.1880, 16693.00
466.3730, 16760.00
467.5590, 16749.00
468.7440, 16817.00
469.9290, 16608.00
471.1140, 16618.00
472.2980, 16374.00
473.4830, 16546.00
474.6670, 16393.00
475.8510, 16417.00
477.0350, 16078.00
478.2190, 16037.00
479.4020, 15854.00
480.5860, 15829.00
481.7690, 15800.00
482.9520, 15952.00
484.1350, 15895.00
485.3180, 15991.00
486.5010, 16061.00
487.6830, 16387.00
488.8660, 16633.00
490.0480, 17141.00
491.2300, 17492.00
492.4110, 17709.00
493.5930, 18273.00
494.7750, 18521.00
495.9560, 18667.00
497.1370, 18810.00
498.3180, 18731.34
499.4990, 18731.18
500.6790, 18385.00
501.8600, 18454.00
503.0400, 18166.00
504.2200, 17852.00
505.4000, 17803.00
506.5800, 17446.13
507.7600, 17215.00
508.9390, 16943.00
510.1190, 16649.00
511.2980, 16487.00
512.4770, 16214.00
513.6550, 16047.00
514.8340, 15984.00
516.0130, 15981.00
517.1910, 15788.00
518.3690, 15759.00
519.5470, 15513.00
520.7250, 15901.00
521.9020, 15778.00
523.0800, 15730.00
524.2570, 16102.00
525.4340, 16422.00
526.6110, 16290.00
527.7880, 16443.00
528.9650, 16877.00
530.1410, 16917.00
531.3180, 17591.00
532.4940, 18453.00
533.6700, 19690.00
534.8450, 21100.00
536.0210, 23234.00
537.1970, 25780.00
538.3720, 28837.00
539.5470, 32216.00
540.7220, 36294.00
541.8970, 40555.00
543.0720, 44273.00
544.2460, 47136.00
545.4200, 47662.00
546.5940, 44985.00
547.7680, 40371.00
548.9420, 34812.00
550.1160, 29534.00
551.2890, 25041.00
552.4630, 22016.00
553.6360, 19784.00
554.8090, 18296.00
555.9820, 16968.00
557.1540, 16362.00
558.3270, 15714.00
559.4990, 15490.00
560.6710, 15274.00
561.8430, 15174.00
563.0150, 15108.00
564.1870, 15054.00
565.3580, 15032.00
566.5300, 15107.00
567.7010, 14963.00
568.8720, 15088.00
570.0430, 15088.00
571.2130, 14947.00
572.3840, 14941.00
573.5540, 15040.00
574.7240, 14880.00
575.8940, 15072.00
577.0640, 14873.00
578.2340, 14975.00
579.4030, 14826.00
580.5730, 15004.00
581.7420, 14797.00
582.9110, 14702.00
584.0800, 14789.00
585.2490, 14642.00
586.4170, 14672.00
587.5850, 14512.00
588.7540, 14591.00
589.9220, 14577.00
591.0900, 14558.00
592.2570, 14609.00
593.4250, 14498.00
594.5920, 14232.00
595.7590, 14305.00
596.9260, 14504.00
598.0930, 14492.00
599.2600, 14794.00
600.4270, 14815.00
601.5930, 15333.00
602.7590, 15325.00
603.9250, 15666.00
605.0910, 15904.00
606.2570, 16328.00
607.4220, 16235.00
608.5880, 16618.00
609.7530, 16526.00
610.9180, 16704.00
612.0830, 16839.00
613.2480, 16984.00
614.4120, 17155.00
615.5770, 17175.00
616.7410, 17358.00
617.9050, 17536.00
619.0690, 17668.00
620.2330, 17679.00
621.3960, 17918.00
622.5600, 18216.00
623.7230, 18006.00
624.8860, 18413.00
626.0490, 18125.00
627.2120, 17975.00
628.3740, 17878.00
629.5370, 17504.00
630.6990, 16954.00
631.8610, 16477.00
633.0230, 16112.00
634.1850, 15494.00
635.3460, 15011.00
636.5080, 14600.00
637.6690, 14196.00
638.8300, 13925.17
639.9910, 13585.00
641.1520, 13517.00
642.3120, 13316.00
643.4730, 13210.00
644.6330, 13097.73
645.7930, 12875.00
646.9530, 12898.00
648.1130, 12711.00
649.2730, 12649.00
650.4320, 12652.00
651.5910, 12672.00
652.7510, 12605.00
653.9100, 12491.00
655.0680, 12486.00
656.2270, 12383.00
657.3850, 12425.00
658.5440, 12229.00
659.7020, 12328.00
660.8600, 12236.00
662.0180, 12203.00
663.1750, 12125.00
664.3330, 12206.00
665.4900, 12283.00
666.6470, 12239.00
667.8040, 12245.00
668.9610, 12222.00
670.1180, 12265.00
671.2740, 12260.61
672.4310, 12287.00
673.5870, 12264.00
674.7430, 12224.00
675.8990, 12174.00
677.0550, 12295.00
678.2100, 12304.00
679.3660, 12101.00
680.5210, 12266.00
681.6760, 12096.00
682.8310, 12259.00
683.9850, 12170.00
685.1400, 12229.00
686.2940, 12418.00
687.4490, 12246.00
688.6030, 12238.00
689.7570, 12237.00
690.9100, 12299.00
692.0640, 12273.00
693.2170, 12240.00
694.3700, 12469.00
695.5240, 12121.00
696.6760, 12383.00
697.8290, 12195.00
698.9820, 12223.00
700.1340, 12141.00
701.2870, 12378.00
702.4390, 12396.00
703.5910, 12239.00
704.7420, 12430.00
705.8940, 12339.00
707.0450, 12653.00
708.1970, 12508.00
709.3480, 12290.00
710.4990, 12363.00
711.6500, 12487.00
712.8000, 12598.00
713.9510, 12604.08
715.1010, 12492.00
716.2510, 12566.00
717.4010, 12509.00
718.5510, 12389.00
719.7010, 12552.00
720.8500, 12590.00
721.9990, 12685.00
723.1490, 12562.00
724.2980, 12666.00
725.4460, 12488.00
726.5950, 12631.00
727.7440, 12676.00
728.8920, 12671.00
730.0400, 12649.00
731.1880, 12651.00
732.3360, 12721.00
733.4840, 12803.00
734.6310, 12725.00
735.7790, 12928.00
736.9260, 12839.00
738.0730, 12872.00
739.2200, 12796.00
740.3670, 12886.00
741.5130, 12955.00
742.6600, 12975.00
743.8060, 12967.00
744.9520, 13016.00
746.0980, 13029.37
747.2440, 12993.00
748.3890, 13096.00
749.5350, 13174.00
750.6800, 13235.00
751.8250, 13171.00
752.9700, 13175.00
754.1150, 13143.00
755.2590, 13213.00
756.4040, 13311.00
757.5480, 13301.00
758.6920, 13443.00
759.8360, 13481.00
760.9800, 13434.00
762.1230, 13674.00
763.2670, 13575.00
764.4100, 13746.00
765.5530, 13813.00
766.6960, 13938.00
767.8390, 14269.00
768.9820, 14335.00
770.1240, 14287.00
771.2670, 14396.00
772.4090, 14700.00
773.5510, 14649.00
774.6930, 14739.00
775.8350, 14576.00
776.9760, 14565.00
778.1170, 14612.00
779.2590, 14620.00
780.4000, 14553.00
781.5410, 14573.92
782.6810, 14525.00
783.8220, 14565.00
784.9620, 14543.00
786.1020, 14597.00
787.2430, 14760.00
788.3820, 14873.00
789.5220, 14773.00
790.6620, 14977.00
791.8010, 14991.00
792.9400, 15308.00
794.0800, 15458.00
795.2190, 15410.00
796.3570, 15907.00
797.4960, 16265.00
798.6340, 16383.00
799.7730, 16983.00
800.9110, 17301.00
802.0490, 18054.00
803.1870, 18747.00
804.3240, 19317.00
805.4620, 20483.00
806.5990, 21407.00
807.7360, 22269.00
808.8730, 23599.00
810.0100, 24828.00
811.1470, 26033.00
812.2830, 27062.00
813.4200, 28336.00
814.5560, 29622.00
815.6920, 30690.00
816.8280, 32091.00
817.9630, 33304.00
819.0990, 34596.00
820.2340, 35527.00
821.3700, 36717.00
822.5050, 37391.00
823.6400, 37822.00
824.7740, 38527.00
825.9090, 38408.00
827.0430, 37735.00
828.1780, 37507.00
829.3120, 36928.00
830.4460, 36216.00
831.5790, 35518.00
832.7130, 34988.00
833.8460, 34330.00
834.9800, 33858.00
836.1130, 33500.00
837.2460, 32834.00
838.3790, 32565.00
839.5110, 32073.00
840.6440, 31606.00
841.7760, 31677.00
842.9080, 31417.00
844.0400, 31094.00
845.1720, 31332.00
846.3040, 31390.00
847.4350, 31359.00
848.5670, 31508.00
849.6980, 31659.00
850.8290, 31523.00
851.9600, 31767.00
853.0910, 31797.00
854.2210, 32213.00
855.3520, 32100.00
856.4820, 32433.00
857.6120, 32932.00
858.7420, 33746.00
859.8720, 34340.00
861.0010, 35383.00
862.1310, 37228.00
863.2600, 38957.00
864.3890, 41365.00
865.5180, 44226.00
866.6470, 47558.00
867.7750, 51912.00
868.9040, 56872.00
870.0320, 63173.00
871.1600, 70039.00
872.2880, 77718.00
873.4160, 86208.00
874.5440, 94356.00
875.6710, 102504.0
876.7990, 109955.0
877.9260, 115348.0
879.0530, 118595.0
880.1800, 118090.0
881.3060, 114912.0
882.4330, 109287.0
883.5590, 100885.0
884.6860, 91300.00
885.8120, 81622.00
886.9380, 72501.00
888.0630, 64441.00
889.1890, 57053.00
890.3140, 51436.00
891.4400, 46554.00
892.5650, 42270.00
893.6900, 39407.00
894.8140, 36777.00
895.9390, 34565.00
897.0640, 32437.00
898.1880, 31392.00
899.3120, 30093.00
900.4360, 29092.00
901.5600, 28345.00
902.6830, 27522.00
903.8070, 26873.00
904.9300, 26036.00
906.0540, 25458.00
907.1770, 24936.00
908.2990, 24421.00
909.4220, 23642.00
910.5450, 23083.00
911.6670, 22736.00
912.7890, 22038.00
913.9110, 21787.00
915.0330, 21021.00
916.1550, 20978.00
917.2770, 20564.00
918.3980, 20153.00
919.5190, 19877.00
920.6400, 19628.00
921.7610, 19721.00
922.8820, 19281.00
924.0030, 19251.00
925.1230, 18910.00
926.2440, 18952.00
927.3640, 18766.00
928.4840, 18668.00
929.6040, 18545.00
930.7230, 18365.00
931.8430, 18228.00
932.9620, 18228.00
934.0810, 18293.00
935.2000, 18231.00
936.3190, 18217.00
937.4380, 18536.00
938.5570, 18557.00
939.6750, 18697.00
940.7930, 18877.00
941.9110, 19190.00
943.0290, 19339.00
944.1470, 19243.00
945.2650, 19460.00
946.3820, 19362.00
947.4990, 19434.00
948.6160, 19266.00
949.7330, 19092.00
950.8500, 18959.00
951.9670, 18563.00
953.0830, 18352.00
954.2000, 17927.00
955.3160, 17812.00
956.4320, 17524.00
957.5480, 17146.00
958.6630, 16963.00
959.7790, 16634.00
960.8940, 16625.00
962.0100, 16334.00
963.1250, 16559.00
964.2390, 16418.00
965.3540, 16410.00
966.4690, 16652.00
967.5830, 16655.00
968.6970, 16831.00
969.8120, 17271.00
970.9260, 17388.00
972.0390, 17565.00
973.1530, 17910.00
974.2660, 18336.00
975.3800, 18331.00
976.4930, 18855.00
977.6060, 19026.84
978.7190, 19261.00
979.8310, 19579.00
980.9440, 19582.00
982.0560, 19965.00
983.1680, 19914.00
984.2810, 20239.00
985.3920, 20414.00
986.5040, 20650.00
987.6160, 20650.00
988.7270, 20726.00
989.8380, 21069.00
990.9490, 20827.00
992.0600, 20968.00
993.1710, 21124.00
994.2820, 20959.00
995.3920, 21521.00
996.5030, 21375.00
997.6130, 21607.00
998.7230, 21736.00
999.8330, 21925.00
1000.942, 22385.00
1002.052, 22558.00
1003.161, 22629.00
1004.270, 22861.00
1005.379, 22620.00
1006.488, 22431.00
1007.597, 22070.00
1008.705, 21559.00
1009.814, 20950.00
1010.922, 20174.00
1012.030, 19505.00
1013.138, 18701.00
1014.246, 18182.00
1015.354, 17746.00
1016.461, 17284.00
1017.568, 16943.07
1018.675, 16676.00
1019.782, 16391.00
1020.889, 16269.00
1021.996, 16158.00
1023.102, 16024.00
1024.209, 15999.00
1025.315, 15847.00
1026.421, 15848.00
1027.527, 15762.00
1028.633, 15685.00
1029.738, 15556.00
1030.844, 15658.00
1031.949, 15516.00
1033.054, 15388.00
1034.159, 15483.00
1035.264, 15239.00
1036.368, 15503.00
1037.473, 15374.00
1038.577, 14975.00
1039.681, 15407.00
1040.785, 15022.00
1041.889, 15241.00
1042.993, 15019.00
1044.096, 15077.00
1045.199, 15011.00
1046.303, 15054.00
1047.406, 15211.00
1048.509, 15074.00
1049.611, 15197.00
1050.714, 15009.00
1051.816, 14934.00
1052.918, 15095.00
1054.021, 14895.00
1055.123, 14976.00
1056.224, 15039.00
1057.326, 14816.00
1058.427, 15004.00
1059.529, 14869.00
1060.630, 14761.00
1061.731, 14920.00
1062.832, 14899.00
1063.932, 14977.00
1065.033, 14918.00
1066.133, 15010.00
1067.233, 14739.00
1068.333, 15070.00
1069.433, 14871.00
1070.533, 14882.00
1071.633, 15031.00
1072.732, 15045.00
1073.831, 15125.00
1074.930, 14910.00
1076.029, 15059.00
1077.128, 15023.00
1078.227, 14953.00
1079.325, 15068.00
1080.424, 14985.00
1081.522, 15035.00
1082.620, 15099.00
1083.718, 15086.00
1084.815, 15116.00
1085.913, 15115.76
1087.010, 15118.41
1088.108, 15098.00
1089.205, 15138.00
1090.302, 15131.00
1091.398, 15172.00
1092.495, 15034.00
1093.591, 15025.00
1094.688, 15114.00
1095.784, 14978.00
1096.880, 15164.00
1097.976, 15082.00
1099.071, 15044.00
1100.167, 15195.00
1101.262, 15021.00
1102.357, 15201.00
1103.452, 15048.00
1104.547, 15092.00
1105.642, 15123.00
1106.736, 15187.00
1107.831, 15242.00
1108.925, 15225.00
1110.019, 15363.00
1111.113, 15345.00
1112.207, 15088.00
1113.301, 15289.00
1114.394, 15223.00
1115.487, 15251.00
1116.580, 15383.00
1117.673, 15339.00
1118.766, 15430.00
1119.859, 15334.00
1120.952, 15453.00
1122.044, 15524.00
1123.136, 15552.00
1124.228, 15509.00
1125.320, 15580.00
1126.412, 15586.00
1127.503, 15642.00
1128.595, 15733.00
1129.686, 15713.00
1130.777, 15620.00
1131.868, 15643.00
1132.959, 15704.00
1134.050, 15855.00
1135.140, 15792.00
1136.231, 15902.00
1137.321, 15866.00
1138.411, 15947.00
1139.501, 16022.00
1140.590, 15799.00
1141.680, 15999.00
1142.769, 15869.00
1143.859, 16005.00
1144.948, 16055.00
1146.037, 16179.00
1147.125, 16210.00
1148.214, 16051.00
1149.303, 16036.00
1150.391, 16116.00
1151.479, 16001.00
1152.567, 16174.00
1153.655, 16030.00
1154.743, 16265.00
1155.830, 16100.00
1156.917, 16180.00
1158.005, 15948.00
1159.092, 15936.00
1160.179, 15998.00
1161.265, 16027.00
1162.352, 16019.00
1163.439, 16001.00
1164.525, 16045.00
1165.611, 16022.00
1166.697, 16033.00
1167.783, 16134.00
1168.868, 16230.00
1169.954, 15973.00
1171.039, 16078.00
1172.125, 15976.00
1173.210, 16030.00
1174.295, 15847.00
1175.379, 16066.00
1176.464, 15974.00
1177.548, 15799.00
1178.633, 15948.00
1179.717, 15960.00
1180.801, 15888.00
1181.884, 15795.00
1182.968, 15799.00
1184.052, 15776.67
1185.135, 15734.00
1186.218, 15797.00
1187.301, 15715.00
1188.384, 15694.00
1189.467, 15790.00
1190.549, 15937.00
1191.632, 15910.00
1192.714, 15753.00
1193.796, 15931.00
1194.878, 15928.00
1195.960, 15857.00
1197.042, 15965.00
1198.123, 15834.00
1199.204, 16009.00
1200.286, 15790.00
1201.367, 16112.00
1202.447, 16141.00
1203.528, 15908.00
1204.609, 16188.00
1205.689, 16125.00
1206.769, 16241.00
1207.849, 16027.00
1208.929, 16241.00
1210.009, 16220.00
1211.089, 16152.00
1212.168, 16094.00
1213.248, 16143.00
1214.327, 16121.00
1215.406, 16161.00
1216.485, 16231.00
1217.563, 16279.00
1218.642, 16255.00
1219.720, 16153.00
1220.798, 16158.00
1221.877, 16222.00
1222.954, 16484.00
1224.032, 16192.00
1225.110, 16357.00
1226.187, 16297.00
1227.265, 16044.00
1228.342, 16160.00
1229.419, 16164.00
1230.496, 16288.00
1231.572, 16346.00
1232.649, 16354.00
1233.725, 16302.00
1234.801, 16285.00
1235.878, 16298.00
1236.953, 16219.00
1238.029, 16591.00
1239.105, 16551.00
1240.180, 16353.00
1241.256, 16752.00
1242.331, 16415.00
1243.406, 16483.00
1244.481, 16518.00
1245.555, 16510.00
1246.630, 16712.00
1247.704, 16552.00
