##NAMES=Grossular
##RRUFFID=R070551
##IDEAL CHEMISTRY=Ca_3_Al_2_(SiO_4_)_3_
##LOCALITY=Mali
##OWNER=RRUFF
##SOURCE=www.multicolour.com
##DESCRIPTION=Green gem fragments
##STATUS=The identification of this mineral has been confirmed by X-ray diffraction and chemical analysis
##URL=rruff.info/R070551
##MEASURED CHEMISTRY=(Ca_2.95_Mg_0.04_Mn_0.01_)_Σ=3_(Al_1.63_Fe^3+^_0.37_)_Σ=2_(Si_1.00_O_4_)_3_
##PIN_ID=L01189
##ORIENTATION=Laser parallel to a* (1 0 0). Fiducial mark perpendicular to laser is parallel to c [0 0 1]
63.48900, 145.0000
64.73000, 171.0000
65.97200, 148.0000
67.21400, 154.0000
68.45500, 147.0000
69.69600, 167.0000
70.93700, 148.0000
72.17800, 146.0000
73.41900, 170.0000
74.65900, 174.0000
75.90000, 244.0000
77.14000, 170.0000
78.38000, 174.0000
79.62000, 180.0000
80.85900, 244.0000
82.09900, 250.0000
83.33800, 253.0000
84.57700, 300.0000
85.81600, 354.0000
87.05500, 405.0000
88.29400, 496.0000
89.53200, 595.0000
90.77000, 749.4785
92.00800, 910.3841
93.24600, 1109.472
94.48400, 1330.000
95.72200, 1589.000
96.95900, 1881.000
98.19600, 2187.000
99.43300, 2537.638
100.6700, 2953.000
101.9070, 3329.000
103.1430, 3721.000
104.3800, 4210.000
105.6160, 4749.000
106.8520, 5184.000
108.0880, 5588.000
109.3230, 5928.000
110.5590, 6277.000
111.7940, 6575.000
113.0290, 6837.000
114.2640, 7042.000
115.4990, 7448.000
116.7340, 7717.000
117.9680, 7887.000
119.2030, 8022.000
120.4370, 8350.000
121.6710, 8446.000
122.9040, 8734.000
124.1380, 8726.000
125.3710, 8957.000
126.6050, 8990.000
127.8380, 9041.000
129.0710, 9193.544
130.3030, 9384.000
131.5360, 9376.000
132.7680, 9485.000
134.0000, 9503.000
135.2320, 9577.000
136.4640, 9648.000
137.6960, 9737.000
138.9270, 9807.000
140.1590, 9864.000
141.3900, 9916.000
142.6210, 10019.00
143.8520, 10098.00
145.0820, 10224.00
146.3130, 10245.17
147.5430, 10096.00
148.7730, 10287.00
150.0030, 10240.00
151.2330, 10245.00
152.4630, 10352.00
153.6920, 10436.00
154.9210, 10360.00
156.1510, 10531.00
157.3790, 10607.00
158.6080, 10544.00
159.8370, 10601.00
161.0650, 10881.00
162.2930, 10948.00
163.5220, 11077.00
164.7490, 11164.00
165.9770, 11198.00
167.2050, 11377.00
168.4320, 11598.00
169.6590, 11902.00
170.8860, 12434.00
172.1130, 13044.00
173.3400, 13841.00
174.5660, 14585.00
175.7930, 15637.00
177.0190, 17418.00
178.2450, 19100.00
179.4710, 21264.00
180.6960, 23373.00
181.9220, 23723.00
183.1470, 22298.00
184.3720, 20157.00
185.5970, 17976.00
186.8220, 15765.00
188.0470, 14313.00
189.2710, 13465.00
190.4950, 13132.00
191.7200, 12859.00
192.9430, 12610.00
194.1670, 12440.00
195.3910, 12647.00
196.6140, 12418.00
197.8380, 12474.00
199.0610, 12419.00
200.2830, 12467.00
201.5060, 12432.00
202.7290, 12529.00
203.9510, 12530.00
205.1730, 12512.00
206.3950, 12445.00
207.6170, 12501.00
208.8390, 12490.07
210.0610, 12418.00
211.2820, 12609.00
212.5030, 12687.00
213.7240, 12897.00
214.9450, 12882.00
216.1660, 13067.00
217.3860, 13003.00
218.6070, 13021.00
219.8270, 13122.00
221.0470, 13194.00
222.2670, 13289.00
223.4860, 13289.00
224.7060, 13421.00
225.9250, 13555.00
227.1440, 13931.00
228.3630, 14101.00
229.5820, 14487.00
230.8000, 15072.00
232.0190, 15472.00
233.2370, 16126.00
234.4550, 16733.00
235.6730, 17176.00
236.8910, 17848.00
238.1090, 18688.00
239.3260, 19283.00
240.5430, 19732.00
241.7600, 19848.00
242.9770, 20451.00
244.1940, 20427.00
245.4110, 20913.00
246.6270, 21132.00
247.8430, 21053.00
249.0590, 20161.00
250.2750, 19052.00
251.4910, 18109.00
252.7070, 17017.00
253.9220, 16478.00
255.1370, 15998.00
256.3520, 15826.00
257.5670, 15845.00
258.7820, 15723.00
259.9960, 15763.00
261.2110, 15820.00
262.4250, 16048.00
263.6390, 16252.00
264.8530, 16504.00
266.0660, 16651.00
267.2800, 16859.00
268.4930, 17115.00
269.7060, 17509.00
270.9190, 17757.00
272.1320, 18264.00
273.3450, 18821.00
274.5570, 19529.00
275.7700, 20202.00
276.9820, 20958.00
278.1940, 21077.00
279.4050, 20804.00
280.6170, 20698.00
281.8290, 19921.00
283.0400, 19535.00
284.2510, 19188.00
285.4620, 19058.00
286.6730, 18916.00
287.8830, 18790.00
289.0940, 18482.00
290.3040, 18282.00
291.5140, 17911.00
292.7240, 17449.00
293.9340, 17122.00
295.1430, 16801.00
296.3530, 16545.00
297.5620, 16320.00
298.7710, 16147.00
299.9800, 16135.00
301.1890, 16239.00
302.3970, 16306.00
303.6060, 16403.00
304.8140, 16501.00
306.0220, 16674.20
307.2300, 16972.00
308.4380, 17103.00
309.6450, 17366.00
310.8520, 17677.00
312.0600, 17713.00
313.2670, 17755.00
314.4740, 17980.00
315.6800, 18013.00
316.8870, 18136.00
318.0930, 18213.00
319.2990, 18418.00
320.5050, 18722.00
321.7110, 19032.36
322.9170, 19531.00
324.1220, 19906.00
325.3280, 20503.00
326.5330, 21101.00
327.7380, 21206.00
328.9430, 21501.00
330.1470, 21344.00
331.3520, 20953.00
332.5560, 20802.00
333.7600, 20298.00
334.9640, 20185.00
336.1680, 20199.00
337.3720, 20378.00
338.5750, 20498.00
339.7790, 20716.00
340.9820, 21128.00
342.1850, 21512.00
343.3880, 21855.00
344.5900, 22232.00
345.7930, 22789.00
346.9950, 23027.00
348.1970, 23556.00
349.3990, 23936.00
350.6010, 24746.00
351.8020, 25533.00
353.0040, 26585.00
354.2050, 27968.00
355.4060, 30080.00
356.6070, 32746.00
357.8080, 35933.00
359.0090, 39961.00
360.2090, 44455.00
361.4090, 50934.00
362.6090, 58410.00
363.8090, 67373.00
365.0090, 78249.00
366.2090, 89624.00
367.4080, 99874.00
368.6070, 109835.0
369.8060, 118155.0
371.0050, 123559.3
372.2040, 130388.0
373.4030, 130384.0
374.6010, 130380.0
375.7990, 130396.0
376.9970, 130392.0
378.1950, 130374.0
379.3930, 121301.6
380.5910, 117906.0
381.7880, 99707.00
382.9850, 83326.00
384.1820, 69589.00
385.3790, 58692.00
386.5760, 50539.00
387.7720, 43852.00
388.9690, 38961.00
390.1650, 34966.00
391.3610, 32088.00
392.5570, 30047.00
393.7530, 27942.00
394.9480, 26556.00
396.1440, 25474.00
397.3390, 24730.00
398.5340, 23969.00
399.7290, 23636.00
400.9230, 23240.00
402.1180, 23074.00
403.3120, 23010.00
404.5060, 23258.00
405.7000, 23420.00
406.8940, 24172.00
408.0880, 24881.00
409.2820, 25707.00
410.4750, 26532.00
411.6680, 27085.00
412.8610, 27480.00
414.0540, 26490.00
415.2470, 25325.00
416.4390, 23537.00
417.6310, 22002.00
418.8240, 20655.00
420.0160, 19548.00
421.2080, 18630.00
422.3990, 17907.00
423.5910, 17483.00
424.7820, 16917.00
425.9730, 16755.00
427.1640, 16499.00
428.3550, 16409.00
429.5460, 16342.00
430.7360, 16121.00
431.9270, 16378.00
433.1170, 16208.00
434.3070, 16256.00
435.4970, 16247.00
436.6860, 16363.00
437.8760, 16322.00
439.0650, 16430.00
440.2540, 16480.26
441.4430, 16558.43
442.6320, 16643.00
443.8210, 16789.00
445.0090, 16949.00
446.1970, 17123.00
447.3860, 17566.00
448.5740, 17946.00
449.7610, 18192.00
450.9490, 18600.00
452.1370, 18864.00
453.3240, 18857.00
454.5110, 19121.00
455.6980, 19236.00
456.8850, 19281.00
458.0710, 19512.00
459.2580, 19438.00
460.4440, 19296.00
461.6300, 19178.00
462.8160, 19292.00
464.0020, 19155.00
465.1880, 19246.00
466.3730, 19350.00
467.5590, 19234.00
468.7440, 19266.00
469.9290, 19177.00
471.1140, 19216.00
472.2980, 19148.00
473.4830, 19150.00
474.6670, 19103.00
475.8510, 19204.00
477.0350, 18863.00
478.2190, 18803.00
479.4020, 18729.00
480.5860, 18379.00
481.7690, 18453.00
482.9520, 18378.00
484.1350, 18422.00
485.3180, 18593.00
486.5010, 18621.00
487.6830, 19009.00
488.8660, 19302.00
490.0480, 19678.00
491.2300, 20060.00
492.4110, 20527.00
493.5930, 21177.00
494.7750, 21700.00
495.9560, 21647.00
497.1370, 21640.00
498.3180, 21611.00
499.4990, 21762.00
500.6790, 21671.00
501.8600, 21377.00
503.0400, 21336.00
504.2200, 21008.00
505.4000, 20681.00
506.5800, 20691.00
507.7600, 20141.00
508.9390, 19980.00
510.1190, 19562.00
511.2980, 19210.00
512.4770, 19071.00
513.6550, 18954.00
514.8340, 18680.00
516.0130, 18531.00
517.1910, 18451.00
518.3690, 18475.00
519.5470, 18224.00
520.7250, 18163.00
521.9020, 18336.00
523.0800, 18524.00
524.2570, 18491.00
525.4340, 18697.00
526.6110, 18811.00
527.7880, 19082.00
528.9650, 19330.00
530.1410, 19564.00
531.3180, 20641.00
532.4940, 21550.00
533.6700, 23078.00
534.8450, 24937.00
536.0210, 27228.00
537.1970, 30388.00
538.3720, 33988.00
539.5470, 38524.00
540.7220, 43797.00
541.8970, 49342.00
543.0720, 54198.00
544.2460, 58079.00
545.4200, 57703.00
546.5940, 54634.00
547.7680, 48130.00
548.9420, 41240.00
550.1160, 34860.00
551.2890, 29518.00
552.4630, 25626.00
553.6360, 22875.00
554.8090, 21107.00
555.9820, 19839.00
557.1540, 18998.00
558.3270, 18400.00
559.4990, 18050.00
560.6710, 17834.00
561.8430, 17542.00
563.0150, 17529.00
564.1870, 17372.00
565.3580, 17317.89
566.5300, 17452.00
567.7010, 17288.00
568.8720, 17399.00
570.0430, 17415.00
571.2130, 17315.00
572.3840, 17362.00
573.5540, 17309.00
574.7240, 17230.00
575.8940, 17263.00
577.0640, 17173.00
578.2340, 17036.00
579.4030, 17033.00
580.5730, 16869.00
581.7420, 16869.00
582.9110, 16748.00
584.0800, 16684.00
585.2490, 16664.00
586.4170, 16591.58
587.5850, 16497.00
588.7540, 16526.00
589.9220, 16436.00
591.0900, 16422.00
592.2570, 16279.00
593.4250, 16122.00
594.5920, 16259.00
595.7590, 16127.00
596.9260, 16369.00
598.0930, 16539.00
599.2600, 16625.00
600.4270, 16960.00
601.5930, 17309.00
602.7590, 17563.00
603.9250, 17735.00
605.0910, 18308.00
606.2570, 18372.00
607.4220, 18571.00
608.5880, 18650.00
609.7530, 18777.27
610.9180, 19032.00
612.0830, 19000.00
613.2480, 19266.00
614.4120, 19358.00
615.5770, 19576.00
616.7410, 19705.00
617.9050, 19901.45
619.0690, 20080.02
620.2330, 20307.00
621.3960, 20442.00
622.5600, 20639.00
623.7230, 20825.00
624.8860, 21141.00
626.0490, 21267.00
627.2120, 20979.00
628.3740, 20530.00
629.5370, 20087.00
630.6990, 19615.00
631.8610, 18947.00
633.0230, 18320.00
634.1850, 17679.00
635.3460, 17030.00
636.5080, 16610.00
637.6690, 16214.00
638.8300, 15972.00
639.9910, 15537.00
641.1520, 15335.00
642.3120, 15302.00
643.4730, 14971.00
644.6330, 14857.00
645.7930, 14730.00
646.9530, 14534.00
648.1130, 14558.00
649.2730, 14274.00
650.4320, 14375.00
651.5910, 14267.00
652.7510, 14360.00
653.9100, 14156.00
655.0680, 14063.00
656.2270, 14119.00
657.3850, 14150.00
658.5440, 13926.00
659.7020, 13759.00
660.8600, 13779.00
662.0180, 13901.00
663.1750, 13728.00
664.3330, 13883.00
665.4900, 13778.00
666.6470, 13870.00
667.8040, 13799.00
668.9610, 13860.00
670.1180, 13899.00
671.2740, 13793.00
672.4310, 13873.00
673.5870, 13684.00
674.7430, 13779.00
675.8990, 13870.00
677.0550, 13767.00
678.2100, 13824.00
679.3660, 13559.03
680.5210, 13770.37
681.6760, 13902.27
682.8310, 13959.01
683.9850, 13715.43
685.1400, 13859.64
686.2940, 13848.42
687.4490, 13962.00
688.6030, 13946.00
689.7570, 14006.00
690.9100, 13993.88
692.0640, 13899.00
693.2170, 13995.00
694.3700, 13972.00
695.5240, 13949.00
696.6760, 14022.00
697.8290, 13947.00
698.9820, 13935.00
700.1340, 13967.00
701.2870, 14100.00
702.4390, 14039.00
703.5910, 14075.00
704.7420, 14082.00
705.8940, 14086.00
707.0450, 14119.00
708.1970, 13988.00
709.3480, 13965.00
710.4990, 13953.00
711.6500, 14175.00
712.8000, 14017.00
713.9510, 14147.00
715.1010, 14108.00
716.2510, 14098.23
717.4010, 14208.00
718.5510, 14107.00
719.7010, 14309.00
720.8500, 14323.00
721.9990, 14312.00
723.1490, 14267.00
724.2980, 14381.00
725.4460, 14320.00
726.5950, 14276.00
727.7440, 14347.00
728.8920, 14350.00
730.0400, 14295.00
731.1880, 14427.00
732.3360, 14493.00
733.4840, 14395.00
734.6310, 14489.00
735.7790, 14439.00
736.9260, 14662.00
738.0730, 14572.00
739.2200, 14627.00
740.3670, 14689.00
741.5130, 14639.00
742.6600, 14656.00
743.8060, 14661.69
744.9520, 14803.00
746.0980, 14727.00
747.2440, 14755.00
748.3890, 14929.00
749.5350, 14978.00
750.6800, 15031.00
751.8250, 14943.00
752.9700, 15032.81
754.1150, 15059.96
755.2590, 15129.00
756.4040, 15170.00
757.5480, 15237.00
758.6920, 15269.00
759.8360, 15416.00
760.9800, 15393.00
762.1230, 15384.00
763.2670, 15645.00
764.4100, 15560.00
765.5530, 15923.00
766.6960, 15769.00
767.8390, 16140.00
768.9820, 16081.00
770.1240, 16363.00
771.2670, 16513.00
772.4090, 16516.00
773.5510, 16683.00
774.6930, 16741.00
775.8350, 16627.00
776.9760, 16567.00
778.1170, 16700.00
779.2590, 16510.00
780.4000, 16591.00
781.5410, 16620.00
782.6810, 16388.00
783.8220, 16429.00
784.9620, 16584.00
786.1020, 16804.00
787.2430, 16817.00
788.3820, 16978.00
789.5220, 17101.60
790.6620, 17158.00
791.8010, 17333.00
792.9400, 17541.00
794.0800, 17631.00
795.2190, 17918.00
796.3570, 18219.78
797.4960, 18609.00
798.6340, 19030.00
799.7730, 19439.00
800.9110, 20032.00
802.0490, 20643.00
803.1870, 21569.00
804.3240, 22311.00
805.4620, 23360.00
806.5990, 24531.00
807.7360, 25994.00
808.8730, 27152.00
810.0100, 28971.00
811.1470, 30466.00
812.2830, 31912.00
813.4200, 33502.00
814.5560, 35130.00
815.6920, 36935.90
816.8280, 39039.00
817.9630, 40816.00
819.0990, 42988.00
820.2340, 45143.00
821.3700, 47089.00
822.5050, 48838.00
823.6400, 49456.00
824.7740, 50262.00
825.9090, 49325.00
827.0430, 48647.00
828.1780, 47600.00
829.3120, 46227.00
830.4460, 44999.00
831.5790, 43570.00
832.7130, 42524.00
833.8460, 41131.00
834.9800, 40545.00
836.1130, 39541.00
837.2460, 38614.00
838.3790, 38002.00
839.5110, 37433.00
840.6440, 36662.00
841.7760, 36360.00
842.9080, 36475.00
844.0400, 36243.00
845.1720, 36025.00
846.3040, 36002.00
847.4350, 35901.00
848.5670, 35970.00
849.6980, 35885.00
850.8290, 35975.00
851.9600, 36111.00
853.0910, 36381.00
854.2210, 36722.00
855.3520, 36955.00
856.4820, 37282.00
857.6120, 37838.00
858.7420, 38644.00
859.8720, 39793.00
861.0010, 41293.00
862.1310, 42429.00
863.2600, 44976.00
864.3890, 47835.00
865.5180, 50774.00
866.6470, 55116.00
867.7750, 60204.00
868.9040, 66184.00
870.0320, 73560.00
871.1600, 81553.00
872.2880, 90189.00
873.4160, 100121.0
874.5440, 110190.0
875.6710, 119384.0
876.7990, 127307.0
877.9260, 130388.0
879.0530, 130380.0
880.1800, 130386.0
881.3060, 126920.3
882.4330, 124648.0
883.5590, 114775.0
884.6860, 103817.0
885.8120, 92332.00
886.9380, 82184.00
888.0630, 72523.00
889.1890, 64272.00
890.3140, 57847.00
891.4400, 52244.00
892.5650, 47846.00
893.6900, 44420.00
894.8140, 41255.00
895.9390, 38924.00
897.0640, 36987.00
898.1880, 35397.00
899.3120, 34205.00
900.4360, 32970.00
901.5600, 31677.00
902.6830, 31139.00
903.8070, 30212.00
904.9300, 29585.00
906.0540, 28871.00
907.1770, 27935.00
908.2990, 27424.00
909.4220, 26640.00
910.5450, 26048.00
911.6670, 25579.00
912.7890, 24941.00
913.9110, 24484.00
915.0330, 24083.00
916.1550, 23663.00
917.2770, 23411.00
918.3980, 23221.00
919.5190, 22863.00
920.6400, 22364.00
921.7610, 22307.00
922.8820, 21966.00
924.0030, 22002.00
925.1230, 21800.00
926.2440, 21530.00
927.3640, 21387.00
928.4840, 21180.00
929.6040, 21040.00
930.7230, 20885.00
931.8430, 20832.00
932.9620, 20802.00
934.0810, 20972.00
935.2000, 21210.00
936.3190, 21195.00
937.4380, 21291.00
938.5570, 21226.00
939.6750, 21731.00
940.7930, 21896.00
941.9110, 22171.00
943.0290, 22333.00
944.1470, 22381.00
945.2650, 22466.81
946.3820, 22510.64
947.4990, 22397.49
948.6160, 22309.48
949.7330, 22135.00
950.8500, 21919.00
951.9670, 21508.00
953.0830, 21113.00
954.2000, 20814.00
955.3160, 20405.00
956.4320, 20148.00
957.5480, 19822.00
958.6630, 19599.00
959.7790, 19237.00
960.8940, 19084.00
962.0100, 18732.00
963.1250, 18769.00
964.2390, 18755.00
965.3540, 18836.00
966.4690, 19008.00
967.5830, 19175.00
968.6970, 19359.00
969.8120, 19659.00
970.9260, 19999.00
972.0390, 20451.00
973.1530, 20756.00
974.2660, 21169.00
975.3800, 21435.00
976.4930, 21597.00
977.6060, 22018.00
978.7190, 22376.00
979.8310, 22840.00
980.9440, 23058.63
982.0560, 23154.00
983.1680, 23478.00
984.2810, 23593.00
985.3920, 23753.00
986.5040, 23889.00
987.6160, 24210.00
988.7270, 23989.00
989.8380, 24467.00
990.9490, 24138.00
992.0600, 24519.00
993.1710, 24576.00
994.2820, 24844.00
995.3920, 24917.00
996.5030, 25098.63
997.6130, 25270.00
998.7230, 25519.00
999.8330, 25806.00
1000.942, 26203.00
1002.052, 26586.00
1003.161, 26922.00
1004.270, 26992.00
1005.379, 26859.00
1006.488, 26614.00
1007.597, 26266.00
1008.705, 25461.00
1009.814, 24396.00
1010.922, 23711.00
1012.030, 22589.00
1013.138, 21905.00
1014.246, 21003.00
1015.354, 20435.00
1016.461, 19791.00
1017.568, 19379.00
1018.675, 19223.00
1019.782, 19099.00
1020.889, 18788.00
1021.996, 18514.00
1023.102, 18515.00
1024.209, 18462.00
1025.315, 18253.00
1026.421, 18356.00
1027.527, 17946.00
1028.633, 18101.00
1029.738, 17821.00
1030.844, 18010.00
1031.949, 17894.00
1033.054, 17852.00
1034.159, 17866.00
1035.264, 17595.00
1036.368, 17460.00
1037.473, 17689.00
1038.577, 17339.00
1039.681, 17373.00
1040.785, 17398.00
1041.889, 17360.00
1042.993, 17270.00
1044.096, 17487.00
1045.199, 17189.00
1046.303, 17109.00
1047.406, 17255.00
1048.509, 17186.00
1049.611, 17312.00
1050.714, 17231.00
1051.816, 17264.00
1052.918, 17104.00
1054.021, 17128.00
1055.123, 17216.00
1056.224, 17036.00
1057.326, 17269.00
1058.427, 17032.00
1059.529, 16939.00
1060.630, 16982.00
1061.731, 16939.00
1062.832, 16995.00
1063.932, 17103.00
1065.033, 17056.00
1066.133, 17135.00
1067.233, 17104.00
1068.333, 16945.00
1069.433, 17106.00
1070.533, 17147.00
1071.633, 16935.00
1072.732, 17018.00
1073.831, 17097.00
1074.930, 17291.00
1076.029, 17116.00
1077.128, 17152.00
1078.227, 17059.00
1079.325, 17206.00
1080.424, 17080.00
1081.522, 17183.00
1082.620, 17368.00
1083.718, 17087.00
1084.815, 17114.00
1085.913, 17200.00
1087.010, 17051.00
1088.108, 17334.00
1089.205, 17197.00
1090.302, 17153.00
1091.398, 17242.00
1092.495, 17217.00
1093.591, 17171.00
1094.688, 17184.00
1095.784, 17235.00
1096.880, 17268.00
1097.976, 17364.00
1099.071, 17244.00
1100.167, 17127.00
1101.262, 17225.00
1102.357, 17299.00
1103.452, 17221.00
1104.547, 17370.00
1105.642, 17289.00
1106.736, 17351.00
1107.831, 17428.00
1108.925, 17276.00
1110.019, 17480.00
1111.113, 17369.00
1112.207, 17260.00
1113.301, 17467.00
1114.394, 17451.00
1115.487, 17419.00
1116.580, 17329.00
1117.673, 17497.00
1118.766, 17746.00
1119.859, 17660.00
1120.952, 17688.00
1122.044, 17639.00
1123.136, 17735.00
1124.228, 17901.00
1125.320, 17673.00
1126.412, 17844.00
1127.503, 17714.00
1128.595, 17899.00
1129.686, 17761.00
1130.777, 17775.00
1131.868, 18046.00
1132.959, 17770.00
1134.050, 17983.00
1135.140, 17975.00
1136.231, 18152.00
1137.321, 18101.00
1138.411, 18305.00
1139.501, 18452.00
1140.590, 18157.00
1141.680, 18236.00
1142.769, 18331.00
1143.859, 18430.00
1144.948, 18347.00
1146.037, 18527.00
1147.125, 18479.00
1148.214, 18538.00
1149.303, 18361.00
1150.391, 18385.00
1151.479, 18497.00
1152.567, 18430.00
1153.655, 18425.00
1154.743, 18366.00
1155.830, 18348.00
1156.917, 18611.00
1158.005, 18457.00
1159.092, 18402.00
1160.179, 18500.00
1161.265, 18313.00
1162.352, 18315.00
1163.439, 18193.00
1164.525, 18312.00
1165.611, 18507.00
1166.697, 18365.00
1167.783, 18337.00
1168.868, 18068.00
1169.954, 18182.00
1171.039, 18257.00
1172.125, 18465.00
1173.210, 18245.00
1174.295, 18157.00
1175.379, 18306.00
1176.464, 18238.00
1177.548, 18247.00
1178.633, 18204.00
1179.717, 18286.00
1180.801, 18035.00
1181.884, 17950.00
1182.968, 18173.00
1184.052, 18219.00
1185.135, 17884.00
1186.218, 18197.00
1187.301, 17955.00
1188.384, 18079.00
1189.467, 18151.00
1190.549, 18052.00
1191.632, 18227.00
1192.714, 18105.00
1193.796, 17912.00
1194.878, 18011.00
1195.960, 18245.00
1197.042, 18070.00
1198.123, 18203.00
1199.204, 18179.00
1200.286, 18249.00
1201.367, 18113.00
1202.447, 18339.00
1203.528, 18194.00
1204.609, 18367.00
1205.689, 18372.00
1206.769, 18178.00
1207.849, 18357.00
1208.929, 18404.00
1210.009, 18495.00
1211.089, 18281.00
1212.168, 18435.00
1213.248, 18417.00
1214.327, 18480.00
1215.406, 18521.00
1216.485, 18532.00
1217.563, 18513.00
1218.642, 18466.00
1219.720, 18463.00
1220.798, 18509.00
1221.877, 18536.57
1222.954, 18480.00
1224.032, 18657.00
1225.110, 18734.00
1226.187, 18778.00
1227.265, 18519.00
1228.342, 18683.00
1229.419, 18500.00
1230.496, 18776.00
1231.572, 18773.00
1232.649, 18751.00
1233.725, 18892.00
1234.801, 18649.00
1235.878, 18860.00
1236.953, 18806.00
1238.029, 18632.00
1239.105, 18787.00
1240.180, 18930.00
1241.256, 19028.00
1242.331, 18744.00
1243.406, 18973.00
1244.481, 18918.00
1245.555, 19059.00
1246.630, 18856.00
1247.704, 19105.00
