##NAMES=Grossular
##RRUFFID=R070551
##IDEAL CHEMISTRY=Ca_3_Al_2_(SiO_4_)_3_
##LOCALITY=Mali
##OWNER=RRUFF
##SOURCE=www.multicolour.com
##DESCRIPTION=Green gem fragments
##STATUS=The identification of this mineral has been confirmed by X-ray diffraction and chemical analysis
##URL=rruff.info/R070551
##MEASURED CHEMISTRY=(Ca_2.95_Mg_0.04_Mn_0.01_)_Σ=3_(Al_1.63_Fe^3+^_0.37_)_Σ=2_(Si_1.00_O_4_)_3_
##PIN_ID=L01189
##ORIENTATION=Laser parallel to a* (1 0 0). Fiducial mark perpendicular to laser is parallel to c [0 0 1]
63.48900, 152.0000
64.73000, 144.0000
65.97200, 146.0000
67.21400, 130.0000
68.45500, 125.0000
69.69600, 162.0000
70.93700, 130.0000
72.17800, 159.0000
73.41900, 142.0000
74.65900, 151.0000
75.90000, 203.0000
77.14000, 169.0000
78.38000, 149.0000
79.62000, 179.0000
80.85900, 179.4039
82.09900, 204.0000
83.33800, 235.0000
84.57700, 275.0000
85.81600, 311.0000
87.05500, 355.0000
88.29400, 448.0000
89.53200, 552.0000
90.77000, 711.0000
92.00800, 861.0000
93.24600, 1072.000
94.48400, 1214.000
95.72200, 1448.000
96.95900, 1726.000
98.19600, 2062.000
99.43300, 2317.000
100.6700, 2668.000
101.9070, 3048.000
103.1430, 3470.000
104.3800, 3929.000
105.6160, 4224.000
106.8520, 4776.000
108.0880, 5179.000
109.3230, 5456.000
110.5590, 5824.000
111.7940, 5889.000
113.0290, 6255.000
114.2640, 6432.000
115.4990, 6692.000
116.7340, 7031.000
117.9680, 7194.000
119.2030, 7189.000
120.4370, 7401.000
121.6710, 7487.000
122.9040, 7616.000
124.1380, 7733.000
125.3710, 7862.000
126.6050, 7955.000
127.8380, 7970.000
129.0710, 8015.000
130.3030, 8157.000
131.5360, 8240.000
132.7680, 8154.000
134.0000, 8311.000
135.2320, 8414.000
136.4640, 8294.000
137.6960, 8432.000
138.9270, 8438.000
140.1590, 8634.000
141.3900, 8778.000
142.6210, 8658.000
143.8520, 8636.000
145.0820, 8799.000
146.3130, 8829.000
147.5430, 8848.000
148.7730, 8782.000
150.0030, 8816.000
151.2330, 8923.000
152.4630, 8985.000
153.6920, 9065.000
154.9210, 9026.000
156.1510, 9079.000
157.3790, 9104.000
158.6080, 9071.000
159.8370, 9199.000
161.0650, 9344.000
162.2930, 9290.000
163.5220, 9383.000
164.7490, 9632.000
165.9770, 9569.000
167.2050, 9666.000
168.4320, 9865.000
169.6590, 10113.00
170.8860, 10407.00
172.1130, 10602.00
173.3400, 10950.00
174.5660, 11524.00
175.7930, 11945.00
177.0190, 12656.00
178.2450, 13520.00
179.4710, 14025.00
180.6960, 15232.00
181.9220, 15731.00
183.1470, 15569.00
184.3720, 14781.00
185.5970, 13837.00
186.8220, 12771.00
188.0470, 11900.00
189.2710, 11489.00
190.4950, 11263.00
191.7200, 11041.00
192.9430, 10918.00
194.1670, 10834.00
195.3910, 10978.00
196.6140, 10836.00
197.8380, 10908.00
199.0610, 10900.00
200.2830, 10902.00
201.5060, 10888.21
202.7290, 10839.00
203.9510, 10830.00
205.1730, 10783.00
206.3950, 10789.00
207.6170, 10797.00
208.8390, 10936.00
210.0610, 10871.00
211.2820, 11030.00
212.5030, 10937.00
213.7240, 11126.00
214.9450, 11142.00
216.1660, 11240.00
217.3860, 11299.00
218.6070, 11371.88
219.8270, 11463.00
221.0470, 11544.00
222.2670, 11605.00
223.4860, 11704.00
224.7060, 11961.00
225.9250, 12024.00
227.1440, 12311.00
228.3630, 12690.00
229.5820, 13204.00
230.8000, 13753.00
232.0190, 14333.00
233.2370, 15164.00
234.4550, 15930.00
235.6730, 16946.00
236.8910, 18153.00
238.1090, 19060.00
239.3260, 20277.00
240.5430, 20846.00
241.7600, 21567.00
242.9770, 22165.00
244.1940, 22455.00
245.4110, 23249.00
246.6270, 23790.00
247.8430, 23662.00
249.0590, 22607.00
250.2750, 21035.00
251.4910, 19152.00
252.7070, 16995.00
253.9220, 15607.00
255.1370, 14713.00
256.3520, 14014.00
257.5670, 13717.00
258.7820, 13512.00
259.9960, 13507.00
261.2110, 13540.00
262.4250, 13663.00
263.6390, 13784.29
264.8530, 13868.00
266.0660, 14180.00
267.2800, 14441.00
268.4930, 14729.00
269.7060, 15416.00
270.9190, 15884.00
272.1320, 16642.00
273.3450, 17550.00
274.5570, 18451.00
275.7700, 19727.00
276.9820, 20689.00
278.1940, 21309.00
279.4050, 21490.00
280.6170, 20572.00
281.8290, 19628.00
283.0400, 18508.00
284.2510, 17525.00
285.4620, 16961.00
286.6730, 16466.00
287.8830, 16334.00
289.0940, 15792.00
290.3040, 15746.00
291.5140, 15202.00
292.7240, 14844.00
293.9340, 14441.00
295.1430, 14043.00
296.3530, 13759.00
297.5620, 13538.00
298.7710, 13438.00
299.9800, 13173.00
301.1890, 13139.00
302.3970, 13026.00
303.6060, 13160.00
304.8140, 13317.00
306.0220, 13447.00
307.2300, 13679.00
308.4380, 13751.00
309.6450, 13835.00
310.8520, 13807.00
312.0600, 14034.00
313.2670, 14313.00
314.4740, 14389.00
315.6800, 14647.00
316.8870, 14890.00
318.0930, 15155.00
319.2990, 15519.14
320.5050, 15806.00
321.7110, 16337.00
322.9170, 16736.00
324.1220, 17259.00
325.3280, 17989.00
326.5330, 18733.00
327.7380, 19369.00
328.9430, 19487.00
330.1470, 19386.00
331.3520, 19177.00
332.5560, 18691.00
333.7600, 17912.00
334.9640, 17518.00
336.1680, 17190.00
337.3720, 17399.00
338.5750, 17385.00
339.7790, 17543.00
340.9820, 17783.00
342.1850, 18194.00
343.3880, 18566.00
344.5900, 18752.00
345.7930, 19167.00
346.9950, 19443.00
348.1970, 19722.00
349.3990, 19749.00
350.6010, 19904.00
351.8020, 20173.00
353.0040, 20906.00
354.2050, 21665.00
355.4060, 22890.00
356.6070, 24606.00
357.8080, 26658.65
359.0090, 28794.00
360.2090, 32135.00
361.4090, 35459.00
362.6090, 39311.00
363.8090, 44853.00
365.0090, 50739.00
366.2090, 58722.00
367.4080, 67706.00
368.6070, 76915.00
369.8060, 86664.00
371.0050, 97507.00
372.2040, 108603.0
373.4030, 120776.0
374.6010, 130380.0
375.7990, 130396.0
376.9970, 130392.0
378.1950, 130374.0
379.3930, 128230.0
380.5910, 112641.0
381.7880, 95889.00
382.9850, 79783.00
384.1820, 66741.00
385.3790, 55705.00
386.5760, 47192.00
387.7720, 40720.00
388.9690, 35856.00
390.1650, 32306.00
391.3610, 29189.00
392.5570, 27054.00
393.7530, 25248.00
394.9480, 23774.00
396.1440, 22684.00
397.3390, 21708.00
398.5340, 21212.00
399.7290, 20668.00
400.9230, 20247.00
402.1180, 20110.00
403.3120, 20003.00
404.5060, 19743.00
405.7000, 19723.00
406.8940, 19611.00
408.0880, 19628.00
409.2820, 19926.00
410.4750, 19980.00
411.6680, 19947.00
412.8610, 19912.00
414.0540, 19704.00
415.2470, 19051.00
416.4390, 18110.00
417.6310, 17152.00
418.8240, 16432.00
420.0160, 15720.00
421.2080, 15291.00
422.3990, 14739.00
423.5910, 14434.00
424.7820, 14168.00
425.9730, 14066.00
427.1640, 13965.00
428.3550, 13791.00
429.5460, 13819.00
430.7360, 13778.00
431.9270, 13717.00
433.1170, 13776.00
434.3070, 13886.00
435.4970, 13875.00
436.6860, 13933.00
437.8760, 13908.00
439.0650, 13977.99
440.2540, 14087.00
441.4430, 14110.00
442.6320, 14228.00
443.8210, 14308.00
445.0090, 14491.00
446.1970, 14930.00
447.3860, 15042.00
448.5740, 15435.00
449.7610, 15759.00
450.9490, 15931.00
452.1370, 16245.00
453.3240, 16461.00
454.5110, 16450.00
455.6980, 16742.00
456.8850, 16779.00
458.0710, 16762.00
459.2580, 16883.00
460.4440, 16829.00
461.6300, 16672.00
462.8160, 16909.00
464.0020, 16970.00
465.1880, 17038.00
466.3730, 17469.00
467.5590, 16835.00
468.7440, 16889.00
469.9290, 16873.00
471.1140, 17083.00
472.2980, 16932.00
473.4830, 17028.00
474.6670, 17089.00
475.8510, 17189.00
477.0350, 17087.00
478.2190, 16972.00
479.4020, 16611.00
480.5860, 16515.00
481.7690, 16526.00
482.9520, 16199.00
484.1350, 16242.00
485.3180, 16228.00
486.5010, 16439.00
487.6830, 16433.00
488.8660, 16782.00
490.0480, 17135.00
491.2300, 17674.00
492.4110, 17916.00
493.5930, 18237.00
494.7750, 18731.00
495.9560, 18889.00
497.1370, 19199.00
498.3180, 19065.00
499.4990, 19130.00
500.6790, 19064.00
501.8600, 18987.00
503.0400, 19020.00
504.2200, 18981.00
505.4000, 18626.00
506.5800, 18591.00
507.7600, 18344.00
508.9390, 18109.00
510.1190, 17651.00
511.2980, 17501.00
512.4770, 17264.00
513.6550, 16985.00
514.8340, 16937.00
516.0130, 16793.00
517.1910, 16683.00
518.3690, 16568.39
519.5470, 16301.00
520.7250, 16289.00
521.9020, 16288.00
523.0800, 16119.00
524.2570, 16202.00
525.4340, 16285.00
526.6110, 16388.00
527.7880, 16646.00
528.9650, 17072.00
530.1410, 17437.00
531.3180, 17931.00
532.4940, 19056.00
533.6700, 20172.00
534.8450, 21637.00
536.0210, 23941.00
537.1970, 26617.00
538.3720, 29908.00
539.5470, 33589.00
540.7220, 38091.00
541.8970, 42812.00
543.0720, 47354.00
544.2460, 50848.00
545.4200, 52117.00
546.5940, 50580.00
547.7680, 45916.00
548.9420, 39540.00
550.1160, 33130.00
551.2890, 27780.00
552.4630, 24128.00
553.6360, 21244.00
554.8090, 19234.00
555.9820, 17985.00
557.1540, 16993.00
558.3270, 16438.00
559.4990, 16113.00
560.6710, 15818.00
561.8430, 15701.00
563.0150, 15662.00
564.1870, 15408.00
565.3580, 15427.00
566.5300, 15344.00
567.7010, 15342.00
568.8720, 15266.00
570.0430, 15192.00
571.2130, 15134.00
572.3840, 15104.00
573.5540, 15208.00
574.7240, 15107.00
575.8940, 15024.00
577.0640, 14863.00
578.2340, 14814.00
579.4030, 14560.00
580.5730, 14599.00
581.7420, 14475.00
582.9110, 14436.00
584.0800, 14462.00
585.2490, 14248.00
586.4170, 14129.00
587.5850, 13998.00
588.7540, 14083.00
589.9220, 13966.00
591.0900, 13872.00
592.2570, 13689.00
593.4250, 13816.00
594.5920, 13749.00
595.7590, 13788.00
596.9260, 13932.00
598.0930, 13957.00
599.2600, 14129.00
600.4270, 14307.00
601.5930, 14473.00
602.7590, 14736.00
603.9250, 15031.00
605.0910, 15178.00
606.2570, 15386.00
607.4220, 15585.00
608.5880, 15638.00
609.7530, 15871.00
610.9180, 15950.00
612.0830, 16305.00
613.2480, 16411.00
614.4120, 16245.00
615.5770, 16528.00
616.7410, 16554.00
617.9050, 16904.00
619.0690, 16972.00
620.2330, 17539.00
621.3960, 17487.00
622.5600, 17863.00
623.7230, 18004.00
624.8860, 18242.00
626.0490, 18377.00
627.2120, 18388.00
628.3740, 18228.00
629.5370, 17827.00
630.6990, 17183.00
631.8610, 16704.00
633.0230, 16124.00
634.1850, 15509.00
635.3460, 15064.00
636.5080, 14601.00
637.6690, 14120.00
638.8300, 13717.00
639.9910, 13329.00
641.1520, 13258.00
642.3120, 13054.00
643.4730, 12973.00
644.6330, 12665.00
645.7930, 12647.00
646.9530, 12584.00
648.1130, 12345.00
649.2730, 12383.00
650.4320, 12351.00
651.5910, 12330.00
652.7510, 12301.00
653.9100, 12143.00
655.0680, 12161.00
656.2270, 12021.00
657.3850, 12172.00
658.5440, 12006.00
659.7020, 12021.00
660.8600, 11941.00
662.0180, 11958.00
663.1750, 11854.00
664.3330, 11938.00
665.4900, 11952.00
666.6470, 11913.00
667.8040, 11969.00
668.9610, 11909.00
670.1180, 11974.00
671.2740, 11951.05
672.4310, 11902.00
673.5870, 11904.00
674.7430, 11960.00
675.8990, 11887.00
677.0550, 11722.00
678.2100, 11983.00
679.3660, 11877.00
680.5210, 11995.00
681.6760, 12025.00
682.8310, 11930.00
683.9850, 12043.00
685.1400, 11887.00
686.2940, 11962.00
687.4490, 11928.00
688.6030, 11972.00
689.7570, 11843.00
690.9100, 11960.00
692.0640, 11905.00
693.2170, 11918.00
694.3700, 11804.00
695.5240, 11966.00
696.6760, 12136.00
697.8290, 11989.00
698.9820, 12057.00
700.1340, 12094.00
701.2870, 11960.00
702.4390, 12010.00
703.5910, 12089.00
704.7420, 12025.00
705.8940, 12165.00
707.0450, 11936.00
708.1970, 12106.00
709.3480, 11981.00
710.4990, 12057.00
711.6500, 12229.00
712.8000, 12118.00
713.9510, 11999.00
715.1010, 12192.00
716.2510, 12086.00
717.4010, 12192.00
718.5510, 12152.00
719.7010, 12250.00
720.8500, 12121.00
721.9990, 12179.00
723.1490, 12210.00
724.2980, 12199.00
725.4460, 12301.00
726.5950, 12343.00
727.7440, 12404.00
728.8920, 12342.00
730.0400, 12390.00
731.1880, 12386.00
732.3360, 12527.00
733.4840, 12459.00
734.6310, 12391.00
735.7790, 12484.00
736.9260, 12331.00
738.0730, 12601.00
739.2200, 12626.00
740.3670, 12575.00
741.5130, 12685.00
742.6600, 12770.00
743.8060, 12744.00
744.9520, 12530.00
746.0980, 12552.00
747.2440, 12715.00
748.3890, 12680.00
749.5350, 12819.00
750.6800, 12883.00
751.8250, 12883.00
752.9700, 12889.00
754.1150, 13010.00
755.2590, 12906.00
756.4040, 13015.00
757.5480, 13098.00
758.6920, 12969.00
759.8360, 13085.00
760.9800, 13209.00
762.1230, 13231.00
763.2670, 13267.00
764.4100, 13368.90
765.5530, 13484.00
766.6960, 13545.00
767.8390, 13630.00
768.9820, 13739.00
770.1240, 13933.00
771.2670, 13868.00
772.4090, 14055.00
773.5510, 14053.00
774.6930, 14265.00
775.8350, 14228.00
776.9760, 14191.00
778.1170, 14170.00
779.2590, 14154.00
780.4000, 14004.00
781.5410, 14284.00
782.6810, 14402.00
783.8220, 14292.00
784.9620, 14436.00
786.1020, 14386.00
787.2430, 14387.00
788.3820, 14616.00
789.5220, 14549.00
790.6620, 14741.00
791.8010, 14932.00
792.9400, 15122.00
794.0800, 15268.00
795.2190, 15572.00
796.3570, 15848.00
797.4960, 16059.00
798.6340, 16580.00
799.7730, 16792.00
800.9110, 17328.00
802.0490, 17864.00
803.1870, 18469.00
804.3240, 19376.00
805.4620, 20128.00
806.5990, 21379.00
807.7360, 22449.00
808.8730, 23621.00
810.0100, 24824.00
811.1470, 26733.00
812.2830, 28042.00
813.4200, 29986.00
814.5560, 32005.00
815.6920, 34466.00
816.8280, 36874.00
817.9630, 39434.00
819.0990, 42319.00
820.2340, 45246.00
821.3700, 48118.00
822.5050, 50173.00
823.6400, 51989.00
824.7740, 52652.00
825.9090, 51802.00
827.0430, 50687.00
828.1780, 48656.00
829.3120, 46672.00
830.4460, 44516.00
831.5790, 42454.00
832.7130, 40365.00
833.8460, 39002.00
834.9800, 37386.00
836.1130, 36007.00
837.2460, 34886.00
838.3790, 34136.00
839.5110, 33284.00
840.6440, 32527.00
841.7760, 31915.00
842.9080, 31729.00
844.0400, 31236.00
845.1720, 31008.00
846.3040, 31061.00
847.4350, 30687.00
848.5670, 30714.00
849.6980, 30919.00
850.8290, 30950.00
851.9600, 30769.00
853.0910, 30899.00
854.2210, 31155.00
855.3520, 31506.00
856.4820, 31677.00
857.6120, 32129.00
858.7420, 32890.00
859.8720, 33718.00
861.0010, 34977.00
862.1310, 36450.00
863.2600, 38327.00
864.3890, 40502.00
865.5180, 43380.00
866.6470, 46760.00
867.7750, 51121.00
868.9040, 56210.00
870.0320, 62112.00
871.1600, 69204.00
872.2880, 76426.00
873.4160, 85152.00
874.5440, 94115.00
875.6710, 102126.0
876.7990, 109113.0
877.9260, 114997.0
879.0530, 118077.0
880.1800, 118054.0
881.3060, 114964.0
882.4330, 108958.0
883.5590, 100840.0
884.6860, 91067.00
885.8120, 80696.00
886.9380, 71851.00
888.0630, 63432.00
889.1890, 56011.00
890.3140, 49990.00
891.4400, 44838.00
892.5650, 41001.00
893.6900, 37490.00
894.8140, 34967.00
895.9390, 33023.00
897.0640, 31028.00
898.1880, 29796.00
899.3120, 28420.00
900.4360, 27639.00
901.5600, 26566.00
902.6830, 25885.00
903.8070, 25423.00
904.9300, 24576.00
906.0540, 24193.00
907.1770, 23389.00
908.2990, 22882.00
909.4220, 22568.00
910.5450, 21941.00
911.6670, 21695.00
912.7890, 20931.00
913.9110, 20817.00
915.0330, 20325.00
916.1550, 20029.00
917.2770, 19873.00
918.3980, 19668.00
919.5190, 19305.00
920.6400, 19089.00
921.7610, 19059.00
922.8820, 18694.00
924.0030, 18819.00
925.1230, 18627.00
926.2440, 18616.00
927.3640, 18434.00
928.4840, 18159.00
929.6040, 18204.00
930.7230, 18051.00
931.8430, 18087.00
932.9620, 18098.00
934.0810, 18073.00
935.2000, 18340.00
936.3190, 18144.00
937.4380, 18431.00
938.5570, 18541.00
939.6750, 18670.00
940.7930, 18952.00
941.9110, 19162.00
943.0290, 19276.00
944.1470, 19520.00
945.2650, 19477.00
946.3820, 19692.00
947.4990, 19716.00
948.6160, 19529.00
949.7330, 19269.00
950.8500, 18969.00
951.9670, 18575.00
953.0830, 18517.00
954.2000, 18258.00
955.3160, 17999.00
956.4320, 17455.00
957.5480, 17095.00
958.6630, 16878.00
959.7790, 16631.00
960.8940, 16581.00
962.0100, 16221.00
963.1250, 16249.00
964.2390, 16109.00
965.3540, 16278.00
966.4690, 16325.00
967.5830, 16546.00
968.6970, 16891.00
969.8120, 16843.00
970.9260, 17174.00
972.0390, 17613.00
973.1530, 17875.00
974.2660, 18236.00
975.3800, 18563.00
976.4930, 18863.00
977.6060, 19199.00
978.7190, 19476.00
979.8310, 19623.00
980.9440, 20007.00
982.0560, 20305.00
983.1680, 20611.00
984.2810, 20607.00
985.3920, 20863.00
986.5040, 21013.00
987.6160, 21225.00
988.7270, 21306.00
989.8380, 21361.00
990.9490, 21370.00
992.0600, 21713.00
993.1710, 21454.00
994.2820, 21704.00
995.3920, 22107.00
996.5030, 22306.00
997.6130, 22647.00
998.7230, 22887.00
999.8330, 23237.00
1000.942, 23639.00
1002.052, 23832.00
1003.161, 24417.00
1004.270, 24556.00
1005.379, 24472.00
1006.488, 24207.00
1007.597, 23752.00
1008.705, 23027.00
1009.814, 22249.00
1010.922, 21218.00
1012.030, 20464.00
1013.138, 19606.00
1014.246, 18861.21
1015.354, 18047.00
1016.461, 17626.00
1017.568, 17073.00
1018.675, 16776.00
1019.782, 16526.00
1020.889, 16250.00
1021.996, 16097.00
1023.102, 15981.00
1024.209, 15904.00
1025.315, 15766.44
1026.421, 15760.00
1027.527, 15575.00
1028.633, 15586.00
1029.738, 15577.00
1030.844, 15417.00
1031.949, 15401.00
1033.054, 15313.00
1034.159, 15286.00
1035.264, 15119.00
1036.368, 14931.00
1037.473, 15071.00
1038.577, 15093.00
1039.681, 15016.00
1040.785, 14850.00
1041.889, 14835.00
1042.993, 14813.00
1044.096, 14743.70
1045.199, 14850.00
1046.303, 14689.00
1047.406, 14776.00
1048.509, 14763.00
1049.611, 14676.00
1050.714, 14742.00
1051.816, 14792.00
1052.918, 14730.00
1054.021, 14761.00
1055.123, 14523.00
1056.224, 14615.00
1057.326, 14552.00
1058.427, 14472.00
1059.529, 14471.00
1060.630, 14562.00
1061.731, 14501.00
1062.832, 14632.00
1063.932, 14569.00
1065.033, 14605.00
1066.133, 14628.00
1067.233, 14509.00
1068.333, 14529.00
1069.433, 14511.00
1070.533, 14615.00
1071.633, 14648.00
1072.732, 14673.00
1073.831, 14608.00
1074.930, 14593.00
1076.029, 14729.00
1077.128, 14598.00
1078.227, 14610.00
1079.325, 14522.00
1080.424, 14529.00
1081.522, 14616.00
1082.620, 14686.00
1083.718, 14693.00
1084.815, 14718.76
1085.913, 14659.00
1087.010, 14692.00
1088.108, 14702.05
1089.205, 14696.40
1090.302, 14744.00
1091.398, 14710.00
1092.495, 14710.00
1093.591, 14694.00
1094.688, 14701.00
1095.784, 14615.00
1096.880, 14664.00
1097.976, 14596.00
1099.071, 14538.00
1100.167, 14696.00
1101.262, 14724.00
1102.357, 14694.00
1103.452, 14527.00
1104.547, 14711.00
1105.642, 14592.00
1106.736, 14700.00
1107.831, 14806.00
1108.925, 14516.00
1110.019, 14754.00
1111.113, 14940.00
1112.207, 14816.00
1113.301, 14817.00
1114.394, 14783.00
1115.487, 14880.00
1116.580, 14873.00
1117.673, 14943.00
1118.766, 14991.00
1119.859, 14906.00
1120.952, 15074.00
1122.044, 14858.00
1123.136, 15242.00
1124.228, 15073.00
1125.320, 15205.00
1126.412, 15153.00
1127.503, 15175.00
1128.595, 15157.00
1129.686, 15263.00
1130.777, 15342.00
1131.868, 15285.00
1132.959, 15276.00
1134.050, 15348.00
1135.140, 15277.00
1136.231, 15406.00
1137.321, 15410.00
1138.411, 15561.00
1139.501, 15511.00
1140.590, 15441.00
1141.680, 15692.00
1142.769, 15470.00
1143.859, 15573.00
1144.948, 15835.00
1146.037, 15664.00
1147.125, 15622.00
1148.214, 15724.00
1149.303, 15765.00
1150.391, 15634.00
1151.479, 15543.00
1152.567, 15629.00
1153.655, 15758.00
1154.743, 15674.00
1155.830, 15769.00
1156.917, 15576.00
1158.005, 15754.00
1159.092, 15714.00
1160.179, 15681.00
1161.265, 15530.00
1162.352, 15612.00
1163.439, 15745.00
1164.525, 15566.00
1165.611, 15785.00
1166.697, 15551.00
1167.783, 15696.00
1168.868, 15589.00
1169.954, 15448.00
1171.039, 15671.00
1172.125, 15555.00
1173.210, 15758.00
1174.295, 15644.00
1175.379, 15696.00
1176.464, 15612.00
1177.548, 15604.00
1178.633, 15523.00
1179.717, 15519.00
1180.801, 15440.00
1181.884, 15432.00
1182.968, 15419.00
1184.052, 15381.00
1185.135, 15373.00
1186.218, 15301.00
1187.301, 15389.00
1188.384, 15546.00
1189.467, 15379.00
1190.549, 15456.00
1191.632, 15340.00
1192.714, 15398.00
1193.796, 15399.00
1194.878, 15553.00
1195.960, 15452.00
1197.042, 15386.00
1198.123, 15370.00
1199.204, 15536.00
1200.286, 15454.00
1201.367, 15378.00
1202.447, 15676.00
1203.528, 15410.00
1204.609, 15689.00
1205.689, 15992.00
1206.769, 15737.00
1207.849, 15696.00
1208.929, 15671.00
1210.009, 15540.00
1211.089, 15612.00
1212.168, 15717.00
1213.248, 15665.00
1214.327, 15673.00
1215.406, 15789.00
1216.485, 15664.00
1217.563, 15848.00
1218.642, 15833.00
1219.720, 15783.00
1220.798, 15843.00
1221.877, 15729.00
1222.954, 15690.00
1224.032, 15916.00
1225.110, 15916.00
1226.187, 15793.00
1227.265, 15751.00
1228.342, 15999.00
1229.419, 15849.00
1230.496, 15996.00
1231.572, 16028.00
1232.649, 15894.00
1233.725, 16027.00
1234.801, 15793.00
1235.878, 16069.00
1236.953, 15921.00
1238.029, 15995.00
1239.105, 16141.00
1240.180, 16145.00
1241.256, 16075.00
1242.331, 15979.00
1243.406, 16246.00
1244.481, 16138.00
1245.555, 16101.00
1246.630, 16258.00
1247.704, 16117.00
