##NAMES=Grossular
##RRUFFID=R070551
##IDEAL CHEMISTRY=Ca_3_Al_2_(SiO_4_)_3_
##LOCALITY=Mali
##OWNER=RRUFF
##SOURCE=www.multicolour.com
##DESCRIPTION=Green gem fragments
##STATUS=The identification of this mineral has been confirmed by X-ray diffraction and chemical analysis
##URL=rruff.info/R070551
##MEASURED CHEMISTRY=(Ca_2.95_Mg_0.04_Mn_0.01_)_Σ=3_(Al_1.63_Fe^3+^_0.37_)_Σ=2_(Si_1.00_O_4_)_3_
##PIN_ID=L01189
##ORIENTATION=Laser parallel to a* (1 0 0). Fiducial mark perpendicular to laser is parallel to c [0 0 1]
63.48900, 168.0000
64.73000, 178.0000
65.97200, 165.0000
67.21400, 150.0000
68.45500, 150.0000
69.69600, 185.0000
70.93700, 161.0000
72.17800, 179.0000
73.41900, 176.0000
74.65900, 176.5758
75.90000, 194.0000
77.14000, 186.0000
78.38000, 212.0000
79.62000, 219.0000
80.85900, 245.1210
82.09900, 252.0000
83.33800, 303.0000
84.57700, 351.0000
85.81600, 375.0000
87.05500, 435.0000
88.29400, 582.0000
89.53200, 678.0000
90.77000, 871.0000
92.00800, 1042.000
93.24600, 1338.000
94.48400, 1567.000
95.72200, 1895.000
96.95900, 2173.000
98.19600, 2526.000
99.43300, 2959.000
100.6700, 3380.000
101.9070, 3898.000
103.1430, 4365.000
104.3800, 4908.000
105.6160, 5326.000
106.8520, 5919.000
108.0880, 6300.000
109.3230, 6691.000
110.5590, 7129.000
111.7940, 7335.000
113.0290, 7577.000
114.2640, 7948.000
115.4990, 8097.000
116.7340, 8313.000
117.9680, 8508.000
119.2030, 8669.000
120.4370, 8962.000
121.6710, 8993.000
122.9040, 9304.000
124.1380, 9344.000
125.3710, 9388.000
126.6050, 9568.000
127.8380, 9636.000
129.0710, 9582.000
130.3030, 9768.000
131.5360, 9853.000
132.7680, 9958.000
134.0000, 9796.000
135.2320, 9870.000
136.4640, 9948.000
137.6960, 9965.000
138.9270, 10057.00
140.1590, 10254.00
141.3900, 10208.00
142.6210, 10325.00
143.8520, 10294.00
145.0820, 10457.00
146.3130, 10312.00
147.5430, 10552.00
148.7730, 10475.00
150.0030, 10521.00
151.2330, 10582.00
152.4630, 10690.00
153.6920, 10707.00
154.9210, 10649.00
156.1510, 10778.00
157.3790, 10815.00
158.6080, 10968.00
159.8370, 10907.00
161.0650, 11107.00
162.2930, 11042.00
163.5220, 11180.00
164.7490, 11184.00
165.9770, 11335.00
167.2050, 11466.00
168.4320, 11712.00
169.6590, 11880.00
170.8860, 12413.00
172.1130, 12840.00
173.3400, 13212.00
174.5660, 13960.00
175.7930, 14741.00
177.0190, 15874.00
178.2450, 16752.00
179.4710, 18082.00
180.6960, 19496.00
181.9220, 19910.00
183.1470, 19454.00
184.3720, 18118.00
185.5970, 16647.00
186.8220, 14901.00
188.0470, 13753.00
189.2710, 13112.00
190.4950, 12929.00
191.7200, 12747.00
192.9430, 12631.00
194.1670, 12515.00
195.3910, 12566.00
196.6140, 12592.00
197.8380, 12495.00
199.0610, 12557.00
200.2830, 12558.00
201.5060, 12465.00
202.7290, 12551.00
203.9510, 12500.00
205.1730, 12553.00
206.3950, 12693.00
207.6170, 12621.00
208.8390, 12576.00
210.0610, 12572.00
211.2820, 12756.00
212.5030, 12585.00
213.7240, 12838.00
214.9450, 12928.00
216.1660, 12908.00
217.3860, 12966.00
218.6070, 13074.00
219.8270, 13028.00
221.0470, 13132.00
222.2670, 13292.00
223.4860, 13312.00
224.7060, 13410.00
225.9250, 13526.00
227.1440, 13886.00
228.3630, 14076.00
229.5820, 14432.00
230.8000, 15071.00
232.0190, 15393.00
233.2370, 16025.00
234.4550, 16639.00
235.6730, 17415.00
236.8910, 18233.00
238.1090, 18964.00
239.3260, 19529.00
240.5430, 20036.00
241.7600, 20441.25
242.9770, 20849.76
244.1940, 20926.00
245.4110, 21444.00
246.6270, 21422.00
247.8430, 21509.00
249.0590, 20450.00
250.2750, 19287.00
251.4910, 18116.00
252.7070, 17045.00
253.9220, 16342.00
255.1370, 15793.00
256.3520, 15487.00
257.5670, 15422.00
258.7820, 15221.00
259.9960, 15161.00
261.2110, 15457.00
262.4250, 15486.00
263.6390, 15655.00
264.8530, 15906.00
266.0660, 16099.00
267.2800, 16373.00
268.4930, 16668.00
269.7060, 16911.00
270.9190, 17358.00
272.1320, 18011.00
273.3450, 18486.00
274.5570, 19252.00
275.7700, 19979.00
276.9820, 20465.00
278.1940, 20674.00
279.4050, 20739.00
280.6170, 20054.00
281.8290, 19570.00
283.0400, 18828.00
284.2510, 18599.00
285.4620, 18334.00
286.6730, 18038.00
287.8830, 17711.00
289.0940, 17648.00
290.3040, 17420.00
291.5140, 17100.00
292.7240, 16818.00
293.9340, 16365.00
295.1430, 16211.00
296.3530, 15895.00
297.5620, 15858.00
298.7710, 15505.00
299.9800, 15537.00
301.1890, 15527.00
302.3970, 15675.00
303.6060, 15612.00
304.8140, 15684.00
306.0220, 16017.00
307.2300, 16131.00
308.4380, 16148.00
309.6450, 16288.00
310.8520, 16509.00
312.0600, 16649.00
313.2670, 16652.00
314.4740, 16959.00
315.6800, 17267.00
316.8870, 17097.00
318.0930, 17460.00
319.2990, 17522.00
320.5050, 17916.00
321.7110, 18424.00
322.9170, 18609.00
324.1220, 19092.00
325.3280, 19596.00
326.5330, 20182.00
327.7380, 20206.00
328.9430, 20527.00
330.1470, 20382.00
331.3520, 20179.00
332.5560, 19730.00
333.7600, 19506.00
334.9640, 19285.00
336.1680, 19099.00
337.3720, 19192.81
338.5750, 19393.00
339.7790, 19591.00
340.9820, 19791.00
342.1850, 20096.63
343.3880, 20400.00
344.5900, 20759.00
345.7930, 21147.00
346.9950, 21535.00
348.1970, 21860.00
349.3990, 22079.00
350.6010, 22439.00
351.8020, 23089.00
353.0040, 23991.00
354.2050, 24977.00
355.4060, 26626.00
356.6070, 28586.00
357.8080, 30972.00
359.0090, 34072.00
360.2090, 37500.00
361.4090, 42081.00
362.6090, 47682.00
363.8090, 54389.00
365.0090, 62324.00
366.2090, 70951.00
367.4080, 80165.00
368.6070, 88796.00
369.8060, 96886.00
371.0050, 105154.0
372.2040, 114837.0
373.4030, 123454.0
374.6010, 130380.0
375.7990, 130396.0
376.9970, 130392.0
378.1950, 129330.0
379.3930, 118270.0
380.5910, 103006.0
381.7880, 87721.00
382.9850, 73171.00
384.1820, 61836.00
385.3790, 52331.00
386.5760, 45073.00
387.7720, 39375.00
388.9690, 35567.00
390.1650, 32047.00
391.3610, 29517.00
392.5570, 27649.00
393.7530, 25883.00
394.9480, 25010.00
396.1440, 23912.00
397.3390, 23258.00
398.5340, 22604.00
399.7290, 22054.00
400.9230, 21848.00
402.1180, 21792.00
403.3120, 21712.00
404.5060, 21763.00
405.7000, 21691.00
406.8940, 22175.00
408.0880, 22550.00
409.2820, 22825.00
410.4750, 23740.00
411.6680, 23821.00
412.8610, 24004.00
414.0540, 23534.00
415.2470, 22673.00
416.4390, 21455.00
417.6310, 20517.00
418.8240, 19410.00
420.0160, 18914.00
421.2080, 18112.38
422.3990, 17345.00
423.5910, 17057.00
424.7820, 16691.00
425.9730, 16463.00
427.1640, 16395.02
428.3550, 16322.00
429.5460, 16348.00
430.7360, 16189.00
431.9270, 16074.00
433.1170, 16178.00
434.3070, 16134.00
435.4970, 16207.00
436.6860, 16240.00
437.8760, 16114.00
439.0650, 16438.00
440.2540, 16285.00
441.4430, 16423.00
442.6320, 16436.00
443.8210, 16746.00
445.0090, 17057.00
446.1970, 17018.00
447.3860, 17504.00
448.5740, 17616.00
449.7610, 17828.00
450.9490, 17894.00
452.1370, 18318.00
453.3240, 18600.00
454.5110, 18767.00
455.6980, 18572.00
456.8850, 18791.00
458.0710, 18733.00
459.2580, 18848.00
460.4440, 18979.00
461.6300, 18748.00
462.8160, 18764.00
464.0020, 18958.00
465.1880, 18899.00
466.3730, 18810.00
467.5590, 18858.00
468.7440, 18891.00
469.9290, 18824.00
471.1140, 18670.00
472.2980, 18900.00
473.4830, 18994.00
474.6670, 18915.00
475.8510, 18809.00
477.0350, 18704.00
478.2190, 18557.00
479.4020, 18569.00
480.5860, 18449.00
481.7690, 18281.00
482.9520, 18153.00
484.1350, 18385.00
485.3180, 18372.00
486.5010, 18531.00
487.6830, 18598.00
488.8660, 18959.00
490.0480, 19137.00
491.2300, 19267.00
492.4110, 20056.00
493.5930, 20389.00
494.7750, 20649.00
495.9560, 21000.00
497.1370, 21059.00
498.3180, 20974.00
499.4990, 21149.00
500.6790, 20916.00
501.8600, 21029.00
503.0400, 20598.00
504.2200, 20485.00
505.4000, 20282.00
506.5800, 20119.00
507.7600, 19891.00
508.9390, 19562.00
510.1190, 19391.00
511.2980, 19218.00
512.4770, 18888.00
513.6550, 18729.00
514.8340, 18542.00
516.0130, 18448.00
517.1910, 18347.00
518.3690, 18186.00
519.5470, 18299.00
520.7250, 18317.00
521.9020, 18443.00
523.0800, 18418.00
524.2570, 18464.00
525.4340, 18397.00
526.6110, 18566.00
527.7880, 18925.00
528.9650, 19083.00
530.1410, 19539.00
531.3180, 20091.00
532.4940, 20923.00
533.6700, 22267.00
534.8450, 23838.00
536.0210, 26000.00
537.1970, 28445.00
538.3720, 31495.00
539.5470, 35310.00
540.7220, 39412.00
541.8970, 43772.00
543.0720, 47956.00
544.2460, 50470.00
545.4200, 51057.00
546.5940, 48320.00
547.7680, 43807.00
548.9420, 37797.00
550.1160, 32599.00
551.2890, 27973.00
552.4630, 24712.00
553.6360, 22473.00
554.8090, 20686.00
555.9820, 19414.00
557.1540, 18996.00
558.3270, 18333.00
559.4990, 18124.00
560.6710, 17821.00
561.8430, 17780.00
563.0150, 17646.00
564.1870, 17673.00
565.3580, 17680.00
566.5300, 17453.00
567.7010, 17610.00
568.8720, 17485.00
570.0430, 17511.81
571.2130, 17667.00
572.3840, 17540.00
573.5540, 17492.00
574.7240, 17414.00
575.8940, 17436.00
577.0640, 17299.00
578.2340, 17286.00
579.4030, 17243.00
580.5730, 17141.00
581.7420, 17199.00
582.9110, 16975.00
584.0800, 16839.00
585.2490, 16848.00
586.4170, 16681.00
587.5850, 16541.00
588.7540, 16656.00
589.9220, 16694.00
591.0900, 16540.00
592.2570, 16577.00
593.4250, 16647.00
594.5920, 16615.00
595.7590, 16511.00
596.9260, 16581.00
598.0930, 16737.00
599.2600, 16916.00
600.4270, 17246.00
601.5930, 17382.00
602.7590, 17568.00
603.9250, 17826.00
605.0910, 17906.00
606.2570, 18217.00
607.4220, 18300.00
608.5880, 18606.00
609.7530, 18581.00
610.9180, 18640.00
612.0830, 18881.00
613.2480, 19017.00
614.4120, 19135.00
615.5770, 19219.00
616.7410, 19347.00
617.9050, 19671.00
619.0690, 19819.00
620.2330, 20191.00
621.3960, 20264.00
622.5600, 20424.00
623.7230, 20464.00
624.8860, 20722.00
626.0490, 20825.00
627.2120, 20523.00
628.3740, 20452.00
629.5370, 19810.00
630.6990, 19696.00
631.8610, 18930.00
633.0230, 18505.00
634.1850, 18078.00
635.3460, 17732.00
636.5080, 17143.00
637.6690, 16827.00
638.8300, 16522.00
639.9910, 16157.00
641.1520, 15966.00
642.3120, 15768.00
643.4730, 15683.00
644.6330, 15490.00
645.7930, 15532.00
646.9530, 15491.00
648.1130, 15327.00
649.2730, 15232.00
650.4320, 15198.00
651.5910, 15116.00
652.7510, 15109.00
653.9100, 14935.00
655.0680, 14920.00
656.2270, 14879.00
657.3850, 14769.00
658.5440, 14763.00
659.7020, 14840.00
660.8600, 14875.00
662.0180, 14848.00
663.1750, 14881.00
664.3330, 14928.00
665.4900, 14624.00
666.6470, 14698.00
667.8040, 14685.00
668.9610, 14707.00
670.1180, 14677.00
671.2740, 14746.00
672.4310, 14758.00
673.5870, 14786.00
674.7430, 14658.00
675.8990, 14900.00
677.0550, 14707.00
678.2100, 14723.00
679.3660, 14923.00
680.5210, 14891.00
681.6760, 14826.00
682.8310, 14937.00
683.9850, 14965.00
685.1400, 14890.00
686.2940, 14812.00
687.4490, 14856.00
688.6030, 14968.00
689.7570, 14830.00
690.9100, 14907.00
692.0640, 14875.00
693.2170, 14957.00
694.3700, 14893.00
695.5240, 14917.00
696.6760, 14992.00
697.8290, 14739.00
698.9820, 14878.00
700.1340, 14787.00
701.2870, 14999.00
702.4390, 14989.00
703.5910, 14847.00
704.7420, 14985.00
705.8940, 14968.00
707.0450, 15003.31
708.1970, 15105.00
709.3480, 15123.00
710.4990, 15152.00
711.6500, 15216.00
712.8000, 15091.00
713.9510, 15300.00
715.1010, 15133.00
716.2510, 15035.00
717.4010, 15084.00
718.5510, 15172.00
719.7010, 15262.00
720.8500, 15295.00
721.9990, 15233.00
723.1490, 15240.00
724.2980, 15331.00
725.4460, 15393.00
726.5950, 15318.00
727.7440, 15350.00
728.8920, 15289.00
730.0400, 15389.00
731.1880, 15437.00
732.3360, 15325.00
733.4840, 15343.00
734.6310, 15465.00
735.7790, 15427.00
736.9260, 15559.00
738.0730, 15438.00
739.2200, 15549.00
740.3670, 15497.00
741.5130, 15601.00
742.6600, 15602.43
743.8060, 15641.00
744.9520, 15641.00
746.0980, 15757.00
747.2440, 15818.00
748.3890, 15881.00
749.5350, 15800.00
750.6800, 15847.00
751.8250, 16086.00
752.9700, 15914.00
754.1150, 16074.00
755.2590, 16132.00
756.4040, 16052.00
757.5480, 16045.00
758.6920, 16041.00
759.8360, 16082.72
760.9800, 16112.46
762.1230, 16263.00
763.2670, 16300.00
764.4100, 16459.00
765.5530, 16564.35
766.6960, 16656.00
767.8390, 16797.00
768.9820, 16891.79
770.1240, 17091.00
771.2670, 17090.00
772.4090, 17220.00
773.5510, 17279.00
774.6930, 17230.00
775.8350, 17397.00
776.9760, 17326.00
778.1170, 17237.00
779.2590, 17307.00
780.4000, 17127.00
781.5410, 17088.00
782.6810, 17258.00
783.8220, 17245.00
784.9620, 17280.00
786.1020, 17331.00
787.2430, 17441.00
788.3820, 17508.00
789.5220, 17500.00
790.6620, 17880.00
791.8010, 18065.00
792.9400, 17933.00
794.0800, 18300.00
795.2190, 18589.00
796.3570, 18708.00
797.4960, 18986.00
798.6340, 19507.00
799.7730, 19672.00
800.9110, 20386.00
802.0490, 21008.00
803.1870, 21654.00
804.3240, 22315.00
805.4620, 22987.00
806.5990, 24111.00
807.7360, 25038.00
808.8730, 26441.00
810.0100, 27893.00
811.1470, 29112.00
812.2830, 30502.00
813.4200, 31780.00
814.5560, 33773.00
815.6920, 35426.00
816.8280, 37242.00
817.9630, 39195.00
819.0990, 41576.00
820.2340, 43551.00
821.3700, 45002.00
822.5050, 46969.00
823.6400, 47639.00
824.7740, 48010.00
825.9090, 47533.00
827.0430, 46912.00
828.1780, 45460.00
829.3120, 43945.00
830.4460, 42578.00
831.5790, 41387.00
832.7130, 40131.00
833.8460, 38920.00
834.9800, 38022.00
836.1130, 36973.00
837.2460, 36105.00
838.3790, 35547.00
839.5110, 34968.00
840.6440, 34677.00
841.7760, 34172.00
842.9080, 34017.00
844.0400, 33717.00
845.1720, 33495.00
846.3040, 33605.00
847.4350, 33509.00
848.5670, 33521.00
849.6980, 33320.00
850.8290, 33652.00
851.9600, 33627.00
853.0910, 33858.00
854.2210, 34075.00
855.3520, 34268.00
856.4820, 34640.00
857.6120, 35102.00
858.7420, 35956.00
859.8720, 36514.00
861.0010, 37765.00
862.1310, 39136.00
863.2600, 40861.00
864.3890, 43389.00
865.5180, 45895.00
866.6470, 49921.00
867.7750, 53475.00
868.9040, 58803.00
870.0320, 64847.00
871.1600, 71363.00
872.2880, 78786.00
873.4160, 86698.00
874.5440, 95134.00
875.6710, 102901.0
876.7990, 109827.0
877.9260, 114940.0
879.0530, 117760.0
880.1800, 116988.0
881.3060, 113418.0
882.4330, 107911.0
883.5590, 99526.00
884.6860, 90613.00
885.8120, 80958.00
886.9380, 71778.00
888.0630, 63933.00
889.1890, 56852.00
890.3140, 51666.00
891.4400, 47034.00
892.5650, 43183.00
893.6900, 40381.00
894.8140, 37661.00
895.9390, 35780.00
897.0640, 34112.00
898.1880, 32830.00
899.3120, 31670.00
900.4360, 30973.00
901.5600, 29894.00
902.6830, 29465.00
903.8070, 28737.00
904.9300, 28103.00
906.0540, 27581.79
907.1770, 26990.00
908.2990, 26474.00
909.4220, 25869.00
910.5450, 25337.00
911.6670, 24716.00
912.7890, 24486.00
913.9110, 24157.00
915.0330, 23584.00
916.1550, 23465.00
917.2770, 23121.00
918.3980, 22843.00
919.5190, 22527.00
920.6400, 22485.00
921.7610, 22117.00
922.8820, 22103.00
924.0030, 22216.00
925.1230, 22029.00
926.2440, 21804.00
927.3640, 21645.00
928.4840, 21620.00
929.6040, 21497.00
930.7230, 21346.00
931.8430, 21366.00
932.9620, 21277.00
934.0810, 21356.00
935.2000, 21492.00
936.3190, 21465.00
937.4380, 21728.00
938.5570, 21787.00
939.6750, 22156.00
940.7930, 22265.00
941.9110, 22309.00
943.0290, 22389.00
944.1470, 22673.00
945.2650, 22708.00
946.3820, 22756.00
947.4990, 22512.00
948.6160, 22508.00
949.7330, 22202.00
950.8500, 22174.00
951.9670, 21818.00
953.0830, 21615.00
954.2000, 21317.05
955.3160, 21018.00
956.4320, 20653.00
957.5480, 20318.00
958.6630, 20035.00
959.7790, 19805.00
960.8940, 19806.00
962.0100, 19542.00
963.1250, 19775.00
964.2390, 19579.00
965.3540, 19574.00
966.4690, 19801.00
967.5830, 19921.00
968.6970, 20293.00
969.8120, 20444.00
970.9260, 20875.00
972.0390, 20964.00
973.1530, 21239.00
974.2660, 21367.00
975.3800, 21785.00
976.4930, 22200.00
977.6060, 22233.00
978.7190, 22553.00
979.8310, 22829.00
980.9440, 23266.00
982.0560, 23223.00
983.1680, 23453.00
984.2810, 23664.00
985.3920, 23860.00
986.5040, 24157.00
987.6160, 24300.00
988.7270, 24138.00
989.8380, 24324.00
990.9490, 24214.00
992.0600, 24543.00
993.1710, 24630.00
994.2820, 24470.00
995.3920, 24893.00
996.5030, 25181.00
997.6130, 25470.00
998.7230, 25592.00
999.8330, 26092.00
1000.942, 26250.00
1002.052, 26411.00
1003.161, 26781.00
1004.270, 26822.00
1005.379, 26992.00
1006.488, 26488.00
1007.597, 26029.00
1008.705, 25675.00
1009.814, 24611.00
1010.922, 23773.00
1012.030, 23140.00
1013.138, 22552.00
1014.246, 21646.00
1015.354, 21169.00
1016.461, 20644.00
1017.568, 20274.00
1018.675, 20024.00
1019.782, 19885.00
1020.889, 19752.00
1021.996, 19654.00
1023.102, 19503.74
1024.209, 19389.69
1025.315, 19245.00
1026.421, 19186.00
1027.527, 19098.00
1028.633, 19093.00
1029.738, 19089.00
1030.844, 18972.00
1031.949, 18949.00
1033.054, 18775.00
1034.159, 18735.41
1035.264, 18788.00
1036.368, 18607.00
1037.473, 18583.00
1038.577, 18531.00
1039.681, 18623.00
1040.785, 18616.00
1041.889, 18752.00
1042.993, 18608.00
1044.096, 18679.70
1045.199, 18643.00
1046.303, 18630.00
1047.406, 18471.00
1048.509, 18293.00
1049.611, 18453.00
1050.714, 18313.00
1051.816, 18367.00
1052.918, 18456.00
1054.021, 18210.00
1055.123, 18540.00
1056.224, 18507.00
1057.326, 18365.00
1058.427, 18313.00
1059.529, 18408.00
1060.630, 18198.00
1061.731, 18211.00
1062.832, 18290.00
1063.932, 18294.00
1065.033, 18401.00
1066.133, 18317.00
1067.233, 18297.00
1068.333, 18454.00
1069.433, 18387.00
1070.533, 18346.00
1071.633, 18249.00
1072.732, 18222.00
1073.831, 18439.00
1074.930, 18377.00
1076.029, 18559.00
1077.128, 18468.00
1078.227, 18460.00
1079.325, 18546.00
1080.424, 18488.00
1081.522, 18396.00
1082.620, 18618.00
1083.718, 18652.00
1084.815, 18464.00
1085.913, 18593.00
1087.010, 18520.00
1088.108, 18524.00
1089.205, 18512.00
1090.302, 18526.00
1091.398, 18497.00
1092.495, 18566.00
1093.591, 18431.00
1094.688, 18473.00
1095.784, 18417.00
1096.880, 18472.00
1097.976, 18451.00
1099.071, 18390.00
1100.167, 18661.00
1101.262, 18248.00
1102.357, 18623.00
1103.452, 18615.00
1104.547, 18632.00
1105.642, 18628.00
1106.736, 18626.00
1107.831, 18674.00
1108.925, 18616.00
1110.019, 18553.00
1111.113, 18575.00
1112.207, 18583.00
1113.301, 18611.00
1114.394, 18673.00
1115.487, 18799.00
1116.580, 18756.00
1117.673, 18943.00
1118.766, 19024.00
1119.859, 19024.00
1120.952, 18942.00
1122.044, 18934.00
1123.136, 19070.00
1124.228, 19032.00
1125.320, 19010.00
1126.412, 18964.00
1127.503, 19070.00
1128.595, 19279.00
1129.686, 19149.00
1130.777, 19379.00
1131.868, 19290.00
1132.959, 19279.00
1134.050, 19264.00
1135.140, 19346.00
1136.231, 19483.00
1137.321, 19348.00
1138.411, 19428.00
1139.501, 19619.00
1140.590, 19348.00
1141.680, 19623.00
1142.769, 19705.00
1143.859, 19567.00
1144.948, 19550.00
1146.037, 19471.00
1147.125, 19513.00
1148.214, 19525.00
1149.303, 19669.00
1150.391, 19669.00
1151.479, 19789.00
1152.567, 19772.00
1153.655, 19793.29
1154.743, 19652.00
1155.830, 19764.00
1156.917, 19635.00
1158.005, 19555.00
1159.092, 19519.00
1160.179, 19634.00
1161.265, 19745.00
1162.352, 19590.00
1163.439, 19848.00
1164.525, 19434.00
1165.611, 19398.00
1166.697, 19602.00
1167.783, 19622.00
1168.868, 19588.00
1169.954, 19525.00
1171.039, 19697.00
1172.125, 19576.00
1173.210, 19678.00
1174.295, 19600.00
1175.379, 19472.00
1176.464, 19686.00
1177.548, 19593.00
1178.633, 19704.00
1179.717, 19457.00
1180.801, 19395.00
1181.884, 19344.00
1182.968, 19453.00
1184.052, 19564.00
1185.135, 19377.00
1186.218, 19588.00
1187.301, 19349.00
1188.384, 19658.00
1189.467, 19430.00
1190.549, 19632.00
1191.632, 19635.00
1192.714, 19534.00
1193.796, 19641.00
1194.878, 19601.38
1195.960, 19403.00
1197.042, 19670.00
1198.123, 19604.00
1199.204, 19734.00
1200.286, 19305.00
1201.367, 19591.00
1202.447, 19726.00
1203.528, 19620.00
1204.609, 19821.00
1205.689, 19691.00
1206.769, 19727.00
1207.849, 19761.00
1208.929, 19631.00
1210.009, 19765.00
1211.089, 19630.00
1212.168, 19852.00
1213.248, 19645.00
1214.327, 20141.00
1215.406, 19838.00
1216.485, 19768.00
1217.563, 19897.00
1218.642, 19827.00
1219.720, 19809.00
1220.798, 20060.00
1221.877, 19996.00
1222.954, 19961.00
1224.032, 19816.00
1225.110, 20091.00
1226.187, 20009.00
1227.265, 19940.00
1228.342, 20112.00
1229.419, 19915.00
1230.496, 19832.00
1231.572, 20182.00
1232.649, 20001.00
1233.725, 20070.00
1234.801, 20033.00
1235.878, 20256.00
1236.953, 20192.00
1238.029, 20323.00
1239.105, 20175.00
1240.180, 20112.00
1241.256, 20410.00
1242.331, 20357.00
1243.406, 20387.00
1244.481, 20115.00
1245.555, 20095.00
1246.630, 20364.00
1247.704, 20192.00
