##NAMES=Groutite
##RRUFFID=R080004
##IDEAL CHEMISTRY=Mn^3+^O(OH)
##LOCALITY=Roberts mine, Crosby, Minnesota, USA
##OWNER=RRUFF
##SOURCE=Michael Scott
##DESCRIPTION=Black crystalline and in some cases striated.
##STATUS=The identification of this mineral has been confirmed by single-crystal X-ray diffraction.
##URL=rruff.info/R080004
##PIN_ID=M01773
##ORIENTATION=Laser parallel to b* (0 1 0). Fiducial mark perpendicular to laser is parallel to -c [0 0 -1]
109.2180, 20065.00
110.4490, 19132.00
111.6810, 19204.00
112.9120, 19900.00
114.1440, 21072.00
115.3750, 21942.00
116.6060, 22642.00
117.8360, 21858.00
119.0670, 21481.00
120.2980, 21291.00
121.5280, 20678.85
122.7580, 19982.34
123.9880, 19661.00
125.2180, 18546.00
126.4480, 17672.00
127.6780, 17536.00
128.9070, 17893.00
130.1370, 17781.00
131.3660, 17181.00
132.5950, 17072.00
133.8240, 17077.00
135.0530, 17017.00
136.2810, 17408.00
137.5100, 17142.00
138.7380, 17711.00
139.9660, 17483.00
141.1940, 17214.00
142.4220, 17040.00
143.6500, 16923.60
144.8780, 16852.63
146.1050, 16789.00
147.3330, 16840.00
148.5600, 16818.86
149.7870, 16805.31
151.0140, 16735.00
152.2400, 16677.00
153.4670, 16521.00
154.6940, 16587.00
155.9200, 16385.00
157.1460, 16400.00
158.3720, 16385.00
159.5980, 16095.00
160.8240, 16040.00
162.0490, 15724.00
163.2750, 15815.00
164.5000, 15681.00
165.7250, 15618.00
166.9500, 15472.00
168.1750, 15587.00
169.4000, 15624.00
170.6240, 15706.00
171.8490, 15631.00
173.0730, 15415.00
174.2970, 15403.00
175.5210, 15365.00
176.7450, 15343.00
177.9690, 15236.00
179.1920, 15249.48
180.4160, 15197.13
181.6390, 15244.00
182.8620, 15207.00
184.0850, 15225.00
185.3080, 15197.28
186.5300, 15170.00
187.7530, 15134.00
188.9750, 15218.00
190.1970, 15207.00
191.4190, 15019.00
192.6410, 15314.00
193.8630, 15157.00
195.0850, 15259.00
196.3060, 14797.01
197.5280, 15037.88
198.7490, 15155.67
199.9700, 15156.96
201.1910, 14692.83
202.4110, 14829.73
203.6320, 14725.74
204.8530, 14611.88
206.0730, 14713.95
207.2930, 15155.00
208.5130, 14810.00
209.7330, 15115.00
210.9530, 14891.00
212.1720, 14937.00
213.3920, 14972.00
214.6110, 14860.38
215.8300, 15139.47
217.0490, 15295.45
218.2680, 15334.93
219.4860, 14908.99
220.7050, 15084.04
221.9230, 15018.25
223.1420, 14942.58
224.3600, 15202.22
225.5780, 14843.97
226.7950, 15210.00
228.0130, 15089.00
229.2310, 14875.00
230.4480, 15047.00
231.6650, 15027.00
232.8820, 14794.00
234.0990, 14858.00
235.3160, 15153.00
236.5330, 14916.00
237.7490, 14929.00
238.9650, 14960.00
240.1810, 14916.38
241.3980, 14928.00
242.6130, 15021.00
243.8290, 15008.00
245.0450, 15112.00
246.2600, 15206.00
247.4750, 15356.00
248.6910, 15591.00
249.9050, 15932.00
251.1200, 16202.00
252.3350, 16487.00
253.5500, 16920.00
254.7640, 17535.05
255.9780, 18241.37
257.1920, 19061.00
258.4060, 19996.00
259.6200, 20976.00
260.8340, 21948.00
262.0470, 22851.00
263.2600, 23809.00
264.4740, 24608.00
265.6870, 25397.00
266.9000, 25631.00
268.1120, 25705.66
269.3250, 25489.04
270.5370, 25028.00
271.7500, 24349.00
272.9620, 23482.00
274.1740, 22658.00
275.3860, 21916.00
276.5970, 21058.77
277.8090, 20025.00
279.0200, 19470.00
280.2320, 18720.00
281.4430, 18027.00
282.6540, 17491.00
283.8640, 17128.00
285.0750, 16821.00
286.2860, 16488.00
287.4960, 16222.62
288.7060, 15714.00
289.9160, 15716.00
291.1260, 15393.00
292.3360, 15124.00
293.5450, 15231.00
294.7550, 15120.00
295.9640, 15020.00
297.1730, 14985.00
298.3820, 15007.00
299.5910, 14999.00
300.8000, 14886.00
302.0080, 15070.00
303.2170, 14763.00
304.4250, 14970.00
305.6330, 14897.00
306.8410, 14874.00
308.0490, 14705.00
309.2570, 14653.86
310.4640, 14606.77
311.6710, 14490.00
312.8790, 14559.00
314.0860, 14534.00
315.2930, 14566.00
316.4990, 14305.00
317.7060, 14390.00
318.9120, 14320.00
320.1190, 14307.00
321.3250, 14342.00
322.5310, 14191.00
323.7370, 14264.00
324.9420, 14284.00
326.1480, 14230.00
327.3530, 14262.75
328.5580, 14167.00
329.7640, 14251.00
330.9680, 14199.71
332.1730, 14211.00
333.3780, 14261.00
334.5820, 13996.00
335.7870, 14095.00
336.9910, 14188.00
338.1950, 14130.00
339.3990, 14259.00
340.6020, 14219.69
341.8060, 14313.00
343.0090, 14266.00
344.2130, 14180.00
345.4160, 14374.00
346.6190, 14317.00
347.8220, 14399.08
349.0240, 14401.00
350.2270, 14464.00
351.4290, 14525.00
352.6310, 14403.00
353.8330, 14558.00
355.0350, 14418.00
356.2370, 14340.00
357.4390, 14371.00
358.6400, 14521.00
359.8410, 14509.00
361.0430, 14539.00
362.2440, 14562.00
363.4440, 14653.98
364.6450, 14758.00
365.8460, 14924.00
367.0460, 15286.00
368.2460, 15544.00
369.4460, 15896.00
370.6460, 16332.00
371.8460, 16927.00
373.0460, 17684.00
374.2450, 18490.00
375.4440, 19306.00
376.6440, 20254.79
377.8430, 21096.00
379.0410, 22303.00
380.2400, 23356.00
381.4390, 24545.00
382.6370, 24445.55
383.8350, 25436.00
385.0330, 23688.00
386.2310, 22755.00
387.4290, 21751.00
388.6270, 20800.00
389.8240, 20231.00
391.0220, 19411.00
392.2190, 18854.00
393.4160, 18198.00
394.6130, 17760.00
395.8090, 17317.00
397.0060, 16847.00
398.2020, 16711.00
399.3990, 16475.00
400.5950, 16519.00
401.7910, 16113.00
402.9870, 16041.00
404.1820, 15742.00
405.3780, 16033.00
406.5730, 15718.00
407.7680, 15538.00
408.9630, 15500.69
410.1580, 15179.00
411.3530, 15207.00
412.5480, 14950.00
413.7420, 14826.00
414.9360, 14888.00
416.1300, 14773.00
417.3240, 14758.00
418.5180, 14640.00
419.7120, 14590.00
420.9050, 14660.00
422.0990, 14550.00
423.2920, 14651.00
424.4850, 14475.00
425.6780, 14617.00
426.8700, 14456.00
428.0630, 14642.00
429.2550, 14640.00
430.4480, 14673.00
431.6400, 14452.00
432.8320, 14546.36
434.0240, 14498.81
435.2150, 14595.00
436.4070, 14548.00
437.5980, 14586.00
438.7890, 14691.00
439.9800, 14678.00
441.1710, 14731.00
442.3620, 14738.00
443.5530, 14637.00
444.7430, 14601.00
445.9330, 14642.00
447.1230, 14876.00
448.3130, 14605.00
449.5030, 14803.00
450.6930, 14749.00
451.8820, 14765.00
453.0720, 14570.00
454.2610, 14702.00
455.4500, 14633.00
456.6390, 14871.00
457.8270, 14701.00
459.0160, 14687.00
460.2040, 14826.00
461.3930, 14824.00
462.5810, 14838.00
463.7690, 14711.00
464.9560, 14792.00
466.1440, 14815.00
467.3320, 14868.00
468.5190, 14837.74
469.7060, 14855.00
470.8930, 14777.00
472.0800, 14930.00
473.2670, 14980.00
474.4530, 14940.00
475.6400, 14959.00
476.8260, 14864.00
478.0120, 15135.00
479.1980, 14927.00
480.3840, 15079.00
481.5690, 14897.00
482.7550, 14986.00
483.9400, 15051.00
485.1250, 15052.00
486.3100, 15080.00
487.4950, 15096.00
488.6800, 15144.00
489.8640, 15158.58
491.0490, 15122.00
492.2330, 15203.00
493.4170, 15130.00
494.6010, 15144.00
495.7840, 15244.07
496.9680, 15224.44
498.1510, 15323.00
499.3350, 15390.00
500.5180, 15408.96
501.7010, 15411.00
502.8840, 15441.00
504.0660, 15503.00
505.2490, 15433.00
506.4310, 15332.00
507.6130, 15395.00
508.7950, 15481.00
509.9770, 15502.00
511.1590, 15697.00
512.3410, 15620.00
513.5220, 15558.00
514.7030, 15830.00
515.8840, 15927.00
517.0650, 15687.00
518.2460, 16002.00
519.4270, 15882.00
520.6070, 16175.00
521.7870, 16328.00
522.9680, 16269.00
524.1480, 16475.00
525.3280, 16586.00
526.5070, 16764.00
527.6870, 16873.00
528.8660, 17076.00
530.0450, 17082.00
531.2240, 17233.00
532.4030, 17480.00
533.5820, 17908.00
534.7610, 18198.00
535.9390, 18378.85
537.1170, 18732.00
538.2950, 18947.00
539.4730, 19362.00
540.6510, 20026.56
541.8290, 20809.47
543.0060, 21468.85
544.1840, 22012.17
545.3610, 22089.62
546.5380, 22768.07
547.7150, 23205.67
548.8910, 23632.94
550.0680, 24324.00
551.2440, 24725.00
552.4210, 25008.00
553.5970, 25323.00
554.7730, 25209.00
555.9480, 25255.00
557.1240, 25296.00
558.2990, 25004.00
559.4750, 24849.00
560.6500, 24566.00
561.8250, 24172.00
563.0000, 24003.00
564.1740, 23625.00
565.3490, 23192.00
566.5230, 22676.00
567.6970, 22372.00
568.8710, 22078.00
570.0450, 21706.00
571.2190, 21372.85
572.3930, 20897.00
573.5660, 20698.00
574.7390, 20112.00
575.9120, 19868.00
577.0850, 19604.00
578.2580, 19627.00
579.4310, 19272.00
580.6030, 19188.00
581.7750, 18917.00
582.9470, 18698.00
584.1190, 18600.00
585.2910, 18440.00
586.4630, 18417.00
587.6340, 18410.00
588.8060, 18177.00
589.9770, 18215.00
591.1480, 18224.00
592.3190, 18338.00
593.4900, 17991.00
594.6600, 17977.02
595.8310, 17971.79
597.0010, 17910.73
598.1710, 17796.70
599.3410, 17471.12
600.5100, 17418.84
601.6800, 17256.96
602.8500, 17090.60
604.0190, 17076.76
605.1880, 16992.00
606.3570, 17001.00
607.5260, 16869.00
608.6940, 16758.00
609.8630, 16861.00
611.0310, 16797.00
612.1990, 16815.00
613.3670, 16868.00
614.5350, 16967.00
615.7030, 16884.00
616.8700, 16932.00
618.0380, 17052.10
619.2050, 17213.27
620.3720, 17346.46
621.5390, 17453.18
622.7060, 17454.11
623.8720, 17591.56
625.0390, 17674.35
626.2050, 17754.81
627.3710, 17911.47
628.5370, 17883.00
629.7030, 17882.00
630.8680, 17857.00
632.0340, 17704.00
633.1990, 17647.00
634.3640, 17548.00
635.5290, 17324.00
636.6940, 17198.00
637.8590, 17083.75
639.0230, 16879.78
640.1880, 16848.00
641.3520, 16574.00
642.5160, 16390.00
643.6800, 16339.00
644.8440, 16249.00
646.0070, 16120.00
647.1710, 16037.00
648.3340, 15964.73
649.4970, 15910.32
650.6600, 15845.00
651.8220, 15826.21
652.9850, 15775.00
654.1480, 15686.00
655.3100, 15534.00
656.4720, 15629.00
657.6340, 15441.00
658.7960, 15474.00
659.9570, 15346.62
661.1190, 15481.50
662.2800, 15542.71
663.4410, 15534.24
664.6020, 15244.60
665.7630, 15320.13
666.9240, 15250.60
668.0840, 15176.03
669.2450, 15305.57
670.4050, 15061.57
671.5650, 15189.75
672.7250, 15170.64
673.8840, 15220.30
675.0440, 15123.97
676.2030, 15073.95
677.3630, 15171.74
678.5220, 15189.11
679.6810, 15079.56
680.8390, 15139.03
681.9980, 14899.07
683.1560, 14923.58
684.3150, 15062.69
685.4730, 14965.11
686.6310, 15031.83
687.7880, 15037.24
688.9460, 14760.75
690.1030, 14977.01
691.2610, 14981.47
692.4180, 14768.45
693.5750, 14970.59
694.7320, 14789.51
695.8880, 14746.45
697.0450, 14807.49
698.2010, 14761.87
699.3570, 14886.76
700.5130, 14849.17
701.6690, 14797.90
702.8250, 14811.23
703.9800, 14644.97
705.1360, 14814.50
706.2910, 14756.18
707.4460, 14812.48
708.6010, 14917.00
709.7560, 14964.00
710.9100, 14721.00
712.0650, 14871.00
713.2190, 14887.00
714.3730, 14887.00
715.5270, 14681.00
716.6810, 14797.00
717.8340, 14664.00
718.9880, 14730.00
720.1410, 14835.00
721.2940, 14876.00
722.4470, 14772.00
723.6000, 14776.00
724.7520, 14757.00
725.9050, 14747.00
727.0570, 14783.00
728.2090, 14742.67
729.3610, 14794.00
730.5130, 14720.00
731.6650, 14785.00
732.8160, 14836.00
733.9680, 14863.00
735.1190, 14739.00
736.2700, 14874.00
737.4210, 14841.00
738.5710, 14801.00
739.7220, 14935.00
740.8720, 14816.00
742.0220, 14781.00
743.1720, 14792.00
744.3220, 14867.00
745.4720, 14850.25
746.6220, 14927.00
747.7710, 14878.00
748.9200, 15016.00
750.0690, 15019.00
751.2180, 14773.00
752.3670, 14852.00
753.5150, 14924.00
754.6640, 14907.00
755.8120, 14969.00
756.9600, 14943.38
758.1080, 14900.66
759.2560, 14939.00
760.4030, 14809.00
761.5510, 14905.00
762.6980, 14942.00
763.8450, 14843.04
764.9920, 14900.50
766.1390, 14732.00
767.2860, 14827.00
768.4320, 14848.00
769.5780, 14699.00
770.7250, 14711.00
771.8710, 14753.00
773.0160, 14813.00
774.1620, 14736.00
775.3070, 14792.00
776.4530, 14706.00
777.5980, 14721.19
778.7430, 14697.37
779.8880, 14721.00
781.0320, 14714.00
782.1770, 14705.00
783.3210, 14861.00
784.4650, 14818.00
785.6090, 14976.00
786.7530, 14779.00
787.8970, 14721.00
789.0410, 14706.00
790.1840, 14753.00
791.3270, 14655.00
792.4700, 14799.00
793.6130, 14725.00
794.7560, 14751.00
795.8980, 14829.00
797.0410, 14533.59
798.1830, 14703.85
799.3250, 14799.49
800.4670, 14824.53
801.6090, 14567.49
802.7500, 14674.70
803.8920, 14635.93
805.0330, 14591.17
806.1740, 14749.64
807.3150, 14802.00
808.4560, 14670.00
809.5960, 14807.00
810.7370, 14730.00
811.8770, 14692.00
813.0170, 14740.00
814.1570, 14695.00
815.2970, 14798.00
816.4360, 14629.11
817.5760, 14793.89
818.7150, 14884.06
819.8540, 14903.63
820.9930, 14641.13
822.1320, 14742.86
823.2700, 14698.63
824.4090, 14648.41
825.5470, 14801.42
826.6850, 14579.94
827.8230, 14817.00
828.9610, 14640.00
830.0990, 14728.00
831.2360, 14715.00
832.3730, 14830.00
833.5110, 14669.00
834.6480, 14921.00
835.7840, 14772.00
836.9210, 14807.56
838.0580, 14888.00
839.1940, 14815.00
840.3300, 14770.00
841.4660, 14797.00
842.6020, 14747.09
843.7370, 14732.00
844.8730, 14742.00
846.0080, 14800.00
847.1430, 14855.00
848.2780, 14960.00
849.4130, 14976.00
850.5480, 14690.00
851.6830, 14806.00
852.8170, 14809.00
853.9510, 14961.00
855.0850, 14840.00
856.2190, 14934.00
857.3530, 14880.00
858.4860, 15068.00
859.6190, 15050.00
860.7530, 15045.00
861.8860, 15059.00
863.0190, 14912.16
864.1510, 15071.11
865.2840, 15155.44
866.4160, 15169.17
867.5480, 14900.83
868.6800, 14996.73
869.8120, 14946.66
870.9440, 15092.00
872.0760, 15049.00
873.2070, 15118.00
874.3380, 15235.00
875.4690, 14986.00
876.6000, 15131.00
877.7310, 15135.00
878.8610, 15199.00
879.9920, 15231.28
881.1220, 15217.82
882.2520, 15242.00
883.3820, 15207.00
884.5120, 15184.00
885.6410, 15219.00
886.7710, 15090.00
887.9000, 15374.00
889.0290, 15175.00
890.1580, 15243.00
891.2870, 15276.00
892.4150, 15242.00
893.5440, 15350.00
894.6720, 15305.00
895.8000, 15222.00
896.9280, 15313.00
898.0550, 15469.00
899.1830, 15244.00
900.3100, 15358.00
901.4380, 15461.00
902.5650, 15329.00
903.6920, 15649.00
904.8180, 15506.00
905.9450, 15497.00
907.0710, 15512.00
908.1980, 15410.00
909.3240, 15563.00
910.4500, 15539.00
911.5750, 15538.00
912.7010, 15536.00
913.8260, 15533.12
914.9520, 15538.86
916.0770, 15546.00
917.2020, 15585.00
918.3260, 15604.00
919.4510, 15701.00
920.5750, 15588.00
921.7000, 15599.00
922.8240, 15523.45
923.9480, 15694.00
925.0720, 15712.00
926.1950, 15682.00
927.3190, 15741.05
928.4420, 15737.57
929.5650, 15799.00
930.6880, 15703.00
931.8110, 15867.00
932.9330, 15716.00
934.0560, 15684.00
935.1780, 15916.00
936.3000, 15719.00
937.4220, 15713.00
938.5440, 15933.00
939.6650, 15660.00
940.7870, 16021.00
941.9080, 15774.00
943.0290, 16042.00
944.1500, 15875.00
945.2710, 15667.78
946.3910, 15837.28
947.5120, 15932.15
948.6320, 15956.43
949.7520, 15698.62
950.8720, 15805.06
951.9920, 15765.53
953.1110, 15720.01
954.2310, 15877.72
955.3500, 15660.94
956.4690, 15815.42
957.5880, 15812.00
958.7070, 15867.00
959.8250, 15847.00
960.9440, 15678.00
962.0620, 15898.00
963.1800, 15761.00
964.2980, 15722.00
965.4160, 15857.00
966.5330, 15726.00
967.6510, 15804.00
968.7680, 15920.00
969.8850, 15887.73
971.0020, 15947.00
972.1190, 15873.00
973.2360, 15881.00
974.3520, 15679.00
975.4680, 15729.00
976.5840, 15716.57
977.7000, 15881.73
978.8160, 15972.27
979.9320, 15992.22
981.0470, 15730.09
982.1620, 15832.20
983.2770, 15788.34
984.3920, 15738.49
985.5070, 15891.87
986.6220, 15883.00
987.7360, 15717.00
988.8500, 15753.00
989.9640, 15712.47
991.0780, 15814.00
992.1920, 15705.00
993.3050, 15901.00
994.4190, 15941.00
995.5320, 15852.00
996.6450, 15935.00
997.7580, 15816.00
998.8710, 15707.00
999.9830, 15861.00
1001.096, 15911.00
1002.208, 15861.00
1003.320, 15812.00
1004.432, 15870.02
1005.544, 15845.00
1006.655, 15909.00
1007.767, 15852.00
1008.878, 15781.00
1009.989, 15917.00
1011.100, 15836.00
1012.211, 15902.00
1013.321, 15842.00
1014.431, 15559.38
1015.542, 15740.81
1016.652, 15847.61
1017.762, 15883.82
1018.871, 15637.93
1019.981, 15756.30
1021.090, 15728.68
1022.199, 15695.08
1023.308, 15872.00
1024.417, 15681.00
1025.526, 15848.00
1026.635, 15691.71
1027.743, 15884.13
1028.851, 16001.93
1029.959, 16049.13
1031.067, 15814.26
1032.175, 15943.62
1033.282, 15927.00
1034.390, 15904.40
1035.497, 16085.01
1036.604, 15891.15
1037.711, 16068.53
1038.817, 16097.70
1039.924, 16194.72
1041.030, 16144.84
1042.136, 16140.33
1043.242, 16282.73
1044.348, 16108.00
1045.454, 16216.00
1046.559, 16155.00
1047.665, 16207.38
1048.770, 16457.00
1049.875, 16230.00
1050.980, 16443.00
1052.084, 16376.00
1053.189, 16408.00
1054.293, 16468.00
1055.397, 16431.00
1056.501, 16483.00
1057.605, 16748.00
1058.709, 16863.00
1059.812, 16903.00
1060.915, 16813.00
1062.018, 17158.00
1063.121, 17013.00
1064.224, 17111.01
1065.327, 17283.00
1066.429, 17119.00
1067.532, 17247.00
1068.634, 17146.00
1069.736, 17195.00
1070.837, 17350.00
1071.939, 17138.00
1073.041, 17109.00
1074.142, 17257.00
1075.243, 17045.96
1076.344, 16998.00
1077.445, 16882.00
1078.545, 16613.00
1079.646, 16627.00
1080.746, 16587.00
1081.846, 16695.00
1082.946, 16574.00
1084.046, 16550.00
1085.145, 16437.00
1086.245, 16546.00
1087.344, 16565.00
1088.443, 16484.00
1089.542, 16451.00
1090.640, 16501.00
1091.739, 16387.00
1092.837, 16373.00
1093.936, 16399.00
1095.034, 16192.00
1096.132, 16336.00
1097.229, 16187.00
1098.327, 16475.00
1099.424, 16428.00
1100.521, 16292.00
1101.618, 16295.00
1102.715, 16108.00
1103.812, 16018.00
1104.908, 16288.00
1106.005, 16220.00
1107.101, 16271.00
1108.197, 16187.00
1109.293, 16265.00
1110.389, 16270.00
1111.484, 16108.00
1112.579, 16210.00
1113.675, 16259.00
1114.770, 16283.00
1115.864, 16388.00
1116.959, 16350.00
1118.053, 16263.00
1119.148, 16094.00
1120.242, 16117.00
1121.336, 16102.00
1122.430, 16264.00
1123.523, 16203.00
1124.617, 16126.00
1125.710, 16316.00
1126.803, 16309.00
1127.896, 16236.00
1128.989, 16334.00
1130.081, 16223.00
1131.174, 16460.00
1132.266, 16406.00
1133.358, 16417.00
1134.450, 16299.00
1135.542, 16510.00
1136.634, 16382.00
1137.725, 16304.00
1138.816, 16503.00
1139.907, 16334.00
1140.998, 16425.00
1142.089, 16543.00
1143.179, 16552.00
1144.270, 16318.00
1145.360, 16392.00
1146.450, 16531.00
1147.540, 16395.00
1148.630, 16565.00
1149.719, 16529.00
1150.809, 16548.00
1151.898, 16572.00
1152.987, 16625.00
1154.076, 16649.00
1155.164, 16588.00
1156.253, 16640.00
1157.341, 16599.00
1158.429, 16423.00
1159.517, 16497.00
1160.605, 16645.00
1161.693, 16802.00
1162.780, 16704.56
1163.868, 16763.06
1164.955, 16526.00
1166.042, 16677.00
1167.128, 16657.00
1168.215, 16625.00
1169.302, 16598.00
1170.388, 16523.00
1171.474, 16535.11
1172.560, 16543.78
1173.646, 16596.00
1174.731, 16565.00
1175.817, 16719.00
1176.902, 16633.00
1177.987, 16655.00
1179.072, 16757.00
1180.157, 16749.00
1181.241, 16624.00
1182.326, 16592.00
1183.410, 16675.23
1184.494, 16659.42
1185.578, 16839.00
1186.662, 16744.00
1187.745, 16710.00
1188.828, 16669.00
1189.912, 16852.00
1190.995, 16712.00
1192.078, 16791.00
1193.160, 16653.00
1194.243, 16515.00
1195.325, 16711.00
1196.407, 16556.00
1197.489, 16760.00
1198.571, 16502.00
1199.653, 16456.00
1200.734, 16657.00
1201.816, 16629.00
1202.897, 16493.00
1203.978, 16513.00
1205.058, 16611.00
1206.139, 16498.00
1207.220, 16514.00
1208.300, 16471.00
1209.380, 16392.00
1210.460, 16401.00
1211.540, 16387.44
1212.619, 16377.00
1213.699, 16440.00
1214.778, 16463.00
1215.857, 16537.00
1216.936, 16384.00
1218.015, 16471.00
1219.093, 16375.00
1220.172, 16633.00
1221.250, 16463.00
1222.328, 16489.00
1223.406, 16392.00
1224.483, 16300.00
1225.561, 16279.00
1226.638, 16406.00
1227.715, 16340.00
1228.792, 16271.00
1229.869, 16290.00
1230.946, 16231.82
1232.022, 16270.00
1233.099, 16189.00
1234.175, 16211.00
1235.251, 16210.00
1236.327, 16217.00
1237.402, 16333.00
1238.478, 16278.00
1239.553, 16366.00
1240.628, 16206.00
1241.703, 16176.85
1242.778, 16209.00
1243.852, 16055.00
1244.927, 16117.00
1246.001, 16185.00
1247.075, 16040.00
1248.149, 16107.00
1249.223, 16138.00
1250.296, 16162.00
1251.370, 16143.00
1252.443, 16158.72
1253.516, 16162.82
1254.589, 16134.00
1255.662, 16178.00
1256.734, 16132.00
1257.806, 16144.00
1258.879, 16094.00
1259.951, 16136.00
1261.023, 16073.00
1262.094, 16126.00
1263.166, 16112.00
1264.237, 16165.00
1265.308, 16258.00
1266.379, 16070.00
1267.450, 16040.26
1268.521, 16202.93
1269.591, 16290.99
1270.661, 16308.44
1271.731, 16043.82
1272.801, 16143.43
1273.871, 16097.08
1274.941, 16044.74
1276.010, 16091.00
1277.079, 16011.00
1278.148, 16004.00
1279.217, 15905.00
1280.286, 16067.00
1281.354, 16179.00
1282.423, 15833.00
1283.491, 16036.00
1284.559, 16082.00
1285.627, 15918.00
1286.695, 16065.00
1287.762, 16008.00
1288.829, 16009.00
1289.897, 16042.00
1290.964, 16042.19
1292.030, 16048.00
