##NAMES=Groutite
##RRUFFID=R080004
##IDEAL CHEMISTRY=Mn^3+^O(OH)
##LOCALITY=Roberts mine, Crosby, Minnesota, USA
##OWNER=RRUFF
##SOURCE=Michael Scott
##DESCRIPTION=Black crystalline and in some cases striated.
##STATUS=The identification of this mineral has been confirmed by single-crystal X-ray diffraction.
##URL=rruff.info/R080004
##PIN_ID=M01041
##ORIENTATION=Laser parallel to c* (0 0 1). Fiducial mark perpendicular to laser is parallel to -a [-1 0 0]
101.9390, 6498.000
103.1740, 6619.000
104.4090, 6966.000
105.6440, 7347.000
106.8790, 7536.000
108.1140, 7419.000
109.3490, 7096.000
110.5830, 7719.000
111.8180, 7053.000
113.0520, 7203.000
114.2860, 8052.000
115.5200, 8708.000
116.7530, 8949.000
117.9870, 8804.000
119.2200, 9746.000
120.4530, 11568.00
121.6860, 12855.00
122.9190, 11789.00
124.1520, 10054.00
125.3850, 8050.000
126.6170, 6889.000
127.8490, 6560.000
129.0810, 6673.000
130.3130, 6330.858
131.5450, 6719.000
132.7770, 6598.000
134.0080, 6579.000
135.2390, 6859.000
136.4710, 6900.000
137.7020, 7199.000
138.9320, 7450.000
140.1630, 7584.000
141.3930, 7666.000
142.6240, 7776.000
143.8540, 7958.863
145.0840, 8024.647
146.3140, 8274.000
147.5440, 8126.000
148.7730, 8122.000
150.0020, 7968.000
151.2320, 7742.000
152.4610, 7596.000
153.6900, 7458.000
154.9180, 7179.000
156.1470, 7045.000
157.3750, 6940.000
158.6040, 6752.000
159.8320, 6646.880
161.0600, 6459.000
162.2870, 6394.000
163.5150, 6227.000
164.7420, 6096.000
165.9700, 6037.000
167.1970, 5983.000
168.4240, 5843.000
169.6510, 5890.000
170.8770, 5783.000
172.1040, 5803.000
173.3300, 5862.000
174.5560, 5794.000
175.7820, 5718.000
177.0080, 5707.000
178.2340, 5665.000
179.4590, 5659.131
180.6850, 5580.000
181.9100, 5646.000
183.1350, 5651.000
184.3600, 5595.000
185.5850, 5688.000
186.8090, 5614.000
188.0340, 5647.000
189.2580, 5694.000
190.4820, 5576.000
191.7060, 5676.000
192.9300, 5645.000
194.1530, 5655.000
195.3770, 5703.000
196.6000, 5678.000
197.8230, 5669.000
199.0460, 5602.000
200.2690, 5660.098
201.4910, 5716.540
202.7140, 5744.572
203.9360, 5745.732
205.1580, 5639.516
206.3800, 5671.955
207.6020, 5648.827
208.8240, 5623.420
210.0450, 5743.000
211.2670, 5648.000
212.4880, 5684.000
213.7090, 5646.000
214.9300, 5619.000
216.1510, 5828.000
217.3710, 5710.000
218.5920, 5800.000
219.8120, 5839.000
221.0320, 5765.047
222.2520, 5725.000
223.4720, 5749.000
224.6910, 5763.000
225.9110, 5785.763
227.1300, 5809.363
228.3490, 5861.000
229.5680, 5862.000
230.7870, 5885.000
232.0050, 5918.000
233.2240, 5978.550
234.4420, 6050.000
235.6600, 6124.000
236.8780, 6233.000
238.0960, 6293.000
239.3140, 6442.886
240.5310, 6729.000
241.7490, 6797.000
242.9660, 7053.000
244.1830, 7361.000
245.4000, 7462.000
246.6160, 7843.000
247.8330, 8374.000
249.0490, 8668.000
250.2660, 9103.000
251.4820, 9370.000
252.6980, 9856.000
253.9130, 10056.00
255.1290, 10506.00
256.3440, 10694.00
257.5600, 10708.00
258.7750, 10668.85
259.9900, 10668.00
261.2040, 10195.00
262.4190, 10023.00
263.6330, 9716.000
264.8480, 9377.177
266.0620, 9067.241
267.2760, 8741.000
268.4900, 8427.000
269.7030, 8173.729
270.9170, 7954.000
272.1300, 7714.402
273.3430, 7575.315
274.5560, 7420.000
275.7690, 7401.000
276.9820, 7281.000
278.1940, 7281.000
279.4070, 7334.000
280.6190, 7207.000
281.8310, 7323.000
283.0430, 7291.000
284.2550, 7361.000
285.4660, 7299.000
286.6770, 7158.000
287.8890, 7107.000
289.1000, 7022.000
290.3110, 6992.000
291.5210, 6809.000
292.7320, 6818.000
293.9420, 6568.000
295.1530, 6746.000
296.3630, 6542.000
297.5730, 6482.000
298.7830, 6511.000
299.9920, 6471.000
301.2020, 6393.000
302.4110, 6481.000
303.6200, 6388.000
304.8290, 6417.000
306.0380, 6411.000
307.2470, 6436.000
308.4550, 6427.232
309.6630, 6403.122
310.8720, 6410.582
312.0800, 6438.000
313.2880, 6437.000
314.4950, 6462.000
315.7030, 6419.000
316.9100, 6521.000
318.1170, 6502.000
319.3240, 6471.000
320.5310, 6436.000
321.7380, 6635.000
322.9450, 6600.000
324.1510, 6637.000
325.3570, 6620.000
326.5630, 6741.000
327.7690, 6685.000
328.9750, 6657.000
330.1810, 6687.000
331.3860, 6857.000
332.5910, 6883.000
333.7960, 6943.000
335.0010, 6960.000
336.2060, 7046.000
337.4110, 7157.000
338.6150, 7170.000
339.8200, 7284.000
341.0240, 7519.000
342.2280, 7617.000
343.4320, 7935.000
344.6350, 8162.544
345.8390, 8321.000
347.0420, 8736.000
348.2450, 9029.000
349.4480, 9347.000
350.6510, 9919.000
351.8540, 10314.00
353.0560, 10778.00
354.2590, 11134.00
355.4610, 11547.00
356.6630, 11842.00
357.8650, 11808.00
359.0670, 11985.00
360.2680, 11735.00
361.4700, 11379.00
362.6710, 10963.00
363.8720, 10498.00
365.0730, 10127.04
366.2740, 9715.942
367.4740, 9419.000
368.6750, 8999.000
369.8750, 8855.000
371.0750, 8634.000
372.2750, 8277.000
373.4750, 8107.000
374.6740, 8067.000
375.8740, 7866.000
377.0730, 7851.000
378.2720, 7889.000
379.4710, 7949.000
380.6700, 7892.000
381.8690, 8006.000
383.0670, 7991.000
384.2660, 7999.000
385.4640, 8031.000
386.6620, 8015.308
387.8600, 8026.000
389.0570, 7978.000
390.2550, 7933.000
391.4520, 7840.000
392.6490, 7683.000
393.8460, 7454.000
395.0430, 7394.000
396.2400, 7133.000
397.4370, 7133.000
398.6330, 7047.000
399.8290, 6938.000
401.0250, 6981.000
402.2210, 6800.000
403.4170, 6689.000
404.6130, 6685.000
405.8080, 6592.000
407.0030, 6688.000
408.1980, 6637.000
409.3930, 6502.000
410.5880, 6566.000
411.7830, 6474.000
412.9770, 6438.000
414.1720, 6437.000
415.3660, 6441.000
416.5600, 6365.000
417.7530, 6335.000
418.9470, 6278.000
420.1410, 6353.000
421.3340, 6341.000
422.5270, 6385.000
423.7200, 6376.000
424.9130, 6447.000
426.1060, 6345.000
427.2980, 6310.000
428.4900, 6301.000
429.6830, 6332.000
430.8750, 6340.717
432.0670, 6408.000
433.2580, 6402.000
434.4500, 6396.000
435.6410, 6407.000
436.8320, 6399.000
438.0240, 6411.000
439.2140, 6489.000
440.4050, 6492.000
441.5960, 6436.000
442.7860, 6438.000
443.9760, 6544.000
445.1670, 6541.000
446.3560, 6466.000
447.5460, 6443.000
448.7360, 6625.000
449.9250, 6533.552
451.1150, 6587.000
452.3040, 6588.000
453.4930, 6576.000
454.6810, 6596.157
455.8700, 6615.000
457.0590, 6619.000
458.2470, 6630.000
459.4350, 6690.000
460.6230, 6843.000
461.8110, 6832.000
462.9980, 6889.000
464.1860, 6928.000
465.3730, 6923.000
466.5600, 6951.625
467.7470, 6902.000
468.9340, 6978.000
470.1210, 6958.000
471.3080, 7004.000
472.4940, 7125.000
473.6800, 7155.000
474.8660, 7225.000
476.0520, 7298.000
477.2380, 7337.940
478.4230, 7437.000
479.6090, 7447.000
480.7940, 7528.000
481.9790, 7602.000
483.1640, 7779.000
484.3490, 7822.000
485.5330, 7928.332
486.7180, 8141.000
487.9020, 8067.000
489.0860, 8238.000
490.2700, 8260.000
491.4540, 8161.000
492.6370, 8314.000
493.8210, 8324.000
495.0040, 8345.000
496.1870, 8493.000
497.3700, 8533.000
498.5530, 8397.000
499.7360, 8762.000
500.9180, 8612.000
502.1000, 9030.000
503.2830, 9131.285
504.4650, 9299.000
505.6460, 9551.000
506.8280, 9881.000
508.0100, 10268.00
509.1910, 10596.00
510.3720, 10975.00
511.5530, 11299.00
512.7340, 11892.00
513.9150, 12421.00
515.0950, 12962.00
516.2760, 13784.00
517.4560, 14553.00
518.6360, 15232.00
519.8160, 16091.00
520.9950, 16705.00
522.1750, 17796.00
523.3540, 18711.00
524.5340, 19423.00
525.7130, 20040.00
526.8920, 20769.00
528.0700, 21317.00
529.2490, 21624.00
530.4270, 21907.00
531.6060, 22009.00
532.7840, 22241.00
533.9620, 22267.00
535.1390, 21722.00
536.3170, 21743.00
537.4940, 21341.00
538.6720, 21373.00
539.8490, 21497.00
541.0260, 21349.00
542.2030, 21359.00
543.3790, 21621.00
544.5560, 21655.00
545.7320, 22167.00
546.9080, 22773.00
548.0840, 23020.00
549.2600, 23499.00
550.4360, 23912.00
551.6110, 24591.00
552.7860, 25026.00
553.9620, 25284.00
555.1370, 25441.00
556.3110, 25313.00
557.4860, 25126.00
558.6610, 24643.00
559.8350, 23940.00
561.0090, 23064.00
562.1830, 22027.00
563.3570, 20894.00
564.5310, 19799.00
565.7040, 18581.00
566.8780, 17577.00
568.0510, 16535.00
569.2240, 15779.00
570.3970, 15041.00
571.5700, 14378.00
572.7420, 13771.42
573.9150, 13221.81
575.0870, 12737.00
576.2590, 12294.00
577.4310, 11953.29
578.6030, 11611.00
579.7740, 11330.00
580.9460, 11064.18
582.1170, 10868.00
583.2880, 10623.00
584.4590, 10470.53
585.6300, 10203.00
586.8010, 10195.00
587.9710, 10048.00
589.1410, 9927.000
590.3110, 9857.630
591.4810, 9877.283
592.6510, 9886.229
593.8210, 9885.994
594.9900, 9796.061
596.1600, 9862.477
597.3290, 9890.978
598.4980, 9934.864
599.6670, 10073.78
600.8350, 10087.71
602.0040, 10260.71
603.1720, 10430.00
604.3400, 10655.00
605.5080, 11007.00
606.6760, 11254.00
607.8440, 11548.00
609.0120, 12116.00
610.1790, 12670.00
611.3460, 13336.00
612.5130, 14065.00
613.6800, 14681.00
614.8470, 15568.00
616.0130, 16457.00
617.1800, 17164.00
618.3460, 17956.00
619.5120, 18413.00
620.6780, 18823.00
621.8440, 19114.00
623.0090, 19281.00
624.1750, 19018.11
625.3400, 18640.00
626.5050, 18084.00
627.6700, 17426.00
628.8350, 16731.00
629.9990, 15890.00
631.1640, 15133.00
632.3280, 14520.51
633.4920, 13750.00
634.6560, 13124.85
635.8200, 12695.52
636.9840, 12260.36
638.1470, 11821.30
639.3100, 11297.39
640.4730, 10934.68
641.6360, 10538.96
642.7990, 10163.50
643.9620, 9887.956
645.1240, 9492.643
646.2870, 9426.000
647.4490, 9181.000
648.6110, 9053.000
649.7730, 8795.000
650.9340, 8710.000
652.0960, 8600.000
653.2570, 8544.000
654.4180, 8410.000
655.5790, 8273.000
656.7400, 8187.000
657.9010, 7968.000
659.0620, 8073.000
660.2220, 8054.000
661.3820, 7874.000
662.5420, 7710.000
663.7020, 7786.000
664.8620, 7662.000
666.0210, 7618.000
667.1810, 7610.000
668.3400, 7622.000
669.4990, 7550.000
670.6580, 7440.000
671.8170, 7427.000
672.9750, 7413.000
674.1340, 7352.000
675.2920, 7345.000
676.4500, 7286.000
677.6080, 7257.000
678.7660, 7284.000
679.9230, 7145.000
681.0810, 7289.000
682.2380, 7163.000
683.3950, 7263.000
684.5520, 7154.000
685.7090, 7185.000
686.8660, 7169.874
688.0220, 7110.313
689.1780, 7105.000
690.3340, 7060.000
691.4900, 7075.196
692.6460, 7018.000
693.8020, 7112.000
694.9570, 7116.000
696.1130, 7121.000
697.2680, 7025.000
698.4230, 7083.000
699.5780, 7014.000
700.7320, 7079.000
701.8870, 7093.000
703.0410, 7013.000
704.1950, 7036.000
705.3490, 6987.000
706.5030, 7117.000
707.6570, 7023.000
708.8110, 7138.000
709.9640, 7070.000
711.1170, 6901.000
712.2700, 6961.000
713.4230, 7075.000
714.5760, 7011.000
715.7280, 7097.000
716.8810, 7060.000
718.0330, 6997.000
719.1850, 7091.000
720.3370, 7082.000
721.4890, 7009.000
722.6400, 6992.000
723.7920, 7141.000
724.9430, 7049.000
726.0940, 7045.000
727.2450, 7117.000
728.3960, 7067.000
729.5460, 7039.000
730.6970, 6943.000
731.8470, 7043.000
732.9970, 6997.000
734.1470, 7094.000
735.2970, 7077.000
736.4460, 7015.917
737.5960, 7072.756
738.7450, 7101.200
739.8940, 7102.766
741.0430, 6996.954
742.1920, 7029.798
743.3410, 7007.075
744.4890, 7043.000
745.6370, 7051.000
746.7850, 7029.000
747.9330, 7010.000
749.0810, 7032.000
750.2290, 6957.000
751.3760, 6935.000
752.5240, 7190.000
753.6710, 7037.846
754.8180, 7097.000
755.9650, 6998.000
757.1110, 6899.000
758.2580, 6997.000
759.4040, 6890.000
760.5510, 6992.000
761.6970, 6916.000
762.8420, 6917.000
763.9880, 6998.000
765.1340, 6921.000
766.2790, 6899.000
767.4240, 6821.000
768.5690, 6910.000
769.7140, 6931.000
770.8590, 6956.000
772.0030, 6856.000
773.1480, 6891.265
774.2920, 6915.000
775.4360, 6796.000
776.5800, 6959.000
777.7240, 6757.611
778.8670, 6805.733
780.0110, 6900.000
781.1540, 6806.000
782.2970, 6837.000
783.4400, 6872.000
784.5830, 6952.000
785.7250, 6919.336
786.8680, 7017.000
788.0100, 6891.000
789.1520, 6836.000
790.2940, 6858.000
791.4360, 6827.470
792.5780, 6972.000
793.7190, 6798.000
794.8600, 6962.000
796.0010, 6790.000
797.1420, 6840.000
798.2830, 6933.000
799.4240, 6892.000
800.5640, 6869.000
801.7050, 6771.000
802.8450, 6790.282
803.9850, 6814.000
805.1250, 6810.000
806.2640, 6816.000
807.4040, 6856.000
808.5430, 6750.000
809.6820, 6787.000
810.8210, 6891.000
811.9600, 6723.000
813.0990, 6820.000
814.2370, 6845.000
815.3760, 6797.000
816.5140, 6757.000
817.6520, 6772.000
818.7900, 6747.919
819.9270, 6796.000
821.0650, 6747.000
822.2020, 6826.000
823.3390, 6826.060
824.4760, 6802.012
825.6130, 6895.000
826.7500, 6803.000
827.8870, 6746.000
829.0230, 6847.000
830.1590, 6754.000
831.2950, 6771.000
832.4310, 6733.000
833.5670, 6686.000
834.7030, 6839.000
835.8380, 6638.000
836.9730, 6765.000
838.1080, 6715.000
839.2430, 6716.000
840.3780, 6762.000
841.5130, 6786.000
842.6470, 6671.000
843.7810, 6665.000
844.9150, 6693.000
846.0490, 6728.000
847.1830, 6692.000
848.3170, 6775.000
849.4500, 6637.000
850.5830, 6764.000
851.7160, 6678.000
852.8490, 6735.000
853.9820, 6659.000
855.1150, 6680.000
856.2470, 6784.000
857.3800, 6786.000
858.5120, 6747.000
859.6440, 6744.000
860.7760, 6738.971
861.9070, 6737.833
863.0390, 6737.000
864.1700, 6767.000
865.3010, 6769.000
866.4320, 6801.000
867.5630, 6795.069
868.6940, 6795.000
869.8240, 6819.000
870.9540, 6810.000
872.0850, 6895.000
873.2150, 6825.000
874.3450, 6905.000
875.4740, 6857.278
876.6040, 6955.000
877.7330, 6750.000
878.8620, 6881.000
879.9910, 6788.000
881.1200, 6782.000
882.2490, 6932.000
883.3770, 6846.000
884.5060, 6723.000
885.6340, 6935.000
886.7620, 6836.000
887.8900, 6947.000
889.0180, 6906.000
890.1450, 6875.000
891.2730, 6873.000
892.4000, 6881.000
893.5270, 6921.000
894.6540, 7013.000
895.7810, 6986.967
896.9070, 6877.000
898.0340, 6968.000
899.1600, 6927.000
900.2860, 6893.000
901.4120, 6881.000
902.5380, 6896.000
903.6630, 6926.000
904.7890, 6868.000
905.9140, 6993.000
907.0390, 6901.000
908.1640, 6944.000
909.2890, 7002.000
910.4130, 6907.000
911.5380, 6922.000
912.6620, 6916.000
913.7860, 7062.000
914.9100, 6983.000
916.0340, 6911.000
917.1580, 7102.000
918.2810, 7056.000
919.4040, 7059.000
920.5280, 7095.472
921.6510, 7072.955
922.7730, 7045.000
923.8960, 7085.000
925.0180, 7016.000
926.1410, 7029.000
927.2630, 7046.000
928.3850, 7133.000
929.5070, 7048.000
930.6280, 7003.000
931.7500, 7064.000
932.8710, 6916.000
933.9920, 7070.000
935.1130, 7010.525
936.2340, 7079.221
937.3550, 7119.514
938.4760, 7132.930
939.5960, 7038.965
940.7160, 7083.656
941.8360, 7072.781
942.9560, 7135.000
944.0760, 7118.000
945.1950, 7111.000
946.3150, 7107.000
947.4340, 7199.000
948.5530, 7142.958
949.6720, 7186.000
950.7900, 7139.000
951.9090, 7109.000
953.0270, 7210.000
954.1460, 7245.000
955.2640, 7260.007
956.3820, 7264.654
957.4990, 7293.000
958.6170, 7209.000
959.7340, 7187.000
960.8520, 7163.000
961.9690, 7214.000
963.0860, 7186.000
964.2020, 7295.000
965.3190, 7144.000
966.4350, 7187.000
967.5520, 7313.000
968.6680, 7113.000
969.7840, 7263.000
970.8990, 7266.000
972.0150, 7319.000
973.1310, 7185.000
974.2460, 7231.609
975.3610, 7374.000
976.4760, 7197.000
977.5910, 7304.000
978.7050, 7251.000
979.8200, 7252.000
980.9340, 7152.000
982.0480, 7296.000
983.1620, 7331.000
984.2760, 7278.000
985.3900, 7282.000
986.5030, 7353.000
987.6160, 7383.000
988.7300, 7296.000
989.8430, 7375.000
990.9550, 7347.000
992.0680, 7233.000
993.1810, 7333.000
994.2930, 7280.000
995.4050, 7371.000
996.5170, 7363.000
997.6290, 7386.000
998.7410, 7389.991
999.8520, 7340.000
1000.964, 7329.000
1002.075, 7319.000
1003.186, 7227.000
1004.297, 7371.000
1005.407, 7388.000
1006.518, 7313.000
1007.628, 7217.000
1008.738, 7327.000
1009.848, 7222.000
1010.958, 7346.000
1012.068, 7411.000
1013.178, 7315.205
1014.287, 7253.000
1015.396, 7217.000
1016.505, 7212.000
1017.614, 7254.000
1018.723, 7175.662
1019.831, 7182.890
1020.940, 7075.000
1022.048, 7150.000
1023.156, 7152.000
1024.264, 7126.887
1025.372, 7201.967
1026.479, 7248.635
1027.587, 7268.435
1028.694, 7180.847
1029.801, 7231.917
1030.908, 7227.418
1032.015, 7220.642
1033.121, 7291.216
1034.228, 7219.248
1035.334, 7288.596
1036.440, 7301.529
1037.546, 7305.000
1038.652, 7228.000
1039.758, 7265.000
1040.863, 7338.000
1041.968, 7229.000
1043.074, 7251.000
1044.178, 7295.000
1045.283, 7312.000
1046.388, 7397.000
1047.492, 7307.000
1048.597, 7353.000
1049.701, 7305.000
1050.805, 7336.000
1051.909, 7341.000
1053.012, 7437.000
1054.116, 7502.000
1055.219, 7435.000
1056.322, 7371.000
1057.425, 7491.000
1058.528, 7510.000
1059.631, 7592.000
1060.733, 7489.000
1061.836, 7546.000
1062.938, 7466.000
1064.040, 7472.000
1065.142, 7547.000
1066.243, 7487.000
1067.345, 7551.000
1068.446, 7601.000
1069.547, 7584.000
1070.648, 7561.000
1071.749, 7652.000
1072.850, 7628.000
1073.951, 7614.000
1075.051, 7650.777
1076.151, 7630.122
1077.251, 7677.000
1078.351, 7638.000
1079.451, 7661.000
1080.550, 7681.000
1081.650, 7738.000
1082.749, 7743.723
1083.848, 7750.334
1084.947, 7782.000
1086.046, 7728.000
1087.144, 7752.000
1088.243, 7723.000
1089.341, 7699.772
1090.439, 7720.000
1091.537, 7675.000
1092.635, 7720.000
1093.732, 7758.000
1094.830, 7722.000
1095.927, 7785.000
1097.024, 7828.000
1098.121, 7749.000
1099.218, 7846.000
1100.314, 7787.000
1101.411, 7686.000
1102.507, 7763.351
1103.603, 7872.000
1104.699, 7820.000
1105.795, 7744.000
1106.890, 7769.000
1107.986, 7779.000
1109.081, 7830.000
1110.176, 7904.000
1111.271, 7751.000
1112.366, 7750.000
1113.461, 7780.000
1114.555, 7878.000
1115.649, 7805.000
1116.744, 7949.000
1117.838, 7839.000
1118.931, 7906.000
1120.025, 7885.000
1121.119, 7968.000
1122.212, 7825.000
1123.305, 7964.000
1124.398, 7870.000
1125.491, 7902.000
1126.584, 7794.000
1127.676, 7779.000
1128.768, 7909.000
1129.861, 7914.000
1130.953, 7929.000
1132.044, 7942.633
1133.136, 7930.965
1134.228, 7912.000
1135.319, 7929.000
1136.410, 7951.000
1137.501, 8001.000
1138.592, 7909.000
1139.683, 7962.892
1140.773, 8027.982
1141.864, 8064.669
1142.954, 8074.479
1144.044, 7976.910
1145.134, 8017.998
1146.224, 8003.519
1147.313, 7986.760
1148.402, 8047.363
1149.492, 7965.413
1150.581, 8024.789
1151.670, 8027.750
1152.758, 8041.000
1153.847, 8081.000
1154.935, 8064.151
1156.024, 8045.000
1157.112, 8058.000
1158.200, 8068.000
1159.287, 8081.000
1160.375, 8158.000
1161.462, 8128.766
1162.550, 8128.000
1163.637, 8130.000
1164.724, 8089.000
1165.810, 8132.000
1166.897, 8179.000
1167.983, 8209.000
1169.070, 8075.000
1170.156, 8191.000
1171.242, 8023.000
1172.327, 8126.000
1173.413, 8144.000
1174.499, 8150.000
1175.584, 8124.000
1176.669, 8202.000
1177.754, 8152.000
1178.839, 8123.000
1179.923, 8233.000
1181.008, 8140.000
1182.092, 8202.000
1183.176, 8264.000
1184.260, 8257.000
1185.344, 8106.000
1186.428, 8143.000
1187.511, 8210.000
1188.595, 8156.000
1189.678, 8201.000
1190.761, 8108.000
1191.843, 8207.000
1192.926, 8243.000
1194.009, 8137.000
1195.091, 8227.000
1196.173, 8176.000
1197.255, 8225.000
1198.337, 8186.000
1199.419, 8192.000
1200.500, 8171.000
1201.582, 8069.000
1202.663, 8137.000
1203.744, 8208.000
1204.825, 8147.000
1205.905, 8078.000
1206.986, 8232.000
1208.066, 8121.000
1209.146, 8071.000
1210.226, 8122.000
1211.306, 8070.000
1212.386, 8218.000
1213.466, 8078.000
1214.545, 8116.000
1215.624, 7998.000
1216.703, 8136.000
1217.782, 8126.000
1218.861, 8006.000
1219.939, 8092.000
1221.018, 7996.000
1222.096, 7990.717
1223.174, 8023.000
1224.252, 8001.000
1225.330, 7919.000
1226.407, 8007.000
1227.485, 8031.000
1228.562, 7940.000
1229.639, 8046.000
1230.716, 8082.000
1231.793, 8067.000
1232.869, 8125.368
1233.946, 8175.000
1235.022, 8134.000
1236.098, 8053.000
1237.174, 7986.000
1238.250, 8065.000
1239.325, 7929.000
1240.401, 8011.000
1241.476, 8003.000
1242.551, 8087.000
1243.626, 8057.000
1244.701, 8024.000
1245.776, 8097.000
1246.850, 8099.000
1247.924, 7965.000
1248.999, 8013.000
1250.073, 7919.000
1251.146, 8051.000
1252.220, 8020.000
1253.293, 7926.000
1254.367, 7949.000
1255.440, 8050.000
1256.513, 8011.000
1257.586, 7884.000
1258.658, 7956.000
1259.731, 7867.000
1260.803, 7889.000
1261.875, 7955.000
1262.947, 7974.000
1264.019, 7964.000
1265.091, 7880.000
1266.162, 7831.000
1267.234, 7878.000
1268.305, 7782.000
1269.376, 7860.000
1270.447, 7828.000
1271.517, 7795.000
1272.588, 7885.000
1273.658, 7835.430
1274.729, 7841.876
1275.799, 7762.000
1276.868, 7829.000
1277.938, 7669.000
1279.008, 7686.000
1280.077, 7685.000
1281.146, 7705.000
1282.215, 7701.603
1283.284, 7686.921
1284.353, 7705.000
1285.421, 7653.000
