##NAMES=Grunerite
##RRUFFID=R040150
##IDEAL CHEMISTRY=[box]Fe^2+^_2_Fe^2+^_5_Si_8_O_22_(OH)_2_
##LOCALITY=Smallwood mine, Heath Lake, Newfoundland, Canada
##OWNER=RRUFF
##SOURCE=University of Arizona Mineral Museum
##DESCRIPTION=Brown bladed crystals in parallel aggregate
##STATUS=The identification of this mineral has been confirmed by X-ray diffraction and chemical analysis
##URL=rruff.info/R040150
##MEASURED CHEMISTRY=(Fe_0.69_Mg_0.27_Ca_0.02_Mn_0.02_)_7_Si_8.02_O_22_((OH)_0.98_Cl_0.02_)_2_
##PIN_ID=M00276
##ORIENTATION=Laser parallel to (1 0 1). Fiducial mark perpendicular to laser is parallel to b [0 1 0]
73.31600, 6109.000
74.55700, 6353.000
75.79800, 6931.000
77.03900, 6978.000
78.27900, 6933.000
79.52000, 6900.000
80.76000, 7093.000
82.00000, 6968.000
83.24000, 6908.000
84.48000, 6383.000
85.72000, 6102.000
86.95900, 5849.000
88.19900, 5617.000
89.43800, 5559.000
90.67700, 5604.000
91.91600, 5779.000
93.15400, 5732.000
94.39300, 5853.000
95.63100, 6224.000
96.86900, 6522.000
98.10700, 6931.000
99.34500, 7425.000
100.5820, 7495.000
101.8200, 7274.000
103.0570, 7032.000
104.2940, 6643.000
105.5310, 6329.000
106.7680, 6045.000
108.0040, 5891.615
109.2410, 5791.000
110.4770, 5774.000
111.7130, 5872.000
112.9490, 5993.000
114.1850, 6133.000
115.4200, 6309.000
116.6560, 6229.000
117.8910, 6434.000
119.1260, 6550.000
120.3610, 6801.000
121.5960, 7235.000
122.8300, 7674.000
124.0640, 7954.000
125.2990, 7925.000
126.5330, 7787.000
127.7670, 7444.000
129.0000, 7359.000
130.2340, 7169.000
131.4670, 7364.000
132.7000, 7384.000
133.9330, 7655.000
135.1660, 7655.000
136.3990, 7529.000
137.6310, 7457.000
138.8640, 7185.000
140.0960, 6846.000
141.3280, 6769.000
142.5600, 6652.000
143.7910, 6620.000
145.0230, 6666.000
146.2540, 6949.000
147.4850, 7241.000
148.7160, 7575.000
149.9470, 8259.000
151.1780, 9165.000
152.4080, 10334.00
153.6380, 12143.00
154.8690, 14097.00
156.0980, 16141.00
157.3280, 17408.00
158.5580, 17785.00
159.7870, 17002.00
161.0170, 15680.00
162.2460, 13992.00
163.4750, 12401.00
164.7030, 11104.00
165.9320, 10315.00
167.1600, 9885.000
168.3890, 9716.000
169.6170, 9623.000
170.8450, 9924.000
172.0730, 10362.00
173.3000, 10936.00
174.5280, 11757.00
175.7550, 12944.00
176.9820, 14394.00
178.2090, 16019.00
179.4350, 18025.00
180.6620, 19978.00
181.8880, 22521.00
183.1150, 24344.00
184.3410, 25799.00
185.5670, 26440.00
186.7920, 26004.00
188.0180, 25147.00
189.2430, 23592.00
190.4690, 22041.00
191.6940, 20060.00
192.9180, 18274.00
194.1430, 16745.00
195.3680, 15566.00
196.5920, 14613.00
197.8160, 13625.00
199.0400, 13171.00
200.2640, 12763.00
201.4880, 12376.00
202.7110, 12076.00
203.9350, 11682.00
205.1580, 11508.00
206.3810, 11432.00
207.6040, 11038.00
208.8270, 11156.00
210.0490, 11076.00
211.2710, 10967.00
212.4940, 10921.00
213.7160, 10922.00
214.9370, 11008.00
216.1590, 10882.00
217.3810, 10826.00
218.6020, 10841.00
219.8230, 10733.00
221.0440, 10668.00
222.2650, 10572.00
223.4860, 10477.02
224.7060, 10375.00
225.9260, 10270.44
227.1470, 10136.12
228.3670, 9998.000
229.5860, 9818.000
230.8060, 9718.000
232.0260, 9540.000
233.2450, 9450.000
234.4640, 9332.762
235.6830, 9236.949
236.9020, 9127.000
238.1200, 9065.000
239.3390, 8966.000
240.5570, 8841.000
241.7750, 8828.000
242.9930, 8789.000
244.2110, 8618.000
245.4290, 8682.000
246.6460, 8380.000
247.8630, 8356.000
249.0810, 8436.000
250.2980, 8326.000
251.5140, 8204.000
252.7310, 8187.000
253.9470, 8183.000
255.1640, 8229.000
256.3800, 8099.000
257.5960, 8122.000
258.8120, 8076.000
260.0270, 7995.000
261.2430, 8023.000
262.4580, 7869.000
263.6730, 7824.000
264.8880, 7693.000
266.1030, 7797.000
267.3170, 7818.000
268.5320, 7836.000
269.7460, 7884.000
270.9600, 7880.000
272.1740, 7793.000
273.3880, 7813.000
274.6010, 7787.000
275.8150, 7786.000
277.0280, 7825.000
278.2410, 7929.000
279.4540, 7928.000
280.6670, 8026.000
281.8790, 8152.000
283.0920, 8190.000
284.3040, 8261.000
285.5160, 8325.000
286.7280, 8418.000
287.9400, 8523.000
289.1510, 8538.041
290.3630, 8688.000
291.5740, 8551.000
292.7850, 8622.000
293.9960, 8578.000
295.2070, 8756.000
296.4170, 8791.000
297.6280, 8664.000
298.8380, 8700.000
300.0480, 8588.000
301.2580, 8649.000
302.4680, 8665.000
303.6770, 8703.000
304.8870, 8629.000
306.0960, 8617.000
307.3050, 8642.000
308.5140, 8534.000
309.7230, 8581.000
310.9310, 8612.000
312.1400, 8731.000
313.3480, 8733.000
314.5560, 8810.000
315.7640, 8839.000
316.9720, 8751.000
318.1790, 8823.000
319.3870, 8809.000
320.5940, 8846.000
321.8010, 8734.000
323.0080, 8728.000
324.2150, 8569.000
325.4210, 8670.000
326.6280, 8559.000
327.8340, 8648.000
329.0400, 8740.000
330.2460, 8767.000
331.4510, 8893.000
332.6570, 8947.000
333.8620, 9129.000
335.0680, 9304.000
336.2730, 9470.000
337.4780, 9749.239
338.6820, 9995.344
339.8870, 10343.00
341.0910, 10616.00
342.2950, 10955.00
343.5000, 11334.00
344.7030, 11913.00
345.9070, 12457.00
347.1110, 12834.00
348.3140, 13103.00
349.5170, 13512.00
350.7200, 13738.00
351.9230, 13810.00
353.1260, 13552.00
354.3290, 13545.00
355.5310, 13182.00
356.7330, 13136.00
357.9350, 13130.00
359.1370, 12852.00
360.3390, 12651.00
361.5400, 12664.00
362.7420, 12781.00
363.9430, 12790.00
365.1440, 13164.00
366.3450, 13372.00
367.5460, 13574.00
368.7460, 13376.00
369.9470, 13041.00
371.1470, 12632.00
372.3470, 12030.00
373.5470, 11601.00
374.7460, 11118.00
375.9460, 10636.00
377.1450, 10204.00
378.3450, 9975.000
379.5440, 9729.000
380.7430, 9538.000
381.9410, 9543.000
383.1400, 9305.000
384.3380, 9191.000
385.5370, 9330.000
386.7350, 9301.000
387.9320, 9315.000
389.1300, 9457.000
390.3280, 9579.000
391.5250, 9596.000
392.7220, 9817.000
393.9190, 10016.00
395.1160, 10208.00
396.3130, 10479.17
397.5100, 10710.87
398.7060, 11018.00
399.9020, 11155.00
401.0980, 11409.00
402.2940, 11452.00
403.4900, 11617.00
404.6860, 11518.00
405.8810, 11538.00
407.0760, 11299.00
408.2710, 11342.00
409.4660, 11364.00
410.6610, 11134.00
411.8550, 11176.00
413.0500, 11080.00
414.2440, 11027.00
415.4380, 11091.00
416.6320, 10953.00
417.8260, 11121.00
419.0190, 11078.00
420.2130, 11243.00
421.4060, 11328.00
422.5990, 11456.00
423.7920, 11369.00
424.9850, 11317.00
426.1770, 11226.00
427.3700, 10815.00
428.5620, 10315.00
429.7540, 10172.00
430.9460, 9683.000
432.1380, 9366.000
433.3290, 9189.000
434.5210, 9097.000
435.7120, 8848.000
436.9030, 8852.000
438.0940, 8781.000
439.2850, 8773.000
440.4750, 8671.000
441.6660, 8642.000
442.8560, 8754.000
444.0460, 8600.000
445.2360, 8596.000
446.4260, 8677.000
447.6160, 8621.000
448.8050, 8638.000
449.9940, 8665.000
451.1830, 8619.000
452.3720, 8672.000
453.5610, 8724.000
454.7500, 8655.000
455.9380, 8746.000
457.1260, 8700.000
458.3150, 8691.000
459.5020, 8777.000
460.6900, 8684.000
461.8780, 8729.000
463.0650, 8834.000
464.2530, 8864.000
465.4400, 8740.000
466.6270, 8701.000
467.8130, 8801.000
469.0000, 8817.000
470.1870, 8802.000
471.3730, 8761.000
472.5590, 8874.000
473.7450, 8938.000
474.9310, 8930.000
476.1160, 9049.000
477.3020, 9039.000
478.4870, 9158.000
479.6720, 9199.000
480.8570, 9197.000
482.0420, 9185.000
483.2270, 9283.000
484.4110, 9264.507
485.5960, 9340.158
486.7800, 9315.000
487.9640, 9475.000
489.1480, 9543.000
490.3310, 9615.000
491.5150, 9771.000
492.6980, 9931.000
493.8810, 9876.000
495.0640, 9927.000
496.2470, 9976.000
497.4300, 10105.00
498.6120, 10090.00
499.7950, 10105.00
500.9770, 10156.00
502.1590, 10311.00
503.3410, 10419.00
504.5220, 10623.00
505.7040, 10664.00
506.8850, 10876.00
508.0660, 11107.00
509.2470, 11027.00
510.4280, 11210.00
511.6090, 11148.00
512.7890, 11183.00
513.9700, 11163.00
515.1500, 11286.00
516.3300, 11271.00
517.5100, 11414.00
518.6900, 11444.00
519.8690, 11648.00
521.0490, 11925.00
522.2280, 12367.00
523.4070, 12419.00
524.5860, 13119.00
525.7640, 13496.00
526.9430, 14021.00
528.1210, 14324.00
529.3000, 14609.00
530.4780, 14612.00
531.6560, 14750.00
532.8330, 14147.00
534.0110, 13625.00
535.1880, 13180.00
536.3650, 12698.93
537.5430, 12343.22
538.7190, 11919.00
539.8960, 11708.00
541.0730, 11466.00
542.2490, 11218.00
543.4250, 11058.00
544.6020, 11037.00
545.7780, 10802.00
546.9530, 10801.00
548.1290, 10739.00
549.3040, 10691.00
550.4800, 10598.00
551.6550, 10762.00
552.8300, 10653.00
554.0040, 10725.00
555.1790, 10540.00
556.3540, 10715.00
557.5280, 10852.00
558.7020, 10842.00
559.8760, 10770.00
561.0500, 10710.00
562.2230, 10885.00
563.3970, 10833.00
564.5700, 10882.00
565.7430, 10778.00
566.9160, 10626.00
568.0890, 10704.00
569.2620, 10693.00
570.4340, 10560.00
571.6070, 10499.00
572.7790, 10473.00
573.9510, 10531.00
575.1230, 10633.00
576.2940, 10484.00
577.4660, 10399.00
578.6370, 10558.00
579.8080, 10383.00
580.9790, 10225.00
582.1500, 10307.00
583.3210, 10265.00
584.4910, 10299.00
585.6620, 10283.00
586.8320, 10266.00
588.0020, 10334.00
589.1720, 10406.00
590.3410, 10271.00
591.5110, 10306.00
592.6800, 10529.00
593.8500, 10523.00
595.0190, 10363.00
596.1880, 10547.00
597.3560, 10460.22
598.5250, 10459.40
599.6930, 10524.00
600.8620, 10450.00
602.0300, 10619.00
603.1970, 10651.00
604.3650, 10797.00
605.5330, 10676.00
606.7000, 10818.00
607.8680, 10879.00
609.0350, 10896.00
610.2020, 10992.31
611.3680, 11042.87
612.5350, 11113.70
613.7010, 11151.14
614.8680, 11311.00
616.0340, 11307.00
617.2000, 11491.00
618.3660, 11576.00
619.5310, 11628.00
620.6970, 11791.00
621.8620, 11905.00
623.0270, 12070.00
624.1920, 12266.09
625.3570, 12490.06
626.5220, 12721.00
627.6860, 13020.00
628.8500, 13334.00
630.0140, 13625.00
631.1780, 14088.00
632.3420, 14417.00
633.5060, 14828.00
634.6700, 15193.08
635.8330, 15627.00
636.9960, 15904.00
638.1590, 16117.00
639.3220, 16461.00
640.4850, 16796.00
641.6470, 17143.00
642.8100, 17729.00
643.9720, 18364.00
645.1340, 19007.00
646.2960, 20066.00
647.4570, 21181.00
648.6190, 22667.00
649.7800, 24339.00
650.9420, 26379.00
652.1030, 29038.00
653.2640, 32055.00
654.4240, 35202.00
655.5850, 39015.00
656.7450, 43960.00
657.9060, 48366.00
659.0660, 53008.00
660.2260, 56455.00
661.3850, 58430.00
662.5450, 58293.00
663.7040, 55711.00
664.8640, 51484.00
666.0230, 45961.00
667.1820, 40573.00
668.3410, 35451.00
669.4990, 30785.00
670.6580, 27272.00
671.8160, 24333.00
672.9740, 22296.00
674.1320, 20521.00
675.2900, 19464.00
676.4480, 18216.00
677.6050, 17683.00
678.7630, 17093.00
679.9200, 16572.00
681.0770, 16161.00
682.2340, 15914.00
683.3900, 15772.00
684.5470, 15467.00
685.7030, 15540.00
686.8590, 15409.00
688.0150, 15423.00
689.1710, 15383.00
690.3270, 15340.00
691.4830, 15277.00
692.6380, 15117.09
693.7930, 15015.00
694.9480, 14704.00
696.1030, 14651.00
697.2580, 14355.00
698.4130, 14078.00
699.5670, 13940.00
700.7210, 13733.00
701.8750, 13709.00
703.0290, 13400.00
704.1830, 13162.00
705.3370, 13147.00
706.4900, 13134.00
707.6430, 12874.00
708.7970, 12862.00
709.9490, 12857.00
711.1020, 12834.00
712.2550, 12736.00
713.4070, 12681.00
714.5600, 12571.00
715.7120, 12736.00
716.8640, 12641.00
718.0160, 12674.00
719.1670, 12561.00
720.3190, 12481.00
721.4700, 12515.00
722.6210, 12515.00
723.7720, 12507.00
724.9230, 12569.00
726.0740, 12553.00
727.2250, 12487.00
728.3750, 12519.00
729.5250, 12510.00
730.6750, 12380.00
731.8250, 12520.00
732.9750, 12543.00
734.1240, 12408.00
735.2740, 12564.00
736.4230, 12539.00
737.5720, 12554.00
738.7210, 12593.00
739.8700, 12709.00
741.0190, 12679.00
742.1670, 12749.36
743.3150, 12802.00
744.4630, 12807.00
745.6110, 12771.00
746.7590, 12762.00
747.9070, 12687.00
749.0540, 12776.00
750.2020, 12755.00
751.3490, 12679.00
752.4960, 12738.00
753.6430, 12663.00
754.7890, 12841.00
755.9360, 12907.00
757.0820, 12871.00
758.2280, 12956.00
759.3740, 13087.00
760.5200, 13196.00
761.6660, 13112.00
762.8120, 13143.00
763.9570, 13319.00
765.1020, 13220.00
766.2470, 13103.00
767.3920, 13161.00
768.5370, 13107.00
769.6810, 13095.00
770.8260, 13027.00
771.9700, 12905.00
773.1140, 12922.00
774.2580, 13000.00
775.4020, 13093.00
776.5460, 13012.00
777.6890, 13181.00
778.8320, 13147.00
779.9750, 13196.00
781.1180, 13064.00
782.2610, 13156.00
783.4040, 13232.00
784.5460, 13057.00
785.6890, 13157.00
786.8310, 13138.00
787.9730, 13078.00
789.1150, 13030.00
790.2560, 13201.00
791.3980, 12946.00
792.5390, 13126.00
793.6810, 13201.00
794.8220, 12986.00
795.9630, 13076.00
797.1030, 13083.00
798.2440, 13117.00
799.3840, 13123.00
800.5240, 13094.31
801.6650, 13234.00
802.8040, 13032.00
803.9440, 13029.00
805.0840, 13030.00
806.2230, 13140.00
807.3630, 13136.00
808.5020, 12955.00
809.6410, 12990.00
810.7790, 13121.00
811.9180, 13135.00
813.0570, 13253.00
814.1950, 13364.00
815.3330, 13327.00
816.4710, 13463.00
817.6090, 13254.00
818.7470, 13401.00
819.8840, 13400.00
821.0220, 13409.00
822.1590, 13503.00
823.2960, 13372.00
824.4330, 13442.00
825.5690, 13478.00
826.7060, 13642.00
827.8420, 13497.00
828.9790, 13337.00
830.1150, 13510.00
831.2510, 13463.00
832.3860, 13626.00
833.5220, 13687.00
834.6570, 13608.00
835.7930, 13702.00
836.9280, 13594.00
838.0630, 13662.00
839.1980, 13691.00
840.3320, 13725.00
841.4670, 13723.00
842.6010, 13643.00
843.7350, 13743.00
844.8690, 13686.00
846.0030, 13730.00
847.1370, 13767.00
848.2700, 13766.43
849.4040, 13814.00
850.5370, 13815.00
851.6700, 13783.00
852.8030, 13800.00
853.9360, 13842.00
855.0680, 13950.00
856.2000, 13972.00
857.3330, 14021.00
858.4650, 13980.00
859.5970, 14084.00
860.7290, 14203.00
861.8600, 14079.00
862.9920, 14194.00
864.1230, 14142.00
865.2540, 14116.00
866.3850, 14203.00
867.5160, 14297.00
868.6460, 14212.00
869.7770, 14251.00
870.9070, 14390.00
872.0370, 14403.00
873.1670, 14368.00
874.2970, 14356.00
875.4270, 14472.00
876.5570, 14452.00
877.6860, 14605.00
878.8150, 14632.00
879.9440, 14579.00
881.0730, 14640.00
882.2020, 14530.00
883.3300, 14544.00
884.4590, 14548.00
885.5870, 14580.82
886.7150, 14623.67
887.8430, 14724.00
888.9710, 14782.00
890.0990, 14847.00
891.2260, 15030.00
892.3530, 15091.00
893.4810, 15140.00
894.6080, 15172.00
895.7340, 15362.00
896.8610, 15481.00
897.9880, 15474.00
899.1140, 15647.17
900.2400, 15611.00
901.3660, 15836.00
902.4920, 16019.00
903.6180, 16054.00
904.7430, 16354.00
905.8690, 16295.00
906.9940, 16282.00
908.1190, 16425.00
909.2440, 16692.00
910.3690, 16531.04
911.4930, 16529.28
912.6180, 16433.00
913.7420, 16190.00
914.8660, 16354.00
915.9900, 16139.00
917.1140, 16046.00
918.2380, 15975.00
919.3610, 15971.00
920.4850, 15991.00
921.6080, 15879.00
922.7310, 15764.00
923.8540, 15814.00
924.9760, 15633.00
926.0990, 15687.00
927.2210, 15680.00
928.3440, 15688.00
929.4660, 15616.00
930.5880, 15592.00
931.7090, 15591.00
932.8310, 15609.00
933.9520, 15559.00
935.0740, 15569.00
936.1950, 15565.00
937.3160, 15531.07
938.4360, 15659.00
939.5570, 15551.00
940.6780, 15725.00
941.7980, 15900.00
942.9180, 15802.00
944.0380, 15891.00
945.1580, 15834.00
946.2780, 15923.00
947.3970, 16098.00
948.5170, 16071.00
949.6360, 16073.00
950.7550, 16423.00
951.8740, 16352.00
952.9930, 16744.00
954.1110, 16874.00
955.2300, 17023.00
956.3480, 17327.00
957.4660, 17427.00
958.5840, 17700.00
959.7020, 18161.00
960.8190, 18150.00
961.9370, 18811.00
963.0540, 18999.00
964.1710, 19693.00
965.2880, 19771.00
966.4050, 20189.00
967.5220, 20247.00
968.6380, 20305.00
969.7550, 20393.00
970.8710, 20260.00
971.9870, 20144.00
973.1030, 19872.00
974.2190, 19561.00
975.3340, 19475.00
976.4500, 19160.00
977.5650, 19018.00
978.6800, 18841.00
979.7950, 18344.00
980.9100, 18033.00
982.0250, 18063.00
983.1390, 17860.00
984.2530, 17778.00
985.3680, 17655.00
986.4820, 17765.00
987.5950, 17621.00
988.7090, 17906.00
989.8230, 17899.00
990.9360, 17849.00
992.0490, 18232.00
993.1620, 18296.00
994.2750, 18451.00
995.3880, 18849.00
996.5010, 18802.00
997.6130, 19291.00
998.7250, 19339.00
999.8370, 19557.00
1000.949, 19872.00
1002.061, 19774.00
1003.173, 20013.00
1004.284, 19939.00
1005.396, 19946.00
1006.507, 20177.00
1007.618, 20208.00
1008.729, 20426.00
1009.839, 21044.00
1010.950, 21556.00
1012.060, 22130.00
1013.171, 22721.00
1014.281, 23383.00
1015.391, 24402.00
1016.500, 25700.00
1017.610, 26631.00
1018.719, 27742.00
1019.829, 28665.00
1020.938, 29565.00
1022.047, 30594.00
1023.156, 30829.00
1024.264, 30924.00
1025.373, 30714.00
1026.481, 29945.00
1027.589, 29146.00
1028.697, 28344.00
1029.805, 27078.00
1030.913, 26066.00
1032.020, 24829.00
1033.128, 23980.00
1034.235, 22905.00
1035.342, 22146.00
1036.449, 21324.00
1037.556, 20684.53
1038.663, 20018.00
1039.769, 19633.00
1040.875, 19232.00
1041.981, 18789.00
1043.087, 18496.87
1044.193, 18320.00
1045.299, 17907.00
1046.404, 17828.00
1047.510, 17570.00
1048.615, 17625.00
1049.720, 17232.00
1050.825, 17095.00
1051.930, 16918.00
1053.034, 16934.00
1054.139, 16678.00
1055.243, 16553.00
1056.347, 16316.00
1057.451, 16322.00
1058.555, 16303.00
1059.658, 16292.00
1060.762, 16119.00
1061.865, 16245.00
1062.968, 15986.00
1064.071, 16080.00
1065.174, 15793.00
1066.277, 15765.00
1067.380, 15879.00
1068.482, 15694.00
1069.584, 15895.00
1070.686, 15715.00
1071.788, 15756.00
1072.890, 15752.00
1073.992, 15735.00
1075.093, 15751.00
1076.194, 15661.00
1077.295, 15656.00
1078.396, 15675.00
1079.497, 15721.00
1080.598, 15544.00
1081.698, 15680.00
1082.799, 15584.00
1083.899, 15517.00
1084.999, 15622.00
1086.099, 15750.00
1087.199, 15727.00
1088.298, 15719.00
1089.398, 15799.00
1090.497, 15975.00
1091.596, 16009.00
1092.695, 16066.00
1093.794, 16239.00
1094.892, 16187.00
1095.991, 16502.00
1097.089, 16222.00
1098.187, 16505.00
1099.285, 16148.00
1100.383, 16381.00
1101.481, 16127.00
1102.579, 15740.00
1103.676, 15657.00
1104.773, 15487.00
1105.870, 15408.00
1106.967, 15171.00
1108.064, 15239.00
1109.161, 15136.00
1110.257, 14996.00
1111.353, 14984.00
1112.449, 14985.00
1113.545, 15012.00
1114.641, 14825.00
1115.737, 14849.00
1116.832, 14873.00
1117.928, 14757.00
1119.023, 14774.00
1120.118, 14701.00
1121.213, 14737.00
1122.308, 14634.00
1123.402, 14806.00
1124.497, 14628.00
1125.591, 14790.00
1126.685, 14674.00
1127.779, 14592.00
1128.873, 14535.00
1129.967, 14526.05
1131.060, 14427.00
1132.153, 14575.00
1133.247, 14610.00
1134.340, 14651.00
1135.433, 14557.00
1136.525, 14494.00
1137.618, 14529.00
1138.710, 14418.00
1139.802, 14456.00
1140.895, 14524.00
1141.987, 14448.00
1143.078, 14555.00
1144.170, 14527.00
1145.261, 14572.00
1146.353, 14391.00
1147.444, 14349.00
1148.535, 14409.00
1149.626, 14187.00
1150.716, 14430.00
1151.807, 14199.00
1152.897, 14331.00
1153.988, 14363.00
1155.078, 14332.00
1156.168, 14366.00
1157.257, 14357.29
1158.347, 14408.00
1159.436, 14334.00
1160.526, 14336.00
1161.615, 14287.00
1162.704, 14266.00
1163.793, 14219.00
1164.881, 14292.00
1165.970, 14291.00
1167.058, 14207.00
1168.147, 14164.00
1169.235, 14284.00
1170.323, 14116.00
1171.410, 14331.00
1172.498, 14233.00
1173.585, 14264.00
1174.673, 14204.00
1175.760, 14198.75
1176.847, 14199.00
1177.934, 14230.00
1179.020, 14304.00
1180.107, 14395.00
1181.193, 13961.00
1182.279, 14064.00
1183.365, 14101.00
1184.451, 14202.00
1185.537, 14162.00
1186.623, 14171.29
1187.708, 14087.00
1188.793, 14069.00
1189.878, 14050.00
1190.963, 13923.00
1192.048, 14222.00
1193.133, 14162.00
1194.217, 14176.00
1195.302, 13921.00
1196.386, 14052.00
1197.470, 14081.00
1198.554, 13964.00
1199.638, 13931.00
1200.721, 14200.00
1201.805, 14054.00
1202.888, 14062.00
1203.971, 13962.00
1205.054, 14078.00
1206.137, 14029.13
1207.219, 14095.00
1208.302, 14051.00
1209.384, 13944.00
1210.466, 13986.00
1211.548, 13879.00
1212.630, 13894.94
1213.712, 13930.00
1214.794, 13948.00
1215.875, 13950.00
1216.956, 14059.00
1218.037, 13892.00
1219.118, 14010.00
1220.199, 13895.00
1221.280, 14050.00
1222.360, 14099.00
1223.441, 13920.00
1224.521, 14104.00
1225.601, 14046.73
1226.681, 14081.00
1227.760, 14039.00
1228.840, 14043.00
1229.919, 13951.00
1230.999, 13870.00
1232.078, 14003.00
1233.157, 13902.00
1234.236, 13906.00
1235.314, 14094.00
1236.393, 13915.00
1237.471, 14013.00
1238.549, 13879.00
1239.627, 13936.00
1240.705, 13902.00
1241.783, 13888.00
1242.860, 14057.00
1243.938, 13714.00
1245.015, 13900.00
1246.092, 14008.00
1247.169, 13823.00
1248.246, 13734.00
1249.323, 13819.00
1250.399, 13965.00
1251.475, 14003.00
1252.552, 13952.00
