##NAMES=Grunerite
##RRUFFID=R040150
##IDEAL CHEMISTRY=[box]Fe^2+^_2_Fe^2+^_5_Si_8_O_22_(OH)_2_
##LOCALITY=Smallwood mine, Heath Lake, Newfoundland, Canada
##OWNER=RRUFF
##SOURCE=University of Arizona Mineral Museum
##DESCRIPTION=Brown bladed crystals in parallel aggregate
##STATUS=The identification of this mineral has been confirmed by X-ray diffraction and chemical analysis
##URL=rruff.info/R040150
##MEASURED CHEMISTRY=(Fe_0.69_Mg_0.27_Ca_0.02_Mn_0.02_)_7_Si_8.02_O_22_((OH)_0.98_Cl_0.02_)_2_
##PIN_ID=M00276
##ORIENTATION=Laser parallel to (1 0 1). Fiducial mark perpendicular to laser is parallel to b [0 1 0]
67.10700, 3571.000
68.34900, 3796.000
69.59100, 3871.000
70.83300, 3912.000
72.07400, 4226.284
73.31600, 4463.293
74.55700, 4683.000
75.79800, 4938.313
77.03900, 5135.000
78.27900, 5343.000
79.52000, 5482.000
80.76000, 5578.000
82.00000, 5313.000
83.24000, 5086.000
84.48000, 4704.000
85.72000, 4279.000
86.95900, 4116.000
88.19900, 3895.000
89.43800, 3811.000
90.67700, 3898.000
91.91600, 4087.000
93.15400, 4233.000
94.39300, 4462.000
95.63100, 4946.000
96.86900, 5525.000
98.10700, 6442.000
99.34500, 7166.000
100.5820, 7379.000
101.8200, 7148.000
103.0570, 6449.000
104.2940, 5660.000
105.5310, 5088.000
106.7680, 4723.000
108.0040, 4429.000
109.2410, 4176.000
110.4770, 4027.000
111.7130, 4137.000
112.9490, 4381.000
114.1850, 4509.000
115.4200, 4490.000
116.6560, 4673.000
117.8910, 4907.000
119.1260, 5084.000
120.3610, 5469.000
121.5960, 6010.000
122.8300, 6602.000
124.0640, 6942.000
125.2990, 7034.000
126.5330, 6986.000
127.7670, 6588.000
129.0000, 6432.000
130.2340, 6353.000
131.4670, 6409.000
132.7000, 6583.000
133.9330, 6805.000
135.1660, 6885.000
136.3990, 6903.000
137.6310, 6526.000
138.8640, 6192.000
140.0960, 5738.000
141.3280, 5474.000
142.5600, 5201.000
143.7910, 5235.000
145.0230, 5255.000
146.2540, 5714.000
147.4850, 6134.000
148.7160, 6669.000
149.9470, 7681.000
151.1780, 9182.000
152.4080, 11067.00
153.6380, 13785.00
154.8690, 16877.00
156.0980, 19657.00
157.3280, 21767.00
158.5580, 22415.00
159.7870, 21347.00
161.0170, 19159.00
162.2460, 16438.00
163.4750, 13947.00
164.7030, 12063.00
165.9320, 10749.00
167.1600, 10074.00
168.3890, 9606.000
169.6170, 9595.000
170.8450, 9908.000
172.0730, 10628.00
173.3000, 11554.00
174.5280, 12666.00
175.7550, 14339.00
176.9820, 16551.00
178.2090, 19079.00
179.4350, 21847.00
180.6620, 24899.00
181.8880, 28234.00
183.1150, 30671.00
184.3410, 32485.00
185.5670, 33269.00
186.7920, 32775.00
188.0180, 31020.00
189.2430, 28753.00
190.4690, 26018.00
191.6940, 23280.00
192.9180, 20719.00
194.1430, 18318.00
195.3680, 16748.00
196.5920, 15188.00
197.8160, 13817.00
199.0400, 12909.00
200.2640, 12089.00
201.4880, 11492.00
202.7110, 10925.00
203.9350, 10557.00
205.1580, 10145.00
206.3810, 10140.00
207.6040, 9775.000
208.8270, 9617.000
210.0490, 9372.000
211.2710, 9301.000
212.4940, 9160.000
213.7160, 8957.000
214.9370, 8949.000
216.1590, 8927.000
217.3810, 8751.000
218.6020, 8791.000
219.8230, 8946.000
221.0440, 8861.000
222.2650, 8800.000
223.4860, 8719.000
224.7060, 8656.457
225.9260, 8704.000
227.1470, 8527.000
228.3670, 8534.000
229.5860, 8464.000
230.8060, 8245.000
232.0260, 8098.000
233.2450, 8029.000
234.4640, 7900.000
235.6830, 7941.000
236.9020, 7895.000
238.1200, 7694.000
239.3390, 7517.000
240.5570, 7418.000
241.7750, 7263.000
242.9930, 7162.000
244.2110, 7074.000
245.4290, 6965.587
246.6460, 6933.000
247.8630, 6831.000
249.0810, 6743.000
250.2980, 6758.000
251.5140, 6561.000
252.7310, 6439.000
253.9470, 6265.000
255.1640, 6265.000
256.3800, 6186.000
257.5960, 6026.000
258.8120, 6098.000
260.0270, 5971.000
261.2430, 5820.000
262.4580, 5834.000
263.6730, 5764.000
264.8880, 5574.000
266.1030, 5685.000
267.3170, 5592.000
268.5320, 5648.000
269.7460, 5605.000
270.9600, 5544.554
272.1740, 5479.000
273.3880, 5406.000
274.6010, 5377.000
275.8150, 5280.000
277.0280, 5400.000
278.2410, 5307.000
279.4540, 5462.000
280.6670, 5533.000
281.8790, 5554.000
283.0920, 5675.000
284.3040, 5652.000
285.5160, 5695.053
286.7280, 5650.000
287.9400, 5730.000
289.1510, 5724.000
290.3630, 5758.000
291.5740, 5684.000
292.7850, 5678.000
293.9960, 5726.000
295.2070, 5682.000
296.4170, 5566.000
297.6280, 5517.000
298.8380, 5568.000
300.0480, 5575.000
301.2580, 5528.000
302.4680, 5659.000
303.6770, 5639.000
304.8870, 5635.000
306.0960, 5609.000
307.3050, 5553.000
308.5140, 5598.000
309.7230, 5559.000
310.9310, 5595.000
312.1400, 5591.934
313.3480, 5645.000
314.5560, 5611.000
315.7640, 5576.000
316.9720, 5618.000
318.1790, 5642.000
319.3870, 5544.000
320.5940, 5493.000
321.8010, 5432.000
323.0080, 5378.000
324.2150, 5346.000
325.4210, 5388.000
326.6280, 5512.000
327.8340, 5603.000
329.0400, 5600.000
330.2460, 5697.000
331.4510, 5949.000
332.6570, 5974.000
333.8620, 6392.000
335.0680, 6369.000
336.2730, 6665.000
337.4780, 6836.000
338.6820, 7179.000
339.8870, 7525.000
341.0910, 7908.000
342.2950, 8336.000
343.5000, 8818.000
344.7030, 9535.000
345.9070, 10016.00
347.1110, 10604.00
348.3140, 11132.00
349.5170, 11529.00
350.7200, 11832.58
351.9230, 12025.33
353.1260, 12143.00
354.3290, 12105.00
355.5310, 12019.00
356.7330, 11835.00
357.9350, 11593.00
359.1370, 11309.00
360.3390, 11303.00
361.5400, 10999.00
362.7420, 11158.00
363.9430, 11210.00
365.1440, 11493.00
366.3450, 11405.00
367.5460, 11563.00
368.7460, 11378.00
369.9470, 10980.00
371.1470, 10411.00
372.3470, 9733.000
373.5470, 9127.000
374.7460, 8516.000
375.9460, 7959.000
377.1450, 7637.000
378.3450, 7308.000
379.5440, 7012.000
380.7430, 6894.000
381.9410, 6704.000
383.1400, 6570.000
384.3380, 6602.000
385.5370, 6547.000
386.7350, 6660.000
387.9320, 6793.000
389.1300, 6735.000
390.3280, 6939.000
391.5250, 7253.000
392.7220, 7609.000
393.9190, 7911.000
395.1160, 8240.000
396.3130, 8699.000
397.5100, 9093.000
398.7060, 9324.000
399.9020, 9685.000
401.0980, 9844.000
402.2940, 10058.00
403.4900, 10213.00
404.6860, 10141.00
405.8810, 10131.13
407.0760, 9938.000
408.2710, 9830.000
409.4660, 9741.000
410.6610, 9525.000
411.8550, 9470.000
413.0500, 9428.000
414.2440, 9327.000
415.4380, 9173.000
416.6320, 9268.000
417.8260, 9232.000
419.0190, 9332.000
420.2130, 9362.000
421.4060, 9591.000
422.5990, 9715.000
423.7920, 9611.000
424.9850, 9344.000
426.1770, 8911.000
427.3700, 8207.000
428.5620, 7599.000
429.7540, 6993.000
430.9460, 6510.000
432.1380, 6045.000
433.3290, 5755.538
434.5210, 5554.000
435.7120, 5379.000
436.9030, 5386.000
438.0940, 5341.000
439.2850, 5161.000
440.4750, 5128.000
441.6660, 5047.000
442.8560, 5051.000
444.0460, 4968.991
445.2360, 4959.000
446.4260, 4886.000
447.6160, 4898.000
448.8050, 4881.727
449.9940, 4874.000
451.1830, 4883.000
452.3720, 4878.000
453.5610, 4875.000
454.7500, 4897.000
455.9380, 4882.000
457.1260, 4909.000
458.3150, 4823.000
459.5020, 4953.000
460.6900, 4817.000
461.8780, 4995.000
463.0650, 4922.000
464.2530, 4972.000
465.4400, 4899.000
466.6270, 4914.000
467.8130, 4881.000
469.0000, 4888.000
470.1870, 4947.000
471.3730, 4926.000
472.5590, 5053.000
473.7450, 5043.000
474.9310, 5014.000
476.1160, 5031.000
477.3020, 5164.000
478.4870, 5202.000
479.6720, 5258.000
480.8570, 5222.000
482.0420, 5327.000
483.2270, 5326.000
484.4110, 5322.000
485.5960, 5360.000
486.7800, 5418.000
487.9640, 5512.000
489.1480, 5473.000
490.3310, 5706.000
491.5150, 5530.000
492.6980, 5693.000
493.8810, 5681.000
495.0640, 5882.000
496.2470, 5881.000
497.4300, 6016.000
498.6120, 6193.000
499.7950, 6319.000
500.9770, 6365.000
502.1590, 6595.000
503.3410, 6782.000
504.5220, 7065.000
505.7040, 7451.000
506.8850, 7629.000
508.0660, 7807.000
509.2470, 7927.000
510.4280, 7972.000
511.6090, 7906.000
512.7890, 7874.000
513.9700, 7899.000
515.1500, 7852.000
516.3300, 7837.000
517.5100, 7907.000
518.6900, 8229.000
519.8690, 8359.000
521.0490, 8652.000
522.2280, 9328.000
523.4070, 9792.847
524.5860, 10468.00
525.7640, 11072.00
526.9430, 11766.00
528.1210, 12222.00
529.3000, 12590.00
530.4780, 12581.00
531.6560, 12472.00
532.8330, 11932.00
534.0110, 11151.00
535.1880, 10373.00
536.3650, 9679.000
537.5430, 9060.000
538.7190, 8438.000
539.8960, 7977.000
541.0730, 7516.000
542.2490, 7350.000
543.4250, 7178.000
544.6020, 6890.000
545.7780, 6718.000
546.9530, 6636.000
548.1290, 6400.000
549.3040, 6399.000
550.4800, 6332.000
551.6550, 6230.000
552.8300, 6178.000
554.0040, 6243.000
555.1790, 6263.000
556.3540, 6270.238
557.5280, 6303.571
558.7020, 6313.000
559.8760, 6317.000
561.0500, 6333.000
562.2230, 6303.000
563.3970, 6189.000
564.5700, 6161.000
565.7430, 6171.000
566.9160, 6087.000
568.0890, 6080.000
569.2620, 5995.000
570.4340, 5837.000
571.6070, 5769.000
572.7790, 5781.000
573.9510, 5683.000
575.1230, 5660.000
576.2940, 5724.000
577.4660, 5515.000
578.6370, 5723.000
579.8080, 5648.000
580.9790, 5509.000
582.1500, 5568.000
583.3210, 5633.000
584.4910, 5572.000
585.6620, 5514.000
586.8320, 5599.000
588.0020, 5600.000
589.1720, 5567.000
590.3410, 5642.000
591.5110, 5635.000
592.6800, 5696.000
593.8500, 5690.754
595.0190, 5617.000
596.1880, 5677.000
597.3560, 5688.000
598.5250, 5684.000
599.6930, 5753.000
600.8620, 5674.000
602.0300, 5736.000
603.1970, 5753.000
604.3650, 5813.000
605.5330, 5862.000
606.7000, 5937.000
607.8680, 5955.000
609.0350, 6086.000
610.2020, 6096.000
611.3680, 6273.000
612.5350, 6252.000
613.7010, 6293.000
614.8680, 6436.000
616.0340, 6522.000
617.2000, 6586.000
618.3660, 6781.000
619.5310, 6861.000
620.6970, 7083.000
621.8620, 7360.000
623.0270, 7520.000
624.1920, 7647.000
625.3570, 8136.000
626.5220, 8311.000
627.6860, 8725.000
628.8500, 9107.000
630.0140, 9612.000
631.1780, 10003.00
632.3420, 10428.77
633.5060, 10964.00
634.6700, 11247.00
635.8330, 11747.00
636.9960, 12140.00
638.1590, 12337.00
639.3220, 12420.00
640.4850, 12942.00
641.6470, 13151.00
642.8100, 13488.00
643.9720, 14166.00
645.1340, 15111.00
646.2960, 15957.00
647.4570, 17290.00
648.6190, 18906.00
649.7800, 20866.00
650.9420, 23400.00
652.1030, 26342.00
653.2640, 29918.00
654.4240, 34051.00
655.5850, 39289.00
656.7450, 44820.00
657.9060, 50559.00
659.0660, 56751.00
660.2260, 60512.00
661.3850, 62677.00
662.5450, 62613.00
663.7040, 59955.00
664.8640, 54758.00
666.0230, 47837.00
667.1820, 41322.00
668.3410, 34903.00
669.4990, 29799.00
670.6580, 25342.00
671.8160, 21954.00
672.9740, 19282.00
674.1320, 17194.00
675.2900, 16034.00
676.4480, 14596.00
677.6050, 13732.00
678.7630, 12965.00
679.9200, 12456.00
681.0770, 12296.00
682.2340, 11826.00
683.3900, 11792.00
684.5470, 11502.00
685.7030, 11517.00
686.8590, 11518.00
688.0150, 11598.00
689.1710, 11518.00
690.3270, 11373.00
691.4830, 11193.00
692.6380, 11096.00
693.7930, 10952.00
694.9480, 10769.00
696.1030, 10284.00
697.2580, 9997.000
698.4130, 9712.000
699.5670, 9442.000
700.7210, 9136.095
701.8750, 8655.000
703.0290, 8534.000
704.1830, 8262.000
705.3370, 7969.000
706.4900, 7926.000
707.6430, 7728.000
708.7970, 7633.000
709.9490, 7581.000
711.1020, 7504.000
712.2550, 7408.000
713.4070, 7326.000
714.5600, 7261.000
715.7120, 7126.000
716.8640, 7131.000
718.0160, 7183.000
719.1670, 6897.000
720.3190, 6924.000
721.4700, 6859.000
722.6210, 6985.000
723.7720, 6804.000
724.9230, 6942.000
726.0740, 6839.000
727.2250, 6894.000
728.3750, 6832.000
729.5250, 6722.000
730.6750, 6739.000
731.8250, 6727.000
732.9750, 6621.000
734.1240, 6649.000
735.2740, 6731.000
736.4230, 6805.000
737.5720, 6624.000
738.7210, 6773.000
739.8700, 6795.000
741.0190, 6860.000
742.1670, 6930.000
743.3150, 7007.000
744.4630, 6942.000
745.6110, 7041.000
746.7590, 6761.000
747.9070, 6951.000
749.0540, 6739.000
750.2020, 6784.000
751.3490, 6782.000
752.4960, 6751.000
753.6430, 6759.277
754.7890, 6749.816
755.9360, 6736.000
757.0820, 6772.000
758.2280, 6787.000
759.3740, 6855.000
760.5200, 6838.000
761.6660, 6850.000
762.8120, 6868.000
763.9570, 6873.000
765.1020, 6844.061
766.2470, 6848.000
767.3920, 6775.000
768.5370, 6716.000
769.6810, 6693.189
770.8260, 6732.000
771.9700, 6686.000
773.1140, 6727.000
774.2580, 6669.000
775.4020, 6713.630
776.5460, 6863.000
777.6890, 6799.000
778.8320, 6883.000
779.9750, 6952.000
781.1180, 6904.000
782.2610, 6827.000
783.4040, 6800.000
784.5460, 6895.000
785.6890, 6940.000
786.8310, 6865.000
787.9730, 6760.000
789.1150, 6804.000
790.2560, 6788.000
791.3980, 6827.000
792.5390, 6787.000
793.6810, 6713.000
794.8220, 6726.000
795.9630, 6672.000
797.1030, 6691.000
798.2440, 6631.000
799.3840, 6662.000
800.5240, 6634.000
801.6650, 6735.000
802.8040, 6684.000
803.9440, 6715.000
805.0840, 6799.000
806.2230, 6780.000
807.3630, 6754.000
808.5020, 6738.000
809.6410, 6804.000
810.7790, 6717.000
811.9180, 6942.000
813.0570, 6649.000
814.1950, 6871.000
815.3330, 6760.000
816.4710, 6906.000
817.6090, 6807.000
818.7470, 6883.000
819.8840, 6873.000
821.0220, 6870.000
822.1590, 6925.000
823.2960, 7016.000
824.4330, 6911.000
825.5690, 6840.000
826.7060, 6894.000
827.8420, 6959.000
828.9790, 6953.000
830.1150, 7034.000
831.2510, 6971.000
832.3860, 7002.943
833.5220, 7057.000
834.6570, 6988.000
835.7930, 6962.000
836.9280, 6914.000
838.0630, 7086.000
839.1980, 7115.000
840.3320, 7212.000
841.4670, 7073.000
842.6010, 7139.000
843.7350, 7138.000
844.8690, 7128.000
846.0030, 7228.000
847.1370, 7140.000
848.2700, 7236.000
849.4040, 7247.000
850.5370, 7164.000
851.6700, 7304.000
852.8030, 7339.000
853.9360, 7274.000
855.0680, 7304.000
856.2000, 7376.000
857.3330, 7217.000
858.4650, 7289.000
859.5970, 7323.000
860.7290, 7459.000
861.8600, 7482.000
862.9920, 7401.000
864.1230, 7639.000
865.2540, 7481.000
866.3850, 7487.000
867.5160, 7594.000
868.6460, 7664.000
869.7770, 7632.000
870.9070, 7688.000
872.0370, 7739.000
873.1670, 7656.000
874.2970, 7690.000
875.4270, 7699.347
876.5570, 7845.000
877.6860, 7735.000
878.8150, 7862.000
879.9440, 7881.000
881.0730, 7863.000
882.2020, 7951.000
883.3300, 8023.000
884.4590, 8018.000
885.5870, 8112.000
886.7150, 8175.000
887.8430, 8266.000
888.9710, 8421.000
890.0990, 8478.682
891.2260, 8490.000
892.3530, 8624.000
893.4810, 8800.000
894.6080, 8821.000
895.7340, 9009.000
896.8610, 9281.000
897.9880, 9390.000
899.1140, 9556.000
900.2400, 9757.000
901.3660, 10070.00
902.4920, 10197.00
903.6180, 10298.00
904.7430, 10458.00
905.8690, 10546.00
906.9940, 10643.00
908.1190, 10663.00
909.2440, 10674.26
910.3690, 10494.00
911.4930, 10580.00
912.6180, 10443.00
913.7420, 10292.00
914.8660, 10287.00
915.9900, 10101.00
917.1140, 10157.00
918.2380, 9826.000
919.3610, 9913.000
920.4850, 9761.000
921.6080, 9662.000
922.7310, 9573.000
923.8540, 9451.000
924.9760, 9330.000
926.0990, 9216.000
927.2210, 9232.000
928.3440, 9174.000
929.4660, 9053.000
930.5880, 9048.000
931.7090, 8949.000
932.8310, 9042.000
933.9520, 9031.000
935.0740, 8979.000
936.1950, 9000.000
937.3160, 9027.000
938.4360, 9000.000
939.5570, 9053.000
940.6780, 9103.000
941.7980, 9080.000
942.9180, 9177.000
944.0380, 9301.000
945.1580, 9310.000
946.2780, 9507.000
947.3970, 9448.000
948.5170, 9634.000
949.6360, 9679.000
950.7550, 9888.000
951.8740, 10219.00
952.9930, 10241.00
954.1110, 10602.00
955.2300, 10667.00
956.3480, 10993.00
957.4660, 11282.00
958.5840, 11747.00
959.7020, 12066.36
960.8190, 12539.00
961.9370, 12809.00
963.0540, 13336.00
964.1710, 13700.00
965.2880, 14034.00
966.4050, 14416.00
967.5220, 14822.00
968.6380, 14810.00
969.7550, 14855.00
970.8710, 14806.00
971.9870, 14521.00
973.1030, 14299.00
974.2190, 14102.00
975.3340, 13711.00
976.4500, 13416.82
977.5650, 13059.00
978.6800, 12734.00
979.7950, 12367.00
980.9100, 12148.00
982.0250, 11903.00
983.1390, 11752.00
984.2530, 11505.00
985.3680, 11289.00
986.4820, 11361.00
987.5950, 11240.00
988.7090, 11219.00
989.8230, 11353.00
990.9360, 11458.00
992.0490, 11592.00
993.1620, 11746.00
994.2750, 12114.00
995.3880, 12254.00
996.5010, 12463.00
997.6130, 12521.00
998.7250, 12978.00
999.8370, 13164.00
1000.949, 13461.00
1002.061, 13500.00
1003.173, 13604.00
1004.284, 13678.00
1005.396, 13807.00
1006.507, 14092.00
1007.618, 14389.16
1008.729, 14747.00
1009.839, 15314.00
1010.950, 15978.00
1012.060, 16754.00
1013.171, 17603.00
1014.281, 18596.00
1015.391, 19808.00
1016.500, 21094.00
1017.610, 22599.00
1018.719, 23840.00
1019.829, 25239.00
1020.938, 26232.00
1022.047, 27323.00
1023.156, 27995.00
1024.264, 28109.00
1025.373, 27701.00
1026.481, 27070.00
1027.589, 25975.00
1028.697, 24471.00
1029.805, 22825.00
1030.913, 21737.00
1032.020, 20326.00
1033.128, 19072.00
1034.235, 17842.00
1035.342, 16756.00
1036.449, 15723.00
1037.556, 15015.00
1038.663, 14333.00
1039.769, 13728.00
1040.875, 13225.00
1041.981, 12729.40
1043.087, 12340.01
1044.193, 11956.00
1045.299, 11742.00
1046.404, 11508.00
1047.510, 11386.00
1048.615, 11031.00
1049.720, 10826.00
1050.825, 10554.00
1051.930, 10406.00
1053.034, 10131.00
1054.139, 9940.000
1055.243, 9913.000
1056.347, 9742.000
1057.451, 9665.000
1058.555, 9487.000
1059.658, 9269.000
1060.762, 9088.000
1061.865, 9111.000
1062.968, 9015.000
1064.071, 9018.000
1065.174, 8925.000
1066.277, 8925.000
1067.380, 8848.000
1068.482, 8757.000
1069.584, 8815.000
1070.686, 8761.000
1071.788, 8657.000
1072.890, 8826.000
1073.992, 8601.000
1075.093, 8763.000
1076.194, 8593.000
1077.295, 8585.000
1078.396, 8426.000
1079.497, 8560.000
1080.598, 8554.000
1081.698, 8454.000
1082.799, 8657.000
1083.899, 8564.000
1084.999, 8527.000
1086.099, 8547.000
1087.199, 8548.000
1088.298, 8500.000
1089.398, 8566.000
1090.497, 8651.000
1091.596, 8669.000
1092.695, 8785.000
1093.794, 8866.000
1094.892, 8824.000
1095.991, 8946.000
1097.089, 9016.000
1098.187, 8835.000
1099.285, 8761.000
1100.383, 8703.000
1101.481, 8590.000
1102.579, 8456.138
1103.676, 8259.000
1104.773, 8175.000
1105.870, 8003.000
1106.967, 7938.000
1108.064, 7912.000
1109.161, 7915.000
1110.257, 7847.000
1111.353, 7837.000
1112.449, 7807.000
1113.545, 7695.000
1114.641, 7668.000
1115.737, 7663.000
1116.832, 7664.000
1117.928, 7616.000
1119.023, 7550.000
1120.118, 7557.462
1121.213, 7618.000
1122.308, 7532.000
1123.402, 7545.000
1124.497, 7516.000
1125.591, 7454.000
1126.685, 7474.349
1127.779, 7442.425
1128.873, 7469.000
1129.967, 7423.000
1131.060, 7403.291
1132.153, 7388.055
1133.247, 7406.000
1134.340, 7413.000
1135.433, 7409.352
1136.525, 7414.407
1137.618, 7398.000
1138.710, 7395.000
1139.802, 7362.000
1140.895, 7320.071
1141.987, 7312.000
1143.078, 7274.000
1144.170, 7265.000
1145.261, 7269.000
1146.353, 7208.000
1147.444, 7194.000
1148.535, 7249.000
1149.626, 7182.000
1150.716, 7198.000
1151.807, 7177.000
1152.897, 7332.000
1153.988, 7147.000
1155.078, 7231.000
1156.168, 7335.000
1157.257, 7247.000
1158.347, 7166.000
1159.436, 7189.000
1160.526, 7226.000
1161.615, 7216.000
1162.704, 7162.000
1163.793, 7263.000
1164.881, 7054.000
1165.970, 7235.000
1167.058, 7328.000
1168.147, 7140.000
1169.235, 7117.000
1170.323, 7099.000
1171.410, 7174.000
1172.498, 7083.000
1173.585, 7064.000
1174.673, 7137.000
1175.760, 7189.000
1176.847, 7166.000
1177.934, 7115.000
1179.020, 7157.000
1180.107, 7088.000
1181.193, 7122.000
1182.279, 7115.000
1183.365, 7088.000
1184.451, 7069.000
1185.537, 7008.000
1186.623, 7131.000
1187.708, 7066.195
1188.793, 7209.000
1189.878, 7031.000
1190.963, 7103.000
1192.048, 7065.000
1193.133, 7152.000
1194.217, 7067.000
1195.302, 7140.000
1196.386, 7066.000
1197.470, 7048.000
1198.554, 7054.000
1199.638, 7027.000
1200.721, 7042.000
1201.805, 7075.000
1202.888, 7034.000
1203.971, 7051.000
1205.054, 7077.000
1206.137, 6922.000
1207.219, 7088.000
1208.302, 7140.000
1209.384, 7053.000
1210.466, 7004.000
1211.548, 7097.000
1212.630, 7052.000
1213.712, 7017.000
1214.794, 7037.000
1215.875, 7060.000
1216.956, 7053.000
1218.037, 6937.000
1219.118, 7103.000
1220.199, 7151.000
1221.280, 7038.000
1222.360, 6990.000
1223.441, 7046.000
1224.521, 7068.000
1225.601, 7054.000
1226.681, 7070.000
1227.760, 7149.000
1228.840, 6947.000
1229.919, 7002.000
1230.999, 7087.000
1232.078, 7192.000
1233.157, 7038.000
1234.236, 7084.000
1235.314, 7044.000
1236.393, 7071.000
1237.471, 7070.000
1238.549, 7025.000
1239.627, 7011.000
1240.705, 7060.000
1241.783, 7001.753
1242.860, 7065.000
1243.938, 6955.000
1245.015, 6940.000
1246.092, 6947.116
1247.169, 7211.000
