##NAMES=Grunerite
##RRUFFID=R040150
##IDEAL CHEMISTRY=[box]Fe^2+^_2_Fe^2+^_5_Si_8_O_22_(OH)_2_
##LOCALITY=Smallwood mine, Heath Lake, Newfoundland, Canada
##OWNER=RRUFF
##SOURCE=University of Arizona Mineral Museum
##DESCRIPTION=Brown bladed crystals in parallel aggregate
##STATUS=The identification of this mineral has been confirmed by X-ray diffraction and chemical analysis
##URL=rruff.info/R040150
##MEASURED CHEMISTRY=(Fe_0.69_Mg_0.27_Ca_0.02_Mn_0.02_)_7_Si_8.02_O_22_((OH)_0.98_Cl_0.02_)_2_
##PIN_ID=M00372
##ORIENTATION=Laser parallel to c* (0 0 1). Fiducial mark perpendicular to laser is parallel to a [1 0 0]
73.31600, 979.0000
74.55700, 1029.000
75.79800, 1173.000
77.03900, 1284.000
78.27900, 1256.000
79.52000, 1281.000
80.76000, 1292.000
82.00000, 1284.000
83.24000, 1250.000
84.48000, 1050.000
85.72000, 976.0000
86.95900, 974.0000
88.19900, 917.0000
89.43800, 989.0000
90.67700, 984.0000
91.91600, 1016.000
93.15400, 1050.000
94.39300, 1065.000
95.63100, 1085.000
96.86900, 1138.000
98.10700, 1235.000
99.34500, 1332.000
100.5820, 1300.000
101.8200, 1294.000
103.0570, 1212.000
104.2940, 1179.000
105.5310, 1140.000
106.7680, 1118.000
108.0040, 1107.000
109.2410, 1096.000
110.4770, 1110.000
111.7130, 1123.000
112.9490, 1238.000
114.1850, 1320.000
115.4200, 1337.000
116.6560, 1310.000
117.8910, 1358.000
119.1260, 1330.000
120.3610, 1350.000
121.5960, 1412.000
122.8300, 1466.000
124.0640, 1494.000
125.2990, 1441.000
126.5330, 1391.000
127.7670, 1327.000
129.0000, 1280.000
130.2340, 1244.000
131.4670, 1308.000
132.7000, 1299.000
133.9330, 1329.000
135.1660, 1289.000
136.3990, 1325.000
137.6310, 1267.000
138.8640, 1295.000
140.0960, 1261.000
141.3280, 1233.000
142.5600, 1241.000
143.7910, 1305.000
145.0230, 1388.000
146.2540, 1534.000
147.4850, 1658.000
148.7160, 1732.000
149.9470, 2034.000
151.1780, 2379.000
152.4080, 2803.000
153.6380, 3525.000
154.8690, 4316.000
156.0980, 5170.000
157.3280, 5715.000
158.5580, 5877.000
159.7870, 5678.000
161.0170, 5121.000
162.2460, 4416.000
163.4750, 3721.000
164.7030, 3182.000
165.9320, 2819.000
167.1600, 2593.000
168.3890, 2497.000
169.6170, 2493.000
170.8450, 2534.000
172.0730, 2723.000
173.3000, 2896.000
174.5280, 3273.000
175.7550, 3663.000
176.9820, 4152.000
178.2090, 4874.000
179.4350, 5528.000
180.6620, 6222.000
181.8880, 6907.000
183.1150, 7560.000
184.3410, 7920.000
185.5670, 7904.000
186.7920, 7630.000
188.0180, 7062.000
189.2430, 6540.000
190.4690, 5833.000
191.6940, 5051.000
192.9180, 4609.000
194.1430, 4065.000
195.3680, 3752.000
196.5920, 3459.000
197.8160, 3125.000
199.0400, 3026.000
200.2640, 2878.000
201.4880, 2755.000
202.7110, 2813.000
203.9350, 2637.000
205.1580, 2653.000
206.3810, 2569.000
207.6040, 2557.000
208.8270, 2518.000
210.0490, 2607.000
211.2710, 2565.000
212.4940, 2658.000
213.7160, 2701.000
214.9370, 2769.000
216.1590, 2903.000
217.3810, 2903.000
218.6020, 3076.000
219.8230, 3116.374
221.0440, 3304.000
222.2650, 3207.000
223.4860, 3311.000
224.7060, 3276.000
225.9260, 3303.000
227.1470, 3215.000
228.3670, 3161.000
229.5860, 3061.000
230.8060, 3036.000
232.0260, 2872.000
233.2450, 2835.000
234.4640, 2776.000
235.6830, 2739.000
236.9020, 2597.000
238.1200, 2528.000
239.3390, 2450.000
240.5570, 2369.000
241.7750, 2334.000
242.9930, 2205.000
244.2110, 2142.000
245.4290, 2126.000
246.6460, 2011.000
247.8630, 1969.000
249.0810, 1891.000
250.2980, 1795.000
251.5140, 1753.000
252.7310, 1730.000
253.9470, 1719.000
255.1640, 1612.000
256.3800, 1600.000
257.5960, 1566.000
258.8120, 1526.000
260.0270, 1498.802
261.2430, 1470.000
262.4580, 1433.000
263.6730, 1422.000
264.8880, 1404.000
266.1030, 1340.000
267.3170, 1342.000
268.5320, 1262.000
269.7460, 1253.131
270.9600, 1285.000
272.1740, 1232.000
273.3880, 1204.000
274.6010, 1227.000
275.8150, 1244.000
277.0280, 1255.000
278.2410, 1251.000
279.4540, 1245.000
280.6670, 1246.000
281.8790, 1258.000
283.0920, 1338.000
284.3040, 1286.000
285.5160, 1324.000
286.7280, 1294.000
287.9400, 1281.000
289.1510, 1264.000
290.3630, 1265.759
291.5740, 1282.000
292.7850, 1271.000
293.9960, 1298.000
295.2070, 1280.000
296.4170, 1248.000
297.6280, 1258.000
298.8380, 1259.000
300.0480, 1353.000
301.2580, 1356.000
302.4680, 1302.000
303.6770, 1344.000
304.8870, 1297.000
306.0960, 1327.000
307.3050, 1318.000
308.5140, 1307.000
309.7230, 1295.000
310.9310, 1302.000
312.1400, 1324.000
313.3480, 1366.000
314.5560, 1372.000
315.7640, 1334.000
316.9720, 1369.000
318.1790, 1313.000
319.3870, 1334.000
320.5940, 1327.000
321.8010, 1280.000
323.0080, 1197.000
324.2150, 1257.000
325.4210, 1183.000
326.6280, 1146.000
327.8340, 1137.000
329.0400, 1132.772
330.2460, 1207.000
331.4510, 1194.000
332.6570, 1230.000
333.8620, 1296.000
335.0680, 1267.000
336.2730, 1348.000
337.4780, 1476.000
338.6820, 1492.000
339.8870, 1585.000
341.0910, 1736.000
342.2950, 1928.000
343.5000, 1995.000
344.7030, 2302.000
345.9070, 2455.000
347.1110, 2665.000
348.3140, 2804.000
349.5170, 2875.000
350.7200, 2980.000
351.9230, 3014.000
353.1260, 2991.000
354.3290, 2868.000
355.5310, 2889.000
356.7330, 2837.000
357.9350, 2854.000
359.1370, 2816.000
360.3390, 2903.000
361.5400, 3022.000
362.7420, 3106.000
363.9430, 3456.000
365.1440, 3611.000
366.3450, 3874.000
367.5460, 3983.000
368.7460, 3927.000
369.9470, 3805.000
371.1470, 3505.000
372.3470, 3249.000
373.5470, 3004.000
374.7460, 2707.000
375.9460, 2439.000
377.1450, 2292.000
378.3450, 2185.000
379.5440, 2053.000
380.7430, 1985.645
381.9410, 1910.000
383.1400, 1900.000
384.3380, 1886.000
385.5370, 1913.000
386.7350, 1953.000
387.9320, 1995.000
389.1300, 2108.000
390.3280, 2275.000
391.5250, 2339.000
392.7220, 2501.000
393.9190, 2573.000
395.1160, 2782.000
396.3130, 3016.000
397.5100, 3203.000
398.7060, 3387.000
399.9020, 3519.667
401.0980, 3617.000
402.2940, 3698.000
403.4900, 3651.000
404.6860, 3642.000
405.8810, 3590.000
407.0760, 3543.000
408.2710, 3462.000
409.4660, 3380.000
410.6610, 3316.000
411.8550, 3279.235
413.0500, 3253.258
414.2440, 3248.000
415.4380, 3255.000
416.6320, 3281.000
417.8260, 3310.000
419.0190, 3462.000
420.2130, 3672.000
421.4060, 3724.000
422.5990, 3835.000
423.7920, 3758.000
424.9850, 3632.000
426.1770, 3365.000
427.3700, 2970.000
428.5620, 2613.000
429.7540, 2265.000
430.9460, 1944.000
432.1380, 1715.000
433.3290, 1589.000
434.5210, 1384.000
435.7120, 1377.000
436.9030, 1268.000
438.0940, 1180.000
439.2850, 1164.000
440.4750, 1087.000
441.6660, 1101.000
442.8560, 1011.000
444.0460, 993.0000
445.2360, 1014.000
446.4260, 947.0000
447.6160, 986.0000
448.8050, 958.0000
449.9940, 934.0000
451.1830, 968.0000
452.3720, 961.0000
453.5610, 946.0000
454.7500, 911.0000
455.9380, 947.0000
457.1260, 946.0000
458.3150, 916.0000
459.5020, 919.0000
460.6900, 956.0000
461.8780, 937.0000
463.0650, 958.0000
464.2530, 901.0000
465.4400, 928.0000
466.6270, 894.0000
467.8130, 950.0000
469.0000, 922.9841
470.1870, 871.0000
471.3730, 898.0000
472.5590, 916.0000
473.7450, 909.0000
474.9310, 911.0000
476.1160, 958.0000
477.3020, 935.0000
478.4870, 973.0000
479.6720, 969.0000
480.8570, 981.0000
482.0420, 981.0000
483.2270, 984.0000
484.4110, 1035.000
485.5960, 1017.000
486.7800, 1033.000
487.9640, 1024.000
489.1480, 1030.000
490.3310, 1096.000
491.5150, 1092.000
492.6980, 1114.000
493.8810, 1184.000
495.0640, 1251.000
496.2470, 1219.000
497.4300, 1250.000
498.6120, 1327.000
499.7950, 1415.000
500.9770, 1453.000
502.1590, 1600.000
503.3410, 1655.409
504.5220, 1760.000
505.7040, 1812.000
506.8850, 1911.000
508.0660, 1978.000
509.2470, 1967.000
510.4280, 2015.000
511.6090, 2049.000
512.7890, 1972.000
513.9700, 1967.000
515.1500, 1966.000
516.3300, 2000.000
517.5100, 2013.000
518.6900, 2046.000
519.8690, 2176.000
521.0490, 2335.000
522.2280, 2499.000
523.4070, 2718.000
524.5860, 3016.000
525.7640, 3218.000
526.9430, 3494.000
528.1210, 3765.000
529.3000, 3911.000
530.4780, 3951.000
531.6560, 3820.000
532.8330, 3547.000
534.0110, 3275.000
535.1880, 2930.000
536.3650, 2544.000
537.5430, 2314.000
538.7190, 2165.000
539.8960, 1945.000
541.0730, 1796.000
542.2490, 1643.000
543.4250, 1594.000
544.6020, 1468.000
545.7780, 1408.000
546.9530, 1353.000
548.1290, 1312.000
549.3040, 1286.000
550.4800, 1324.000
551.6550, 1305.000
552.8300, 1296.397
554.0040, 1267.000
555.1790, 1271.000
556.3540, 1245.000
557.5280, 1238.000
558.7020, 1212.000
559.8760, 1210.000
561.0500, 1256.000
562.2230, 1231.000
563.3970, 1226.000
564.5700, 1225.000
565.7430, 1206.000
566.9160, 1178.170
568.0890, 1154.000
569.2620, 1115.000
570.4340, 1094.000
571.6070, 1085.000
572.7790, 1101.000
573.9510, 1072.000
575.1230, 1033.000
576.2940, 1032.000
577.4660, 984.0000
578.6370, 989.0000
579.8080, 965.0000
580.9790, 950.0000
582.1500, 913.0000
583.3210, 893.0000
584.4910, 861.0000
585.6620, 877.0000
586.8320, 846.0000
588.0020, 866.0000
589.1720, 833.0000
590.3410, 866.0000
591.5110, 837.0000
592.6800, 838.0000
593.8500, 839.0000
595.0190, 853.0000
596.1880, 843.5249
597.3560, 836.0000
598.5250, 847.0000
599.6930, 843.0000
600.8620, 878.0000
602.0300, 873.7498
603.1970, 835.0000
604.3650, 883.0000
605.5330, 860.0000
606.7000, 860.0000
607.8680, 872.0000
609.0350, 921.0000
610.2020, 875.0000
611.3680, 898.0000
612.5350, 905.0000
613.7010, 895.0000
614.8680, 930.0000
616.0340, 954.0000
617.2000, 923.0000
618.3660, 950.0000
619.5310, 967.0000
620.6970, 997.0000
621.8620, 1063.000
623.0270, 1119.000
624.1920, 1099.000
625.3570, 1213.000
626.5220, 1184.000
627.6860, 1296.000
628.8500, 1288.000
630.0140, 1327.000
631.1780, 1406.000
632.3420, 1477.000
633.5060, 1567.000
634.6700, 1639.000
635.8330, 1672.000
636.9960, 1741.000
638.1590, 1813.000
639.3220, 1842.000
640.4850, 1975.000
641.6470, 2074.000
642.8100, 2160.000
643.9720, 2307.000
645.1340, 2594.000
646.2960, 2767.000
647.4570, 3133.000
648.6190, 3462.000
649.7800, 3949.000
650.9420, 4649.000
652.1030, 5240.000
653.2640, 6066.000
654.4240, 7156.000
655.5850, 8342.000
656.7450, 9674.000
657.9060, 11198.00
659.0660, 12691.00
660.2260, 13827.00
661.3850, 14547.00
662.5450, 14387.00
663.7040, 13533.00
664.8640, 12315.00
666.0230, 10832.00
667.1820, 9222.000
668.3410, 7836.000
669.4990, 6560.000
670.6580, 5459.000
671.8160, 4611.000
672.9740, 4081.000
674.1320, 3424.000
675.2900, 3118.000
676.4480, 2875.000
677.6050, 2693.000
678.7630, 2463.000
679.9200, 2286.000
681.0770, 2127.000
682.2340, 2044.000
683.3900, 1966.000
684.5470, 1918.000
685.7030, 1862.954
686.8590, 1867.000
688.0150, 1798.000
689.1710, 1758.000
690.3270, 1755.000
691.4830, 1665.000
692.6380, 1624.000
693.7930, 1586.000
694.9480, 1555.000
696.1030, 1492.000
697.2580, 1484.000
698.4130, 1438.000
699.5670, 1385.000
700.7210, 1300.000
701.8750, 1289.000
703.0290, 1260.000
704.1830, 1226.000
705.3370, 1220.000
706.4900, 1165.000
707.6430, 1143.000
708.7970, 1141.000
709.9490, 1115.000
711.1020, 1100.000
712.2550, 1115.000
713.4070, 1081.000
714.5600, 1057.000
715.7120, 1075.000
716.8640, 1021.000
718.0160, 1053.000
719.1670, 1028.000
720.3190, 1055.000
721.4700, 1016.000
722.6210, 1000.000
723.7720, 978.0000
724.9230, 969.0000
726.0740, 965.1303
727.2250, 1037.000
728.3750, 967.0000
729.5250, 1008.000
730.6750, 1011.000
731.8250, 988.0000
732.9750, 1023.000
734.1240, 1030.000
735.2740, 1039.000
736.4230, 1067.000
737.5720, 1085.000
738.7210, 1112.000
739.8700, 1148.000
741.0190, 1170.558
742.1670, 1257.000
743.3150, 1226.000
744.4630, 1241.000
745.6110, 1265.000
746.7590, 1224.000
747.9070, 1150.000
749.0540, 1151.000
750.2020, 1069.000
751.3490, 1036.000
752.4960, 1006.000
753.6430, 982.9283
754.7890, 977.0000
755.9360, 982.0000
757.0820, 1010.000
758.2280, 1029.000
759.3740, 1005.000
760.5200, 988.0000
761.6660, 955.0000
762.8120, 986.0000
763.9570, 950.0000
765.1020, 962.0000
766.2470, 965.0000
767.3920, 947.0000
768.5370, 946.0000
769.6810, 939.0355
770.8260, 937.0000
771.9700, 938.0000
773.1140, 930.0000
774.2580, 954.0000
775.4020, 970.0000
776.5460, 954.0000
777.6890, 929.0000
778.8320, 966.0000
779.9750, 944.0000
781.1180, 970.0000
782.2610, 957.0000
783.4040, 971.0000
784.5460, 961.0000
785.6890, 960.0000
786.8310, 993.0000
787.9730, 916.0000
789.1150, 966.0000
790.2560, 942.0000
791.3980, 926.0000
792.5390, 927.0000
793.6810, 919.0000
794.8220, 894.0000
795.9630, 927.0000
797.1030, 936.0000
798.2440, 914.0000
799.3840, 938.0000
800.5240, 892.0000
801.6650, 926.0000
802.8040, 886.0000
803.9440, 934.0000
805.0840, 897.0000
806.2230, 964.0000
807.3630, 969.0000
808.5020, 938.0000
809.6410, 946.0000
810.7790, 934.0000
811.9180, 931.0000
813.0570, 955.0000
814.1950, 917.0000
815.3330, 952.0000
816.4710, 938.0000
817.6090, 933.0000
818.7470, 951.0000
819.8840, 916.0000
821.0220, 926.0000
822.1590, 929.0000
823.2960, 908.0000
824.4330, 984.0000
825.5690, 944.0000
826.7060, 940.0000
827.8420, 914.0000
828.9790, 957.0000
830.1150, 945.0000
831.2510, 966.0000
832.3860, 944.0000
833.5220, 943.0000
834.6570, 914.0000
835.7930, 972.0000
836.9280, 950.0000
838.0630, 962.0000
839.1980, 956.0000
840.3320, 962.0000
841.4670, 982.0000
842.6010, 967.0000
843.7350, 1013.000
844.8690, 971.0000
846.0030, 986.0000
847.1370, 948.0000
848.2700, 1001.000
849.4040, 1006.000
850.5370, 979.0000
851.6700, 994.0000
852.8030, 1025.000
853.9360, 1018.000
855.0680, 1006.000
856.2000, 1008.000
857.3330, 1003.000
858.4650, 979.0000
859.5970, 1022.000
860.7290, 1026.000
861.8600, 1015.000
862.9920, 987.0000
864.1230, 1039.000
865.2540, 1057.000
866.3850, 999.0000
867.5160, 1038.000
868.6460, 1035.000
869.7770, 1019.000
870.9070, 1060.000
872.0370, 1067.000
873.1670, 1057.000
874.2970, 1062.000
875.4270, 1095.000
876.5570, 1107.000
877.6860, 1136.000
878.8150, 1073.000
879.9440, 1097.000
881.0730, 1139.000
882.2020, 1154.000
883.3300, 1193.000
884.4590, 1213.000
885.5870, 1163.000
886.7150, 1201.000
887.8430, 1230.000
888.9710, 1307.000
890.0990, 1311.000
891.2260, 1351.000
892.3530, 1393.298
893.4810, 1424.000
894.6080, 1464.000
895.7340, 1512.000
896.8610, 1545.000
897.9880, 1567.000
899.1140, 1609.000
900.2400, 1658.000
901.3660, 1689.000
902.4920, 1751.000
903.6180, 1785.000
904.7430, 1822.000
905.8690, 1851.141
906.9940, 1847.000
908.1190, 1878.000
909.2440, 1851.000
910.3690, 1831.000
911.4930, 1792.000
912.6180, 1797.000
913.7420, 1741.000
914.8660, 1775.000
915.9900, 1776.000
917.1140, 1677.000
918.2380, 1674.000
919.3610, 1598.000
920.4850, 1573.000
921.6080, 1521.000
922.7310, 1522.000
923.8540, 1500.967
924.9760, 1495.000
926.0990, 1486.000
927.2210, 1464.000
928.3440, 1451.000
929.4660, 1427.000
930.5880, 1442.000
931.7090, 1387.000
932.8310, 1384.000
933.9520, 1431.000
935.0740, 1336.000
936.1950, 1373.000
937.3160, 1420.000
938.4360, 1422.000
939.5570, 1426.000
940.6780, 1409.000
941.7980, 1443.000
942.9180, 1428.000
944.0380, 1440.000
945.1580, 1452.000
946.2780, 1485.237
947.3970, 1520.000
948.5170, 1570.000
949.6360, 1621.000
950.7550, 1653.000
951.8740, 1733.022
952.9930, 1786.739
954.1110, 1884.000
955.2300, 1937.000
956.3480, 2004.000
957.4660, 2110.000
958.5840, 2141.000
959.7020, 2376.000
960.8190, 2503.000
961.9370, 2709.000
963.0540, 2822.000
964.1710, 3029.000
965.2880, 3140.000
966.4050, 3255.000
967.5220, 3336.000
968.6380, 3371.000
969.7550, 3374.000
970.8710, 3321.000
971.9870, 3197.000
973.1030, 3082.000
974.2190, 3009.000
975.3340, 2778.000
976.4500, 2727.000
977.5650, 2516.000
978.6800, 2503.000
979.7950, 2322.000
980.9100, 2211.000
982.0250, 2155.000
983.1390, 2126.000
984.2530, 1954.000
985.3680, 1981.000
986.4820, 1945.000
987.5950, 1961.000
988.7090, 1933.000
989.8230, 1981.000
990.9360, 1975.000
992.0490, 2024.000
993.1620, 2049.000
994.2750, 2153.000
995.3880, 2201.000
996.5010, 2188.000
997.6130, 2249.000
998.7250, 2247.000
999.8370, 2317.000
1000.949, 2348.000
1002.061, 2418.000
1003.173, 2426.000
1004.284, 2490.618
1005.396, 2481.000
1006.507, 2587.000
1007.618, 2720.000
1008.729, 2750.000
1009.839, 2909.000
1010.950, 3045.000
1012.060, 3264.000
1013.171, 3508.000
1014.281, 3762.000
1015.391, 4045.000
1016.500, 4417.000
1017.610, 4855.000
1018.719, 5098.000
1019.829, 5484.000
1020.938, 5808.000
1022.047, 5995.000
1023.156, 6168.000
1024.264, 6115.000
1025.373, 5953.000
1026.481, 5810.000
1027.589, 5461.000
1028.697, 5109.000
1029.805, 4735.000
1030.913, 4356.000
1032.020, 4051.000
1033.128, 3779.000
1034.235, 3515.000
1035.342, 3209.000
1036.449, 3042.000
1037.556, 2833.885
1038.663, 2747.000
1039.769, 2549.000
1040.875, 2445.000
1041.981, 2375.000
1043.087, 2321.000
1044.193, 2199.000
1045.299, 2115.000
1046.404, 2075.000
1047.510, 2059.000
1048.615, 1914.000
1049.720, 1933.000
1050.825, 1844.000
1051.930, 1856.000
1053.034, 1808.000
1054.139, 1703.000
1055.243, 1668.000
1056.347, 1655.000
1057.451, 1608.000
1058.555, 1622.000
1059.658, 1559.000
1060.762, 1533.000
1061.865, 1558.000
1062.968, 1494.000
1064.071, 1516.000
1065.174, 1445.000
1066.277, 1478.000
1067.380, 1470.000
1068.482, 1434.000
1069.584, 1422.000
1070.686, 1339.000
1071.788, 1390.000
1072.890, 1321.000
1073.992, 1303.000
1075.093, 1313.000
1076.194, 1319.000
1077.295, 1344.000
1078.396, 1271.000
1079.497, 1292.000
1080.598, 1256.000
1081.698, 1315.000
1082.799, 1293.718
1083.899, 1278.000
1084.999, 1288.000
1086.099, 1227.000
1087.199, 1221.000
1088.298, 1213.000
1089.398, 1288.000
1090.497, 1261.000
1091.596, 1275.000
1092.695, 1280.000
1093.794, 1281.000
1094.892, 1298.000
1095.991, 1281.000
1097.089, 1288.180
1098.187, 1278.000
1099.285, 1274.000
1100.383, 1259.000
1101.481, 1226.000
1102.579, 1194.000
1103.676, 1177.000
1104.773, 1146.000
1105.870, 1131.000
1106.967, 1129.000
1108.064, 1142.000
1109.161, 1127.000
1110.257, 1121.000
1111.353, 1110.000
1112.449, 1063.000
1113.545, 1069.000
1114.641, 1116.000
1115.737, 1054.000
1116.832, 1066.000
1117.928, 1040.000
1119.023, 1034.977
1120.118, 1054.000
1121.213, 1040.000
1122.308, 1072.000
1123.402, 1073.000
1124.497, 1038.000
1125.591, 1028.000
1126.685, 989.0000
1127.779, 1019.000
1128.873, 1022.000
1129.967, 998.0000
1131.060, 997.0000
1132.153, 983.0000
1133.247, 1014.000
1134.340, 1022.000
1135.433, 992.0000
1136.525, 982.0000
1137.618, 976.0000
1138.710, 964.0000
1139.802, 1006.000
1140.895, 960.0000
1141.987, 951.0000
1143.078, 1004.000
1144.170, 932.0000
1145.261, 939.0000
1146.353, 965.0000
1147.444, 955.0000
1148.535, 941.0000
1149.626, 902.0000
1150.716, 966.0000
1151.807, 924.0000
1152.897, 978.0000
1153.988, 926.0000
1155.078, 930.0000
1156.168, 976.0000
1157.257, 955.0000
1158.347, 938.0000
1159.436, 916.0000
1160.526, 919.0000
1161.615, 912.0000
1162.704, 902.0000
1163.793, 944.0000
1164.881, 967.0000
1165.970, 937.0000
1167.058, 935.0000
1168.147, 904.0000
1169.235, 907.5544
1170.323, 926.0000
1171.410, 916.0000
1172.498, 930.0000
1173.585, 941.0000
1174.673, 931.0000
1175.760, 876.0000
1176.847, 921.0000
1177.934, 882.0000
1179.020, 908.0000
1180.107, 890.0000
1181.193, 888.0000
1182.279, 898.7294
1183.365, 928.2311
1184.451, 944.2678
1185.537, 947.5635
1186.623, 899.9565
1187.708, 918.0808
1188.793, 909.8635
1189.878, 900.5660
1190.963, 927.9416
1192.048, 887.7395
1193.133, 914.5334
1194.217, 914.5849
1195.302, 926.8752
1196.386, 912.6623
1197.470, 906.6357
1198.554, 927.1219
1199.638, 932.9279
1200.721, 915.6650
1201.805, 928.7344
1202.888, 887.6088
1203.971, 894.0411
1205.054, 927.0000
1206.137, 918.0000
1207.219, 890.0000
1208.302, 891.0000
1209.384, 894.0000
1210.466, 912.0000
1211.548, 900.0000
1212.630, 891.0000
1213.712, 883.0000
1214.794, 918.0000
1215.875, 921.0000
1216.956, 920.0000
1218.037, 923.0000
1219.118, 924.1376
1220.199, 911.0000
1221.280, 924.0000
1222.360, 914.0000
1223.441, 906.0000
1224.521, 927.0000
1225.601, 868.0000
1226.681, 933.0000
1227.760, 912.0000
1228.840, 927.0000
1229.919, 876.0000
1230.999, 919.0000
1232.078, 901.0000
1233.157, 908.0000
1234.236, 915.0000
1235.314, 921.0000
1236.393, 896.0000
1237.471, 894.0000
1238.549, 905.0000
1239.627, 886.0000
1240.705, 923.0000
1241.783, 933.0000
1242.860, 940.0000
1243.938, 945.0000
1245.015, 930.0000
1246.092, 911.0000
1247.169, 923.0000
1248.246, 930.0000
1249.323, 940.0000
1250.399, 927.0000
1251.475, 942.9763
