##NAMES=Hardystonite
##RRUFFID=R040026
##IDEAL CHEMISTRY=Ca_2_Zn^2+^Si_2_O_7_
##LOCALITY=Franklin, Sussex County, New Jersey, USA
##OWNER=RRUFF
##SOURCE=University of Arizona Mineral Museum
##DESCRIPTION=White massive
##STATUS=The identification of this mineral has been confirmed by X-ray diffraction and chemical analysis
##URL=rruff.info/R040026
##MEASURED CHEMISTRY=(Ca_1.98_Mn_0.02_)_Σ=2_(Zn_0.99_Al_0.01_)_Σ=1_(Si_1.99_Al_0.01_)_Σ=2_O_7_
##PIN_ID=M00254
##ORIENTATION=Laser parallel to (-1 1 0). Fiducial mark perpendicular to laser is parallel to -c [0 0 -1]
65.23800, 3245.000
66.47400, 3731.000
67.71000, 4436.000
68.94600, 5207.000
70.18200, 6143.000
71.41700, 7361.000
72.65300, 8838.000
73.88800, 10432.00
75.12300, 12473.00
76.35800, 14481.00
77.59300, 17067.00
78.82700, 19657.00
80.06200, 22469.00
81.29600, 25337.00
82.53000, 28089.00
83.76400, 31350.00
84.99800, 34349.00
86.23200, 37384.00
87.46500, 40163.00
88.69900, 43122.00
89.93200, 45815.00
91.16500, 48640.00
92.39800, 51408.00
93.63100, 53800.00
94.86300, 55866.00
96.09600, 57623.00
97.32800, 59126.00
98.56000, 60396.00
99.79200, 61665.96
101.0240, 62715.66
102.2560, 63744.00
103.4880, 64529.00
104.7190, 65413.00
105.9500, 66154.00
107.1810, 67228.00
108.4120, 67468.00
109.6430, 67675.00
110.8740, 67718.00
112.1050, 68713.00
113.3350, 68992.00
114.5650, 69305.00
115.7950, 69915.00
117.0250, 70235.00
118.2550, 70490.00
119.4850, 70904.00
120.7140, 70949.76
121.9430, 71015.00
123.1730, 71013.00
124.4020, 70463.00
125.6310, 70337.00
126.8590, 70216.00
128.0880, 70165.00
129.3160, 70251.35
130.5450, 70456.44
131.7730, 70633.00
133.0010, 71050.00
134.2290, 71481.00
135.4560, 71724.00
136.6840, 71962.00
137.9110, 72025.00
139.1380, 72221.86
140.3650, 72429.44
141.5920, 72441.00
142.8190, 72811.00
144.0460, 72874.00
145.2720, 72939.00
146.4990, 73188.00
147.7250, 73601.00
148.9510, 73819.00
150.1770, 74100.42
151.4020, 74277.00
152.6280, 74567.00
153.8530, 74503.00
155.0790, 74650.00
156.3040, 74870.00
157.5290, 74807.66
158.7530, 74695.00
159.9780, 74901.00
161.2030, 74922.00
162.4270, 75133.00
163.6510, 75169.00
164.8750, 75393.00
166.0990, 75274.00
167.3230, 75491.00
168.5470, 75314.00
169.7700, 75401.00
170.9930, 75478.00
172.2160, 75382.00
173.4390, 75495.00
174.6620, 75670.00
175.8850, 76047.00
177.1080, 76134.00
178.3300, 76112.00
179.5520, 76407.00
180.7740, 76144.00
181.9960, 76238.00
183.2180, 76672.00
184.4400, 76306.00
185.6610, 76535.00
186.8820, 76637.00
188.1040, 76825.00
189.3250, 76379.00
190.5450, 76735.00
191.7660, 76575.00
192.9870, 77164.00
194.2070, 76623.00
195.4270, 77165.00
196.6480, 77311.00
197.8680, 77354.00
199.0870, 77719.00
200.3070, 77827.00
201.5270, 78025.00
202.7460, 78071.00
203.9650, 78460.00
205.1840, 78208.00
206.4030, 78574.00
207.6220, 78389.00
208.8400, 78603.00
210.0590, 78675.00
211.2770, 78875.00
212.4950, 78929.00
213.7130, 79020.80
214.9310, 79025.00
216.1490, 79200.00
217.3660, 79133.00
218.5840, 79309.00
219.8010, 79465.95
221.0180, 79729.00
222.2350, 79861.00
223.4520, 80374.00
224.6680, 80611.00
225.8850, 79934.00
227.1010, 80284.00
228.3170, 80351.00
229.5330, 80348.00
230.7490, 80937.00
231.9650, 81352.00
233.1810, 81245.00
234.3960, 81608.00
235.6110, 81688.00
236.8260, 81818.00
238.0410, 82171.00
239.2560, 82244.00
240.4710, 82677.00
241.6850, 82640.00
242.9000, 83144.00
244.1140, 83428.00
245.3280, 83770.00
246.5420, 83906.00
247.7550, 83887.00
248.9690, 83881.00
250.1820, 84132.00
251.3960, 84004.10
252.6090, 84150.00
253.8220, 83994.00
255.0350, 84186.00
256.2470, 84367.00
257.4600, 84067.00
258.6720, 84298.00
259.8840, 84509.00
261.0960, 84157.00
262.3080, 84360.00
263.5200, 84179.00
264.7320, 84683.00
265.9430, 84612.00
267.1540, 84880.00
268.3650, 85294.00
269.5760, 85170.00
270.7870, 85312.00
271.9980, 85614.00
273.2080, 85915.00
274.4190, 85770.00
275.6290, 85657.00
276.8390, 85404.00
278.0490, 85654.00
279.2590, 85875.00
280.4680, 85480.00
281.6780, 85940.00
282.8870, 86187.00
284.0960, 86541.00
285.3050, 85948.00
286.5140, 86161.00
287.7230, 85998.00
288.9310, 85888.00
290.1400, 85899.00
291.3480, 85678.00
292.5560, 85902.00
293.7640, 85789.00
294.9720, 85908.00
296.1790, 85765.00
297.3870, 86397.00
298.5940, 86430.00
299.8010, 86779.00
301.0080, 86559.00
302.2150, 86865.69
303.4220, 87109.00
304.6290, 87252.00
305.8350, 87367.85
307.0410, 87123.00
308.2470, 87502.00
309.4530, 87501.00
310.6590, 87674.00
311.8650, 88434.00
313.0700, 88166.00
314.2750, 88325.00
315.4810, 88511.00
316.6860, 88315.00
317.8900, 88214.00
319.0950, 87953.00
320.3000, 88050.00
321.5040, 88024.00
322.7080, 87440.00
323.9120, 88062.00
325.1160, 87694.00
326.3200, 87473.00
327.5240, 87645.00
328.7270, 87280.00
329.9310, 86847.00
331.1340, 87036.00
332.3370, 86945.00
333.5400, 87109.00
334.7420, 86796.00
335.9450, 86636.00
337.1470, 87361.00
338.3500, 87347.00
339.5520, 87042.00
340.7540, 86815.00
341.9550, 87362.00
343.1570, 87149.00
344.3590, 86962.00
345.5600, 87015.00
346.7610, 86881.00
347.9620, 87141.00
349.1630, 87302.00
350.3640, 87279.00
351.5640, 87032.00
352.7650, 87231.00
353.9650, 87170.00
355.1650, 86955.00
356.3650, 87104.00
357.5650, 87145.16
358.7640, 87231.39
359.9640, 87394.00
361.1630, 87563.00
362.3620, 87549.00
363.5610, 87726.00
364.7600, 87731.00
365.9590, 87805.00
367.1580, 87475.00
368.3560, 87793.00
369.5540, 87735.00
370.7520, 88014.00
371.9500, 87990.52
373.1480, 88202.00
374.3460, 88009.00
375.5430, 88165.00
376.7410, 88313.00
377.9380, 88057.41
379.1350, 88480.80
380.3320, 88760.19
381.5280, 88903.25
382.7250, 88502.03
383.9210, 88803.66
385.1180, 88823.66
386.3140, 88832.04
387.5100, 89232.59
388.7050, 88910.39
389.9010, 89304.73
391.0960, 89412.99
392.2920, 90118.00
393.4870, 90116.00
394.6820, 90586.00
395.8770, 90478.00
397.0720, 90922.00
398.2660, 90289.00
399.4610, 90926.00
400.6550, 90638.00
401.8490, 90728.00
403.0430, 90283.25
404.2370, 90588.41
405.4300, 90749.59
406.6240, 90774.49
407.8170, 90255.07
409.0100, 90438.56
410.2030, 90340.36
411.3960, 90230.60
412.5890, 90513.02
413.7810, 90839.00
414.9740, 90894.00
416.1660, 90527.00
417.3580, 91005.00
418.5500, 91060.00
419.7420, 90933.00
420.9330, 91180.00
422.1250, 90901.00
423.3160, 91300.00
424.5070, 90952.00
425.6980, 91154.00
426.8890, 91398.00
428.0800, 91409.00
429.2700, 91513.00
430.4610, 91634.88
431.6510, 91791.54
432.8410, 91868.00
434.0310, 92141.00
435.2210, 92375.00
436.4100, 92440.00
437.6000, 92349.00
438.7890, 92590.00
439.9780, 92815.00
441.1670, 93311.00
442.3560, 93274.00
443.5450, 93675.00
444.7330, 93475.00
445.9210, 93854.00
447.1100, 93965.00
448.2980, 94332.00
449.4860, 94749.00
450.6730, 95228.00
451.8610, 95385.00
453.0480, 95509.00
454.2360, 95925.00
455.4230, 96129.00
456.6100, 96220.76
457.7970, 96663.00
458.9830, 96222.00
460.1700, 96422.00
461.3560, 95918.13
462.5420, 96473.66
463.7280, 96885.20
464.9140, 97160.49
466.1000, 96891.43
467.2850, 97325.09
468.4710, 97477.26
469.6560, 97617.68
470.8410, 98150.28
472.0260, 97960.21
473.2110, 98328.00
474.3960, 98789.00
475.5800, 99116.00
476.7640, 99535.00
477.9490, 99709.00
479.1330, 100335.0
480.3160, 100500.0
481.5000, 100669.0
482.6840, 101014.0
483.8670, 100797.0
485.0500, 101309.0
486.2330, 100961.0
487.4160, 100714.0
488.5990, 101017.0
489.7820, 100577.0
490.9640, 100602.0
492.1470, 100234.0
493.3290, 100024.0
494.5110, 100238.0
495.6930, 99601.00
496.8740, 99614.00
498.0560, 99156.00
499.2370, 98952.00
500.4180, 98668.00
501.5990, 98698.00
502.7800, 98388.00
503.9610, 98500.00
505.1420, 98359.00
506.3220, 98097.00
507.5020, 98013.00
508.6820, 98298.00
509.8620, 98559.00
511.0420, 98373.00
512.2220, 97855.00
513.4010, 98232.00
514.5810, 97799.00
515.7600, 97812.00
516.9390, 97894.00
518.1180, 98261.00
519.2970, 98113.00
520.4750, 98126.00
521.6540, 97738.00
522.8320, 98704.00
524.0100, 98564.00
525.1880, 98630.00
526.3660, 98162.00
527.5430, 98330.00
528.7210, 98929.00
529.8980, 99001.00
531.0750, 99122.00
532.2520, 98669.00
533.4290, 99088.00
534.6060, 99145.00
535.7820, 99353.00
536.9590, 99435.25
538.1350, 99736.00
539.3110, 99410.00
540.4870, 99482.00
541.6630, 99331.00
542.8380, 99888.00
544.0140, 99860.00
545.1890, 99734.00
546.3640, 100385.0
547.5390, 100560.0
548.7140, 101011.0
549.8890, 100966.0
551.0630, 100930.0
552.2380, 101294.0
553.4120, 100741.0
554.5860, 101406.0
555.7600, 101141.0
556.9330, 101622.0
558.1070, 101049.0
559.2800, 101427.0
560.4540, 101076.0
561.6270, 101323.0
562.8000, 101702.0
563.9730, 101869.0
565.1450, 101860.0
566.3180, 101767.0
567.4900, 101561.0
568.6620, 101591.0
569.8340, 101893.0
571.0060, 102428.0
572.1780, 102059.0
573.3490, 102878.0
574.5210, 102689.0
575.6920, 102635.0
576.8630, 102947.0
578.0340, 102741.0
579.2050, 103382.0
580.3750, 103557.0
581.5460, 103215.0
582.7160, 103775.0
583.8860, 104305.0
585.0560, 104515.0
586.2260, 105178.0
587.3960, 105863.0
588.5650, 106222.4
589.7340, 106717.8
590.9040, 107361.0
592.0730, 107342.0
593.2410, 108251.0
594.4100, 108412.0
595.5790, 109143.0
596.7470, 109367.0
597.9150, 109955.0
599.0840, 110984.0
600.2510, 111678.0
601.4190, 113181.0
602.5870, 114476.0
603.7540, 116691.0
604.9220, 119148.0
606.0890, 121833.0
607.2560, 125778.0
608.4230, 130203.0
609.5890, 135033.0
610.7560, 139783.0
611.9220, 145488.0
613.0880, 150034.0
614.2540, 153777.0
615.4200, 155552.0
616.5860, 155607.0
617.7520, 153425.0
618.9170, 149374.0
620.0820, 145620.0
621.2480, 140350.0
622.4120, 136522.0
623.5770, 132209.0
624.7420, 129614.0
625.9060, 126952.0
627.0710, 125114.0
628.2350, 123289.0
629.3990, 121822.0
630.5630, 120390.0
631.7260, 119340.0
632.8900, 118202.0
634.0530, 116868.0
635.2170, 116357.0
636.3800, 115516.0
637.5430, 115284.0
638.7050, 115479.0
639.8680, 115252.0
641.0300, 115556.0
642.1930, 115579.0
643.3550, 115949.0
644.5170, 116501.0
645.6790, 117514.1
646.8400, 118570.0
648.0020, 120351.0
649.1630, 122542.0
650.3240, 124641.0
651.4850, 127853.0
652.6460, 131507.0
653.8070, 136613.9
654.9670, 143095.0
656.1280, 149507.0
657.2880, 157780.0
658.4480, 166849.0
659.6080, 176971.0
660.7680, 186396.0
661.9270, 195782.0
663.0870, 201522.0
664.2460, 205148.0
665.4050, 204787.0
666.5640, 200787.0
667.7230, 193764.0
668.8820, 185108.0
670.0400, 177084.0
671.1990, 168975.0
672.3570, 162097.0
673.5150, 155048.0
674.6730, 150065.0
675.8310, 144898.0
676.9880, 140884.0
678.1450, 137042.0
679.3030, 133082.0
680.4600, 130190.0
681.6170, 126828.0
682.7740, 124921.0
683.9300, 122572.0
685.0870, 120489.0
686.2430, 119052.0
687.3990, 117527.0
688.5550, 116756.0
689.7110, 115344.0
690.8670, 114681.0
692.0220, 114121.0
693.1770, 113550.0
694.3330, 113136.0
695.4880, 112522.0
696.6430, 112515.0
697.7970, 112036.0
698.9520, 112151.0
700.1060, 111279.0
701.2600, 111403.0
702.4150, 110840.0
703.5690, 111014.0
704.7220, 110963.0
705.8760, 110910.0
707.0290, 111174.0
708.1830, 111265.0
709.3360, 110741.0
710.4890, 111099.0
711.6420, 110943.0
712.7940, 111011.0
713.9470, 110530.0
715.0990, 110176.0
716.2510, 110985.0
717.4030, 110603.0
718.5550, 110968.0
719.7070, 111702.0
720.8590, 111266.0
722.0100, 111027.0
723.1610, 111272.0
724.3120, 111191.0
725.4630, 111339.0
726.6140, 111511.0
727.7650, 111161.0
728.9150, 110998.0
730.0650, 111497.0
731.2160, 111272.0
732.3660, 111339.0
733.5150, 111109.0
734.6650, 111483.0
735.8150, 111033.0
736.9640, 111148.2
738.1130, 111392.0
739.2620, 111349.0
740.4110, 111056.0
741.5600, 111654.0
742.7080, 111379.0
743.8570, 111129.0
745.0050, 111872.0
746.1530, 111784.0
747.3010, 112012.0
748.4490, 112104.0
749.5960, 111729.0
750.7440, 112354.0
751.8910, 112177.0
753.0380, 112203.0
754.1850, 111834.0
755.3320, 111685.0
756.4790, 112264.0
757.6250, 112360.0
758.7720, 112379.0
759.9180, 112648.0
761.0640, 112211.0
762.2100, 112474.0
763.3550, 112370.0
764.5010, 112815.0
765.6460, 112481.0
766.7920, 112703.0
767.9370, 113114.0
769.0820, 113440.0
770.2260, 113440.0
771.3710, 113377.0
772.5150, 113451.0
773.6600, 113421.0
774.8040, 113429.0
775.9480, 113040.0
777.0910, 113148.0
778.2350, 113889.0
779.3790, 113563.0
780.5220, 114112.0
781.6650, 113761.0
782.8080, 113940.0
783.9510, 113742.0
785.0940, 114590.0
786.2360, 114547.0
787.3790, 115133.0
788.5210, 114746.0
789.6630, 114043.0
790.8050, 114838.0
791.9470, 114583.0
793.0880, 114619.0
794.2300, 115112.0
795.3710, 114690.0
796.5120, 115316.0
797.6530, 115239.0
798.7940, 115726.0
799.9340, 115929.0
801.0750, 115823.0
802.2150, 115345.0
803.3550, 115926.0
804.4950, 116437.0
805.6350, 115998.0
806.7750, 116606.0
807.9140, 117110.0
809.0540, 117334.0
810.1930, 117989.0
811.3320, 118377.0
812.4710, 118597.0
813.6100, 118876.0
814.7480, 119016.0
815.8870, 118513.0
817.0250, 118193.0
818.1630, 118315.0
819.3010, 117760.0
820.4390, 118135.0
821.5760, 117825.0
822.7140, 118362.0
823.8510, 117805.0
824.9880, 118472.0
826.1250, 117895.0
827.2620, 118601.0
828.3990, 118692.0
829.5350, 118825.0
830.6710, 118628.0
831.8080, 118822.0
832.9440, 119169.0
834.0800, 119174.0
835.2150, 119179.0
836.3510, 119499.0
837.4860, 119808.5
838.6210, 120312.0
839.7560, 120654.0
840.8910, 121538.0
842.0260, 121817.0
843.1610, 122037.0
844.2950, 121863.0
845.4290, 122478.0
846.5640, 122184.0
847.6980, 122251.0
848.8310, 122245.0
849.9650, 122373.0
851.0980, 123196.0
852.2320, 122613.0
853.3650, 123061.0
854.4980, 122915.0
855.6310, 123686.0
856.7630, 123159.0
857.8960, 123721.0
859.0280, 123644.0
860.1610, 123918.0
861.2930, 123781.0
862.4240, 124408.0
863.5560, 124766.0
864.6880, 124574.0
865.8190, 125010.0
866.9500, 125082.0
868.0820, 125334.4
869.2120, 126480.0
870.3430, 125862.0
871.4740, 126556.0
872.6040, 126681.0
873.7350, 126253.0
874.8650, 127231.0
875.9950, 126556.0
877.1250, 127844.0
878.2540, 127386.0
879.3840, 128245.0
880.5130, 128733.0
881.6420, 129585.0
882.7710, 130272.0
883.9000, 130784.0
885.0290, 132280.0
886.1570, 132919.0
887.2860, 134201.0
888.4140, 135752.0
889.5420, 137766.0
890.6700, 140052.0
891.7980, 142633.0
892.9250, 145289.0
894.0530, 148777.0
895.1800, 153568.0
896.3070, 158493.0
897.4340, 164779.0
898.5610, 173620.0
899.6870, 183390.0
900.8140, 195135.0
901.9400, 207893.0
903.0660, 223509.0
904.1920, 239084.0
905.3180, 255357.0
906.4440, 270078.0
907.5690, 281041.0
908.6950, 287305.0
909.8200, 287304.0
910.9450, 281158.0
912.0700, 268106.0
913.1940, 252861.0
914.3190, 236557.0
915.4430, 221000.0
916.5680, 207381.0
917.6920, 195643.0
918.8150, 184830.0
919.9390, 175119.0
921.0630, 168278.0
922.1860, 162521.0
923.3100, 157105.0
924.4330, 153291.0
925.5560, 150100.0
926.6780, 147456.0
927.8010, 145208.0
928.9230, 143551.0
930.0460, 142386.0
931.1680, 141003.0
932.2900, 140398.0
933.4120, 139497.5
934.5330, 138704.9
935.6550, 138217.9
936.7760, 138045.4
937.8970, 137778.3
939.0180, 138664.0
940.1390, 138126.0
941.2600, 138132.0
942.3810, 137805.0
943.5010, 137864.0
944.6210, 137479.0
945.7410, 137552.0
946.8610, 136758.0
947.9810, 136995.0
949.1010, 136147.0
950.2200, 136161.0
951.3390, 135942.0
952.4580, 134947.0
953.5770, 134788.0
954.6960, 134203.0
955.8150, 134207.0
956.9330, 134213.0
958.0520, 134451.0
959.1700, 133836.0
960.2880, 133968.0
961.4050, 133406.0
962.5230, 132771.0
963.6410, 133650.0
964.7580, 132828.0
965.8750, 133222.0
966.9920, 133276.0
968.1090, 132997.0
969.2260, 133033.0
970.3420, 133034.0
971.4590, 133284.0
972.5750, 133331.0
973.6910, 133164.0
974.8070, 132904.0
975.9230, 133948.0
977.0380, 134663.0
978.1540, 134267.0
979.2690, 134791.0
980.3840, 135231.0
981.4990, 136006.0
982.6140, 137030.0
983.7280, 137440.0
984.8430, 138487.0
985.9570, 138929.0
987.0710, 140437.0
988.1850, 141303.0
989.2990, 142890.0
990.4130, 144915.0
991.5260, 146983.0
992.6400, 149102.0
993.7530, 151265.0
994.8660, 153046.0
995.9790, 154365.0
997.0910, 155781.0
998.2040, 156547.0
999.3160, 156351.0
1000.429, 156813.0
1001.541, 156106.0
1002.652, 156293.0
1003.764, 155543.0
1004.876, 154431.0
1005.987, 154258.0
1007.098, 152481.0
1008.210, 151163.0
1009.320, 150011.0
1010.431, 148520.0
1011.542, 147156.0
1012.652, 145869.0
1013.763, 144856.1
1014.873, 143863.0
1015.983, 143236.7
1017.093, 142642.0
1018.202, 142234.0
1019.312, 141582.0
1020.421, 141378.0
1021.530, 141029.0
1022.639, 140033.0
1023.748, 139695.0
1024.857, 139339.0
1025.965, 138899.0
1027.074, 138267.0
1028.182, 136963.0
1029.290, 137309.0
1030.398, 135991.0
1031.505, 136136.0
1032.613, 136322.0
1033.720, 135506.0
1034.828, 136006.0
1035.935, 135939.0
1037.042, 136436.0
1038.148, 135657.0
1039.255, 136546.0
1040.361, 135928.0
1041.468, 135946.0
1042.574, 136270.0
1043.680, 135973.0
1044.786, 136295.0
1045.891, 136059.0
1046.997, 136599.0
1048.102, 136763.0
1049.207, 136507.0
1050.312, 137179.0
1051.417, 136148.0
1052.522, 136789.0
1053.626, 136689.0
1054.730, 136528.0
1055.835, 136521.0
1056.939, 136229.0
1058.043, 136393.1
1059.146, 136965.0
1060.250, 136525.0
1061.353, 137034.0
1062.456, 136850.0
1063.559, 137163.0
1064.662, 136730.0
1065.765, 137157.0
1066.868, 136888.0
1067.970, 137711.0
1069.072, 137377.0
1070.174, 137316.0
1071.276, 137636.0
1072.378, 137436.0
1073.480, 137820.0
1074.581, 137939.0
1075.682, 138152.0
1076.784, 138509.0
1077.885, 138401.0
1078.985, 138696.9
1080.086, 138887.0
1081.187, 139054.0
1082.287, 139210.7
1083.387, 139021.0
1084.487, 139489.0
1085.587, 139443.0
1086.687, 139699.7
1087.786, 139453.0
1088.885, 139798.0
1089.985, 140019.0
1091.084, 139742.0
1092.182, 140061.0
1093.281, 140119.0
1094.380, 139872.0
1095.478, 140332.0
1096.576, 139860.0
1097.674, 140592.0
1098.772, 140172.0
1099.870, 140514.0
1100.968, 140294.0
1102.065, 140580.0
1103.162, 141307.0
1104.259, 140944.0
1105.356, 141362.0
1106.453, 141358.0
1107.550, 141441.0
1108.646, 141061.0
1109.743, 141266.0
1110.839, 141517.0
1111.935, 141397.0
1113.030, 141830.0
1114.126, 141859.0
1115.222, 141815.0
1116.317, 142065.0
1117.412, 142326.0
1118.507, 142151.0
1119.602, 142328.0
1120.697, 142479.0
1121.791, 142495.0
1122.885, 142432.0
1123.980, 142599.5
1125.074, 142658.0
1126.168, 142947.0
1127.261, 142759.0
1128.355, 143170.0
1129.448, 143310.0
1130.541, 142890.0
1131.635, 143166.0
1132.727, 143445.0
1133.820, 143223.0
1134.913, 143582.0
1136.005, 143309.0
1137.097, 143698.0
1138.190, 142954.0
1139.281, 143549.0
1140.373, 143841.0
1141.465, 143943.0
1142.556, 144565.0
1143.648, 144094.0
1144.739, 144802.0
1145.830, 144635.0
1146.921, 143943.0
1148.011, 144375.0
1149.102, 144035.0
1150.192, 144836.0
1151.282, 144669.0
1152.372, 145165.0
1153.462, 145534.0
1154.552, 145053.0
1155.641, 145290.0
1156.731, 145223.0
1157.820, 145517.0
1158.909, 145695.0
1159.998, 145310.0
1161.086, 146205.0
1162.175, 145775.0
1163.263, 145844.0
1164.351, 145926.0
1165.440, 146420.0
1166.527, 146037.0
1167.615, 146701.0
1168.703, 147070.0
1169.790, 146685.0
1170.877, 146703.0
1171.965, 147299.0
1173.051, 146866.0
1174.138, 146740.0
1175.225, 147491.0
1176.311, 147656.0
1177.398, 147766.0
1178.484, 147269.0
1179.570, 147712.0
1180.655, 147641.0
1181.741, 148101.0
1182.827, 147937.0
1183.912, 148066.0
1184.997, 147943.0
1186.082, 147661.0
1187.167, 147914.8
1188.251, 148337.0
1189.336, 148205.0
1190.420, 148555.0
1191.505, 148658.0
1192.589, 148597.0
1193.672, 148111.0
1194.756, 148902.0
1195.840, 148665.0
1196.923, 149413.0
1198.006, 149207.0
1199.089, 148587.0
1200.172, 149400.0
1201.255, 148648.0
1202.337, 149486.0
1203.420, 149084.0
1204.502, 148988.0
1205.584, 149932.0
1206.666, 149298.0
1207.748, 149809.0
1208.829, 149187.0
1209.911, 149562.0
1210.992, 150063.0
1212.073, 149824.0
1213.154, 150359.0
1214.235, 150274.2
1215.316, 150657.0
1216.396, 150652.0
1217.476, 150644.0
1218.556, 150848.4
1219.636, 150508.0
1220.716, 151197.0
1221.796, 150779.0
1222.875, 151225.0
1223.955, 151693.0
1225.034, 151637.0
1226.113, 152180.0
1227.192, 152289.7
1228.270, 151740.0
1229.349, 152456.0
1230.427, 152540.0
1231.505, 152210.0
1232.583, 151892.0
1233.661, 151950.0
1234.739, 152491.0
1235.817, 152641.0
1236.894, 152855.5
1237.971, 153100.8
1239.048, 153237.0
1240.125, 153216.0
1241.202, 153394.0
1242.278, 153054.0
1243.355, 153538.0
1244.431, 154007.0
1245.507, 153440.0
1246.583, 154131.0
