##NAMES=Hardystonite
##RRUFFID=R040026
##IDEAL CHEMISTRY=Ca_2_Zn^2+^Si_2_O_7_
##LOCALITY=Franklin, Sussex County, New Jersey, USA
##OWNER=RRUFF
##SOURCE=University of Arizona Mineral Museum
##DESCRIPTION=White massive
##STATUS=The identification of this mineral has been confirmed by X-ray diffraction and chemical analysis
##URL=rruff.info/R040026
##MEASURED CHEMISTRY=(Ca_1.98_Mn_0.02_)_Σ=2_(Zn_0.99_Al_0.01_)_Σ=1_(Si_1.99_Al_0.01_)_Σ=2_O_7_
##PIN_ID=M00254
##ORIENTATION=Laser parallel to (-1 1 0). Fiducial mark perpendicular to laser is parallel to -c [0 0 -1]
65.23800, 3220.000
66.47400, 3605.000
67.71000, 4266.000
68.94600, 5092.000
70.18200, 5939.000
71.41700, 7126.000
72.65300, 8602.000
73.88800, 10055.00
75.12300, 11913.00
76.35800, 13851.00
77.59300, 16046.00
78.82700, 18537.00
80.06200, 21019.00
81.29600, 23835.00
82.53000, 26445.00
83.76400, 29199.00
84.99800, 31890.00
86.23200, 34473.00
87.46500, 36681.00
88.69900, 38881.00
89.93200, 41427.00
91.16500, 43140.00
92.39800, 45225.00
93.63100, 47514.00
94.86300, 48653.00
96.09600, 50245.00
97.32800, 51627.00
98.56000, 52792.00
99.79200, 53758.00
101.0240, 55008.00
102.2560, 55997.00
103.4880, 56862.00
104.7190, 57731.00
105.9500, 58297.00
107.1810, 59112.00
108.4120, 59610.00
109.6430, 60129.00
110.8740, 60342.00
112.1050, 60608.00
113.3350, 61254.00
114.5650, 61396.00
115.7950, 61800.00
117.0250, 62468.00
118.2550, 62894.00
119.4850, 63072.00
120.7140, 63095.00
121.9430, 63207.06
123.1730, 63172.58
124.4020, 63092.00
125.6310, 63157.00
126.8590, 63017.00
128.0880, 63228.00
129.3160, 63768.00
130.5450, 63579.00
131.7730, 64154.00
133.0010, 64638.00
134.2290, 65034.00
135.4560, 65184.00
136.6840, 65540.00
137.9110, 65965.65
139.1380, 66298.00
140.3650, 66902.00
141.5920, 67446.00
142.8190, 67979.00
144.0460, 68420.00
145.2720, 68551.00
146.4990, 69240.00
147.7250, 69084.00
148.9510, 69736.00
150.1770, 69543.00
151.4020, 69536.00
152.6280, 69737.00
153.8530, 69579.00
155.0790, 69591.00
156.3040, 69380.00
157.5290, 69741.00
158.7530, 69683.00
159.9780, 69986.00
161.2030, 69799.00
162.4270, 70599.00
163.6510, 69810.00
164.8750, 70437.00
166.0990, 70548.00
167.3230, 70551.00
168.5470, 70794.00
169.7700, 70705.00
170.9930, 70873.00
172.2160, 71409.00
173.4390, 71373.00
174.6620, 71686.00
175.8850, 71896.00
177.1080, 72333.00
178.3300, 72340.00
179.5520, 72819.00
180.7740, 72576.00
181.9960, 73019.00
183.2180, 73244.00
184.4400, 73031.00
185.6610, 73340.00
186.8820, 73129.00
188.1040, 72664.00
189.3250, 72730.00
190.5450, 72861.00
191.7660, 72402.00
192.9870, 72545.00
194.2070, 72334.00
195.4270, 72325.00
196.6480, 72403.00
197.8680, 72861.00
199.0870, 72218.00
200.3070, 72484.00
201.5270, 72165.00
202.7460, 72151.00
203.9650, 72385.00
205.1840, 71444.00
206.4030, 71629.00
207.6220, 71359.00
208.8400, 71258.00
210.0590, 71042.00
211.2770, 71006.00
212.4950, 71147.00
213.7130, 71210.00
214.9310, 71244.00
216.1490, 71265.00
217.3660, 71311.88
218.5840, 71457.00
219.8010, 71400.00
221.0180, 71566.00
222.2350, 71664.00
223.4520, 72160.00
224.6680, 72050.00
225.8850, 72334.00
227.1010, 72593.00
228.3170, 72252.00
229.5330, 72781.00
230.7490, 73097.00
231.9650, 73128.00
233.1810, 73596.00
234.3960, 73732.00
235.6110, 73976.00
236.8260, 74498.00
238.0410, 74782.00
239.2560, 75044.00
240.4710, 75755.00
241.6850, 75907.00
242.9000, 75934.00
244.1140, 76270.00
245.3280, 77175.00
246.5420, 76783.00
247.7550, 77752.00
248.9690, 77878.00
250.1820, 78180.00
251.3960, 78350.00
252.6090, 78948.00
253.8220, 79101.95
255.0350, 79159.00
256.2470, 79603.00
257.4600, 79433.00
258.6720, 79579.00
259.8840, 80122.00
261.0960, 80812.00
262.3080, 81517.00
263.5200, 81128.00
264.7320, 82103.00
265.9430, 82597.00
267.1540, 83281.00
268.3650, 84231.00
269.5760, 84650.00
270.7870, 85304.00
271.9980, 86261.00
273.2080, 86882.00
274.4190, 87717.00
275.6290, 88868.00
276.8390, 89537.00
278.0490, 90335.00
279.2590, 90598.00
280.4680, 91370.00
281.6780, 91369.00
282.8870, 91814.00
284.0960, 91535.00
285.3050, 90987.00
286.5140, 90617.00
287.7230, 90192.00
288.9310, 89642.00
290.1400, 89227.00
291.3480, 88791.00
292.5560, 88381.00
293.7640, 88296.00
294.9720, 87861.00
296.1790, 87547.00
297.3870, 87130.00
298.5940, 87779.00
299.8010, 87682.00
301.0080, 87934.00
302.2150, 88086.00
303.4220, 88367.00
304.6290, 89388.00
305.8350, 89761.00
307.0410, 90463.00
308.2470, 91043.00
309.4530, 91571.00
310.6590, 92922.00
311.8650, 93354.00
313.0700, 94147.00
314.2750, 94842.00
315.4810, 95117.00
316.6860, 94890.00
317.8900, 94843.00
319.0950, 94230.89
320.3000, 93198.00
321.5040, 92404.00
322.7080, 90991.00
323.9120, 89372.00
325.1160, 88201.00
326.3200, 87234.00
327.5240, 85975.00
328.7270, 85307.00
329.9310, 84497.00
331.1340, 83517.00
332.3370, 83064.00
333.5400, 82571.00
334.7420, 81923.00
335.9450, 81320.00
337.1470, 81255.00
338.3500, 80395.00
339.5520, 80344.00
340.7540, 79855.00
341.9550, 79632.00
343.1570, 79425.00
344.3590, 79190.00
345.5600, 78557.00
346.7610, 78145.00
347.9620, 78249.00
349.1630, 77670.00
350.3640, 77950.00
351.5640, 77677.00
352.7650, 77211.00
353.9650, 76991.00
355.1650, 77210.00
356.3650, 77437.00
357.5650, 77192.00
358.7640, 77174.00
359.9640, 77096.00
361.1630, 77026.00
362.3620, 76795.00
363.5610, 76818.00
364.7600, 76971.00
365.9590, 76778.00
367.1580, 77021.00
368.3560, 77106.00
369.5540, 76809.00
370.7520, 77064.00
371.9500, 77064.00
373.1480, 76824.00
374.3460, 77266.00
375.5430, 77051.00
376.7410, 76808.00
377.9380, 76783.00
379.1350, 76918.00
380.3320, 76969.00
381.5280, 76868.00
382.7250, 77243.00
383.9210, 77560.00
385.1180, 77109.00
386.3140, 77017.00
387.5100, 77369.00
388.7050, 77501.00
389.9010, 77533.00
391.0960, 77398.00
392.2920, 77415.00
393.4870, 77530.02
394.6820, 77549.00
395.8770, 77714.00
397.0720, 77728.37
398.2660, 77752.00
399.4610, 77773.00
400.6550, 77822.00
401.8490, 77787.48
403.0430, 77881.69
404.2370, 77820.00
405.4300, 78049.00
406.6240, 78053.00
407.8170, 78153.00
409.0100, 78022.00
410.2030, 78106.00
411.3960, 78045.00
412.5890, 78555.00
413.7810, 78568.00
414.9740, 78605.00
416.1660, 78257.00
417.3580, 78481.00
418.5500, 78608.00
419.7420, 78185.00
420.9330, 78400.00
422.1250, 78563.00
423.3160, 78877.00
424.5070, 78969.00
425.6980, 78845.00
426.8890, 79005.00
428.0800, 78683.00
429.2700, 79247.00
430.4610, 79337.00
431.6510, 79768.00
432.8410, 79547.00
434.0310, 80225.00
435.2210, 80065.00
436.4100, 80023.00
437.6000, 80299.00
438.7890, 80373.00
439.9780, 80524.00
441.1670, 80702.00
442.3560, 81056.00
443.5450, 81247.00
444.7330, 81442.70
445.9210, 81440.00
447.1100, 81860.00
448.2980, 81906.00
449.4860, 82252.00
450.6730, 82801.00
451.8610, 83021.00
453.0480, 82699.00
454.2360, 83036.00
455.4230, 83468.00
456.6100, 83284.00
457.7970, 83939.00
458.9830, 84052.00
460.1700, 83462.00
461.3560, 83525.00
462.5420, 84294.00
463.7280, 84326.00
464.9140, 84483.00
466.1000, 84980.00
467.2850, 84913.00
468.4710, 85413.00
469.6560, 85848.00
470.8410, 85686.00
472.0260, 86483.00
473.2110, 86770.00
474.3960, 87323.00
475.5800, 87783.00
476.7640, 87813.00
477.9490, 88091.00
479.1330, 88401.00
480.3160, 88546.00
481.5000, 88613.00
482.6840, 88784.00
483.8670, 88701.00
485.0500, 88652.00
486.2330, 88509.00
487.4160, 88388.20
488.5990, 88270.00
489.7820, 88057.00
490.9640, 87869.00
492.1470, 87647.75
493.3290, 87428.37
494.5110, 87221.00
495.6930, 87011.00
496.8740, 86690.00
498.0560, 86553.00
499.2370, 86296.00
500.4180, 86210.00
501.5990, 86116.00
502.7800, 86212.00
503.9610, 85872.00
505.1420, 85894.00
506.3220, 85262.00
507.5020, 85864.00
508.6820, 85206.00
509.8620, 85595.00
511.0420, 85075.00
512.2220, 85552.00
513.4010, 85135.00
514.5810, 84932.00
515.7600, 85474.00
516.9390, 85323.00
518.1180, 85446.00
519.2970, 85288.00
520.4750, 85261.00
521.6540, 85261.00
522.8320, 85656.00
524.0100, 85545.00
525.1880, 85679.13
526.3660, 86072.00
527.5430, 85744.00
528.7210, 86025.00
529.8980, 86021.00
531.0750, 86325.00
532.2520, 85978.00
533.4290, 86665.00
534.6060, 85954.00
535.7820, 86549.00
536.9590, 86569.00
538.1350, 86615.00
539.3110, 86770.00
540.4870, 86641.00
541.6630, 87238.00
542.8380, 87331.00
544.0140, 87545.00
545.1890, 87579.00
546.3640, 88149.00
547.5390, 88387.00
548.7140, 88016.00
549.8890, 88273.00
551.0630, 88051.00
552.2380, 88438.00
553.4120, 88875.00
554.5860, 88401.00
555.7600, 88582.00
556.9330, 88348.00
558.1070, 88084.00
559.2800, 88370.00
560.4540, 88212.00
561.6270, 87841.00
562.8000, 88305.00
563.9730, 88155.00
565.1450, 88066.00
566.3180, 88350.00
567.4900, 88258.32
568.6620, 88410.00
569.8340, 88413.00
571.0060, 88405.00
572.1780, 88523.00
573.3490, 88969.00
574.5210, 88823.00
575.6920, 88950.00
576.8630, 88862.00
578.0340, 88825.00
579.2050, 88939.00
580.3750, 88818.00
581.5460, 89283.00
582.7160, 89878.00
583.8860, 89650.00
585.0560, 89801.00
586.2260, 90849.00
587.3960, 90866.00
588.5650, 90749.00
589.7340, 91258.00
590.9040, 91574.00
592.0730, 92237.00
593.2410, 92197.00
594.4100, 93057.00
595.5790, 93482.00
596.7470, 93598.00
597.9150, 93943.00
599.0840, 94412.00
600.2510, 94958.00
601.4190, 95981.00
602.5870, 97101.00
603.7540, 98810.03
604.9220, 100684.2
606.0890, 103016.0
607.2560, 105488.0
608.4230, 108112.0
609.5890, 111327.0
610.7560, 114961.0
611.9220, 118316.0
613.0880, 121309.0
614.2540, 123499.0
615.4200, 124697.0
616.5860, 124056.0
617.7520, 122540.0
618.9170, 120433.0
620.0820, 117572.0
621.2480, 114970.0
622.4120, 112792.0
623.5770, 110155.0
624.7420, 108160.0
625.9060, 106559.0
627.0710, 104859.0
628.2350, 104273.0
629.3990, 103042.0
630.5630, 102052.0
631.7260, 101154.0
632.8900, 101110.0
634.0530, 100237.0
635.2170, 99327.00
636.3800, 99363.00
637.5430, 98744.00
638.7050, 99008.00
639.8680, 98925.00
641.0300, 99166.00
642.1930, 99279.00
643.3550, 99912.00
644.5170, 100260.0
645.6790, 101134.0
646.8400, 102096.0
648.0020, 103263.0
649.1630, 104961.0
650.3240, 106819.0
651.4850, 108960.0
652.6460, 111944.0
653.8070, 115937.0
654.9670, 120085.0
656.1280, 125007.0
657.2880, 131338.0
658.4480, 138667.0
659.6080, 145136.0
660.7680, 151345.0
661.9270, 157527.0
663.0870, 161146.0
664.2460, 162578.0
665.4050, 161997.0
666.5640, 158362.0
667.7230, 153931.0
668.8820, 147501.0
670.0400, 143018.0
671.1990, 137190.0
672.3570, 132181.0
673.5150, 127626.0
674.6730, 124089.0
675.8310, 120324.0
676.9880, 117386.0
678.1450, 114757.0
679.3030, 112401.0
680.4600, 109910.0
681.6170, 108174.0
682.7740, 106466.0
683.9300, 105283.0
685.0870, 103481.0
686.2430, 102700.0
687.3990, 101228.0
688.5550, 100694.0
689.7110, 100529.0
690.8670, 99533.00
692.0220, 99339.00
693.1770, 98197.00
694.3330, 98571.00
695.4880, 98039.00
696.6430, 97890.00
697.7970, 97630.00
698.9520, 97758.00
700.1060, 97896.00
701.2600, 97707.00
702.4150, 97148.00
703.5690, 97258.00
704.7220, 97343.00
705.8760, 97332.00
707.0290, 97610.00
708.1830, 97436.00
709.3360, 97095.00
710.4890, 97297.00
711.6420, 97252.00
712.7940, 97626.00
713.9470, 97434.00
715.0990, 97835.00
716.2510, 97740.66
717.4030, 97629.00
718.5550, 97688.00
719.7070, 97589.00
720.8590, 97665.00
722.0100, 97687.00
723.1610, 97784.01
724.3120, 97822.00
725.4630, 97908.98
726.6140, 97973.00
727.7650, 98148.00
728.9150, 98183.00
730.0650, 98429.00
731.2160, 98724.00
732.3660, 97955.00
733.5150, 98509.00
734.6650, 98351.00
735.8150, 98612.00
736.9640, 98249.00
738.1130, 98412.84
739.2620, 98816.00
740.4110, 98376.00
741.5600, 98671.00
742.7080, 98335.00
743.8570, 99451.00
745.0050, 99357.00
746.1530, 99249.00
747.3010, 98674.00
748.4490, 99020.00
749.5960, 98968.00
750.7440, 99467.00
751.8910, 99139.00
753.0380, 99124.00
754.1850, 99580.00
755.3320, 99695.00
756.4790, 100167.0
757.6250, 99595.00
758.7720, 100045.0
759.9180, 99903.00
761.0640, 100060.0
762.2100, 100054.0
763.3550, 100059.0
764.5010, 100557.0
765.6460, 100269.0
766.7920, 100806.0
767.9370, 100727.0
769.0820, 100615.0
770.2260, 100794.0
771.3710, 100927.0
772.5150, 101183.0
773.6600, 101044.0
774.8040, 101382.0
775.9480, 101206.0
777.0910, 101724.0
778.2350, 101419.0
779.3790, 101808.0
780.5220, 102016.0
781.6650, 101683.0
782.8080, 102383.0
783.9510, 102081.0
785.0940, 101954.0
786.2360, 102385.0
787.3790, 102334.0
788.5210, 102762.0
789.6630, 103344.0
790.8050, 102623.0
791.9470, 102834.0
793.0880, 102975.0
794.2300, 103378.0
795.3710, 103078.0
796.5120, 103706.0
797.6530, 103390.0
798.7940, 103341.0
799.9340, 103860.0
801.0750, 104145.0
802.2150, 104035.0
803.3550, 104257.0
804.4950, 104132.0
805.6350, 104333.0
806.7750, 104560.0
807.9140, 104657.0
809.0540, 105071.0
810.1930, 104848.0
811.3320, 104908.0
812.4710, 105717.0
813.6100, 105438.0
814.7480, 105628.0
815.8870, 105419.0
817.0250, 105927.0
818.1630, 105479.0
819.3010, 106044.0
820.4390, 106263.0
821.5760, 106533.0
822.7140, 106825.0
823.8510, 106308.0
824.9880, 106664.0
826.1250, 106706.0
827.2620, 107017.0
828.3990, 107386.0
829.5350, 107386.0
830.6710, 107643.0
831.8080, 107832.1
832.9440, 107965.0
834.0800, 108227.0
835.2150, 108357.0
836.3510, 108602.0
837.4860, 108882.0
838.6210, 108896.0
839.7560, 109113.0
840.8910, 109483.0
842.0260, 109423.0
843.1610, 109690.0
844.2950, 110002.0
845.4290, 109871.0
846.5640, 110254.0
847.6980, 110424.0
848.8310, 110639.5
849.9650, 110344.0
851.0980, 111323.0
852.2320, 110866.0
853.3650, 111380.0
854.4980, 111485.0
855.6310, 111952.0
856.7630, 112250.0
857.8960, 112104.0
859.0280, 112549.0
860.1610, 112616.0
861.2930, 112796.0
862.4240, 112704.0
863.5560, 112796.0
864.6880, 113164.0
865.8190, 113132.0
866.9500, 113373.0
868.0820, 113082.0
869.2120, 113900.0
870.3430, 113657.0
871.4740, 113985.0
872.6040, 114159.0
873.7350, 114439.0
874.8650, 115207.0
875.9950, 115262.0
877.1250, 115494.0
878.2540, 116235.0
879.3840, 116476.0
880.5130, 116974.0
881.6420, 117170.0
882.7710, 118312.0
883.9000, 118815.0
885.0290, 119803.0
886.1570, 120172.0
887.2860, 121768.0
888.4140, 122997.0
889.5420, 124001.0
890.6700, 125693.0
891.7980, 127860.0
892.9250, 130199.0
894.0530, 132747.0
895.1800, 136206.0
896.3070, 139843.0
897.4340, 145146.0
898.5610, 151033.0
899.6870, 157830.0
900.8140, 166045.0
901.9400, 175358.0
903.0660, 185579.0
904.1920, 196764.0
905.3180, 207242.0
906.4440, 216644.0
907.5690, 223122.0
908.6950, 226588.0
909.8200, 225276.0
910.9450, 220034.0
912.0700, 212349.0
913.1940, 201531.0
914.3190, 191434.0
915.4430, 180493.0
916.5680, 172102.0
917.6920, 163398.0
918.8150, 156474.0
919.9390, 150543.0
921.0630, 145489.0
922.1860, 142105.0
923.3100, 138390.0
924.4330, 135473.0
925.5560, 133687.0
926.6780, 131921.0
927.8010, 130866.0
928.9230, 128521.0
930.0460, 128050.0
931.1680, 127078.0
932.2900, 126944.0
933.4120, 126018.0
934.5330, 125592.0
935.6550, 125423.0
936.7760, 125707.0
937.8970, 125447.0
939.0180, 125292.0
940.1390, 125642.0
941.2600, 125346.0
942.3810, 125775.0
943.5010, 125499.4
944.6210, 126040.0
945.7410, 125247.0
946.8610, 125005.0
947.9810, 125279.0
949.1010, 125019.0
950.2200, 124930.0
951.3390, 124903.0
952.4580, 124897.0
953.5770, 124772.0
954.6960, 123909.0
955.8150, 124103.0
956.9330, 123809.0
958.0520, 123718.0
959.1700, 123891.0
960.2880, 124176.0
961.4050, 124343.0
962.5230, 123969.0
963.6410, 124052.0
964.7580, 124209.0
965.8750, 123961.0
966.9920, 124148.0
968.1090, 124070.0
969.2260, 124412.0
970.3420, 124460.0
971.4590, 124249.0
972.5750, 124022.0
973.6910, 124253.0
974.8070, 124431.0
975.9230, 124335.0
977.0380, 124547.0
978.1540, 124548.0
979.2690, 124658.0
980.3840, 125000.0
981.4990, 125652.0
982.6140, 125646.0
983.7280, 125810.0
984.8430, 126699.0
985.9570, 126862.5
987.0710, 127698.0
988.1850, 127969.0
989.2990, 128503.0
990.4130, 129338.0
991.5260, 130173.0
992.6400, 131357.0
993.7530, 132444.8
994.8660, 133329.9
995.9790, 133866.2
997.0910, 134313.9
998.2040, 134675.9
999.3160, 134976.5
1000.429, 135147.9
1001.541, 135330.5
1002.652, 135461.3
1003.764, 135443.0
1004.876, 135595.2
1005.987, 135067.0
1007.098, 134865.0
1008.210, 134313.0
1009.320, 133984.0
1010.431, 133049.0
1011.542, 132776.0
1012.652, 132335.0
1013.763, 132264.0
1014.873, 131495.0
1015.983, 130900.0
1017.093, 131121.0
1018.202, 131130.0
1019.312, 131269.0
1020.421, 131431.0
1021.530, 131518.0
1022.639, 131442.0
1023.748, 131387.0
1024.857, 131120.0
1025.965, 130862.0
1027.074, 130702.0
1028.182, 130900.0
1029.290, 130842.0
1030.398, 130283.0
1031.505, 130632.0
1032.613, 130395.0
1033.720, 130128.0
1034.828, 130716.0
1035.935, 130380.0
1037.042, 130142.0
1038.148, 131105.0
1039.255, 131044.0
1040.361, 131028.0
1041.468, 131291.0
1042.574, 131499.0
1043.680, 130925.0
1044.786, 131314.0
1045.891, 131098.0
1046.997, 131727.0
1048.102, 132158.0
1049.207, 131821.0
1050.312, 132118.0
1051.417, 132209.0
1052.522, 132176.0
1053.626, 132254.0
1054.730, 132132.0
1055.835, 132659.0
1056.939, 132356.0
1058.043, 132377.0
1059.146, 132995.0
1060.250, 132847.0
1061.353, 133042.0
1062.456, 132937.0
1063.559, 133032.8
1064.662, 133105.8
1065.765, 133183.0
1066.868, 133258.0
1067.970, 133283.0
1069.072, 133382.0
1070.174, 133066.0
1071.276, 133755.0
1072.378, 133686.0
1073.480, 134234.0
1074.581, 134428.0
1075.682, 133785.0
1076.784, 134265.0
1077.885, 134018.0
1078.985, 134447.0
1080.086, 134689.0
1081.187, 134937.0
1082.287, 135248.0
1083.387, 135043.0
1084.487, 135377.0
1085.587, 135477.0
1086.687, 135443.0
1087.786, 136068.0
1088.885, 135316.0
1089.985, 135921.0
1091.084, 136177.0
1092.182, 136443.0
1093.281, 136567.0
1094.380, 136733.0
1095.478, 136790.0
1096.576, 137032.0
1097.674, 136954.0
1098.772, 137373.0
1099.870, 136975.0
1100.968, 137970.0
1102.065, 137153.0
1103.162, 138114.0
1104.259, 138113.0
1105.356, 138270.0
1106.453, 138556.0
1107.550, 138490.0
1108.646, 138263.0
1109.743, 138583.0
1110.839, 138583.0
1111.935, 138570.0
1113.030, 138718.0
1114.126, 139158.0
1115.222, 139226.0
1116.317, 139270.0
1117.412, 139293.0
1118.507, 139381.0
1119.602, 139823.0
1120.697, 140241.0
1121.791, 140078.0
1122.885, 140435.0
1123.980, 140410.0
1125.074, 141013.0
1126.168, 140600.0
1127.261, 140801.0
1128.355, 140674.0
1129.448, 140807.0
1130.541, 140442.0
1131.635, 140600.5
1132.727, 141018.0
1133.820, 140802.0
1134.913, 140973.0
1136.005, 141239.0
1137.097, 141528.0
1138.190, 141131.0
1139.281, 141770.0
1140.373, 141539.0
1141.465, 141138.0
1142.556, 141759.0
1143.648, 141627.0
1144.739, 142354.0
1145.830, 142771.0
1146.921, 142094.0
1148.011, 142514.0
1149.102, 142039.0
1150.192, 143086.0
1151.282, 142504.0
1152.372, 142709.0
1153.462, 143254.0
1154.552, 143014.0
1155.641, 143541.0
1156.731, 143633.0
1157.820, 143602.0
1158.909, 144180.0
1159.998, 143930.0
1161.086, 144545.0
1162.175, 143760.0
1163.263, 144457.0
1164.351, 144306.0
1165.440, 144525.0
1166.527, 145547.0
1167.615, 144899.0
1168.703, 145370.0
1169.790, 145742.0
1170.877, 145712.0
1171.965, 146145.0
1173.051, 145833.0
1174.138, 146580.0
1175.225, 146032.0
1176.311, 146282.0
1177.398, 146653.0
1178.484, 146695.0
1179.570, 146635.0
1180.655, 146723.0
1181.741, 147463.0
1182.827, 147810.0
1183.912, 147329.0
1184.997, 147035.0
1186.082, 147474.0
1187.167, 147713.0
1188.251, 147094.0
1189.336, 147375.0
1190.420, 147544.0
1191.505, 148072.0
1192.589, 148480.0
1193.672, 148049.0
1194.756, 147845.0
1195.840, 148308.0
1196.923, 147694.0
1198.006, 148286.0
1199.089, 148258.0
1200.172, 147948.0
1201.255, 148465.0
1202.337, 148627.0
1203.420, 148711.0
1204.502, 149090.0
1205.584, 149301.0
1206.666, 149283.0
1207.748, 149035.0
1208.829, 149692.0
1209.911, 149599.0
1210.992, 150112.0
1212.073, 150139.7
1213.154, 150136.0
1214.235, 150251.0
1215.316, 150432.0
1216.396, 150666.0
1217.476, 150733.0
1218.556, 151016.9
1219.636, 150722.0
1220.716, 151349.0
1221.796, 151070.0
1222.875, 150849.0
1223.955, 152315.0
1225.034, 151548.0
1226.113, 152014.0
1227.192, 151495.0
1228.270, 151781.0
1229.349, 152539.0
1230.427, 152040.0
1231.505, 152963.0
1232.583, 152722.0
1233.661, 153014.0
1234.739, 153638.0
1235.817, 153026.0
1236.894, 153726.0
1237.971, 153303.0
1239.048, 154249.0
1240.125, 154350.0
1241.202, 153862.0
1242.278, 154490.0
1243.355, 154265.0
1244.431, 154378.0
1245.507, 154815.0
1246.583, 154448.0
