##NAMES=Hardystonite
##RRUFFID=R040026
##IDEAL CHEMISTRY=Ca_2_Zn^2+^Si_2_O_7_
##LOCALITY=Franklin, Sussex County, New Jersey, USA
##OWNER=RRUFF
##SOURCE=University of Arizona Mineral Museum
##DESCRIPTION=White massive
##STATUS=The identification of this mineral has been confirmed by X-ray diffraction and chemical analysis
##URL=rruff.info/R040026
##MEASURED CHEMISTRY=(Ca_1.98_Mn_0.02_)_Σ=2_(Zn_0.99_Al_0.01_)_Σ=1_(Si_1.99_Al_0.01_)_Σ=2_O_7_
##PIN_ID=M01345
##ORIENTATION=Laser parallel to -a* (-1 0 0). Fiducial mark perpendicular to laser is parallel to -c [0 0 -1]
64.81800, 2351.000
66.05300, 2812.000
67.28900, 3248.000
68.52400, 3776.000
69.76000, 4537.000
70.99500, 5240.000
72.23000, 6220.000
73.46500, 7437.000
74.70000, 8627.000
75.93400, 10181.00
77.16900, 12030.00
78.40300, 14054.00
79.63700, 15700.00
80.87100, 17235.00
82.10500, 19083.00
83.33900, 20786.00
84.57300, 22845.00
85.80600, 24518.00
87.04000, 26574.00
88.27300, 28801.00
89.50600, 30733.00
90.73900, 32848.00
91.97200, 34963.00
93.20400, 36938.00
94.43700, 38258.00
95.66900, 39604.00
96.90100, 40159.00
98.13300, 40622.00
99.36500, 41016.00
100.5970, 40817.00
101.8290, 40360.00
103.0600, 40069.00
104.2920, 39539.00
105.5230, 39169.00
106.7540, 38757.00
107.9850, 38419.00
109.2160, 37638.00
110.4460, 36940.00
111.6770, 36840.00
112.9070, 36778.00
114.1370, 36631.00
115.3670, 36933.00
116.5970, 37499.00
117.8270, 37965.00
119.0570, 37681.00
120.2860, 37651.00
121.5150, 38624.00
122.7450, 39018.00
123.9740, 37173.00
125.2030, 36372.00
126.4310, 35341.00
127.6600, 35119.00
128.8890, 34944.00
130.1170, 35276.00
131.3450, 35157.00
132.5730, 35615.00
133.8010, 35394.00
135.0290, 35779.00
136.2560, 36263.00
137.4840, 35967.00
138.7110, 35994.00
139.9380, 36260.00
141.1650, 36501.00
142.3920, 36510.00
143.6190, 36769.00
144.8460, 36973.00
146.0720, 36834.00
147.2980, 36892.00
148.5250, 36865.00
149.7510, 37041.00
150.9770, 37003.00
152.2020, 36973.84
153.4280, 36971.00
154.6530, 36891.00
155.8790, 36758.00
157.1040, 36819.00
158.3290, 37064.00
159.5540, 36790.00
160.7780, 37001.00
162.0030, 36937.00
163.2270, 36886.00
164.4520, 37190.00
165.6760, 37026.00
166.9000, 37053.00
168.1240, 37042.00
169.3470, 37077.32
170.5710, 37306.00
171.7940, 37184.00
173.0180, 37335.00
174.2410, 37254.00
175.4640, 37513.00
176.6870, 37551.00
177.9090, 37589.00
179.1320, 37291.00
180.3540, 37507.00
181.5760, 37454.00
182.7990, 37493.36
184.0210, 37590.00
185.2420, 37701.00
186.4640, 37824.00
187.6860, 37995.00
188.9070, 37996.00
190.1280, 38106.00
191.3490, 38040.00
192.5700, 38336.00
193.7910, 38620.00
195.0120, 38284.00
196.2320, 38654.00
197.4520, 38393.00
198.6730, 38744.00
199.8930, 38883.00
201.1130, 39153.00
202.3320, 39245.00
203.5520, 39306.00
204.7720, 39448.00
205.9910, 39658.00
207.2100, 40025.00
208.4290, 40185.00
209.6480, 40358.38
210.8670, 40782.00
212.0850, 40684.00
213.3040, 40959.00
214.5220, 41298.00
215.7400, 41804.00
216.9580, 41715.00
218.1760, 42273.00
219.3940, 42545.00
220.6110, 42188.00
221.8290, 42491.00
223.0460, 42283.00
224.2630, 43045.00
225.4800, 42888.00
226.6970, 43019.00
227.9140, 43128.00
229.1300, 43225.00
230.3470, 43316.14
231.5630, 43446.19
232.7790, 43520.00
233.9950, 43607.00
235.2110, 43816.00
236.4260, 43699.00
237.6420, 43947.00
238.8570, 44125.00
240.0730, 44478.00
241.2880, 44376.00
242.5030, 44627.00
243.7170, 45050.00
244.9320, 45003.00
246.1460, 45057.00
247.3610, 44922.00
248.5750, 45107.00
249.7890, 44891.00
251.0030, 44903.00
252.2170, 45097.00
253.4300, 44969.00
254.6440, 45048.00
255.8570, 45101.00
257.0700, 45189.00
258.2830, 45322.00
259.4960, 45334.17
260.7090, 45424.87
261.9210, 45392.00
263.1330, 45525.00
264.3460, 45554.00
265.5580, 45578.00
266.7700, 45734.00
267.9820, 45716.27
269.1930, 45902.00
270.4050, 45782.00
271.6160, 45936.00
272.8270, 46017.00
274.0380, 46064.00
275.2490, 46011.00
276.4600, 46154.00
277.6710, 45912.00
278.8810, 45910.00
280.0920, 45767.00
281.3020, 45758.00
282.5120, 45793.00
283.7220, 45873.00
284.9310, 45745.61
286.1410, 45680.00
287.3500, 45528.00
288.5600, 45487.00
289.7690, 45418.00
290.9780, 45447.00
292.1870, 45388.00
293.3950, 45370.00
294.6040, 45349.61
295.8120, 45180.00
297.0200, 45283.00
298.2280, 45348.00
299.4360, 45307.00
300.6440, 45169.00
301.8520, 45311.00
303.0590, 45359.00
304.2670, 45782.00
305.4740, 45898.00
306.6810, 45860.00
307.8880, 45841.00
309.0950, 46244.00
310.3010, 46258.00
311.5080, 46216.00
312.7140, 46705.00
313.9200, 46569.00
315.1260, 46152.00
316.3320, 46394.00
317.5380, 46385.00
318.7430, 46468.00
319.9480, 46614.00
321.1540, 45875.00
322.3590, 45990.00
323.5640, 45910.00
324.7680, 45875.00
325.9730, 45868.00
327.1780, 45659.00
328.3820, 45685.00
329.5860, 45773.00
330.7900, 45638.00
331.9940, 45722.00
333.1980, 45688.00
334.4010, 45738.00
335.6050, 45775.00
336.8080, 45784.00
338.0110, 45689.00
339.2140, 45447.00
340.4170, 45496.00
341.6200, 45839.00
342.8220, 45564.00
344.0250, 45683.00
345.2270, 46001.00
346.4290, 45810.00
347.6310, 45955.00
348.8330, 46143.00
350.0340, 46094.00
351.2360, 46043.00
352.4370, 46280.00
353.6380, 46191.00
354.8390, 46126.00
356.0400, 46454.00
357.2410, 46519.00
358.4410, 46581.00
359.6420, 46819.00
360.8420, 46298.00
362.0420, 46497.00
363.2420, 46591.00
364.4420, 46914.00
365.6420, 46858.00
366.8410, 46903.00
368.0410, 46828.00
369.2400, 46776.00
370.4390, 47164.00
371.6380, 47251.00
372.8360, 47183.00
374.0350, 47247.00
375.2330, 47169.00
376.4320, 47368.00
377.6300, 47362.10
378.8280, 47468.00
380.0260, 47486.00
381.2230, 47508.00
382.4210, 47582.00
383.6180, 48075.00
384.8160, 47716.00
386.0130, 48086.00
387.2100, 47797.00
388.4060, 48082.00
389.6030, 48005.00
390.7990, 47899.00
391.9960, 48241.00
393.1920, 48221.00
394.3880, 48287.00
395.5840, 48172.00
396.7790, 48513.00
397.9750, 48619.00
399.1700, 48619.00
400.3660, 48373.00
401.5610, 48586.00
402.7560, 48389.00
403.9510, 48769.00
405.1450, 49030.00
406.3400, 48720.00
407.5340, 49028.00
408.7280, 48996.00
409.9220, 49046.00
411.1160, 49323.00
412.3100, 49205.00
413.5030, 49262.00
414.6970, 49280.00
415.8900, 49301.30
417.0830, 49347.64
418.2760, 49445.00
419.4690, 49492.00
420.6620, 49610.43
421.8540, 49835.00
423.0460, 49943.00
424.2390, 50195.00
425.4310, 50363.96
426.6230, 50428.00
427.8140, 50773.00
429.0060, 51037.00
430.1970, 51305.00
431.3890, 51828.00
432.5800, 52091.00
433.7710, 52255.00
434.9610, 52936.00
436.1520, 53044.00
437.3430, 53747.00
438.5330, 53722.00
439.7230, 54403.00
440.9130, 55008.00
442.1030, 55556.00
443.2930, 55648.00
444.4820, 55733.00
445.6720, 55923.00
446.8610, 55850.00
448.0500, 55926.00
449.2390, 56014.00
450.4280, 55810.00
451.6170, 56032.00
452.8050, 55622.00
453.9940, 55759.00
455.1820, 55707.00
456.3700, 55428.00
457.5580, 55581.00
458.7450, 55590.00
459.9330, 55762.00
461.1200, 55755.00
462.3080, 56121.00
463.4950, 56137.00
464.6820, 56357.00
465.8690, 56636.00
467.0550, 56838.00
468.2420, 57096.00
469.4280, 57425.33
470.6140, 57708.04
471.8000, 58176.00
472.9860, 58358.00
474.1720, 58869.00
475.3570, 59183.68
476.5430, 59933.00
477.7280, 60086.00
478.9130, 60252.00
480.0980, 60753.00
481.2830, 60800.00
482.4680, 61141.00
483.6520, 61223.26
484.8360, 60661.00
486.0210, 61196.00
487.2050, 60889.00
488.3890, 60598.00
489.5720, 60724.00
490.7560, 60408.00
491.9390, 59987.00
493.1220, 59525.00
494.3060, 59575.00
495.4880, 59297.00
496.6710, 59083.00
497.8540, 58777.00
499.0360, 58850.00
500.2190, 58526.00
501.4010, 58435.00
502.5830, 58165.00
503.7650, 58037.00
504.9460, 58045.00
506.1280, 57998.00
507.3090, 57776.00
508.4910, 57661.00
509.6720, 57614.93
510.8530, 57632.00
512.0330, 57460.00
513.2140, 57621.00
514.3940, 57411.00
515.5750, 57593.00
516.7550, 57638.00
517.9350, 57612.00
519.1150, 57831.00
520.2940, 57701.00
521.4740, 57621.00
522.6530, 57865.00
523.8320, 57428.00
525.0110, 57829.00
526.1900, 57755.00
527.3690, 57840.00
528.5480, 58000.00
529.7260, 58198.00
530.9040, 58045.00
532.0820, 58068.00
533.2600, 58239.00
534.4380, 58243.00
535.6160, 58305.00
536.7930, 58451.00
537.9700, 58570.14
539.1480, 58967.00
540.3250, 58876.00
541.5020, 59354.00
542.6780, 59430.00
543.8550, 59530.00
545.0310, 60181.00
546.2070, 60074.00
547.3830, 60228.00
548.5590, 60402.00
549.7350, 60695.00
550.9110, 60666.67
552.0860, 60550.00
553.2610, 60664.00
554.4370, 60688.00
555.6120, 60697.00
556.7860, 60662.00
557.9610, 60680.62
559.1360, 60678.12
560.3100, 60651.00
561.4840, 60664.00
562.6580, 60593.00
563.8320, 60520.00
565.0060, 60790.00
566.1790, 60725.00
567.3530, 60697.00
568.5260, 60772.00
569.6990, 61091.00
570.8720, 61160.00
572.0450, 61378.00
573.2170, 60963.00
574.3900, 61415.00
575.5620, 61503.00
576.7340, 61715.00
577.9060, 61946.00
579.0780, 62074.69
580.2500, 62022.00
581.4210, 62432.00
582.5930, 62616.00
583.7640, 62848.00
584.9350, 63187.00
586.1060, 63246.00
587.2760, 63576.00
588.4470, 63961.00
589.6170, 64015.00
590.7880, 64630.00
591.9580, 64943.00
593.1280, 65414.00
594.2970, 65331.00
595.4670, 65860.00
596.6360, 66391.00
597.8060, 66516.00
598.9750, 67527.00
600.1440, 67851.00
601.3130, 69093.00
602.4810, 70655.00
603.6500, 72222.00
604.8180, 73642.00
605.9860, 75524.00
607.1540, 78180.00
608.3220, 81126.00
609.4900, 84089.00
610.6580, 87623.00
611.8250, 91183.00
612.9920, 93478.00
614.1590, 95383.00
615.3260, 96428.00
616.4930, 95648.00
617.6600, 94066.00
618.8260, 91551.00
619.9920, 89092.00
621.1590, 86923.00
622.3250, 84913.00
623.4900, 82623.00
624.6560, 81225.00
625.8220, 79758.00
626.9870, 78554.00
628.1520, 77707.00
629.3170, 76710.00
630.4820, 76366.00
631.6470, 75422.00
632.8110, 74340.00
633.9760, 74254.00
635.1400, 73479.00
636.3040, 73259.00
637.4680, 73385.00
638.6310, 73164.00
639.7950, 73350.00
640.9590, 73685.00
642.1220, 73868.00
643.2850, 74355.00
644.4480, 75300.00
645.6110, 76019.00
646.7730, 76884.00
647.9360, 78233.00
649.0980, 80106.00
650.2600, 81880.00
651.4220, 84865.00
652.5840, 87928.00
653.7460, 91598.00
654.9070, 96912.00
656.0690, 102254.0
657.2300, 108510.0
658.3910, 115106.0
659.5520, 122087.0
660.7120, 128629.0
661.8730, 134024.0
663.0330, 136403.0
664.1940, 137727.0
665.3540, 135193.0
666.5140, 131591.0
667.6730, 126955.0
668.8330, 120815.0
669.9920, 115305.0
671.1520, 109643.0
672.3110, 105044.0
673.4700, 100848.0
674.6290, 97122.00
675.7870, 93587.00
676.9460, 90934.00
678.1040, 88331.00
679.2620, 85722.00
680.4200, 84023.00
681.5780, 81950.00
682.7360, 80944.00
683.8930, 79628.00
685.0510, 78204.00
686.2080, 77446.00
687.3650, 76692.00
688.5220, 75632.00
689.6780, 75030.00
690.8350, 75035.00
691.9910, 74265.00
693.1480, 74083.00
694.3040, 73844.00
695.4600, 73502.00
696.6150, 73624.00
697.7710, 73285.00
698.9260, 73664.00
700.0820, 73350.00
701.2370, 72846.00
702.3920, 72859.00
703.5460, 72999.00
704.7010, 73272.00
705.8550, 72850.00
707.0100, 73166.00
708.1640, 72816.00
709.3180, 72998.00
710.4720, 73184.00
711.6250, 73326.00
712.7790, 73124.00
713.9320, 73327.00
715.0850, 73786.00
716.2380, 73506.00
717.3910, 73734.00
718.5440, 73437.00
719.6960, 73585.00
720.8490, 73819.00
722.0010, 73448.00
723.1530, 73442.00
724.3050, 74051.00
725.4570, 74063.00
726.6080, 73787.00
727.7600, 73971.00
728.9110, 74174.00
730.0620, 74538.00
731.2130, 74127.00
732.3640, 74388.00
733.5140, 74318.00
734.6650, 74378.00
735.8150, 75117.00
736.9650, 74339.00
738.1150, 74836.00
739.2650, 74288.00
740.4140, 74755.00
741.5640, 74793.00
742.7130, 74881.00
743.8620, 75548.00
745.0110, 75325.00
746.1600, 75110.00
747.3090, 75238.00
748.4570, 76018.00
749.6060, 75369.00
750.7540, 75926.00
751.9020, 75657.00
753.0500, 76050.00
754.1970, 76027.00
755.3450, 76432.00
756.4920, 75912.00
757.6390, 76477.00
758.7860, 76836.00
759.9330, 76275.00
761.0800, 76672.00
762.2260, 77025.00
763.3730, 77110.00
764.5190, 77019.00
765.6650, 77286.00
766.8110, 77397.00
767.9570, 77584.00
769.1020, 77567.00
770.2480, 77558.00
771.3930, 77764.00
772.5380, 78124.00
773.6830, 78040.00
774.8280, 78278.00
775.9720, 78154.00
777.1170, 78384.00
778.2610, 78208.00
779.4050, 78666.00
780.5490, 78765.00
781.6930, 79049.00
782.8360, 78789.00
783.9800, 79059.00
785.1230, 79121.00
786.2660, 79555.00
787.4090, 79289.00
788.5520, 79378.00
789.6950, 79696.00
790.8370, 79701.00
791.9790, 79622.00
793.1220, 79910.00
794.2640, 80157.00
795.4050, 80409.00
796.5470, 80728.00
797.6890, 80496.00
798.8300, 81390.00
799.9710, 80804.00
801.1120, 80822.00
802.2530, 81182.00
803.3940, 81439.00
804.5340, 82034.00
805.6750, 81615.00
806.8150, 82157.00
807.9550, 82213.00
809.0950, 82616.00
810.2340, 82343.00
811.3740, 82926.00
812.5130, 82753.00
813.6520, 83102.00
814.7910, 82756.00
815.9300, 83335.00
817.0690, 83447.00
818.2080, 83693.00
819.3460, 83789.00
820.4840, 83909.00
821.6220, 84344.00
822.7600, 84119.00
823.8980, 84405.52
825.0350, 84345.00
826.1730, 84579.00
827.3100, 84782.00
828.4470, 84696.00
829.5840, 85391.00
830.7210, 85217.00
831.8570, 85335.00
832.9940, 86096.00
834.1300, 86029.00
835.2660, 86440.00
836.4020, 86765.00
837.5380, 86365.00
838.6740, 87261.00
839.8090, 87074.00
840.9440, 87404.00
842.0790, 87285.00
843.2140, 87752.00
844.3490, 87733.00
845.4840, 88114.00
846.6180, 88204.00
847.7520, 88309.00
848.8870, 88533.00
850.0210, 89154.00
851.1540, 88995.00
852.2880, 89298.00
853.4210, 89085.00
854.5550, 89420.00
855.6880, 89258.00
856.8210, 89572.00
857.9540, 89498.00
859.0860, 89710.00
860.2190, 90218.00
861.3510, 90400.00
862.4830, 90200.00
863.6150, 90270.00
864.7470, 90860.00
865.8790, 90710.00
867.0100, 91076.00
868.1410, 91045.00
869.2730, 90986.00
870.4040, 91117.00
871.5340, 91563.00
872.6650, 92031.00
873.7960, 92246.00
874.9260, 92958.00
876.0560, 92935.00
877.1860, 93090.00
878.3160, 93791.00
879.4460, 93858.00
880.5750, 94815.00
881.7040, 95124.00
882.8340, 95905.00
883.9630, 96022.00
885.0920, 97491.00
886.2200, 97828.00
887.3490, 98890.00
888.4770, 99994.00
889.6050, 101014.0
890.7330, 101999.0
891.8610, 103905.0
892.9890, 105511.0
894.1160, 107964.0
895.2440, 110290.0
896.3710, 114314.0
897.4980, 118278.0
898.6250, 122547.0
899.7510, 128735.0
900.8780, 135594.0
902.0040, 143635.0
903.1310, 152352.0
904.2570, 160853.0
905.3820, 169638.0
906.5080, 177539.0
907.6340, 182116.0
908.7590, 184826.0
909.8840, 183517.0
911.0090, 179083.0
912.1340, 171101.0
913.2590, 163066.0
914.3830, 155025.0
915.5080, 146372.0
916.6320, 139352.0
917.7560, 132773.0
918.8800, 127207.0
920.0040, 122877.0
921.1270, 119069.0
922.2510, 115878.0
923.3740, 113426.0
924.4970, 111567.0
925.6200, 109440.0
926.7420, 108302.0
927.8650, 107018.0
928.9870, 106294.0
930.1100, 105715.0
931.2320, 105054.0
932.3540, 104425.0
933.4750, 103836.0
934.5970, 104041.0
935.7180, 103599.0
936.8390, 103066.0
937.9600, 103850.0
939.0810, 103636.0
940.2020, 102234.3
941.3230, 103705.3
942.4430, 104557.8
943.5630, 104802.6
944.6830, 103928.6
945.8030, 103497.8
946.9230, 102277.2
948.0420, 103826.0
949.1620, 103241.0
950.2810, 102798.0
951.4000, 102972.0
952.5190, 103332.0
953.6380, 103026.0
954.7560, 103062.0
955.8750, 102939.0
956.9930, 102876.0
958.1110, 102715.0
959.2290, 103140.0
960.3460, 102875.0
961.4640, 103531.0
962.5810, 102989.0
963.6990, 103205.0
964.8160, 103110.0
965.9320, 103007.0
967.0490, 102891.0
968.1660, 103124.0
969.2820, 103478.0
970.3980, 103281.0
971.5140, 103745.0
972.6300, 104042.0
973.7460, 103473.0
974.8610, 103992.0
975.9770, 103858.0
977.0920, 104573.0
978.2070, 104107.0
979.3220, 104710.0
980.4370, 104216.0
981.5510, 104891.0
982.6660, 104453.0
983.7800, 104572.0
984.8940, 104989.0
986.0080, 104825.0
987.1210, 104884.0
988.2350, 105368.0
989.3480, 105022.0
990.4610, 106026.0
991.5750, 105142.0
992.6870, 105802.0
993.8000, 106188.0
994.9130, 106349.0
996.0250, 106381.0
997.1370, 106114.0
998.2490, 107024.0
999.3610, 106751.0
1000.473, 107023.0
1001.584, 106536.0
1002.696, 107116.0
1003.807, 107280.0
1004.918, 107565.0
1006.029, 107891.0
1007.139, 107986.2
1008.250, 107796.0
1009.360, 108371.0
1010.470, 108090.0
1011.580, 108529.0
1012.690, 108937.0
1013.800, 108674.0
1014.909, 108613.0
1016.019, 108817.0
1017.128, 109389.0
1018.237, 109512.0
1019.346, 110084.0
1020.454, 109766.0
1021.563, 110317.0
1022.671, 109877.0
1023.779, 110469.0
1024.887, 110714.0
1025.995, 110726.0
1027.103, 110997.0
1028.210, 110847.0
1029.318, 111059.0
1030.425, 111374.0
1031.532, 111391.0
1032.638, 111635.7
1033.745, 111816.1
1034.852, 111952.0
1035.958, 112176.0
1037.064, 112332.0
1038.170, 112483.0
1039.276, 112795.2
1040.381, 112973.7
1041.487, 113300.0
1042.592, 113421.0
1043.697, 113422.0
1044.802, 113555.0
1045.907, 113393.0
1047.012, 113763.0
1048.116, 114276.0
1049.220, 113927.0
1050.324, 114456.0
1051.428, 114510.0
1052.532, 114535.0
1053.636, 114660.0
1054.739, 114681.5
1055.842, 114824.9
1056.946, 114838.0
1058.048, 114986.0
1059.151, 115200.0
1060.254, 115029.0
1061.356, 115465.0
1062.459, 115603.0
1063.561, 115597.0
1064.662, 115783.0
1065.764, 116126.0
1066.866, 116302.0
1067.967, 116408.9
1069.068, 116529.8
1070.169, 116459.0
1071.270, 116655.0
1072.371, 116509.0
1073.472, 116684.0
1074.572, 116585.3
1075.672, 117028.3
1076.772, 117345.6
1077.872, 117543.9
1078.972, 117267.0
1080.071, 117603.6
1081.171, 117694.4
1082.270, 117775.0
1083.369, 118198.0
1084.468, 117990.0
1085.567, 118407.6
1086.665, 118575.3
1087.763, 118857.3
1088.862, 118892.0
1089.960, 119003.0
1091.057, 119361.4
1092.155, 119582.8
1093.253, 119588.9
1094.350, 119878.0
1095.447, 119661.1
1096.544, 119888.2
1097.641, 120307.0
1098.738, 120325.3
1099.834, 120618.8
1100.930, 120807.5
1102.027, 120519.8
1103.123, 121060.6
1104.218, 121243.0
1105.314, 121057.4
1106.409, 121569.8
1107.505, 121434.9
1108.600, 121531.0
1109.695, 121801.0
1110.790, 121960.9
1111.884, 122312.0
1112.979, 122483.0
1114.073, 122896.0
1115.167, 122926.0
1116.261, 123262.0
1117.355, 123394.0
1118.448, 123229.0
1119.542, 123766.0
1120.635, 124110.0
1121.728, 123839.0
1122.821, 123868.0
1123.914, 124246.0
1125.006, 124142.0
1126.099, 123954.0
1127.191, 124616.0
1128.283, 124433.0
1129.375, 124811.0
1130.466, 124774.0
1131.558, 125088.0
1132.649, 125342.0
1133.741, 125845.0
1134.832, 125479.0
1135.922, 125539.0
1137.013, 125871.0
1138.104, 125963.0
1139.194, 125987.0
1140.284, 126290.0
1141.374, 126511.0
1142.464, 126706.0
1143.554, 127091.0
1144.643, 127019.0
1145.733, 127347.0
1146.822, 127555.0
1147.911, 127497.0
1148.999, 127756.9
1150.088, 128011.0
1151.177, 128045.0
1152.265, 128000.0
1153.353, 128198.0
1154.441, 128177.0
1155.529, 128759.0
1156.616, 128950.8
1157.704, 129028.0
1158.791, 129546.0
1159.878, 129820.0
1160.965, 129804.0
1162.052, 129969.0
1163.138, 130142.0
1164.225, 130281.0
1165.311, 130326.0
1166.397, 130570.0
1167.483, 130647.7
1168.569, 131101.2
1169.654, 131428.8
1170.740, 131637.6
1171.825, 131371.0
1172.910, 131718.1
1173.995, 131819.3
1175.080, 131910.3
1176.164, 132343.7
1177.248, 132146.0
1178.333, 132574.1
1179.417, 132752.3
1180.501, 133044.8
1181.584, 133089.7
1182.668, 133211.1
1183.751, 133580.0
1184.834, 133811.8
1185.917, 133828.1
1187.000, 134127.7
1188.083, 133921.3
1189.165, 134158.8
1190.247, 134587.8
1191.329, 134616.5
1192.411, 134920.5
1193.493, 135119.6
1194.575, 134842.2
1195.656, 134628.0
1196.738, 135342.0
1197.819, 135236.0
1198.900, 135541.0
1199.980, 135662.0
1201.061, 135611.0
1202.141, 136159.0
1203.222, 135994.0
1204.302, 136049.0
1205.381, 136731.0
1206.461, 136453.0
1207.541, 136710.0
1208.620, 136640.0
1209.699, 136873.0
1210.778, 137259.0
1211.857, 137593.0
1212.936, 137952.0
1214.014, 138302.0
1215.093, 138202.0
1216.171, 138179.0
1217.249, 138584.1
1218.327, 138542.0
1219.404, 139257.0
1220.482, 138769.0
1221.559, 138987.0
1222.636, 138995.0
1223.713, 139590.0
1224.790, 140296.0
1225.867, 139977.0
1226.943, 140387.0
1228.019, 140157.0
1229.095, 140781.0
1230.171, 140517.0
1231.247, 141589.0
1232.323, 141421.0
1233.398, 141743.0
1234.473, 141640.0
1235.548, 141542.0
1236.623, 142582.0
1237.698, 142273.0
1238.773, 142668.0
1239.847, 142285.0
1240.921, 142290.0
1241.995, 142992.0
1243.069, 142959.0
1244.143, 143372.0
1245.216, 143227.0
1246.290, 143654.0
