##NAMES=Hardystonite
##RRUFFID=R040026
##IDEAL CHEMISTRY=Ca_2_Zn^2+^Si_2_O_7_
##LOCALITY=Franklin, Sussex County, New Jersey, USA
##OWNER=RRUFF
##SOURCE=University of Arizona Mineral Museum
##DESCRIPTION=White massive
##STATUS=The identification of this mineral has been confirmed by X-ray diffraction and chemical analysis
##URL=rruff.info/R040026
##MEASURED CHEMISTRY=(Ca_1.98_Mn_0.02_)_Σ=2_(Zn_0.99_Al_0.01_)_Σ=1_(Si_1.99_Al_0.01_)_Σ=2_O_7_
##PIN_ID=M00254
##ORIENTATION=Laser parallel to (-1 1 0). Fiducial mark perpendicular to laser is parallel to -c [0 0 -1]
65.23800, 3012.000
66.47400, 3565.000
67.71000, 4036.000
68.94600, 4703.000
70.18200, 5495.000
71.41700, 6636.000
72.65300, 7809.000
73.88800, 9314.000
75.12300, 11208.00
76.35800, 13064.00
77.59300, 15358.00
78.82700, 17887.00
80.06200, 20174.00
81.29600, 23000.00
82.53000, 25504.00
83.76400, 28294.00
84.99800, 31394.00
86.23200, 34239.00
87.46500, 37137.00
88.69900, 39676.48
89.93200, 42245.00
91.16500, 44484.00
92.39800, 46919.00
93.63100, 49187.00
94.86300, 50971.00
96.09600, 52817.00
97.32800, 54453.00
98.56000, 55637.00
99.79200, 57281.00
101.0240, 58519.00
102.2560, 59003.00
103.4880, 60102.00
104.7190, 61047.00
105.9500, 61670.00
107.1810, 63034.00
108.4120, 63565.00
109.6430, 64178.00
110.8740, 64512.00
112.1050, 64911.00
113.3350, 64959.00
114.5650, 65800.00
115.7950, 65954.00
117.0250, 66739.00
118.2550, 66893.00
119.4850, 67288.00
120.7140, 67816.00
121.9430, 67802.00
123.1730, 68086.00
124.4020, 67614.00
125.6310, 67201.00
126.8590, 67129.00
128.0880, 67200.00
129.3160, 67692.00
130.5450, 67689.00
131.7730, 68002.00
133.0010, 68443.00
134.2290, 68643.00
135.4560, 68990.00
136.6840, 69450.00
137.9110, 69545.00
139.1380, 69604.00
140.3650, 70614.00
141.5920, 70214.00
142.8190, 70820.00
144.0460, 71005.00
145.2720, 71337.00
146.4990, 71247.00
147.7250, 71715.00
148.9510, 71685.00
150.1770, 72222.00
151.4020, 72366.00
152.6280, 72091.00
153.8530, 72367.00
155.0790, 72708.00
156.3040, 72602.00
157.5290, 72654.00
158.7530, 72665.00
159.9780, 72687.66
161.2030, 72839.00
162.4270, 72844.00
163.6510, 73042.00
164.8750, 73225.00
166.0990, 73408.00
167.3230, 73523.00
168.5470, 73545.31
169.7700, 73426.00
170.9930, 73504.00
172.2160, 73587.00
173.4390, 73586.00
174.6620, 74195.00
175.8850, 74222.00
177.1080, 74481.00
178.3300, 74629.00
179.5520, 74565.00
180.7740, 75182.00
181.9960, 74831.00
183.2180, 75373.00
184.4400, 74936.00
185.6610, 75353.00
186.8820, 74969.00
188.1040, 74997.00
189.3250, 75535.00
190.5450, 75176.00
191.7660, 74760.00
192.9870, 75179.00
194.2070, 75680.00
195.4270, 75288.00
196.6480, 75410.00
197.8680, 75421.00
199.0870, 75699.00
200.3070, 75597.00
201.5270, 75431.00
202.7460, 75650.86
203.9650, 75672.00
205.1840, 75771.00
206.4030, 75952.00
207.6220, 75803.00
208.8400, 76315.00
210.0590, 75883.00
211.2770, 75734.00
212.4950, 76216.00
213.7130, 76089.00
214.9310, 76853.00
216.1490, 76678.00
217.3660, 76714.00
218.5840, 77325.00
219.8010, 77469.00
221.0180, 77479.00
222.2350, 77833.00
223.4520, 78057.00
224.6680, 77840.00
225.8850, 77995.00
227.1010, 78265.00
228.3170, 78318.00
229.5330, 78501.44
230.7490, 78613.64
231.9650, 78723.00
233.1810, 78923.00
234.3960, 78955.00
235.6110, 79357.00
236.8260, 79829.00
238.0410, 79969.00
239.2560, 80290.00
240.4710, 80673.00
241.6850, 80359.00
242.9000, 81192.00
244.1140, 81312.00
245.3280, 81524.00
246.5420, 81139.00
247.7550, 81957.00
248.9690, 82016.00
250.1820, 82113.00
251.3960, 82438.00
252.6090, 82158.00
253.8220, 82562.00
255.0350, 83121.00
256.2470, 82969.00
257.4600, 82995.00
258.6720, 83131.00
259.8840, 83131.00
261.0960, 83721.00
262.3080, 83941.00
263.5200, 84045.00
264.7320, 83873.00
265.9430, 84186.00
267.1540, 84903.00
268.3650, 84928.00
269.5760, 85524.00
270.7870, 85581.00
271.9980, 86107.00
273.2080, 86372.00
274.4190, 86679.00
275.6290, 86840.00
276.8390, 87243.00
278.0490, 87851.00
279.2590, 87686.00
280.4680, 87977.00
281.6780, 88261.00
282.8870, 88101.00
284.0960, 88070.00
285.3050, 88178.00
286.5140, 87755.00
287.7230, 87836.00
288.9310, 87645.00
290.1400, 87483.00
291.3480, 87432.00
292.5560, 86899.00
293.7640, 87060.00
294.9720, 86882.00
296.1790, 86587.00
297.3870, 86833.00
298.5940, 86860.00
299.8010, 86632.00
301.0080, 87233.00
302.2150, 87449.00
303.4220, 87181.00
304.6290, 87438.00
305.8350, 88104.00
307.0410, 88248.00
308.2470, 88547.00
309.4530, 89272.00
310.6590, 89350.00
311.8650, 89757.00
313.0700, 90245.00
314.2750, 90300.00
315.4810, 90924.00
316.6860, 90926.00
317.8900, 90976.70
319.0950, 90383.00
320.3000, 90587.00
321.5040, 89997.00
322.7080, 89190.00
323.9120, 88780.00
325.1160, 88026.00
326.3200, 88006.00
327.5240, 87559.00
328.7270, 86771.00
329.9310, 86521.00
331.1340, 86072.00
332.3370, 86363.00
333.5400, 85984.00
334.7420, 85845.00
335.9450, 85472.00
337.1470, 85550.00
338.3500, 84941.00
339.5520, 85125.00
340.7540, 84857.00
341.9550, 84433.00
343.1570, 84846.00
344.3590, 84817.00
345.5600, 84701.00
346.7610, 84662.00
347.9620, 84850.00
349.1630, 84786.00
350.3640, 84540.00
351.5640, 84411.00
352.7650, 84806.00
353.9650, 84123.00
355.1650, 84691.00
356.3650, 84274.00
357.5650, 84674.00
358.7640, 84521.00
359.9640, 84617.00
361.1630, 84400.00
362.3620, 84557.00
363.5610, 84917.00
364.7600, 84576.00
365.9590, 85010.00
367.1580, 85000.00
368.3560, 84532.00
369.5540, 84500.00
370.7520, 84906.00
371.9500, 84989.00
373.1480, 85121.00
374.3460, 85330.00
375.5430, 85165.00
376.7410, 85118.00
377.9380, 85337.00
379.1350, 85604.00
380.3320, 85223.00
381.5280, 85944.00
382.7250, 85343.00
383.9210, 85200.00
385.1180, 85686.00
386.3140, 85917.00
387.5100, 85923.00
388.7050, 86071.00
389.9010, 86090.00
391.0960, 86200.00
392.2920, 86620.00
393.4870, 86352.00
394.6820, 86784.00
395.8770, 86613.00
397.0720, 86655.00
398.2660, 86839.00
399.4610, 86965.00
400.6550, 86875.00
401.8490, 86660.00
403.0430, 87008.00
404.2370, 86612.00
405.4300, 87103.00
406.6240, 87048.00
407.8170, 86928.00
409.0100, 87079.00
410.2030, 87194.00
411.3960, 87113.00
412.5890, 87447.00
413.7810, 87448.00
414.9740, 87341.00
416.1660, 87030.00
417.3580, 87746.00
418.5500, 87701.00
419.7420, 87322.00
420.9330, 87676.00
422.1250, 87615.00
423.3160, 87713.00
424.5070, 87856.00
425.6980, 88022.00
426.8890, 88080.00
428.0800, 88194.00
429.2700, 88668.00
430.4610, 89073.00
431.6510, 88737.00
432.8410, 89048.00
434.0310, 88736.00
435.2210, 89206.00
436.4100, 88878.00
437.6000, 89266.00
438.7890, 89716.00
439.9780, 89469.00
441.1670, 89624.00
442.3560, 89986.00
443.5450, 90094.00
444.7330, 90286.00
445.9210, 90598.00
447.1100, 91104.00
448.2980, 90884.00
449.4860, 90778.00
450.6730, 91942.00
451.8610, 91965.00
453.0480, 91873.00
454.2360, 92268.00
455.4230, 92508.00
456.6100, 92486.00
457.7970, 92792.00
458.9830, 92742.00
460.1700, 93006.00
461.3560, 92983.00
462.5420, 93432.00
463.7280, 93131.00
464.9140, 93191.00
466.1000, 93639.00
467.2850, 94285.00
468.4710, 94383.00
469.6560, 94623.00
470.8410, 94957.00
472.0260, 94815.00
473.2110, 95566.00
474.3960, 96032.00
475.5800, 96300.00
476.7640, 97275.00
477.9490, 96802.00
479.1330, 97739.00
480.3160, 97775.00
481.5000, 97842.00
482.6840, 97869.00
483.8670, 98135.00
485.0500, 98029.00
486.2330, 98097.00
487.4160, 97801.00
488.5990, 97915.00
489.7820, 97678.00
490.9640, 97461.00
492.1470, 97364.00
493.3290, 96923.00
494.5110, 96694.00
495.6930, 96539.00
496.8740, 96378.00
498.0560, 96310.00
499.2370, 96268.00
500.4180, 96224.00
501.5990, 95629.00
502.7800, 95895.00
503.9610, 95633.00
505.1420, 95705.00
506.3220, 95618.00
507.5020, 95519.00
508.6820, 95131.00
509.8620, 95563.00
511.0420, 95313.00
512.2220, 95621.00
513.4010, 95789.00
514.5810, 95612.00
515.7600, 95325.00
516.9390, 95311.00
518.1180, 95802.00
519.2970, 95923.00
520.4750, 95717.00
521.6540, 95422.00
522.8320, 95722.00
524.0100, 95723.00
525.1880, 95572.00
526.3660, 96159.00
527.5430, 95683.00
528.7210, 96400.00
529.8980, 96488.00
531.0750, 96764.00
532.2520, 96182.00
533.4290, 96482.00
534.6060, 96686.00
535.7820, 96885.00
536.9590, 97107.00
538.1350, 97199.66
539.3110, 96979.00
540.4870, 97270.00
541.6630, 97402.00
542.8380, 97223.00
544.0140, 97978.00
545.1890, 98119.00
546.3640, 98231.00
547.5390, 98492.00
548.7140, 98237.00
549.8890, 98517.00
551.0630, 98255.00
552.2380, 98943.00
553.4120, 98916.00
554.5860, 98831.00
555.7600, 98524.00
556.9330, 99242.00
558.1070, 98379.00
559.2800, 98922.00
560.4540, 98993.00
561.6270, 98977.00
562.8000, 98938.00
563.9730, 98879.00
565.1450, 99016.00
566.3180, 98944.00
567.4900, 98960.00
568.6620, 99268.00
569.8340, 99172.00
571.0060, 99257.00
572.1780, 99501.00
573.3490, 99625.00
574.5210, 99400.00
575.6920, 99609.00
576.8630, 99376.00
578.0340, 100253.0
579.2050, 100327.0
580.3750, 99978.00
581.5460, 100745.0
582.7160, 100658.0
583.8860, 101059.0
585.0560, 101175.0
586.2260, 101447.0
587.3960, 101802.0
588.5650, 102119.0
589.7340, 102576.9
590.9040, 102855.0
592.0730, 103462.0
593.2410, 103853.0
594.4100, 104108.0
595.5790, 104476.0
596.7470, 105075.0
597.9150, 105482.0
599.0840, 106068.0
600.2510, 106634.0
601.4190, 107384.0
602.5870, 108797.0
603.7540, 110143.0
604.9220, 111758.0
606.0890, 114482.0
607.2560, 116665.0
608.4230, 119370.0
609.5890, 122604.0
610.7560, 126148.0
611.9220, 129914.0
613.0880, 133159.0
614.2540, 135221.0
615.4200, 136902.0
616.5860, 136880.0
617.7520, 135836.0
618.9170, 133511.0
620.0820, 131322.0
621.2480, 128156.0
622.4120, 125460.0
623.5770, 123127.0
624.7420, 121090.0
625.9060, 119221.0
627.0710, 117469.0
628.2350, 116855.0
629.3990, 115400.0
630.5630, 114206.0
631.7260, 114223.0
632.8900, 112813.0
634.0530, 112556.0
635.2170, 111599.0
636.3800, 111173.0
637.5430, 110749.0
638.7050, 110954.0
639.8680, 111225.0
641.0300, 110936.0
642.1930, 111403.0
643.3550, 111472.0
644.5170, 112480.0
645.6790, 112966.0
646.8400, 114178.0
648.0020, 115309.0
649.1630, 116573.0
650.3240, 118447.0
651.4850, 121188.0
652.6460, 124041.0
653.8070, 127099.0
654.9670, 131990.0
656.1280, 136726.0
657.2880, 142876.0
658.4480, 149143.0
659.6080, 156410.0
660.7680, 163035.0
661.9270, 169170.0
663.0870, 173520.0
664.2460, 175800.0
665.4050, 176101.0
666.5640, 172819.0
667.7230, 168404.0
668.8820, 162194.0
670.0400, 157426.0
671.1990, 151499.0
672.3570, 146659.0
673.5150, 141967.0
674.6730, 137339.0
675.8310, 134363.0
676.9880, 131166.0
678.1450, 128164.0
679.3030, 125551.0
680.4600, 123868.0
681.6170, 121709.0
682.7740, 119968.0
683.9300, 118541.0
685.0870, 116994.0
686.2430, 115938.0
687.3990, 114454.0
688.5550, 113882.0
689.7110, 113028.0
690.8670, 112422.0
692.0220, 112279.0
693.1770, 111803.0
694.3330, 110794.0
695.4880, 110908.0
696.6430, 110883.0
697.7970, 110271.0
698.9520, 110881.0
700.1060, 110453.0
701.2600, 110379.0
702.4150, 110134.0
703.5690, 109760.0
704.7220, 110061.0
705.8760, 110197.0
707.0290, 110288.0
708.1830, 109943.0
709.3360, 109947.0
710.4890, 109952.0
711.6420, 110187.0
712.7940, 110127.0
713.9470, 110350.0
715.0990, 110288.0
716.2510, 110351.0
717.4030, 110706.0
718.5550, 110454.0
719.7070, 110427.0
720.8590, 110788.0
722.0100, 110554.0
723.1610, 111016.0
724.3120, 110697.0
725.4630, 111028.0
726.6140, 110923.0
727.7650, 110834.0
728.9150, 111281.0
730.0650, 110854.0
731.2160, 111180.0
732.3660, 111221.0
733.5150, 110863.0
734.6650, 111450.0
735.8150, 111953.0
736.9640, 111364.0
738.1130, 111867.0
739.2620, 112061.0
740.4110, 111287.0
741.5600, 111681.0
742.7080, 111566.0
743.8570, 111910.0
745.0050, 112064.0
746.1530, 111972.0
747.3010, 111600.0
748.4490, 112277.0
749.5960, 112741.0
750.7440, 112406.0
751.8910, 112531.0
753.0380, 112474.0
754.1850, 112697.0
755.3320, 112964.0
756.4790, 112909.0
757.6250, 112890.0
758.7720, 112797.0
759.9180, 113427.0
761.0640, 113003.0
762.2100, 113335.0
763.3550, 113361.0
764.5010, 113015.0
765.6460, 113554.0
766.7920, 113789.0
767.9370, 113941.0
769.0820, 113578.0
770.2260, 113858.0
771.3710, 113994.0
772.5150, 114460.0
773.6600, 114199.0
774.8040, 114618.0
775.9480, 114911.0
777.0910, 114717.0
778.2350, 115034.0
779.3790, 115408.0
780.5220, 115507.0
781.6650, 115283.0
782.8080, 115235.0
783.9510, 115421.0
785.0940, 115808.0
786.2360, 115997.0
787.3790, 116178.7
788.5210, 116532.0
789.6630, 116443.0
790.8050, 116531.0
791.9470, 116583.8
793.0880, 116465.0
794.2300, 116793.0
795.3710, 116747.0
796.5120, 116859.0
797.6530, 117349.0
798.7940, 117619.0
799.9340, 117815.0
801.0750, 117732.0
802.2150, 118221.0
803.3550, 117919.0
804.4950, 118673.0
805.6350, 118729.0
806.7750, 119064.0
807.9140, 120098.0
809.0540, 119612.0
810.1930, 120217.0
811.3320, 120212.0
812.4710, 120026.0
813.6100, 120208.0
814.7480, 120659.0
815.8870, 120205.0
817.0250, 120870.0
818.1630, 120441.0
819.3010, 120592.0
820.4390, 120757.0
821.5760, 120805.0
822.7140, 121057.0
823.8510, 121028.0
824.9880, 121063.0
826.1250, 120954.0
827.2620, 121157.0
828.3990, 121377.0
829.5350, 121715.0
830.6710, 121990.0
831.8080, 121830.0
832.9440, 122362.0
834.0800, 122214.0
835.2150, 122836.0
836.3510, 122973.0
837.4860, 123071.0
838.6210, 123751.0
839.7560, 123829.0
840.8910, 123976.0
842.0260, 124490.0
843.1610, 124570.0
844.2950, 124815.0
845.4290, 124881.0
846.5640, 124848.0
847.6980, 125266.0
848.8310, 125045.2
849.9650, 125106.0
851.0980, 124845.0
852.2320, 125517.0
853.3650, 125528.0
854.4980, 126033.0
855.6310, 125863.0
856.7630, 125873.0
857.8960, 126299.0
859.0280, 126319.0
860.1610, 126897.0
861.2930, 126693.0
862.4240, 127057.0
863.5560, 126885.0
864.6880, 127449.0
865.8190, 127486.0
866.9500, 127571.0
868.0820, 127527.0
869.2120, 127845.0
870.3430, 128076.0
871.4740, 128226.0
872.6040, 128687.0
873.7350, 128714.0
874.8650, 129037.0
875.9950, 129579.0
877.1250, 129742.0
878.2540, 130183.0
879.3840, 130443.0
880.5130, 131156.0
881.6420, 131491.0
882.7710, 132041.0
883.9000, 132951.0
885.0290, 133279.0
886.1570, 134000.0
887.2860, 135312.0
888.4140, 137088.0
889.5420, 137468.0
890.6700, 140097.0
891.7980, 141198.0
892.9250, 143752.0
894.0530, 146120.0
895.1800, 148878.0
896.3070, 153131.0
897.4340, 157386.0
898.5610, 163093.0
899.6870, 169219.0
900.8140, 176778.0
901.9400, 185494.0
903.0660, 195769.0
904.1920, 206258.0
905.3180, 217292.0
906.4440, 225958.0
907.5690, 233352.0
908.6950, 238058.0
909.8200, 238878.0
910.9450, 234353.0
912.0700, 227557.0
913.1940, 217750.0
914.3190, 207212.0
915.4430, 197172.0
916.5680, 187336.0
917.6920, 179684.0
918.8150, 172180.0
919.9390, 165796.0
921.0630, 160475.0
922.1860, 157122.0
923.3100, 153403.0
924.4330, 150615.0
925.5560, 148409.0
926.6780, 147314.0
927.8010, 146555.0
928.9230, 144491.0
930.0460, 144302.0
931.1680, 141675.0
932.2900, 141355.0
933.4120, 140828.0
934.5330, 140408.0
935.6550, 140089.0
936.7760, 140617.0
937.8970, 140554.0
939.0180, 139791.0
940.1390, 140486.0
941.2600, 139866.0
942.3810, 140121.0
943.5010, 140336.0
944.6210, 139835.0
945.7410, 139758.0
946.8610, 139648.0
947.9810, 139651.0
949.1010, 139673.0
950.2200, 139340.0
951.3390, 139052.0
952.4580, 138785.0
953.5770, 138915.0
954.6960, 138427.0
955.8150, 138619.0
956.9330, 138446.0
958.0520, 137771.0
959.1700, 138824.0
960.2880, 137864.0
961.4050, 138641.0
962.5230, 138613.0
963.6410, 138787.0
964.7580, 138580.0
965.8750, 138459.0
966.9920, 138819.0
968.1090, 138757.0
969.2260, 139440.0
970.3420, 138671.0
971.4590, 138489.0
972.5750, 138823.0
973.6910, 139059.0
974.8070, 138853.0
975.9230, 139293.0
977.0380, 139241.0
978.1540, 139467.0
979.2690, 139735.7
980.3840, 139862.4
981.4990, 140289.0
982.6140, 140441.0
983.7280, 140831.0
984.8430, 141420.0
985.9570, 141472.0
987.0710, 142621.0
988.1850, 142927.0
989.2990, 143683.0
990.4130, 144081.0
991.5260, 144908.0
992.6400, 145668.2
993.7530, 146655.0
994.8660, 147378.0
995.9790, 148448.0
997.0910, 149362.0
998.2040, 149564.0
999.3160, 150041.0
1000.429, 149741.0
1001.541, 150028.0
1002.652, 150026.0
1003.764, 150375.0
1004.876, 149993.0
1005.987, 149859.3
1007.098, 149947.0
1008.210, 149208.0
1009.320, 148540.0
1010.431, 148284.0
1011.542, 147561.0
1012.652, 147292.0
1013.763, 146360.0
1014.873, 146677.0
1015.983, 145814.0
1017.093, 146174.0
1018.202, 146093.0
1019.312, 145859.0
1020.421, 145832.0
1021.530, 146078.0
1022.639, 145709.0
1023.748, 145858.0
1024.857, 145918.0
1025.965, 145749.0
1027.074, 146060.0
1028.182, 145188.0
1029.290, 145767.0
1030.398, 145341.0
1031.505, 144889.0
1032.613, 145709.0
1033.720, 145592.0
1034.828, 145415.0
1035.935, 145702.0
1037.042, 145730.0
1038.148, 145819.0
1039.255, 146253.0
1040.361, 146096.0
1041.468, 146093.0
1042.574, 146413.0
1043.680, 146454.0
1044.786, 146435.0
1045.891, 146805.0
1046.997, 146674.0
1048.102, 146538.0
1049.207, 147149.0
1050.312, 147147.0
1051.417, 147724.0
1052.522, 147814.0
1053.626, 147879.0
1054.730, 147305.0
1055.835, 147692.0
1056.939, 147682.0
1058.043, 148304.0
1059.146, 147865.0
1060.250, 147352.0
1061.353, 148205.0
1062.456, 147609.0
1063.559, 147799.0
1064.662, 148245.0
1065.765, 148235.0
1066.868, 148716.0
1067.970, 148667.0
1069.072, 148517.0
1070.174, 148677.0
1071.276, 148886.0
1072.378, 149194.0
1073.480, 149653.0
1074.581, 149627.0
1075.682, 149931.0
1076.784, 150088.0
1077.885, 150174.0
1078.985, 150209.0
1080.086, 150299.0
1081.187, 150639.0
1082.287, 151128.0
1083.387, 150876.0
1084.487, 151382.0
1085.587, 151561.0
1086.687, 151276.0
1087.786, 151665.0
1088.885, 151749.0
1089.985, 152171.0
1091.084, 152068.0
1092.182, 151789.0
1093.281, 152513.0
1094.380, 152198.0
1095.478, 152362.0
1096.576, 152553.0
1097.674, 152636.0
1098.772, 153275.0
1099.870, 153175.0
1100.968, 153398.0
1102.065, 153782.0
1103.162, 153810.0
1104.259, 153598.0
1105.356, 154045.0
1106.453, 154772.0
1107.550, 154445.0
1108.646, 154931.0
1109.743, 154796.0
1110.839, 154853.0
1111.935, 154819.0
1113.030, 155183.0
1114.126, 155001.0
1115.222, 154712.0
1116.317, 155038.5
1117.412, 155739.0
1118.507, 155382.0
1119.602, 155669.0
1120.697, 155861.0
1121.791, 155490.0
1122.885, 156480.0
1123.980, 156739.0
1125.074, 157015.0
1126.168, 157203.0
1127.261, 156938.0
1128.355, 156526.0
1129.448, 157140.0
1130.541, 157439.0
1131.635, 157084.0
1132.727, 157228.0
1133.820, 157041.0
1134.913, 157327.0
1136.005, 157638.0
1137.097, 158083.0
1138.190, 157835.0
1139.281, 157682.0
1140.373, 157679.0
1141.465, 158062.0
1142.556, 158244.0
1143.648, 158568.0
1144.739, 158217.0
1145.830, 158982.0
1146.921, 158396.0
1148.011, 158463.0
1149.102, 158683.0
1150.192, 159024.0
1151.282, 159257.0
1152.372, 159366.0
1153.462, 159866.0
1154.552, 159339.0
1155.641, 160036.0
1156.731, 160137.0
1157.820, 159829.0
1158.909, 160935.0
1159.998, 160693.0
1161.086, 161399.0
1162.175, 160347.0
1163.263, 161164.0
1164.351, 161282.0
1165.440, 161333.0
1166.527, 161821.0
1167.615, 161383.0
1168.703, 161956.0
1169.790, 161798.0
1170.877, 162433.0
1171.965, 162138.0
1173.051, 162270.0
1174.138, 163125.0
1175.225, 163558.0
1176.311, 162981.0
1177.398, 163459.0
1178.484, 163511.0
1179.570, 163721.0
1180.655, 163942.0
1181.741, 163824.0
1182.827, 163816.0
1183.912, 163962.3
1184.997, 164108.0
1186.082, 164002.0
1187.167, 164695.0
1188.251, 164389.0
1189.336, 164555.0
1190.420, 164925.0
1191.505, 164508.0
1192.589, 164803.0
1193.672, 165194.0
1194.756, 164939.0
1195.840, 165205.0
1196.923, 165445.0
1198.006, 165477.0
1199.089, 165741.0
1200.172, 165843.0
1201.255, 165839.0
1202.337, 165682.0
1203.420, 165703.0
1204.502, 166562.0
1205.584, 166951.0
1206.666, 166079.0
1207.748, 166870.0
1208.829, 166765.0
1209.911, 166670.0
1210.992, 167066.0
1212.073, 166923.0
1213.154, 167330.0
1214.235, 167698.0
1215.316, 167488.0
1216.396, 168395.0
1217.476, 167698.0
1218.556, 168025.0
1219.636, 167951.0
1220.716, 168554.0
1221.796, 168589.0
1222.875, 168951.0
1223.955, 169182.0
1225.034, 169134.0
1226.113, 169571.0
1227.192, 169665.0
1228.270, 170206.0
1229.349, 170561.0
1230.427, 170623.0
1231.505, 170066.0
1232.583, 170070.0
1233.661, 170248.0
1234.739, 170557.0
1235.817, 170781.0
1236.894, 171152.0
1237.971, 171183.0
1239.048, 171420.0
1240.125, 171823.0
1241.202, 171364.0
1242.278, 172051.0
1243.355, 171947.0
1244.431, 172155.0
1245.507, 172529.0
1246.583, 172565.0
