##NAMES=Hardystonite
##RRUFFID=R040026
##IDEAL CHEMISTRY=Ca_2_Zn^2+^Si_2_O_7_
##LOCALITY=Franklin, Sussex County, New Jersey, USA
##OWNER=RRUFF
##SOURCE=University of Arizona Mineral Museum
##DESCRIPTION=White massive
##STATUS=The identification of this mineral has been confirmed by X-ray diffraction and chemical analysis
##URL=rruff.info/R040026
##MEASURED CHEMISTRY=(Ca_1.98_Mn_0.02_)_Σ=2_(Zn_0.99_Al_0.01_)_Σ=1_(Si_1.99_Al_0.01_)_Σ=2_O_7_
##PIN_ID=M00254
##ORIENTATION=Laser parallel to (-1 1 0). Fiducial mark perpendicular to laser is parallel to -c [0 0 -1]
65.23800, 2442.000
66.47400, 2717.000
67.71000, 3186.000
68.94600, 3619.000
70.18200, 4174.000
71.41700, 4960.000
72.65300, 5779.000
73.88800, 6975.000
75.12300, 8134.000
76.35800, 9534.000
77.59300, 11172.00
78.82700, 13200.00
80.06200, 15046.00
81.29600, 16425.00
82.53000, 18091.00
83.76400, 19307.00
84.99800, 21101.00
86.23200, 22647.00
87.46500, 24361.00
88.69900, 26130.00
89.93200, 27484.00
91.16500, 28968.00
92.39800, 30479.00
93.63100, 31854.00
94.86300, 33110.00
96.09600, 34170.00
97.32800, 35259.00
98.56000, 35928.00
99.79200, 36966.00
101.0240, 37452.00
102.2560, 38189.00
103.4880, 38545.00
104.7190, 38980.00
105.9500, 39757.00
107.1810, 40322.00
108.4120, 40766.00
109.6430, 41225.00
110.8740, 41444.07
112.1050, 41419.00
113.3350, 41729.00
114.5650, 41989.00
115.7950, 42083.00
117.0250, 42863.00
118.2550, 43312.00
119.4850, 43523.00
120.7140, 43814.00
121.9430, 43825.00
123.1730, 43942.00
124.4020, 43527.00
125.6310, 43314.00
126.8590, 43114.00
128.0880, 42829.00
129.3160, 43034.00
130.5450, 43148.00
131.7730, 43403.00
133.0010, 43481.00
134.2290, 43660.00
135.4560, 43905.00
136.6840, 44082.00
137.9110, 44224.00
139.1380, 44471.00
140.3650, 44532.00
141.5920, 44735.00
142.8190, 44859.00
144.0460, 45027.16
145.2720, 44844.00
146.4990, 45311.00
147.7250, 45376.00
148.9510, 45337.00
150.1770, 45635.00
151.4020, 45477.00
152.6280, 45415.00
153.8530, 45039.00
155.0790, 45112.00
156.3040, 45008.00
157.5290, 45272.00
158.7530, 44831.00
159.9780, 44883.00
161.2030, 45044.00
162.4270, 45072.00
163.6510, 44919.00
164.8750, 45155.00
166.0990, 45060.00
167.3230, 44836.00
168.5470, 45094.00
169.7700, 45262.00
170.9930, 45324.00
172.2160, 45301.00
173.4390, 45628.00
174.6620, 45731.00
175.8850, 45823.00
177.1080, 46073.00
178.3300, 45858.00
179.5520, 45889.00
180.7740, 45807.00
181.9960, 46007.00
183.2180, 45996.00
184.4400, 46143.00
185.6610, 46039.00
186.8820, 45983.00
188.1040, 46056.00
189.3250, 45804.00
190.5450, 46290.00
191.7660, 46126.00
192.9870, 46100.00
194.2070, 46559.00
195.4270, 46551.00
196.6480, 46516.00
197.8680, 46701.00
199.0870, 46489.00
200.3070, 46575.00
201.5270, 46996.00
202.7460, 46954.00
203.9650, 47072.00
205.1840, 47320.00
206.4030, 47495.00
207.6220, 47527.00
208.8400, 47700.00
210.0590, 47796.00
211.2770, 48175.00
212.4950, 48438.00
213.7130, 48813.00
214.9310, 49305.00
216.1490, 49462.00
217.3660, 49858.58
218.5840, 49984.00
219.8010, 50419.00
221.0180, 50781.00
222.2350, 50983.59
223.4520, 51089.00
224.6680, 51192.00
225.8850, 50995.00
227.1010, 50905.00
228.3170, 50960.00
229.5330, 51000.01
230.7490, 50952.00
231.9650, 51248.00
233.1810, 51470.00
234.3960, 51507.00
235.6110, 51802.00
236.8260, 51637.00
238.0410, 51780.00
239.2560, 52022.00
240.4710, 52528.00
241.6850, 52280.00
242.9000, 52568.09
244.1140, 52695.00
245.3280, 52667.00
246.5420, 53074.00
247.7550, 53066.00
248.9690, 53422.00
250.1820, 53355.00
251.3960, 53456.00
252.6090, 53150.00
253.8220, 53420.00
255.0350, 53323.00
256.2470, 53532.00
257.4600, 53521.00
258.6720, 53242.00
259.8840, 53361.00
261.0960, 53568.00
262.3080, 53436.00
263.5200, 53564.00
264.7320, 53611.00
265.9430, 53495.00
267.1540, 53652.00
268.3650, 53553.00
269.5760, 53665.00
270.7870, 53755.00
271.9980, 53762.00
273.2080, 53718.00
274.4190, 53708.00
275.6290, 53644.00
276.8390, 53463.00
278.0490, 53237.00
279.2590, 53411.00
280.4680, 53112.00
281.6780, 53336.00
282.8870, 53125.00
284.0960, 52755.00
285.3050, 52765.00
286.5140, 52573.00
287.7230, 52408.00
288.9310, 52451.00
290.1400, 52281.00
291.3480, 52471.00
292.5560, 52307.00
293.7640, 52287.00
294.9720, 52299.45
296.1790, 52116.00
297.3870, 52244.00
298.5940, 52361.00
299.8010, 52355.00
301.0080, 52060.00
302.2150, 52219.00
303.4220, 52142.00
304.6290, 52538.00
305.8350, 52478.00
307.0410, 52407.00
308.2470, 52638.00
309.4530, 52670.00
310.6590, 52850.00
311.8650, 53197.00
313.0700, 53186.92
314.2750, 53367.26
315.4810, 53341.00
316.6860, 53452.00
317.8900, 53532.00
319.0950, 53401.00
320.3000, 53430.00
321.5040, 53177.00
322.7080, 53316.00
323.9120, 53179.00
325.1160, 53076.00
326.3200, 53198.00
327.5240, 53047.00
328.7270, 52984.00
329.9310, 52750.00
331.1340, 52996.00
332.3370, 52960.00
333.5400, 52610.00
334.7420, 52830.00
335.9450, 52844.00
337.1470, 53025.00
338.3500, 53003.00
339.5520, 53105.49
340.7540, 53074.39
341.9550, 53064.00
343.1570, 52945.00
344.3590, 52951.09
345.5600, 52845.00
346.7610, 52951.00
347.9620, 53133.00
349.1630, 53094.00
350.3640, 53209.36
351.5640, 53141.00
352.7650, 53305.00
353.9650, 53548.00
355.1650, 53600.59
356.3650, 53092.00
357.5650, 53660.00
358.7640, 53357.00
359.9640, 53440.00
361.1630, 53571.00
362.3620, 53524.00
363.5610, 53706.00
364.7600, 53945.00
365.9590, 53522.00
367.1580, 53753.00
368.3560, 53723.00
369.5540, 53908.00
370.7520, 54193.00
371.9500, 54003.00
373.1480, 53929.00
374.3460, 53635.00
375.5430, 53838.00
376.7410, 53793.94
377.9380, 54216.00
379.1350, 54035.00
380.3320, 54367.00
381.5280, 54603.00
382.7250, 54406.00
383.9210, 54611.00
385.1180, 54968.00
386.3140, 55294.00
387.5100, 55147.00
388.7050, 55175.00
389.9010, 55403.00
391.0960, 55474.00
392.2920, 55626.00
393.4870, 55623.00
394.6820, 55669.00
395.8770, 55864.00
397.0720, 55504.00
398.2660, 55420.00
399.4610, 55324.00
400.6550, 55886.00
401.8490, 55279.00
403.0430, 55645.00
404.2370, 55315.00
405.4300, 55519.00
406.6240, 55495.00
407.8170, 55348.00
409.0100, 55575.00
410.2030, 55222.00
411.3960, 55476.00
412.5890, 55540.00
413.7810, 55596.00
414.9740, 55659.00
416.1660, 55856.00
417.3580, 55675.00
418.5500, 55453.00
419.7420, 55584.00
420.9330, 55826.00
422.1250, 55870.00
423.3160, 56307.00
424.5070, 56145.00
425.6980, 56448.00
426.8890, 56404.00
428.0800, 56401.00
429.2700, 56346.00
430.4610, 56346.00
431.6510, 56721.00
432.8410, 56739.00
434.0310, 57454.00
435.2210, 57187.00
436.4100, 57178.00
437.6000, 57742.00
438.7890, 57803.00
439.9780, 57964.00
441.1670, 57861.00
442.3560, 58009.00
443.5450, 58331.00
444.7330, 58404.00
445.9210, 58629.00
447.1100, 59060.00
448.2980, 58896.00
449.4860, 59371.00
450.6730, 59633.00
451.8610, 59649.00
453.0480, 59650.00
454.2360, 59691.00
455.4230, 60340.00
456.6100, 60450.00
457.7970, 60318.00
458.9830, 60171.00
460.1700, 60787.00
461.3560, 61229.00
462.5420, 61002.00
463.7280, 61338.00
464.9140, 61880.00
466.1000, 62113.00
467.2850, 62479.00
468.4710, 62967.00
469.6560, 63094.00
470.8410, 63196.00
472.0260, 63772.00
473.2110, 64133.00
474.3960, 64555.00
475.5800, 65150.00
476.7640, 65785.00
477.9490, 66303.00
479.1330, 66706.00
480.3160, 67001.88
481.5000, 67126.00
482.6840, 67215.00
483.8670, 67385.00
485.0500, 67149.00
486.2330, 67346.00
487.4160, 67078.00
488.5990, 66816.00
489.7820, 66926.00
490.9640, 66476.00
492.1470, 66406.00
493.3290, 66263.00
494.5110, 66180.00
495.6930, 65798.00
496.8740, 65413.00
498.0560, 65430.00
499.2370, 64704.00
500.4180, 64435.00
501.5990, 64277.00
502.7800, 64312.00
503.9610, 64113.00
505.1420, 64045.00
506.3220, 63850.00
507.5020, 63925.00
508.6820, 63646.00
509.8620, 63549.00
511.0420, 63454.00
512.2220, 63601.00
513.4010, 63728.00
514.5810, 63464.00
515.7600, 63312.00
516.9390, 63157.00
518.1180, 63090.00
519.2970, 63500.00
520.4750, 63582.00
521.6540, 63630.00
522.8320, 63524.00
524.0100, 63591.00
525.1880, 63554.00
526.3660, 63636.00
527.5430, 63411.00
528.7210, 63864.00
529.8980, 63793.00
531.0750, 64018.00
532.2520, 63869.00
533.4290, 64341.00
534.6060, 63942.00
535.7820, 64050.00
536.9590, 64572.00
538.1350, 64316.00
539.3110, 64617.00
540.4870, 64835.00
541.6630, 65137.00
542.8380, 64944.00
544.0140, 65055.00
545.1890, 65358.00
546.3640, 65616.00
547.5390, 65877.00
548.7140, 66040.67
549.8890, 66177.00
551.0630, 66257.00
552.2380, 66443.00
553.4120, 66428.00
554.5860, 66338.00
555.7600, 66502.00
556.9330, 66596.00
558.1070, 66500.00
559.2800, 66187.00
560.4540, 66406.00
561.6270, 66169.00
562.8000, 66314.00
563.9730, 66453.00
565.1450, 66761.00
566.3180, 66336.00
567.4900, 66486.00
568.6620, 66396.00
569.8340, 66661.00
571.0060, 66815.00
572.1780, 66680.00
573.3490, 66730.00
574.5210, 66916.00
575.6920, 66963.00
576.8630, 67120.00
578.0340, 67107.00
579.2050, 67154.00
580.3750, 67431.00
581.5460, 67606.00
582.7160, 68068.00
583.8860, 68202.00
585.0560, 68519.23
586.2260, 68567.00
587.3960, 68919.00
588.5650, 69301.00
589.7340, 69196.00
590.9040, 70019.00
592.0730, 70460.00
593.2410, 70238.00
594.4100, 70834.00
595.5790, 71293.00
596.7470, 72144.00
597.9150, 72167.00
599.0840, 72892.00
600.2510, 73634.00
601.4190, 74899.00
602.5870, 75922.00
603.7540, 77177.00
604.9220, 78589.00
606.0890, 81073.00
607.2560, 83610.00
608.4230, 86577.00
609.5890, 90318.00
610.7560, 93053.00
611.9220, 96873.00
613.0880, 100173.0
614.2540, 102439.0
615.4200, 104114.0
616.5860, 104310.0
617.7520, 103023.0
618.9170, 100689.0
620.0820, 98001.00
621.2480, 95885.00
622.4120, 92698.00
623.5770, 90711.00
624.7420, 88387.00
625.9060, 87434.00
627.0710, 86051.00
628.2350, 84629.00
629.3990, 83718.00
630.5630, 82637.00
631.7260, 81521.00
632.8900, 80761.00
634.0530, 79987.00
635.2170, 79782.00
636.3800, 79184.00
637.5430, 79110.00
638.7050, 79207.00
639.8680, 78837.00
641.0300, 79057.00
642.1930, 79212.00
643.3550, 79822.00
644.5170, 80354.00
645.6790, 81147.00
646.8400, 82270.00
648.0020, 82984.00
649.1630, 85091.00
650.3240, 86679.00
651.4850, 89617.00
652.6460, 92175.00
653.8070, 96292.00
654.9670, 100926.0
656.1280, 106264.0
657.2880, 112682.0
658.4480, 119328.0
659.6080, 126734.0
660.7680, 134048.0
661.9270, 140088.0
663.0870, 145017.0
664.2460, 146853.0
665.4050, 146909.0
666.5640, 143887.0
667.7230, 139508.0
668.8820, 133256.0
670.0400, 126879.0
671.1990, 121023.0
672.3570, 115980.0
673.5150, 111334.0
674.6730, 106478.0
675.8310, 103202.0
676.9880, 99775.00
678.1450, 96865.00
679.3030, 93846.00
680.4600, 91766.00
681.6170, 89582.00
682.7740, 87614.00
683.9300, 86526.00
685.0870, 84941.00
686.2430, 84057.00
687.3990, 82264.00
688.5550, 81675.00
689.7110, 80386.00
690.8670, 80500.00
692.0220, 80210.00
693.1770, 79296.00
694.3330, 78985.00
695.4880, 78795.00
696.6430, 78277.00
697.7970, 78229.00
698.9520, 77669.00
700.1060, 78063.00
701.2600, 77387.00
702.4150, 77260.00
703.5690, 77522.00
704.7220, 77584.00
705.8760, 77557.59
707.0290, 77604.23
708.1830, 77512.00
709.3360, 77440.00
710.4890, 77345.00
711.6420, 77317.31
712.7940, 77229.00
713.9470, 77308.00
715.0990, 77422.00
716.2510, 77511.00
717.4030, 77816.00
718.5550, 77988.00
719.7070, 77665.00
720.8590, 77653.00
722.0100, 77959.00
723.1610, 77932.00
724.3120, 77974.00
725.4630, 78164.00
726.6140, 78219.00
727.7650, 78162.00
728.9150, 78297.00
730.0650, 78334.45
731.2160, 78631.33
732.3660, 78831.03
733.5150, 78938.77
734.6650, 78679.43
735.8150, 78894.18
736.9640, 78918.87
738.1130, 78935.77
739.2620, 79217.18
740.4110, 79011.18
741.5600, 79288.39
742.7080, 79372.65
743.8570, 79545.26
745.0050, 79526.63
746.1530, 79567.05
747.3010, 79798.70
748.4490, 79924.45
749.5960, 79883.77
750.7440, 80061.91
751.8910, 79849.10
753.0380, 79979.31
754.1850, 80257.52
755.3320, 80226.43
756.4790, 80408.02
757.6250, 80508.53
758.7720, 80241.03
759.9180, 80613.61
761.0640, 80709.34
762.2100, 80922.00
763.3550, 80636.00
764.5010, 81096.00
765.6460, 80742.00
766.7920, 81310.00
767.9370, 81232.00
769.0820, 81742.00
770.2260, 81498.00
771.3710, 82066.00
772.5150, 81869.00
773.6600, 82008.00
774.8040, 82053.00
775.9480, 82353.00
777.0910, 82236.00
778.2350, 82315.00
779.3790, 82490.00
780.5220, 82893.00
781.6650, 82536.00
782.8080, 83013.00
783.9510, 83095.00
785.0940, 82815.00
786.2360, 83375.00
787.3790, 83816.00
788.5210, 83519.00
789.6630, 83763.00
790.8050, 83664.00
791.9470, 83714.00
793.0880, 84293.00
794.2300, 84090.00
795.3710, 84194.00
796.5120, 84824.00
797.6530, 84762.00
798.7940, 84981.00
799.9340, 85396.00
801.0750, 85553.00
802.2150, 85704.00
803.3550, 85749.00
804.4950, 86478.00
805.6350, 87646.00
806.7750, 87997.00
807.9140, 87856.00
809.0540, 88631.30
810.1930, 88360.00
811.3320, 89455.00
812.4710, 89283.00
813.6100, 89808.00
814.7480, 89709.00
815.8870, 88973.00
817.0250, 89224.00
818.1630, 88876.00
819.3010, 88293.00
820.4390, 88137.00
821.5760, 88347.00
822.7140, 88287.00
823.8510, 88572.00
824.9880, 88663.00
826.1250, 88419.00
827.2620, 88587.00
828.3990, 89184.00
829.5350, 89203.00
830.6710, 89918.00
831.8080, 90191.00
832.9440, 90309.00
834.0800, 89918.00
835.2150, 90783.00
836.3510, 90761.00
837.4860, 92044.00
838.6210, 92105.00
839.7560, 92360.00
840.8910, 93759.00
842.0260, 94090.00
843.1610, 95104.00
844.2950, 95064.00
845.4290, 95301.00
846.5640, 95485.00
847.6980, 95000.00
848.8310, 95035.00
849.9650, 94551.00
851.0980, 94335.00
852.2320, 94183.00
853.3650, 94067.00
854.4980, 93905.00
855.6310, 94068.00
856.7630, 94772.00
857.8960, 94187.00
859.0280, 94671.00
860.1610, 94456.00
861.2930, 95034.00
862.4240, 94824.00
863.5560, 94584.00
864.6880, 94821.00
865.8190, 95351.00
866.9500, 95381.00
868.0820, 95230.00
869.2120, 95891.00
870.3430, 95872.00
871.4740, 96157.00
872.6040, 96593.00
873.7350, 96438.00
874.8650, 96897.00
875.9950, 97257.00
877.1250, 97272.00
878.2540, 97880.00
879.3840, 98367.00
880.5130, 99106.00
881.6420, 99508.00
882.7710, 99893.00
883.9000, 100594.0
885.0290, 101064.0
886.1570, 102470.0
887.2860, 103103.0
888.4140, 104782.0
889.5420, 104959.0
890.6700, 107723.0
891.7980, 108784.0
892.9250, 111139.0
894.0530, 113092.0
895.1800, 115406.0
896.3070, 118892.0
897.4340, 122642.0
898.5610, 127883.0
899.6870, 133228.0
900.8140, 140036.0
901.9400, 148392.0
903.0660, 156502.0
904.1920, 166042.0
905.3180, 175020.0
906.4440, 183575.0
907.5690, 190261.0
908.6950, 193958.0
909.8200, 194754.0
910.9450, 191545.0
912.0700, 184881.0
913.1940, 175600.0
914.3190, 166598.0
915.4430, 157333.0
916.5680, 150300.0
917.6920, 141600.0
918.8150, 135629.0
919.9390, 129519.0
921.0630, 125883.0
922.1860, 122088.0
923.3100, 118737.0
924.4330, 116697.0
925.5560, 115132.0
926.6780, 112945.0
927.8010, 112055.0
928.9230, 110302.0
930.0460, 109910.0
931.1680, 108983.0
932.2900, 108453.0
933.4120, 108333.0
934.5330, 107320.0
935.6550, 107113.0
936.7760, 106708.0
937.8970, 106600.0
939.0180, 106449.8
940.1390, 106663.3
941.2600, 106779.6
942.3810, 106804.1
943.5010, 106461.4
944.6210, 106592.9
945.7410, 106534.3
946.8610, 106467.9
947.9810, 106666.1
949.1010, 106376.8
950.2200, 106570.8
951.3390, 106571.8
952.4580, 106661.2
953.5770, 106559.4
954.6960, 106516.6
955.8150, 106665.1
956.9330, 106707.6
958.0520, 106583.8
959.1700, 106678.8
960.2880, 106382.9
961.4050, 106430.0
962.5230, 106625.1
963.6410, 106510.9
964.7580, 106065.0
965.8750, 106408.0
966.9920, 106208.0
968.1090, 105861.0
969.2260, 106116.0
970.3420, 106311.0
971.4590, 106156.0
972.5750, 106352.0
973.6910, 106140.0
974.8070, 106319.0
975.9230, 106303.5
977.0380, 106703.0
978.1540, 106283.0
979.2690, 106835.0
980.3840, 106748.0
981.4990, 106792.0
982.6140, 107246.0
983.7280, 106799.0
984.8430, 107152.0
985.9570, 107072.0
987.0710, 107131.0
988.1850, 107719.0
989.2990, 107473.0
990.4130, 107832.0
991.5260, 107690.0
992.6400, 107928.0
993.7530, 108141.0
994.8660, 107750.0
995.9790, 108394.0
997.0910, 108442.0
998.2040, 108840.0
999.3160, 109267.0
1000.429, 109871.0
1001.541, 109740.0
1002.652, 109924.0
1003.764, 110498.0
1004.876, 111045.0
1005.987, 111237.0
1007.098, 111464.0
1008.210, 111206.0
1009.320, 112061.0
1010.431, 112028.0
1011.542, 111856.0
1012.652, 112242.0
1013.763, 112084.0
1014.873, 111614.0
1015.983, 111563.0
1017.093, 111816.0
1018.202, 111720.0
1019.312, 112357.0
1020.421, 111906.0
1021.530, 112858.0
1022.639, 112989.0
1023.748, 113145.0
1024.857, 113122.0
1025.965, 113571.0
1027.074, 113770.0
1028.182, 113773.0
1029.290, 113810.0
1030.398, 113657.0
1031.505, 114073.0
1032.613, 114223.0
1033.720, 114621.0
1034.828, 114742.1
1035.935, 114879.0
1037.042, 114977.0
1038.148, 115088.0
1039.255, 115191.0
1040.361, 115525.0
1041.468, 115682.5
1042.574, 115899.7
1043.680, 116212.0
1044.786, 116230.0
1045.891, 116550.0
1046.997, 116514.3
1048.102, 116502.0
1049.207, 116691.0
1050.312, 116981.0
1051.417, 117027.0
1052.522, 116992.0
1053.626, 117111.0
1054.730, 117152.5
1055.835, 117379.0
1056.939, 117253.0
1058.043, 117278.0
1059.146, 117191.0
1060.250, 117251.0
1061.353, 117343.0
1062.456, 117589.0
1063.559, 117349.0
1064.662, 117567.0
1065.765, 117495.0
1066.868, 117544.0
1067.970, 117701.3
1069.072, 117728.0
1070.174, 118009.0
1071.276, 118387.0
1072.378, 118644.0
1073.480, 118701.0
1074.581, 118804.0
1075.682, 118759.0
1076.784, 118715.0
1077.885, 118847.0
1078.985, 119252.0
1080.086, 119659.0
1081.187, 119715.0
1082.287, 119940.0
1083.387, 120030.0
1084.487, 120174.3
1085.587, 120224.6
1086.687, 120786.9
1087.786, 121165.5
1088.885, 121370.6
1089.985, 120882.3
1091.084, 121289.4
1092.182, 121337.5
1093.281, 121371.0
1094.380, 121904.1
1095.478, 121516.5
1096.576, 122041.6
1097.674, 122202.3
1098.772, 122529.8
1099.870, 122496.1
1100.968, 122574.1
1102.065, 123013.0
1103.162, 123252.0
1104.259, 123176.7
1105.356, 123514.7
1106.453, 123114.3
1107.550, 123361.8
1108.646, 123888.7
1109.743, 123831.5
1110.839, 124176.0
1111.935, 124367.4
1113.030, 123863.4
1114.126, 124568.7
1115.222, 124751.1
1116.317, 124396.4
1117.412, 125060.2
1118.507, 124779.5
1119.602, 124836.0
1120.697, 125146.1
1121.791, 125191.7
1122.885, 125654.1
1123.980, 125715.1
1125.074, 125740.0
1126.168, 125921.6
1127.261, 125958.6
1128.355, 126220.2
1129.448, 126218.8
1130.541, 126496.9
1131.635, 126838.5
1132.727, 126694.6
1133.820, 127064.6
1134.913, 126637.9
1136.005, 126877.7
1137.097, 127045.7
1138.190, 127208.7
1139.281, 127273.5
1140.373, 127701.6
1141.465, 127931.4
1142.556, 127848.7
1143.648, 128181.2
1144.739, 127777.0
1145.830, 128022.6
1146.921, 128549.5
1148.011, 128493.9
1149.102, 128842.0
1150.192, 129038.8
1151.282, 128542.1
1152.372, 129256.4
1153.462, 129449.6
1154.552, 129107.8
1155.641, 129786.0
1156.731, 129521.7
1157.820, 129596.3
1158.909, 129926.3
1159.998, 129993.7
1161.086, 130479.8
1162.175, 130566.1
1163.263, 130618.2
1164.351, 130828.7
1165.440, 130896.6
1166.527, 131190.9
1167.615, 131224.0
1168.703, 131538.5
1169.790, 131918.0
1170.877, 131814.2
1171.965, 131450.0
1173.051, 131849.0
1174.138, 131952.0
1175.225, 132503.0
1176.311, 132216.0
1177.398, 132769.0
1178.484, 132641.0
1179.570, 132671.0
1180.655, 133013.0
1181.741, 133398.0
1182.827, 132659.0
1183.912, 133167.0
1184.997, 133351.0
1186.082, 133109.0
1187.167, 133386.0
1188.251, 133031.0
1189.336, 133863.0
1190.420, 133523.0
1191.505, 133548.0
1192.589, 134083.0
1193.672, 134013.0
1194.756, 134080.0
1195.840, 134294.0
1196.923, 133986.0
1198.006, 134552.0
1199.089, 134751.0
1200.172, 134248.0
1201.255, 134552.0
1202.337, 135029.0
1203.420, 135079.0
1204.502, 135182.0
1205.584, 135535.0
1206.666, 135551.0
1207.748, 135418.0
1208.829, 135884.0
1209.911, 136084.0
1210.992, 136545.0
1212.073, 136723.5
1213.154, 136822.0
1214.235, 136912.0
1215.316, 137051.0
1216.396, 136758.0
1217.476, 137146.0
1218.556, 137597.0
1219.636, 137163.0
1220.716, 137474.0
1221.796, 138187.0
1222.875, 137708.0
1223.955, 139063.0
1225.034, 138064.0
1226.113, 138439.0
1227.192, 139228.0
1228.270, 139257.0
1229.349, 139508.0
1230.427, 139531.0
1231.505, 139792.0
1232.583, 139420.0
1233.661, 139582.0
1234.739, 139770.0
1235.817, 139738.0
1236.894, 140467.0
1237.971, 140821.0
1239.048, 141002.0
1240.125, 140944.0
1241.202, 141123.0
1242.278, 141374.0
1243.355, 141901.0
1244.431, 141744.0
1245.507, 141893.0
1246.583, 142235.0
