##NAMES=Hardystonite
##RRUFFID=R040026
##IDEAL CHEMISTRY=Ca_2_Zn^2+^Si_2_O_7_
##LOCALITY=Franklin, Sussex County, New Jersey, USA
##OWNER=RRUFF
##SOURCE=University of Arizona Mineral Museum
##DESCRIPTION=White massive
##STATUS=The identification of this mineral has been confirmed by X-ray diffraction and chemical analysis
##URL=rruff.info/R040026
##MEASURED CHEMISTRY=(Ca_1.98_Mn_0.02_)_Σ=2_(Zn_0.99_Al_0.01_)_Σ=1_(Si_1.99_Al_0.01_)_Σ=2_O_7_
##PIN_ID=M01345
##ORIENTATION=Laser parallel to -a* (-1 0 0). Fiducial mark perpendicular to laser is parallel to -c [0 0 -1]
64.81800, 2020.000
66.05300, 2319.000
67.28900, 2783.000
68.52400, 3282.000
69.76000, 3824.000
70.99500, 4482.000
72.23000, 5159.000
73.46500, 6389.000
74.70000, 7449.000
75.93400, 8703.000
77.16900, 10314.00
78.40300, 11901.00
79.63700, 12988.00
80.87100, 14020.00
82.10500, 15269.00
83.33900, 16575.00
84.57300, 17964.00
85.80600, 19121.00
87.04000, 20301.00
88.27300, 21506.00
89.50600, 23096.00
90.73900, 24274.00
91.97200, 25525.00
93.20400, 26891.00
94.43700, 27919.00
95.66900, 28517.00
96.90100, 29111.00
98.13300, 29621.00
99.36500, 30025.00
100.5970, 30239.00
101.8290, 30129.00
103.0600, 30395.00
104.2920, 30396.00
105.5230, 30644.00
106.7540, 31022.00
107.9850, 31008.00
109.2160, 30799.00
110.4460, 30420.00
111.6770, 31054.00
112.9070, 31002.00
114.1370, 31404.00
115.3670, 31924.00
116.5970, 32762.00
117.8270, 32664.00
119.0570, 32728.00
120.2860, 32643.00
121.5150, 32277.76
122.7450, 32462.00
123.9740, 31352.00
125.2030, 30879.00
126.4310, 30231.00
127.6600, 30245.00
128.8890, 30267.00
130.1170, 30412.00
131.3450, 30543.00
132.5730, 30703.00
133.8010, 30805.41
135.0290, 31014.00
136.2560, 31113.00
137.4840, 31155.00
138.7110, 31513.00
139.9380, 31719.00
141.1650, 31804.00
142.3920, 31872.00
143.6190, 32096.00
144.8460, 32151.00
146.0720, 32363.00
147.2980, 32462.00
148.5250, 32648.00
149.7510, 32787.00
150.9770, 32708.00
152.2020, 32721.00
153.4280, 32826.00
154.6530, 32924.00
155.8790, 32972.34
157.1040, 33140.00
158.3290, 33068.00
159.5540, 33326.00
160.7780, 33297.95
162.0030, 33260.00
163.2270, 33498.00
164.4520, 33478.00
165.6760, 33392.00
166.9000, 33504.00
168.1240, 33483.00
169.3470, 33436.00
170.5710, 33420.00
171.7940, 33428.00
173.0180, 33484.93
174.2410, 33503.08
175.4640, 33628.00
176.6870, 33652.00
177.9090, 33659.00
179.1320, 33854.00
180.3540, 33706.00
181.5760, 33817.00
182.7990, 33740.00
184.0210, 33926.00
185.2420, 33715.00
186.4640, 33927.00
187.6860, 34008.00
188.9070, 33996.00
190.1280, 34140.80
191.3490, 34066.00
192.5700, 34277.00
193.7910, 34276.00
195.0120, 34309.00
196.2320, 34567.00
197.4520, 34918.00
198.6730, 34669.00
199.8930, 34978.00
201.1130, 35127.00
202.3320, 35207.00
203.5520, 35670.00
204.7720, 35427.00
205.9910, 35647.00
207.2100, 35701.00
208.4290, 35621.00
209.6480, 35754.00
210.8670, 35358.00
212.0850, 35339.00
213.3040, 35459.00
214.5220, 35445.00
215.7400, 35508.00
216.9580, 35352.00
218.1760, 35697.00
219.3940, 35517.00
220.6110, 35751.00
221.8290, 35669.00
223.0460, 35640.00
224.2630, 35903.00
225.4800, 35955.00
226.6970, 35731.00
227.9140, 36043.00
229.1300, 36061.00
230.3470, 35911.00
231.5630, 36329.00
232.7790, 36642.00
233.9950, 36281.00
235.2110, 36514.00
236.4260, 36961.00
237.6420, 36873.00
238.8570, 37248.00
240.0730, 37476.00
241.2880, 37926.00
242.5030, 37734.00
243.7170, 38134.00
244.9320, 37984.00
246.1460, 38393.00
247.3610, 38292.00
248.5750, 38592.00
249.7890, 38615.00
251.0030, 38609.00
252.2170, 38488.00
253.4300, 38831.00
254.6440, 39290.00
255.8570, 39222.00
257.0700, 39522.00
258.2830, 39425.00
259.4960, 39557.00
260.7090, 39968.00
261.9210, 40132.00
263.1330, 40364.00
264.3460, 40693.00
265.5580, 40873.00
266.7700, 41138.00
267.9820, 41258.00
269.1930, 41955.00
270.4050, 42086.00
271.6160, 42533.00
272.8270, 42579.00
274.0380, 42612.00
275.2490, 43366.00
276.4600, 43509.00
277.6710, 43511.00
278.8810, 43593.00
280.0920, 43686.00
281.3020, 43636.00
282.5120, 43567.00
283.7220, 43532.70
284.9310, 43441.00
286.1410, 43316.00
287.3500, 42990.00
288.5600, 42770.00
289.7690, 42564.00
290.9780, 42706.00
292.1870, 42614.02
293.3950, 42773.00
294.6040, 42865.00
295.8120, 42963.00
297.0200, 43170.64
298.2280, 43283.00
299.4360, 43628.00
300.6440, 43829.00
301.8520, 44171.00
303.0590, 44650.00
304.2670, 44582.00
305.4740, 44980.00
306.6810, 45262.00
307.8880, 45361.00
309.0950, 45232.00
310.3010, 45358.00
311.5080, 45708.00
312.7140, 45774.00
313.9200, 45990.00
315.1260, 45775.00
316.3320, 45504.00
317.5380, 45404.00
318.7430, 45024.00
319.9480, 44727.80
321.1540, 44126.00
322.3590, 43911.00
323.5640, 43390.00
324.7680, 42794.00
325.9730, 42509.00
327.1780, 42207.00
328.3820, 41711.00
329.5860, 41695.00
330.7900, 41225.00
331.9940, 41043.00
333.1980, 40959.00
334.4010, 40766.00
335.6050, 40632.02
336.8080, 40509.00
338.0110, 40352.00
339.2140, 40239.00
340.4170, 40136.00
341.6200, 40062.72
342.8220, 40066.00
344.0250, 39942.00
345.2270, 39955.00
346.4290, 39855.00
347.6310, 39799.00
348.8330, 39561.00
350.0340, 39754.00
351.2360, 39599.62
352.4370, 39763.00
353.6380, 39519.00
354.8390, 39716.00
356.0400, 39716.00
357.2410, 39846.00
358.4410, 39863.00
359.6420, 39719.00
360.8420, 39655.00
362.0420, 39808.00
363.2420, 39700.00
364.4420, 39955.00
365.6420, 39966.00
366.8410, 39960.00
368.0410, 39975.00
369.2400, 39943.00
370.4390, 39957.86
371.6380, 39947.53
372.8360, 39974.00
374.0350, 39973.00
375.2330, 39996.00
376.4320, 40091.00
377.6300, 40380.00
378.8280, 40255.00
380.0260, 40299.00
381.2230, 40429.00
382.4210, 40253.00
383.6180, 40529.00
384.8160, 40674.00
386.0130, 40709.00
387.2100, 40466.00
388.4060, 40747.00
389.6030, 40646.00
390.7990, 40588.00
391.9960, 40940.00
393.1920, 40706.00
394.3880, 40849.00
395.5840, 40884.00
396.7790, 41249.00
397.9750, 41026.00
399.1700, 41176.00
400.3660, 41020.00
401.5610, 41481.00
402.7560, 41358.00
403.9510, 41564.00
405.1450, 41683.00
406.3400, 41652.00
407.5340, 41616.00
408.7280, 41658.70
409.9220, 41695.00
411.1160, 41663.00
412.3100, 41637.00
413.5030, 41645.31
414.6970, 41964.00
415.8900, 41897.00
417.0830, 41935.00
418.2760, 42178.00
419.4690, 42151.55
420.6620, 42134.00
421.8540, 42316.00
423.0460, 42562.00
424.2390, 42684.00
425.4310, 42583.00
426.6230, 42767.00
427.8140, 42739.00
429.0060, 43170.00
430.1970, 43465.00
431.3890, 43235.00
432.5800, 43249.00
433.7710, 43788.00
434.9610, 43960.00
436.1520, 44164.00
437.3430, 44359.00
438.5330, 44396.00
439.7230, 44838.00
440.9130, 44942.00
442.1030, 45309.00
443.2930, 45806.00
444.4820, 45511.00
445.6720, 45491.00
446.8610, 45869.00
448.0500, 45783.00
449.2390, 46014.00
450.4280, 46087.00
451.6170, 46252.00
452.8050, 46243.00
453.9940, 46657.00
455.1820, 46489.00
456.3700, 46458.00
457.5580, 47100.39
458.7450, 46939.40
459.9330, 46977.86
461.1200, 47146.00
462.3080, 46912.00
463.4950, 46925.00
464.6820, 47236.00
465.8690, 47769.00
467.0550, 47529.00
468.2420, 48006.00
469.4280, 48113.00
470.6140, 48441.00
471.8000, 48597.00
472.9860, 48903.00
474.1720, 49196.00
475.3570, 49441.00
476.5430, 49639.00
477.7280, 49965.00
478.9130, 50300.00
480.0980, 50167.00
481.2830, 50420.00
482.4680, 50317.00
483.6520, 50703.00
484.8360, 50392.00
486.0210, 50520.00
487.2050, 50570.00
488.3890, 50427.00
489.5720, 50028.00
490.7560, 50219.00
491.9390, 49950.00
493.1220, 49721.00
494.3060, 49610.00
495.4880, 49543.00
496.6710, 49298.00
497.8540, 49353.00
499.0360, 49020.00
500.2190, 48880.00
501.4010, 48794.00
502.5830, 48635.30
503.7650, 48564.47
504.9460, 48563.00
506.1280, 48455.00
507.3090, 48590.00
508.4910, 48652.00
509.6720, 48384.00
510.8530, 48263.00
512.0330, 48451.00
513.2140, 48695.00
514.3940, 48577.00
515.5750, 48507.00
516.7550, 48647.00
517.9350, 48627.00
519.1150, 48279.00
520.2940, 48764.00
521.4740, 48575.00
522.6530, 49143.00
523.8320, 48808.00
525.0110, 49081.00
526.1900, 48814.00
527.3690, 48886.00
528.5480, 49350.00
529.7260, 49234.00
530.9040, 49419.00
532.0820, 49346.00
533.2600, 49510.00
534.4380, 49618.00
535.6160, 49620.00
536.7930, 50101.00
537.9700, 50040.00
539.1480, 50472.00
540.3250, 50270.00
541.5020, 50541.00
542.6780, 50599.00
543.8550, 50754.00
545.0310, 50814.75
546.2070, 50801.00
547.3830, 50925.00
548.5590, 51096.00
549.7350, 51288.00
550.9110, 51594.00
552.0860, 51361.00
553.2610, 51601.00
554.4370, 51286.00
555.6120, 51342.00
556.7860, 51599.00
557.9610, 51503.00
559.1360, 51579.00
560.3100, 51643.00
561.4840, 51614.00
562.6580, 51679.28
563.8320, 51672.51
565.0060, 51691.00
566.1790, 51693.00
567.3530, 51606.00
568.5260, 51653.00
569.6990, 51756.00
570.8720, 52242.00
572.0450, 51898.00
573.2170, 52120.00
574.3900, 52288.00
575.5620, 52202.00
576.7340, 52676.00
577.9060, 52623.00
579.0780, 52806.00
580.2500, 53191.00
581.4210, 53274.00
582.5930, 53311.00
583.7640, 53652.00
584.9350, 53584.00
586.1060, 53930.48
587.2760, 54264.00
588.4470, 54578.00
589.6170, 54856.00
590.7880, 55292.00
591.9580, 55518.66
593.1280, 55825.00
594.2970, 56062.00
595.4670, 56474.00
596.6360, 56779.49
597.8060, 57571.00
598.9750, 57920.00
600.1440, 58715.00
601.3130, 59588.00
602.4810, 60616.00
603.6500, 62157.00
604.8180, 63401.00
605.9860, 65532.00
607.1540, 68052.00
608.3220, 70388.00
609.4900, 73522.00
610.6580, 76180.00
611.8250, 79122.00
612.9920, 81008.00
614.1590, 82404.00
615.3260, 83069.00
616.4930, 82159.00
617.6600, 80458.00
618.8260, 78193.00
619.9920, 76256.00
621.1590, 74315.00
622.3250, 72133.00
623.4900, 70443.00
624.6560, 68820.00
625.8220, 67727.00
626.9870, 66619.00
628.1520, 65896.00
629.3170, 65243.00
630.4820, 64757.00
631.6470, 63976.00
632.8110, 63683.00
633.9760, 63047.00
635.1400, 62679.00
636.3040, 62294.00
637.4680, 62222.15
638.6310, 62197.00
639.7950, 62325.00
640.9590, 62752.00
642.1220, 62847.00
643.2850, 63437.00
644.4480, 63810.00
645.6110, 64694.00
646.7730, 65648.00
647.9360, 66618.00
649.0980, 68170.00
650.2600, 70111.00
651.4220, 72392.00
652.5840, 75571.00
653.7460, 78917.00
654.9070, 82966.00
656.0690, 87858.00
657.2300, 93097.00
658.3910, 98768.00
659.5520, 104467.0
660.7120, 109067.0
661.8730, 113836.0
663.0330, 115835.0
664.1940, 116198.0
665.3540, 114468.0
666.5140, 111136.0
667.6730, 106103.0
668.8330, 101400.0
669.9920, 97243.00
671.1520, 92711.00
672.3110, 88865.00
673.4700, 84932.00
674.6290, 82432.00
675.7870, 79779.00
676.9460, 77006.00
678.1040, 75084.00
679.2620, 73179.00
680.4200, 71809.00
681.5780, 69786.00
682.7360, 68807.00
683.8930, 67367.00
685.0510, 66562.00
686.2080, 65823.00
687.3650, 65143.00
688.5220, 64509.00
689.6780, 64637.00
690.8350, 63651.00
691.9910, 63355.00
693.1480, 63457.00
694.3040, 62877.00
695.4600, 63062.00
696.6150, 62586.00
697.7710, 62445.00
698.9260, 62769.00
700.0820, 62550.00
701.2370, 62644.00
702.3920, 62499.00
703.5460, 62869.00
704.7010, 62568.00
705.8550, 62764.00
707.0100, 62337.00
708.1640, 62414.00
709.3180, 62621.00
710.4720, 62508.00
711.6250, 62893.00
712.7790, 62681.00
713.9320, 62937.00
715.0850, 62869.00
716.2380, 62623.00
717.3910, 63187.00
718.5440, 62918.00
719.6960, 63378.00
720.8490, 63315.00
722.0010, 62991.00
723.1530, 63145.00
724.3050, 63294.00
725.4570, 63706.00
726.6080, 63728.00
727.7600, 63520.00
728.9110, 63586.00
730.0620, 63889.00
731.2130, 63500.00
732.3640, 63697.00
733.5140, 63990.00
734.6650, 64299.00
735.8150, 64305.57
736.9650, 64046.00
738.1150, 64368.00
739.2650, 64335.00
740.4140, 64461.00
741.5640, 64475.00
742.7130, 64572.99
743.8620, 64941.00
745.0110, 64764.00
746.1600, 64960.00
747.3090, 65018.00
748.4570, 65009.00
749.6060, 65058.00
750.7540, 65000.00
751.9020, 65164.00
753.0500, 65278.00
754.1970, 65383.00
755.3450, 65675.00
756.4920, 66042.00
757.6390, 65868.00
758.7860, 66140.00
759.9330, 65815.00
761.0800, 65711.00
762.2260, 65916.00
763.3730, 66529.00
764.5190, 66596.00
765.6650, 66298.00
766.8110, 66542.00
767.9570, 66524.00
769.1020, 66950.00
770.2480, 67036.00
771.3930, 66608.00
772.5380, 67232.00
773.6830, 66906.00
774.8280, 67010.00
775.9720, 67412.00
777.1170, 67626.00
778.2610, 67275.00
779.4050, 67762.00
780.5490, 67773.00
781.6930, 67995.00
782.8360, 67974.00
783.9800, 67974.00
785.1230, 68258.00
786.2660, 68107.00
787.4090, 68669.00
788.5520, 68500.00
789.6950, 69000.00
790.8370, 68564.00
791.9790, 69101.00
793.1220, 69076.00
794.2640, 69408.00
795.4050, 69248.00
796.5470, 69091.00
797.6890, 69798.00
798.8300, 69537.00
799.9710, 69550.00
801.1120, 70095.00
802.2530, 70050.00
803.3940, 70447.00
804.5340, 70340.00
805.6750, 70353.00
806.8150, 70394.00
807.9550, 70538.00
809.0950, 71169.00
810.2340, 70817.00
811.3740, 71071.00
812.5130, 71966.00
813.6520, 71377.00
814.7910, 71848.00
815.9300, 71905.00
817.0690, 71996.00
818.2080, 72217.00
819.3460, 72431.00
820.4840, 72386.00
821.6220, 72438.00
822.7600, 72758.00
823.8980, 72557.00
825.0350, 73161.00
826.1730, 72886.00
827.3100, 73187.00
828.4470, 73067.00
829.5840, 73415.00
830.7210, 73817.00
831.8570, 73905.00
832.9940, 74196.05
834.1300, 74490.00
835.2660, 74540.00
836.4020, 74630.00
837.5380, 74765.00
838.6740, 74929.00
839.8090, 75189.00
840.9440, 75428.00
842.0790, 75565.38
843.2140, 75641.00
844.3490, 75858.00
845.4840, 76169.00
846.6180, 76330.00
847.7520, 76310.00
848.8870, 76585.00
850.0210, 76686.00
851.1540, 76752.08
852.2880, 76973.00
853.4210, 77055.00
854.5550, 77296.00
855.6880, 77795.00
856.8210, 77666.00
857.9540, 77991.00
859.0860, 78024.00
860.2190, 78206.00
861.3510, 78194.00
862.4830, 78176.00
863.6150, 78707.00
864.7470, 78876.00
865.8790, 78754.00
867.0100, 78714.00
868.1410, 78971.00
869.2730, 79244.00
870.4040, 79606.00
871.5340, 79644.00
872.6650, 80468.00
873.7960, 80276.00
874.9260, 80721.00
876.0560, 80924.00
877.1860, 81728.00
878.3160, 82093.11
879.4460, 82826.00
880.5750, 82914.00
881.7040, 83565.00
882.8340, 83485.00
883.9630, 84338.00
885.0920, 84426.00
886.2200, 85765.00
887.3490, 86303.00
888.4770, 87489.00
889.6050, 89040.00
890.7330, 90436.00
891.8610, 91617.00
892.9890, 93953.00
894.1160, 96120.00
895.2440, 99114.00
896.3710, 102504.0
897.4980, 106483.0
898.6250, 111832.0
899.7510, 118047.0
900.8780, 125424.0
902.0040, 132750.0
903.1310, 142113.0
904.2570, 151214.0
905.3820, 159343.0
906.5080, 167383.0
907.6340, 171150.0
908.7590, 173556.0
909.8840, 171330.0
911.0090, 166154.0
912.1340, 158154.0
913.2590, 149358.0
914.3830, 141254.0
915.5080, 133393.0
916.6320, 125928.0
917.7560, 120268.0
918.8800, 114422.0
920.0040, 109512.0
921.1270, 106049.0
922.2510, 103015.0
923.3740, 100346.0
924.4970, 98603.00
925.6200, 96989.00
926.7420, 95502.00
927.8650, 94988.00
928.9870, 93906.00
930.1100, 93249.00
931.2320, 92389.00
932.3540, 91878.00
933.4750, 92002.00
934.5970, 91839.00
935.7180, 91792.00
936.8390, 91850.00
937.9600, 92043.00
939.0810, 92166.39
940.2020, 92193.00
941.3230, 92497.00
942.4430, 92591.00
943.5630, 92526.00
944.6830, 92156.00
945.8030, 92093.00
946.9230, 91741.00
948.0420, 91824.00
949.1620, 91618.00
950.2810, 91311.00
951.4000, 91200.00
952.5190, 91195.00
953.6380, 91247.00
954.7560, 91031.00
955.8750, 90645.00
956.9930, 90750.00
958.1110, 90792.00
959.2290, 90772.00
960.3460, 90836.00
961.4640, 90789.00
962.5810, 90656.00
963.6990, 90883.00
964.8160, 90558.00
965.9320, 90684.00
967.0490, 91302.00
968.1660, 91014.00
969.2820, 91471.00
970.3980, 91556.00
971.5140, 91637.00
972.6300, 91250.00
973.7460, 91932.00
974.8610, 91731.00
975.9770, 92348.00
977.0920, 92377.00
978.2070, 92557.00
979.3220, 92823.00
980.4370, 93391.00
981.5510, 93231.00
982.6660, 93526.00
983.7800, 93629.00
984.8940, 94422.00
986.0080, 95031.00
987.1210, 95903.00
988.2350, 96263.00
989.3480, 96540.00
990.4610, 97387.00
991.5750, 98369.00
992.6870, 99567.00
993.8000, 99673.00
994.9130, 100555.0
996.0250, 101125.0
997.1370, 101619.0
998.2490, 102215.0
999.3610, 102488.0
1000.473, 102713.0
1001.584, 102448.0
1002.696, 102737.0
1003.807, 102618.0
1004.918, 102649.0
1006.029, 102607.0
1007.139, 101588.0
1008.250, 101683.0
1009.360, 101341.0
1010.470, 100540.0
1011.580, 100516.0
1012.690, 99873.00
1013.800, 99767.00
1014.909, 99414.00
1016.019, 99546.00
1017.128, 99468.00
1018.237, 99556.00
1019.346, 98940.00
1020.454, 99346.00
1021.563, 99266.00
1022.671, 98730.00
1023.779, 98855.00
1024.887, 98535.00
1025.995, 98274.00
1027.103, 98206.00
1028.210, 98345.00
1029.318, 98138.42
1030.425, 98246.00
1031.532, 98060.00
1032.638, 98096.00
1033.745, 98255.00
1034.852, 98385.00
1035.958, 98229.00
1037.064, 98448.00
1038.170, 98748.00
1039.276, 99118.00
1040.381, 99115.32
1041.487, 98746.00
1042.592, 99215.00
1043.697, 98977.00
1044.802, 99168.00
1045.907, 99416.00
1047.012, 99826.00
1048.116, 99957.00
1049.220, 99730.00
1050.324, 99949.00
1051.428, 99984.00
1052.532, 100567.0
1053.636, 100741.0
1054.739, 100406.0
1055.842, 100701.0
1056.946, 100360.0
1058.048, 101060.0
1059.151, 100695.0
1060.254, 101384.0
1061.356, 100971.0
1062.459, 101467.0
1063.561, 101650.0
1064.662, 101430.0
1065.764, 102136.0
1066.866, 101889.0
1067.967, 102320.0
1069.068, 101821.0
1070.169, 101683.0
1071.270, 102291.0
1072.371, 102209.0
1073.472, 102590.0
1074.572, 102772.0
1075.672, 102693.0
1076.772, 103179.0
1077.872, 103380.0
1078.972, 103364.0
1080.071, 103671.0
1081.171, 103570.0
1082.270, 104209.0
1083.369, 104220.0
1084.468, 104405.0
1085.567, 104538.0
1086.665, 104682.0
1087.763, 104845.0
1088.862, 105218.0
1089.960, 105264.8
1091.057, 105234.0
1092.155, 105461.0
1093.253, 105312.0
1094.350, 105310.0
1095.447, 105532.0
1096.544, 105599.0
1097.641, 105764.0
1098.738, 106011.0
1099.834, 106267.0
1100.930, 106587.0
1102.027, 106682.0
1103.123, 107035.0
1104.218, 107093.0
1105.314, 106861.0
1106.409, 107132.0
1107.505, 107410.0
1108.600, 107214.0
1109.695, 107715.0
1110.790, 107690.0
1111.884, 108439.0
1112.979, 108178.0
1114.073, 108004.0
1115.167, 108646.0
1116.261, 108381.0
1117.355, 108449.0
1118.448, 108599.0
1119.542, 109167.0
1120.635, 108890.0
1121.728, 108904.0
1122.821, 109468.0
1123.914, 109121.0
1125.006, 109670.0
1126.099, 109935.0
1127.191, 110505.0
1128.283, 110499.4
1129.375, 110441.0
1130.466, 110340.0
1131.558, 110301.0
1132.649, 109971.0
1133.741, 110792.0
1134.832, 111189.0
1135.922, 110745.0
1137.013, 111430.0
1138.104, 111563.0
1139.194, 111784.0
1140.284, 111774.0
1141.374, 112218.0
1142.464, 112015.0
1143.554, 112168.0
1144.643, 112700.0
1145.733, 112376.0
1146.822, 112855.0
1147.911, 112978.0
1148.999, 112477.0
1150.088, 113487.0
1151.177, 113108.0
1152.265, 113870.0
1153.353, 114211.0
1154.441, 113673.0
1155.529, 113892.0
1156.616, 114360.0
1157.704, 114556.0
1158.791, 114733.2
1159.878, 114498.0
1160.965, 114935.0
1162.052, 115045.0
1163.138, 115051.0
1164.225, 115609.0
1165.311, 115463.0
1166.397, 115916.0
1167.483, 115728.0
1168.569, 115986.0
1169.654, 115798.0
1170.740, 116498.0
1171.825, 116763.0
1172.910, 117013.0
1173.995, 116641.0
1175.080, 117058.0
1176.164, 117335.0
1177.248, 117396.0
1178.333, 117718.0
1179.417, 118003.0
1180.501, 118302.0
1181.584, 118385.0
1182.668, 118496.0
1183.751, 118586.7
1184.834, 118709.1
1185.917, 118818.5
1187.000, 118942.0
1188.083, 119033.0
1189.165, 119107.0
1190.247, 119170.2
1191.329, 119471.0
1192.411, 119278.0
1193.493, 119426.0
1194.575, 119765.0
1195.656, 119764.0
1196.738, 120290.0
1197.819, 120202.0
1198.900, 120632.0
1199.980, 120966.0
1201.061, 120558.0
1202.141, 120949.0
1203.222, 121524.0
1204.302, 121166.0
1205.381, 121142.0
1206.461, 121128.0
1207.541, 122120.0
1208.620, 121711.0
1209.699, 122176.0
1210.778, 122461.0
1211.857, 122320.0
1212.936, 122627.0
1214.014, 122841.0
1215.093, 122892.0
1216.171, 122921.0
1217.249, 122954.0
1218.327, 123150.5
1219.404, 123643.0
1220.482, 123722.0
1221.559, 123994.0
1222.636, 124601.0
1223.713, 124421.0
1224.790, 124432.0
1225.867, 124425.0
1226.943, 124775.0
1228.019, 125393.0
1229.095, 125622.0
1230.171, 125801.0
1231.247, 126183.0
1232.323, 126193.9
1233.398, 126260.0
1234.473, 126274.0
1235.548, 126113.0
1236.623, 126101.0
1237.698, 126206.0
1238.773, 126732.0
1239.847, 127017.0
1240.921, 126780.0
1241.995, 127611.0
1243.069, 127180.0
1244.143, 128086.0
1245.216, 127905.0
1246.290, 127895.0
