##NAMES=Hardystonite
##RRUFFID=R040026
##IDEAL CHEMISTRY=Ca_2_Zn^2+^Si_2_O_7_
##LOCALITY=Franklin, Sussex County, New Jersey, USA
##OWNER=RRUFF
##SOURCE=University of Arizona Mineral Museum
##DESCRIPTION=White massive
##STATUS=The identification of this mineral has been confirmed by X-ray diffraction and chemical analysis
##URL=rruff.info/R040026
##MEASURED CHEMISTRY=(Ca_1.98_Mn_0.02_)_Σ=2_(Zn_0.99_Al_0.01_)_Σ=1_(Si_1.99_Al_0.01_)_Σ=2_O_7_
##PIN_ID=M01345
##ORIENTATION=Laser parallel to -a* (-1 0 0). Fiducial mark perpendicular to laser is parallel to -c [0 0 -1]
64.81800, 2547.000
66.05300, 3008.000
67.28900, 3634.000
68.52400, 4224.000
69.76000, 5131.000
70.99500, 6000.000
72.23000, 7214.000
73.46500, 8609.000
74.70000, 9865.000
75.93400, 11727.00
77.16900, 13878.00
78.40300, 15926.00
79.63700, 17648.00
80.87100, 19395.00
82.10500, 21331.00
83.33900, 23367.00
84.57300, 25227.00
85.80600, 27169.00
87.04000, 29087.00
88.27300, 30948.00
89.50600, 32844.00
90.73900, 34592.00
91.97200, 36583.00
93.20400, 38371.00
94.43700, 39731.00
95.66900, 40606.00
96.90100, 41705.00
98.13300, 42548.00
99.36500, 43119.00
100.5970, 43590.00
101.8290, 43909.00
103.0600, 44321.22
104.2920, 44481.00
105.5230, 44869.00
106.7540, 45138.00
107.9850, 45231.00
109.2160, 45051.00
110.4460, 45048.00
111.6770, 45059.00
112.9070, 45443.00
114.1370, 45653.00
115.3670, 46214.00
116.5970, 46882.00
117.8270, 47209.00
119.0570, 47238.00
120.2860, 47476.00
121.5150, 47467.99
122.7450, 47184.87
123.9740, 47208.00
125.2030, 46584.00
126.4310, 45996.00
127.6600, 45977.00
128.8890, 45688.00
130.1170, 45807.00
131.3450, 46221.00
132.5730, 46273.00
133.8010, 46496.00
135.0290, 46554.00
136.2560, 47131.00
137.4840, 47267.00
138.7110, 47530.00
139.9380, 47735.00
141.1650, 48359.00
142.3920, 48289.00
143.6190, 48804.00
144.8460, 48986.00
146.0720, 49182.00
147.2980, 49500.00
148.5250, 50047.00
149.7510, 49789.00
150.9770, 49809.00
152.2020, 50412.00
153.4280, 50236.00
154.6530, 50426.00
155.8790, 50661.00
157.1040, 50548.00
158.3290, 50961.00
159.5540, 50920.00
160.7780, 51312.00
162.0030, 51309.00
163.2270, 51363.00
164.4520, 51489.00
165.6760, 51529.00
166.9000, 51447.00
168.1240, 51506.00
169.3470, 51254.00
170.5710, 51608.00
171.7940, 51518.00
173.0180, 51753.00
174.2410, 51889.00
175.4640, 51841.00
176.6870, 52118.00
177.9090, 52310.00
179.1320, 52130.00
180.3540, 52273.00
181.5760, 52329.00
182.7990, 52464.00
184.0210, 52501.29
185.2420, 52572.00
186.4640, 52579.00
187.6860, 52477.00
188.9070, 52520.00
190.1280, 52944.00
191.3490, 52724.00
192.5700, 52717.00
193.7910, 53275.00
195.0120, 53474.00
196.2320, 53618.00
197.4520, 53923.00
198.6730, 54003.00
199.8930, 54717.00
201.1130, 55105.00
202.3320, 55061.00
203.5520, 55440.00
204.7720, 55299.00
205.9910, 55743.00
207.2100, 55432.00
208.4290, 55391.00
209.6480, 54782.00
210.8670, 54829.00
212.0850, 54222.00
213.3040, 53995.00
214.5220, 54115.00
215.7400, 53951.00
216.9580, 53964.09
218.1760, 53584.00
219.3940, 53828.00
220.6110, 54110.00
221.8290, 53730.00
223.0460, 53737.00
224.2630, 53996.00
225.4800, 53942.00
226.6970, 53975.00
227.9140, 53982.00
229.1300, 54219.00
230.3470, 54677.00
231.5630, 54476.00
232.7790, 54399.00
233.9950, 55291.00
235.2110, 55029.00
236.4260, 55546.00
237.6420, 55763.00
238.8570, 55819.00
240.0730, 56396.00
241.2880, 56465.00
242.5030, 56816.00
243.7170, 56987.00
244.9320, 57447.00
246.1460, 57776.00
247.3610, 57740.00
248.5750, 58299.00
249.7890, 58394.00
251.0030, 58423.00
252.2170, 58763.00
253.4300, 59240.00
254.6440, 59476.00
255.8570, 59550.00
257.0700, 60301.00
258.2830, 60480.00
259.4960, 60726.00
260.7090, 61423.00
261.9210, 61782.00
263.1330, 62274.00
264.3460, 62714.00
265.5580, 63110.00
266.7700, 63866.00
267.9820, 64647.00
269.1930, 64763.00
270.4050, 65433.00
271.6160, 66160.00
272.8270, 66810.00
274.0380, 67351.81
275.2490, 67884.34
276.4600, 68289.24
277.6710, 68703.52
278.8810, 68992.08
280.0920, 69206.34
281.3020, 69128.38
282.5120, 69274.71
283.7220, 68954.02
284.9310, 68681.00
286.1410, 68291.00
287.3500, 68109.00
288.5600, 68016.00
289.7690, 67950.00
290.9780, 67593.00
292.1870, 67681.00
293.3950, 67642.00
294.6040, 67694.00
295.8120, 67935.00
297.0200, 68918.00
298.2280, 69027.00
299.4360, 69809.00
300.6440, 70254.00
301.8520, 70401.00
303.0590, 71221.00
304.2670, 71881.00
305.4740, 71922.00
306.6810, 72160.00
307.8880, 72730.00
309.0950, 72793.00
310.3010, 73112.00
311.5080, 73559.00
312.7140, 73677.00
313.9200, 73788.00
315.1260, 73612.00
316.3320, 73529.00
317.5380, 72783.00
318.7430, 72019.00
319.9480, 71416.00
321.1540, 70547.09
322.3590, 69716.00
323.5640, 68899.00
324.7680, 68161.00
325.9730, 67364.00
327.1780, 66578.00
328.3820, 65606.00
329.5860, 65197.00
330.7900, 64742.00
331.9940, 64512.00
333.1980, 64030.00
334.4010, 63713.00
335.6050, 63297.00
336.8080, 62896.00
338.0110, 62610.00
339.2140, 62379.00
340.4170, 62158.00
341.6200, 62054.23
342.8220, 61957.00
344.0250, 61945.00
345.2270, 61898.00
346.4290, 61892.00
347.6310, 61781.67
348.8330, 61722.57
350.0340, 61559.00
351.2360, 61485.00
352.4370, 61392.00
353.6380, 61153.00
354.8390, 61155.47
356.0400, 61407.00
357.2410, 61230.00
358.4410, 61268.00
359.6420, 61668.00
360.8420, 61333.00
362.0420, 61479.00
363.2420, 61277.00
364.4420, 61397.00
365.6420, 61657.00
366.8410, 61359.00
368.0410, 61436.00
369.2400, 61325.00
370.4390, 61353.00
371.6380, 61653.00
372.8360, 61790.00
374.0350, 61625.00
375.2330, 61864.00
376.4320, 61335.00
377.6300, 61804.00
378.8280, 62086.00
380.0260, 61786.00
381.2230, 61971.00
382.4210, 61971.00
383.6180, 62209.00
384.8160, 62339.00
386.0130, 62531.00
387.2100, 62536.00
388.4060, 62463.00
389.6030, 62312.00
390.7990, 62438.00
391.9960, 62715.00
393.1920, 62768.00
394.3880, 62859.00
395.5840, 62697.00
396.7790, 63064.00
397.9750, 62944.00
399.1700, 63130.00
400.3660, 63646.00
401.5610, 63158.00
402.7560, 63479.00
403.9510, 63381.00
405.1450, 63670.00
406.3400, 63763.00
407.5340, 63778.00
408.7280, 63700.00
409.9220, 63631.00
411.1160, 64035.00
412.3100, 64202.00
413.5030, 64871.00
414.6970, 64127.00
415.8900, 64309.00
417.0830, 64210.00
418.2760, 64772.00
419.4690, 64502.00
420.6620, 64743.00
421.8540, 64539.00
423.0460, 65041.00
424.2390, 65443.00
425.4310, 65462.00
426.6230, 65494.00
427.8140, 65376.00
429.0060, 65545.00
430.1970, 65661.00
431.3890, 65961.00
432.5800, 66387.00
433.7710, 66426.00
434.9610, 66664.00
436.1520, 67072.00
437.3430, 67102.00
438.5330, 67478.00
439.7230, 67943.00
440.9130, 67760.00
442.1030, 68308.00
443.2930, 68397.00
444.4820, 68368.00
445.6720, 68728.00
446.8610, 69110.00
448.0500, 69000.00
449.2390, 68944.00
450.4280, 69170.00
451.6170, 69218.08
452.8050, 69389.00
453.9940, 69549.00
455.1820, 69725.00
456.3700, 69812.00
457.5580, 69951.00
458.7450, 70126.00
459.9330, 70289.00
461.1200, 70137.00
462.3080, 70520.00
463.4950, 70289.00
464.6820, 70655.00
465.8690, 71320.00
467.0550, 71084.00
468.2420, 71610.00
469.4280, 72033.00
470.6140, 72539.00
471.8000, 72157.00
472.9860, 72945.00
474.1720, 73057.00
475.3570, 73189.00
476.5430, 73916.00
477.7280, 73683.00
478.9130, 74204.00
480.0980, 73959.00
481.2830, 74332.00
482.4680, 74336.00
483.6520, 74401.00
484.8360, 74142.00
486.0210, 74591.00
487.2050, 74268.40
488.3890, 74814.00
489.5720, 74059.00
490.7560, 73902.00
491.9390, 74107.00
493.1220, 73778.00
494.3060, 73631.00
495.4880, 73622.00
496.6710, 73517.00
497.8540, 73231.00
499.0360, 73137.00
500.2190, 72948.00
501.4010, 72902.00
502.5830, 73060.00
503.7650, 73195.00
504.9460, 73151.00
506.1280, 72691.00
507.3090, 72588.00
508.4910, 72629.00
509.6720, 72931.00
510.8530, 73015.00
512.0330, 73092.00
513.2140, 72884.00
514.3940, 73419.00
515.5750, 73180.00
516.7550, 72972.00
517.9350, 73339.00
519.1150, 73404.00
520.2940, 73348.00
521.4740, 73291.00
522.6530, 73464.00
523.8320, 73471.00
525.0110, 73515.12
526.1900, 73776.00
527.3690, 73703.00
528.5480, 73903.00
529.7260, 74228.00
530.9040, 74284.00
532.0820, 74357.00
533.2600, 74233.00
534.4380, 74617.00
535.6160, 74832.00
536.7930, 75136.00
537.9700, 75269.00
539.1480, 75406.58
540.3250, 75534.00
541.5020, 75652.00
542.6780, 75782.00
543.8550, 76079.00
545.0310, 76519.00
546.2070, 76574.00
547.3830, 76987.00
548.5590, 76664.00
549.7350, 76749.00
550.9110, 77302.00
552.0860, 76791.00
553.2610, 77097.00
554.4370, 77210.00
555.6120, 77001.00
556.7860, 77172.00
557.9610, 77032.00
559.1360, 77033.23
560.3100, 77333.00
561.4840, 76977.00
562.6580, 77153.00
563.8320, 77057.00
565.0060, 77053.00
566.1790, 77225.00
567.3530, 77088.00
568.5260, 77644.00
569.6990, 77444.36
570.8720, 77420.41
572.0450, 77549.00
573.2170, 77317.00
574.3900, 77810.00
575.5620, 78216.00
576.7340, 78162.00
577.9060, 78413.00
579.0780, 78645.00
580.2500, 79114.00
581.4210, 78820.00
582.5930, 79558.00
583.7640, 79329.00
584.9350, 79793.00
586.1060, 79985.00
587.2760, 80051.00
588.4470, 80442.00
589.6170, 80974.00
590.7880, 81103.00
591.9580, 81551.00
593.1280, 81760.61
594.2970, 81981.00
595.4670, 82274.00
596.6360, 82498.00
597.8060, 82984.00
598.9750, 83599.00
600.1440, 83831.00
601.3130, 84658.00
602.4810, 85879.00
603.6500, 86929.00
604.8180, 88440.00
605.9860, 90273.00
607.1540, 92473.00
608.3220, 94917.00
609.4900, 97492.00
610.6580, 99805.00
611.8250, 102677.0
612.9920, 104694.0
614.1590, 105645.0
615.3260, 106162.0
616.4930, 105760.0
617.6600, 104871.0
618.8260, 102800.0
619.9920, 100525.0
621.1590, 99160.00
622.3250, 97497.00
623.4900, 95502.00
624.6560, 94196.00
625.8220, 92813.00
626.9870, 92326.00
628.1520, 91561.00
629.3170, 90640.00
630.4820, 89923.00
631.6470, 90054.00
632.8110, 89275.00
633.9760, 88955.00
635.1400, 88894.00
636.3040, 88324.00
637.4680, 88930.00
638.6310, 88400.00
639.7950, 88608.00
640.9590, 88924.00
642.1220, 89004.00
643.2850, 89573.00
644.4480, 90368.00
645.6110, 90718.00
646.7730, 91396.00
647.9360, 92295.00
649.0980, 93743.00
650.2600, 95389.00
651.4220, 97622.95
652.5840, 100240.0
653.7460, 103390.0
654.9070, 106920.0
656.0690, 111141.0
657.2300, 116854.0
658.3910, 121429.0
659.5520, 126389.0
660.7120, 131026.0
661.8730, 135035.0
663.0330, 137157.0
664.1940, 137685.0
665.3540, 136495.0
666.5140, 133639.0
667.6730, 129705.0
668.8330, 124986.0
669.9920, 120808.0
671.1520, 116856.0
672.3110, 113478.0
673.4700, 110218.0
674.6290, 107803.0
675.7870, 105069.0
676.9460, 102667.0
678.1040, 100836.0
679.2620, 98950.00
680.4200, 98309.00
681.5780, 97863.00
682.7360, 96156.43
683.8930, 94690.00
685.0510, 93825.00
686.2080, 92783.00
687.3650, 92451.00
688.5220, 91437.00
689.6780, 91201.00
690.8350, 91197.00
691.9910, 90634.00
693.1480, 90372.00
694.3040, 90758.00
695.4600, 89968.00
696.6150, 90193.00
697.7710, 89898.00
698.9260, 89849.00
700.0820, 89902.76
701.2370, 90211.00
702.3920, 89975.00
703.5460, 90016.00
704.7010, 90142.00
705.8550, 90152.00
707.0100, 90152.00
708.1640, 90116.00
709.3180, 90275.00
710.4720, 90455.00
711.6250, 90466.00
712.7790, 90371.00
713.9320, 90053.00
715.0850, 90573.00
716.2380, 90835.00
717.3910, 91173.00
718.5440, 90954.00
719.6960, 90760.00
720.8490, 91195.00
722.0010, 90542.00
723.1530, 90944.00
724.3050, 91124.00
725.4570, 91647.00
726.6080, 91402.00
727.7600, 91377.00
728.9110, 91027.00
730.0620, 91815.00
731.2130, 91200.00
732.3640, 91746.00
733.5140, 91532.00
734.6650, 91915.00
735.8150, 91632.00
736.9650, 92039.00
738.1150, 91857.00
739.2650, 92175.00
740.4140, 92637.00
741.5640, 92034.00
742.7130, 92416.00
743.8620, 93160.00
745.0110, 92622.00
746.1600, 92858.00
747.3090, 92970.00
748.4570, 93401.00
749.6060, 93150.00
750.7540, 93268.00
751.9020, 93582.00
753.0500, 93258.00
754.1970, 93751.00
755.3450, 93687.00
756.4920, 93426.00
757.6390, 93784.00
758.7860, 93789.00
759.9330, 94008.00
761.0800, 94104.00
762.2260, 94201.00
763.3730, 94244.00
764.5190, 94746.00
765.6650, 94676.00
766.8110, 95081.00
767.9570, 94918.00
769.1020, 95033.00
770.2480, 95081.00
771.3930, 95124.00
772.5380, 95187.00
773.6830, 95186.00
774.8280, 95262.00
775.9720, 95590.00
777.1170, 95778.00
778.2610, 95860.00
779.4050, 96294.00
780.5490, 96326.00
781.6930, 96308.00
782.8360, 96226.00
783.9800, 96639.00
785.1230, 96579.00
786.2660, 96820.00
787.4090, 97413.00
788.5520, 97280.00
789.6950, 97116.00
790.8370, 97782.00
791.9790, 97498.00
793.1220, 97515.00
794.2640, 97385.00
795.4050, 97657.00
796.5470, 97726.58
797.6890, 97912.00
798.8300, 98088.00
799.9710, 98365.00
801.1120, 98493.00
802.2530, 98962.00
803.3940, 98811.00
804.5340, 99142.00
805.6750, 98913.00
806.8150, 98945.00
807.9550, 99580.00
809.0950, 99630.00
810.2340, 99260.00
811.3740, 99884.00
812.5130, 100178.0
813.6520, 100123.0
814.7910, 100419.0
815.9300, 100227.0
817.0690, 100477.0
818.2080, 100631.0
819.3460, 100614.8
820.4840, 100872.8
821.6220, 100825.0
822.7600, 101181.0
823.8980, 101496.0
825.0350, 101567.0
826.1730, 102051.0
827.3100, 102088.0
828.4470, 102303.0
829.5840, 102463.0
830.7210, 102745.0
831.8570, 102880.0
832.9940, 103017.0
834.1300, 103305.0
835.2660, 103557.0
836.4020, 103628.0
837.5380, 104133.0
838.6740, 103947.0
839.8090, 104290.0
840.9440, 104716.0
842.0790, 104805.0
843.2140, 105112.0
844.3490, 105120.0
845.4840, 105160.0
846.6180, 105485.0
847.7520, 105674.0
848.8870, 106047.0
850.0210, 106230.0
851.1540, 105960.0
852.2880, 106199.0
853.4210, 106098.0
854.5550, 106833.0
855.6880, 106695.0
856.8210, 106969.0
857.9540, 106779.0
859.0860, 107331.0
860.2190, 107096.0
861.3510, 107391.0
862.4830, 107039.0
863.6150, 107401.0
864.7470, 107817.0
865.8790, 107570.0
867.0100, 107986.0
868.1410, 108191.0
869.2730, 108781.0
870.4040, 108853.0
871.5340, 108808.0
872.6650, 109244.0
873.7960, 109377.0
874.9260, 109908.0
876.0560, 109913.0
877.1860, 110477.0
878.3160, 110516.0
879.4460, 111268.0
880.5750, 111657.0
881.7040, 112413.0
882.8340, 112651.0
883.9630, 112980.0
885.0920, 113880.0
886.2200, 114979.0
887.3490, 115589.0
888.4770, 116590.0
889.6050, 116945.0
890.7330, 118480.0
891.8610, 120260.0
892.9890, 122008.0
894.1160, 124411.0
895.2440, 127169.0
896.3710, 130322.0
897.4980, 134102.0
898.6250, 138695.0
899.7510, 144562.0
900.8780, 151362.0
902.0040, 158720.0
903.1310, 166779.0
904.2570, 175062.0
905.3820, 183091.0
906.5080, 189612.0
907.6340, 194778.0
908.7590, 195869.0
909.8840, 194639.0
911.0090, 189806.0
912.1340, 183313.0
913.2590, 176069.0
914.3830, 168038.0
915.5080, 160137.0
916.6320, 153616.0
917.7560, 147660.0
918.8800, 142427.0
920.0040, 138262.0
921.1270, 134875.0
922.2510, 131694.0
923.3740, 129103.0
924.4970, 127125.0
925.6200, 125680.0
926.7420, 124919.0
927.8650, 123475.0
928.9870, 122511.0
930.1100, 122348.0
931.2320, 121594.0
932.3540, 121699.0
933.4750, 121833.0
934.5970, 121135.0
935.7180, 120822.0
936.8390, 120990.0
937.9600, 121498.0
939.0810, 121806.0
940.2020, 122029.0
941.3230, 122170.4
942.4430, 122228.6
943.5630, 122145.0
944.6830, 122161.0
945.8030, 121998.0
946.9230, 121898.0
948.0420, 121669.0
949.1620, 121109.0
950.2810, 120773.0
951.4000, 120590.0
952.5190, 120391.3
953.6380, 120278.7
954.7560, 120371.0
955.8750, 120164.0
956.9930, 120311.0
958.1110, 120276.0
959.2290, 120182.0
960.3460, 120427.0
961.4640, 120438.0
962.5810, 120462.0
963.6990, 120500.0
964.8160, 120062.0
965.9320, 120586.0
967.0490, 120660.0
968.1660, 120577.0
969.2820, 121093.0
970.3980, 120762.0
971.5140, 120829.0
972.6300, 121288.0
973.7460, 120960.0
974.8610, 120577.0
975.9770, 121954.0
977.0920, 121620.0
978.2070, 121244.0
979.3220, 122287.0
980.4370, 122367.0
981.5510, 122526.0
982.6660, 122528.0
983.7800, 123346.0
984.8940, 123683.0
986.0080, 124050.0
987.1210, 124223.0
988.2350, 125108.0
989.3480, 125806.0
990.4610, 126473.0
991.5750, 127293.9
992.6870, 128018.0
993.8000, 128659.0
994.9130, 129219.2
996.0250, 129876.0
997.1370, 130146.0
998.2490, 130613.5
999.3610, 131020.0
1000.473, 130847.0
1001.584, 131076.0
1002.696, 131150.6
1003.807, 131126.0
1004.918, 131121.0
1006.029, 131364.0
1007.139, 131037.4
1008.250, 129895.0
1009.360, 130014.0
1010.470, 129299.0
1011.580, 128673.0
1012.690, 128572.0
1013.800, 128362.0
1014.909, 128020.0
1016.019, 128003.0
1017.128, 127969.0
1018.237, 128243.0
1019.346, 127577.0
1020.454, 128203.0
1021.563, 128143.0
1022.671, 127475.0
1023.779, 127638.0
1024.887, 127540.0
1025.995, 127394.0
1027.103, 126997.0
1028.210, 127224.0
1029.318, 127301.0
1030.425, 127705.0
1031.532, 127030.0
1032.638, 127672.0
1033.745, 127390.0
1034.852, 128043.0
1035.958, 128772.0
1037.064, 127453.0
1038.170, 128049.0
1039.276, 128080.0
1040.381, 128225.0
1041.487, 128645.0
1042.592, 128485.0
1043.697, 128486.0
1044.802, 128488.0
1045.907, 128888.0
1047.012, 128869.0
1048.116, 129376.0
1049.220, 128651.0
1050.324, 129464.0
1051.428, 130089.0
1052.532, 129460.0
1053.636, 130100.0
1054.739, 129596.0
1055.842, 130430.0
1056.946, 130355.0
1058.048, 130014.0
1059.151, 130308.0
1060.254, 130557.0
1061.356, 130313.0
1062.459, 130783.0
1063.561, 131103.0
1064.662, 131357.0
1065.764, 131491.0
1066.866, 130713.0
1067.967, 131207.0
1069.068, 131135.0
1070.169, 130881.0
1071.270, 131639.0
1072.371, 131785.0
1073.472, 132778.0
1074.572, 132122.0
1075.672, 131972.0
1076.772, 132615.0
1077.872, 132606.0
1078.972, 132562.0
1080.071, 132889.0
1081.171, 133574.0
1082.270, 133526.0
1083.369, 133628.0
1084.468, 133835.0
1085.567, 133708.0
1086.665, 134161.0
1087.763, 133589.0
1088.862, 133852.0
1089.960, 134236.0
1091.057, 134633.0
1092.155, 134879.0
1093.253, 135012.0
1094.350, 135095.2
1095.447, 134855.0
1096.544, 135099.0
1097.641, 134878.0
1098.738, 134998.0
1099.834, 135665.0
1100.930, 135708.0
1102.027, 135876.0
1103.123, 135974.0
1104.218, 135969.0
1105.314, 136049.0
1106.409, 136390.0
1107.505, 136815.0
1108.600, 136799.0
1109.695, 137098.0
1110.790, 136995.0
1111.884, 137171.6
1112.979, 137329.0
1114.073, 137389.0
1115.167, 137432.0
1116.261, 137497.0
1117.355, 137766.0
1118.448, 137841.2
1119.542, 138031.2
1120.635, 138063.0
1121.728, 138492.0
1122.821, 138418.0
1123.914, 138859.0
1125.006, 138693.0
1126.099, 138953.0
1127.191, 139372.0
1128.283, 138945.0
1129.375, 139354.0
1130.466, 139279.0
1131.558, 139618.0
1132.649, 140173.0
1133.741, 140352.0
1134.832, 139952.0
1135.922, 140350.0
1137.013, 140837.0
1138.104, 140185.0
1139.194, 140652.0
1140.284, 141601.0
1141.374, 141566.0
1142.464, 141246.0
1143.554, 141323.0
1144.643, 141370.0
1145.733, 141906.0
1146.822, 142010.0
1147.911, 141766.0
1148.999, 141308.0
1150.088, 142153.0
1151.177, 141886.0
1152.265, 142452.0
1153.353, 142909.0
1154.441, 142914.0
1155.529, 143227.0
1156.616, 142947.0
1157.704, 142907.0
1158.791, 143303.0
1159.878, 143445.0
1160.965, 143230.0
1162.052, 143936.0
1163.138, 144199.0
1164.225, 143890.0
1165.311, 144149.0
1166.397, 144587.0
1167.483, 144256.0
1168.569, 144984.0
1169.654, 145006.0
1170.740, 144700.0
1171.825, 145137.0
1172.910, 145412.0
1173.995, 145384.0
1175.080, 146164.0
1176.164, 145973.0
1177.248, 146341.0
1178.333, 146527.0
1179.417, 146183.0
1180.501, 146248.0
1181.584, 146758.0
1182.668, 146895.0
1183.751, 147125.0
1184.834, 147020.0
1185.917, 146856.0
1187.000, 147354.0
1188.083, 147238.0
1189.165, 147734.0
1190.247, 147501.0
1191.329, 147209.0
1192.411, 147983.0
1193.493, 147652.0
1194.575, 148088.0
1195.656, 148352.0
1196.738, 148097.0
1197.819, 148339.0
1198.900, 149184.0
1199.980, 148791.0
1201.061, 148855.0
1202.141, 148520.0
1203.222, 149041.0
1204.302, 148992.2
1205.381, 148954.0
1206.461, 149333.0
1207.541, 149512.0
1208.620, 149679.0
1209.699, 150135.0
1210.778, 150657.0
1211.857, 150509.0
1212.936, 151052.0
1214.014, 150584.0
1215.093, 151540.0
1216.171, 151135.0
1217.249, 151309.0
1218.327, 151560.0
1219.404, 152417.0
1220.482, 152014.0
1221.559, 152098.0
1222.636, 151932.0
1223.713, 152760.0
1224.790, 152270.0
1225.867, 152905.0
1226.943, 152774.0
1228.019, 152867.0
1229.095, 153068.0
1230.171, 153215.0
1231.247, 153367.0
1232.323, 153783.0
1233.398, 154143.0
1234.473, 154393.0
1235.548, 153465.0
1236.623, 154186.0
1237.698, 154331.0
1238.773, 155057.0
1239.847, 154811.0
1240.921, 154916.0
1241.995, 154865.2
1243.069, 155729.2
1244.143, 156281.0
1245.216, 156537.2
1246.290, 155613.1
