##NAMES=Hausmannite
##RRUFFID=R060512
##IDEAL CHEMISTRY=Mn^2+^Mn^3+^_2_O_4_
##LOCALITY=N'Chwaning II mine, Kalahari manganese field, northern Cape Province, Republic of South Africa
##OWNER=RRUFF
##SOURCE=Michael Scott
##DESCRIPTION=Group of black pseudo-octahedra with striations parallel to the (001) plane
##STATUS=The identification of this mineral has been confirmed by X-ray diffraction and chemical analysis
##URL=rruff.info/R060512
##MEASURED CHEMISTRY=Mn^2+^_0.99_Mn^3+^_1.98_O_4_
##PIN_ID=M01995
##ORIENTATION=Laser parallel to a* (1 0 0). Fiducial mark perpendicular to laser is parallel to -c [0 0 -1]
143.8150, 18635.00
145.0460, 18911.00
146.2770, 18969.00
147.5080, 19141.00
148.7390, 19024.00
149.9700, 19083.70
151.2000, 19084.00
152.4310, 18984.00
153.6610, 18829.00
154.8910, 18655.00
156.1210, 18756.00
157.3500, 18666.22
158.5800, 18801.00
159.8090, 18748.00
161.0380, 19024.00
162.2670, 19192.00
163.4960, 19233.76
164.7240, 19366.47
165.9530, 19337.00
167.1810, 19380.00
168.4090, 19299.00
169.6370, 19129.00
170.8650, 19123.99
172.0920, 18933.00
173.3200, 18956.00
174.5470, 18917.59
175.7740, 18846.85
177.0010, 18760.37
178.2280, 18659.01
179.4540, 18498.25
180.6810, 18447.00
181.9070, 18504.00
183.1330, 18544.00
184.3590, 18396.00
185.5850, 18445.00
186.8100, 18232.00
188.0350, 18636.00
189.2610, 18692.00
190.4860, 18961.00
191.7110, 18949.00
192.9350, 19038.00
194.1600, 19122.00
195.3840, 19031.00
196.6080, 19033.00
197.8320, 19214.00
199.0560, 19177.00
200.2800, 19055.00
201.5030, 19121.00
202.7270, 18932.00
203.9500, 18740.00
205.1730, 18305.00
206.3950, 18190.00
207.6180, 18017.00
208.8410, 17845.00
210.0630, 17701.00
211.2850, 17674.00
212.5070, 17406.00
213.7290, 17534.00
214.9500, 17647.00
216.1720, 17464.00
217.3930, 17344.00
218.6140, 17335.00
219.8350, 17199.00
221.0560, 17067.00
222.2770, 17090.00
223.4970, 17074.00
224.7170, 17212.00
225.9370, 17111.00
227.1570, 17019.00
228.3770, 17200.00
229.5970, 16900.00
230.8160, 16952.00
232.0350, 16847.00
233.2540, 16946.00
234.4730, 17020.00
235.6920, 17087.00
236.9110, 17108.00
238.1290, 17107.00
239.3470, 16895.00
240.5650, 16968.00
241.7830, 16899.00
243.0010, 16884.00
244.2180, 16940.00
245.4360, 16858.16
246.6530, 16661.00
247.8700, 16744.00
249.0870, 16597.00
250.3040, 16484.00
251.5200, 16518.00
252.7370, 16569.00
253.9530, 16632.00
255.1690, 16784.00
256.3850, 16693.00
257.6000, 16920.00
258.8160, 16706.00
260.0310, 16720.00
261.2460, 16598.00
262.4610, 16665.00
263.6760, 16725.00
264.8910, 16748.00
266.1050, 16656.00
267.3200, 16860.00
268.5340, 16725.00
269.7480, 16919.00
270.9620, 16834.09
272.1750, 16845.00
273.3890, 16739.00
274.6020, 16553.00
275.8150, 16591.00
277.0280, 16601.00
278.2410, 16425.00
279.4540, 16776.00
280.6660, 16655.00
281.8790, 16676.00
283.0910, 16769.00
284.3030, 16818.00
285.5140, 16945.00
286.7260, 16818.00
287.9380, 16900.00
289.1490, 16891.00
290.3600, 17019.00
291.5710, 17005.00
292.7820, 16970.00
293.9920, 16913.00
295.2030, 17050.00
296.4130, 16918.00
297.6230, 17016.00
298.8330, 16858.00
300.0430, 16925.00
301.2520, 16905.00
302.4620, 16882.00
303.6710, 16888.00
304.8800, 17153.00
306.0890, 17032.00
307.2980, 17115.00
308.5070, 17222.00
309.7150, 17195.00
310.9230, 17192.00
312.1310, 17509.00
313.3390, 17377.00
314.5470, 17552.00
315.7550, 17621.00
316.9620, 17628.00
318.1690, 17887.00
319.3760, 17968.00
320.5830, 17935.82
321.7900, 18066.00
322.9960, 17689.00
324.2030, 17827.00
325.4090, 17409.00
326.6150, 17413.00
327.8210, 17392.00
329.0270, 17322.00
330.2320, 17226.00
331.4380, 17114.25
332.6430, 16930.00
333.8480, 16784.00
335.0530, 16759.00
336.2580, 16509.00
337.4620, 16517.00
338.6670, 16575.00
339.8710, 16654.00
341.0750, 16642.93
342.2790, 16556.00
343.4820, 16630.00
344.6860, 16575.00
345.8890, 16516.00
347.0920, 16680.00
348.2960, 16530.00
349.4980, 16471.00
350.7010, 16558.00
351.9040, 16539.00
353.1060, 16447.00
354.3080, 16589.00
355.5100, 16494.00
356.7120, 16481.00
357.9140, 16451.00
359.1150, 16510.00
360.3170, 16686.00
361.5180, 16716.00
362.7190, 16672.00
363.9200, 16658.00
365.1200, 16700.00
366.3210, 16614.00
367.5210, 16818.00
368.7210, 16538.00
369.9210, 16786.00
371.1210, 16585.00
372.3210, 16654.00
373.5200, 16676.00
374.7200, 16747.00
375.9190, 16702.66
377.1180, 16647.00
378.3170, 16584.00
379.5150, 16583.00
380.7140, 16489.00
381.9120, 16520.87
383.1110, 16606.00
384.3090, 16532.00
385.5060, 16425.00
386.7040, 16348.00
387.9020, 16510.00
389.0990, 16436.00
390.2960, 16464.00
391.4930, 16419.00
392.6900, 16404.00
393.8860, 16442.00
395.0830, 16400.00
396.2790, 16407.00
397.4750, 16427.00
398.6710, 16340.00
399.8670, 16407.00
401.0630, 16271.00
402.2580, 16278.00
403.4540, 16420.00
404.6490, 16480.00
405.8440, 16380.00
407.0390, 16601.00
408.2330, 16376.00
409.4280, 16611.00
410.6220, 16638.00
411.8160, 16489.00
413.0100, 16491.00
414.2040, 16608.00
415.3980, 16596.00
416.5910, 16575.00
417.7850, 16647.00
418.9780, 16690.00
420.1710, 16670.00
421.3640, 16734.29
422.5560, 16846.00
423.7490, 16802.00
424.9410, 16798.00
426.1330, 16828.00
427.3250, 16787.00
428.5170, 16895.00
429.7090, 16864.72
430.9000, 17020.00
432.0910, 16942.00
433.2820, 16931.00
434.4730, 17123.00
435.6640, 16942.00
436.8550, 17127.00
438.0450, 17036.00
439.2360, 17042.00
440.4260, 17135.00
441.6160, 17155.00
442.8060, 17095.00
443.9950, 17247.00
445.1850, 17238.00
446.3740, 17288.00
447.5630, 17434.00
448.7520, 17425.00
449.9410, 17432.00
451.1300, 17592.00
452.3180, 17354.00
453.5060, 17428.00
454.6950, 17346.00
455.8830, 17597.00
457.0700, 17539.15
458.2580, 17599.00
459.4450, 17566.00
460.6330, 17659.00
461.8200, 17666.00
463.0070, 17826.00
464.1940, 17821.00
465.3800, 17786.00
466.5670, 17887.00
467.7530, 17810.00
468.9390, 17908.00
470.1250, 17905.00
471.3110, 18031.00
472.4970, 18148.00
473.6820, 17997.00
474.8680, 18273.00
476.0530, 18179.00
477.2380, 18200.00
478.4230, 18395.00
479.6070, 18511.00
480.7920, 18718.00
481.9760, 18655.00
483.1600, 18889.00
484.3440, 18885.12
485.5280, 19016.02
486.7120, 19112.17
487.8950, 19175.38
489.0780, 19107.23
490.2620, 19208.75
491.4450, 19242.25
492.6270, 19272.92
493.8100, 19502.00
494.9920, 19736.00
496.1750, 19727.00
497.3570, 19763.00
498.5390, 20079.00
499.7210, 20196.00
500.9020, 20174.00
502.0840, 20168.00
503.2650, 20064.00
504.4460, 19987.00
505.6270, 19989.00
506.8080, 19930.00
507.9890, 20090.00
509.1690, 20144.00
510.3500, 20262.00
511.5300, 20513.00
512.7100, 20417.00
513.8900, 20594.00
515.0690, 20714.00
516.2490, 20592.00
517.4280, 20999.00
518.6070, 20907.00
519.7860, 20925.00
520.9650, 21053.00
522.1440, 21062.63
523.3220, 21158.48
524.5010, 21220.00
525.6790, 21394.00
526.8570, 21449.00
528.0350, 21706.00
529.2130, 21782.00
530.3900, 21917.00
531.5670, 21913.56
532.7450, 21935.00
533.9220, 21716.00
535.0980, 21441.00
536.2750, 21123.00
537.4520, 21153.00
538.6280, 21474.00
539.8040, 21652.00
540.9800, 21769.00
542.1560, 22011.21
543.3320, 22110.78
544.5070, 22175.59
545.6830, 22207.52
546.8580, 22307.26
548.0330, 22405.92
549.2080, 22457.00
550.3830, 22631.00
551.5570, 22690.00
552.7310, 22760.00
553.9060, 22841.00
555.0800, 23093.00
556.2540, 23064.00
557.4270, 23393.00
558.6010, 23472.00
559.7740, 23403.12
560.9470, 23540.67
562.1210, 23643.52
563.2930, 23713.39
564.4660, 23755.37
565.6390, 23760.10
566.8110, 23770.00
567.9830, 23777.00
569.1550, 23770.30
570.3270, 23714.24
571.4990, 23623.43
572.6710, 23499.73
573.8420, 23244.79
575.0130, 23159.48
576.1840, 23006.19
577.3550, 22385.00
578.5260, 22069.00
579.6970, 21575.00
580.8670, 20986.00
582.0370, 20615.00
583.2070, 20108.00
584.3770, 19501.00
585.5470, 19004.00
586.7170, 18485.00
587.8860, 18266.00
589.0550, 17969.00
590.2240, 17853.00
591.3930, 17604.00
592.5620, 17422.00
593.7310, 17534.00
594.8990, 17520.00
596.0670, 17606.00
597.2350, 17532.00
598.4030, 17602.00
599.5710, 17522.00
600.7390, 17435.00
601.9060, 17718.00
603.0740, 17596.00
604.2410, 17731.00
605.4080, 17427.37
606.5740, 17602.77
607.7410, 17743.50
608.9080, 17851.34
610.0740, 17827.71
611.2400, 17994.00
612.4060, 18111.00
613.5720, 18027.00
614.7370, 18230.00
615.9030, 18266.76
617.0680, 18341.46
618.2330, 18438.00
619.3980, 18535.00
620.5630, 18597.00
621.7280, 18709.00
622.8920, 18774.80
624.0570, 18853.69
625.2210, 18937.77
626.3850, 19028.89
627.5490, 19028.58
628.7120, 19237.69
629.8760, 19418.86
631.0390, 19636.96
632.2020, 19989.58
633.3650, 20207.63
634.5280, 20638.48
635.6910, 20826.00
636.8530, 21148.00
638.0160, 21646.00
639.1780, 21796.00
640.3400, 22379.00
641.5020, 22810.00
642.6640, 23324.00
643.8250, 24005.00
644.9870, 25050.00
646.1480, 26318.00
647.3090, 26788.00
648.4700, 27948.00
649.6300, 28891.00
650.7910, 30405.00
651.9510, 32067.00
653.1120, 33617.00
654.2720, 35232.00
655.4320, 36930.00
656.5910, 38646.00
657.7510, 40038.00
658.9100, 41255.00
660.0690, 42082.00
661.2290, 42400.00
662.3880, 42139.00
663.5460, 41631.00
664.7050, 40680.00
665.8630, 39098.00
667.0220, 37411.00
668.1800, 35609.00
669.3380, 33988.00
670.4950, 32150.00
671.6530, 30581.57
672.8100, 28989.00
673.9680, 27647.00
675.1250, 26423.00
676.2820, 25476.00
677.4390, 24430.00
678.5950, 23516.00
679.7520, 22793.00
680.9080, 22122.00
682.0640, 21586.00
683.2200, 21030.00
684.3760, 20639.00
685.5320, 20254.00
686.6870, 20109.00
687.8420, 19623.00
688.9980, 19446.00
690.1530, 19167.00
691.3070, 19196.00
692.4620, 18864.00
693.6170, 18649.00
694.7710, 18521.00
695.9250, 18237.00
697.0790, 18052.00
698.2330, 18016.00
699.3870, 17859.00
700.5400, 17721.00
701.6940, 17784.00
702.8470, 17754.00
704.0000, 17625.00
705.1530, 17522.00
706.3050, 17460.00
707.4580, 17287.00
708.6100, 17388.00
709.7630, 17251.00
710.9150, 17268.00
712.0660, 17106.00
713.2180, 17031.00
714.3700, 17074.00
715.5210, 16861.00
716.6720, 16893.00
717.8240, 17004.00
718.9740, 16896.00
720.1250, 16905.00
721.2760, 16824.00
722.4260, 16841.00
723.5770, 16883.00
724.7270, 16674.00
725.8770, 16684.00
727.0260, 16735.00
728.1760, 16564.00
729.3250, 16633.00
730.4750, 16716.00
731.6240, 16736.00
732.7730, 16550.00
733.9220, 16718.00
735.0700, 16421.00
736.2190, 16436.00
737.3670, 16641.00
738.5150, 16519.00
739.6630, 16420.00
740.8110, 16556.00
741.9590, 16284.00
743.1060, 16434.00
744.2540, 16422.00
745.4010, 16526.00
746.5480, 16546.00
747.6950, 16482.00
748.8410, 16483.00
749.9880, 16382.00
751.1340, 16370.00
752.2800, 16428.00
753.4260, 16470.00
754.5720, 16470.27
755.7180, 16414.00
756.8640, 16476.00
758.0090, 16443.00
759.1540, 16410.00
760.2990, 16429.00
761.4440, 16247.00
762.5890, 16296.00
763.7340, 16353.00
764.8780, 16314.00
766.0220, 16420.00
767.1660, 16260.00
768.3100, 16236.00
769.4540, 16312.00
770.5980, 16418.00
771.7410, 16346.00
772.8840, 16240.00
774.0280, 16394.00
775.1700, 16278.00
776.3130, 16190.00
777.4560, 16147.00
778.5980, 16089.54
779.7410, 16312.00
780.8830, 16122.00
782.0250, 16071.00
783.1670, 16273.00
784.3080, 16175.00
785.4500, 16232.00
786.5910, 16196.00
787.7320, 16292.00
788.8730, 16279.00
790.0140, 16229.02
791.1550, 16148.00
792.2950, 16047.00
793.4360, 16365.00
794.5760, 16194.00
795.7160, 16307.00
796.8560, 16115.00
797.9960, 16170.00
799.1350, 16128.00
800.2750, 16179.00
801.4140, 16220.00
802.5530, 16142.00
803.6920, 16029.00
804.8310, 16051.00
805.9690, 16125.00
807.1080, 16271.00
808.2460, 16224.88
809.3840, 16249.90
810.5220, 16164.00
811.6600, 16153.00
812.7970, 16067.00
813.9350, 15967.00
815.0720, 16026.00
816.2090, 16054.00
817.3460, 16134.00
818.4830, 16100.00
819.6200, 16103.00
820.7560, 16120.00
821.8930, 16059.00
823.0290, 16055.00
824.1650, 15979.00
825.3010, 16001.00
826.4360, 16131.00
827.5720, 16178.00
828.7070, 16123.00
829.8420, 16152.00
830.9770, 15987.00
832.1120, 15907.00
833.2470, 16222.00
834.3820, 16048.00
835.5160, 16145.00
836.6500, 16071.00
837.7840, 16187.00
838.9180, 16000.00
840.0520, 16031.00
841.1860, 16173.00
842.3190, 16145.00
843.4520, 15974.00
844.5850, 16019.41
845.7180, 16096.96
846.8510, 16139.76
847.9840, 16149.68
849.1160, 16028.23
850.2490, 16076.41
851.3810, 16056.62
852.5130, 16034.03
853.6450, 16106.10
854.7760, 16003.75
855.9080, 16074.32
857.0390, 16075.86
858.1700, 16108.99
859.3010, 16073.72
860.4320, 16059.57
861.5630, 16113.86
862.6930, 16130.25
863.8240, 16087.11
864.9540, 16122.25
866.0840, 15863.00
867.2140, 16011.00
868.3440, 16063.00
869.4730, 15843.00
870.6030, 15956.00
871.7320, 15896.00
872.8610, 16207.00
873.9900, 16042.00
875.1190, 16112.00
876.2470, 16019.00
877.3760, 16101.00
878.5040, 16038.00
879.6320, 16018.00
880.7600, 16171.00
881.8880, 16191.00
883.0150, 16167.00
884.1430, 16224.47
885.2700, 16233.19
886.3970, 16183.00
887.5240, 16225.00
888.6510, 16112.00
889.7780, 15957.00
890.9040, 16078.00
892.0310, 16163.00
893.1570, 15972.00
894.2830, 16149.00
895.4090, 16254.00
896.5350, 16037.00
897.6600, 16072.00
898.7860, 16326.00
899.9110, 16118.00
901.0360, 15929.00
902.1610, 16159.00
903.2860, 16199.00
904.4100, 16110.00
905.5350, 16068.00
906.6590, 16202.00
907.7830, 16103.00
908.9070, 16069.00
910.0310, 16169.00
911.1540, 16184.00
912.2780, 16158.00
913.4010, 16146.00
914.5240, 16100.00
915.6470, 16162.00
916.7700, 16177.00
917.8930, 16153.00
919.0150, 16094.00
920.1380, 16053.00
921.2600, 16069.00
922.3820, 16132.00
923.5040, 16035.00
924.6260, 15948.00
925.7470, 16234.00
926.8690, 16115.00
927.9900, 16142.00
929.1110, 16231.00
930.2320, 16199.00
931.3530, 16241.00
932.4730, 16071.00
933.5940, 16151.00
934.7140, 16260.00
935.8340, 16149.00
936.9540, 16322.00
938.0740, 15979.00
939.1930, 16066.00
940.3130, 16191.00
941.4320, 16134.00
942.5510, 16246.00
943.6700, 16197.00
944.7890, 16199.00
945.9080, 16209.00
947.0260, 16265.00
948.1450, 16284.00
949.2630, 16200.00
950.3810, 16398.00
951.4990, 16313.00
952.6170, 16251.00
953.7340, 16305.00
954.8520, 16255.59
955.9690, 16188.00
957.0860, 16286.00
958.2030, 16284.00
959.3200, 16352.00
960.4360, 16297.00
961.5530, 16303.00
962.6690, 16303.00
963.7850, 16256.00
964.9010, 16200.00
966.0170, 16115.00
967.1330, 16174.00
968.2480, 16181.80
969.3630, 16192.00
970.4790, 16284.00
971.5940, 16165.00
972.7080, 16149.00
973.8230, 16302.00
974.9380, 16174.00
976.0520, 16365.00
977.1660, 16137.00
978.2800, 16386.00
979.3940, 16195.00
980.5080, 16171.00
981.6220, 16330.00
982.7350, 16361.00
983.8480, 16189.00
984.9610, 16185.00
986.0740, 16337.00
987.1870, 16434.00
988.3000, 16380.00
989.4120, 16459.00
990.5250, 16276.00
991.6370, 16411.00
992.7490, 16360.00
993.8610, 16524.00
994.9720, 16413.00
996.0840, 16341.00
997.1950, 16242.00
998.3060, 16361.00
999.4170, 16425.00
1000.528, 16317.00
1001.639, 16347.00
1002.750, 16315.00
1003.860, 16300.00
1004.970, 16275.00
1006.080, 16314.06
1007.190, 16324.00
1008.300, 16421.00
1009.410, 16345.00
1010.519, 16412.00
1011.628, 16442.00
1012.738, 16401.00
1013.846, 16296.00
1014.955, 16413.00
1016.064, 16481.00
1017.172, 16335.00
1018.281, 16432.00
1019.389, 16391.00
1020.497, 16373.00
1021.605, 16344.00
1022.713, 16254.00
1023.820, 16237.00
1024.928, 16405.00
1026.035, 16452.00
1027.142, 16350.00
1028.249, 16284.00
1029.356, 16430.00
1030.462, 16389.00
1031.569, 16373.00
1032.675, 16408.00
1033.781, 16441.00
1034.887, 16382.04
1035.993, 16384.39
1037.098, 16389.00
1038.204, 16261.00
1039.309, 16507.00
1040.415, 16360.00
1041.520, 16335.00
1042.624, 16522.00
1043.729, 16282.00
1044.834, 16306.00
1045.938, 16351.00
1047.042, 16440.00
1048.146, 16493.00
1049.250, 16499.72
1050.354, 16398.00
1051.458, 16408.20
1052.561, 16491.26
1053.664, 16539.56
1054.767, 16554.98
1055.870, 16439.03
1056.973, 16492.71
1058.076, 16478.42
1059.178, 16461.33
1060.281, 16538.90
1061.383, 16442.05
1062.485, 16518.11
1063.587, 16525.15
1064.688, 16563.77
1065.790, 16534.00
1066.891, 16525.34
1067.993, 16585.12
1069.094, 16607.01
1070.195, 16569.35
1071.295, 16609.98
1072.396, 16510.74
1073.496, 16534.24
1074.597, 16610.70
1075.697, 16576.48
1076.797, 16618.36
1077.897, 16631.26
1078.996, 16512.44
1080.096, 16622.68
1081.195, 16633.87
1082.294, 16543.33
1083.393, 16645.73
1084.492, 16569.21
1085.591, 16556.56
1086.689, 16591.96
1087.788, 16577.27
1088.886, 16641.56
1089.984, 16629.76
1091.082, 16611.15
1092.180, 16622.22
1093.277, 16549.21
1094.375, 16632.18
1095.472, 16608.60
1096.569, 16637.98
1097.666, 16679.37
1098.763, 16628.84
1099.860, 16675.61
1100.956, 16571.49
1102.053, 16593.63
1103.149, 16640.00
1104.245, 16579.00
1105.341, 16607.30
1106.436, 16601.59
1107.532, 16604.00
1108.627, 16658.00
1109.723, 16718.00
1110.818, 16808.00
1111.913, 16730.00
1113.007, 16587.00
1114.102, 16759.00
1115.197, 16671.00
1116.291, 16643.00
1117.385, 16683.00
1118.479, 16767.00
1119.573, 16681.00
1120.666, 16776.00
1121.760, 16756.00
1122.853, 16810.00
1123.947, 16804.00
1125.040, 16790.00
1126.132, 16956.00
1127.225, 16939.00
1128.318, 16942.42
1129.410, 16865.00
1130.502, 16853.00
1131.595, 16789.00
1132.687, 16656.00
1133.778, 16874.00
1134.870, 16788.00
1135.961, 16903.00
1137.053, 16876.00
1138.144, 16863.00
1139.235, 16846.00
1140.326, 16821.00
1141.416, 16825.00
1142.507, 16812.00
1143.597, 16757.00
1144.688, 16899.00
1145.778, 17058.00
1146.868, 16866.00
1147.957, 16795.00
1149.047, 16910.00
1150.136, 16984.00
1151.226, 16969.00
1152.315, 16941.00
1153.404, 16854.00
1154.493, 16789.00
1155.581, 16754.00
1156.670, 16750.00
1157.758, 16715.00
1158.846, 16768.00
1159.934, 16755.37
1161.022, 16845.16
1162.110, 16897.38
1163.198, 16913.87
1164.285, 16796.16
1165.372, 16845.27
1166.459, 16823.56
1167.546, 16796.24
1168.633, 16860.75
1169.720, 16840.00
1170.806, 16828.00
1171.892, 16913.00
1172.979, 16803.00
1174.065, 16866.00
1175.150, 17060.00
1176.236, 16736.00
1177.322, 16640.00
1178.407, 16881.00
1179.492, 16820.00
1180.577, 16834.00
1181.662, 16864.00
1182.747, 16720.00
1183.832, 16874.00
1184.916, 16905.00
1186.000, 16987.00
1187.084, 16814.00
1188.168, 16888.00
1189.252, 16787.00
1190.336, 16891.00
1191.419, 16786.00
1192.503, 16793.00
1193.586, 16957.00
1194.669, 16790.00
1195.752, 16715.00
1196.835, 16680.00
1197.917, 16837.00
1199.000, 16764.00
1200.082, 16806.00
1201.164, 16710.00
1202.246, 16861.00
1203.328, 16793.00
1204.409, 16760.00
1205.491, 16853.00
1206.572, 16797.00
1207.653, 16820.00
1208.734, 16751.00
1209.815, 16787.00
1210.896, 16707.00
1211.976, 16862.00
1213.057, 16910.00
1214.137, 16665.00
1215.217, 16831.00
1216.297, 16668.00
1217.377, 16759.00
1218.456, 16732.00
1219.536, 16879.00
1220.615, 16532.00
1221.694, 16630.00
1222.773, 16679.00
1223.852, 16884.00
1224.931, 16813.62
1226.009, 16873.00
1227.088, 16750.00
1228.166, 16886.00
1229.244, 16922.00
1230.322, 16719.00
1231.400, 16795.00
1232.477, 16787.00
1233.555, 16754.00
1234.632, 16753.00
1235.709, 17026.00
1236.786, 16884.00
1237.863, 16868.00
1238.939, 16877.00
1240.016, 16708.00
1241.092, 16828.00
1242.168, 16867.00
1243.245, 16794.29
1244.320, 17019.00
1245.396, 16749.00
1246.472, 16872.00
1247.547, 16897.00
1248.622, 16860.00
1249.697, 16905.00
1250.772, 16826.87
1251.847, 16908.05
1252.922, 16954.47
1253.996, 16968.01
1255.071, 16850.18
1256.145, 16901.98
1257.219, 16885.81
1258.293, 16866.84
1259.366, 16942.52
1260.440, 16843.80
1261.513, 16917.98
1262.587, 16923.14
1263.660, 16959.89
1264.733, 16928.23
1265.805, 16917.70
1266.878, 16911.79
1267.951, 16991.90
1269.023, 17037.26
1270.095, 17049.74
1271.167, 16930.84
1272.239, 16981.59
1273.311, 16964.35
1274.382, 16944.32
1275.454, 17018.94
1276.525, 16919.15
1277.596, 16992.27
1278.667, 16873.00
1279.738, 16834.00
1280.808, 17005.00
1281.879, 16911.00
1282.949, 16873.00
1284.019, 16973.00
1285.089, 16865.00
1286.159, 16834.00
1287.229, 16976.00
1288.298, 16892.00
1289.368, 16853.00
1290.437, 16824.00
1291.506, 16900.00
1292.575, 16908.00
1293.644, 16872.00
1294.712, 16939.00
1295.781, 16763.00
1296.849, 16834.00
1297.917, 16629.00
1298.985, 16960.00
1300.053, 16885.00
1301.121, 17019.00
1302.188, 17114.00
1303.255, 16839.00
1304.323, 17024.00
1305.390, 16990.00
1306.457, 16902.00
1307.523, 16830.00
1308.590, 16838.00
1309.656, 16773.00
1310.723, 16795.00
1311.789, 16884.00
1312.855, 16856.00
