##NAMES=Hausmannite
##RRUFFID=R060512
##IDEAL CHEMISTRY=Mn^2+^Mn^3+^_2_O_4_
##LOCALITY=N'Chwaning II mine, Kalahari manganese field, northern Cape Province, Republic of South Africa
##OWNER=RRUFF
##SOURCE=Michael Scott
##DESCRIPTION=Group of black pseudo-octahedra with striations parallel to the (001) plane
##STATUS=The identification of this mineral has been confirmed by X-ray diffraction and chemical analysis
##URL=rruff.info/R060512
##MEASURED CHEMISTRY=Mn^2+^_0.99_Mn^3+^_1.98_O_4_
##PIN_ID=M00870
##ORIENTATION=Laser parallel to c* (0 0 1). Fiducial mark perpendicular to laser is parallel to a [1 0 0]
146.2770, 18545.00
147.5080, 18398.00
148.7390, 18497.00
149.9700, 18710.00
151.2000, 18849.00
152.4310, 18700.00
153.6610, 18839.00
154.8910, 18793.00
156.1210, 18873.63
157.3500, 18783.00
158.5800, 19066.00
159.8090, 19108.47
161.0380, 19180.00
162.2670, 19127.00
163.4960, 19159.39
164.7240, 19024.38
165.9530, 19076.00
167.1810, 18758.00
168.4090, 18550.00
169.6370, 18507.00
170.8650, 18330.31
172.0920, 18631.00
173.3200, 18201.00
174.5470, 17834.00
175.7740, 17789.00
177.0010, 18094.00
178.2280, 18302.00
179.4540, 17993.00
180.6810, 18082.00
181.9070, 18180.00
183.1330, 18263.00
184.3590, 17691.00
185.5850, 17874.00
186.8100, 17734.00
188.0350, 17834.00
189.2610, 17800.00
190.4860, 17836.00
191.7110, 17849.00
192.9350, 17796.00
194.1600, 17712.00
195.3840, 17630.00
196.6080, 17470.00
197.8320, 17630.00
199.0560, 17596.00
200.2800, 17647.00
201.5030, 17492.00
202.7270, 17320.00
203.9500, 16754.00
205.1730, 16740.00
206.3950, 16549.00
207.6180, 16452.00
208.8410, 16349.00
210.0630, 16309.00
211.2850, 16127.00
212.5070, 15986.00
213.7290, 15954.00
214.9500, 15881.00
216.1720, 16043.00
217.3930, 15984.00
218.6140, 16085.00
219.8350, 15956.71
221.0560, 15819.00
222.2770, 15619.00
223.4970, 15540.00
224.7170, 15303.00
225.9370, 15371.00
227.1570, 15313.00
228.3770, 15202.00
229.5970, 15114.00
230.8160, 14980.00
232.0350, 14887.00
233.2540, 14941.00
234.4730, 15197.00
235.6920, 14857.00
236.9110, 14962.00
238.1290, 14858.00
239.3470, 14626.00
240.5650, 14853.00
241.7830, 14733.00
243.0010, 14856.00
244.2180, 14707.00
245.4360, 14536.00
246.6530, 14639.00
247.8700, 14481.00
249.0870, 14270.00
250.3040, 14296.00
251.5200, 14293.00
252.7370, 14171.00
253.9530, 14192.00
255.1690, 13985.00
256.3850, 14133.00
257.6000, 13870.00
258.8160, 13934.00
260.0310, 13828.00
261.2460, 13734.00
262.4610, 13968.00
263.6760, 13832.00
264.8910, 13927.00
266.1050, 13754.00
267.3200, 13425.00
268.5340, 13671.00
269.7480, 13709.00
270.9620, 13864.00
272.1750, 13647.00
273.3890, 13371.00
274.6020, 13552.00
275.8150, 13264.00
277.0280, 13289.00
278.2410, 13294.00
279.4540, 13412.00
280.6660, 13361.00
281.8790, 13119.00
283.0910, 13170.00
284.3030, 13045.00
285.5140, 13200.00
286.7260, 13173.00
287.9380, 13056.00
289.1490, 13067.00
290.3600, 12848.00
291.5710, 13053.00
292.7820, 12945.00
293.9920, 12791.00
295.2030, 13069.00
296.4130, 12716.00
297.6230, 12848.00
298.8330, 12789.00
300.0430, 12842.00
301.2520, 12895.00
302.4620, 12738.00
303.6710, 12883.00
304.8800, 12832.00
306.0890, 12707.00
307.2980, 12922.00
308.5070, 12788.00
309.7150, 12808.00
310.9230, 12912.00
312.1310, 13198.00
313.3390, 13227.00
314.5470, 13524.00
315.7550, 13617.89
316.9620, 14020.00
318.1690, 13837.00
319.3760, 13673.00
320.5830, 13733.00
321.7900, 13316.00
322.9960, 12927.00
324.2030, 12931.00
325.4090, 12875.00
326.6150, 12761.00
327.8210, 12604.00
329.0270, 12411.00
330.2320, 12399.24
331.4380, 12264.00
332.6430, 12323.00
333.8480, 12339.00
335.0530, 12230.83
336.2580, 12283.00
337.4620, 12274.00
338.6670, 12157.00
339.8710, 12220.00
341.0750, 12030.00
342.2790, 12037.00
343.4820, 12247.00
344.6860, 12207.00
345.8890, 12280.00
347.0920, 12221.00
348.2960, 12150.00
349.4980, 12261.00
350.7010, 12359.00
351.9040, 12227.00
353.1060, 12321.30
354.3080, 12041.00
355.5100, 12355.00
356.7120, 12318.42
357.9140, 12385.17
359.1150, 12615.00
360.3170, 12443.00
361.5180, 12598.00
362.7190, 12749.00
363.9200, 12714.00
365.1200, 12987.00
366.3210, 13040.00
367.5210, 13280.00
368.7210, 13581.00
369.9210, 13680.00
371.1210, 13735.00
372.3210, 13655.00
373.5200, 13380.00
374.7200, 13196.00
375.9190, 12816.00
377.1180, 12483.00
378.3170, 12254.00
379.5150, 12088.00
380.7140, 11814.00
381.9120, 11667.00
383.1110, 11509.00
384.3090, 11484.00
385.5060, 11386.82
386.7040, 11447.00
387.9020, 11314.00
389.0990, 11356.00
390.2960, 11359.00
391.4930, 11269.00
392.6900, 11342.00
393.8860, 11171.00
395.0830, 11167.00
396.2790, 11296.00
397.4750, 11213.00
398.6710, 11105.00
399.8670, 11137.00
401.0630, 11004.00
402.2580, 11182.00
403.4540, 11066.00
404.6490, 11013.00
405.8440, 10955.00
407.0390, 11055.00
408.2330, 10941.00
409.4280, 11011.00
410.6220, 10834.00
411.8160, 10996.00
413.0100, 10969.00
414.2040, 10982.00
415.3980, 10951.00
416.5910, 10885.00
417.7850, 11044.00
418.9780, 10988.00
420.1710, 10796.00
421.3640, 10939.00
422.5560, 10993.00
423.7490, 10843.00
424.9410, 10853.00
426.1330, 10901.00
427.3250, 10928.00
428.5170, 10883.00
429.7090, 10945.00
430.9000, 10973.00
432.0910, 10959.00
433.2820, 10727.00
434.4730, 10804.00
435.6640, 10815.00
436.8550, 10802.00
438.0450, 10881.00
439.2360, 10920.00
440.4260, 10881.00
441.6160, 10913.00
442.8060, 10849.00
443.9950, 10908.00
445.1850, 10840.00
446.3740, 10715.00
447.5630, 10791.00
448.7520, 10815.00
449.9410, 10902.00
451.1300, 10846.00
452.3180, 10787.00
453.5060, 10648.00
454.6950, 10754.00
455.8830, 10739.00
457.0700, 10877.00
458.2580, 10890.00
459.4450, 10773.00
460.6330, 10795.00
461.8200, 10799.00
463.0070, 10897.00
464.1940, 10883.00
465.3800, 10861.00
466.5670, 10870.00
467.7530, 10746.00
468.9390, 10872.00
470.1250, 10867.00
471.3110, 10754.00
472.4970, 10975.00
473.6820, 10920.00
474.8680, 11073.00
476.0530, 10913.00
477.2380, 10910.00
478.4230, 10948.00
479.6070, 11058.00
480.7920, 10949.00
481.9760, 10945.00
483.1600, 11019.00
484.3440, 10945.00
485.5280, 11042.00
486.7120, 11088.00
487.8950, 11007.00
489.0780, 11059.00
490.2620, 10934.00
491.4450, 11059.00
492.6270, 11149.00
493.8100, 11072.00
494.9920, 11022.00
496.1750, 11100.00
497.3570, 10914.00
498.5390, 10994.00
499.7210, 10965.00
500.9020, 11146.00
502.0840, 11152.00
503.2650, 11253.00
504.4460, 11154.00
505.6270, 11245.00
506.8080, 11178.00
507.9890, 11151.00
509.1690, 11063.00
510.3500, 11187.00
511.5300, 11202.00
512.7100, 11230.00
513.8900, 11254.00
515.0690, 11256.00
516.2490, 11270.00
517.4280, 11283.00
518.6070, 11301.00
519.7860, 11317.00
520.9650, 11351.00
522.1440, 11394.00
523.3220, 11436.00
524.5010, 11455.00
525.6790, 11538.00
526.8570, 11389.00
528.0350, 11471.00
529.2130, 11400.00
530.3900, 11531.00
531.5670, 11551.00
532.7450, 11527.00
533.9220, 11430.00
535.0980, 11471.00
536.2750, 11309.00
537.4520, 11415.00
538.6280, 11292.00
539.8040, 11304.00
540.9800, 11329.00
542.1560, 11601.00
543.3320, 11614.00
544.5070, 11580.00
545.6830, 11592.00
546.8580, 11506.00
548.0330, 11642.00
549.2080, 11732.00
550.3830, 11873.00
551.5570, 11874.00
552.7310, 11965.36
553.9060, 11881.00
555.0800, 12071.00
556.2540, 12102.00
557.4270, 12164.06
558.6010, 12300.00
559.7740, 12150.00
560.9470, 12106.00
562.1210, 11982.00
563.2930, 12067.00
564.4660, 11993.00
565.6390, 12225.00
566.8110, 12113.00
567.9830, 12209.00
569.1550, 12062.00
570.3270, 12176.00
571.4990, 12058.00
572.6710, 12103.00
573.8420, 12011.00
575.0130, 11882.00
576.1840, 11689.00
577.3550, 11532.00
578.5260, 11487.00
579.6970, 11413.00
580.8670, 11281.00
582.0370, 11193.00
583.2070, 10898.00
584.3770, 10849.00
585.5470, 10633.00
586.7170, 10569.00
587.8860, 10450.00
589.0550, 10397.00
590.2240, 10292.00
591.3930, 10200.00
592.5620, 10225.00
593.7310, 10195.00
594.8990, 10249.00
596.0670, 10146.00
597.2350, 10139.00
598.4030, 10141.00
599.5710, 10204.00
600.7390, 10211.00
601.9060, 10198.00
603.0740, 10232.00
604.2410, 10296.00
605.4080, 10344.00
606.5740, 10359.88
607.7410, 10272.00
608.9080, 10417.00
610.0740, 10414.00
611.2400, 10504.00
612.4060, 10554.00
613.5720, 10609.85
614.7370, 10625.00
615.9030, 10754.00
617.0680, 10814.00
618.2330, 10904.00
619.3980, 11041.00
620.5630, 11029.00
621.7280, 10941.00
622.8920, 11216.00
624.0570, 11163.00
625.2210, 11295.00
626.3850, 11348.00
627.5490, 11407.00
628.7120, 11566.87
629.8760, 11612.00
631.0390, 11913.00
632.2020, 12041.00
633.3650, 12314.06
634.5280, 12555.00
635.6910, 12749.00
636.8530, 13288.00
638.0160, 13496.00
639.1780, 14191.00
640.3400, 14690.00
641.5020, 15242.00
642.6640, 16072.00
643.8250, 17159.00
644.9870, 18483.00
646.1480, 19996.00
647.3090, 21910.00
648.4700, 24368.00
649.6300, 27534.00
650.7910, 30872.00
651.9510, 35228.00
653.1120, 39789.00
654.2720, 44828.00
655.4320, 49332.00
656.5910, 52368.00
657.7510, 52967.00
658.9100, 52470.00
660.0690, 49074.00
661.2290, 44331.00
662.3880, 40022.00
663.5460, 35008.00
664.7050, 31294.00
665.8630, 27502.00
667.0220, 24673.00
668.1800, 22161.00
669.3380, 20203.00
670.4950, 18564.00
671.6530, 17167.00
672.8100, 16017.00
673.9680, 15149.00
675.1250, 14376.00
676.2820, 13759.00
677.4390, 13249.00
678.5950, 12861.00
679.7520, 12520.44
680.9080, 12200.26
682.0640, 12055.00
683.2200, 11756.00
684.3760, 11542.00
685.5320, 11457.00
686.6870, 11244.00
687.8420, 11086.00
688.9980, 10882.00
690.1530, 10794.32
691.3070, 10873.00
692.4620, 10658.00
693.6170, 10632.00
694.7710, 10608.00
695.9250, 10338.00
697.0790, 10456.00
698.2330, 10387.00
699.3870, 10379.00
700.5400, 10303.00
701.6940, 10214.00
702.8470, 10181.00
704.0000, 10032.00
705.1530, 10129.00
706.3050, 10170.00
707.4580, 10009.00
708.6100, 10049.00
709.7630, 10104.00
710.9150, 10040.00
712.0660, 10060.00
713.2180, 10108.00
714.3700, 10089.00
715.5210, 10090.45
716.6720, 10102.47
717.8240, 10080.00
718.9740, 10053.00
720.1250, 10110.00
721.2760, 9979.000
722.4260, 10002.00
723.5770, 10051.00
724.7270, 10113.00
725.8770, 10006.00
727.0260, 9894.000
728.1760, 9904.000
729.3250, 9990.000
730.4750, 9947.000
731.6240, 9930.000
732.7730, 10061.00
733.9220, 9984.000
735.0700, 9904.000
736.2190, 10201.39
737.3670, 10060.04
738.5150, 10044.16
739.6630, 10002.00
740.8110, 9950.000
741.9590, 9934.616
743.1060, 9982.000
744.2540, 9905.000
745.4010, 9854.000
746.5480, 9878.000
747.6950, 9717.000
748.8410, 9753.000
749.9880, 9618.000
751.1340, 9682.000
752.2800, 9777.000
753.4260, 9700.000
754.5720, 9794.000
755.7180, 9660.000
756.8640, 9778.000
758.0090, 9740.000
759.1540, 9747.000
760.2990, 9797.000
761.4440, 9779.000
762.5890, 9772.000
763.7340, 9719.000
764.8780, 9595.000
766.0220, 9613.506
767.1660, 9639.000
768.3100, 9595.000
769.4540, 9637.000
770.5980, 9653.000
771.7410, 9606.000
772.8840, 9653.000
774.0280, 9590.000
775.1700, 9416.000
776.3130, 9580.000
777.4560, 9417.000
778.5980, 9531.000
779.7410, 9575.000
780.8830, 9440.000
782.0250, 9497.000
783.1670, 9507.000
784.3080, 9378.000
785.4500, 9462.000
786.5910, 9470.000
787.7320, 9506.000
788.8730, 9397.000
790.0140, 9418.000
791.1550, 9372.000
792.2950, 9463.000
793.4360, 9405.000
794.5760, 9406.000
795.7160, 9362.000
796.8560, 9302.000
797.9960, 9403.000
799.1350, 9410.000
800.2750, 9391.231
801.4140, 9443.358
802.5530, 9470.300
803.6920, 9473.410
804.8310, 9381.311
805.9690, 9412.159
807.1080, 9393.733
808.2460, 9373.292
809.3840, 9421.444
810.5220, 9343.197
811.6600, 9390.262
812.7970, 9387.310
813.9350, 9407.245
815.0720, 9270.000
816.2090, 9198.000
817.3460, 9201.000
818.4830, 9191.000
819.6200, 9210.000
820.7560, 9268.000
821.8930, 9096.000
823.0290, 9230.000
824.1650, 9196.000
825.3010, 9112.000
826.4360, 9158.000
827.5720, 9137.641
828.7070, 9304.000
829.8420, 9194.000
830.9770, 9167.000
832.1120, 9230.000
833.2470, 9108.000
834.3820, 9195.000
835.5160, 9025.000
836.6500, 9159.000
837.7840, 9146.000
838.9180, 9055.000
840.0520, 8974.000
841.1860, 9069.000
842.3190, 9207.000
843.4520, 9100.000
844.5850, 9119.000
845.7180, 9140.000
846.8510, 8985.000
847.9840, 9181.000
849.1160, 9173.000
850.2490, 9085.000
851.3810, 9093.000
852.5130, 9021.000
853.6450, 9094.000
854.7760, 9131.000
855.9080, 9122.000
857.0390, 9067.000
858.1700, 9051.000
859.3010, 8985.000
860.4320, 8973.133
861.5630, 8944.900
862.6930, 8970.000
863.8240, 8943.000
864.9540, 9006.000
866.0840, 8991.317
867.2140, 9011.697
868.3440, 9000.000
869.4730, 9040.000
870.6030, 9054.000
871.7320, 9059.000
872.8610, 9087.000
873.9900, 9037.000
875.1190, 9011.000
876.2470, 9124.000
877.3760, 9123.000
878.5040, 9069.000
879.6320, 9075.000
880.7600, 9083.000
881.8880, 9222.000
883.0150, 9002.000
884.1430, 9119.000
885.2700, 9108.000
886.3970, 9018.000
887.5240, 9116.000
888.6510, 9086.000
889.7780, 9045.000
890.9040, 9111.000
892.0310, 9132.000
893.1570, 9099.000
894.2830, 9035.000
895.4090, 9048.000
896.5350, 9122.000
897.6600, 8973.000
898.7860, 9038.000
899.9110, 9098.000
901.0360, 8997.000
902.1610, 9117.000
903.2860, 9111.000
904.4100, 9037.000
905.5350, 9033.000
906.6590, 9104.000
907.7830, 9019.000
908.9070, 9157.000
910.0310, 9093.000
911.1540, 9034.000
912.2780, 9007.000
913.4010, 9024.000
914.5240, 9117.000
915.6470, 9041.000
916.7700, 9102.000
917.8930, 9157.000
919.0150, 9076.000
920.1380, 9058.000
921.2600, 9031.000
922.3820, 8851.000
923.5040, 9107.000
924.6260, 9137.000
925.7470, 9052.000
926.8690, 8905.000
927.9900, 9025.000
929.1110, 8966.000
930.2320, 9084.000
931.3530, 9064.000
932.4730, 9168.000
933.5940, 9216.000
934.7140, 9124.000
935.8340, 9112.000
936.9540, 9149.000
938.0740, 9167.000
939.1930, 9148.000
940.3130, 8991.000
941.4320, 9154.000
942.5510, 9052.000
943.6700, 9160.000
944.7890, 9108.000
945.9080, 9181.000
947.0260, 9193.000
948.1450, 9021.000
949.2630, 8940.000
950.3810, 9184.000
951.4990, 8983.000
952.6170, 9289.000
953.7340, 9200.000
954.8520, 9056.000
955.9690, 9137.000
957.0860, 9113.000
958.2030, 9075.000
959.3200, 9029.000
960.4360, 9083.000
961.5530, 9139.000
962.6690, 9087.000
963.7850, 9180.000
964.9010, 9127.000
966.0170, 9082.000
967.1330, 8930.530
968.2480, 9103.997
969.3630, 9201.909
970.4790, 9228.327
971.5940, 8969.117
972.7080, 9078.735
973.8230, 9040.544
974.9380, 8996.292
976.0520, 9157.821
977.1660, 8940.154
978.2800, 9098.420
979.3940, 9106.620
980.5080, 9183.502
981.6220, 9111.660
982.7350, 9085.754
983.8480, 9208.617
984.9610, 9249.106
986.0740, 9160.144
987.1870, 9241.390
988.3000, 9018.526
989.4120, 9062.522
990.5250, 9221.657
991.6370, 9172.000
992.7490, 9031.000
993.8610, 9114.000
994.9720, 9091.000
996.0840, 9089.000
997.1950, 9193.000
998.3060, 8993.000
999.4170, 8953.000
1000.528, 8976.000
1001.639, 9109.051
1002.750, 9164.724
1003.860, 9195.214
1004.970, 9201.873
1006.080, 9113.322
1007.190, 9147.714
1008.300, 9132.837
1009.410, 9115.938
1010.519, 9167.637
1011.628, 9092.936
1012.738, 9143.544
1013.846, 9144.134
1014.955, 9167.616
1016.064, 9141.524
1017.172, 9130.746
1018.281, 9169.556
1019.389, 9180.909
1020.497, 9149.111
1021.605, 9174.051
1022.713, 9097.620
1023.820, 9030.335
1024.928, 9067.848
1026.035, 9056.090
1027.142, 9042.312
1028.249, 9097.128
1029.356, 9025.545
1030.462, 9079.272
1031.569, 9082.979
1032.675, 9109.577
1033.781, 9086.602
1034.887, 9078.938
1035.993, 9120.865
1037.098, 9135.332
1038.204, 9106.649
1039.309, 9134.702
1040.415, 9061.387
1041.520, 8968.000
1042.624, 9072.000
1043.729, 9006.233
1044.834, 8964.338
1045.938, 9004.000
1047.042, 8911.000
1048.146, 9007.000
1049.250, 9054.091
1050.354, 9113.131
1051.458, 9146.986
1052.561, 9157.010
1053.664, 9071.823
1054.767, 9109.580
1055.870, 9098.066
1056.973, 9084.532
1058.076, 9139.593
1059.178, 9068.253
1060.281, 9122.226
1061.383, 9126.175
1062.485, 9153.018
1063.587, 9130.287
1064.688, 9122.866
1065.790, 9165.037
1066.891, 9179.748
1067.993, 9151.311
1069.094, 9179.606
1070.195, 9106.534
1071.295, 9065.000
1072.396, 9045.000
1073.496, 9138.000
1074.597, 9064.000
1075.697, 9046.000
1076.797, 9117.000
1077.897, 9079.000
1078.996, 9124.000
1080.096, 9137.000
1081.195, 9080.322
1082.294, 9143.786
1083.393, 9182.064
1084.492, 9196.513
1085.591, 9115.751
1086.689, 9157.927
1087.788, 9150.838
1088.886, 9141.724
1089.984, 9201.204
1091.082, 9134.285
1092.180, 9192.677
1093.277, 9201.041
1094.375, 9232.305
1095.472, 9213.989
1096.569, 9210.984
1097.666, 9257.571
1098.763, 9276.698
1099.860, 9252.676
1100.956, 9285.385
1102.053, 9257.000
1103.149, 9168.000
1104.245, 9285.000
1105.341, 9189.000
1106.436, 9212.000
1107.532, 9286.000
1108.627, 9271.000
1109.723, 9264.000
1110.818, 9178.000
1111.913, 9389.000
1113.007, 9406.000
1114.102, 9305.000
1115.197, 9403.000
1116.291, 9390.000
1117.385, 9398.000
1118.479, 9510.000
1119.573, 9637.000
1120.666, 9470.000
1121.760, 9479.000
1122.853, 9597.000
1123.947, 9506.000
1125.040, 9656.000
1126.132, 9612.000
1127.225, 9502.000
1128.318, 9596.000
1129.410, 9577.000
1130.502, 9640.000
1131.595, 9553.000
1132.687, 9536.000
1133.778, 9607.000
1134.870, 9701.000
1135.961, 9588.000
1137.053, 9552.000
1138.144, 9615.000
1139.235, 9628.000
1140.326, 9547.000
1141.416, 9534.000
1142.507, 9548.000
1143.597, 9563.000
1144.688, 9531.000
1145.778, 9496.000
1146.868, 9514.000
1147.957, 9594.000
1149.047, 9547.202
1150.136, 9604.000
1151.226, 9514.000
1152.315, 9477.000
1153.404, 9449.000
1154.493, 9460.000
1155.581, 9433.000
1156.670, 9428.000
1157.758, 9430.002
1158.846, 9405.000
1159.934, 9412.000
1161.022, 9407.000
1162.110, 9354.000
1163.198, 9399.000
1164.285, 9386.000
1165.372, 9438.000
1166.459, 9421.030
1167.546, 9375.000
1168.633, 9362.000
1169.720, 9436.000
1170.806, 9342.000
1171.892, 9312.000
1172.979, 9428.000
1174.065, 9377.000
1175.150, 9445.000
1176.236, 9482.000
1177.322, 9359.000
1178.407, 9331.000
1179.492, 9349.000
1180.577, 9351.000
1181.662, 9381.000
1182.747, 9481.000
1183.832, 9475.000
1184.916, 9276.000
1186.000, 9261.000
1187.084, 9356.000
1188.168, 9260.000
1189.252, 9371.000
1190.336, 9283.000
1191.419, 9317.000
1192.503, 9313.000
1193.586, 9253.000
1194.669, 9312.000
1195.752, 9327.000
1196.835, 9172.000
1197.917, 9137.000
1199.000, 9245.000
1200.082, 9219.000
1201.164, 9213.000
1202.246, 9391.000
1203.328, 9212.000
1204.409, 9358.000
1205.491, 9314.000
1206.572, 9339.000
1207.653, 9206.000
1208.734, 9339.000
1209.815, 9325.000
1210.896, 9249.000
1211.976, 9292.000
1213.057, 9321.000
1214.137, 9166.000
1215.217, 9182.000
1216.297, 9414.000
1217.377, 9377.000
1218.456, 9287.000
1219.536, 9361.000
1220.615, 9311.000
1221.694, 9255.000
1222.773, 9244.000
1223.852, 9252.000
1224.931, 9179.000
1226.009, 9206.000
1227.088, 9216.694
1228.166, 9343.000
1229.244, 9268.000
1230.322, 9341.000
1231.400, 9346.000
1232.477, 9280.000
1233.555, 9221.000
1234.632, 9326.000
1235.709, 9317.000
1236.786, 9493.000
1237.863, 9374.000
1238.939, 9389.000
1240.016, 9421.000
1241.092, 9378.906
1242.168, 9351.000
1243.245, 9370.000
1244.320, 9319.000
1245.396, 9284.000
1246.472, 9294.000
1247.547, 9324.818
1248.622, 9392.000
1249.697, 9422.000
1250.772, 9431.519
1251.847, 9422.000
1252.922, 9383.000
1253.996, 9452.000
1255.071, 9452.000
1256.145, 9317.000
1257.219, 9464.000
1258.293, 9399.000
1259.366, 9481.000
1260.440, 9437.000
1261.513, 9448.000
1262.587, 9234.000
1263.660, 9409.000
1264.733, 9517.000
1265.805, 9199.000
1266.878, 9373.000
1267.951, 9420.000
1269.023, 9418.000
1270.095, 9454.359
1271.167, 9474.000
1272.239, 9390.000
1273.311, 9412.000
1274.382, 9355.000
1275.454, 9346.305
1276.525, 9436.000
1277.596, 9365.000
1278.667, 9369.000
1279.738, 9447.000
1280.808, 9425.000
1281.879, 9472.000
1282.949, 9387.000
1284.019, 9316.000
1285.089, 9375.000
1286.159, 9500.000
1287.229, 9530.000
1288.298, 9496.000
1289.368, 9602.000
1290.437, 9523.000
1291.506, 9548.000
1292.575, 9458.000
1293.644, 9492.000
1294.712, 9393.000
1295.781, 9377.000
1296.849, 9493.000
1297.917, 9439.000
1298.985, 9547.000
1300.053, 9499.000
1301.121, 9590.000
1302.188, 9569.000
1303.255, 9454.000
1304.323, 9382.000
1305.390, 9425.893
1306.457, 9467.663
1307.523, 9484.265
1308.590, 9477.020
1309.656, 9374.579
1310.723, 9395.066
1311.789, 9366.301
1312.855, 9335.513
1313.921, 9373.319
1314.986, 9284.742
