##NAMES=Hausmannite
##RRUFFID=R060512
##IDEAL CHEMISTRY=Mn^2+^Mn^3+^_2_O_4_
##LOCALITY=N'Chwaning II mine, Kalahari manganese field, northern Cape Province, Republic of South Africa
##OWNER=RRUFF
##SOURCE=Michael Scott
##DESCRIPTION=Group of black pseudo-octahedra with striations parallel to the (001) plane
##STATUS=The identification of this mineral has been confirmed by X-ray diffraction and chemical analysis
##URL=rruff.info/R060512
##MEASURED CHEMISTRY=Mn^2+^_0.99_Mn^3+^_1.98_O_4_
##PIN_ID=M00870
##ORIENTATION=Laser parallel to c* (0 0 1). Fiducial mark perpendicular to laser is parallel to a [1 0 0]
147.5080, 7569.000
148.7390, 7567.000
149.9700, 7750.000
151.2000, 7582.000
152.4310, 7810.000
153.6610, 7780.000
154.8910, 7880.000
156.1210, 7791.000
157.3500, 7752.000
158.5800, 7794.000
159.8090, 7728.513
161.0380, 7868.681
162.2670, 7950.888
163.4960, 7977.556
164.7240, 7820.917
165.9530, 7871.488
167.1810, 7821.009
168.4090, 7990.000
169.6370, 8107.000
170.8650, 7933.000
172.0920, 7902.000
173.3200, 7768.000
174.5470, 7820.000
175.7740, 7771.000
177.0010, 7756.710
178.2280, 7927.000
179.4540, 7704.000
180.6810, 7926.000
181.9070, 7797.000
183.1330, 7845.000
184.3590, 7764.000
185.5850, 7855.000
186.8100, 7917.000
188.0350, 7882.000
189.2610, 7907.000
190.4860, 8046.000
191.7110, 7918.000
192.9350, 8081.000
194.1600, 7832.000
195.3840, 7988.000
196.6080, 7849.000
197.8320, 8011.000
199.0560, 7989.000
200.2800, 7828.000
201.5030, 8059.000
202.7270, 8007.000
203.9500, 7910.000
205.1730, 7884.000
206.3950, 7860.000
207.6180, 7779.000
208.8410, 7836.000
210.0630, 7796.000
211.2850, 7786.000
212.5070, 7754.000
213.7290, 7785.000
214.9500, 7752.000
216.1720, 7776.646
217.3930, 7775.000
218.6140, 7790.000
219.8350, 7851.000
221.0560, 7799.000
222.2770, 7760.000
223.4970, 7713.000
224.7170, 7753.000
225.9370, 7720.000
227.1570, 7784.000
228.3770, 7786.788
229.5970, 7737.000
230.8160, 7806.000
232.0350, 7766.664
233.2540, 7757.807
234.4730, 7729.000
235.6920, 7728.000
236.9110, 7679.000
238.1290, 7680.000
239.3470, 7715.000
240.5650, 7856.000
241.7830, 7626.000
243.0010, 7658.000
244.2180, 7752.000
245.4360, 7620.000
246.6530, 7870.000
247.8700, 7744.000
249.0870, 7698.000
250.3040, 7687.000
251.5200, 7684.000
252.7370, 7751.000
253.9530, 7661.668
255.1690, 7736.297
256.3850, 7779.367
257.6000, 7792.573
258.8160, 7686.475
260.0310, 7734.433
261.2460, 7720.651
262.4610, 7704.338
263.6760, 7773.979
264.8910, 7685.231
266.1050, 7753.507
267.3200, 7759.104
268.5340, 7793.386
269.7480, 7765.547
270.9620, 7756.896
272.1750, 7810.382
273.3890, 7829.464
274.6020, 7794.472
275.8150, 7830.575
277.0280, 7739.654
278.2410, 7760.198
279.4540, 7828.836
280.6660, 7838.000
281.8790, 7773.000
283.0910, 7762.000
284.3030, 7785.000
285.5140, 7818.000
286.7260, 7811.000
287.9380, 7802.000
289.1490, 7896.000
290.3600, 7794.000
291.5710, 7810.000
292.7820, 7818.000
293.9920, 7986.000
295.2030, 7794.000
296.4130, 7919.000
297.6230, 7758.000
298.8330, 7941.000
300.0430, 7923.000
301.2520, 8036.000
302.4620, 7977.000
303.6710, 8063.000
304.8800, 8039.000
306.0890, 8056.000
307.2980, 8184.000
308.5070, 8359.000
309.7150, 8354.000
310.9230, 8594.000
312.1310, 8642.000
313.3390, 8935.000
314.5470, 9173.000
315.7550, 9445.000
316.9620, 9557.000
318.1690, 9567.000
319.3760, 9541.000
320.5830, 9426.000
321.7900, 9350.000
322.9960, 8978.000
324.2030, 8858.000
325.4090, 8745.000
326.6150, 8626.000
327.8210, 8529.000
329.0270, 8413.000
330.2320, 8365.000
331.4380, 8319.000
332.6430, 8260.037
333.8480, 8249.946
335.0530, 8205.000
336.2580, 8253.000
337.4620, 8217.283
338.6670, 8308.415
339.8710, 8364.092
341.0750, 8386.026
342.2790, 8284.776
343.4820, 8333.703
344.6860, 8317.017
345.8890, 8431.000
347.0920, 8477.000
348.2960, 8389.000
349.4980, 8426.000
350.7010, 8490.000
351.9040, 8466.000
353.1060, 8599.000
354.3080, 8536.000
355.5100, 8739.000
356.7120, 8733.000
357.9140, 8983.000
359.1150, 9046.000
360.3170, 9078.000
361.5180, 9308.000
362.7190, 9516.000
363.9200, 9809.000
365.1200, 10173.00
366.3210, 10525.00
367.5210, 10965.00
368.7210, 11370.00
369.9210, 11666.00
371.1210, 11835.00
372.3210, 11765.20
373.5200, 11725.00
374.7200, 11239.00
375.9190, 10694.00
377.1180, 10129.00
378.3170, 9795.000
379.5150, 9422.000
380.7140, 9143.071
381.9120, 8859.000
383.1110, 8801.000
384.3090, 8601.000
385.5060, 8595.000
386.7040, 8382.000
387.9020, 8349.000
389.0990, 8399.000
390.2960, 8205.000
391.4930, 8109.000
392.6900, 8165.000
393.8860, 8096.899
395.0830, 8183.000
396.2790, 8145.000
397.4750, 8172.000
398.6710, 8195.000
399.8670, 8187.000
401.0630, 8191.855
402.2580, 8196.469
403.4540, 8192.000
404.6490, 8167.000
405.8440, 8210.000
407.0390, 8133.000
408.2330, 8168.000
409.4280, 8141.000
410.6220, 8232.000
411.8160, 8216.000
413.0100, 8217.000
414.2040, 8223.000
415.3980, 8142.000
416.5910, 8127.000
417.7850, 8148.000
418.9780, 8222.000
420.1710, 8212.000
421.3640, 8204.000
422.5560, 8196.000
423.7490, 8378.000
424.9410, 8244.000
426.1330, 8135.000
427.3250, 8327.000
428.5170, 8416.000
429.7090, 8317.000
430.9000, 8347.000
432.0910, 8267.000
433.2820, 8160.000
434.4730, 8215.000
435.6640, 8206.206
436.8550, 8170.000
438.0450, 8315.000
439.2360, 8339.000
440.4260, 8390.000
441.6160, 8251.000
442.8060, 8373.000
443.9950, 8276.000
445.1850, 8200.000
446.3740, 8284.000
447.5630, 8242.000
448.7520, 8316.000
449.9410, 8281.000
451.1300, 8320.000
452.3180, 8330.000
453.5060, 8327.000
454.6950, 8417.000
455.8830, 8362.000
457.0700, 8401.000
458.2580, 8498.000
459.4450, 8460.000
460.6330, 8438.000
461.8200, 8411.000
463.0070, 8397.000
464.1940, 8371.700
465.3800, 8418.000
466.5670, 8348.000
467.7530, 8393.000
468.9390, 8430.000
470.1250, 8428.000
471.3110, 8542.000
472.4970, 8553.000
473.6820, 8613.000
474.8680, 8615.000
476.0530, 8587.000
477.2380, 8586.000
478.4230, 8563.000
479.6070, 8543.000
480.7920, 8606.000
481.9760, 8673.000
483.1600, 8648.000
484.3440, 8689.000
485.5280, 8702.293
486.7120, 8631.000
487.8950, 8713.000
489.0780, 8733.000
490.2620, 8711.000
491.4450, 8758.000
492.6270, 8704.000
493.8100, 8717.000
494.9920, 8711.000
496.1750, 8708.000
497.3570, 8770.000
498.5390, 8764.206
499.7210, 8795.799
500.9020, 8798.000
502.0840, 8861.000
503.2650, 8873.000
504.4460, 8940.000
505.6270, 8908.305
506.8080, 8828.000
507.9890, 8836.000
509.1690, 8825.000
510.3500, 8781.000
511.5300, 8992.000
512.7100, 8993.000
513.8900, 8981.000
515.0690, 8886.000
516.2490, 8943.000
517.4280, 8905.000
518.6070, 8991.000
519.7860, 9148.000
520.9650, 9093.000
522.1440, 9142.000
523.3220, 9086.000
524.5010, 9084.000
525.6790, 9143.000
526.8570, 9132.000
528.0350, 9162.000
529.2130, 9091.000
530.3900, 9183.000
531.5670, 9206.000
532.7450, 9130.000
533.9220, 9149.000
535.0980, 9069.000
536.2750, 9183.000
537.4520, 9180.000
538.6280, 9152.000
539.8040, 9284.000
540.9800, 9411.000
542.1560, 9261.000
543.3320, 9301.000
544.5070, 9384.000
545.6830, 9406.000
546.8580, 9363.000
548.0330, 9456.000
549.2080, 9611.000
550.3830, 9492.000
551.5570, 9684.000
552.7310, 9610.000
553.9060, 9540.000
555.0800, 9703.000
556.2540, 9751.000
557.4270, 9685.000
558.6010, 9719.000
559.7740, 9771.000
560.9470, 9630.000
562.1210, 9930.000
563.2930, 9754.000
564.4660, 9848.000
565.6390, 9711.000
566.8110, 9952.000
567.9830, 9651.000
569.1550, 9858.000
570.3270, 9694.000
571.4990, 9750.000
572.6710, 9808.000
573.8420, 9845.000
575.0130, 9718.000
576.1840, 9639.000
577.3550, 9627.000
578.5260, 9460.000
579.6970, 9452.000
580.8670, 9379.213
582.0370, 9370.000
583.2070, 9266.000
584.3770, 9261.000
585.5470, 9196.000
586.7170, 9216.000
587.8860, 9076.000
589.0550, 9312.000
590.2240, 9094.000
591.3930, 9051.000
592.5620, 9156.000
593.7310, 9042.000
594.8990, 9109.000
596.0670, 9141.000
597.2350, 9214.000
598.4030, 9194.000
599.5710, 9107.000
600.7390, 9237.000
601.9060, 9332.000
603.0740, 9225.000
604.2410, 9333.000
605.4080, 9337.000
606.5740, 9329.000
607.7410, 9536.000
608.9080, 9380.000
610.0740, 9468.000
611.2400, 9420.000
612.4060, 9492.000
613.5720, 9583.000
614.7370, 9663.000
615.9030, 9678.000
617.0680, 9861.000
618.2330, 9929.000
619.3980, 9970.000
620.5630, 9964.000
621.7280, 10056.79
622.8920, 10074.00
624.0570, 10235.00
625.2210, 10269.00
626.3850, 10424.00
627.5490, 10444.00
628.7120, 10505.00
629.8760, 10760.00
631.0390, 11082.00
632.2020, 11068.00
633.3650, 11350.00
634.5280, 11761.00
635.6910, 11897.00
636.8530, 12347.00
638.0160, 12771.00
639.1780, 13333.00
640.3400, 13849.00
641.5020, 14648.00
642.6640, 15451.00
643.8250, 16611.00
644.9870, 17685.00
646.1480, 19430.00
647.3090, 21366.00
648.4700, 24034.16
649.6300, 27423.00
650.7910, 30940.00
651.9510, 35385.00
653.1120, 40553.00
654.2720, 46088.00
655.4320, 50524.00
656.5910, 53939.00
657.7510, 54446.00
658.9100, 53454.00
660.0690, 49699.00
661.2290, 44909.00
662.3880, 39973.00
663.5460, 35179.00
664.7050, 30551.00
665.8630, 27220.00
667.0220, 23893.00
668.1800, 21703.00
669.3380, 19530.00
670.4950, 17914.00
671.6530, 16969.00
672.8100, 15627.00
673.9680, 14571.00
675.1250, 13661.00
676.2820, 13298.00
677.4390, 12739.00
678.5950, 12305.00
679.7520, 11787.00
680.9080, 11666.00
682.0640, 11444.00
683.2200, 11047.00
684.3760, 11006.00
685.5320, 10722.00
686.6870, 10550.00
687.8420, 10386.00
688.9980, 10384.00
690.1530, 10171.00
691.3070, 10189.00
692.4620, 10011.00
693.6170, 10015.00
694.7710, 9884.000
695.9250, 9856.000
697.0790, 9801.000
698.2330, 9759.000
699.3870, 9721.000
700.5400, 9674.387
701.6940, 9649.316
702.8470, 9620.000
704.0000, 9572.000
705.1530, 9605.000
706.3050, 9514.000
707.4580, 9527.000
708.6100, 9604.000
709.7630, 9537.000
710.9150, 9611.000
712.0660, 9546.000
713.2180, 9554.000
714.3700, 9590.000
715.5210, 9524.000
716.6720, 9615.000
717.8240, 9617.000
718.9740, 9428.000
720.1250, 9530.000
721.2760, 9441.000
722.4260, 9481.000
723.5770, 9450.000
724.7270, 9582.000
725.8770, 9468.000
727.0260, 9531.000
728.1760, 9486.000
729.3250, 9567.000
730.4750, 9429.000
731.6240, 9567.000
732.7730, 9469.000
733.9220, 9605.000
735.0700, 9526.000
736.2190, 9442.000
737.3670, 9565.000
738.5150, 9466.000
739.6630, 9464.000
740.8110, 9490.000
741.9590, 9471.000
743.1060, 9459.695
744.2540, 9449.000
745.4010, 9399.000
746.5480, 9368.000
747.6950, 9307.000
748.8410, 9454.000
749.9880, 9345.000
751.1340, 9332.000
752.2800, 9500.000
753.4260, 9464.000
754.5720, 9428.000
755.7180, 9248.000
756.8640, 9316.000
758.0090, 9369.000
759.1540, 9350.000
760.2990, 9325.000
761.4440, 9246.000
762.5890, 9227.000
763.7340, 9393.000
764.8780, 9416.000
766.0220, 9130.000
767.1660, 9387.000
768.3100, 9333.000
769.4540, 9221.000
770.5980, 9332.000
771.7410, 9325.000
772.8840, 9155.000
774.0280, 9118.000
775.1700, 9221.000
776.3130, 9145.000
777.4560, 9206.000
778.5980, 9161.000
779.7410, 9078.000
780.8830, 9061.000
782.0250, 9125.000
783.1670, 9237.000
784.3080, 9124.000
785.4500, 9266.000
786.5910, 9078.000
787.7320, 9027.000
788.8730, 9060.000
790.0140, 9182.000
791.1550, 9136.000
792.2950, 9089.000
793.4360, 9154.000
794.5760, 9034.000
795.7160, 9192.000
796.8560, 9121.000
797.9960, 9048.000
799.1350, 9120.000
800.2750, 8929.000
801.4140, 9124.000
802.5530, 9110.000
803.6920, 9027.000
804.8310, 9105.000
805.9690, 9065.000
807.1080, 9032.000
808.2460, 9059.000
809.3840, 9095.000
810.5220, 9080.571
811.6600, 8984.000
812.7970, 9067.000
813.9350, 8994.000
815.0720, 8936.000
816.2090, 9009.000
817.3460, 8918.000
818.4830, 9022.000
819.6200, 8977.000
820.7560, 8981.000
821.8930, 8881.000
823.0290, 9026.000
824.1650, 8990.000
825.3010, 9046.000
826.4360, 9014.000
827.5720, 8927.000
828.7070, 8926.000
829.8420, 8902.713
830.9770, 8928.000
832.1120, 8928.000
833.2470, 8924.000
834.3820, 8998.000
835.5160, 8983.000
836.6500, 9003.783
837.7840, 8993.000
838.9180, 8993.000
840.0520, 8893.000
841.1860, 8825.000
842.3190, 8845.000
843.4520, 8858.000
844.5850, 8975.000
845.7180, 8974.000
846.8510, 8953.808
847.9840, 8936.000
849.1160, 8879.000
850.2490, 8847.000
851.3810, 8850.000
852.5130, 8791.000
853.6450, 8926.000
854.7760, 8846.000
855.9080, 8950.000
857.0390, 8980.000
858.1700, 8855.000
859.3010, 8936.000
860.4320, 9002.000
861.5630, 8795.000
862.6930, 8872.000
863.8240, 8994.000
864.9540, 8922.000
866.0840, 8837.000
867.2140, 8951.000
868.3440, 8816.000
869.4730, 8903.000
870.6030, 8929.000
871.7320, 8972.000
872.8610, 8979.000
873.9900, 8995.000
875.1190, 9046.287
876.2470, 8898.000
877.3760, 9070.000
878.5040, 9046.000
879.6320, 8896.000
880.7600, 8938.000
881.8880, 8871.000
883.0150, 8893.000
884.1430, 8915.000
885.2700, 8808.000
886.3970, 8983.000
887.5240, 8970.000
888.6510, 8998.000
889.7780, 8901.000
890.9040, 9036.000
892.0310, 8873.000
893.1570, 8980.000
894.2830, 8930.000
895.4090, 8897.000
896.5350, 8943.000
897.6600, 9067.000
898.7860, 8933.000
899.9110, 8957.000
901.0360, 9031.000
902.1610, 8949.000
903.2860, 9031.000
904.4100, 8908.000
905.5350, 8970.000
906.6590, 9054.000
907.7830, 8960.000
908.9070, 9004.000
910.0310, 9018.000
911.1540, 8997.000
912.2780, 9007.000
913.4010, 8987.158
914.5240, 8966.958
915.6470, 8978.000
916.7700, 8911.000
917.8930, 8968.000
919.0150, 8933.000
920.1380, 9026.000
921.2600, 9029.000
922.3820, 9103.000
923.5040, 9000.000
924.6260, 9075.000
925.7470, 9035.000
926.8690, 9144.000
927.9900, 8928.000
929.1110, 9053.000
930.2320, 9061.000
931.3530, 9030.000
932.4730, 9070.000
933.5940, 9101.000
934.7140, 9064.000
935.8340, 9109.948
936.9540, 9102.000
938.0740, 9138.000
939.1930, 9077.000
940.3130, 9060.000
941.4320, 8998.000
942.5510, 9088.000
943.6700, 9105.000
944.7890, 9220.000
945.9080, 9141.000
947.0260, 9090.000
948.1450, 9177.000
949.2630, 9169.000
950.3810, 9168.000
951.4990, 9193.000
952.6170, 9157.000
953.7340, 9103.000
954.8520, 9130.000
955.9690, 9113.000
957.0860, 9054.000
958.2030, 9205.000
959.3200, 9029.000
960.4360, 9108.000
961.5530, 9131.000
962.6690, 9084.000
963.7850, 9172.000
964.9010, 9218.000
966.0170, 9155.000
967.1330, 9226.000
968.2480, 9182.000
969.3630, 9344.000
970.4790, 9173.000
971.5940, 9053.000
972.7080, 9297.000
973.8230, 9178.000
974.9380, 9191.000
976.0520, 9336.000
977.1660, 9154.000
978.2800, 9247.000
979.3940, 9246.000
980.5080, 9158.000
981.6220, 9238.000
982.7350, 9240.000
983.8480, 9264.000
984.9610, 9285.000
986.0740, 9162.000
987.1870, 9216.000
988.3000, 9140.000
989.4120, 9112.000
990.5250, 9215.000
991.6370, 9144.000
992.7490, 9169.000
993.8610, 9203.000
994.9720, 9188.000
996.0840, 9145.000
997.1950, 9283.000
998.3060, 9183.000
999.4170, 9249.000
1000.528, 9328.000
1001.639, 9144.000
1002.750, 9156.000
1003.860, 9206.000
1004.970, 9270.000
1006.080, 9250.000
1007.190, 9326.000
1008.300, 9076.000
1009.410, 9124.000
1010.519, 9204.000
1011.628, 9160.000
1012.738, 9284.000
1013.846, 9308.000
1014.955, 9337.000
1016.064, 9171.000
1017.172, 9148.000
1018.281, 9169.000
1019.389, 9158.000
1020.497, 9117.914
1021.605, 9150.712
1022.713, 9160.988
1023.820, 9178.000
1024.928, 9211.000
1026.035, 9212.000
1027.142, 9196.000
1028.249, 9295.000
1029.356, 9165.000
1030.462, 9213.000
1031.569, 9251.000
1032.675, 9210.000
1033.781, 9191.000
1034.887, 9204.000
1035.993, 9150.000
1037.098, 9212.000
1038.204, 9099.000
1039.309, 9098.000
1040.415, 9223.000
1041.520, 9253.000
1042.624, 9189.000
1043.729, 9137.000
1044.834, 9198.000
1045.938, 9188.000
1047.042, 9168.006
1048.146, 9267.000
1049.250, 9160.000
1050.354, 9241.000
1051.458, 9309.000
1052.561, 9344.000
1053.664, 9309.000
1054.767, 9303.000
1055.870, 9365.000
1056.973, 9238.000
1058.076, 9297.000
1059.178, 9384.000
1060.281, 9302.000
1061.383, 9394.000
1062.485, 9369.000
1063.587, 9345.000
1064.688, 9412.000
1065.790, 9383.000
1066.891, 9388.000
1067.993, 9333.000
1069.094, 9378.000
1070.195, 9452.000
1071.295, 9344.000
1072.396, 9483.000
1073.496, 9306.000
1074.597, 9404.000
1075.697, 9371.000
1076.797, 9296.000
1077.897, 9416.000
1078.996, 9352.000
1080.096, 9240.000
1081.195, 9414.000
1082.294, 9450.000
1083.393, 9384.000
1084.492, 9391.000
1085.591, 9355.000
1086.689, 9332.000
1087.788, 9351.000
1088.886, 9326.000
1089.984, 9434.000
1091.082, 9401.000
1092.180, 9444.000
1093.277, 9396.000
1094.375, 9408.630
1095.472, 9467.000
1096.569, 9420.000
1097.666, 9431.000
1098.763, 9460.000
1099.860, 9474.083
1100.956, 9492.804
1102.053, 9547.000
1103.149, 9525.000
1104.245, 9539.000
1105.341, 9547.000
1106.436, 9600.000
1107.532, 9546.000
1108.627, 9629.000
1109.723, 9639.000
1110.818, 9607.000
1111.913, 9581.000
1113.007, 9623.000
1114.102, 9621.122
1115.197, 9581.000
1116.291, 9674.000
1117.385, 9699.000
1118.479, 9717.000
1119.573, 9791.000
1120.666, 9718.000
1121.760, 9845.000
1122.853, 10004.00
1123.947, 9833.000
1125.040, 9776.000
1126.132, 9847.000
1127.225, 9839.000
1128.318, 9899.000
1129.410, 9841.000
1130.502, 9937.000
1131.595, 9832.000
1132.687, 9855.000
1133.778, 9980.000
1134.870, 10029.00
1135.961, 9808.000
1137.053, 9950.000
1138.144, 9901.000
1139.235, 9830.000
1140.326, 9894.000
1141.416, 9913.000
1142.507, 9876.000
1143.597, 10005.00
1144.688, 9923.000
1145.778, 9895.000
1146.868, 9911.000
1147.957, 9864.949
1149.047, 9868.502
1150.136, 9854.000
1151.226, 9837.000
1152.315, 9868.000
1153.404, 9815.000
1154.493, 9931.000
1155.581, 9806.000
1156.670, 9869.000
1157.758, 9793.000
1158.846, 9839.000
1159.934, 9754.000
1161.022, 9749.000
1162.110, 9769.000
1163.198, 9700.000
1164.285, 9788.000
1165.372, 9712.000
1166.459, 9737.000
1167.546, 9662.000
1168.633, 9625.000
1169.720, 9640.670
1170.806, 9719.000
1171.892, 9643.000
1172.979, 9625.000
1174.065, 9595.225
1175.150, 9710.000
1176.236, 9649.000
1177.322, 9688.000
1178.407, 9764.000
1179.492, 9738.000
1180.577, 9779.000
1181.662, 9817.000
1182.747, 9690.000
1183.832, 9757.000
1184.916, 9770.000
1186.000, 9683.000
1187.084, 9847.000
1188.168, 9752.000
1189.252, 9770.000
1190.336, 9579.000
1191.419, 9738.000
1192.503, 9670.000
1193.586, 9759.000
1194.669, 9696.000
1195.752, 9685.000
1196.835, 9645.000
1197.917, 9711.000
1199.000, 9681.000
1200.082, 9662.000
1201.164, 9669.000
1202.246, 9662.000
1203.328, 9689.000
1204.409, 9677.236
1205.491, 9689.000
1206.572, 9690.000
1207.653, 9641.000
1208.734, 9690.000
1209.815, 9789.000
1210.896, 9686.000
1211.976, 9602.000
1213.057, 9726.000
1214.137, 9606.000
1215.217, 9621.000
1216.297, 9586.000
1217.377, 9550.000
1218.456, 9540.000
1219.536, 9613.000
1220.615, 9680.000
1221.694, 9730.000
1222.773, 9651.000
1223.852, 9602.000
1224.931, 9616.000
1226.009, 9722.000
1227.088, 9781.000
1228.166, 9711.000
1229.244, 9712.000
1230.322, 9639.000
1231.400, 9706.000
1232.477, 9676.000
1233.555, 9776.000
1234.632, 9661.000
1235.709, 9901.000
1236.786, 9673.000
1237.863, 9762.000
1238.939, 9763.000
1240.016, 9654.000
1241.092, 9728.000
1242.168, 9740.000
1243.245, 9800.000
1244.320, 9771.000
1245.396, 9691.000
1246.472, 9833.000
1247.547, 9738.000
1248.622, 9825.000
1249.697, 9847.000
1250.772, 9753.000
1251.847, 9806.000
1252.922, 9773.000
1253.996, 9874.000
1255.071, 9792.000
1256.145, 9823.000
1257.219, 9689.000
1258.293, 9879.000
1259.366, 9809.000
1260.440, 9896.000
1261.513, 9863.000
1262.587, 9726.000
1263.660, 9774.000
1264.733, 9773.000
1265.805, 9825.000
1266.878, 9878.000
1267.951, 9901.000
1269.023, 9795.000
1270.095, 9946.000
1271.167, 9706.000
1272.239, 9770.000
1273.311, 9784.000
1274.382, 9978.000
1275.454, 9804.000
1276.525, 9744.000
1277.596, 9800.000
1278.667, 9736.000
1279.738, 9808.000
1280.808, 9949.000
1281.879, 9747.000
1282.949, 9957.000
1284.019, 9844.000
1285.089, 9867.000
1286.159, 9761.000
1287.229, 9834.000
1288.298, 9895.000
1289.368, 9938.000
1290.437, 10006.00
1291.506, 10088.00
1292.575, 9933.000
1293.644, 10025.00
1294.712, 9875.000
1295.781, 10004.00
1296.849, 10047.00
1297.917, 9983.000
1298.985, 9945.000
1300.053, 9965.000
1301.121, 10004.00
1302.188, 9912.000
1303.255, 9908.000
1304.323, 10011.00
1305.390, 10053.00
1306.457, 10081.00
1307.523, 9932.000
1308.590, 9858.000
1309.656, 9868.000
1310.723, 9826.000
1311.789, 9814.000
1312.855, 9897.000
1313.921, 9773.000
1314.986, 9772.000
1316.052, 9689.000
