##NAMES=Hausmannite
##RRUFFID=R060512
##IDEAL CHEMISTRY=Mn^2+^Mn^3+^_2_O_4_
##LOCALITY=N'Chwaning II mine, Kalahari manganese field, northern Cape Province, Republic of South Africa
##OWNER=RRUFF
##SOURCE=Michael Scott
##DESCRIPTION=Group of black pseudo-octahedra with striations parallel to the (001) plane
##STATUS=The identification of this mineral has been confirmed by X-ray diffraction and chemical analysis
##URL=rruff.info/R060512
##MEASURED CHEMISTRY=Mn^2+^_0.99_Mn^3+^_1.98_O_4_
##PIN_ID=M00870
##ORIENTATION=Laser parallel to c* (0 0 1). Fiducial mark perpendicular to laser is parallel to a [1 0 0]
151.2000, 11059.00
152.4310, 11123.00
153.6610, 11148.00
154.8910, 11181.00
156.1210, 11072.00
157.3500, 11089.00
158.5800, 11223.00
159.8090, 11127.21
161.0380, 11239.80
162.2670, 11305.71
163.4960, 11327.46
164.7240, 11172.74
165.9530, 11245.88
167.1810, 11227.71
168.4090, 11205.79
169.6370, 11242.00
170.8650, 11293.00
172.0920, 11023.00
173.3200, 10949.00
174.5470, 10899.00
175.7740, 10853.00
177.0010, 10850.73
178.2280, 10836.84
179.4540, 10859.00
180.6810, 10907.00
181.9070, 10875.00
183.1330, 11024.00
184.3590, 10930.00
185.5850, 10862.00
186.8100, 10778.00
188.0350, 10876.00
189.2610, 10909.00
190.4860, 10994.00
191.7110, 10954.00
192.9350, 10905.00
194.1600, 10967.00
195.3840, 10862.00
196.6080, 10997.00
197.8320, 10709.00
199.0560, 10693.00
200.2800, 10743.00
201.5030, 10696.00
202.7270, 10694.00
203.9500, 10594.00
205.1730, 10737.00
206.3950, 10582.00
207.6180, 10346.00
208.8410, 10511.00
210.0630, 10281.00
211.2850, 10301.00
212.5070, 10471.00
213.7290, 10367.00
214.9500, 10383.00
216.1720, 10292.00
217.3930, 10280.20
218.6140, 10370.00
219.8350, 10247.00
221.0560, 10254.00
222.2770, 10232.00
223.4970, 10167.00
224.7170, 10229.00
225.9370, 10222.00
227.1570, 10195.00
228.3770, 10179.00
229.5970, 10218.00
230.8160, 10194.81
232.0350, 10213.51
233.2540, 10159.00
234.4730, 10233.00
235.6920, 10145.00
236.9110, 10139.00
238.1290, 10099.00
239.3470, 10058.00
240.5650, 10124.00
241.7830, 10002.00
243.0010, 10011.00
244.2180, 10070.00
245.4360, 10078.00
246.6530, 10073.00
247.8700, 9895.000
249.0870, 9960.000
250.3040, 9918.000
251.5200, 9898.000
252.7370, 9901.000
253.9530, 9941.000
255.1690, 9885.000
256.3850, 10027.00
257.6000, 9873.000
258.8160, 9964.000
260.0310, 9908.000
261.2460, 9944.000
262.4610, 9983.000
263.6760, 9939.000
264.8910, 9858.000
266.1050, 9938.000
267.3200, 9919.000
268.5340, 9924.000
269.7480, 10093.00
270.9620, 10024.00
272.1750, 9955.000
273.3890, 9696.000
274.6020, 9717.000
275.8150, 9688.000
277.0280, 9778.000
278.2410, 9691.000
279.4540, 9850.000
280.6660, 9806.000
281.8790, 9689.000
283.0910, 9806.000
284.3030, 9766.000
285.5140, 9797.000
286.7260, 9781.000
287.9380, 9835.000
289.1490, 9676.000
290.3600, 9839.000
291.5710, 9627.000
292.7820, 9737.000
293.9920, 9683.000
295.2030, 9708.000
296.4130, 9846.000
297.6230, 9646.000
298.8330, 9679.000
300.0430, 9735.000
301.2520, 9812.000
302.4620, 9887.000
303.6710, 9821.000
304.8800, 9902.000
306.0890, 9850.000
307.2980, 9867.000
308.5070, 10105.00
309.7150, 9961.000
310.9230, 10031.00
312.1310, 10367.00
313.3390, 10550.00
314.5470, 10710.00
315.7550, 11087.00
316.9620, 10974.00
318.1690, 11096.00
319.3760, 11180.00
320.5830, 11006.00
321.7900, 10715.00
322.9960, 10641.00
324.2030, 10482.00
325.4090, 10337.00
326.6150, 10246.66
327.8210, 10147.69
329.0270, 10053.00
330.2320, 10028.00
331.4380, 9972.000
332.6430, 9949.156
333.8480, 9920.949
335.0530, 9874.000
336.2580, 9845.000
337.4620, 9848.000
338.6670, 9747.000
339.8710, 9804.000
341.0750, 9698.000
342.2790, 9830.000
343.4820, 9677.000
344.6860, 9848.000
345.8890, 9896.000
347.0920, 9902.000
348.2960, 9779.000
349.4980, 9978.000
350.7010, 9821.000
351.9040, 9875.000
353.1060, 9869.000
354.3080, 9913.000
355.5100, 9957.000
356.7120, 10120.00
357.9140, 10196.00
359.1150, 10240.00
360.3170, 10299.00
361.5180, 10424.60
362.7190, 10524.74
363.9200, 10588.57
365.1200, 10618.03
366.3210, 10510.27
367.5210, 10579.71
368.7210, 10682.00
369.9210, 10591.00
371.1210, 10622.00
372.3210, 10480.00
373.5200, 10338.00
374.7200, 10285.00
375.9190, 10109.00
377.1180, 9966.000
378.3170, 9910.350
379.5150, 9989.000
380.7140, 9809.000
381.9120, 9720.000
383.1110, 9747.000
384.3090, 9578.000
385.5060, 9662.000
386.7040, 9730.000
387.9020, 9721.000
389.0990, 9655.000
390.2960, 9627.000
391.4930, 9579.345
392.6900, 9592.000
393.8860, 9508.000
395.0830, 9436.000
396.2790, 9461.000
397.4750, 9518.000
398.6710, 9475.000
399.8670, 9606.000
401.0630, 9506.000
402.2580, 9556.000
403.4540, 9464.000
404.6490, 9582.000
405.8440, 9407.000
407.0390, 9623.000
408.2330, 9572.000
409.4280, 9462.000
410.6220, 9527.000
411.8160, 9615.000
413.0100, 9474.000
414.2040, 9616.000
415.3980, 9524.000
416.5910, 9508.000
417.7850, 9568.000
418.9780, 9584.000
420.1710, 9548.000
421.3640, 9591.000
422.5560, 9618.000
423.7490, 9650.000
424.9410, 9564.000
426.1330, 9633.000
427.3250, 9643.000
428.5170, 9575.000
429.7090, 9600.579
430.9000, 9667.000
432.0910, 9574.000
433.2820, 9593.000
434.4730, 9616.000
435.6640, 9616.000
436.8550, 9687.000
438.0450, 9558.000
439.2360, 9641.000
440.4260, 9602.000
441.6160, 9762.000
442.8060, 9683.000
443.9950, 9677.000
445.1850, 9605.000
446.3740, 9548.000
447.5630, 9640.000
448.7520, 9689.000
449.9410, 9763.000
451.1300, 9617.000
452.3180, 9632.000
453.5060, 9656.000
454.6950, 9663.000
455.8830, 9687.000
457.0700, 9608.000
458.2580, 9665.000
459.4450, 9761.000
460.6330, 9656.000
461.8200, 9788.000
463.0070, 9675.000
464.1940, 9779.000
465.3800, 9781.000
466.5670, 9836.000
467.7530, 9824.000
468.9390, 9846.985
470.1250, 9787.000
471.3110, 9870.000
472.4970, 9832.000
473.6820, 9838.000
474.8680, 9899.000
476.0530, 9792.000
477.2380, 9841.000
478.4230, 9853.000
479.6070, 9833.000
480.7920, 9817.000
481.9760, 9935.000
483.1600, 10012.00
484.3440, 9979.000
485.5280, 9809.000
486.7120, 10067.00
487.8950, 10079.00
489.0780, 9825.000
490.2620, 9934.000
491.4450, 10002.00
492.6270, 9974.000
493.8100, 10038.00
494.9920, 9968.000
496.1750, 10156.00
497.3570, 10156.00
498.5390, 10148.00
499.7210, 10084.00
500.9020, 10109.83
502.0840, 10062.00
503.2650, 10077.00
504.4460, 10149.00
505.6270, 10039.00
506.8080, 10108.00
507.9890, 10144.00
509.1690, 10154.00
510.3500, 10118.00
511.5300, 10289.00
512.7100, 10210.00
513.8900, 10335.00
515.0690, 10260.00
516.2490, 10193.00
517.4280, 10251.00
518.6070, 10230.00
519.7860, 10237.00
520.9650, 10417.00
522.1440, 10413.00
523.3220, 10277.00
524.5010, 10439.00
525.6790, 10294.00
526.8570, 10426.00
528.0350, 10531.00
529.2130, 10396.00
530.3900, 10433.00
531.5670, 10393.00
532.7450, 10522.00
533.9220, 10489.00
535.0980, 10500.00
536.2750, 10478.00
537.4520, 10477.51
538.6280, 10459.00
539.8040, 10498.00
540.9800, 10582.00
542.1560, 10640.93
543.3320, 10725.58
544.5070, 10757.00
545.6830, 10817.00
546.8580, 10851.56
548.0330, 10893.97
549.2080, 10959.00
550.3830, 10993.00
551.5570, 11081.00
552.7310, 11174.00
553.9060, 11077.00
555.0800, 11164.00
556.2540, 11237.00
557.4270, 11135.00
558.6010, 11268.00
559.7740, 11135.00
560.9470, 11120.00
562.1210, 11233.00
563.2930, 11195.00
564.4660, 11304.00
565.6390, 11136.00
566.8110, 11236.00
567.9830, 11175.00
569.1550, 11306.00
570.3270, 11273.65
571.4990, 11193.00
572.6710, 11262.00
573.8420, 11099.00
575.0130, 11104.00
576.1840, 10938.00
577.3550, 10962.00
578.5260, 10793.00
579.6970, 10713.00
580.8670, 10763.00
582.0370, 10560.00
583.2070, 10560.00
584.3770, 10534.00
585.5470, 10361.00
586.7170, 10276.00
587.8860, 10221.00
589.0550, 10142.00
590.2240, 10153.00
591.3930, 10160.00
592.5620, 10135.00
593.7310, 10071.00
594.8990, 10174.00
596.0670, 9939.000
597.2350, 9962.000
598.4030, 10175.00
599.5710, 10312.00
600.7390, 10250.00
601.9060, 10251.00
603.0740, 10232.00
604.2410, 10280.00
605.4080, 10338.00
606.5740, 10368.00
607.7410, 10416.69
608.9080, 10456.00
610.0740, 10439.00
611.2400, 10580.00
612.4060, 10474.00
613.5720, 10757.00
614.7370, 10809.00
615.9030, 10763.00
617.0680, 11070.00
618.2330, 11158.00
619.3980, 11210.00
620.5630, 11148.00
621.7280, 11164.00
622.8920, 11156.00
624.0570, 11385.00
625.2210, 11465.00
626.3850, 11385.00
627.5490, 11573.00
628.7120, 11518.00
629.8760, 11728.00
631.0390, 11954.00
632.2020, 12087.00
633.3650, 12360.00
634.5280, 12503.00
635.6910, 12897.00
636.8530, 13178.00
638.0160, 13510.00
639.1780, 14048.00
640.3400, 14560.00
641.5020, 15486.00
642.6640, 16645.00
643.8250, 17995.00
644.9870, 18031.00
646.1480, 19459.00
647.3090, 20981.00
648.4700, 23353.00
649.6300, 26075.00
650.7910, 29363.00
651.9510, 33324.00
653.1120, 37294.00
654.2720, 42385.00
655.4320, 46191.00
656.5910, 49249.00
657.7510, 50564.00
658.9100, 49991.00
660.0690, 47041.00
661.2290, 43210.00
662.3880, 38855.00
663.5460, 34510.00
664.7050, 30755.00
665.8630, 27464.18
667.0220, 24413.00
668.1800, 22095.00
669.3380, 20061.00
670.4950, 18528.00
671.6530, 17275.00
672.8100, 16323.00
673.9680, 15329.00
675.1250, 14621.00
676.2820, 13922.00
677.4390, 13360.00
678.5950, 13163.00
679.7520, 12704.00
680.9080, 12392.00
682.0640, 12115.00
683.2200, 11922.00
684.3760, 11659.00
685.5320, 11491.00
686.6870, 11317.00
687.8420, 11271.00
688.9980, 11091.00
690.1530, 10940.00
691.3070, 10954.00
692.4620, 10825.00
693.6170, 10754.00
694.7710, 10815.00
695.9250, 10637.00
697.0790, 10588.00
698.2330, 10637.00
699.3870, 10434.00
700.5400, 10528.00
701.6940, 10465.00
702.8470, 10343.00
704.0000, 10298.00
705.1530, 10488.00
706.3050, 10433.00
707.4580, 10390.00
708.6100, 10287.00
709.7630, 10228.00
710.9150, 10253.00
712.0660, 10284.00
713.2180, 10218.00
714.3700, 10156.00
715.5210, 10310.00
716.6720, 10301.00
717.8240, 10297.00
718.9740, 10322.00
720.1250, 10217.00
721.2760, 10327.00
722.4260, 10163.00
723.5770, 10328.00
724.7270, 10283.00
725.8770, 10282.00
727.0260, 10253.00
728.1760, 10280.00
729.3250, 10182.00
730.4750, 10177.00
731.6240, 10190.91
732.7730, 10330.00
733.9220, 10224.00
735.0700, 10325.00
736.2190, 10330.00
737.3670, 10187.00
738.5150, 10104.00
739.6630, 10102.00
740.8110, 10107.00
741.9590, 10122.00
743.1060, 10202.00
744.2540, 10071.00
745.4010, 10147.00
746.5480, 10079.00
747.6950, 10027.00
748.8410, 10105.00
749.9880, 9995.000
751.1340, 9923.000
752.2800, 9955.000
753.4260, 10054.00
754.5720, 10101.00
755.7180, 10169.00
756.8640, 10148.00
758.0090, 10161.40
759.1540, 10147.00
760.2990, 10090.00
761.4440, 10134.00
762.5890, 10034.00
763.7340, 10037.00
764.8780, 10060.00
766.0220, 10041.00
767.1660, 10107.00
768.3100, 10032.00
769.4540, 10002.00
770.5980, 10064.00
771.7410, 9955.000
772.8840, 10051.00
774.0280, 10141.00
775.1700, 9937.000
776.3130, 9937.000
777.4560, 10124.00
778.5980, 9963.000
779.7410, 9834.000
780.8830, 9846.000
782.0250, 9795.000
783.1670, 9883.000
784.3080, 9865.000
785.4500, 9796.000
786.5910, 9748.000
787.7320, 9770.000
788.8730, 9782.000
790.0140, 9885.000
791.1550, 9736.000
792.2950, 9842.000
793.4360, 9941.000
794.5760, 9762.000
795.7160, 9801.000
796.8560, 9782.000
797.9960, 9961.000
799.1350, 9945.000
800.2750, 10157.00
801.4140, 9733.000
802.5530, 9844.000
803.6920, 9912.000
804.8310, 9894.000
805.9690, 9873.000
807.1080, 9826.000
808.2460, 9868.000
809.3840, 9866.000
810.5220, 9750.000
811.6600, 9693.000
812.7970, 9732.310
813.9350, 9949.000
815.0720, 9802.000
816.2090, 9824.000
817.3460, 9823.000
818.4830, 9694.000
819.6200, 9729.000
820.7560, 9867.000
821.8930, 9643.000
823.0290, 9785.000
824.1650, 9741.000
825.3010, 9711.000
826.4360, 9591.000
827.5720, 9603.979
828.7070, 9754.000
829.8420, 9610.000
830.9770, 9758.000
832.1120, 9831.000
833.2470, 9629.000
834.3820, 9777.000
835.5160, 9568.000
836.6500, 9704.000
837.7840, 9740.000
838.9180, 9637.000
840.0520, 9647.000
841.1860, 9595.000
842.3190, 9757.000
843.4520, 9575.000
844.5850, 9556.000
845.7180, 9713.000
846.8510, 9633.000
847.9840, 9603.000
849.1160, 9590.000
850.2490, 9608.000
851.3810, 9616.000
852.5130, 9597.704
853.6450, 9611.017
854.7760, 9577.000
855.9080, 9621.000
857.0390, 9641.000
858.1700, 9665.000
859.3010, 9613.000
860.4320, 9789.000
861.5630, 9686.000
862.6930, 9717.000
863.8240, 9615.000
864.9540, 9660.000
866.0840, 9746.000
867.2140, 9661.000
868.3440, 9717.000
869.4730, 9730.000
870.6030, 9549.000
871.7320, 9599.000
872.8610, 9634.000
873.9900, 9556.000
875.1190, 9674.000
876.2470, 9706.000
877.3760, 9753.000
878.5040, 9635.000
879.6320, 9684.000
880.7600, 9737.000
881.8880, 9814.000
883.0150, 9707.000
884.1430, 9764.000
885.2700, 9739.000
886.3970, 9777.000
887.5240, 9779.000
888.6510, 9765.000
889.7780, 9752.000
890.9040, 9740.820
892.0310, 9744.000
893.1570, 9720.000
894.2830, 9709.000
895.4090, 9722.000
896.5350, 9706.000
897.6600, 9691.000
898.7860, 9665.000
899.9110, 9723.000
901.0360, 9614.000
902.1610, 9722.000
903.2860, 9720.000
904.4100, 9676.000
905.5350, 9721.012
906.6590, 9716.000
907.7830, 9687.000
908.9070, 9763.000
910.0310, 9685.000
911.1540, 9720.000
912.2780, 9778.000
913.4010, 9730.000
914.5240, 9792.000
915.6470, 9768.000
916.7700, 9749.000
917.8930, 9668.000
919.0150, 9673.546
920.1380, 9793.000
921.2600, 9693.000
922.3820, 9699.000
923.5040, 9806.000
924.6260, 9635.000
925.7470, 9854.000
926.8690, 9941.000
927.9900, 9785.000
929.1110, 9825.000
930.2320, 9804.000
931.3530, 9742.000
932.4730, 9796.000
933.5940, 9719.000
934.7140, 9807.000
935.8340, 9861.000
936.9540, 9830.000
938.0740, 9796.000
939.1930, 9928.000
940.3130, 9821.000
941.4320, 9662.000
942.5510, 9754.000
943.6700, 9734.000
944.7890, 9758.000
945.9080, 9798.000
947.0260, 9737.000
948.1450, 9876.000
949.2630, 9790.000
950.3810, 9862.000
951.4990, 9865.000
952.6170, 9924.000
953.7340, 9866.000
954.8520, 9796.000
955.9690, 9792.000
957.0860, 9944.000
958.2030, 9774.000
959.3200, 9849.000
960.4360, 9925.000
961.5530, 9757.000
962.6690, 9841.000
963.7850, 9941.000
964.9010, 9859.000
966.0170, 9974.000
967.1330, 9874.000
968.2480, 9913.000
969.3630, 9828.000
970.4790, 9917.000
971.5940, 9855.000
972.7080, 9903.000
973.8230, 9916.401
974.9380, 10013.00
976.0520, 9929.000
977.1660, 9833.000
978.2800, 9800.000
979.3940, 9938.000
980.5080, 9980.000
981.6220, 9890.000
982.7350, 9988.000
983.8480, 9997.000
984.9610, 9865.000
986.0740, 9904.000
987.1870, 9826.000
988.3000, 9873.000
989.4120, 9881.000
990.5250, 10041.00
991.6370, 9906.000
992.7490, 9952.000
993.8610, 9999.000
994.9720, 9902.000
996.0840, 9919.000
997.1950, 9867.000
998.3060, 9960.000
999.4170, 10031.00
1000.528, 9837.000
1001.639, 10012.00
1002.750, 9996.000
1003.860, 9910.000
1004.970, 9985.000
1006.080, 9875.000
1007.190, 10019.00
1008.300, 9890.000
1009.410, 9953.000
1010.519, 9818.000
1011.628, 9929.000
1012.738, 9815.000
1013.846, 9971.000
1014.955, 10032.00
1016.064, 9851.000
1017.172, 9991.000
1018.281, 9783.000
1019.389, 9976.000
1020.497, 9938.000
1021.605, 9958.000
1022.713, 9810.000
1023.820, 9889.000
1024.928, 9831.000
1026.035, 9809.000
1027.142, 9817.000
1028.249, 9784.576
1029.356, 9985.000
1030.462, 9831.000
1031.569, 9759.000
1032.675, 9922.000
1033.781, 9839.000
1034.887, 9834.000
1035.993, 9904.000
1037.098, 9995.000
1038.204, 9906.000
1039.309, 10059.00
1040.415, 9921.000
1041.520, 9961.000
1042.624, 10009.00
1043.729, 9894.000
1044.834, 9867.000
1045.938, 9932.000
1047.042, 9841.000
1048.146, 9978.000
1049.250, 9937.000
1050.354, 9960.000
1051.458, 9927.000
1052.561, 10015.00
1053.664, 10044.36
1054.767, 9961.408
1055.870, 10202.00
1056.973, 9851.000
1058.076, 9961.000
1059.178, 10054.00
1060.281, 9907.000
1061.383, 10062.00
1062.485, 9805.000
1063.587, 9880.000
1064.688, 10029.00
1065.790, 9852.000
1066.891, 9960.000
1067.993, 10142.00
1069.094, 9989.000
1070.195, 10063.00
1071.295, 10015.00
1072.396, 9808.000
1073.496, 9990.000
1074.597, 10119.00
1075.697, 10133.00
1076.797, 9911.000
1077.897, 9948.000
1078.996, 9986.000
1080.096, 10086.00
1081.195, 10019.00
1082.294, 10101.03
1083.393, 10097.00
1084.492, 10147.00
1085.591, 10091.00
1086.689, 10039.00
1087.788, 10047.00
1088.886, 9966.000
1089.984, 9962.000
1091.082, 10083.00
1092.180, 10026.00
1093.277, 10008.00
1094.375, 10201.00
1095.472, 10018.00
1096.569, 10112.00
1097.666, 10057.00
1098.763, 10116.00
1099.860, 10075.00
1100.956, 9910.000
1102.053, 10163.00
1103.149, 10173.00
1104.245, 10059.00
1105.341, 10124.00
1106.436, 10189.00
1107.532, 10129.00
1108.627, 10266.00
1109.723, 10181.00
1110.818, 10342.00
1111.913, 10206.00
1113.007, 10233.00
1114.102, 10238.00
1115.197, 10303.00
1116.291, 10254.00
1117.385, 10370.00
1118.479, 10420.00
1119.573, 10294.00
1120.666, 10228.00
1121.760, 10590.00
1122.853, 10563.00
1123.947, 10512.00
1125.040, 10493.00
1126.132, 10552.00
1127.225, 10526.00
1128.318, 10603.00
1129.410, 10509.00
1130.502, 10557.00
1131.595, 10513.00
1132.687, 10582.00
1133.778, 10592.00
1134.870, 10267.00
1135.961, 10599.00
1137.053, 10500.00
1138.144, 10386.00
1139.235, 10611.00
1140.326, 10420.00
1141.416, 10343.00
1142.507, 10348.00
1143.597, 10343.00
1144.688, 10453.00
1145.778, 10330.00
1146.868, 10308.00
1147.957, 10433.00
1149.047, 10382.00
1150.136, 10419.00
1151.226, 10451.00
1152.315, 10432.00
1153.404, 10440.00
1154.493, 10431.89
1155.581, 10415.00
1156.670, 10412.69
1157.758, 10420.10
1158.846, 10430.00
1159.934, 10409.00
1161.022, 10330.00
1162.110, 10323.29
1163.198, 10292.00
1164.285, 10251.00
1165.372, 10273.00
1166.459, 10244.00
1167.546, 10358.00
1168.633, 10227.00
1169.720, 10171.00
1170.806, 10254.00
1171.892, 10370.00
1172.979, 10355.00
1174.065, 10338.00
1175.150, 10345.00
1176.236, 10258.00
1177.322, 10319.00
1178.407, 10212.00
1179.492, 10318.00
1180.577, 10369.00
1181.662, 10238.00
1182.747, 10336.00
1183.832, 10236.00
1184.916, 10246.00
1186.000, 10250.00
1187.084, 10302.00
1188.168, 10306.00
1189.252, 10193.00
1190.336, 10131.00
1191.419, 10293.00
1192.503, 10110.00
1193.586, 10268.00
1194.669, 10282.00
1195.752, 10195.00
1196.835, 10180.00
1197.917, 10191.00
1199.000, 10192.00
1200.082, 10378.00
1201.164, 10255.00
1202.246, 10318.00
1203.328, 10170.00
1204.409, 10222.00
1205.491, 10212.00
1206.572, 10194.00
1207.653, 10108.00
1208.734, 10162.00
1209.815, 10204.00
1210.896, 10250.00
1211.976, 10294.00
1213.057, 10284.19
1214.137, 10227.00
1215.217, 10256.00
1216.297, 10225.00
1217.377, 10219.00
1218.456, 10305.00
1219.536, 10171.00
1220.615, 10193.00
1221.694, 10392.00
1222.773, 10342.00
1223.852, 10271.00
1224.931, 10105.00
1226.009, 10243.00
1227.088, 10226.00
1228.166, 10261.00
1229.244, 10198.00
1230.322, 10220.51
1231.400, 10201.00
1232.477, 10226.00
1233.555, 10253.00
1234.632, 10261.00
1235.709, 10267.00
1236.786, 10334.00
1237.863, 10339.00
1238.939, 10379.50
1240.016, 10342.59
1241.092, 10375.00
1242.168, 10324.00
1243.245, 10316.25
1244.320, 10311.00
1245.396, 10268.00
1246.472, 10357.00
1247.547, 10327.00
1248.622, 10335.00
1249.697, 10294.00
1250.772, 10374.00
1251.847, 10328.00
1252.922, 10263.00
1253.996, 10436.00
1255.071, 10426.00
1256.145, 10268.00
1257.219, 10407.00
1258.293, 10354.00
1259.366, 10269.00
1260.440, 10320.00
1261.513, 10342.00
1262.587, 10341.00
1263.660, 10368.00
1264.733, 10307.00
1265.805, 10323.00
1266.878, 10384.00
1267.951, 10308.00
1269.023, 10352.00
1270.095, 10388.00
1271.167, 10457.00
1272.239, 10420.00
1273.311, 10417.00
1274.382, 10301.00
1275.454, 10347.00
1276.525, 10395.00
1277.596, 10474.00
1278.667, 10442.48
1279.738, 10378.00
1280.808, 10397.00
1281.879, 10380.00
1282.949, 10387.00
1284.019, 10398.69
1285.089, 10394.79
1286.159, 10410.00
1287.229, 10394.00
1288.298, 10369.20
1289.368, 10345.51
1290.437, 10376.00
1291.506, 10329.00
1292.575, 10415.00
1293.644, 10470.00
1294.712, 10448.00
1295.781, 10445.00
1296.849, 10447.00
1297.917, 10497.00
1298.985, 10524.00
1300.053, 10570.00
1301.121, 10431.00
1302.188, 10460.00
1303.255, 10374.00
1304.323, 10462.00
1305.390, 10438.00
1306.457, 10481.00
1307.523, 10576.00
1308.590, 10422.00
1309.656, 10353.00
1310.723, 10405.00
1311.789, 10346.00
1312.855, 10361.00
1313.921, 10391.00
1314.986, 10340.00
1316.052, 10244.00
1317.117, 10380.00
1318.182, 10227.00
1319.248, 10220.00
