##NAMES=Hausmannite
##RRUFFID=R040091
##IDEAL CHEMISTRY=Mn^2+^Mn^3+^_2_O_4_
##LOCALITY=Germany
##OWNER=RRUFF
##SOURCE=University of Arizona Mineral Museum
##DESCRIPTION=Mass of black octahedral crystals
##STATUS=The identification of this mineral has been confirmed by X-ray diffraction and chemical analysis
##URL=rruff.info/R040091
##MEASURED CHEMISTRY=(Mn^2+^_0.96_Zn_0.02_Mg_0.02_)Mn^3+^_2.00_O_4_
##PIN_ID=S00049
##ORIENTATION=Laser parallel to a* (1 0 0). Fiducial mark perpendicular to laser is parallel to -c [0 0 -1]
145.3330, 23454.00
146.5580, 23186.33
147.7830, 23026.04
149.0070, 22929.15
150.2320, 22844.00
151.4560, 22734.00
152.6800, 22790.00
153.9040, 22712.00
155.1280, 22565.00
156.3520, 22794.00
157.5760, 22576.00
158.7990, 22640.00
160.0220, 22572.00
161.2450, 22717.00
162.4680, 22654.00
163.6910, 22648.00
164.9140, 22512.00
166.1370, 22474.00
167.3590, 22387.00
168.5810, 22524.00
169.8040, 22362.00
171.0260, 22308.00
172.2480, 22333.00
173.4690, 22568.00
174.6910, 22514.00
175.9120, 22412.00
177.1340, 22290.00
178.3550, 22254.00
179.5760, 22236.29
180.7970, 22178.82
182.0180, 22176.92
183.2380, 22147.00
184.4590, 22173.77
185.6790, 22200.00
186.8990, 22231.00
188.1190, 22339.00
189.3390, 22327.25
190.5590, 22310.00
191.7780, 22416.00
192.9980, 22477.00
194.2170, 22274.00
195.4360, 22086.00
196.6550, 22443.00
197.8740, 22559.00
199.0930, 22158.00
200.3120, 22320.00
201.5300, 22226.00
202.7480, 22357.00
203.9670, 22387.00
205.1850, 22001.00
206.4020, 22066.00
207.6200, 21938.00
208.8380, 21858.00
210.0550, 21775.00
211.2730, 21764.14
212.4900, 22073.00
213.7070, 21840.00
214.9240, 21822.00
216.1400, 21965.00
217.3570, 21792.00
218.5730, 21785.00
219.7900, 21859.00
221.0060, 21807.00
222.2220, 21845.00
223.4380, 21935.00
224.6540, 21800.00
225.8690, 21889.00
227.0850, 21638.00
228.3000, 21882.00
229.5150, 21607.00
230.7300, 21852.00
231.9450, 21695.00
233.1600, 21652.00
234.3740, 21727.00
235.5890, 21675.00
236.8030, 21809.00
238.0170, 21651.00
239.2310, 21646.00
240.4450, 21831.00
241.6590, 21664.00
242.8720, 21915.00
244.0860, 21790.00
245.2990, 21950.00
246.5120, 22141.00
247.7250, 21979.92
248.9380, 22240.00
250.1510, 21757.00
251.3630, 22040.00
252.5750, 21891.00
253.7880, 21996.00
255.0000, 21960.00
256.2120, 21798.00
257.4240, 21934.00
258.6350, 22041.00
259.8470, 22134.00
261.0580, 22206.00
262.2690, 22171.00
263.4810, 22179.00
264.6920, 22114.00
265.9020, 21989.00
267.1130, 22153.00
268.3240, 22261.00
269.5340, 22205.00
270.7440, 22148.00
271.9540, 22270.00
273.1640, 22392.00
274.3740, 22291.00
275.5840, 22411.00
276.7930, 22401.49
278.0020, 22480.49
279.2120, 22514.00
280.4210, 22697.00
281.6300, 22968.00
282.8380, 23128.00
284.0470, 23194.00
285.2550, 23362.90
286.4640, 23494.00
287.6720, 23614.00
288.8800, 23588.00
290.0880, 23820.00
291.2960, 23782.00
292.5030, 23821.00
293.7110, 23893.00
294.9180, 23838.00
296.1250, 24001.00
297.3320, 23852.00
298.5390, 23913.00
299.7460, 23957.00
300.9520, 23906.00
302.1590, 24158.00
303.3650, 24382.00
304.5710, 24612.00
305.7770, 25062.00
306.9830, 25214.00
308.1890, 25633.00
309.3940, 26102.00
310.6000, 26808.00
311.8050, 27346.00
313.0100, 28167.00
314.2150, 28904.00
315.4200, 29477.00
316.6240, 30093.00
317.8290, 30312.00
319.0330, 30690.00
320.2370, 30668.00
321.4410, 30659.00
322.6450, 30103.00
323.8490, 29755.00
325.0530, 29355.00
326.2560, 28935.00
327.4600, 28156.00
328.6630, 27396.00
329.8660, 27067.00
331.0690, 26619.00
332.2710, 26128.00
333.4740, 25753.00
334.6760, 25472.00
335.8790, 25282.00
337.0810, 24957.00
338.2830, 25092.00
339.4850, 24622.00
340.6860, 24942.00
341.8880, 25108.00
343.0890, 24686.00
344.2910, 24576.00
345.4920, 24699.00
346.6930, 24504.00
347.8940, 24743.00
349.0940, 24640.00
350.2950, 24529.00
351.4950, 24499.00
352.6950, 24650.00
353.8950, 24671.00
355.0950, 24633.00
356.2950, 24874.00
357.4950, 24805.00
358.6940, 25016.00
359.8940, 25039.00
361.0930, 24865.00
362.2920, 25085.00
363.4910, 25224.00
364.6890, 25224.00
365.8880, 25324.00
367.0860, 25358.00
368.2850, 25252.00
369.4830, 25434.00
370.6810, 25366.00
371.8790, 25423.00
373.0760, 25462.00
374.2740, 25230.00
375.4710, 25106.00
376.6690, 25107.00
377.8660, 24814.00
379.0630, 24838.00
380.2590, 24617.00
381.4560, 24719.00
382.6530, 24477.00
383.8490, 24572.00
385.0450, 24444.00
386.2410, 24374.00
387.4370, 24280.00
388.6330, 24141.97
389.8280, 24126.65
391.0240, 24084.84
392.2190, 24018.61
393.4140, 23826.29
394.6090, 23818.39
395.8040, 23749.80
396.9990, 23687.75
398.1930, 23732.79
399.3880, 23607.32
400.5820, 23669.64
401.7760, 23604.93
402.9700, 23701.24
404.1640, 23761.71
405.3580, 23788.25
406.5510, 23679.27
407.7440, 23745.28
408.9380, 23741.17
410.1310, 23734.17
411.3240, 23824.81
412.5160, 23735.52
413.7090, 23824.61
414.9010, 23842.49
416.0940, 23892.96
417.2860, 23872.86
418.4780, 23874.56
419.6700, 23946.84
420.8610, 23980.03
422.0530, 23951.80
423.2440, 24004.33
424.4360, 23912.57
425.6270, 23947.43
426.8180, 24036.90
428.0080, 24012.21
429.1990, 24066.02
430.3890, 24089.92
431.5800, 24119.49
432.7700, 24079.00
433.9600, 24216.00
435.1500, 24162.71
436.3400, 24231.42
437.5290, 24098.21
438.7190, 24213.62
439.9080, 24293.16
441.0970, 24338.78
442.2860, 24248.88
443.4750, 24333.97
444.6640, 24348.93
445.8520, 24360.99
447.0400, 24470.68
448.2290, 24400.49
449.4170, 24508.63
450.6050, 24545.58
451.7920, 24615.08
452.9800, 24614.05
454.1670, 24634.78
455.3550, 24726.13
456.5420, 24778.37
457.7290, 24769.18
458.9160, 24840.76
460.1030, 24768.04
461.2890, 24821.92
462.4750, 24930.42
463.6620, 24924.79
464.8480, 24997.62
466.0340, 25040.56
467.2200, 24947.63
468.4050, 25090.96
469.5910, 25132.14
470.7760, 25068.36
471.9610, 25299.00
473.1460, 25313.64
474.3310, 25255.00
475.5160, 25432.00
476.7000, 25391.00
477.8850, 25450.00
479.0690, 25499.00
480.2530, 25537.00
481.4370, 25392.00
482.6210, 25632.00
483.8050, 25618.00
484.9880, 25536.00
486.1710, 25221.00
487.3550, 25621.00
488.5380, 25463.00
489.7210, 25521.00
490.9030, 25678.00
492.0860, 25580.00
493.2680, 25537.00
494.4510, 25596.00
495.6330, 25565.00
496.8150, 25336.00
497.9970, 25513.00
499.1780, 25543.00
500.3600, 25845.00
501.5410, 25418.00
502.7220, 25585.00
503.9030, 25572.00
505.0840, 25822.00
506.2650, 25602.00
507.4460, 25715.00
508.6260, 25604.00
509.8060, 25802.00
510.9870, 25887.00
512.1670, 25878.00
513.3460, 25858.00
514.5260, 25735.00
515.7060, 25956.00
516.8850, 25861.00
518.0640, 25894.00
519.2430, 26040.00
520.4220, 25982.00
521.6010, 25927.00
522.7790, 26238.00
523.9580, 26063.00
525.1360, 26196.00
526.3140, 26344.00
527.4920, 26200.00
528.6700, 26334.83
529.8480, 26422.00
531.0250, 26434.00
532.2030, 26441.00
533.3800, 26572.00
534.5570, 26524.00
535.7340, 26711.00
536.9110, 26738.00
538.0870, 26680.00
539.2640, 26691.00
540.4400, 26855.00
541.6160, 26864.00
542.7920, 26934.00
543.9680, 26901.00
545.1440, 27070.00
546.3190, 27105.00
547.4940, 27195.00
548.6700, 27180.00
549.8450, 27092.00
551.0200, 27175.00
552.1940, 27211.00
553.3690, 27335.55
554.5430, 27779.00
555.7180, 27596.00
556.8920, 27821.00
558.0660, 27788.00
559.2400, 27718.00
560.4130, 27954.00
561.5870, 27764.00
562.7600, 28242.00
563.9330, 28196.00
565.1060, 28247.00
566.2790, 28439.00
567.4520, 28419.00
568.6250, 28430.00
569.7970, 28451.00
570.9690, 28665.00
572.1410, 28581.00
573.3130, 28636.00
574.4850, 28638.00
575.6570, 28391.00
576.8280, 28391.00
578.0000, 28528.00
579.1710, 28299.00
580.3420, 28164.00
581.5130, 27850.00
582.6830, 27781.39
583.8540, 27814.00
585.0240, 27533.48
586.1940, 27544.52
587.3650, 27523.28
588.5340, 27471.86
589.7040, 27288.48
590.8740, 27283.73
592.0430, 27212.51
593.2130, 27142.00
594.3820, 27172.78
595.5510, 27027.27
596.7200, 27063.74
597.8880, 27032.66
599.0570, 27037.00
600.2250, 27042.00
601.3930, 27231.00
602.5610, 27211.00
603.7290, 27129.00
604.8970, 27671.00
606.0650, 27666.00
607.2320, 27606.00
608.3990, 27953.00
609.5670, 27963.00
610.7330, 28122.00
611.9000, 28256.00
613.0670, 28525.00
614.2330, 28550.00
615.4000, 28796.75
616.5660, 28917.00
617.7320, 29231.00
618.8980, 29439.00
620.0640, 29736.00
621.2290, 29995.09
622.3950, 29928.00
623.5600, 30487.00
624.7250, 30451.00
625.8900, 30598.00
627.0550, 30962.00
628.2190, 31331.00
629.3840, 31583.74
630.5480, 32047.00
631.7120, 32330.00
632.8760, 32849.65
634.0400, 33219.00
635.2040, 33955.00
636.3670, 34613.58
637.5300, 35273.00
638.6940, 36398.00
639.8570, 37415.00
641.0190, 38613.00
642.1820, 39968.00
643.3450, 41880.00
644.5070, 43490.00
645.6690, 45975.00
646.8320, 48700.00
647.9930, 51899.00
649.1550, 55447.00
650.3170, 59636.00
651.4780, 64702.00
652.6400, 69683.00
653.8010, 74944.00
654.9620, 80247.00
656.1230, 85390.00
657.2830, 89440.00
658.4440, 93040.00
659.6040, 95396.00
660.7640, 96202.00
661.9240, 95989.00
663.0840, 94200.00
664.2440, 90813.00
665.4040, 87368.00
666.5630, 82815.00
667.7220, 77878.00
668.8810, 73319.00
670.0400, 68641.00
671.1990, 64469.00
672.3580, 60303.00
673.5160, 56471.00
674.6750, 53025.00
675.8330, 49636.00
676.9910, 47074.00
678.1480, 45029.00
679.3060, 42769.00
680.4640, 40967.00
681.6210, 39392.00
682.7780, 37790.00
683.9350, 36838.00
685.0920, 35759.00
686.2490, 34872.00
687.4050, 34183.00
688.5620, 33516.00
689.7180, 32648.00
690.8740, 32191.00
692.0300, 31691.00
693.1860, 31151.00
694.3410, 31199.00
695.4970, 30592.59
696.6520, 30310.75
697.8070, 29767.00
698.9620, 29658.00
700.1170, 29261.00
701.2720, 29118.00
702.4260, 29089.00
703.5810, 28763.00
704.7350, 28730.00
705.8890, 28556.00
707.0430, 28493.00
708.1960, 28247.00
709.3500, 28233.00
710.5030, 28283.00
711.6570, 28067.00
712.8100, 27911.00
713.9630, 28078.00
715.1150, 28053.00
716.2680, 27869.00
717.4200, 27710.00
718.5730, 27529.00
719.7250, 27608.00
720.8770, 27675.00
722.0280, 27576.00
723.1800, 27500.00
724.3310, 27527.52
725.4830, 27415.00
726.6340, 27534.00
727.7850, 27375.00
728.9360, 27393.00
730.0860, 27394.00
731.2370, 27356.00
732.3870, 27368.04
733.5370, 27332.00
734.6880, 27385.00
735.8370, 27352.90
736.9870, 27424.00
738.1370, 27303.00
739.2860, 27267.00
740.4350, 27246.21
741.5840, 27067.00
742.7330, 27166.00
743.8820, 27062.00
745.0310, 27019.00
746.1790, 26863.00
747.3270, 27027.00
748.4750, 27021.00
749.6230, 26862.00
750.7710, 26797.00
751.9190, 26877.00
753.0660, 26727.00
754.2140, 26717.00
755.3610, 26956.00
756.5080, 26780.56
757.6540, 26811.00
758.8010, 26678.00
759.9480, 26708.00
761.0940, 26691.00
762.2400, 26863.00
763.3860, 26688.00
764.5320, 26597.00
765.6780, 26758.00
766.8230, 26584.00
767.9690, 26668.00
769.1140, 26491.00
770.2590, 26775.00
771.4040, 26857.73
772.5490, 26689.54
773.6930, 26720.32
774.8380, 26302.00
775.9820, 26539.00
777.1260, 26174.00
778.2700, 26257.00
779.4140, 26391.00
780.5570, 26318.00
781.7010, 26118.00
782.8440, 26399.00
783.9870, 26247.00
785.1300, 26102.00
786.2730, 26282.00
787.4150, 26375.00
788.5580, 26247.00
789.7000, 26335.00
790.8420, 26025.00
791.9840, 25992.00
793.1260, 26215.00
794.2680, 26226.00
795.4090, 26301.00
796.5510, 26090.00
797.6920, 26116.00
798.8330, 25907.00
799.9740, 25986.00
801.1150, 26195.00
802.2550, 25786.00
803.3950, 26059.00
804.5360, 26115.00
805.6760, 25882.00
806.8160, 26041.00
807.9550, 25892.00
809.0950, 25893.00
810.2340, 25992.00
811.3740, 25936.00
812.5130, 25896.00
813.6520, 25783.00
814.7900, 25825.66
815.9290, 25839.00
817.0670, 25934.00
818.2060, 25699.00
819.3440, 25828.00
820.4820, 25729.00
821.6190, 25837.00
822.7570, 25703.00
823.8950, 25716.00
825.0320, 25909.00
826.1690, 25999.00
827.3060, 25942.01
828.4430, 25701.00
829.5790, 25807.00
830.7160, 25797.00
831.8520, 25731.00
832.9880, 25859.00
834.1240, 25604.00
835.2600, 25787.00
836.3960, 25418.00
837.5310, 25834.00
838.6670, 25822.00
839.8020, 25656.00
840.9370, 25573.00
842.0720, 25694.00
843.2060, 25779.00
844.3410, 25723.00
845.4750, 25645.00
846.6100, 25652.00
847.7440, 25573.00
848.8770, 25598.00
850.0110, 25672.00
851.1450, 25530.00
852.2780, 25812.00
853.4110, 25621.00
854.5440, 25699.00
855.6770, 25600.00
856.8100, 25586.00
857.9430, 25534.00
859.0750, 25585.00
860.2070, 25602.00
861.3390, 25602.83
862.4710, 25537.00
863.6030, 25672.00
864.7350, 25663.00
865.8660, 25774.00
866.9970, 25795.18
868.1280, 25769.00
869.2590, 25828.00
870.3900, 25779.00
871.5210, 25768.00
872.6510, 25596.00
873.7820, 25595.00
874.9120, 25623.00
876.0420, 25806.00
877.1710, 25852.00
878.3010, 25731.00
879.4300, 25548.00
880.5600, 25585.00
881.6890, 25553.73
882.8180, 25767.00
883.9470, 25669.00
885.0750, 25813.00
886.2040, 25917.00
887.3320, 26010.00
888.4600, 25966.00
889.5880, 25839.00
890.7160, 25986.00
891.8440, 26043.00
892.9710, 25927.00
894.0990, 26034.31
895.2260, 26154.00
896.3530, 26042.00
897.4800, 26085.00
898.6060, 26023.00
899.7330, 25885.60
900.8590, 26079.00
901.9850, 25758.00
903.1110, 25927.00
904.2370, 26248.00
905.3630, 25866.00
906.4890, 25903.00
907.6140, 26134.00
908.7390, 25838.00
909.8640, 26047.00
910.9890, 26013.00
912.1140, 25861.00
913.2380, 25853.60
914.3630, 26106.59
915.4870, 26252.03
916.6110, 26295.71
917.7350, 25932.83
918.8580, 26094.93
919.9820, 26046.65
921.1050, 25989.73
922.2290, 26225.72
923.3520, 25921.97
924.4750, 26153.31
925.5970, 26171.05
926.7200, 26286.55
927.8420, 26190.36
928.9640, 26159.55
930.0870, 26340.50
931.2080, 26404.19
932.3300, 26283.63
933.4520, 26132.00
934.5730, 26188.00
935.6940, 26159.00
936.8150, 26163.00
937.9360, 26255.00
939.0570, 26233.92
940.1780, 26277.24
941.2980, 26246.00
942.4180, 26358.00
943.5380, 26315.00
944.6580, 26417.00
945.7780, 26449.09
946.8980, 26371.00
948.0170, 26487.00
949.1360, 26360.00
950.2560, 26259.00
951.3740, 26258.00
952.4930, 26396.00
953.6120, 26309.00
954.7300, 26446.00
955.8480, 26421.46
956.9670, 26572.00
958.0850, 26335.00
959.2020, 26468.00
960.3200, 26289.00
961.4370, 26230.00
962.5550, 26272.00
963.6720, 26635.00
964.7890, 26515.00
965.9050, 26723.00
967.0220, 26645.00
968.1380, 26709.00
969.2550, 26666.00
970.3710, 26519.00
971.4870, 26433.00
972.6030, 26476.00
973.7180, 26561.00
974.8340, 26572.00
975.9490, 26628.00
977.0640, 26478.00
978.1790, 26541.00
979.2940, 26474.00
980.4080, 26689.00
981.5230, 26636.00
982.6370, 26574.00
983.7510, 26713.00
984.8650, 26560.00
985.9790, 26637.00
987.0920, 26726.00
988.2060, 26626.00
989.3190, 26718.00
990.4320, 26613.00
991.5450, 26471.00
992.6580, 26627.00
993.7710, 26460.00
994.8830, 26534.00
995.9950, 26542.00
997.1080, 26439.00
998.2190, 26389.00
999.3310, 26639.00
1000.443, 26460.00
1001.554, 26581.00
1002.666, 26549.00
1003.777, 26542.00
1004.888, 26646.00
1005.998, 26555.00
1007.109, 26742.00
1008.219, 26425.00
1009.330, 26601.00
1010.440, 26485.00
1011.550, 26553.00
1012.660, 26610.00
1013.769, 26542.00
1014.879, 26609.00
1015.988, 26629.00
1017.097, 26475.00
1018.206, 26776.00
1019.315, 26332.00
1020.423, 26619.00
1021.532, 26816.00
1022.640, 26656.00
1023.748, 26496.00
1024.856, 26596.00
1025.964, 26581.00
1027.072, 26559.96
1028.179, 26637.00
1029.286, 26600.00
1030.393, 26625.00
1031.500, 26699.00
1032.607, 26688.30
1033.714, 26685.52
1034.820, 26712.00
1035.926, 26634.00
1037.032, 26587.00
1038.138, 26567.00
1039.244, 26586.00
1040.350, 26818.00
1041.455, 26659.00
1042.560, 26698.00
1043.665, 26508.00
1044.770, 26669.00
1045.875, 26722.00
1046.980, 26748.00
1048.084, 26650.00
1049.188, 26802.00
1050.292, 26712.00
1051.396, 26800.00
1052.500, 26729.00
1053.604, 26648.00
1054.707, 26890.00
1055.810, 26660.00
1056.913, 26882.00
1058.016, 26776.00
1059.119, 26666.00
1060.222, 26918.00
1061.324, 26797.65
1062.426, 27120.00
1063.528, 26858.00
1064.630, 26793.00
1065.732, 26899.00
1066.834, 26962.00
1067.935, 27120.00
1069.036, 27173.00
1070.137, 26746.00
1071.238, 27002.00
1072.339, 26988.00
1073.439, 26874.00
1074.540, 27079.00
1075.640, 26961.00
1076.740, 26762.00
1077.840, 27047.00
1078.940, 26829.00
1080.039, 26883.00
1081.138, 27121.00
1082.238, 27124.00
1083.337, 26965.00
1084.436, 26990.00
1085.534, 27054.00
1086.633, 27267.00
1087.731, 27149.00
1088.829, 27064.00
1089.927, 27027.00
1091.025, 27370.00
1092.123, 27012.00
1093.220, 27372.00
1094.318, 27226.00
1095.415, 26909.00
1096.512, 27128.00
1097.609, 27104.00
1098.705, 27192.00
1099.802, 27281.00
1100.898, 27153.00
1101.994, 27210.00
1103.090, 27292.00
1104.186, 27302.00
1105.282, 27345.00
1106.377, 27352.00
1107.473, 27360.00
1108.568, 27491.00
1109.663, 27474.00
1110.758, 27399.00
1111.852, 27581.00
1112.947, 27368.00
1114.041, 27639.20
1115.135, 27574.91
1116.229, 28034.00
1117.323, 27675.00
1118.417, 27718.00
1119.510, 27977.00
1120.603, 27791.00
1121.696, 27888.00
1122.789, 27860.00
1123.882, 27931.00
1124.975, 27851.00
1126.067, 27903.00
1127.159, 28048.00
1128.251, 27764.00
1129.343, 28138.00
1130.435, 27991.00
1131.527, 27837.00
1132.618, 28011.00
1133.709, 28036.00
1134.800, 28185.00
1135.891, 27995.00
1136.982, 28098.00
1138.073, 28071.00
1139.163, 28170.00
1140.253, 28085.00
1141.343, 28021.00
1142.433, 28031.00
1143.523, 28115.00
1144.612, 27972.00
1145.702, 28169.00
1146.791, 28200.00
1147.880, 28043.00
1148.969, 28242.00
1150.058, 27960.00
1151.146, 28217.00
1152.235, 28002.00
1153.323, 27897.00
1154.411, 28124.00
1155.499, 27926.00
1156.586, 27973.00
1157.674, 27837.00
1158.761, 28126.00
1159.848, 28217.00
1160.935, 28141.00
1162.022, 27996.00
1163.109, 27972.00
1164.195, 27849.00
1165.281, 27995.00
1166.368, 28003.00
1167.454, 27921.00
1168.539, 27880.00
1169.625, 27891.83
1170.710, 27605.00
1171.796, 27907.00
1172.881, 27809.00
1173.966, 27802.00
1175.051, 28017.00
1176.135, 27598.00
1177.220, 27978.00
1178.304, 27866.00
1179.388, 27757.00
1180.472, 27848.00
1181.556, 27828.00
1182.639, 27847.00
1183.723, 27800.00
1184.806, 27708.00
1185.889, 27748.89
1186.972, 27813.00
1188.055, 27771.00
1189.137, 27672.00
1190.219, 27663.64
1191.302, 27770.00
1192.384, 27675.00
1193.466, 27796.00
1194.547, 27805.00
1195.629, 27787.34
1196.710, 27552.00
1197.791, 27776.00
1198.872, 27594.00
1199.953, 27569.00
1201.034, 27658.00
1202.114, 27601.00
1203.195, 27430.00
1204.275, 27669.00
1205.355, 27540.00
1206.435, 27545.00
1207.514, 27676.00
1208.594, 27608.00
1209.673, 27688.00
1210.752, 27403.00
1211.831, 27914.00
1212.910, 27638.00
1213.989, 27795.00
1215.067, 27469.00
1216.145, 27910.00
1217.223, 27502.00
1218.301, 27813.00
1219.379, 27759.00
1220.457, 27625.00
1221.534, 27682.00
1222.611, 27665.08
1223.688, 27603.00
1224.765, 27808.00
1225.842, 27602.00
1226.918, 27779.00
1227.995, 27564.00
1229.071, 27733.00
1230.147, 27773.00
1231.223, 27923.00
1232.299, 27689.00
1233.374, 27752.00
1234.449, 27838.00
1235.525, 27981.00
1236.600, 27937.00
1237.674, 27867.00
1238.749, 27906.00
1239.824, 27814.00
1240.898, 27749.00
1241.972, 27600.00
1243.046, 27667.00
1244.120, 27772.00
1245.193, 27872.00
1246.267, 27834.00
1247.340, 27875.00
1248.413, 28112.00
1249.486, 27772.00
1250.559, 27617.00
1251.632, 27869.00
1252.704, 27924.00
1253.776, 27967.00
1254.848, 27845.00
1255.920, 27660.00
1256.992, 27735.22
1258.064, 27707.00
1259.135, 27805.00
1260.206, 27784.00
1261.277, 27871.00
1262.348, 27756.00
1263.419, 28054.00
1264.489, 27914.00
1265.560, 28103.00
1266.630, 28226.00
1267.700, 28015.00
1268.770, 27777.00
1269.839, 27917.00
1270.909, 28064.00
1271.978, 27956.00
1273.047, 27775.00
1274.116, 27971.00
1275.185, 27783.00
1276.254, 27862.00
1277.322, 28112.00
1278.390, 27926.60
1279.458, 28235.00
1280.526, 27828.00
1281.594, 28002.00
1282.662, 28047.00
1283.729, 27939.00
1284.796, 28471.00
1285.863, 28417.00
1286.930, 28294.00
1287.997, 28244.00
1289.063, 28159.00
1290.130, 27942.00
1291.196, 28438.00
1292.262, 28277.00
1293.328, 28190.00
1294.394, 28131.00
1295.459, 28009.00
1296.524, 28292.00
1297.590, 28206.00
1298.655, 28218.00
1299.719, 28173.00
1300.784, 28306.00
1301.849, 28415.00
1302.913, 28135.00
1303.977, 28153.00
1305.041, 28061.00
1306.105, 28084.00
1307.168, 28137.00
1308.232, 28228.00
1309.295, 28183.00
1310.358, 28085.00
1311.421, 28115.00
1312.484, 28035.96
1313.546, 28074.00
1314.609, 27960.00
1315.671, 27927.42
1316.733, 27929.00
1317.795, 27756.00
