##NAMES=Hausmannite
##RRUFFID=R040091
##IDEAL CHEMISTRY=Mn^2+^Mn^3+^_2_O_4_
##LOCALITY=Germany
##OWNER=RRUFF
##SOURCE=University of Arizona Mineral Museum
##DESCRIPTION=Mass of black octahedral crystals
##STATUS=The identification of this mineral has been confirmed by X-ray diffraction and chemical analysis
##URL=rruff.info/R040091
##MEASURED CHEMISTRY=(Mn^2+^_0.96_Zn_0.02_Mg_0.02_)Mn^3+^_2.00_O_4_
##PIN_ID=S00049
##ORIENTATION=Laser parallel to a* (1 0 0). Fiducial mark perpendicular to laser is parallel to -c [0 0 -1]
141.6580, 19651.50
142.8830, 19948.52
144.1080, 19893.09
145.3330, 19998.97
146.5580, 19755.56
147.7830, 19620.04
149.0070, 19833.97
150.2320, 19854.38
151.4560, 19551.00
152.6800, 19384.00
153.9040, 19328.00
155.1280, 19441.00
156.3520, 19539.00
157.5760, 19521.00
158.7990, 19604.00
160.0220, 19466.00
161.2450, 19295.00
162.4680, 19270.00
163.6910, 19483.00
164.9140, 19608.00
166.1370, 19458.00
167.3590, 19294.00
168.5810, 19309.00
169.8040, 18972.00
171.0260, 19162.00
172.2480, 19153.00
173.4690, 19483.00
174.6910, 19163.00
175.9120, 19353.00
177.1340, 19282.00
178.3550, 19388.00
179.5760, 19279.00
180.7970, 19251.74
182.0180, 19229.33
183.2380, 19206.00
184.4590, 19092.00
185.6790, 19244.00
186.8990, 19125.00
188.1190, 19147.00
189.3390, 19297.00
190.5590, 19197.00
191.7780, 18998.00
192.9980, 19090.00
194.2170, 19106.00
195.4360, 19325.00
196.6550, 19347.00
197.8740, 19269.00
199.0930, 19213.00
200.3120, 19260.00
201.5300, 19261.00
202.7480, 19278.82
203.9670, 19234.94
205.1850, 19237.00
206.4020, 19128.00
207.6200, 19095.11
208.8380, 19034.03
210.0550, 19013.00
211.2730, 18934.00
212.4900, 18986.00
213.7070, 18708.75
214.9240, 19078.90
216.1400, 19287.73
217.3570, 19343.92
218.5730, 18790.27
219.7900, 19024.10
221.0060, 18942.34
222.2220, 18847.64
223.4380, 19192.30
224.6540, 18727.36
225.8690, 19065.05
227.0850, 19082.34
228.3000, 19246.27
229.5150, 19092.67
230.7300, 19037.15
231.9450, 19299.25
233.1600, 19385.49
234.3740, 19195.33
235.5890, 19368.58
236.8030, 18892.54
238.0170, 18986.26
239.2310, 19325.81
240.4450, 19151.62
241.6590, 19330.68
242.8720, 19375.20
244.0860, 19041.00
245.2990, 19074.00
246.5120, 19101.92
247.7250, 19039.70
248.9380, 18986.00
250.1510, 18947.00
251.3630, 18813.00
252.5750, 18834.00
253.7880, 19028.00
255.0000, 18891.00
256.2120, 18960.00
257.4240, 19074.00
258.6350, 19028.00
259.8470, 19010.00
261.0580, 19062.00
262.2690, 19065.00
263.4810, 19093.00
264.6920, 19201.00
265.9020, 19267.00
267.1130, 19314.00
268.3240, 19220.00
269.5340, 19398.00
270.7440, 19219.00
271.9540, 19404.00
273.1640, 19207.00
274.3740, 19449.00
275.5840, 19574.00
276.7930, 19689.00
278.0020, 19669.00
279.2120, 19654.00
280.4210, 19640.00
281.6300, 19837.00
282.8380, 19966.85
284.0470, 20404.00
285.2550, 20451.00
286.4640, 20762.00
287.6720, 21078.00
288.8800, 20994.00
290.0880, 21163.00
291.2960, 21063.00
292.5030, 21104.00
293.7110, 21035.00
294.9180, 20924.00
296.1250, 20837.00
297.3320, 20798.45
298.5390, 20837.00
299.7460, 20734.00
300.9520, 20907.00
302.1590, 20902.00
303.3650, 20942.00
304.5710, 20956.00
305.7770, 21373.00
306.9830, 21409.00
308.1890, 21781.00
309.3940, 22247.00
310.6000, 22471.00
311.8050, 22903.00
313.0100, 23294.00
314.2150, 23951.00
315.4200, 24410.00
316.6240, 24680.00
317.8290, 25020.61
319.0330, 25094.00
320.2370, 25287.00
321.4410, 25190.00
322.6450, 25057.00
323.8490, 24621.00
325.0530, 24508.00
326.2560, 23772.00
327.4600, 23500.00
328.6630, 23111.00
329.8660, 22865.00
331.0690, 22437.00
332.2710, 22141.00
333.4740, 21985.00
334.6760, 21622.00
335.8790, 21807.00
337.0810, 21609.00
338.2830, 21563.00
339.4850, 21374.00
340.6860, 21318.00
341.8880, 21177.00
343.0890, 21438.00
344.2910, 21286.00
345.4920, 21412.00
346.6930, 21418.00
347.8940, 21384.00
349.0940, 21207.00
350.2950, 21467.00
351.4950, 21125.00
352.6950, 21250.00
353.8950, 21571.00
355.0950, 21321.00
356.2950, 21514.00
357.4950, 21555.00
358.6940, 21700.00
359.8940, 21850.00
361.0930, 21986.00
362.2920, 22074.00
363.4910, 22161.00
364.6890, 21978.00
365.8880, 22202.00
367.0860, 22030.00
368.2850, 22238.00
369.4830, 21943.00
370.6810, 22097.00
371.8790, 22161.00
373.0760, 22078.00
374.2740, 21951.00
375.4710, 21926.00
376.6690, 21902.00
377.8660, 21495.00
379.0630, 21670.00
380.2590, 21388.00
381.4560, 21244.00
382.6530, 21353.00
383.8490, 21180.00
385.0450, 20954.00
386.2410, 20936.00
387.4370, 21162.00
388.6330, 20920.00
389.8280, 20915.00
391.0240, 20778.00
392.2190, 20776.00
393.4140, 20795.00
394.6090, 20843.00
395.8040, 20599.00
396.9990, 20614.00
398.1930, 20631.29
399.3880, 20576.90
400.5820, 20642.00
401.7760, 20703.00
402.9700, 20523.00
404.1640, 20736.00
405.3580, 20676.80
406.5510, 20597.00
407.7440, 20714.00
408.9380, 20682.00
410.1310, 20685.00
411.3240, 20693.00
412.5160, 20698.00
413.7090, 20788.00
414.9010, 20739.00
416.0940, 20917.00
417.2860, 20908.00
418.4780, 20563.00
419.6700, 20835.00
420.8610, 20745.00
422.0530, 20745.00
423.2440, 20816.00
424.4360, 20991.00
425.6270, 20713.00
426.8180, 20957.00
428.0080, 20919.00
429.1990, 21136.00
430.3890, 20907.00
431.5800, 20911.35
432.7700, 21019.04
433.9600, 21086.40
435.1500, 21115.61
436.3400, 20992.35
437.5290, 21065.95
438.7190, 21060.67
439.9080, 21052.14
441.0970, 21153.45
442.2860, 21052.35
443.4750, 21151.92
444.6640, 21171.39
445.8520, 21227.50
447.0400, 21204.23
448.2290, 21205.50
449.4170, 21286.16
450.6050, 21253.00
451.7920, 21311.00
452.9800, 21249.00
454.1670, 21376.00
455.3550, 21526.00
456.5420, 21220.00
457.7290, 21440.00
458.9160, 21554.00
460.1030, 21548.00
461.2890, 21683.00
462.4750, 21597.00
463.6620, 21946.00
464.8480, 21687.00
466.0340, 22181.00
467.2200, 22026.00
468.4050, 21899.00
469.5910, 21998.00
470.7760, 22250.00
471.9610, 22301.00
473.1460, 22330.00
474.3310, 22447.00
475.5160, 22422.00
476.7000, 22684.00
477.8850, 22686.00
479.0690, 22739.00
480.2530, 22613.00
481.4370, 22817.00
482.6210, 22852.00
483.8050, 22589.00
484.9880, 22679.00
486.1710, 22479.00
487.3550, 22639.00
488.5380, 22510.00
489.7210, 22755.00
490.9030, 22568.00
492.0860, 22536.00
493.2680, 22444.00
494.4510, 22623.00
495.6330, 22269.00
496.8150, 22238.00
497.9970, 22650.00
499.1780, 22506.00
500.3600, 22335.00
501.5410, 22547.00
502.7220, 22621.00
503.9030, 22401.00
505.0840, 22426.00
506.2650, 22691.00
507.4460, 22582.00
508.6260, 22549.00
509.8060, 22476.00
510.9870, 22146.57
512.1670, 22599.09
513.3460, 22874.13
514.5260, 22981.30
515.7060, 22417.66
516.8850, 22720.20
518.0640, 22675.59
519.2430, 22616.75
520.4220, 23041.20
521.6010, 22575.08
522.7790, 22991.83
523.9580, 23056.18
525.1360, 23281.79
526.3140, 23158.11
527.4920, 23271.39
528.6700, 23299.57
529.8480, 23294.00
531.0250, 23320.00
532.2030, 23279.00
533.3800, 23248.00
534.5570, 23281.57
535.7340, 23179.00
536.9110, 23359.00
538.0870, 23430.00
539.2640, 23534.00
540.4400, 23482.00
541.6160, 23600.00
542.7920, 23569.00
543.9680, 23417.00
545.1440, 23561.00
546.3190, 23721.00
547.4940, 23910.00
548.6700, 23813.00
549.8450, 23888.00
551.0200, 23852.00
552.1940, 24059.00
553.3690, 24084.84
554.5430, 24253.00
555.7180, 24252.00
556.8920, 24289.00
558.0660, 24355.45
559.2400, 24450.35
560.4130, 24575.00
561.5870, 24699.70
562.7600, 24863.02
563.9330, 24986.01
565.1060, 25070.84
566.2790, 25003.21
567.4520, 25132.46
568.6250, 25182.79
569.7970, 25229.84
570.9690, 25348.00
572.1410, 25396.00
573.3130, 25435.00
574.4850, 25203.00
575.6570, 25422.00
576.8280, 25257.00
578.0000, 25251.00
579.1710, 24914.00
580.3420, 24956.00
581.5130, 24786.00
582.6830, 24659.40
583.8540, 24619.81
585.0240, 24540.00
586.1940, 24422.04
587.3650, 24151.49
588.5340, 24078.04
589.7040, 23925.59
590.8740, 23906.00
592.0430, 24064.00
593.2130, 23996.00
594.3820, 24160.00
595.5510, 23955.00
596.7200, 23936.00
597.8880, 24159.00
599.0570, 24321.00
600.2250, 24335.00
601.3930, 24244.00
602.5610, 24498.00
603.7290, 24431.82
604.8970, 24577.00
606.0650, 24463.53
607.2320, 24702.58
608.3990, 24901.30
609.5670, 25062.00
610.7330, 25069.98
611.9000, 25274.97
613.0670, 25401.06
614.2330, 25523.78
615.4000, 25765.00
616.5660, 25957.00
617.7320, 26157.00
618.8980, 26397.98
620.0640, 26622.00
621.2290, 26862.00
622.3950, 27081.00
623.5600, 27320.00
624.7250, 27531.00
625.8900, 27967.00
627.0550, 28185.00
628.2190, 28431.00
629.3840, 29026.00
630.5480, 29157.00
631.7120, 29798.00
632.8760, 30279.00
634.0400, 30936.00
635.2040, 31534.03
636.3670, 32425.00
637.5300, 33172.00
638.6940, 34481.00
639.8570, 35721.25
641.0190, 36955.00
642.1820, 38885.00
643.3450, 40877.00
644.5070, 43014.00
645.6690, 45827.00
646.8320, 48819.00
647.9930, 52564.00
649.1550, 56994.00
650.3170, 61799.00
651.4780, 67291.00
652.6400, 73050.00
653.8010, 79266.00
654.9620, 85553.00
656.1230, 90967.00
657.2830, 96307.00
658.4440, 99113.00
659.6040, 102063.0
660.7640, 101910.0
661.9240, 101043.0
663.0840, 98202.00
664.2440, 94720.00
665.4040, 90060.00
666.5630, 85038.00
667.7220, 78881.00
668.8810, 73477.00
670.0400, 68785.00
671.1990, 63316.00
672.3580, 58766.00
673.5160, 54917.00
674.6750, 51198.00
675.8330, 48041.00
676.9910, 45006.69
678.1480, 42253.00
679.3060, 40389.00
680.4640, 38029.09
681.6210, 36886.95
682.7780, 35708.68
683.9350, 34503.09
685.0920, 32812.91
686.2490, 32035.39
687.4050, 31068.30
688.5620, 30212.71
689.7180, 29922.20
690.8740, 28947.12
692.0300, 28899.72
693.1860, 28134.00
694.3410, 28127.00
695.4970, 27643.00
696.6520, 27353.00
697.8070, 27087.00
698.9620, 26676.00
700.1170, 26455.00
701.2720, 26322.00
702.4260, 26309.00
703.5810, 25997.00
704.7350, 25665.00
705.8890, 25686.00
707.0430, 25493.00
708.1960, 25319.00
709.3500, 25160.00
710.5030, 25080.39
711.6570, 24997.39
712.8100, 24960.00
713.9630, 24918.00
715.1150, 24840.00
716.2680, 24794.00
717.4200, 24790.00
718.5730, 24732.00
719.7250, 24649.00
720.8770, 24647.23
722.0280, 24585.00
723.1800, 24490.00
724.3310, 24510.00
725.4830, 24192.00
726.6340, 24652.00
727.7850, 24279.00
728.9360, 24550.00
730.0860, 24396.00
731.2370, 24341.00
732.3870, 24017.00
733.5370, 24251.00
734.6880, 24316.00
735.8370, 24105.00
736.9870, 24486.00
738.1370, 24035.00
739.2860, 24138.00
740.4350, 24030.00
741.5840, 23941.99
742.7330, 24202.00
743.8820, 23926.00
745.0310, 23948.00
746.1790, 23932.00
747.3270, 23793.23
748.4750, 23779.00
749.6230, 23682.00
750.7710, 23888.00
751.9190, 23934.00
753.0660, 23771.00
754.2140, 23825.00
755.3610, 23668.00
756.5080, 23608.00
757.6540, 23660.00
758.8010, 23681.00
759.9480, 23740.00
761.0940, 23525.00
762.2400, 23652.00
763.3860, 23437.00
764.5320, 23725.00
765.6780, 23557.29
766.8230, 23686.00
767.9690, 23445.00
769.1140, 23367.00
770.2590, 23455.00
771.4040, 23625.00
772.5490, 23477.00
773.6930, 23597.00
774.8380, 23563.88
775.9820, 23494.00
777.1260, 23449.00
778.2700, 23349.00
779.4140, 23148.00
780.5570, 23245.00
781.7010, 23302.00
782.8440, 23511.00
783.9870, 23118.00
785.1300, 23259.00
786.2730, 23022.00
787.4150, 22915.00
788.5580, 23040.00
789.7000, 23137.00
790.8420, 23062.38
791.9840, 23152.00
793.1260, 22973.00
794.2680, 22895.00
795.4090, 22796.00
796.5510, 22948.00
797.6920, 23110.00
798.8330, 23058.00
799.9740, 22912.00
801.1150, 22815.00
802.2550, 22855.00
803.3950, 22935.00
804.5360, 22797.00
805.6760, 22591.00
806.8160, 22715.00
807.9550, 22680.30
809.0950, 22860.00
810.2340, 22744.00
811.3740, 22806.00
812.5130, 22602.00
813.6520, 22632.00
814.7900, 22645.00
815.9290, 22704.00
817.0670, 22656.00
818.2060, 22665.00
819.3440, 22504.00
820.4820, 22908.00
821.6190, 22565.00
822.7570, 22741.00
823.8950, 22651.00
825.0320, 22685.00
826.1690, 22543.00
827.3060, 22411.00
828.4430, 22629.00
829.5790, 22738.00
830.7160, 22384.02
831.8520, 22751.74
832.9880, 22958.14
834.1240, 23011.90
835.2600, 22455.83
836.3960, 22687.23
837.5310, 22603.05
838.6670, 22505.93
839.8020, 22848.17
840.9370, 22380.80
842.0720, 22716.06
843.2060, 22730.94
844.3410, 22524.00
845.4750, 22342.00
846.6100, 22438.00
847.7440, 22472.00
848.8770, 22346.00
850.0110, 22568.00
851.1450, 22467.00
852.2780, 22418.00
853.4110, 22370.00
854.5440, 22411.25
855.6770, 22163.89
856.8100, 22539.82
857.9430, 22754.43
859.0750, 22816.40
860.2070, 22268.53
861.3390, 22508.13
862.4710, 22432.15
863.6030, 22343.23
864.7350, 22693.67
865.8660, 22234.49
866.9970, 22577.95
868.1280, 22601.01
869.2590, 22770.71
870.3900, 22622.88
871.5210, 22573.13
872.6510, 22841.00
873.7820, 22933.00
874.9120, 22748.61
876.0420, 22927.63
877.1710, 22457.35
878.3010, 22556.83
879.4300, 22902.14
880.5600, 22733.72
881.6890, 22918.53
882.8180, 22301.00
883.9470, 22526.00
885.0750, 22453.00
886.2040, 22656.00
887.3320, 22474.00
888.4600, 22531.00
889.5880, 22532.55
890.7160, 22511.00
891.8440, 22539.00
892.9710, 22575.00
894.0990, 22661.00
895.2260, 22737.00
896.3530, 22690.00
897.4800, 22621.00
898.6060, 22671.00
899.7330, 22506.00
900.8590, 22584.00
901.9850, 22902.00
903.1110, 22804.00
904.2370, 22803.00
905.3630, 22699.00
906.4890, 22667.00
907.6140, 22712.00
908.7390, 22636.00
909.8640, 22755.00
910.9890, 22702.02
912.1140, 22752.00
913.2380, 22690.00
914.3630, 22692.00
915.4870, 22740.00
916.6110, 22720.00
917.7350, 22836.00
918.8580, 22813.00
919.9820, 22683.00
921.1050, 22841.00
922.2290, 22940.00
923.3520, 22843.00
924.4750, 22701.00
925.5970, 22831.00
926.7200, 22814.00
927.8420, 23017.00
928.9640, 22920.00
930.0870, 22901.00
931.2080, 22845.00
932.3300, 22853.00
933.4520, 22985.00
934.5730, 22869.00
935.6940, 22907.00
936.8150, 22815.00
937.9360, 22856.00
939.0570, 22925.00
940.1780, 22803.00
941.2980, 23077.00
942.4180, 23097.00
943.5380, 22764.10
944.6580, 23146.33
945.7780, 23367.25
946.8980, 23435.53
948.0170, 22893.96
949.1360, 23139.86
950.2560, 23070.19
951.3740, 22987.56
952.4930, 23344.29
953.6120, 22891.42
954.7300, 23241.18
955.8480, 23270.54
956.9670, 23446.54
958.0850, 23305.01
959.2020, 23261.53
960.3200, 23535.71
961.4370, 23633.99
962.5550, 23455.90
963.6720, 23641.20
964.7890, 23177.21
965.9050, 23282.98
967.0220, 23634.58
968.1380, 23472.43
969.2550, 23663.54
970.3710, 23720.10
971.4870, 23165.25
972.6030, 23673.71
973.7180, 23722.31
974.8340, 23298.76
975.9490, 23770.77
977.0640, 23412.30
978.1790, 23350.26
979.2940, 23033.80
980.4080, 23375.79
981.5230, 23397.39
982.6370, 23565.62
983.7510, 23416.32
984.8650, 23365.09
985.9790, 23631.50
987.0920, 23722.03
988.2060, 23536.17
989.3190, 23713.72
990.4320, 23241.97
991.5450, 23339.99
992.6580, 23683.83
993.7710, 23513.94
994.8830, 23697.28
995.9950, 23746.09
997.1080, 23183.50
998.2190, 23684.20
999.3310, 23725.06
1000.443, 23293.76
1001.554, 23758.03
1002.666, 23391.82
1003.777, 23223.00
1004.888, 23476.00
1005.998, 23226.00
1007.109, 23293.00
1008.219, 23356.00
1009.330, 23240.00
1010.440, 23379.00
1011.550, 23343.00
1012.660, 23641.00
1013.769, 23294.00
1014.879, 23406.00
1015.988, 23202.00
1017.097, 23404.00
1018.206, 23258.00
1019.315, 23200.00
1020.423, 23214.00
1021.532, 23137.00
1022.640, 23354.00
1023.748, 23162.00
1024.856, 23031.00
1025.964, 23369.00
1027.072, 23090.00
1028.179, 23342.00
1029.286, 23310.00
1030.393, 23381.00
1031.500, 23420.00
1032.607, 23400.00
1033.714, 23345.00
1034.820, 23323.00
1035.926, 23303.02
1037.032, 23243.00
1038.138, 23293.00
1039.244, 23293.00
1040.350, 23332.00
1041.455, 23291.00
1042.560, 23475.00
1043.665, 23587.00
1044.770, 23293.00
1045.875, 23424.00
1046.980, 23325.00
1048.084, 23443.00
1049.188, 23405.00
1050.292, 23227.00
1051.396, 23355.00
1052.500, 23161.08
1053.604, 23534.46
1054.707, 23746.54
1055.810, 23805.96
1056.913, 23255.55
1058.016, 23492.62
1059.119, 23414.10
1060.222, 23322.64
1061.324, 23670.54
1062.426, 23208.82
1063.528, 23549.75
1064.630, 23570.28
1065.732, 23737.44
1066.834, 23587.08
1067.935, 23534.78
1069.036, 23800.12
1070.137, 23889.58
1071.238, 23702.66
1072.339, 23879.14
1073.439, 23824.38
1074.540, 23503.28
1075.640, 23846.06
1076.740, 23675.10
1077.840, 23699.00
1078.940, 23609.00
1080.039, 23708.00
1081.138, 23731.00
1082.238, 23757.00
1083.337, 23397.12
1084.436, 23775.12
1085.534, 23991.80
1086.633, 24055.84
1087.731, 23510.05
1088.829, 23751.72
1089.927, 23677.81
1091.025, 23590.97
1092.123, 23943.47
1093.220, 23486.37
1094.318, 23831.91
1095.415, 23857.04
1096.512, 24028.81
1097.609, 23883.06
1098.705, 23835.36
1099.802, 24105.31
1100.898, 24199.38
1101.994, 24017.06
1103.090, 24198.14
1104.186, 23729.94
1105.282, 23831.49
1106.377, 24178.86
1107.473, 24012.51
1108.568, 24199.39
1109.663, 24307.00
1110.758, 24531.00
1111.852, 24444.84
1112.947, 24441.00
1114.041, 24446.00
1115.135, 24378.00
1116.229, 24424.00
1117.323, 24547.00
1118.417, 24438.00
1119.510, 24590.00
1120.603, 24517.00
1121.696, 24497.73
1122.789, 24845.00
1123.882, 24419.00
1124.975, 24733.00
1126.067, 24714.00
1127.159, 24814.00
1128.251, 24674.00
1129.343, 24598.00
1130.435, 24908.00
1131.527, 24687.00
1132.618, 24872.00
1133.709, 24849.00
1134.800, 24938.00
1135.891, 24846.00
1136.982, 24811.00
1138.073, 25064.00
1139.163, 25038.00
1140.253, 25015.00
1141.343, 25205.00
1142.433, 24854.00
1143.523, 25111.00
1144.612, 24836.00
1145.702, 25051.00
1146.791, 25009.00
1147.880, 24969.00
1148.969, 24931.00
1150.058, 24689.00
1151.146, 25080.00
1152.235, 24875.96
1153.323, 25093.00
1154.411, 24898.00
1155.499, 24729.00
1156.586, 24917.00
1157.674, 24721.00
1158.761, 24779.00
1159.848, 24931.00
1160.935, 24679.00
1162.022, 24533.22
1163.109, 24887.03
1164.195, 25079.54
1165.281, 25119.40
1166.368, 24549.41
1167.454, 24766.92
1168.539, 24668.85
1169.625, 24557.83
1170.710, 24886.18
1171.796, 24404.91
1172.881, 24726.29
1173.966, 24727.27
1175.051, 24874.89
1176.135, 24705.00
1177.220, 24633.16
1178.304, 24878.97
1179.388, 24948.91
1180.472, 24742.46
1181.556, 24899.41
1182.639, 24407.09
1183.723, 24484.52
1184.806, 24807.79
1185.889, 24617.31
1186.972, 24780.09
1188.055, 24808.33
1189.137, 24532.00
1190.219, 24530.00
1191.302, 24456.00
1192.384, 24449.00
1193.466, 24438.69
1194.547, 24404.22
1195.629, 24474.00
1196.710, 24372.00
1197.791, 24463.00
1198.872, 24459.00
1199.953, 24411.64
1201.034, 24448.54
1202.114, 24343.00
1203.195, 24396.00
1204.275, 24375.00
1205.355, 24259.00
1206.435, 24154.42
1207.514, 24525.42
1208.594, 24735.10
1209.673, 24792.13
1210.752, 24239.34
1211.831, 24474.02
1212.910, 24393.11
1213.989, 24299.26
1215.067, 24644.77
1216.145, 24180.67
1217.223, 24519.21
1218.301, 24537.35
1219.379, 24702.12
1220.457, 24549.37
1221.534, 24494.69
1222.611, 24757.65
1223.688, 24844.72
1224.765, 24655.42
1225.842, 24829.51
1226.918, 24354.32
1227.995, 24448.88
1229.071, 24789.28
1230.147, 24615.93
1231.223, 24795.83
1232.299, 24841.20
1233.374, 24275.15
1234.449, 24772.41
1235.525, 24809.82
1236.600, 24375.07
1237.674, 24835.89
1238.749, 24466.24
1239.824, 24393.02
1240.898, 24542.87
1241.972, 24460.17
1243.046, 24696.73
1244.120, 24730.00
1245.193, 24761.00
1246.267, 24617.00
1247.340, 24762.00
1248.413, 24558.00
1249.486, 24703.00
1250.559, 24745.00
1251.632, 24769.00
1252.704, 24738.31
1253.776, 24773.12
1254.848, 24638.00
1255.920, 24718.00
1256.992, 24813.00
1258.064, 24632.00
1259.135, 24824.00
1260.206, 24745.00
1261.277, 24952.34
1262.348, 24886.92
1263.419, 24924.04
1264.489, 24722.00
1265.560, 24956.00
1266.630, 24750.00
1267.700, 24773.00
1268.770, 24904.00
1269.839, 24595.00
1270.909, 24830.00
1271.978, 24876.00
1273.047, 24699.00
1274.116, 25040.00
1275.185, 24730.00
1276.254, 24766.00
1277.322, 24824.00
1278.390, 24897.00
1279.458, 24777.00
1280.526, 24697.00
1281.594, 24771.91
1282.662, 24751.40
1283.729, 24856.00
1284.796, 24909.00
1285.863, 24917.00
1286.930, 25082.00
1287.997, 25036.00
1289.063, 25082.00
1290.130, 25197.00
1291.196, 24680.75
1292.262, 25056.85
1293.328, 25271.64
1294.394, 25333.79
1295.459, 24786.09
1296.524, 25025.87
1297.590, 24950.07
1298.655, 24861.32
1299.719, 25211.92
1300.784, 24752.93
1301.849, 25096.57
1302.913, 25119.80
1303.977, 25289.67
1305.041, 25142.02
1306.105, 25092.43
1307.168, 25360.47
1308.232, 25263.00
1309.295, 24953.00
1310.358, 25031.00
1311.421, 24786.00
1312.484, 24914.00
1313.546, 25118.00
1314.609, 24612.00
