##NAMES=Hausmannite
##RRUFFID=R060512
##IDEAL CHEMISTRY=Mn^2+^Mn^3+^_2_O_4_
##LOCALITY=N'Chwaning II mine, Kalahari manganese field, northern Cape Province, Republic of South Africa
##OWNER=RRUFF
##SOURCE=Michael Scott
##DESCRIPTION=Group of black pseudo-octahedra with striations parallel to the (001) plane
##STATUS=The identification of this mineral has been confirmed by X-ray diffraction and chemical analysis
##URL=rruff.info/R060512
##MEASURED CHEMISTRY=Mn^2+^_0.99_Mn^3+^_1.98_O_4_
##PIN_ID=M01995
##ORIENTATION=Laser parallel to a* (1 0 0). Fiducial mark perpendicular to laser is parallel to -c [0 0 -1]
137.6560, 17722.00
138.8880, 17836.00
140.1200, 17655.00
141.3520, 17433.00
142.5830, 17463.00
143.8150, 17443.00
145.0460, 17723.00
146.2770, 17802.00
147.5080, 17813.00
148.7390, 18069.00
149.9700, 17918.00
151.2000, 17599.00
152.4310, 17564.00
153.6610, 17832.00
154.8910, 17809.00
156.1210, 17920.00
157.3500, 17830.00
158.5800, 17863.00
159.8090, 17635.00
161.0380, 17954.00
162.2670, 18049.00
163.4960, 17929.36
164.7240, 18065.62
165.9530, 18011.63
167.1810, 18025.00
168.4090, 17969.00
169.6370, 17912.00
170.8650, 17893.00
172.0920, 17616.00
173.3200, 17676.00
174.5470, 17403.00
175.7740, 17395.00
177.0010, 17678.00
178.2280, 17581.00
179.4540, 17495.00
180.6810, 17625.00
181.9070, 17504.00
183.1330, 17549.00
184.3590, 17299.00
185.5850, 17411.00
186.8100, 17432.00
188.0350, 17449.00
189.2610, 17670.00
190.4860, 17665.00
191.7110, 17611.00
192.9350, 17553.00
194.1600, 17642.00
195.3840, 17599.00
196.6080, 17597.26
197.8320, 17805.00
199.0560, 17602.00
200.2800, 17548.00
201.5030, 17613.00
202.7270, 17334.00
203.9500, 17360.00
205.1730, 17053.00
206.3950, 17248.00
207.6180, 16951.00
208.8410, 16843.00
210.0630, 16736.00
211.2850, 16665.00
212.5070, 16673.00
213.7290, 16518.00
214.9500, 16651.00
216.1720, 16512.00
217.3930, 16580.00
218.6140, 16538.00
219.8350, 16545.00
221.0560, 16298.00
222.2770, 16247.00
223.4970, 16308.00
224.7170, 16447.00
225.9370, 16350.00
227.1570, 16339.00
228.3770, 16180.00
229.5970, 16306.00
230.8160, 16247.00
232.0350, 16100.00
233.2540, 16244.00
234.4730, 16376.00
235.6920, 16150.00
236.9110, 16289.00
238.1290, 16075.00
239.3470, 16005.00
240.5650, 16143.00
241.7830, 16014.00
243.0010, 16087.00
244.2180, 15926.00
245.4360, 16123.00
246.6530, 15994.00
247.8700, 16175.00
249.0870, 15960.00
250.3040, 15969.00
251.5200, 16111.00
252.7370, 15917.00
253.9530, 15972.00
255.1690, 15958.00
256.3850, 16258.00
257.6000, 16055.00
258.8160, 15954.00
260.0310, 16333.00
261.2460, 16049.00
262.4610, 16216.00
263.6760, 16001.00
264.8910, 15972.00
266.1050, 16107.77
267.3200, 16186.79
268.5340, 16231.06
269.7480, 16242.45
270.9620, 16237.28
272.1750, 16172.12
273.3890, 16153.80
274.6020, 16132.68
275.8150, 16064.00
277.0280, 16068.00
278.2410, 16060.00
279.4540, 16156.00
280.6660, 16152.61
281.8790, 16202.40
283.0910, 16194.00
284.3030, 16230.00
285.5140, 16204.00
286.7260, 16092.00
287.9380, 16142.00
289.1490, 16100.00
290.3600, 16129.00
291.5710, 16114.00
292.7820, 16211.00
293.9920, 16310.00
295.2030, 16347.00
296.4130, 16356.00
297.6230, 16186.00
298.8330, 16280.00
300.0430, 16233.00
301.2520, 16496.00
302.4620, 16446.00
303.6710, 16470.00
304.8800, 16552.00
306.0890, 16436.00
307.2980, 16359.00
308.5070, 16636.00
309.7150, 16767.00
310.9230, 16782.00
312.1310, 17117.00
313.3390, 17040.00
314.5470, 17429.00
315.7550, 17427.02
316.9620, 17642.50
318.1690, 17722.16
319.3760, 17667.86
320.5830, 17780.00
321.7900, 17766.00
322.9960, 17674.00
324.2030, 17454.00
325.4090, 17451.00
326.6150, 17269.00
327.8210, 17262.00
329.0270, 17109.00
330.2320, 16716.00
331.4380, 16833.00
332.6430, 16533.00
333.8480, 16688.00
335.0530, 16500.00
336.2580, 16431.00
337.4620, 16367.00
338.6670, 16463.00
339.8710, 16393.00
341.0750, 16396.00
342.2790, 16284.00
343.4820, 16363.00
344.6860, 16310.00
345.8890, 16510.00
347.0920, 16616.00
348.2960, 16676.00
349.4980, 16656.00
350.7010, 16510.00
351.9040, 16615.00
353.1060, 16605.00
354.3080, 16699.00
355.5100, 16729.00
356.7120, 16715.00
357.9140, 16842.00
359.1150, 17019.00
360.3170, 16930.00
361.5180, 17269.00
362.7190, 17205.86
363.9200, 17046.00
365.1200, 17205.00
366.3210, 17185.00
367.5210, 17138.00
368.7210, 17156.00
369.9210, 17009.00
371.1210, 17146.00
372.3210, 17065.00
373.5200, 16884.00
374.7200, 16944.00
375.9190, 16941.00
377.1180, 16806.00
378.3170, 16916.00
379.5150, 16856.00
380.7140, 16545.00
381.9120, 16642.00
383.1110, 16563.00
384.3090, 16529.00
385.5060, 16383.00
386.7040, 16364.00
387.9020, 16288.00
389.0990, 16390.00
390.2960, 16239.00
391.4930, 16232.79
392.6900, 16201.00
393.8860, 16042.00
395.0830, 16062.49
396.2790, 16100.00
397.4750, 16000.00
398.6710, 16067.00
399.8670, 16032.00
401.0630, 15989.00
402.2580, 16122.00
403.4540, 16007.00
404.6490, 16017.00
405.8440, 16034.76
407.0390, 16113.00
408.2330, 16023.00
409.4280, 16059.00
410.6220, 16039.00
411.8160, 16114.00
413.0100, 16097.00
414.2040, 16089.57
415.3980, 16240.00
416.5910, 16088.00
417.7850, 16109.00
418.9780, 16195.00
420.1710, 16288.00
421.3640, 16365.00
422.5560, 16292.00
423.7490, 16297.00
424.9410, 16296.57
426.1330, 16290.88
427.3250, 16371.00
428.5170, 16245.00
429.7090, 16485.00
430.9000, 16310.00
432.0910, 16391.00
433.2820, 16317.00
434.4730, 16449.00
435.6640, 16562.00
436.8550, 16488.00
438.0450, 16543.00
439.2360, 16537.00
440.4260, 16627.00
441.6160, 16607.00
442.8060, 16638.00
443.9950, 16670.00
445.1850, 16591.00
446.3740, 16784.00
447.5630, 16827.00
448.7520, 16698.00
449.9410, 16504.00
451.1300, 16673.00
452.3180, 16785.00
453.5060, 16596.00
454.6950, 16878.00
455.8830, 16976.00
457.0700, 16821.00
458.2580, 16868.00
459.4450, 16940.00
460.6330, 16970.00
461.8200, 17147.00
463.0070, 17066.00
464.1940, 17034.00
465.3800, 17280.00
466.5670, 16890.00
467.7530, 16979.00
468.9390, 17030.00
470.1250, 17117.00
471.3110, 17234.00
472.4970, 17290.00
473.6820, 17472.00
474.8680, 17391.00
476.0530, 17620.00
477.2380, 17534.00
478.4230, 17577.00
479.6070, 17397.00
480.7920, 17610.00
481.9760, 17760.00
483.1600, 17788.00
484.3440, 17949.00
485.5280, 18037.00
486.7120, 18034.00
487.8950, 18136.00
489.0780, 18366.00
490.2620, 18240.00
491.4450, 18449.00
492.6270, 18456.00
493.8100, 18634.00
494.9920, 18388.00
496.1750, 18624.00
497.3570, 18682.00
498.5390, 18539.00
499.7210, 18859.00
500.9020, 18689.00
502.0840, 18840.00
503.2650, 19003.00
504.4460, 19155.00
505.6270, 19027.00
506.8080, 19046.00
507.9890, 19074.00
509.1690, 18867.00
510.3500, 18984.00
511.5300, 19045.90
512.7100, 19288.00
513.8900, 19349.00
515.0690, 19324.00
516.2490, 19522.00
517.4280, 19397.00
518.6070, 19620.00
519.7860, 19646.00
520.9650, 19718.00
522.1440, 19830.00
523.3220, 19889.45
524.5010, 19998.00
525.6790, 20063.00
526.8570, 20192.00
528.0350, 20277.00
529.2130, 20293.00
530.3900, 20328.63
531.5670, 20350.00
532.7450, 20258.00
533.9220, 20179.00
535.0980, 20033.00
536.2750, 20171.00
537.4520, 20095.00
538.6280, 20174.00
539.8040, 20392.00
540.9800, 20295.00
542.1560, 20453.00
543.3320, 20467.00
544.5070, 20701.00
545.6830, 20720.00
546.8580, 20795.00
548.0330, 20934.00
549.2080, 21086.00
550.3830, 21073.00
551.5570, 21201.00
552.7310, 21516.00
553.9060, 21767.00
555.0800, 21773.00
556.2540, 21797.00
557.4270, 21578.00
558.6010, 21911.00
559.7740, 21893.30
560.9470, 22038.60
562.1210, 22149.20
563.2930, 22226.80
564.4660, 22075.00
565.6390, 22230.00
566.8110, 22121.00
567.9830, 22103.45
569.1550, 22088.14
570.3270, 22038.08
571.4990, 21955.14
572.6710, 21740.83
573.8420, 21696.24
575.0130, 21583.66
576.1840, 21468.30
577.3550, 21447.58
578.5260, 21011.00
579.6970, 20733.31
580.8670, 20259.00
582.0370, 20018.00
583.2070, 19616.00
584.3770, 19200.00
585.5470, 18571.00
586.7170, 18433.00
587.8860, 18114.00
589.0550, 18002.00
590.2240, 17845.00
591.3930, 17767.61
592.5620, 17841.00
593.7310, 17730.00
594.8990, 17661.00
596.0670, 17646.00
597.2350, 17847.00
598.4030, 17820.00
599.5710, 17722.00
600.7390, 17848.00
601.9060, 17670.00
603.0740, 17660.00
604.2410, 17840.00
605.4080, 17893.00
606.5740, 17878.00
607.7410, 18042.00
608.9080, 18171.00
610.0740, 18098.00
611.2400, 18043.00
612.4060, 18248.00
613.5720, 18529.00
614.7370, 18450.00
615.9030, 18489.00
617.0680, 18678.00
618.2330, 18624.00
619.3980, 18892.00
620.5630, 18879.00
621.7280, 19070.00
622.8920, 19214.00
624.0570, 19289.00
625.2210, 19163.00
626.3850, 19574.00
627.5490, 19598.00
628.7120, 19953.00
629.8760, 20188.00
631.0390, 20233.00
632.2020, 20727.00
633.3650, 21041.00
634.5280, 21262.00
635.6910, 21486.00
636.8530, 21776.00
638.0160, 22198.52
639.1780, 22618.00
640.3400, 23181.00
641.5020, 23867.00
642.6640, 24454.00
643.8250, 25185.00
644.9870, 26143.00
646.1480, 27192.00
647.3090, 28259.81
648.4700, 29271.00
649.6300, 30721.00
650.7910, 32269.00
651.9510, 33699.00
653.1120, 35675.00
654.2720, 37676.00
655.4320, 39292.00
656.5910, 40909.00
657.7510, 42733.00
658.9100, 43952.00
660.0690, 44728.00
661.2290, 45142.00
662.3880, 44768.00
663.5460, 44362.00
664.7050, 43021.00
665.8630, 41892.00
667.0220, 39941.00
668.1800, 37910.00
669.3380, 36201.00
670.4950, 34310.00
671.6530, 32406.00
672.8100, 30748.00
673.9680, 29310.00
675.1250, 27806.00
676.2820, 26759.00
677.4390, 25454.00
678.5950, 24415.00
679.7520, 23669.00
680.9080, 23105.00
682.0640, 22394.00
683.2200, 21869.00
684.3760, 21416.00
685.5320, 20929.00
686.6870, 20600.00
687.8420, 20217.65
688.9980, 19828.00
690.1530, 19588.00
691.3070, 19340.00
692.4620, 19062.00
693.6170, 18942.00
694.7710, 18847.00
695.9250, 18703.00
697.0790, 18465.00
698.2330, 18276.00
699.3870, 18159.00
700.5400, 18059.91
701.6940, 17942.57
702.8470, 17862.20
704.0000, 17788.00
705.1530, 17687.00
706.3050, 17649.00
707.4580, 17527.00
708.6100, 17480.00
709.7630, 17429.22
710.9150, 17256.00
712.0660, 17344.00
713.2180, 17210.00
714.3700, 17157.00
715.5210, 16931.00
716.6720, 16972.00
717.8240, 16936.68
718.9740, 16875.88
720.1250, 16974.00
721.2760, 16894.00
722.4260, 16855.00
723.5770, 16956.00
724.7270, 16827.00
725.8770, 16857.00
727.0260, 16913.00
728.1760, 16862.00
729.3250, 16840.00
730.4750, 16740.00
731.6240, 16742.00
732.7730, 16848.00
733.9220, 16575.00
735.0700, 16583.00
736.2190, 16672.00
737.3670, 16582.00
738.5150, 16503.00
739.6630, 16652.00
740.8110, 16333.00
741.9590, 16538.00
743.1060, 16526.00
744.2540, 16481.00
745.4010, 16472.00
746.5480, 16523.00
747.6950, 16420.00
748.8410, 16541.00
749.9880, 16546.41
751.1340, 16414.00
752.2800, 16544.00
753.4260, 16553.00
754.5720, 16326.00
755.7180, 16514.00
756.8640, 16431.00
758.0090, 16432.00
759.1540, 16408.00
760.2990, 16355.00
761.4440, 16405.00
762.5890, 16513.00
763.7340, 16297.00
764.8780, 16491.00
766.0220, 16315.00
767.1660, 16463.00
768.3100, 16436.00
769.4540, 16319.00
770.5980, 16298.00
771.7410, 16271.00
772.8840, 16348.00
774.0280, 16227.00
775.1700, 16228.00
776.3130, 16143.00
777.4560, 16138.10
778.5980, 16184.00
779.7410, 16150.00
780.8830, 16204.00
782.0250, 16226.00
783.1670, 16266.00
784.3080, 16179.00
785.4500, 16157.00
786.5910, 16142.00
787.7320, 16300.00
788.8730, 16120.00
790.0140, 16264.00
791.1550, 16112.00
792.2950, 16281.00
793.4360, 16024.00
794.5760, 16381.00
795.7160, 16284.00
796.8560, 16216.00
797.9960, 16131.00
799.1350, 16256.00
800.2750, 16179.00
801.4140, 16039.00
802.5530, 16171.00
803.6920, 16130.00
804.8310, 16173.00
805.9690, 16196.00
807.1080, 16145.00
808.2460, 16150.00
809.3840, 16084.00
810.5220, 16171.00
811.6600, 16229.00
812.7970, 16216.00
813.9350, 16177.66
815.0720, 16217.00
816.2090, 16101.00
817.3460, 16064.00
818.4830, 16014.82
819.6200, 16004.00
820.7560, 15914.00
821.8930, 15986.00
823.0290, 16002.00
824.1650, 15930.00
825.3010, 16058.00
826.4360, 16047.00
827.5720, 16184.00
828.7070, 16199.00
829.8420, 15890.00
830.9770, 15974.00
832.1120, 16120.00
833.2470, 16215.00
834.3820, 15832.00
835.5160, 15867.00
836.6500, 16039.00
837.7840, 15923.00
838.9180, 16039.00
840.0520, 16041.00
841.1860, 16083.00
842.3190, 16069.00
843.4520, 16075.00
844.5850, 16115.00
845.7180, 16036.00
846.8510, 16065.00
847.9840, 15999.00
849.1160, 16093.00
850.2490, 15897.00
851.3810, 15892.00
852.5130, 16151.00
853.6450, 16012.00
854.7760, 15862.00
855.9080, 16002.00
857.0390, 16036.00
858.1700, 15805.00
859.3010, 16035.00
860.4320, 15927.00
861.5630, 16066.00
862.6930, 16037.00
863.8240, 16191.00
864.9540, 16007.00
866.0840, 16106.00
867.2140, 15891.00
868.3440, 16142.00
869.4730, 16178.00
870.6030, 15944.00
871.7320, 15874.00
872.8610, 15903.00
873.9900, 15989.00
875.1190, 15987.00
876.2470, 16072.00
877.3760, 16053.00
878.5040, 16091.71
879.6320, 16042.00
880.7600, 16104.00
881.8880, 16123.00
883.0150, 16055.00
884.1430, 15983.00
885.2700, 15997.00
886.3970, 16035.00
887.5240, 16050.00
888.6510, 16115.00
889.7780, 16022.00
890.9040, 16067.00
892.0310, 16002.00
893.1570, 16224.00
894.2830, 15999.00
895.4090, 16194.00
896.5350, 16248.00
897.6600, 16139.00
898.7860, 16090.00
899.9110, 16195.00
901.0360, 16094.00
902.1610, 16054.00
903.2860, 16091.00
904.4100, 15973.00
905.5350, 16188.00
906.6590, 16103.00
907.7830, 16087.00
908.9070, 16130.00
910.0310, 16162.00
911.1540, 16195.00
912.2780, 16195.00
913.4010, 16139.00
914.5240, 16222.00
915.6470, 16365.00
916.7700, 16287.00
917.8930, 16103.00
919.0150, 16038.00
920.1380, 16188.00
921.2600, 16139.00
922.3820, 16190.00
923.5040, 16130.00
924.6260, 16201.00
925.7470, 16048.00
926.8690, 16147.00
927.9900, 16294.00
929.1110, 16114.00
930.2320, 16108.00
931.3530, 16099.00
932.4730, 16098.00
933.5940, 16061.00
934.7140, 16177.00
935.8340, 16217.00
936.9540, 16154.00
938.0740, 16230.00
939.1930, 16240.00
940.3130, 16187.00
941.4320, 16047.00
942.5510, 16240.00
943.6700, 16168.00
944.7890, 16283.00
945.9080, 16282.00
947.0260, 16268.00
948.1450, 16222.47
949.2630, 16249.00
950.3810, 16053.00
951.4990, 16294.00
952.6170, 16280.00
953.7340, 16311.00
954.8520, 16169.00
955.9690, 16291.00
957.0860, 16235.00
958.2030, 16266.00
959.3200, 16251.00
960.4360, 16376.00
961.5530, 16229.00
962.6690, 16315.00
963.7850, 16133.00
964.9010, 16397.00
966.0170, 16315.00
967.1330, 16264.00
968.2480, 16200.00
969.3630, 16184.00
970.4790, 16170.91
971.5940, 16182.09
972.7080, 16213.00
973.8230, 16250.74
974.9380, 16335.47
976.0520, 16385.44
977.1660, 16402.54
978.2800, 16288.25
979.3940, 16343.61
980.5080, 16330.98
981.6220, 16315.57
982.7350, 16394.80
983.8480, 16299.62
984.9610, 16377.35
986.0740, 16386.06
987.1870, 16426.35
988.3000, 16398.24
989.4120, 16386.00
990.5250, 16463.00
991.6370, 16401.00
992.7490, 16436.00
993.8610, 16386.00
994.9720, 16318.00
996.0840, 16424.00
997.1950, 16237.00
998.3060, 16311.00
999.4170, 16540.00
1000.528, 16287.00
1001.639, 16326.00
1002.750, 16468.00
1003.860, 16257.00
1004.970, 16334.00
1006.080, 16413.00
1007.190, 16346.00
1008.300, 16348.00
1009.410, 16425.00
1010.519, 16396.00
1011.628, 16398.00
1012.738, 16199.00
1013.846, 16291.00
1014.955, 16211.00
1016.064, 16352.00
1017.172, 16427.00
1018.281, 16335.00
1019.389, 16212.00
1020.497, 16385.00
1021.605, 16461.00
1022.713, 16506.00
1023.820, 16451.00
1024.928, 16457.00
1026.035, 16271.00
1027.142, 16259.00
1028.249, 16303.00
1029.356, 16233.00
1030.462, 16356.00
1031.569, 16583.00
1032.675, 16369.00
1033.781, 16536.00
1034.887, 16345.00
1035.993, 16331.00
1037.098, 16524.00
1038.204, 16580.00
1039.309, 16486.00
1040.415, 16372.00
1041.520, 16553.00
1042.624, 16327.00
1043.729, 16569.00
1044.834, 16482.00
1045.938, 16351.00
1047.042, 16615.00
1048.146, 16408.00
1049.250, 16440.00
1050.354, 16537.00
1051.458, 16561.00
1052.561, 16529.00
1053.664, 16582.00
1054.767, 16499.00
1055.870, 16447.00
1056.973, 16580.00
1058.076, 16418.00
1059.178, 16533.00
1060.281, 16422.00
1061.383, 16635.00
1062.485, 16528.00
1063.587, 16489.00
1064.688, 16582.00
1065.790, 16501.00
1066.891, 16598.00
1067.993, 16610.00
1069.094, 16694.00
1070.195, 16503.00
1071.295, 16602.00
1072.396, 16634.00
1073.496, 16746.00
1074.597, 16765.61
1075.697, 16439.00
1076.797, 16759.00
1077.897, 16653.00
1078.996, 16516.00
1080.096, 16669.00
1081.195, 16588.00
1082.294, 16636.00
1083.393, 16586.00
1084.492, 16656.00
1085.591, 16516.00
1086.689, 16430.00
1087.788, 16682.00
1088.886, 16516.00
1089.984, 16714.00
1091.082, 16671.00
1092.180, 16685.00
1093.277, 16558.00
1094.375, 16708.00
1095.472, 16654.00
1096.569, 16719.00
1097.666, 16577.00
1098.763, 16498.00
1099.860, 16617.00
1100.956, 16661.00
1102.053, 16636.00
1103.149, 16752.00
1104.245, 16714.00
1105.341, 16544.00
1106.436, 16749.00
1107.532, 16847.00
1108.627, 16631.00
1109.723, 16837.00
1110.818, 16668.00
1111.913, 16791.00
1113.007, 16688.00
1114.102, 16756.00
1115.197, 16768.00
1116.291, 16835.00
1117.385, 16835.00
1118.479, 16867.00
1119.573, 16824.00
1120.666, 16865.00
1121.760, 16867.00
1122.853, 16853.00
1123.947, 17078.00
1125.040, 16947.00
1126.132, 16982.00
1127.225, 16754.00
1128.318, 16766.00
1129.410, 16896.00
1130.502, 16793.45
1131.595, 16992.00
1132.687, 16783.00
1133.778, 16967.00
1134.870, 16926.00
1135.961, 16827.00
1137.053, 16791.00
1138.144, 16898.00
1139.235, 16862.00
1140.326, 16993.00
1141.416, 16914.00
1142.507, 16814.00
1143.597, 17055.00
1144.688, 17074.00
1145.778, 17135.00
1146.868, 17133.79
1147.957, 16999.00
1149.047, 16999.00
1150.136, 16849.00
1151.226, 16752.00
1152.315, 16766.00
1153.404, 16944.00
1154.493, 16911.00
1155.581, 16894.00
1156.670, 16947.69
1157.758, 16979.00
1158.846, 17005.00
1159.934, 16907.00
1161.022, 16907.73
1162.110, 16859.00
1163.198, 16810.00
1164.285, 16778.00
1165.372, 16736.00
1166.459, 16987.00
1167.546, 16858.00
1168.633, 17012.00
1169.720, 16846.00
1170.806, 16939.00
1171.892, 16850.00
1172.979, 16904.00
1174.065, 16853.00
1175.150, 16895.00
1176.236, 16723.00
1177.322, 16912.00
1178.407, 17003.00
1179.492, 16896.00
1180.577, 16770.00
1181.662, 17106.00
1182.747, 17006.00
1183.832, 16812.00
1184.916, 16867.00
1186.000, 16792.00
1187.084, 16749.00
1188.168, 16869.00
1189.252, 16853.00
1190.336, 16864.00
1191.419, 16762.00
1192.503, 16994.00
1193.586, 16926.00
1194.669, 16804.00
1195.752, 16919.00
1196.835, 16820.00
1197.917, 16890.00
1199.000, 17093.00
1200.082, 16845.00
1201.164, 16911.00
1202.246, 16941.00
1203.328, 16806.00
1204.409, 16836.00
1205.491, 16786.00
1206.572, 16742.00
1207.653, 16953.00
1208.734, 16792.00
1209.815, 16865.00
1210.896, 16766.00
1211.976, 17117.00
1213.057, 16867.00
1214.137, 17084.00
1215.217, 16787.00
1216.297, 16875.00
1217.377, 17051.00
1218.456, 16911.00
1219.536, 16752.00
1220.615, 16777.00
1221.694, 16792.00
1222.773, 16872.00
1223.852, 16886.00
1224.931, 16909.00
1226.009, 16915.00
1227.088, 17029.00
1228.166, 16773.00
1229.244, 16847.00
1230.322, 16746.00
1231.400, 16927.00
1232.477, 16751.00
1233.555, 16814.00
1234.632, 16731.00
1235.709, 16718.67
1236.786, 17108.00
1237.863, 16722.00
1238.939, 16873.00
1240.016, 16878.00
1241.092, 16730.00
1242.168, 17077.00
1243.245, 17008.00
1244.320, 16808.00
1245.396, 16928.00
1246.472, 17051.00
1247.547, 17060.00
1248.622, 16998.00
1249.697, 17018.96
1250.772, 16951.00
1251.847, 16947.00
1252.922, 16930.00
1253.996, 16921.00
1255.071, 16820.00
1256.145, 16936.00
1257.219, 16877.00
1258.293, 16985.00
1259.366, 16881.00
1260.440, 16894.00
1261.513, 16945.00
1262.587, 16870.00
1263.660, 16876.00
1264.733, 16882.00
1265.805, 16797.00
1266.878, 16946.00
1267.951, 16800.00
1269.023, 16945.00
1270.095, 16842.00
1271.167, 17000.00
1272.239, 16930.00
1273.311, 17011.00
1274.382, 16948.00
1275.454, 16898.00
1276.525, 17117.00
1277.596, 17284.76
1278.667, 17186.78
1279.738, 17274.37
1280.808, 17063.00
1281.879, 17142.00
1282.949, 17116.00
1284.019, 16930.00
1285.089, 17016.00
1286.159, 17132.00
1287.229, 17024.00
1288.298, 17030.00
1289.368, 17076.00
1290.437, 16865.00
1291.506, 16953.00
1292.575, 16895.00
1293.644, 16953.00
1294.712, 16923.00
1295.781, 17030.00
1296.849, 17056.00
1297.917, 17066.24
1298.985, 17016.00
1300.053, 17090.07
1301.121, 17129.39
1302.188, 17135.83
1303.255, 17010.90
1304.323, 17055.60
1305.390, 17032.32
1306.457, 17006.26
1307.523, 17074.85
