##NAMES=Hausmannite
##RRUFFID=R060512
##IDEAL CHEMISTRY=Mn^2+^Mn^3+^_2_O_4_
##LOCALITY=N'Chwaning II mine, Kalahari manganese field, northern Cape Province, Republic of South Africa
##OWNER=RRUFF
##SOURCE=Michael Scott
##DESCRIPTION=Group of black pseudo-octahedra with striations parallel to the (001) plane
##STATUS=The identification of this mineral has been confirmed by X-ray diffraction and chemical analysis
##URL=rruff.info/R060512
##MEASURED CHEMISTRY=Mn^2+^_0.99_Mn^3+^_1.98_O_4_
##PIN_ID=M01995
##ORIENTATION=Laser parallel to a* (1 0 0). Fiducial mark perpendicular to laser is parallel to -c [0 0 -1]
142.5830, 16239.00
143.8150, 16200.00
145.0460, 16456.00
146.2770, 16465.00
147.5080, 16421.00
148.7390, 16424.00
149.9700, 16408.98
151.2000, 16341.00
152.4310, 16374.00
153.6610, 16334.00
154.8910, 16289.00
156.1210, 16129.00
157.3500, 16325.00
158.5800, 16375.00
159.8090, 16300.00
161.0380, 16188.00
162.2670, 16516.00
163.4960, 16371.91
164.7240, 16474.44
165.9530, 16425.00
167.1810, 16461.00
168.4090, 16594.00
169.6370, 16369.00
170.8650, 16309.00
172.0920, 16124.00
173.3200, 16142.00
174.5470, 16036.00
175.7740, 16103.00
177.0010, 16069.71
178.2280, 16024.07
179.4540, 16079.00
180.6810, 16012.00
181.9070, 16037.00
183.1330, 16179.00
184.3590, 16203.00
185.5850, 15961.00
186.8100, 16075.00
188.0350, 16029.00
189.2610, 16246.00
190.4860, 16416.00
191.7110, 16390.00
192.9350, 16359.00
194.1600, 16690.00
195.3840, 16386.00
196.6080, 16233.00
197.8320, 16275.00
199.0560, 16507.00
200.2800, 16427.00
201.5030, 16368.05
202.7270, 16150.00
203.9500, 16007.00
205.1730, 15993.00
206.3950, 15684.00
207.6180, 15609.00
208.8410, 15472.00
210.0630, 15587.00
211.2850, 15665.00
212.5070, 15373.00
213.7290, 15255.00
214.9500, 15412.00
216.1720, 15487.00
217.3930, 15479.00
218.6140, 15399.00
219.8350, 15324.00
221.0560, 15468.00
222.2770, 15293.00
223.4970, 15354.00
224.7170, 15494.00
225.9370, 15322.00
227.1570, 15394.00
228.3770, 15329.00
229.5970, 15101.00
230.8160, 15325.00
232.0350, 15174.00
233.2540, 15208.00
234.4730, 15389.00
235.6920, 15282.00
236.9110, 15236.00
238.1290, 15208.00
239.3470, 15088.00
240.5650, 15331.00
241.7830, 15109.00
243.0010, 15223.00
244.2180, 15208.00
245.4360, 15039.00
246.6530, 15143.00
247.8700, 15083.00
249.0870, 15253.00
250.3040, 15226.00
251.5200, 15137.00
252.7370, 15105.00
253.9530, 15234.00
255.1690, 15027.00
256.3850, 15308.00
257.6000, 15137.00
258.8160, 15110.00
260.0310, 15059.00
261.2460, 15094.00
262.4610, 15242.00
263.6760, 15108.00
264.8910, 15328.00
266.1050, 15097.00
267.3200, 15226.00
268.5340, 15204.00
269.7480, 15441.00
270.9620, 15521.00
272.1750, 15397.00
273.3890, 15292.00
274.6020, 15092.00
275.8150, 15097.00
277.0280, 15125.00
278.2410, 15307.00
279.4540, 15090.00
280.6660, 15274.00
281.8790, 15294.00
283.0910, 15391.00
284.3030, 15267.00
285.5140, 15301.00
286.7260, 15402.00
287.9380, 15407.00
289.1490, 15458.66
290.3600, 15474.33
291.5710, 15463.00
292.7820, 15526.00
293.9920, 15523.78
295.2030, 15518.00
296.4130, 15543.00
297.6230, 15548.00
298.8330, 15523.00
300.0430, 15551.64
301.2520, 15608.00
302.4620, 15597.00
303.6710, 15539.00
304.8800, 15593.30
306.0890, 15784.00
307.2980, 15746.00
308.5070, 15847.00
309.7150, 15948.00
310.9230, 16040.00
312.1310, 16168.95
313.3390, 16266.55
314.5470, 16407.00
315.7550, 16505.00
316.9620, 16578.00
318.1690, 16738.00
319.3760, 16918.00
320.5830, 16903.00
321.7900, 16763.00
322.9960, 16877.00
324.2030, 16714.00
325.4090, 16645.00
326.6150, 16606.00
327.8210, 16527.00
329.0270, 16344.86
330.2320, 16312.00
331.4380, 15933.00
332.6430, 16080.00
333.8480, 15900.00
335.0530, 16026.00
336.2580, 15858.00
337.4620, 15716.00
338.6670, 15604.00
339.8710, 15576.82
341.0750, 15669.00
342.2790, 15615.00
343.4820, 15664.14
344.6860, 15738.00
345.8890, 15660.00
347.0920, 15736.00
348.2960, 15705.00
349.4980, 15818.00
350.7010, 15679.00
351.9040, 15829.00
353.1060, 15752.00
354.3080, 15715.00
355.5100, 15738.00
356.7120, 15768.00
357.9140, 15768.69
359.1150, 15834.00
360.3170, 15827.00
361.5180, 15902.00
362.7190, 15973.00
363.9200, 16018.62
365.1200, 16084.76
366.3210, 16154.00
367.5210, 16182.00
368.7210, 16246.00
369.9210, 16268.89
371.1210, 16230.82
372.3210, 16194.00
373.5200, 16112.00
374.7200, 16078.00
375.9190, 15998.00
377.1180, 15974.00
378.3170, 15936.30
379.5150, 15890.00
380.7140, 15875.00
381.9120, 15913.00
383.1110, 15872.00
384.3090, 15864.00
385.5060, 15769.00
386.7040, 15716.00
387.9020, 15502.00
389.0990, 15520.00
390.2960, 15459.41
391.4930, 15451.00
392.6900, 15483.00
393.8860, 15477.00
395.0830, 15578.00
396.2790, 15526.00
397.4750, 15507.00
398.6710, 15675.00
399.8670, 15647.00
401.0630, 15477.00
402.2580, 15538.00
403.4540, 15394.00
404.6490, 15477.00
405.8440, 15412.00
407.0390, 15588.00
408.2330, 15573.14
409.4280, 15608.00
410.6220, 15597.00
411.8160, 15666.00
413.0100, 15598.00
414.2040, 15643.69
415.3980, 15701.00
416.5910, 15677.00
417.7850, 15703.00
418.9780, 15711.41
420.1710, 15719.87
421.3640, 15692.00
422.5560, 15700.00
423.7490, 15690.67
424.9410, 15693.00
426.1330, 15676.00
427.3250, 15740.00
428.5170, 15732.00
429.7090, 15787.00
430.9000, 15801.00
432.0910, 15921.00
433.2820, 16027.00
434.4730, 15971.00
435.6640, 15942.00
436.8550, 15972.00
438.0450, 15953.00
439.2360, 16027.00
440.4260, 16139.00
441.6160, 16240.00
442.8060, 16206.66
443.9950, 16043.00
445.1850, 16140.00
446.3740, 16160.00
447.5630, 16174.00
448.7520, 16162.00
449.9410, 16316.00
451.1300, 16224.00
452.3180, 16487.00
453.5060, 16360.04
454.6950, 16416.00
455.8830, 16259.00
457.0700, 16339.00
458.2580, 16437.00
459.4450, 16335.00
460.6330, 16351.00
461.8200, 16378.00
463.0070, 16482.00
464.1940, 16583.00
465.3800, 16485.00
466.5670, 16524.00
467.7530, 16673.00
468.9390, 16598.00
470.1250, 16628.00
471.3110, 16800.00
472.4970, 16773.00
473.6820, 16791.00
474.8680, 16946.00
476.0530, 16802.00
477.2380, 16830.00
478.4230, 16897.00
479.6070, 16927.00
480.7920, 16996.00
481.9760, 16994.00
483.1600, 17080.00
484.3440, 17100.00
485.5280, 17318.00
486.7120, 17364.00
487.8950, 17330.00
489.0780, 17527.00
490.2620, 17533.00
491.4450, 17572.00
492.6270, 17547.00
493.8100, 17653.69
494.9920, 17774.00
496.1750, 17881.00
497.3570, 17922.34
498.5390, 17977.00
499.7210, 17953.00
500.9020, 17980.00
502.0840, 17928.00
503.2650, 17997.00
504.4460, 18093.00
505.6270, 18060.00
506.8080, 18098.29
507.9890, 18080.00
509.1690, 18084.00
510.3500, 18214.00
511.5300, 18221.00
512.7100, 18296.15
513.8900, 18502.00
515.0690, 18441.00
516.2490, 18476.00
517.4280, 18579.00
518.6070, 18503.00
519.7860, 18604.99
520.9650, 18668.00
522.1440, 18714.00
523.3220, 18876.00
524.5010, 18923.00
525.6790, 18977.00
526.8570, 19104.00
528.0350, 19250.00
529.2130, 19259.00
530.3900, 19447.00
531.5670, 19360.00
532.7450, 19230.00
533.9220, 19318.00
535.0980, 19183.00
536.2750, 19033.00
537.4520, 19050.00
538.6280, 19266.00
539.8040, 19346.00
540.9800, 19362.00
542.1560, 19622.00
543.3320, 19725.00
544.5070, 19613.00
545.6830, 19759.00
546.8580, 19780.00
548.0330, 19835.00
549.2080, 20092.00
550.3830, 20298.00
551.5570, 20346.00
552.7310, 20374.00
553.9060, 20511.00
555.0800, 20632.00
556.2540, 20406.00
557.4270, 20552.00
558.6010, 20676.00
559.7740, 20650.00
560.9470, 20808.00
562.1210, 20963.00
563.2930, 21207.00
564.4660, 21080.00
565.6390, 21210.00
566.8110, 21259.00
567.9830, 21132.00
569.1550, 21313.00
570.3270, 21268.00
571.4990, 21414.00
572.6710, 21179.00
573.8420, 21234.00
575.0130, 20789.00
576.1840, 20488.00
577.3550, 20135.00
578.5260, 20050.00
579.6970, 19645.00
580.8670, 19424.00
582.0370, 19201.00
583.2070, 18738.00
584.3770, 18398.00
585.5470, 18048.00
586.7170, 17721.00
587.8860, 17729.00
589.0550, 17446.00
590.2240, 17354.00
591.3930, 17160.00
592.5620, 17057.00
593.7310, 17272.00
594.8990, 17217.00
596.0670, 17193.00
597.2350, 17099.00
598.4030, 17043.00
599.5710, 17251.00
600.7390, 17303.00
601.9060, 17425.00
603.0740, 17417.00
604.2410, 17325.00
605.4080, 17421.00
606.5740, 17415.00
607.7410, 17484.00
608.9080, 17581.00
610.0740, 17515.00
611.2400, 17738.00
612.4060, 17638.00
613.5720, 17710.00
614.7370, 17898.00
615.9030, 17987.00
617.0680, 18031.00
618.2330, 18306.00
619.3980, 18141.00
620.5630, 18328.00
621.7280, 18549.00
622.8920, 18638.00
624.0570, 18872.00
625.2210, 18791.00
626.3850, 18988.00
627.5490, 19124.00
628.7120, 19220.00
629.8760, 19548.00
631.0390, 19807.00
632.2020, 19798.00
633.3650, 20108.00
634.5280, 20388.00
635.6910, 20617.00
636.8530, 20932.00
638.0160, 21262.00
639.1780, 21815.00
640.3400, 22237.00
641.5020, 22671.00
642.6640, 23233.00
643.8250, 24084.00
644.9870, 24699.00
646.1480, 25914.00
647.3090, 26719.00
648.4700, 28091.00
649.6300, 29365.00
650.7910, 30676.00
651.9510, 32190.00
653.1120, 34112.00
654.2720, 35914.00
655.4320, 37619.00
656.5910, 39384.00
657.7510, 41024.00
658.9100, 42406.00
660.0690, 43204.00
661.2290, 43524.00
662.3880, 43671.00
663.5460, 42893.00
664.7050, 41780.00
665.8630, 40200.00
667.0220, 38625.00
668.1800, 37523.00
669.3380, 34881.00
670.4950, 33080.00
671.6530, 31562.00
672.8100, 29759.00
673.9680, 28293.00
675.1250, 26768.00
676.2820, 25657.00
677.4390, 24653.00
678.5950, 23754.00
679.7520, 22924.00
680.9080, 22458.00
682.0640, 21510.00
683.2200, 21081.00
684.3760, 20739.00
685.5320, 20216.00
686.6870, 20023.00
687.8420, 19584.00
688.9980, 19225.00
690.1530, 19060.00
691.3070, 18970.00
692.4620, 18592.00
693.6170, 18351.00
694.7710, 18393.00
695.9250, 17975.00
697.0790, 17975.00
698.2330, 17853.00
699.3870, 17558.00
700.5400, 17439.00
701.6940, 17612.00
702.8470, 17341.00
704.0000, 17339.00
705.1530, 17123.00
706.3050, 17165.00
707.4580, 16949.00
708.6100, 17050.00
709.7630, 16833.00
710.9150, 17027.00
712.0660, 16712.00
713.2180, 16811.00
714.3700, 16813.00
715.5210, 16662.00
716.6720, 16831.00
717.8240, 16647.00
718.9740, 16731.00
720.1250, 16761.00
721.2760, 16526.00
722.4260, 16491.00
723.5770, 16504.00
724.7270, 16554.00
725.8770, 16556.00
727.0260, 16389.00
728.1760, 16435.00
729.3250, 16240.00
730.4750, 16319.00
731.6240, 16226.00
732.7730, 16288.00
733.9220, 16274.00
735.0700, 16238.18
736.2190, 16281.00
737.3670, 16228.82
738.5150, 16170.00
739.6630, 16248.00
740.8110, 16214.73
741.9590, 16126.00
743.1060, 16238.00
744.2540, 16224.00
745.4010, 16204.00
746.5480, 16063.00
747.6950, 16278.00
748.8410, 16286.00
749.9880, 16171.00
751.1340, 16029.00
752.2800, 16151.00
753.4260, 16111.00
754.5720, 16146.00
755.7180, 16109.00
756.8640, 16026.00
758.0090, 16015.00
759.1540, 16115.00
760.2990, 16028.00
761.4440, 15990.00
762.5890, 15982.00
763.7340, 16160.00
764.8780, 16067.00
766.0220, 16181.00
767.1660, 16132.00
768.3100, 16051.00
769.4540, 15859.00
770.5980, 15942.00
771.7410, 15994.00
772.8840, 16102.00
774.0280, 16128.00
775.1700, 15908.00
776.3130, 15987.00
777.4560, 15882.00
778.5980, 16077.00
779.7410, 15960.00
780.8830, 15896.00
782.0250, 16007.00
783.1670, 15972.00
784.3080, 16045.00
785.4500, 15793.00
786.5910, 15963.00
787.7320, 15905.00
788.8730, 15913.00
790.0140, 15931.00
791.1550, 15910.00
792.2950, 15903.31
793.4360, 15925.00
794.5760, 15834.00
795.7160, 15881.00
796.8560, 15793.21
797.9960, 15810.24
799.1350, 15774.00
800.2750, 15845.00
801.4140, 15953.00
802.5530, 16013.00
803.6920, 15978.00
804.8310, 16027.00
805.9690, 15818.00
807.1080, 16005.00
808.2460, 15852.00
809.3840, 15791.00
810.5220, 15869.00
811.6600, 15772.00
812.7970, 15903.00
813.9350, 16110.00
815.0720, 15850.00
816.2090, 15741.88
817.3460, 15916.37
818.4830, 16012.99
819.6200, 16035.92
820.7560, 15764.50
821.8930, 15873.18
823.0290, 15829.54
824.1650, 15779.65
825.3010, 15941.84
826.4360, 15713.23
827.5720, 15872.05
828.7070, 15876.22
829.8420, 15951.18
830.9770, 15872.86
832.1120, 15841.88
833.2470, 15964.22
834.3820, 16001.67
835.5160, 15905.71
836.6500, 15985.16
837.7840, 15751.21
838.9180, 15792.27
840.0520, 15952.00
841.1860, 15732.00
842.3190, 15657.00
843.4520, 15842.00
844.5850, 15781.00
845.7180, 15975.00
846.8510, 15748.00
847.9840, 15619.00
849.1160, 15706.00
850.2490, 15742.00
851.3810, 15715.00
852.5130, 15739.00
853.6450, 15774.00
854.7760, 15790.00
855.9080, 15813.00
857.0390, 15761.00
858.1700, 15719.00
859.3010, 15772.92
860.4320, 15742.24
861.5630, 15761.07
862.6930, 15752.00
863.8240, 15800.00
864.9540, 15788.00
866.0840, 15824.00
867.2140, 15782.15
868.3440, 15551.00
869.4730, 15669.00
870.6030, 15762.00
871.7320, 15680.00
872.8610, 15942.00
873.9900, 15766.00
875.1190, 15748.00
876.2470, 15940.00
877.3760, 15900.00
878.5040, 15853.00
879.6320, 15808.00
880.7600, 15821.00
881.8880, 15665.00
883.0150, 15823.00
884.1430, 15780.00
885.2700, 15904.00
886.3970, 15804.00
887.5240, 15840.00
888.6510, 15783.00
889.7780, 15800.00
890.9040, 15905.00
892.0310, 15856.23
893.1570, 15850.00
894.2830, 15814.00
895.4090, 15863.00
896.5350, 15755.00
897.6600, 15886.00
898.7860, 15720.00
899.9110, 15804.00
901.0360, 15910.00
902.1610, 15844.00
903.2860, 15895.00
904.4100, 15885.00
905.5350, 16016.00
906.6590, 15863.00
907.7830, 15671.00
908.9070, 15705.00
910.0310, 16052.00
911.1540, 15884.00
912.2780, 16006.00
913.4010, 15919.00
914.5240, 15930.00
915.6470, 15764.00
916.7700, 15999.00
917.8930, 15947.00
919.0150, 15927.00
920.1380, 16008.00
921.2600, 15943.00
922.3820, 15946.78
923.5040, 15991.00
924.6260, 15863.00
925.7470, 15878.00
926.8690, 15773.00
927.9900, 15882.00
929.1110, 15916.00
930.2320, 15973.00
931.3530, 15991.00
932.4730, 16045.00
933.5940, 16083.00
934.7140, 16051.87
935.8340, 16050.33
936.9540, 15990.00
938.0740, 15966.00
939.1930, 15957.00
940.3130, 15897.00
941.4320, 15901.00
942.5510, 15881.00
943.6700, 15829.00
944.7890, 16038.00
945.9080, 15992.00
947.0260, 15958.00
948.1450, 15990.00
949.2630, 15888.00
950.3810, 16150.00
951.4990, 15967.00
952.6170, 16009.42
953.7340, 15909.00
954.8520, 16054.00
955.9690, 16005.00
957.0860, 16244.00
958.2030, 15929.00
959.3200, 16155.00
960.4360, 15979.00
961.5530, 15885.00
962.6690, 16085.00
963.7850, 15958.00
964.9010, 16130.00
966.0170, 16318.00
967.1330, 15968.00
968.2480, 15840.00
969.3630, 16141.00
970.4790, 16037.00
971.5940, 16183.00
972.7080, 16210.00
973.8230, 16068.00
974.9380, 16283.00
976.0520, 16191.00
977.1660, 16094.00
978.2800, 15938.00
979.3940, 16154.00
980.5080, 15982.00
981.6220, 16170.00
982.7350, 16089.00
983.8480, 16180.00
984.9610, 16212.00
986.0740, 16197.42
987.1870, 16306.29
988.3000, 16368.45
989.4120, 16386.39
990.5250, 16227.72
991.6370, 16297.12
992.7490, 16275.11
993.8610, 16249.36
994.9720, 16350.85
996.0840, 16217.87
997.1950, 16317.34
998.3060, 16324.02
999.4170, 16373.17
1000.528, 16330.35
1001.639, 16315.95
1002.750, 16393.53
1003.860, 16420.17
1004.970, 16366.77
1006.080, 16162.00
1007.190, 16073.00
1008.300, 16142.00
1009.410, 16297.00
1010.519, 16191.00
1011.628, 16430.00
1012.738, 16155.00
1013.846, 16254.00
1014.955, 16322.00
1016.064, 16229.00
1017.172, 16297.00
1018.281, 16080.00
1019.389, 16275.00
1020.497, 16230.00
1021.605, 16291.00
1022.713, 16322.00
1023.820, 16221.00
1024.928, 16276.00
1026.035, 16174.00
1027.142, 16300.00
1028.249, 16139.00
1029.356, 16164.00
1030.462, 16247.00
1031.569, 16251.00
1032.675, 16292.32
1033.781, 16272.00
1034.887, 16346.00
1035.993, 16328.27
1037.098, 16339.23
1038.204, 16289.00
1039.309, 16342.00
1040.415, 16256.00
1041.520, 16254.00
1042.624, 16274.00
1043.729, 16172.00
1044.834, 16323.00
1045.938, 16239.00
1047.042, 16141.00
1048.146, 16207.00
1049.250, 16248.00
1050.354, 16174.00
1051.458, 16216.00
1052.561, 16203.16
1053.664, 16133.00
1054.767, 16228.00
1055.870, 16278.00
1056.973, 16350.00
1058.076, 16311.00
1059.178, 16267.00
1060.281, 16527.00
1061.383, 16300.00
1062.485, 16535.00
1063.587, 16467.00
1064.688, 16365.00
1065.790, 16226.00
1066.891, 16313.00
1067.993, 16386.00
1069.094, 16361.00
1070.195, 16388.00
1071.295, 16376.00
1072.396, 16327.00
1073.496, 16350.00
1074.597, 16365.00
1075.697, 16343.44
1076.797, 16405.00
1077.897, 16336.00
1078.996, 16381.00
1080.096, 16392.00
1081.195, 16378.79
1082.294, 16430.00
1083.393, 16411.00
1084.492, 16388.00
1085.591, 16450.00
1086.689, 16388.00
1087.788, 16543.00
1088.886, 16618.00
1089.984, 16482.00
1091.082, 16419.00
1092.180, 16336.00
1093.277, 16335.00
1094.375, 16355.00
1095.472, 16420.00
1096.569, 16429.81
1097.666, 16500.00
1098.763, 16474.00
1099.860, 16413.00
1100.956, 16384.00
1102.053, 16485.00
1103.149, 16622.00
1104.245, 16643.00
1105.341, 16498.00
1106.436, 16494.00
1107.532, 16481.00
1108.627, 16493.00
1109.723, 16362.00
1110.818, 16619.00
1111.913, 16466.00
1113.007, 16301.00
1114.102, 16388.00
1115.197, 16543.00
1116.291, 16647.00
1117.385, 16569.00
1118.479, 16376.00
1119.573, 16788.00
1120.666, 16693.00
1121.760, 16578.00
1122.853, 16793.00
1123.947, 16801.00
1125.040, 16526.00
1126.132, 16684.00
1127.225, 16754.00
1128.318, 16611.00
1129.410, 16756.00
1130.502, 16774.00
1131.595, 16790.00
1132.687, 16718.00
1133.778, 16644.00
1134.870, 16573.00
1135.961, 16626.00
1137.053, 16591.00
1138.144, 16584.71
1139.235, 16628.00
1140.326, 16578.00
1141.416, 16742.00
1142.507, 16760.00
1143.597, 16745.00
1144.688, 16802.00
1145.778, 16822.00
1146.868, 16743.00
1147.957, 16764.20
1149.047, 16738.79
1150.136, 16724.00
1151.226, 16743.00
1152.315, 16759.00
1153.404, 16835.00
1154.493, 16577.00
1155.581, 16705.00
1156.670, 16665.00
1157.758, 16826.00
1158.846, 16753.00
1159.934, 16742.00
1161.022, 16749.00
1162.110, 16690.00
1163.198, 16621.00
1164.285, 16706.00
1165.372, 16561.00
1166.459, 16675.00
1167.546, 16639.00
1168.633, 16708.00
1169.720, 16554.00
1170.806, 16707.00
1171.892, 16759.00
1172.979, 16611.00
1174.065, 16660.00
1175.150, 16715.00
1176.236, 16680.00
1177.322, 16568.00
1178.407, 16591.00
1179.492, 16744.00
1180.577, 16717.00
1181.662, 16888.00
1182.747, 16736.00
1183.832, 16712.00
1184.916, 16745.00
1186.000, 16585.00
1187.084, 16737.00
1188.168, 16515.00
1189.252, 16699.00
1190.336, 16699.00
1191.419, 16780.00
1192.503, 16449.00
1193.586, 16636.00
1194.669, 16670.00
1195.752, 16593.00
1196.835, 16695.00
1197.917, 16578.00
1199.000, 16494.00
1200.082, 16568.00
1201.164, 16703.00
1202.246, 16490.00
1203.328, 16588.00
1204.409, 16692.00
1205.491, 16491.00
1206.572, 16515.00
1207.653, 16565.00
1208.734, 16500.00
1209.815, 16571.00
1210.896, 16676.00
1211.976, 16582.00
1213.057, 16552.00
1214.137, 16560.00
1215.217, 16525.79
1216.297, 16553.08
1217.377, 16519.00
1218.456, 16588.00
1219.536, 16573.00
1220.615, 16547.00
1221.694, 16710.00
1222.773, 16524.00
1223.852, 16542.00
1224.931, 16650.00
1226.009, 16685.00
1227.088, 16582.00
1228.166, 16620.21
1229.244, 16811.00
1230.322, 16546.00
1231.400, 16705.00
1232.477, 16683.00
1233.555, 16644.00
1234.632, 16751.00
1235.709, 16526.00
1236.786, 16567.00
1237.863, 16592.00
1238.939, 16557.00
1240.016, 16591.00
1241.092, 16625.08
1242.168, 16604.00
1243.245, 16680.00
1244.320, 16694.00
1245.396, 16629.00
1246.472, 16669.00
1247.547, 16584.00
1248.622, 16560.00
1249.697, 16603.00
1250.772, 16749.00
1251.847, 16790.00
1252.922, 16714.00
1253.996, 16729.00
1255.071, 16694.00
1256.145, 16713.00
1257.219, 16633.00
1258.293, 16625.39
1259.366, 16716.00
1260.440, 16619.00
1261.513, 16602.00
1262.587, 16713.00
1263.660, 16722.00
1264.733, 16825.00
1265.805, 16612.00
1266.878, 16696.00
1267.951, 16566.00
1269.023, 16700.00
1270.095, 16658.00
1271.167, 16655.00
1272.239, 16649.00
1273.311, 16711.00
1274.382, 16615.54
1275.454, 16729.50
1276.525, 16796.74
1277.596, 16819.77
1278.667, 16666.19
1279.738, 16740.66
1280.808, 16723.74
1281.879, 16703.07
1282.949, 16809.64
1284.019, 16681.73
1285.089, 16786.29
1286.159, 16798.04
1287.229, 16852.27
1288.298, 16814.53
1289.368, 16805.20
1290.437, 16887.86
1291.506, 16919.57
1292.575, 16774.57
1293.644, 16879.01
1294.712, 16936.74
1295.781, 16950.26
1296.849, 16787.17
1297.917, 16852.14
1298.985, 16825.71
1300.053, 16795.53
1301.121, 16892.60
1302.188, 16755.19
1303.255, 16850.24
1304.323, 16852.50
1305.390, 16897.23
1306.457, 16849.99
1307.523, 16831.16
1308.590, 16904.32
1309.656, 16926.55
1310.723, 16808.00
1311.789, 16728.00
