##NAMES=Hausmannite
##RRUFFID=R060512
##IDEAL CHEMISTRY=Mn^2+^Mn^3+^_2_O_4_
##LOCALITY=N'Chwaning II mine, Kalahari manganese field, northern Cape Province, Republic of South Africa
##OWNER=RRUFF
##SOURCE=Michael Scott
##DESCRIPTION=Group of black pseudo-octahedra with striations parallel to the (001) plane
##STATUS=The identification of this mineral has been confirmed by X-ray diffraction and chemical analysis
##URL=rruff.info/R060512
##MEASURED CHEMISTRY=Mn^2+^_0.99_Mn^3+^_1.98_O_4_
##PIN_ID=M01995
##ORIENTATION=Laser parallel to a* (1 0 0). Fiducial mark perpendicular to laser is parallel to -c [0 0 -1]
146.2770, 15401.00
147.5080, 15379.00
148.7390, 15341.00
149.9700, 15488.00
151.2000, 15490.00
152.4310, 15263.00
153.6610, 15547.00
154.8910, 15821.00
156.1210, 15882.00
157.3500, 15566.00
158.5800, 15481.00
159.8090, 15543.00
161.0380, 15695.00
162.2670, 15830.00
163.4960, 15817.32
164.7240, 15759.73
165.9530, 15795.00
167.1810, 15548.00
168.4090, 15511.00
169.6370, 15570.00
170.8650, 15301.00
172.0920, 15242.00
173.3200, 15362.00
174.5470, 15328.00
175.7740, 15501.00
177.0010, 15682.00
178.2280, 15607.00
179.4540, 15383.00
180.6810, 15238.00
181.9070, 15313.00
183.1330, 15276.00
184.3590, 15328.00
185.5850, 15146.00
186.8100, 15185.00
188.0350, 15596.00
189.2610, 15452.00
190.4860, 15458.00
191.7110, 15859.00
192.9350, 15730.00
194.1600, 15662.00
195.3840, 15805.00
196.6080, 15889.00
197.8320, 15842.00
199.0560, 15600.00
200.2800, 15732.00
201.5030, 15598.00
202.7270, 15542.00
203.9500, 15432.00
205.1730, 15328.39
206.3950, 15190.00
207.6180, 15129.00
208.8410, 14953.00
210.0630, 14864.00
211.2850, 14881.00
212.5070, 14983.00
213.7290, 14877.64
214.9500, 14848.00
216.1720, 14813.00
217.3930, 14786.00
218.6140, 14849.00
219.8350, 14841.51
221.0560, 14939.00
222.2770, 14880.00
223.4970, 14863.00
224.7170, 14828.00
225.9370, 14794.41
227.1570, 14767.02
228.3770, 14720.00
229.5970, 14717.00
230.8160, 14644.00
232.0350, 14645.00
233.2540, 14829.00
234.4730, 14651.00
235.6920, 14783.00
236.9110, 14878.00
238.1290, 14755.00
239.3470, 14843.00
240.5650, 14749.00
241.7830, 14790.00
243.0010, 14752.17
244.2180, 14653.43
245.4360, 14729.00
246.6530, 14675.08
247.8700, 14608.00
249.0870, 14669.00
250.3040, 14698.00
251.5200, 14702.00
252.7370, 14706.81
253.9530, 14747.00
255.1690, 14681.00
256.3850, 14762.00
257.6000, 14780.00
258.8160, 14742.00
260.0310, 14656.00
261.2460, 14589.00
262.4610, 14649.00
263.6760, 14904.00
264.8910, 14731.00
266.1050, 14817.00
267.3200, 14771.00
268.5340, 14774.00
269.7480, 14929.00
270.9620, 14858.85
272.1750, 14992.00
273.3890, 14823.00
274.6020, 14917.00
275.8150, 14860.00
277.0280, 14749.00
278.2410, 14871.00
279.4540, 14893.00
280.6660, 14968.00
281.8790, 14991.19
283.0910, 14989.00
284.3030, 15058.00
285.5140, 15049.29
286.7260, 15183.00
287.9380, 15077.00
289.1490, 15143.00
290.3600, 15044.00
291.5710, 15182.00
292.7820, 15191.00
293.9920, 15334.00
295.2030, 15309.00
296.4130, 15405.00
297.6230, 15277.00
298.8330, 15312.00
300.0430, 15289.00
301.2520, 15294.51
302.4620, 15337.97
303.6710, 15412.00
304.8800, 15400.00
306.0890, 15558.00
307.2980, 15547.00
308.5070, 15554.00
309.7150, 15645.00
310.9230, 15898.00
312.1310, 15950.00
313.3390, 16144.00
314.5470, 16331.00
315.7550, 16414.00
316.9620, 16539.19
318.1690, 16631.00
319.3760, 16634.00
320.5830, 16704.00
321.7900, 16611.82
322.9960, 16627.68
324.2030, 16595.46
325.4090, 16516.06
326.6150, 16347.19
327.8210, 16254.00
329.0270, 16153.48
330.2320, 16016.32
331.4380, 15906.75
332.6430, 15800.00
333.8480, 15699.00
335.0530, 15644.00
336.2580, 15644.00
337.4620, 15518.00
338.6670, 15645.00
339.8710, 15527.00
341.0750, 15606.00
342.2790, 15585.00
343.4820, 15608.00
344.6860, 15518.00
345.8890, 15544.25
347.0920, 15480.00
348.2960, 15532.00
349.4980, 15547.00
350.7010, 15518.00
351.9040, 15571.00
353.1060, 15484.00
354.3080, 15488.00
355.5100, 15730.00
356.7120, 15722.00
357.9140, 15715.00
359.1150, 15782.00
360.3170, 15742.00
361.5180, 15777.00
362.7190, 15824.00
363.9200, 15764.00
365.1200, 15810.00
366.3210, 15962.00
367.5210, 15873.00
368.7210, 15905.00
369.9210, 15885.00
371.1210, 15865.45
372.3210, 15956.00
373.5200, 15845.00
374.7200, 15955.00
375.9190, 15932.00
377.1180, 15911.00
378.3170, 15927.00
379.5150, 15949.00
380.7140, 15755.00
381.9120, 15616.00
383.1110, 15530.00
384.3090, 15479.00
385.5060, 15432.09
386.7040, 15604.00
387.9020, 15407.00
389.0990, 15440.00
390.2960, 15426.00
391.4930, 15252.00
392.6900, 15393.00
393.8860, 15436.00
395.0830, 15146.00
396.2790, 15306.00
397.4750, 15160.00
398.6710, 15311.00
399.8670, 15317.00
401.0630, 15366.00
402.2580, 15336.00
403.4540, 15433.00
404.6490, 15233.00
405.8440, 15409.00
407.0390, 15274.00
408.2330, 15368.00
409.4280, 15417.00
410.6220, 15343.00
411.8160, 15336.00
413.0100, 15426.00
414.2040, 15402.00
415.3980, 15374.00
416.5910, 15317.00
417.7850, 15527.00
418.9780, 15511.00
420.1710, 15497.00
421.3640, 15433.00
422.5560, 15440.00
423.7490, 15622.00
424.9410, 15414.00
426.1330, 15717.00
427.3250, 15609.00
428.5170, 15676.00
429.7090, 15724.00
430.9000, 15541.00
432.0910, 15835.00
433.2820, 15564.00
434.4730, 15852.00
435.6640, 15724.00
436.8550, 15760.00
438.0450, 15736.00
439.2360, 15904.00
440.4260, 15813.00
441.6160, 15892.00
442.8060, 15857.00
443.9950, 15773.00
445.1850, 15965.00
446.3740, 15904.00
447.5630, 15830.00
448.7520, 16082.00
449.9410, 15900.00
451.1300, 16025.00
452.3180, 15873.00
453.5060, 16005.00
454.6950, 16022.00
455.8830, 16025.00
457.0700, 15911.00
458.2580, 15964.00
459.4450, 15956.00
460.6330, 16026.00
461.8200, 16150.00
463.0070, 16063.00
464.1940, 16400.00
465.3800, 16146.00
466.5670, 16271.00
467.7530, 16217.00
468.9390, 16367.00
470.1250, 16440.00
471.3110, 16373.00
472.4970, 16320.00
473.6820, 16508.00
474.8680, 16539.00
476.0530, 16552.00
477.2380, 16627.00
478.4230, 16582.00
479.6070, 16630.00
480.7920, 16622.87
481.9760, 16751.00
483.1600, 16658.00
484.3440, 16855.00
485.5280, 16999.00
486.7120, 17111.00
487.8950, 17089.00
489.0780, 17092.00
490.2620, 17199.00
491.4450, 17376.00
492.6270, 17244.00
493.8100, 17387.00
494.9920, 17289.00
496.1750, 17286.00
497.3570, 17378.00
498.5390, 17383.00
499.7210, 17434.90
500.9020, 17405.97
502.0840, 17544.56
503.2650, 17668.16
504.4460, 17766.00
505.6270, 17727.65
506.8080, 17675.39
507.9890, 17611.00
509.1690, 17567.00
510.3500, 17607.32
511.5300, 17527.00
512.7100, 17758.00
513.8900, 17892.00
515.0690, 18052.00
516.2490, 18014.69
517.4280, 18045.00
518.6070, 17925.00
519.7860, 17962.00
520.9650, 18085.00
522.1440, 18154.00
523.3220, 18180.00
524.5010, 18212.00
525.6790, 18290.00
526.8570, 18416.00
528.0350, 18618.00
529.2130, 18647.00
530.3900, 18705.00
531.5670, 18734.00
532.7450, 18750.00
533.9220, 18504.00
535.0980, 18488.00
536.2750, 18466.00
537.4520, 18671.00
538.6280, 18585.00
539.8040, 18839.00
540.9800, 18843.00
542.1560, 19020.00
543.3320, 19092.00
544.5070, 19195.00
545.6830, 19214.00
546.8580, 19441.00
548.0330, 19303.00
549.2080, 19326.00
550.3830, 19519.00
551.5570, 19439.00
552.7310, 19694.00
553.9060, 19696.00
555.0800, 19782.00
556.2540, 19781.00
557.4270, 19738.00
558.6010, 19767.00
559.7740, 19957.00
560.9470, 20224.00
562.1210, 20251.00
563.2930, 20493.00
564.4660, 20625.00
565.6390, 20438.00
566.8110, 20441.00
567.9830, 20557.00
569.1550, 20588.00
570.3270, 20806.00
571.4990, 20763.00
572.6710, 20788.00
573.8420, 20517.00
575.0130, 20259.00
576.1840, 19959.00
577.3550, 19838.00
578.5260, 19488.00
579.6970, 19307.00
580.8670, 19007.00
582.0370, 18736.00
583.2070, 18302.00
584.3770, 18338.00
585.5470, 18023.00
586.7170, 17497.00
587.8860, 17476.00
589.0550, 17305.00
590.2240, 17260.00
591.3930, 17354.00
592.5620, 17221.00
593.7310, 17319.00
594.8990, 17160.00
596.0670, 17119.00
597.2350, 17282.00
598.4030, 17170.00
599.5710, 17122.00
600.7390, 17193.00
601.9060, 17273.00
603.0740, 17283.23
604.2410, 17397.00
605.4080, 17360.00
606.5740, 17421.00
607.7410, 17430.00
608.9080, 17411.00
610.0740, 17614.00
611.2400, 17792.00
612.4060, 17869.00
613.5720, 17993.00
614.7370, 18026.00
615.9030, 17965.00
617.0680, 18146.00
618.2330, 18239.00
619.3980, 18181.00
620.5630, 18466.00
621.7280, 18468.00
622.8920, 18466.00
624.0570, 18839.00
625.2210, 18725.00
626.3850, 19044.00
627.5490, 19028.00
628.7120, 19276.00
629.8760, 19502.00
631.0390, 19605.00
632.2020, 19893.00
633.3650, 20198.00
634.5280, 20315.00
635.6910, 20622.00
636.8530, 21069.00
638.0160, 21407.00
639.1780, 21808.00
640.3400, 22382.00
641.5020, 23000.00
642.6640, 23274.00
643.8250, 24354.00
644.9870, 24891.00
646.1480, 25909.00
647.3090, 27077.00
648.4700, 28330.00
649.6300, 29804.00
650.7910, 31406.00
651.9510, 33036.00
653.1120, 35171.00
654.2720, 37122.00
655.4320, 39134.00
656.5910, 40943.00
657.7510, 42796.00
658.9100, 44476.00
660.0690, 45283.00
661.2290, 45793.00
662.3880, 45697.00
663.5460, 44747.00
664.7050, 43712.00
665.8630, 41665.00
667.0220, 39897.00
668.1800, 38051.00
669.3380, 35902.00
670.4950, 33799.00
671.6530, 31914.00
672.8100, 30013.00
673.9680, 28394.00
675.1250, 27114.00
676.2820, 26018.00
677.4390, 24910.00
678.5950, 23929.00
679.7520, 23128.00
680.9080, 22422.00
682.0640, 21759.00
683.2200, 21411.00
684.3760, 20761.00
685.5320, 20429.00
686.6870, 20049.00
687.8420, 19621.00
688.9980, 19548.00
690.1530, 19109.00
691.3070, 19018.00
692.4620, 18836.00
693.6170, 18458.00
694.7710, 18401.00
695.9250, 18102.00
697.0790, 17885.00
698.2330, 17916.00
699.3870, 17900.00
700.5400, 17701.00
701.6940, 17641.00
702.8470, 17513.00
704.0000, 17326.00
705.1530, 17397.00
706.3050, 17350.00
707.4580, 17253.00
708.6100, 17166.00
709.7630, 17176.00
710.9150, 17118.00
712.0660, 16942.00
713.2180, 16946.00
714.3700, 16846.00
715.5210, 16787.00
716.6720, 16821.00
717.8240, 16753.00
718.9740, 16747.00
720.1250, 16694.00
721.2760, 16600.00
722.4260, 16584.00
723.5770, 16561.59
724.7270, 16469.00
725.8770, 16533.00
727.0260, 16481.00
728.1760, 16393.00
729.3250, 16574.00
730.4750, 16540.00
731.6240, 16350.00
732.7730, 16419.00
733.9220, 16268.00
735.0700, 16245.00
736.2190, 16513.00
737.3670, 16314.00
738.5150, 16365.00
739.6630, 16157.00
740.8110, 16189.00
741.9590, 16063.00
743.1060, 16302.00
744.2540, 16278.00
745.4010, 16099.00
746.5480, 16058.00
747.6950, 16291.00
748.8410, 16200.00
749.9880, 16298.00
751.1340, 16187.00
752.2800, 16198.00
753.4260, 16210.29
754.5720, 16083.55
755.7180, 16221.00
756.8640, 16156.00
758.0090, 16164.00
759.1540, 16226.90
760.2990, 16203.18
761.4440, 16212.00
762.5890, 16260.00
763.7340, 16056.00
764.8780, 16115.00
766.0220, 16107.00
767.1660, 16074.00
768.3100, 16163.00
769.4540, 15996.00
770.5980, 15986.00
771.7410, 16222.00
772.8840, 16038.00
774.0280, 16215.00
775.1700, 15891.00
776.3130, 16114.00
777.4560, 16055.00
778.5980, 16064.00
779.7410, 15983.00
780.8830, 16085.00
782.0250, 15912.00
783.1670, 16049.00
784.3080, 16068.00
785.4500, 16043.00
786.5910, 16074.00
787.7320, 15979.00
788.8730, 15999.00
790.0140, 15919.00
791.1550, 15921.00
792.2950, 15941.00
793.4360, 15948.00
794.5760, 15980.00
795.7160, 16041.00
796.8560, 15948.00
797.9960, 15984.00
799.1350, 15956.00
800.2750, 16012.00
801.4140, 15996.00
802.5530, 16021.00
803.6920, 15965.00
804.8310, 15932.00
805.9690, 15918.00
807.1080, 15884.00
808.2460, 15891.00
809.3840, 15898.00
810.5220, 15922.00
811.6600, 15936.00
812.7970, 15917.00
813.9350, 15895.00
815.0720, 15943.00
816.2090, 15965.00
817.3460, 15739.00
818.4830, 15843.00
819.6200, 15905.00
820.7560, 15652.00
821.8930, 15864.00
823.0290, 15760.00
824.1650, 15748.00
825.3010, 15672.00
826.4360, 15788.00
827.5720, 15786.00
828.7070, 15939.00
829.8420, 15843.00
830.9770, 15704.00
832.1120, 15908.00
833.2470, 15869.00
834.3820, 15824.00
835.5160, 15759.00
836.6500, 15884.00
837.7840, 15732.00
838.9180, 15943.00
840.0520, 15960.00
841.1860, 15767.00
842.3190, 15871.00
843.4520, 15639.00
844.5850, 15768.00
845.7180, 15781.00
846.8510, 15762.91
847.9840, 15887.73
849.1160, 15955.90
850.2490, 15970.45
851.3810, 15770.80
852.5130, 15847.75
853.6450, 15813.84
854.7760, 15775.40
855.9080, 15891.28
857.0390, 15722.79
858.1700, 15836.22
859.3010, 15837.11
860.4320, 15889.51
861.5630, 15830.38
862.6930, 15805.70
863.8240, 15892.59
864.9540, 15917.70
866.0840, 15845.73
867.2140, 15901.41
868.3440, 15802.00
869.4730, 15750.00
870.6030, 15804.00
871.7320, 15777.00
872.8610, 15806.00
873.9900, 15797.28
875.1190, 15858.00
876.2470, 15762.00
877.3760, 15855.00
878.5040, 15825.00
879.6320, 15738.00
880.7600, 15919.00
881.8880, 15976.00
883.0150, 15846.00
884.1430, 15872.00
885.2700, 15761.00
886.3970, 15882.00
887.5240, 16020.00
888.6510, 15761.00
889.7780, 15861.00
890.9040, 15927.00
892.0310, 15933.00
893.1570, 15900.00
894.2830, 16002.00
895.4090, 15896.00
896.5350, 15942.00
897.6600, 15949.00
898.7860, 15878.00
899.9110, 15910.00
901.0360, 15797.00
902.1610, 16045.00
903.2860, 16028.00
904.4100, 16037.00
905.5350, 15916.00
906.6590, 15949.00
907.7830, 15988.00
908.9070, 15996.00
910.0310, 15869.00
911.1540, 16041.00
912.2780, 16091.00
913.4010, 15906.00
914.5240, 15902.00
915.6470, 15983.00
916.7700, 16009.00
917.8930, 16064.00
919.0150, 16018.00
920.1380, 15965.00
921.2600, 16051.00
922.3820, 15881.00
923.5040, 16020.00
924.6260, 16068.00
925.7470, 15982.00
926.8690, 15919.00
927.9900, 15934.00
929.1110, 15890.79
930.2320, 15971.00
931.3530, 15936.00
932.4730, 15941.00
933.5940, 16079.00
934.7140, 16124.00
935.8340, 15949.00
936.9540, 15889.00
938.0740, 16148.00
939.1930, 16252.00
940.3130, 15943.00
941.4320, 16220.00
942.5510, 16004.00
943.6700, 16051.00
944.7890, 16149.00
945.9080, 16075.00
947.0260, 16021.00
948.1450, 15996.00
949.2630, 16039.00
950.3810, 16024.75
951.4990, 16101.00
952.6170, 16115.00
953.7340, 16002.00
954.8520, 16135.00
955.9690, 15994.00
957.0860, 16100.00
958.2030, 16180.00
959.3200, 16162.00
960.4360, 16157.00
961.5530, 16160.00
962.6690, 16234.00
963.7850, 16176.00
964.9010, 16102.00
966.0170, 16088.00
967.1330, 15933.00
968.2480, 16232.00
969.3630, 16009.00
970.4790, 16195.00
971.5940, 16044.00
972.7080, 16061.00
973.8230, 16121.68
974.9380, 16072.22
976.0520, 16214.00
977.1660, 16097.00
978.2800, 16168.00
979.3940, 16177.00
980.5080, 16248.00
981.6220, 16220.00
982.7350, 16332.00
983.8480, 16127.00
984.9610, 16042.00
986.0740, 16074.49
987.1870, 16216.00
988.3000, 16104.00
989.4120, 16136.00
990.5250, 16211.00
991.6370, 16301.00
992.7490, 16271.16
993.8610, 16324.00
994.9720, 16246.00
996.0840, 16176.00
997.1950, 16205.00
998.3060, 16121.00
999.4170, 16254.00
1000.528, 16305.00
1001.639, 16238.90
1002.750, 16186.00
1003.860, 16192.00
1004.970, 16234.00
1006.080, 16329.00
1007.190, 16203.00
1008.300, 16417.00
1009.410, 16102.00
1010.519, 16323.00
1011.628, 16217.00
1012.738, 16098.00
1013.846, 16248.00
1014.955, 16327.00
1016.064, 16223.00
1017.172, 16327.55
1018.281, 16350.00
1019.389, 16284.00
1020.497, 16221.00
1021.605, 16029.00
1022.713, 16330.00
1023.820, 16330.00
1024.928, 16118.00
1026.035, 15967.00
1027.142, 16264.00
1028.249, 16310.00
1029.356, 16338.00
1030.462, 16102.00
1031.569, 16374.00
1032.675, 16191.00
1033.781, 16229.00
1034.887, 16220.00
1035.993, 16198.00
1037.098, 16164.00
1038.204, 16346.00
1039.309, 16185.00
1040.415, 16366.00
1041.520, 16339.00
1042.624, 16270.00
1043.729, 16349.00
1044.834, 16284.00
1045.938, 16493.00
1047.042, 16265.00
1048.146, 16290.00
1049.250, 16441.00
1050.354, 16276.00
1051.458, 16355.00
1052.561, 16248.00
1053.664, 16421.00
1054.767, 16193.00
1055.870, 16403.00
1056.973, 16320.00
1058.076, 16542.00
1059.178, 16300.00
1060.281, 16371.00
1061.383, 16510.00
1062.485, 16249.00
1063.587, 16478.00
1064.688, 16359.00
1065.790, 16277.00
1066.891, 16339.00
1067.993, 16305.00
1069.094, 16318.00
1070.195, 16287.00
1071.295, 16259.00
1072.396, 16208.00
1073.496, 16379.00
1074.597, 16486.00
1075.697, 16486.00
1076.797, 16552.00
1077.897, 16392.00
1078.996, 16541.00
1080.096, 16578.00
1081.195, 16395.00
1082.294, 16521.00
1083.393, 16491.00
1084.492, 16333.00
1085.591, 16551.00
1086.689, 16471.00
1087.788, 16209.00
1088.886, 16490.00
1089.984, 16344.00
1091.082, 16446.00
1092.180, 16405.00
1093.277, 16294.00
1094.375, 16398.00
1095.472, 16502.00
1096.569, 16500.00
1097.666, 16628.00
1098.763, 16452.00
1099.860, 16382.00
1100.956, 16557.00
1102.053, 16432.00
1103.149, 16459.00
1104.245, 16516.00
1105.341, 16536.00
1106.436, 16553.68
1107.532, 16539.00
1108.627, 16576.00
1109.723, 16580.69
1110.818, 16537.00
1111.913, 16603.00
1113.007, 16611.00
1114.102, 16603.00
1115.197, 16560.00
1116.291, 16751.00
1117.385, 16552.00
1118.479, 16550.00
1119.573, 16729.00
1120.666, 16710.00
1121.760, 16591.00
1122.853, 16657.00
1123.947, 16657.00
1125.040, 16780.00
1126.132, 16751.32
1127.225, 16633.00
1128.318, 16745.00
1129.410, 16690.00
1130.502, 16707.00
1131.595, 16546.00
1132.687, 16646.00
1133.778, 16567.00
1134.870, 16730.00
1135.961, 16776.00
1137.053, 16674.00
1138.144, 16844.00
1139.235, 16771.00
1140.326, 16823.00
1141.416, 16761.00
1142.507, 16591.00
1143.597, 16734.00
1144.688, 16703.00
1145.778, 16891.00
1146.868, 16832.00
1147.957, 16704.00
1149.047, 16759.00
1150.136, 16634.00
1151.226, 16753.00
1152.315, 16823.00
1153.404, 16756.00
1154.493, 16691.00
1155.581, 16701.00
1156.670, 16791.00
1157.758, 16696.00
1158.846, 16670.00
1159.934, 16652.00
1161.022, 16833.00
1162.110, 16626.00
1163.198, 16840.00
1164.285, 16878.00
1165.372, 16716.00
1166.459, 16776.00
1167.546, 16821.00
1168.633, 16835.00
1169.720, 16787.00
1170.806, 16793.37
1171.892, 16787.54
1172.979, 16730.00
1174.065, 16786.00
1175.150, 16745.00
1176.236, 16742.00
1177.322, 16737.00
1178.407, 16682.00
1179.492, 16767.00
1180.577, 16866.00
1181.662, 16801.00
1182.747, 16646.00
1183.832, 16796.00
1184.916, 16693.00
1186.000, 16889.00
1187.084, 16646.00
1188.168, 16684.00
1189.252, 16722.00
1190.336, 16800.00
1191.419, 16799.00
1192.503, 16752.00
1193.586, 16758.00
1194.669, 16636.00
1195.752, 16692.00
1196.835, 16644.00
1197.917, 16679.00
1199.000, 16647.00
1200.082, 16672.00
1201.164, 16617.00
1202.246, 16599.00
1203.328, 16787.00
1204.409, 16615.00
1205.491, 16657.00
1206.572, 16733.00
1207.653, 16643.00
1208.734, 16717.00
1209.815, 16689.00
1210.896, 16629.00
1211.976, 16663.32
1213.057, 16695.00
1214.137, 16641.00
1215.217, 16678.00
1216.297, 16638.00
1217.377, 16655.00
1218.456, 16663.00
1219.536, 16586.60
1220.615, 16719.66
1221.694, 16796.07
1222.773, 16818.85
1223.852, 16627.44
1224.931, 16712.62
1226.009, 16686.95
1227.088, 16656.74
1228.166, 16780.85
1229.244, 16620.59
1230.322, 16742.25
1231.400, 16751.37
1232.477, 16812.00
1233.555, 16761.10
1234.632, 16744.64
1235.709, 16839.75
1236.786, 16873.09
1237.863, 16809.34
1238.939, 16873.24
1240.016, 16709.08
1241.092, 16745.04
1242.168, 16737.00
1243.245, 16781.13
1244.320, 16755.18
1245.396, 16778.00
1246.472, 16720.00
1247.547, 16708.00
1248.622, 16717.00
1249.697, 16670.00
1250.772, 16835.00
1251.847, 16703.00
1252.922, 16795.00
1253.996, 16653.00
1255.071, 16734.00
1256.145, 16840.00
1257.219, 16710.00
1258.293, 16902.00
1259.366, 16786.00
1260.440, 16859.00
1261.513, 16711.00
1262.587, 16825.00
1263.660, 16571.00
1264.733, 16706.00
1265.805, 16622.00
1266.878, 16869.00
1267.951, 16761.00
1269.023, 16632.00
1270.095, 16670.00
1271.167, 16617.07
1272.239, 16624.94
1273.311, 16694.00
1274.382, 16672.02
1275.454, 16811.31
1276.525, 16893.93
1277.596, 16922.92
1278.667, 16737.72
1279.738, 16829.12
1280.808, 16809.65
1281.879, 16785.66
1282.949, 16915.97
1284.019, 16761.91
1285.089, 16889.78
1286.159, 16905.11
1287.229, 16862.94
1288.298, 16986.71
1289.368, 17053.82
1290.437, 17067.32
1291.506, 16866.62
1292.575, 16942.51
1293.644, 16907.56
1294.712, 16868.06
1295.781, 16982.88
1296.849, 16813.34
1297.917, 16925.72
1298.985, 16925.56
1300.053, 16976.91
1301.121, 16916.73
1302.188, 16891.00
1303.255, 16976.84
1304.323, 17000.89
1305.390, 16974.00
1306.457, 16933.00
1307.523, 16845.00
1308.590, 16807.00
1309.656, 16750.30
1310.723, 16711.40
1311.789, 16675.00
1312.855, 16687.00
1313.921, 16707.00
1314.986, 16772.00
