##NAMES=Hauyne
##RRUFFID=R070557
##IDEAL CHEMISTRY=Na_3_Ca(Si_3_Al_3_)O_12_(S^6+^O_4_)
##LOCALITY=Badakhshan, Afghanistan
##OWNER=RRUFF
##SOURCE=Farooq Hashmi
##DESCRIPTION=Sky blue fragment
##STATUS=The identification of this mineral is confirmed by single-crystal X-ray diffraction and chemical analysis.
##URL=rruff.info/R070557
##MEASURED CHEMISTRY=Na_3.00_(Ca_0.84_Na_0.16_)_Σ=1_(Si_3.05_Al_2.95_)O_12_((SO_4_)_0.89_Cl_0.11_)_Σ=1_
##PIN_ID=M01358
##ORIENTATION=Laser parallel to a* (1 0 0). Fiducial mark perpendicular to laser is parallel to c [0 0 1]
211.2710, 17011.00
212.4940, 17128.00
213.7160, 16886.00
214.9370, 16720.00
216.1590, 16914.00
217.3810, 17087.00
218.6020, 17017.00
219.8230, 17075.00
221.0440, 17048.00
222.2650, 17073.91
223.4860, 17076.00
224.7060, 17093.00
225.9260, 17093.00
227.1470, 16999.00
228.3670, 17077.00
229.5860, 17104.00
230.8060, 16974.00
232.0260, 17038.00
233.2450, 17182.00
234.4640, 16960.00
235.6830, 17294.00
236.9020, 17262.00
238.1200, 17292.00
239.3390, 17313.00
240.5570, 17276.00
241.7750, 17365.00
242.9930, 17374.00
244.2110, 17483.00
245.4290, 17559.00
246.6460, 17570.55
247.8630, 17642.25
249.0810, 17590.00
250.2980, 17679.00
251.5140, 17649.00
252.7310, 17585.00
253.9470, 17691.00
255.1640, 17686.00
256.3800, 17573.00
257.5960, 17774.00
258.8120, 17758.00
260.0270, 17805.00
261.2430, 17742.00
262.4580, 17652.00
263.6730, 17621.00
264.8880, 17615.00
266.1030, 17576.00
267.3170, 17644.00
268.5320, 17512.00
269.7460, 17583.00
270.9600, 17591.00
272.1740, 17449.00
273.3880, 17516.00
274.6010, 17720.00
275.8150, 17599.00
277.0280, 17562.00
278.2410, 17467.00
279.4540, 17567.00
280.6670, 17490.00
281.8790, 17518.00
283.0920, 17484.00
284.3040, 17545.29
285.5160, 17753.00
286.7280, 17688.00
287.9400, 17757.00
289.1510, 17801.00
290.3630, 17779.00
291.5740, 17750.00
292.7850, 17693.00
293.9960, 17764.00
295.2070, 17743.89
296.4170, 17796.00
297.6280, 17771.00
298.8380, 17843.00
300.0480, 17822.00
301.2580, 17922.00
302.4680, 17728.00
303.6770, 17868.00
304.8870, 17863.00
306.0960, 17954.00
307.3050, 17966.00
308.5140, 18119.00
309.7230, 18148.00
310.9310, 18056.00
312.1400, 17952.00
313.3480, 18123.00
314.5560, 18088.00
315.7640, 17986.00
316.9720, 18046.00
318.1790, 17999.00
319.3870, 18114.00
320.5940, 18142.50
321.8010, 18074.00
323.0080, 18232.00
324.2150, 18219.00
325.4210, 18182.00
326.6280, 18230.00
327.8340, 18314.00
329.0400, 18370.00
330.2460, 18284.00
331.4510, 18283.00
332.6570, 18237.00
333.8620, 18317.00
335.0680, 18484.00
336.2730, 18327.00
337.4780, 18496.00
338.6820, 18444.00
339.8870, 18530.00
341.0910, 18616.00
342.2950, 18605.00
343.5000, 18534.00
344.7030, 18590.00
345.9070, 18607.00
347.1110, 18587.00
348.3140, 18732.00
349.5170, 18827.00
350.7200, 18868.00
351.9230, 18840.00
353.1260, 18875.00
354.3290, 19091.00
355.5310, 18995.00
356.7330, 19053.00
357.9350, 19286.00
359.1370, 18900.00
360.3390, 19049.00
361.5400, 19107.00
362.7420, 19168.00
363.9430, 19357.00
365.1440, 19405.00
366.3450, 19496.00
367.5460, 19439.00
368.7460, 19526.00
369.9470, 19534.00
371.1470, 19725.00
372.3470, 19702.00
373.5470, 19796.00
374.7460, 19753.00
375.9460, 19852.00
377.1450, 19810.00
378.3450, 19771.00
379.5440, 19921.00
380.7430, 19752.00
381.9410, 19858.00
383.1400, 20086.00
384.3380, 20102.00
385.5370, 19817.00
386.7350, 20079.00
387.9320, 19966.00
389.1300, 19900.00
390.3280, 20197.00
391.5250, 20169.00
392.7220, 20285.00
393.9190, 20137.00
395.1160, 20325.00
396.3130, 20241.00
397.5100, 20314.00
398.7060, 20450.00
399.9020, 20530.00
401.0980, 20587.00
402.2940, 20513.00
403.4900, 20692.00
404.6860, 20909.00
405.8810, 20767.00
407.0760, 20952.00
408.2710, 20827.00
409.4660, 21094.00
410.6610, 21331.00
411.8550, 21425.00
413.0500, 21465.00
414.2440, 21821.00
415.4380, 21822.00
416.6320, 22053.00
417.8260, 22205.00
419.0190, 22413.00
420.2130, 22707.00
421.4060, 22602.00
422.5990, 23037.00
423.7920, 23183.00
424.9850, 23248.00
426.1770, 23676.00
427.3700, 24053.00
428.5620, 24266.00
429.7540, 24546.00
430.9460, 25182.00
432.1380, 24892.00
433.3290, 25313.00
434.5210, 25638.00
435.7120, 25540.00
436.9030, 25825.00
438.0940, 25870.00
439.2850, 25881.00
440.4750, 26102.00
441.6660, 26067.00
442.8560, 26026.00
444.0460, 26305.00
445.2360, 25983.00
446.4260, 25950.00
447.6160, 26076.00
448.8050, 25904.00
449.9940, 25632.00
451.1830, 25654.00
452.3720, 25589.00
453.5610, 25786.00
454.7500, 25413.00
455.9380, 25466.00
457.1260, 25408.00
458.3150, 24934.00
459.5020, 24995.00
460.6900, 24928.00
461.8780, 24630.00
463.0650, 24487.00
464.2530, 24478.00
465.4400, 24256.00
466.6270, 24216.00
467.8130, 24006.00
469.0000, 24108.00
470.1870, 23873.00
471.3730, 23934.00
472.5590, 23679.00
473.7450, 23918.00
474.9310, 23842.00
476.1160, 23726.00
477.3020, 23582.00
478.4870, 23644.00
479.6720, 23660.00
480.8570, 23782.00
482.0420, 23569.00
483.2270, 23433.00
484.4110, 23556.00
485.5960, 23338.00
486.7800, 23184.00
487.9640, 23294.00
489.1480, 23054.00
490.3310, 23149.00
491.5150, 23062.00
492.6980, 23230.00
493.8810, 23069.00
495.0640, 23072.00
496.2470, 23116.00
497.4300, 22911.00
498.6120, 23185.00
499.7950, 22972.00
500.9770, 22907.00
502.1590, 23158.00
503.3410, 23152.00
504.5220, 22658.00
505.7040, 22938.00
506.8850, 22988.00
508.0660, 23281.00
509.2470, 23015.00
510.4280, 22969.00
511.6090, 23065.00
512.7890, 23111.00
513.9700, 23148.00
515.1500, 23177.00
516.3300, 23373.00
517.5100, 23289.00
518.6900, 23353.16
519.8690, 23276.00
521.0490, 23354.00
522.2280, 23446.00
523.4070, 23458.00
524.5860, 23557.00
525.7640, 23825.00
526.9430, 23657.00
528.1210, 24084.00
529.3000, 24270.00
530.4780, 24367.00
531.6560, 24421.00
532.8330, 24847.00
534.0110, 25151.00
535.1880, 25897.00
536.3650, 26320.00
537.5430, 26781.00
538.7190, 27256.00
539.8960, 27817.00
541.0730, 28405.00
542.2490, 28853.00
543.4250, 28932.00
544.6020, 29110.00
545.7780, 28623.00
546.9530, 28384.00
548.1290, 27904.00
549.3040, 27267.00
550.4800, 26634.00
551.6550, 26149.38
552.8300, 25495.00
554.0040, 25214.00
555.1790, 24817.00
556.3540, 24567.00
557.5280, 24736.00
558.7020, 24606.00
559.8760, 24469.00
561.0500, 24404.00
562.2230, 24282.00
563.3970, 24234.00
564.5700, 24257.00
565.7430, 24294.00
566.9160, 24341.00
568.0890, 24492.00
569.2620, 24556.00
570.4340, 24592.00
571.6070, 24673.97
572.7790, 24640.00
573.9510, 24724.00
575.1230, 24865.00
576.2940, 24813.00
577.4660, 25139.00
578.6370, 24793.00
579.8080, 24933.00
580.9790, 24741.00
582.1500, 25010.00
583.3210, 24817.00
584.4910, 24915.00
585.6620, 25117.00
586.8320, 25070.00
588.0020, 25175.91
589.1720, 25041.00
590.3410, 25265.00
591.5110, 25136.00
592.6800, 25202.00
593.8500, 25278.00
595.0190, 25247.00
596.1880, 25295.00
597.3560, 25469.00
598.5250, 25585.00
599.6930, 25645.00
600.8620, 25942.00
602.0300, 25595.00
603.1970, 25965.00
604.3650, 25873.00
605.5330, 26207.00
606.7000, 26359.00
607.8680, 26651.00
609.0350, 26582.00
610.2020, 26623.00
611.3680, 26633.00
612.5350, 26870.00
613.7010, 26709.00
614.8680, 26729.00
616.0340, 26891.00
617.2000, 26831.00
618.3660, 26639.00
619.5310, 26693.00
620.6970, 26528.00
621.8620, 26883.00
623.0270, 26632.00
624.1920, 26571.00
625.3570, 26327.00
626.5220, 26282.00
627.6860, 26283.00
628.8500, 26352.00
630.0140, 26225.00
631.1780, 26258.00
632.3420, 26349.00
633.5060, 26218.00
634.6700, 26273.99
635.8330, 26358.00
636.9960, 26283.00
638.1590, 26320.00
639.3220, 26396.00
640.4850, 26419.00
641.6470, 26461.41
642.8100, 26463.00
643.9720, 26489.00
645.1340, 26464.51
646.2960, 26565.00
647.4570, 26412.00
648.6190, 26370.00
649.7800, 26369.00
650.9420, 26404.00
652.1030, 26390.29
653.2640, 26351.00
654.4240, 26421.00
655.5850, 26432.00
656.7450, 26463.00
657.9060, 26556.00
659.0660, 26592.00
660.2260, 26451.00
661.3850, 26420.00
662.5450, 26649.00
663.7040, 26843.00
664.8640, 26634.00
666.0230, 26642.00
667.1820, 26721.00
668.3410, 26748.00
669.4990, 26770.86
670.6580, 26905.00
671.8160, 26852.00
672.9740, 26744.00
674.1320, 26861.00
675.2900, 26923.00
676.4480, 27051.00
677.6050, 26971.00
678.7630, 27068.00
679.9200, 27124.00
681.0770, 27064.00
682.2340, 27328.00
683.3900, 27235.00
684.5470, 27312.00
685.7030, 27198.00
686.8590, 27223.00
688.0150, 27589.00
689.1710, 27290.00
690.3270, 27483.00
691.4830, 27570.00
692.6380, 27456.00
693.7930, 27654.00
694.9480, 27615.00
696.1030, 27634.00
697.2580, 27715.00
698.4130, 27649.00
699.5670, 27666.00
700.7210, 27646.00
701.8750, 27734.00
703.0290, 27687.00
704.1830, 27852.00
705.3370, 27938.00
706.4900, 28030.00
707.6430, 27979.00
708.7970, 28225.00
709.9490, 28039.00
711.1020, 28262.00
712.2550, 28149.00
713.4070, 28240.00
714.5600, 28102.00
715.7120, 28309.00
716.8640, 28244.00
718.0160, 28524.00
719.1670, 28258.00
720.3190, 28563.00
721.4700, 28341.00
722.6210, 28378.00
723.7720, 28805.00
724.9230, 28575.00
726.0740, 28776.00
727.2250, 28728.00
728.3750, 28665.00
729.5250, 28863.00
730.6750, 28713.00
731.8250, 28853.00
732.9750, 28723.00
734.1240, 28956.00
735.2740, 28595.00
736.4230, 29100.00
737.5720, 29030.00
738.7210, 28937.00
739.8700, 29087.00
741.0190, 29042.00
742.1670, 28973.00
743.3150, 29027.00
744.4630, 29315.00
745.6110, 29249.00
746.7590, 29225.00
747.9070, 29408.00
749.0540, 29280.00
750.2020, 29485.00
751.3490, 29354.00
752.4960, 29503.00
753.6430, 29453.00
754.7890, 29460.00
755.9360, 29652.00
757.0820, 29462.00
758.2280, 29378.00
759.3740, 29521.00
760.5200, 29652.00
761.6660, 29515.00
762.8120, 29911.00
763.9570, 29855.00
765.1020, 29575.00
766.2470, 29766.00
767.3920, 30091.00
768.5370, 30087.00
769.6810, 29993.00
770.8260, 30176.00
771.9700, 30175.00
773.1140, 29995.00
774.2580, 30121.00
775.4020, 30147.00
776.5460, 30316.00
777.6890, 30181.00
778.8320, 30423.00
779.9750, 30401.00
781.1180, 30255.00
782.2610, 30582.00
783.4040, 30629.00
784.5460, 30773.00
785.6890, 30588.00
786.8310, 30683.00
787.9730, 30702.00
789.1150, 30785.00
790.2560, 30782.00
791.3980, 30737.00
792.5390, 30859.05
793.6810, 30909.30
794.8220, 31041.00
795.9630, 31095.00
797.1030, 31171.00
798.2440, 31187.00
799.3840, 31240.00
800.5240, 31187.00
801.6650, 31231.56
802.8040, 31263.68
803.9440, 31243.00
805.0840, 31377.00
806.2230, 31346.00
807.3630, 31452.00
808.5020, 31617.00
809.6410, 31627.00
810.7790, 31410.00
811.9180, 31378.00
813.0570, 31553.00
814.1950, 31712.00
815.3330, 31684.00
816.4710, 31844.00
817.6090, 31777.00
818.7470, 31690.00
819.8840, 31649.00
821.0220, 31920.00
822.1590, 31817.00
823.2960, 31924.00
824.4330, 31976.00
825.5690, 31890.00
826.7060, 32015.00
827.8420, 31976.00
828.9790, 32210.00
830.1150, 32055.00
831.2510, 32108.00
832.3860, 32341.00
833.5220, 32255.00
834.6570, 32255.00
835.7930, 32212.00
836.9280, 32224.00
838.0630, 32522.00
839.1980, 32599.00
840.3320, 32427.00
841.4670, 32663.00
842.6010, 32522.00
843.7350, 32596.00
844.8690, 32770.00
846.0030, 32534.00
847.1370, 32886.00
848.2700, 32535.00
849.4040, 32965.00
850.5370, 32772.00
851.6700, 32751.00
852.8030, 32779.00
853.9360, 32968.00
855.0680, 32753.00
856.2000, 32993.00
857.3330, 32969.00
858.4650, 33244.00
859.5970, 33021.00
860.7290, 33007.00
861.8600, 33256.00
862.9920, 33173.00
864.1230, 33467.00
865.2540, 33202.00
866.3850, 33316.00
867.5160, 33345.00
868.6460, 33463.00
869.7770, 33474.00
870.9070, 33439.00
872.0370, 33492.00
873.1670, 33574.00
874.2970, 33812.00
875.4270, 33725.00
876.5570, 34048.00
877.6860, 34060.00
878.8150, 34017.00
879.9440, 33901.00
881.0730, 33776.00
882.2020, 33991.00
883.3300, 34211.00
884.4590, 34302.00
885.5870, 34281.00
886.7150, 34273.00
887.8430, 33921.00
888.9710, 34106.00
890.0990, 34083.00
891.2260, 34162.00
892.3530, 34231.00
893.4810, 34040.00
894.6080, 34014.00
895.7340, 34208.00
896.8610, 34315.00
897.9880, 34105.00
899.1140, 34186.00
900.2400, 34340.00
901.3660, 34353.00
902.4920, 34421.00
903.6180, 34148.00
904.7430, 34229.00
905.8690, 34279.00
906.9940, 34417.00
908.1190, 34397.00
909.2440, 34497.00
910.3690, 34517.00
911.4930, 34339.00
912.6180, 34619.00
913.7420, 34697.00
914.8660, 34457.00
915.9900, 34661.00
917.1140, 34767.00
918.2380, 34975.00
919.3610, 35105.00
920.4850, 34687.00
921.6080, 34791.00
922.7310, 35148.00
923.8540, 34722.00
924.9760, 35293.00
926.0990, 35047.00
927.2210, 34898.00
928.3440, 35187.00
929.4660, 35493.00
930.5880, 35204.00
931.7090, 35504.00
932.8310, 35424.00
933.9520, 35337.00
935.0740, 35787.00
936.1950, 35244.00
937.3160, 35540.00
938.4360, 35466.00
939.5570, 35824.00
940.6780, 35753.00
941.7980, 35742.00
942.9180, 35594.00
944.0380, 35669.00
945.1580, 35858.00
946.2780, 35998.00
947.3970, 36179.00
948.5170, 36088.00
949.6360, 36107.00
950.7550, 36182.00
951.8740, 36087.00
952.9930, 36098.00
954.1110, 36214.28
955.2300, 36287.45
956.3480, 36521.00
957.4660, 36679.00
958.5840, 36954.00
959.7020, 37333.00
960.8190, 37440.00
961.9370, 37638.00
963.0540, 38085.00
964.1710, 38551.00
965.2880, 39157.00
966.4050, 39897.00
967.5220, 40558.60
968.6380, 41798.00
969.7550, 42067.00
970.8710, 42804.00
971.9870, 43510.00
973.1030, 43880.00
974.2190, 44635.00
975.3340, 45125.00
976.4500, 45617.00
977.5650, 45933.00
978.6800, 46546.00
979.7950, 46928.00
980.9100, 48248.00
982.0250, 49328.00
983.1390, 50201.00
984.2530, 51886.00
985.3680, 52798.00
986.4820, 53334.00
987.5950, 53679.00
988.7090, 53333.00
989.8230, 52770.00
990.9360, 51821.00
992.0490, 50479.00
993.1620, 49348.00
994.2750, 48366.00
995.3880, 47392.00
996.5010, 46565.00
997.6130, 45524.00
998.7250, 44851.00
999.8370, 43955.00
1000.949, 43392.00
1002.061, 42782.00
1003.173, 42296.00
1004.284, 41769.00
1005.396, 41519.00
1006.507, 41405.00
1007.618, 40925.00
1008.729, 40688.00
1009.839, 40983.00
1010.950, 40749.00
1012.060, 40586.00
1013.171, 40263.00
1014.281, 40389.00
1015.391, 39997.00
1016.500, 40403.00
1017.610, 39975.00
1018.719, 39988.00
1019.829, 40348.00
1020.938, 40010.00
1022.047, 39879.00
1023.156, 39934.00
1024.264, 40246.00
1025.373, 40243.00
1026.481, 40093.00
1027.589, 40230.00
1028.697, 40007.00
1029.805, 40067.12
1030.913, 40314.00
1032.020, 40103.00
1033.128, 40250.00
1034.235, 40301.00
1035.342, 40508.00
1036.449, 40477.00
1037.556, 40385.00
1038.663, 40556.00
1039.769, 40544.00
1040.875, 40566.00
1041.981, 40662.86
1043.087, 40641.98
1044.193, 40783.00
1045.299, 40765.00
1046.404, 40809.00
1047.510, 40885.66
1048.615, 40924.29
1049.720, 40960.00
1050.825, 41061.00
1051.930, 41010.00
1053.034, 41058.00
1054.139, 41233.00
1055.243, 41228.00
1056.347, 41169.00
1057.451, 41365.00
1058.555, 41367.00
1059.658, 41370.00
1060.762, 41612.00
1061.865, 41544.00
1062.968, 41351.00
1064.071, 41474.00
1065.174, 41825.00
1066.277, 42059.00
1067.380, 41610.00
1068.482, 41925.00
1069.584, 41672.00
1070.686, 42251.00
1071.788, 42242.00
1072.890, 42158.00
1073.992, 42496.00
1075.093, 42421.00
1076.194, 42690.00
1077.295, 42466.00
1078.396, 42910.00
1079.497, 42750.00
1080.598, 43322.00
1081.698, 43448.00
1082.799, 43389.00
1083.899, 43593.00
1084.999, 44063.00
1086.099, 43646.00
1087.199, 44034.00
1088.298, 43807.00
1089.398, 43861.00
1090.497, 44040.00
1091.596, 43916.00
1092.695, 43742.00
1093.794, 44060.00
1094.892, 43627.00
1095.991, 43411.00
1097.089, 43809.00
1098.187, 43589.00
1099.285, 43633.00
1100.383, 43732.00
1101.481, 43691.00
1102.579, 43702.00
1103.676, 43684.00
1104.773, 43584.00
1105.870, 43511.00
1106.967, 43486.00
1108.064, 43764.00
1109.161, 43638.00
1110.257, 43453.00
1111.353, 43793.00
1112.449, 43681.00
1113.545, 43912.00
1114.641, 43739.00
1115.737, 43555.00
1116.832, 43975.00
1117.928, 43974.00
1119.023, 44023.00
1120.118, 44179.00
1121.213, 44249.00
1122.308, 44427.00
1123.402, 44363.00
1124.497, 44280.00
1125.591, 44045.00
1126.685, 44264.00
1127.779, 44377.00
1128.873, 44122.00
1129.967, 44398.00
1131.060, 44338.00
1132.153, 44619.00
1133.247, 44723.00
1134.340, 44685.00
1135.433, 44583.00
1136.525, 44374.00
1137.618, 44611.00
1138.710, 44821.00
1139.802, 44743.00
1140.895, 45032.00
1141.987, 44762.00
1143.078, 44778.00
1144.170, 44742.00
1145.261, 44754.00
1146.353, 44821.50
1147.444, 44832.15
1148.535, 45002.00
1149.626, 45052.00
1150.716, 45179.00
1151.807, 45565.00
1152.897, 45213.00
1153.988, 45742.00
1155.078, 45369.00
1156.168, 45448.00
1157.257, 45699.00
1158.347, 45669.00
1159.436, 45536.00
1160.526, 45883.00
1161.615, 45553.00
1162.704, 45622.00
1163.793, 45686.00
1164.881, 45674.00
1165.970, 45742.00
1167.058, 45622.00
1168.147, 45916.00
1169.235, 45875.00
1170.323, 45727.00
1171.410, 45928.00
1172.498, 45843.00
1173.585, 46000.00
1174.673, 45855.00
1175.760, 46048.00
1176.847, 46241.00
1177.934, 46182.00
1179.020, 45999.00
1180.107, 46353.00
1181.193, 46219.00
1182.279, 46014.00
1183.365, 46189.00
1184.451, 46288.00
1185.537, 46321.00
1186.623, 46173.00
1187.708, 46261.00
1188.793, 46283.00
1189.878, 46554.00
1190.963, 46266.00
1192.048, 46385.00
1193.133, 46691.00
1194.217, 46353.00
1195.302, 46232.00
1196.386, 46566.00
1197.470, 46679.00
1198.554, 46406.00
1199.638, 46663.00
1200.721, 46644.00
1201.805, 46859.00
1202.888, 46921.26
1203.971, 46948.00
1205.054, 47053.00
1206.137, 46855.00
1207.219, 46893.00
1208.302, 46991.00
1209.384, 46998.00
1210.466, 47084.00
1211.548, 46919.00
1212.630, 47023.00
1213.712, 47100.00
1214.794, 47451.00
1215.875, 47340.00
1216.956, 47374.00
1218.037, 47611.00
1219.118, 47504.00
1220.199, 47599.00
1221.280, 47505.00
1222.360, 47540.00
1223.441, 47674.00
1224.521, 47603.00
1225.601, 47838.00
1226.681, 47820.00
1227.760, 47547.00
1228.840, 47937.00
1229.919, 47770.00
1230.999, 48052.00
1232.078, 47891.00
1233.157, 48259.00
1234.236, 48228.00
1235.314, 48113.00
1236.393, 47968.00
1237.471, 48158.00
1238.549, 48349.00
1239.627, 48429.00
1240.705, 48663.00
1241.783, 48475.00
1242.860, 48483.00
1243.938, 48391.00
1245.015, 48574.00
1246.092, 48302.00
1247.169, 48564.00
1248.246, 48632.00
1249.323, 48518.00
1250.399, 48670.00
1251.475, 48718.00
1252.552, 48818.00
1253.628, 48946.00
1254.703, 48920.00
1255.779, 49023.00
1256.855, 49137.00
1257.930, 48982.00
1259.005, 49207.00
1260.080, 49213.00
1261.155, 49321.00
1262.230, 49199.00
1263.305, 49310.42
1264.379, 49499.00
1265.454, 49390.00
1266.528, 49392.00
1267.602, 49337.00
1268.676, 49579.00
1269.750, 49610.00
1270.823, 49636.00
1271.897, 49742.93
1272.970, 49739.00
1274.043, 49796.00
1275.116, 49922.00
1276.189, 49879.00
1277.261, 49659.00
1278.334, 49863.86
1279.406, 49932.00
1280.478, 50028.00
1281.550, 50231.00
1282.622, 50182.00
1283.694, 50425.00
1284.766, 50176.00
1285.837, 50505.00
1286.908, 50311.00
1287.979, 50814.00
1289.050, 50457.00
1290.121, 50584.00
1291.192, 50694.00
1292.262, 50809.00
1293.333, 50601.00
1294.403, 50787.00
1295.473, 50716.00
1296.543, 51212.00
1297.613, 51226.00
1298.682, 51127.00
1299.752, 50803.00
1300.821, 51209.00
1301.890, 50938.00
1302.959, 51295.00
1304.028, 51549.00
1305.096, 51263.00
1306.165, 51714.00
1307.233, 51647.00
1308.301, 51582.00
1309.370, 51577.00
1310.437, 51635.00
1311.505, 51666.40
1312.573, 51702.82
1313.640, 51842.00
1314.708, 51838.00
1315.775, 51955.00
1316.842, 52126.00
1317.908, 52158.00
1318.975, 52164.00
1320.042, 52157.00
1321.108, 52298.77
1322.174, 52374.00
1323.240, 52594.00
1324.306, 52640.00
1325.372, 52788.24
1326.438, 52456.00
1327.503, 52823.00
1328.568, 52645.00
1329.634, 52548.00
1330.699, 53061.00
1331.763, 52915.00
1332.828, 52712.00
1333.893, 52811.00
1334.957, 53012.00
1336.021, 53168.00
1337.085, 52874.00
1338.149, 53148.00
1339.213, 52988.00
1340.277, 53241.00
1341.340, 53076.00
1342.404, 53244.00
1343.467, 53484.00
1344.530, 53300.00
1345.593, 53279.00
1346.655, 53379.00
1347.718, 53437.00
1348.780, 53574.00
1349.843, 53541.00
1350.905, 53404.00
1351.967, 53456.00
1353.028, 54016.00
1354.090, 53452.00
1355.152, 53757.00
1356.213, 53974.00
1357.274, 53584.00
1358.335, 53560.00
1359.396, 54102.00
1360.457, 53733.00
1361.517, 53887.00
1362.578, 53968.00
1363.638, 53886.00
1364.698, 54152.00
1365.758, 53909.00
1366.818, 53945.00
1367.878, 53986.00
1368.937, 53992.00
1369.997, 54148.00
1371.056, 54449.00
1372.115, 54052.00
1373.174, 54262.00
1374.232, 54723.00
1375.291, 54401.00
