##NAMES=Hauyne
##RRUFFID=R070557
##IDEAL CHEMISTRY=Na_3_Ca(Si_3_Al_3_)O_12_(S^6+^O_4_)
##LOCALITY=Badakhshan, Afghanistan
##OWNER=RRUFF
##SOURCE=Farooq Hashmi
##DESCRIPTION=Sky blue fragment
##STATUS=The identification of this mineral is confirmed by single-crystal X-ray diffraction and chemical analysis.
##URL=rruff.info/R070557
##MEASURED CHEMISTRY=Na_3.00_(Ca_0.84_Na_0.16_)_Σ=1_(Si_3.05_Al_2.95_)O_12_((SO_4_)_0.89_Cl_0.11_)_Σ=1_
##PIN_ID=M01358
##ORIENTATION=Laser parallel to a* (1 0 0). Fiducial mark perpendicular to laser is parallel to c [0 0 1]
211.2710, 13771.00
212.4940, 13838.00
213.7160, 13865.00
214.9370, 13815.00
216.1590, 13722.00
217.3810, 13785.00
218.6020, 13615.00
219.8230, 13801.00
221.0440, 13758.00
222.2650, 13844.00
223.4860, 13770.00
224.7060, 13747.00
225.9260, 14003.00
227.1470, 13754.00
228.3670, 13877.00
229.5860, 13824.00
230.8060, 13795.00
232.0260, 13785.00
233.2450, 13835.00
234.4640, 13721.00
235.6830, 13907.00
236.9020, 13997.00
238.1200, 14065.00
239.3390, 14000.00
240.5570, 14036.00
241.7750, 13999.00
242.9930, 14049.00
244.2110, 14083.74
245.4290, 14117.00
246.6460, 14178.00
247.8630, 14187.00
249.0810, 14211.00
250.2980, 14397.00
251.5140, 14320.00
252.7310, 14464.00
253.9470, 14309.00
255.1640, 14333.00
256.3800, 14407.00
257.5960, 14449.00
258.8120, 14455.00
260.0270, 14313.00
261.2430, 14374.00
262.4580, 14281.00
263.6730, 14282.00
264.8880, 14337.00
266.1030, 14268.00
267.3170, 14177.00
268.5320, 14047.00
269.7460, 14207.00
270.9600, 14272.00
272.1740, 14085.00
273.3880, 14116.00
274.6010, 14118.00
275.8150, 14103.00
277.0280, 14287.00
278.2410, 14146.00
279.4540, 14163.00
280.6670, 14035.00
281.8790, 14108.00
283.0920, 14237.00
284.3040, 14153.00
285.5160, 14203.00
286.7280, 14240.00
287.9400, 14180.00
289.1510, 14220.00
290.3630, 14033.00
291.5740, 14209.00
292.7850, 14277.00
293.9960, 14111.00
295.2070, 14105.00
296.4170, 14267.00
297.6280, 14182.00
298.8380, 14333.00
300.0480, 14190.00
301.2580, 14382.00
302.4680, 14088.00
303.6770, 14161.00
304.8870, 14099.00
306.0960, 14073.00
307.3050, 14193.00
308.5140, 14266.00
309.7230, 14196.00
310.9310, 14316.00
312.1400, 14326.00
313.3480, 14320.00
314.5560, 14332.00
315.7640, 14298.00
316.9720, 14383.00
318.1790, 14324.00
319.3870, 14381.78
320.5940, 14448.00
321.8010, 14455.00
323.0080, 14436.00
324.2150, 14450.00
325.4210, 14386.00
326.6280, 14510.00
327.8340, 14634.00
329.0400, 14527.00
330.2460, 14446.00
331.4510, 14576.00
332.6570, 14757.00
333.8620, 14509.00
335.0680, 14495.00
336.2730, 14539.00
337.4780, 14453.00
338.6820, 14648.00
339.8870, 14695.00
341.0910, 14818.00
342.2950, 14805.00
343.5000, 14817.00
344.7030, 14831.00
345.9070, 14838.00
347.1110, 14851.00
348.3140, 14900.00
349.5170, 14932.00
350.7200, 14959.45
351.9230, 15027.00
353.1260, 15011.00
354.3290, 15210.00
355.5310, 15230.00
356.7330, 15311.00
357.9350, 15057.00
359.1370, 15234.00
360.3390, 15261.00
361.5400, 15293.00
362.7420, 15551.00
363.9430, 15457.00
365.1440, 15608.00
366.3450, 15681.00
367.5460, 15713.00
368.7460, 15599.00
369.9470, 15641.00
371.1470, 15758.00
372.3470, 15668.00
373.5470, 15708.00
374.7460, 15770.46
375.9460, 15836.00
377.1450, 15866.00
378.3450, 15895.00
379.5440, 15884.00
380.7430, 15880.00
381.9410, 15895.54
383.1400, 15843.00
384.3380, 15901.00
385.5370, 16046.00
386.7350, 16037.00
387.9320, 16018.00
389.1300, 16113.00
390.3280, 16023.00
391.5250, 16060.00
392.7220, 16109.00
393.9190, 16113.00
395.1160, 16261.00
396.3130, 16244.00
397.5100, 16304.00
398.7060, 16548.00
399.9020, 16446.00
401.0980, 16561.00
402.2940, 16606.00
403.4900, 16734.00
404.6860, 16798.54
405.8810, 16797.00
407.0760, 16968.00
408.2710, 17043.00
409.4660, 17172.00
410.6610, 17360.00
411.8550, 17472.00
413.0500, 17675.00
414.2440, 17799.00
415.4380, 17971.00
416.6320, 18148.00
417.8260, 18395.00
419.0190, 18586.00
420.2130, 18807.00
421.4060, 18982.00
422.5990, 19167.00
423.7920, 19489.00
424.9850, 19713.00
426.1770, 19845.00
427.3700, 20439.00
428.5620, 20418.00
429.7540, 20849.00
430.9460, 21088.00
432.1380, 21492.00
433.3290, 21668.00
434.5210, 22029.00
435.7120, 22011.00
436.9030, 22215.00
438.0940, 22372.00
439.2850, 22427.00
440.4750, 22700.00
441.6660, 22579.00
442.8560, 22701.00
444.0460, 22770.00
445.2360, 22620.00
446.4260, 22587.00
447.6160, 22472.00
448.8050, 22475.00
449.9940, 22482.00
451.1830, 22340.00
452.3720, 22118.00
453.5610, 22094.00
454.7500, 22100.00
455.9380, 21826.00
457.1260, 21781.00
458.3150, 21684.00
459.5020, 21491.00
460.6900, 21369.00
461.8780, 21249.00
463.0650, 21084.00
464.2530, 20927.00
465.4400, 20648.00
466.6270, 20603.00
467.8130, 20386.00
469.0000, 20127.00
470.1870, 20155.00
471.3730, 19993.00
472.5590, 20086.00
473.7450, 20033.00
474.9310, 19929.00
476.1160, 19881.00
477.3020, 19797.00
478.4870, 19782.00
479.6720, 19646.00
480.8570, 19562.00
482.0420, 19520.00
483.2270, 19582.00
484.4110, 19373.00
485.5960, 19282.00
486.7800, 19164.00
487.9640, 18890.00
489.1480, 19091.00
490.3310, 18781.00
491.5150, 18909.00
492.6980, 18866.00
493.8810, 18588.00
495.0640, 18745.00
496.2470, 18665.00
497.4300, 18545.00
498.6120, 18693.00
499.7950, 18682.00
500.9770, 18565.00
502.1590, 18732.00
503.3410, 18662.00
504.5220, 18744.20
505.7040, 18634.00
506.8850, 18827.00
508.0660, 18813.00
509.2470, 18688.00
510.4280, 18712.00
511.6090, 18696.00
512.7890, 18594.00
513.9700, 18590.00
515.1500, 18711.00
516.3300, 18669.00
517.5100, 18774.00
518.6900, 18801.00
519.8690, 18946.00
521.0490, 18849.00
522.2280, 18967.00
523.4070, 18848.00
524.5860, 18982.00
525.7640, 19215.00
526.9430, 19401.00
528.1210, 19460.00
529.3000, 19725.80
530.4780, 19903.00
531.6560, 20221.00
532.8330, 20438.00
534.0110, 20833.00
535.1880, 21290.43
536.3650, 21788.00
537.5430, 22442.00
538.7190, 23100.00
539.8960, 23926.00
541.0730, 24332.00
542.2490, 24589.00
543.4250, 25069.00
544.6020, 25194.00
545.7780, 25047.00
546.9530, 24649.00
548.1290, 23829.00
549.3040, 23241.00
550.4800, 22763.00
551.6550, 21852.00
552.8300, 21315.00
554.0040, 21110.00
555.1790, 20541.00
556.3540, 20357.00
557.5280, 20172.00
558.7020, 19834.00
559.8760, 19987.00
561.0500, 19873.00
562.2230, 19665.00
563.3970, 19888.00
564.5700, 19751.00
565.7430, 19815.00
566.9160, 19888.00
568.0890, 19793.00
569.2620, 19726.00
570.4340, 19855.00
571.6070, 19936.00
572.7790, 20019.00
573.9510, 19873.00
575.1230, 20055.00
576.2940, 20030.00
577.4660, 20152.00
578.6370, 20132.00
579.8080, 20212.00
580.9790, 20112.00
582.1500, 20448.00
583.3210, 20393.00
584.4910, 20397.00
585.6620, 20301.00
586.8320, 20346.00
588.0020, 20308.00
589.1720, 20407.00
590.3410, 20317.00
591.5110, 20248.00
592.6800, 20328.00
593.8500, 20229.00
595.0190, 20331.00
596.1880, 20194.00
597.3560, 20326.00
598.5250, 20401.00
599.6930, 20512.00
600.8620, 20612.00
602.0300, 20452.00
603.1970, 20585.00
604.3650, 20777.00
605.5330, 20817.00
606.7000, 21076.00
607.8680, 20930.00
609.0350, 21058.00
610.2020, 21215.00
611.3680, 21095.00
612.5350, 21258.00
613.7010, 21341.00
614.8680, 21248.00
616.0340, 21204.00
617.2000, 21342.00
618.3660, 21241.00
619.5310, 21433.00
620.6970, 21485.00
621.8620, 21498.00
623.0270, 21333.00
624.1920, 21425.00
625.3570, 21392.00
626.5220, 21619.00
627.6860, 21331.00
628.8500, 21255.00
630.0140, 21393.00
631.1780, 21597.00
632.3420, 21535.00
633.5060, 21708.00
634.6700, 21568.00
635.8330, 21715.00
636.9960, 22014.00
638.1590, 22101.00
639.3220, 21974.00
640.4850, 22136.00
641.6470, 21911.00
642.8100, 21876.00
643.9720, 21945.00
645.1340, 21839.00
646.2960, 21980.00
647.4570, 21771.00
648.6190, 21695.00
649.7800, 21700.00
650.9420, 21670.00
652.1030, 21724.00
653.2640, 21617.00
654.4240, 21623.00
655.5850, 21682.00
656.7450, 21767.00
657.9060, 21632.00
659.0660, 21610.00
660.2260, 21684.00
661.3850, 21750.00
662.5450, 21740.00
663.7040, 21693.00
664.8640, 21859.00
666.0230, 21600.00
667.1820, 21830.00
668.3410, 21735.00
669.4990, 21826.00
670.6580, 22007.00
671.8160, 21762.00
672.9740, 21954.00
674.1320, 22066.00
675.2900, 22131.00
676.4480, 22030.00
677.6050, 22082.00
678.7630, 21992.00
679.9200, 22068.00
681.0770, 22262.00
682.2340, 22331.00
683.3900, 22337.17
684.5470, 22211.00
685.7030, 22309.00
686.8590, 22337.00
688.0150, 22372.00
689.1710, 22353.00
690.3270, 22396.00
691.4830, 22407.58
692.6380, 22430.78
693.7930, 22449.00
694.9480, 22540.00
696.1030, 22568.00
697.2580, 22729.00
698.4130, 22604.00
699.5670, 22643.00
700.7210, 22784.00
701.8750, 22675.00
703.0290, 22691.00
704.1830, 22672.00
705.3370, 22839.00
706.4900, 22880.00
707.6430, 22746.00
708.7970, 22967.00
709.9490, 22925.00
711.1020, 23170.00
712.2550, 23236.00
713.4070, 23120.00
714.5600, 23078.00
715.7120, 23049.00
716.8640, 23216.00
718.0160, 23172.00
719.1670, 23337.00
720.3190, 23289.00
721.4700, 23355.00
722.6210, 23302.00
723.7720, 23408.00
724.9230, 23376.00
726.0740, 23373.00
727.2250, 23608.00
728.3750, 23545.00
729.5250, 23628.00
730.6750, 23739.00
731.8250, 23576.00
732.9750, 23478.00
734.1240, 23838.00
735.2740, 23740.00
736.4230, 23781.00
737.5720, 23955.00
738.7210, 23792.00
739.8700, 23950.00
741.0190, 23912.00
742.1670, 23720.00
743.3150, 23898.00
744.4630, 24150.00
745.6110, 24119.00
746.7590, 24106.00
747.9070, 24012.00
749.0540, 24091.00
750.2020, 24127.00
751.3490, 24234.00
752.4960, 24194.00
753.6430, 24218.00
754.7890, 24317.00
755.9360, 24243.00
757.0820, 24301.00
758.2280, 24182.00
759.3740, 24503.00
760.5200, 24525.00
761.6660, 24538.00
762.8120, 24528.00
763.9570, 24420.00
765.1020, 24643.00
766.2470, 24657.00
767.3920, 24645.00
768.5370, 24534.00
769.6810, 24677.00
770.8260, 24750.00
771.9700, 24580.00
773.1140, 24719.00
774.2580, 24908.00
775.4020, 24827.00
776.5460, 25165.00
777.6890, 24807.00
778.8320, 25060.00
779.9750, 24992.00
781.1180, 25001.00
782.2610, 24970.00
783.4040, 25193.00
784.5460, 25232.00
785.6890, 25388.00
786.8310, 25234.00
787.9730, 25116.00
789.1150, 25381.00
790.2560, 25273.00
791.3980, 25261.00
792.5390, 25655.00
793.6810, 25354.00
794.8220, 25483.00
795.9630, 25711.00
797.1030, 25507.00
798.2440, 25682.00
799.3840, 25623.00
800.5240, 25682.00
801.6650, 25669.00
802.8040, 25764.00
803.9440, 25799.00
805.0840, 25882.00
806.2230, 26064.00
807.3630, 25887.00
808.5020, 26091.00
809.6410, 25910.00
810.7790, 26037.00
811.9180, 25921.00
813.0570, 26125.00
814.1950, 26003.00
815.3330, 26218.00
816.4710, 26130.00
817.6090, 26081.00
818.7470, 26258.00
819.8840, 26230.00
821.0220, 26158.00
822.1590, 26160.00
823.2960, 26223.05
824.4330, 26226.72
825.5690, 26422.00
826.7060, 26364.00
827.8420, 26479.00
828.9790, 26628.00
830.1150, 26610.00
831.2510, 26473.00
832.3860, 26739.00
833.5220, 26653.00
834.6570, 26568.00
835.7930, 26689.00
836.9280, 26658.00
838.0630, 26683.00
839.1980, 26742.00
840.3320, 26810.00
841.4670, 26935.00
842.6010, 26983.00
843.7350, 26935.00
844.8690, 26867.00
846.0030, 26885.00
847.1370, 27125.00
848.2700, 27184.00
849.4040, 27004.00
850.5370, 27230.00
851.6700, 27229.00
852.8030, 27056.00
853.9360, 27255.00
855.0680, 27061.00
856.2000, 27030.00
857.3330, 27373.00
858.4650, 27394.00
859.5970, 27241.00
860.7290, 27473.00
861.8600, 27479.00
862.9920, 27815.00
864.1230, 27491.00
865.2540, 27503.00
866.3850, 27585.00
867.5160, 27727.00
868.6460, 27798.00
869.7770, 27682.00
870.9070, 27938.00
872.0370, 27810.00
873.1670, 27987.00
874.2970, 28004.00
875.4270, 28081.00
876.5570, 27969.00
877.6860, 27961.00
878.8150, 28090.00
879.9440, 28026.00
881.0730, 28135.00
882.2020, 28015.00
883.3300, 28205.00
884.4590, 28264.00
885.5870, 28297.00
886.7150, 28238.00
887.8430, 28011.00
888.9710, 28159.00
890.0990, 28113.00
891.2260, 28323.00
892.3530, 28342.00
893.4810, 28278.00
894.6080, 28136.00
895.7340, 28478.00
896.8610, 28228.00
897.9880, 28496.00
899.1140, 28402.00
900.2400, 28325.00
901.3660, 28413.00
902.4920, 28489.00
903.6180, 28415.00
904.7430, 28478.00
905.8690, 28642.00
906.9940, 28696.00
908.1190, 28549.00
909.2440, 28758.00
910.3690, 28701.00
911.4930, 28717.00
912.6180, 28811.00
913.7420, 28620.00
914.8660, 28859.00
915.9900, 29081.00
917.1140, 29025.00
918.2380, 28864.00
919.3610, 29022.00
920.4850, 28965.00
921.6080, 29046.00
922.7310, 29109.00
923.8540, 28911.00
924.9760, 29267.00
926.0990, 29188.00
927.2210, 29013.00
928.3440, 29293.00
929.4660, 29156.00
930.5880, 29386.00
931.7090, 29311.00
932.8310, 29348.00
933.9520, 29271.00
935.0740, 29442.00
936.1950, 29511.00
937.3160, 29571.00
938.4360, 29731.00
939.5570, 29645.00
940.6780, 29648.00
941.7980, 29692.00
942.9180, 29699.10
944.0380, 29738.68
945.1580, 29795.00
946.2780, 29864.00
947.3970, 29894.00
948.5170, 30057.00
949.6360, 30093.04
950.7550, 30313.00
951.8740, 30282.00
952.9930, 30375.00
954.1110, 30563.00
955.2300, 30632.00
956.3480, 30837.00
957.4660, 31110.00
958.5840, 31006.00
959.7020, 31371.00
960.8190, 31781.00
961.9370, 31788.00
963.0540, 32414.00
964.1710, 33013.00
965.2880, 33350.00
966.4050, 34099.00
967.5220, 34861.00
968.6380, 35921.00
969.7550, 36663.00
970.8710, 37491.00
971.9870, 38235.00
973.1030, 38723.00
974.2190, 39349.00
975.3340, 40039.00
976.4500, 40406.00
977.5650, 40734.00
978.6800, 41442.00
979.7950, 42290.00
980.9100, 43370.00
982.0250, 44460.00
983.1390, 45567.00
984.2530, 46795.00
985.3680, 48110.00
986.4820, 49169.00
987.5950, 49748.00
988.7090, 49531.00
989.8230, 49040.00
990.9360, 48125.00
992.0490, 46871.00
993.1620, 45367.00
994.2750, 44113.00
995.3880, 43048.00
996.5010, 41657.00
997.6130, 40671.00
998.7250, 39847.00
999.8370, 39110.00
1000.949, 38108.00
1002.061, 37278.00
1003.173, 36850.00
1004.284, 36319.00
1005.396, 35964.00
1006.507, 35787.00
1007.618, 35369.00
1008.729, 35258.00
1009.839, 34933.00
1010.950, 35087.00
1012.060, 34584.00
1013.171, 34924.00
1014.281, 34480.00
1015.391, 34586.00
1016.500, 34694.00
1017.610, 34561.00
1018.719, 34347.00
1019.829, 34266.00
1020.938, 34263.00
1022.047, 34163.00
1023.156, 34260.00
1024.264, 34141.65
1025.373, 33799.00
1026.481, 34027.00
1027.589, 33945.00
1028.697, 33985.00
1029.805, 34095.00
1030.913, 34415.00
1032.020, 34271.00
1033.128, 34217.00
1034.235, 34500.00
1035.342, 34136.00
1036.449, 34118.00
1037.556, 34277.00
1038.663, 34397.00
1039.769, 34267.00
1040.875, 34432.00
1041.981, 34423.00
1043.087, 34606.00
1044.193, 34615.00
1045.299, 34409.00
1046.404, 34538.00
1047.510, 34885.00
1048.615, 35015.00
1049.720, 34771.00
1050.825, 34917.00
1051.930, 34829.00
1053.034, 34969.00
1054.139, 34697.00
1055.243, 35013.00
1056.347, 34645.00
1057.451, 34865.00
1058.555, 34754.00
1059.658, 35098.00
1060.762, 34691.00
1061.865, 35304.00
1062.968, 35139.00
1064.071, 35301.00
1065.174, 35547.00
1066.277, 35406.00
1067.380, 35366.00
1068.482, 35735.00
1069.584, 35734.00
1070.686, 35859.44
1071.788, 35529.00
1072.890, 35956.00
1073.992, 36023.00
1075.093, 35873.00
1076.194, 36233.00
1077.295, 36106.00
1078.396, 36602.00
1079.497, 36617.00
1080.598, 36797.00
1081.698, 36708.00
1082.799, 36885.00
1083.899, 37082.00
1084.999, 37269.00
1086.099, 37385.00
1087.199, 37615.00
1088.298, 37453.00
1089.398, 37377.00
1090.497, 37481.00
1091.596, 37433.00
1092.695, 37515.00
1093.794, 37434.00
1094.892, 37345.00
1095.991, 37286.00
1097.089, 37215.23
1098.187, 37277.00
1099.285, 37141.00
1100.383, 37224.00
1101.481, 37297.00
1102.579, 37047.00
1103.676, 36892.00
1104.773, 37055.00
1105.870, 37029.00
1106.967, 37113.00
1108.064, 37029.00
1109.161, 36999.00
1110.257, 37172.00
1111.353, 37232.00
1112.449, 37549.00
1113.545, 37203.00
1114.641, 37166.00
1115.737, 37340.00
1116.832, 37553.00
1117.928, 37442.00
1119.023, 37568.00
1120.118, 37442.00
1121.213, 37467.00
1122.308, 37682.00
1123.402, 37691.00
1124.497, 37602.00
1125.591, 37770.00
1126.685, 37867.00
1127.779, 37776.00
1128.873, 37518.00
1129.967, 37702.00
1131.060, 37674.00
1132.153, 37971.00
1133.247, 37717.00
1134.340, 37750.00
1135.433, 38058.00
1136.525, 37978.00
1137.618, 38106.00
1138.710, 38021.00
1139.802, 38129.00
1140.895, 38009.00
1141.987, 38041.00
1143.078, 38088.00
1144.170, 38092.00
1145.261, 38152.67
1146.353, 38372.00
1147.444, 38195.00
1148.535, 38398.00
1149.626, 38302.00
1150.716, 38383.00
1151.807, 38546.00
1152.897, 38483.00
1153.988, 38882.00
1155.078, 38717.00
1156.168, 38872.00
1157.257, 39225.00
1158.347, 38851.00
1159.436, 39059.00
1160.526, 38777.00
1161.615, 38986.00
1162.704, 38988.00
1163.793, 38826.00
1164.881, 39301.00
1165.970, 39229.00
1167.058, 39151.00
1168.147, 39227.00
1169.235, 39137.00
1170.323, 39455.00
1171.410, 39291.00
1172.498, 39429.00
1173.585, 39181.00
1174.673, 39675.00
1175.760, 39455.00
1176.847, 39359.00
1177.934, 39465.00
1179.020, 39351.00
1180.107, 39388.00
1181.193, 39593.00
1182.279, 39226.00
1183.365, 39556.00
1184.451, 39431.00
1185.537, 39374.00
1186.623, 39740.00
1187.708, 39453.00
1188.793, 39845.00
1189.878, 39628.00
1190.963, 39670.00
1192.048, 39445.00
1193.133, 39626.00
1194.217, 39649.00
1195.302, 39655.00
1196.386, 39777.00
1197.470, 39727.58
1198.554, 39818.00
1199.638, 39717.00
1200.721, 39851.00
1201.805, 39918.00
1202.888, 39854.00
1203.971, 40195.00
1205.054, 39822.00
1206.137, 40065.00
1207.219, 40098.00
1208.302, 39993.00
1209.384, 40104.00
1210.466, 40324.00
1211.548, 40284.00
1212.630, 40605.00
1213.712, 40361.00
1214.794, 40786.00
1215.875, 40572.00
1216.956, 40277.00
1218.037, 40600.00
1219.118, 40748.00
1220.199, 40517.00
1221.280, 40445.00
1222.360, 40668.00
1223.441, 40858.00
1224.521, 40961.00
1225.601, 41049.30
1226.681, 41119.11
1227.760, 41114.00
1228.840, 41125.00
1229.919, 41156.00
1230.999, 41038.00
1232.078, 41097.00
1233.157, 40987.00
1234.236, 41020.32
1235.314, 41181.00
1236.393, 41116.00
1237.471, 41344.00
1238.549, 41500.00
1239.627, 41230.00
1240.705, 41162.00
1241.783, 41302.00
1242.860, 41232.00
1243.938, 41474.00
1245.015, 41428.00
1246.092, 41507.00
1247.169, 41529.00
1248.246, 41533.00
1249.323, 41586.00
1250.399, 41870.00
1251.475, 41683.00
1252.552, 41607.00
1253.628, 42149.00
1254.703, 42067.00
1255.779, 41846.00
1256.855, 42078.00
1257.930, 42226.00
1259.005, 41938.00
1260.080, 42106.00
1261.155, 42289.00
1262.230, 42532.00
1263.305, 42316.00
1264.379, 42062.00
1265.454, 42588.00
1266.528, 42477.00
1267.602, 42590.00
1268.676, 42457.00
1269.750, 42675.00
1270.823, 42334.00
1271.897, 42875.00
1272.970, 42766.00
1274.043, 42811.00
1275.116, 43108.00
1276.189, 42988.00
1277.261, 42971.00
1278.334, 43130.00
1279.406, 43239.00
1280.478, 43225.00
1281.550, 43202.00
1282.622, 43379.00
1283.694, 43252.00
1284.766, 43392.00
1285.837, 43234.00
1286.908, 43366.00
1287.979, 43708.00
1289.050, 43498.00
1290.121, 43492.00
1291.192, 43651.00
1292.262, 43390.00
1293.333, 43856.00
1294.403, 43762.00
1295.473, 43960.00
1296.543, 43790.00
1297.613, 43887.00
1298.682, 43797.00
1299.752, 44050.00
1300.821, 44161.00
1301.890, 43987.00
1302.959, 44050.00
1304.028, 44187.00
1305.096, 44358.00
1306.165, 44391.00
1307.233, 44583.01
1308.301, 44524.00
1309.370, 44765.00
1310.437, 44789.00
1311.505, 44595.00
1312.573, 44533.00
1313.640, 44508.00
1314.708, 44890.00
1315.775, 44408.00
1316.842, 44995.00
1317.908, 44786.00
1318.975, 44873.00
1320.042, 44916.00
1321.108, 45060.00
1322.174, 45075.00
1323.240, 45306.00
1324.306, 45210.00
1325.372, 45411.00
1326.438, 45189.00
1327.503, 45388.00
1328.568, 45381.00
1329.634, 45388.00
1330.699, 45560.00
1331.763, 45686.00
1332.828, 45811.00
1333.893, 45641.00
1334.957, 45637.00
1336.021, 45694.00
1337.085, 45874.00
1338.149, 45599.00
1339.213, 46010.00
1340.277, 45775.00
1341.340, 45721.00
1342.404, 46125.00
1343.467, 46233.00
1344.530, 45778.00
1345.593, 46271.00
1346.655, 46137.00
1347.718, 46314.00
1348.780, 46469.00
1349.843, 46212.00
1350.905, 46281.00
1351.967, 46333.00
1353.028, 46397.00
1354.090, 46402.09
1355.152, 46496.00
1356.213, 46443.00
1357.274, 46407.00
1358.335, 46521.00
1359.396, 46361.00
1360.457, 46312.00
1361.517, 46684.00
1362.578, 46623.00
1363.638, 46824.00
1364.698, 46800.00
1365.758, 46842.00
1366.818, 46886.00
1367.878, 46850.00
1368.937, 46742.00
1369.997, 46815.00
1371.056, 47151.00
1372.115, 47049.00
1373.174, 47070.00
1374.232, 46897.00
1375.291, 47182.00
