##NAMES=Hauyne
##RRUFFID=R070557
##IDEAL CHEMISTRY=Na_3_Ca(Si_3_Al_3_)O_12_(S^6+^O_4_)
##LOCALITY=Badakhshan, Afghanistan
##OWNER=RRUFF
##SOURCE=Farooq Hashmi
##DESCRIPTION=Sky blue fragment
##STATUS=The identification of this mineral is confirmed by single-crystal X-ray diffraction and chemical analysis.
##URL=rruff.info/R070557
##MEASURED CHEMISTRY=Na_3.00_(Ca_0.84_Na_0.16_)_Σ=1_(Si_3.05_Al_2.95_)O_12_((SO_4_)_0.89_Cl_0.11_)_Σ=1_
##PIN_ID=M01358
##ORIENTATION=Laser parallel to a* (1 0 0). Fiducial mark perpendicular to laser is parallel to c [0 0 1]
211.2710, 15296.00
212.4940, 15289.00
213.7160, 15199.00
214.9370, 15153.00
216.1590, 15184.00
217.3810, 15222.00
218.6020, 14996.00
219.8230, 15192.00
221.0440, 15122.00
222.2650, 15153.00
223.4860, 15262.00
224.7060, 15246.00
225.9260, 15332.00
227.1470, 15245.00
228.3670, 15215.00
229.5860, 15337.00
230.8060, 15316.00
232.0260, 15272.00
233.2450, 15341.00
234.4640, 15277.00
235.6830, 15377.00
236.9020, 15472.00
238.1200, 15534.00
239.3390, 15391.00
240.5570, 15459.00
241.7750, 15493.00
242.9930, 15506.00
244.2110, 15572.00
245.4290, 15676.00
246.6460, 15595.00
247.8630, 15725.00
249.0810, 15786.00
250.2980, 15779.00
251.5140, 15828.00
252.7310, 15868.00
253.9470, 15919.00
255.1640, 15754.00
256.3800, 15940.00
257.5960, 15802.00
258.8120, 15930.00
260.0270, 15824.00
261.2430, 15824.00
262.4580, 15851.00
263.6730, 15775.00
264.8880, 15813.00
266.1030, 15694.00
267.3170, 15698.00
268.5320, 15758.00
269.7460, 15671.00
270.9600, 15623.00
272.1740, 15730.00
273.3880, 15618.00
274.6010, 15728.00
275.8150, 15718.18
277.0280, 15721.00
278.2410, 15703.00
279.4540, 15700.12
280.6670, 15682.00
281.8790, 15685.00
283.0920, 15689.00
284.3040, 15680.29
285.5160, 15803.00
286.7280, 15758.00
287.9400, 15667.00
289.1510, 15775.00
290.3630, 15820.00
291.5740, 15820.00
292.7850, 15655.00
293.9960, 15907.00
295.2070, 15782.00
296.4170, 15794.00
297.6280, 15866.00
298.8380, 15811.00
300.0480, 15750.00
301.2580, 15917.00
302.4680, 15911.00
303.6770, 15753.00
304.8870, 16068.00
306.0960, 15989.00
307.3050, 16033.00
308.5140, 15889.00
309.7230, 15897.00
310.9310, 15948.00
312.1400, 15942.09
313.3480, 15993.00
314.5560, 16107.00
315.7640, 16092.00
316.9720, 16269.00
318.1790, 16172.00
319.3870, 16066.00
320.5940, 16023.00
321.8010, 16221.00
323.0080, 16153.00
324.2150, 16241.00
325.4210, 16268.00
326.6280, 16251.00
327.8340, 16314.00
329.0400, 16273.00
330.2460, 16338.00
331.4510, 16476.00
332.6570, 16240.00
333.8620, 16455.00
335.0680, 16373.00
336.2730, 16378.00
337.4780, 16484.00
338.6820, 16516.00
339.8870, 16534.00
341.0910, 16642.00
342.2950, 16574.00
343.5000, 16672.00
344.7030, 16683.00
345.9070, 16564.00
347.1110, 16858.00
348.3140, 16605.00
349.5170, 16882.00
350.7200, 16632.00
351.9230, 16877.00
353.1260, 17064.00
354.3290, 16865.00
355.5310, 16959.00
356.7330, 17234.00
357.9350, 16997.00
359.1370, 17115.00
360.3390, 17187.00
361.5400, 17145.00
362.7420, 17272.00
363.9430, 17245.00
365.1440, 17297.00
366.3450, 17337.00
367.5460, 17360.29
368.7460, 17406.00
369.9470, 17442.00
371.1470, 17568.00
372.3470, 17613.00
373.5470, 17696.00
374.7460, 17606.00
375.9460, 17871.00
377.1450, 17693.00
378.3450, 17758.00
379.5440, 17709.00
380.7430, 17922.00
381.9410, 17775.00
383.1400, 17879.00
384.3380, 17743.00
385.5370, 17879.00
386.7350, 18021.00
387.9320, 17881.00
389.1300, 17789.00
390.3280, 17981.00
391.5250, 18064.00
392.7220, 18105.00
393.9190, 18122.00
395.1160, 18363.00
396.3130, 18173.00
397.5100, 18254.00
398.7060, 18420.00
399.9020, 18354.00
401.0980, 18492.00
402.2940, 18596.00
403.4900, 18418.00
404.6860, 18581.00
405.8810, 18830.00
407.0760, 18831.00
408.2710, 18945.00
409.4660, 18939.00
410.6610, 19188.00
411.8550, 19426.00
413.0500, 19431.00
414.2440, 19670.00
415.4380, 19730.00
416.6320, 19994.00
417.8260, 20204.00
419.0190, 20175.00
420.2130, 20332.00
421.4060, 20752.00
422.5990, 20898.00
423.7920, 21100.00
424.9850, 21352.00
426.1770, 21705.00
427.3700, 21973.00
428.5620, 22293.00
429.7540, 22410.00
430.9460, 22708.00
432.1380, 23221.00
433.3290, 23859.00
434.5210, 24090.00
435.7120, 23916.00
436.9030, 23752.00
438.0940, 23989.00
439.2850, 23878.00
440.4750, 23869.00
441.6660, 23908.00
442.8560, 24023.00
444.0460, 24139.00
445.2360, 24026.00
446.4260, 24028.00
447.6160, 24067.00
448.8050, 23950.00
449.9940, 23966.00
451.1830, 23896.28
452.3720, 23787.00
453.5610, 23704.00
454.7500, 23626.00
455.9380, 23402.00
457.1260, 23351.00
458.3150, 23019.00
459.5020, 23152.00
460.6900, 22951.00
461.8780, 23009.00
463.0650, 22499.00
464.2530, 22581.00
465.4400, 22322.00
466.6270, 22318.00
467.8130, 22263.00
469.0000, 21802.00
470.1870, 21980.00
471.3730, 21916.00
472.5590, 21651.00
473.7450, 21651.00
474.9310, 21653.00
476.1160, 21642.00
477.3020, 21518.00
478.4870, 21596.00
479.6720, 21463.58
480.8570, 21438.00
482.0420, 21290.00
483.2270, 21320.00
484.4110, 21285.00
485.5960, 21284.00
486.7800, 21177.00
487.9640, 21163.48
489.1480, 21027.00
490.3310, 21068.00
491.5150, 21038.00
492.6980, 20971.00
493.8810, 20805.00
495.0640, 20683.00
496.2470, 20723.00
497.4300, 20955.00
498.6120, 20892.00
499.7950, 20863.00
500.9770, 20681.00
502.1590, 20787.00
503.3410, 20890.00
504.5220, 20921.00
505.7040, 20919.00
506.8850, 20838.00
508.0660, 20916.00
509.2470, 20936.00
510.4280, 20843.00
511.6090, 21263.00
512.7890, 21047.00
513.9700, 20896.00
515.1500, 21094.00
516.3300, 20921.00
517.5100, 20935.00
518.6900, 21137.00
519.8690, 20979.00
521.0490, 20990.00
522.2280, 21302.00
523.4070, 21436.00
524.5860, 21493.00
525.7640, 21650.00
526.9430, 21705.00
528.1210, 21781.00
529.3000, 21886.00
530.4780, 22166.00
531.6560, 22517.00
532.8330, 22839.00
534.0110, 23238.00
535.1880, 23526.00
536.3650, 24064.00
537.5430, 24416.00
538.7190, 25126.00
539.8960, 25656.00
541.0730, 26162.00
542.2490, 26406.00
543.4250, 26987.00
544.6020, 26836.00
545.7780, 26737.00
546.9530, 26336.00
548.1290, 25801.00
549.3040, 25264.00
550.4800, 24761.71
551.6550, 23930.00
552.8300, 23721.00
554.0040, 23249.00
555.1790, 22834.00
556.3540, 22742.00
557.5280, 22417.00
558.7020, 22329.00
559.8760, 22367.00
561.0500, 22456.00
562.2230, 22296.00
563.3970, 22200.00
564.5700, 22376.00
565.7430, 22320.00
566.9160, 22366.00
568.0890, 22321.00
569.2620, 22383.00
570.4340, 22329.00
571.6070, 22220.00
572.7790, 22362.00
573.9510, 22541.00
575.1230, 22692.00
576.2940, 22518.00
577.4660, 22619.00
578.6370, 22665.00
579.8080, 22984.00
580.9790, 22793.00
582.1500, 22995.00
583.3210, 23118.00
584.4910, 22914.00
585.6620, 23107.00
586.8320, 22903.00
588.0020, 22993.00
589.1720, 22900.00
590.3410, 22922.00
591.5110, 22872.00
592.6800, 22880.25
593.8500, 22984.00
595.0190, 22976.00
596.1880, 23090.00
597.3560, 23273.00
598.5250, 23171.00
599.6930, 23316.00
600.8620, 23358.00
602.0300, 23397.00
603.1970, 23510.00
604.3650, 23714.00
605.5330, 23959.00
606.7000, 24060.00
607.8680, 24089.00
609.0350, 24288.00
610.2020, 24149.00
611.3680, 24389.00
612.5350, 24343.00
613.7010, 24551.00
614.8680, 24431.00
616.0340, 24336.00
617.2000, 24286.00
618.3660, 24372.00
619.5310, 24473.00
620.6970, 24450.00
621.8620, 24440.00
623.0270, 24369.00
624.1920, 24339.36
625.3570, 24333.00
626.5220, 24227.00
627.6860, 24190.00
628.8500, 24110.00
630.0140, 24209.00
631.1780, 24131.00
632.3420, 24318.00
633.5060, 24384.00
634.6700, 24221.00
635.8330, 24362.00
636.9960, 24357.00
638.1590, 24575.00
639.3220, 24386.00
640.4850, 24289.00
641.6470, 24443.00
642.8100, 24498.00
643.9720, 24354.00
645.1340, 24358.00
646.2960, 24523.00
647.4570, 24487.00
648.6190, 24393.00
649.7800, 24290.00
650.9420, 24432.00
652.1030, 24487.00
653.2640, 24352.00
654.4240, 24420.00
655.5850, 24523.00
656.7450, 24548.00
657.9060, 24520.00
659.0660, 24482.00
660.2260, 24681.00
661.3850, 24616.00
662.5450, 24651.00
663.7040, 24689.00
664.8640, 24715.00
666.0230, 24918.00
667.1820, 24758.00
668.3410, 24758.00
669.4990, 24748.00
670.6580, 24924.00
671.8160, 24840.00
672.9740, 25044.00
674.1320, 25086.00
675.2900, 25033.00
676.4480, 25108.00
677.6050, 25080.00
678.7630, 25108.00
679.9200, 24987.00
681.0770, 25080.90
682.2340, 25201.00
683.3900, 25221.00
684.5470, 25354.00
685.7030, 25448.00
686.8590, 25288.00
688.0150, 25463.00
689.1710, 25379.00
690.3270, 25401.00
691.4830, 25545.00
692.6380, 25575.00
693.7930, 25395.00
694.9480, 25665.00
696.1030, 25440.00
697.2580, 25770.00
698.4130, 25658.00
699.5670, 25857.00
700.7210, 25827.00
701.8750, 25841.00
703.0290, 25615.00
704.1830, 25657.07
705.3370, 25723.78
706.4900, 25691.00
707.6430, 25974.00
708.7970, 26212.00
709.9490, 26356.00
711.1020, 26244.00
712.2550, 26224.00
713.4070, 26347.00
714.5600, 26357.00
715.7120, 26469.00
716.8640, 26563.00
718.0160, 26442.00
719.1670, 26590.00
720.3190, 26441.00
721.4700, 26702.00
722.6210, 26444.00
723.7720, 26693.00
724.9230, 26809.00
726.0740, 26651.00
727.2250, 26769.00
728.3750, 26844.00
729.5250, 26796.00
730.6750, 27027.00
731.8250, 27075.00
732.9750, 27091.00
734.1240, 27076.00
735.2740, 26854.00
736.4230, 26983.00
737.5720, 27095.00
738.7210, 27017.00
739.8700, 27282.00
741.0190, 27201.00
742.1670, 27299.00
743.3150, 27382.00
744.4630, 27468.00
745.6110, 27470.94
746.7590, 27602.00
747.9070, 27458.00
749.0540, 27468.00
750.2020, 27483.00
751.3490, 27562.00
752.4960, 27533.00
753.6430, 27595.52
754.7890, 27574.00
755.9360, 27651.00
757.0820, 27640.00
758.2280, 27603.00
759.3740, 27969.00
760.5200, 27946.00
761.6660, 27841.00
762.8120, 27669.00
763.9570, 27781.00
765.1020, 28088.00
766.2470, 27790.00
767.3920, 28226.00
768.5370, 27994.00
769.6810, 28156.00
770.8260, 28146.00
771.9700, 28238.00
773.1140, 28368.00
774.2580, 28406.00
775.4020, 28143.00
776.5460, 28440.00
777.6890, 28260.00
778.8320, 28530.00
779.9750, 28635.00
781.1180, 28573.00
782.2610, 28757.00
783.4040, 28624.00
784.5460, 28755.00
785.6890, 28916.00
786.8310, 28800.00
787.9730, 28974.00
789.1150, 29020.00
790.2560, 29060.00
791.3980, 29304.00
792.5390, 28990.00
793.6810, 29277.00
794.8220, 29116.00
795.9630, 29411.00
797.1030, 29284.00
798.2440, 29446.00
799.3840, 29272.00
800.5240, 29592.00
801.6650, 29537.00
802.8040, 29390.00
803.9440, 29495.00
805.0840, 29480.48
806.2230, 29778.00
807.3630, 29574.00
808.5020, 29695.00
809.6410, 29669.00
810.7790, 29998.00
811.9180, 29622.00
813.0570, 29916.00
814.1950, 29901.00
815.3330, 29896.00
816.4710, 29930.00
817.6090, 29947.89
818.7470, 29890.00
819.8840, 30032.00
821.0220, 30118.00
822.1590, 30179.00
823.2960, 30362.00
824.4330, 30478.00
825.5690, 30481.89
826.7060, 30442.00
827.8420, 30470.00
828.9790, 30337.00
830.1150, 30307.00
831.2510, 30496.00
832.3860, 30358.00
833.5220, 30465.71
834.6570, 30610.00
835.7930, 30586.00
836.9280, 30730.00
838.0630, 30844.00
839.1980, 30952.00
840.3320, 30540.00
841.4670, 30717.00
842.6010, 30692.00
843.7350, 30833.00
844.8690, 30995.00
846.0030, 30979.00
847.1370, 31047.12
848.2700, 31034.00
849.4040, 31076.00
850.5370, 31094.71
851.6700, 31026.00
852.8030, 31169.00
853.9360, 31168.00
855.0680, 31294.00
856.2000, 31190.00
857.3330, 31524.00
858.4650, 31150.00
859.5970, 31146.00
860.7290, 31389.00
861.8600, 31551.00
862.9920, 31524.00
864.1230, 31533.00
865.2540, 31695.00
866.3850, 31562.00
867.5160, 31805.00
868.6460, 31684.00
869.7770, 31924.00
870.9070, 31704.00
872.0370, 31882.00
873.1670, 31727.00
874.2970, 32098.00
875.4270, 32242.00
876.5570, 32053.00
877.6860, 32147.00
878.8150, 32234.00
879.9440, 32186.00
881.0730, 32232.00
882.2020, 32380.00
883.3300, 32337.00
884.4590, 32151.00
885.5870, 32208.00
886.7150, 32479.00
887.8430, 32286.00
888.9710, 32435.00
890.0990, 32568.00
891.2260, 32268.00
892.3530, 32485.00
893.4810, 32282.00
894.6080, 32592.00
895.7340, 32407.00
896.8610, 32484.00
897.9880, 32612.00
899.1140, 32646.00
900.2400, 32571.00
901.3660, 32831.00
902.4920, 32765.00
903.6180, 32894.00
904.7430, 32931.00
905.8690, 32715.00
906.9940, 33013.00
908.1190, 32981.00
909.2440, 32874.00
910.3690, 33118.00
911.4930, 32874.00
912.6180, 33234.00
913.7420, 33006.00
914.8660, 33161.00
915.9900, 33203.00
917.1140, 33316.00
918.2380, 33264.00
919.3610, 33499.00
920.4850, 33430.00
921.6080, 33387.00
922.7310, 33410.00
923.8540, 33234.00
924.9760, 33705.00
926.0990, 33758.00
927.2210, 33863.00
928.3440, 33666.00
929.4660, 33610.00
930.5880, 33823.00
931.7090, 33836.00
932.8310, 33859.00
933.9520, 33709.00
935.0740, 34141.00
936.1950, 33956.00
937.3160, 34212.00
938.4360, 34098.00
939.5570, 34114.00
940.6780, 34352.00
941.7980, 34477.00
942.9180, 34412.00
944.0380, 34355.00
945.1580, 34394.00
946.2780, 34497.00
947.3970, 34702.00
948.5170, 34771.00
949.6360, 34758.00
950.7550, 34903.00
951.8740, 34901.00
952.9930, 35111.00
954.1110, 35329.00
955.2300, 35562.00
956.3480, 35425.00
957.4660, 35413.00
958.5840, 35622.00
959.7020, 35770.05
960.8190, 35918.00
961.9370, 36451.00
963.0540, 36718.00
964.1710, 37265.00
965.2880, 37876.00
966.4050, 38776.00
967.5220, 39501.00
968.6380, 40151.00
969.7550, 40926.00
970.8710, 41497.27
971.9870, 42138.64
973.1030, 42641.00
974.2190, 43259.00
975.3340, 43788.00
976.4500, 44212.00
977.5650, 44638.00
978.6800, 45528.00
979.7950, 45949.00
980.9100, 47042.00
982.0250, 48097.00
983.1390, 49358.00
984.2530, 50456.00
985.3680, 51276.00
986.4820, 52165.00
987.5950, 52603.00
988.7090, 52367.00
989.8230, 51726.00
990.9360, 50674.00
992.0490, 49966.00
993.1620, 48649.00
994.2750, 47834.00
995.3880, 46504.00
996.5010, 45445.00
997.6130, 44609.00
998.7250, 43993.00
999.8370, 43007.00
1000.949, 42544.00
1002.061, 41829.00
1003.173, 41043.00
1004.284, 40780.00
1005.396, 40532.00
1006.507, 40218.00
1007.618, 39962.00
1008.729, 39887.00
1009.839, 39808.00
1010.950, 39394.00
1012.060, 39401.00
1013.171, 39463.00
1014.281, 39137.00
1015.391, 39069.00
1016.500, 39235.00
1017.610, 39265.00
1018.719, 39160.00
1019.829, 39226.00
1020.938, 38915.00
1022.047, 38926.00
1023.156, 39077.00
1024.264, 38697.00
1025.373, 39107.00
1026.481, 38946.00
1027.589, 38897.00
1028.697, 38921.00
1029.805, 39133.00
1030.913, 39198.00
1032.020, 39362.00
1033.128, 39393.00
1034.235, 39555.00
1035.342, 39391.00
1036.449, 39402.00
1037.556, 39354.00
1038.663, 39400.00
1039.769, 39538.00
1040.875, 39546.78
1041.981, 39833.00
1043.087, 39699.00
1044.193, 39916.00
1045.299, 40033.00
1046.404, 40096.00
1047.510, 39970.00
1048.615, 40003.00
1049.720, 39924.00
1050.825, 39759.00
1051.930, 40124.00
1053.034, 40160.00
1054.139, 40116.00
1055.243, 40211.00
1056.347, 40318.00
1057.451, 40266.00
1058.555, 40272.00
1059.658, 40354.00
1060.762, 40557.00
1061.865, 40464.00
1062.968, 40769.00
1064.071, 40537.00
1065.174, 40681.00
1066.277, 40842.00
1067.380, 40789.00
1068.482, 40900.00
1069.584, 40987.00
1070.686, 40810.00
1071.788, 41303.00
1072.890, 41286.00
1073.992, 41368.00
1075.093, 41722.00
1076.194, 41782.00
1077.295, 41946.00
1078.396, 42097.00
1079.497, 42052.00
1080.598, 42319.00
1081.698, 42414.00
1082.799, 42456.00
1083.899, 42434.00
1084.999, 42765.00
1086.099, 42933.00
1087.199, 42924.00
1088.298, 43130.00
1089.398, 43041.00
1090.497, 43078.00
1091.596, 43109.00
1092.695, 42849.00
1093.794, 42816.00
1094.892, 42949.00
1095.991, 42886.00
1097.089, 42925.00
1098.187, 43075.00
1099.285, 42683.00
1100.383, 42886.00
1101.481, 42996.00
1102.579, 42814.00
1103.676, 42910.00
1104.773, 42912.00
1105.870, 42921.00
1106.967, 42916.11
1108.064, 42689.00
1109.161, 42892.00
1110.257, 42822.00
1111.353, 42903.00
1112.449, 43035.00
1113.545, 43191.00
1114.641, 43084.00
1115.737, 43274.00
1116.832, 43280.00
1117.928, 43538.00
1119.023, 43226.00
1120.118, 43432.00
1121.213, 43756.00
1122.308, 43587.00
1123.402, 43282.00
1124.497, 43642.00
1125.591, 43725.00
1126.685, 43395.00
1127.779, 43936.00
1128.873, 43635.00
1129.967, 43811.00
1131.060, 43746.00
1132.153, 43896.00
1133.247, 43947.00
1134.340, 43852.00
1135.433, 43931.00
1136.525, 43998.00
1137.618, 43899.00
1138.710, 43982.00
1139.802, 44035.00
1140.895, 44115.00
1141.987, 44283.00
1143.078, 44178.00
1144.170, 44435.00
1145.261, 44213.00
1146.353, 44354.00
1147.444, 44556.00
1148.535, 44740.00
1149.626, 44650.00
1150.716, 44885.00
1151.807, 44875.00
1152.897, 44679.00
1153.988, 44762.00
1155.078, 45170.00
1156.168, 45024.00
1157.257, 45249.00
1158.347, 45059.00
1159.436, 45222.00
1160.526, 45183.00
1161.615, 45345.00
1162.704, 45117.00
1163.793, 45535.00
1164.881, 45323.00
1165.970, 45132.00
1167.058, 45705.00
1168.147, 45619.00
1169.235, 45304.00
1170.323, 45807.00
1171.410, 45396.00
1172.498, 45586.00
1173.585, 45544.00
1174.673, 45527.00
1175.760, 45630.00
1176.847, 45683.00
1177.934, 45532.00
1179.020, 45992.00
1180.107, 45874.00
1181.193, 45660.00
1182.279, 45931.00
1183.365, 46061.00
1184.451, 45998.00
1185.537, 45943.00
1186.623, 45835.00
1187.708, 46199.00
1188.793, 46108.00
1189.878, 45960.00
1190.963, 46136.00
1192.048, 46005.00
1193.133, 46212.00
1194.217, 46189.00
1195.302, 46340.00
1196.386, 46490.00
1197.470, 46299.00
1198.554, 46425.00
1199.638, 46493.00
1200.721, 46568.00
1201.805, 46602.75
1202.888, 46597.00
1203.971, 46664.00
1205.054, 46694.00
1206.137, 46798.00
1207.219, 46846.92
1208.302, 46904.00
1209.384, 46982.00
1210.466, 47043.00
1211.548, 47115.00
1212.630, 47217.00
1213.712, 47181.00
1214.794, 47316.00
1215.875, 47135.00
1216.956, 47302.00
1218.037, 47316.00
1219.118, 47130.00
1220.199, 47473.00
1221.280, 47519.00
1222.360, 47248.00
1223.441, 47604.00
1224.521, 47605.00
1225.601, 47573.00
1226.681, 47701.00
1227.760, 47823.00
1228.840, 47857.00
1229.919, 47946.00
1230.999, 47995.19
1232.078, 47743.00
1233.157, 48078.00
1234.236, 48177.00
1235.314, 48220.00
1236.393, 47943.00
1237.471, 48560.00
1238.549, 48557.00
1239.627, 48105.00
1240.705, 48811.00
1241.783, 48503.00
1242.860, 48414.00
1243.938, 48222.00
1245.015, 48328.39
1246.092, 48353.80
1247.169, 48613.00
1248.246, 48628.00
1249.323, 48656.00
1250.399, 48819.00
1251.475, 48893.00
1252.552, 48997.00
1253.628, 48929.00
1254.703, 49418.00
1255.779, 49289.00
1256.855, 49394.00
1257.930, 49260.00
1259.005, 49238.00
1260.080, 49239.00
1261.155, 49454.00
1262.230, 49341.00
1263.305, 49534.00
1264.379, 49288.00
1265.454, 49649.00
1266.528, 49748.00
1267.602, 49840.00
1268.676, 49686.00
1269.750, 49594.00
1270.823, 49651.00
1271.897, 50007.00
1272.970, 50150.00
1274.043, 49995.00
1275.116, 50164.00
1276.189, 50017.00
1277.261, 50202.00
1278.334, 50273.00
1279.406, 50186.00
1280.478, 50303.00
1281.550, 50357.00
1282.622, 50329.00
1283.694, 50384.00
1284.766, 50387.00
1285.837, 50671.00
1286.908, 50599.00
1287.979, 50866.00
1289.050, 50766.00
1290.121, 50822.00
1291.192, 50882.00
1292.262, 51003.00
1293.333, 51023.73
1294.403, 50952.00
1295.473, 51130.00
1296.543, 51256.00
1297.613, 51374.00
1298.682, 51256.00
1299.752, 51245.00
1300.821, 51311.00
1301.890, 51628.00
1302.959, 51727.00
1304.028, 51736.00
1305.096, 51965.00
1306.165, 51777.00
1307.233, 52093.00
1308.301, 51939.00
1309.370, 52056.91
1310.437, 52413.00
1311.505, 52238.00
1312.573, 52408.00
1313.640, 52521.00
1314.708, 52267.00
1315.775, 52294.00
1316.842, 52649.00
1317.908, 52637.00
1318.975, 52576.00
1320.042, 52640.00
1321.108, 52890.00
1322.174, 53110.00
1323.240, 52951.00
1324.306, 52792.00
1325.372, 53137.00
1326.438, 53131.00
1327.503, 53369.00
1328.568, 53147.00
1329.634, 53432.00
1330.699, 53293.00
1331.763, 53171.00
1332.828, 53455.00
1333.893, 53347.40
1334.957, 53461.00
1336.021, 53434.00
1337.085, 53651.00
1338.149, 53679.00
1339.213, 53803.00
1340.277, 53796.00
1341.340, 54149.00
1342.404, 54009.00
1343.467, 54037.00
1344.530, 54097.00
1345.593, 53889.00
1346.655, 54003.00
1347.718, 54012.71
1348.780, 54272.00
1349.843, 54146.00
1350.905, 54146.00
1351.967, 54205.00
1353.028, 54135.23
1354.090, 54557.00
1355.152, 54174.00
1356.213, 54473.00
1357.274, 54665.00
1358.335, 54533.00
1359.396, 54695.00
1360.457, 54779.00
1361.517, 54509.00
1362.578, 54834.00
1363.638, 55046.00
1364.698, 54929.00
1365.758, 54797.00
1366.818, 54759.00
1367.878, 55075.00
1368.937, 54926.00
1369.997, 55133.00
1371.056, 55017.00
1372.115, 55089.00
1373.174, 55216.00
1374.232, 55463.00
1375.291, 55510.00
