##NAMES=Hauyne
##RRUFFID=R070557
##IDEAL CHEMISTRY=Na_3_Ca(Si_3_Al_3_)O_12_(S^6+^O_4_)
##LOCALITY=Badakhshan, Afghanistan
##OWNER=RRUFF
##SOURCE=Farooq Hashmi
##DESCRIPTION=Sky blue fragment
##STATUS=The identification of this mineral is confirmed by single-crystal X-ray diffraction and chemical analysis.
##URL=rruff.info/R070557
##MEASURED CHEMISTRY=Na_3.00_(Ca_0.84_Na_0.16_)_Σ=1_(Si_3.05_Al_2.95_)O_12_((SO_4_)_0.89_Cl_0.11_)_Σ=1_
##PIN_ID=M01358
##ORIENTATION=Laser parallel to a* (1 0 0). Fiducial mark perpendicular to laser is parallel to c [0 0 1]
211.2710, 14094.00
212.4940, 14000.00
213.7160, 14195.00
214.9370, 14178.00
216.1590, 14066.00
217.3810, 14173.00
218.6020, 14083.00
219.8230, 14197.00
221.0440, 14051.00
222.2650, 14144.00
223.4860, 14161.00
224.7060, 14101.00
225.9260, 14073.00
227.1470, 14102.56
228.3670, 14090.34
229.5860, 14153.00
230.8060, 14141.00
232.0260, 14155.00
233.2450, 14195.00
234.4640, 14099.00
235.6830, 14248.00
236.9020, 14316.00
238.1200, 14240.00
239.3390, 14318.00
240.5570, 14363.00
241.7750, 14435.00
242.9930, 14347.00
244.2110, 14446.00
245.4290, 14346.00
246.6460, 14626.00
247.8630, 14484.00
249.0810, 14810.00
250.2980, 14657.00
251.5140, 14631.00
252.7310, 14696.00
253.9470, 14620.00
255.1640, 14656.00
256.3800, 14686.00
257.5960, 14698.00
258.8120, 14697.00
260.0270, 14759.00
261.2430, 14620.00
262.4580, 14683.00
263.6730, 14593.00
264.8880, 14532.00
266.1030, 14544.00
267.3170, 14598.00
268.5320, 14493.00
269.7460, 14360.00
270.9600, 14565.00
272.1740, 14595.00
273.3880, 14388.00
274.6010, 14394.00
275.8150, 14550.00
277.0280, 14541.00
278.2410, 14485.00
279.4540, 14598.00
280.6670, 14528.00
281.8790, 14540.00
283.0920, 14402.00
284.3040, 14400.00
285.5160, 14439.00
286.7280, 14388.27
287.9400, 14722.00
289.1510, 14457.00
290.3630, 14543.00
291.5740, 14716.00
292.7850, 14550.00
293.9960, 14648.00
295.2070, 14548.00
296.4170, 14646.00
297.6280, 14694.00
298.8380, 14684.00
300.0480, 14661.00
301.2580, 14641.00
302.4680, 14659.00
303.6770, 14637.00
304.8870, 14834.00
306.0960, 14682.00
307.3050, 14722.00
308.5140, 14621.00
309.7230, 14758.00
310.9310, 14681.00
312.1400, 14779.00
313.3480, 14888.00
314.5560, 14905.00
315.7640, 14911.00
316.9720, 14967.00
318.1790, 15018.00
319.3870, 14876.00
320.5940, 14894.00
321.8010, 14914.00
323.0080, 15038.00
324.2150, 14810.00
325.4210, 14895.00
326.6280, 15023.00
327.8340, 14930.00
329.0400, 15081.00
330.2460, 15085.00
331.4510, 14959.00
332.6570, 15051.00
333.8620, 15154.00
335.0680, 15182.00
336.2730, 15104.00
337.4780, 15156.00
338.6820, 15120.00
339.8870, 15177.00
341.0910, 15235.00
342.2950, 15208.00
343.5000, 15243.00
344.7030, 15318.00
345.9070, 15406.00
347.1110, 15478.00
348.3140, 15355.00
349.5170, 15467.00
350.7200, 15512.00
351.9230, 15506.00
353.1260, 15575.00
354.3290, 15751.00
355.5310, 15771.00
356.7330, 15891.00
357.9350, 15881.00
359.1370, 15670.00
360.3390, 15707.00
361.5400, 15784.00
362.7420, 15963.00
363.9430, 15976.00
365.1440, 16007.00
366.3450, 16133.00
367.5460, 16043.00
368.7460, 16075.00
369.9470, 16049.00
371.1470, 16112.00
372.3470, 16214.00
373.5470, 16191.00
374.7460, 16271.87
375.9460, 16384.00
377.1450, 16363.00
378.3450, 16405.00
379.5440, 16453.00
380.7430, 16461.18
381.9410, 16596.00
383.1400, 16544.00
384.3380, 16611.07
385.5370, 16461.00
386.7350, 16675.00
387.9320, 16557.00
389.1300, 16578.00
390.3280, 16615.00
391.5250, 16699.00
392.7220, 16720.51
393.9190, 16700.00
395.1160, 16808.00
396.3130, 16850.00
397.5100, 16900.00
398.7060, 16834.00
399.9020, 16990.00
401.0980, 17026.28
402.2940, 17171.00
403.4900, 17201.00
404.6860, 17324.00
405.8810, 17391.00
407.0760, 17638.00
408.2710, 17546.00
409.4660, 17484.00
410.6610, 17715.00
411.8550, 17910.00
413.0500, 18001.00
414.2440, 18206.00
415.4380, 18317.00
416.6320, 18495.09
417.8260, 18712.00
419.0190, 18835.00
420.2130, 19014.00
421.4060, 19150.00
422.5990, 19553.00
423.7920, 19859.00
424.9850, 20047.00
426.1770, 20171.00
427.3700, 20497.00
428.5620, 20628.00
429.7540, 20917.00
430.9460, 21193.37
432.1380, 21616.00
433.3290, 21692.00
434.5210, 21926.00
435.7120, 22004.00
436.9030, 22286.00
438.0940, 22329.00
439.2850, 22560.00
440.4750, 22612.00
441.6660, 22337.00
442.8560, 22696.00
444.0460, 22541.00
445.2360, 22669.00
446.4260, 22623.00
447.6160, 22722.00
448.8050, 22321.00
449.9940, 22331.00
451.1830, 22117.00
452.3720, 22025.00
453.5610, 22148.00
454.7500, 22177.00
455.9380, 21925.00
457.1260, 21818.00
458.3150, 21723.00
459.5020, 21625.00
460.6900, 21269.00
461.8780, 21382.00
463.0650, 21326.00
464.2530, 21148.00
465.4400, 20760.00
466.6270, 20876.00
467.8130, 20617.00
469.0000, 20383.00
470.1870, 20268.00
471.3730, 20276.00
472.5590, 20290.00
473.7450, 20178.00
474.9310, 20107.00
476.1160, 20237.00
477.3020, 20014.00
478.4870, 20119.00
479.6720, 20000.00
480.8570, 19931.00
482.0420, 19941.00
483.2270, 19882.00
484.4110, 19857.00
485.5960, 19860.00
486.7800, 19780.12
487.9640, 19479.00
489.1480, 19637.00
490.3310, 19455.00
491.5150, 19346.00
492.6980, 19525.00
493.8810, 19491.00
495.0640, 19483.00
496.2470, 19522.00
497.4300, 19434.00
498.6120, 19472.00
499.7950, 19552.00
500.9770, 19408.00
502.1590, 19403.00
503.3410, 19309.00
504.5220, 19305.00
505.7040, 19355.00
506.8850, 19561.00
508.0660, 19438.00
509.2470, 19461.00
510.4280, 19593.00
511.6090, 19492.00
512.7890, 19362.00
513.9700, 19477.00
515.1500, 19514.00
516.3300, 19496.00
517.5100, 19491.00
518.6900, 19623.00
519.8690, 19578.00
521.0490, 19589.00
522.2280, 19832.00
523.4070, 19708.00
524.5860, 19937.00
525.7640, 19871.00
526.9430, 19813.00
528.1210, 20199.00
529.3000, 20317.00
530.4780, 20475.00
531.6560, 20990.00
532.8330, 21210.00
534.0110, 21574.00
535.1880, 21963.00
536.3650, 22406.79
537.5430, 22871.00
538.7190, 23482.00
539.8960, 24018.00
541.0730, 24671.00
542.2490, 24825.00
543.4250, 25151.00
544.6020, 25269.00
545.7780, 24989.00
546.9530, 24593.00
548.1290, 24272.00
549.3040, 23545.00
550.4800, 22974.00
551.6550, 22635.00
552.8300, 22077.00
554.0040, 21656.00
555.1790, 21302.00
556.3540, 21044.00
557.5280, 20914.00
558.7020, 20668.00
559.8760, 20623.00
561.0500, 20532.32
562.2230, 20493.80
563.3970, 20541.00
564.5700, 20528.00
565.7430, 20704.00
566.9160, 20755.00
568.0890, 20712.00
569.2620, 20707.00
570.4340, 20787.00
571.6070, 20677.00
572.7790, 20830.00
573.9510, 20859.00
575.1230, 20977.00
576.2940, 21088.00
577.4660, 21083.00
578.6370, 20995.00
579.8080, 21235.00
580.9790, 21304.00
582.1500, 21230.00
583.3210, 21090.00
584.4910, 21281.00
585.6620, 21330.00
586.8320, 21291.00
588.0020, 21394.00
589.1720, 21313.00
590.3410, 21294.00
591.5110, 21381.00
592.6800, 21336.00
593.8500, 21534.00
595.0190, 21562.00
596.1880, 21635.00
597.3560, 21641.00
598.5250, 21674.00
599.6930, 21951.00
600.8620, 21911.00
602.0300, 22017.00
603.1970, 22331.00
604.3650, 22420.00
605.5330, 22436.00
606.7000, 22661.00
607.8680, 22704.70
609.0350, 23079.00
610.2020, 23004.00
611.3680, 22970.00
612.5350, 23320.00
613.7010, 23426.00
614.8680, 23248.00
616.0340, 23259.00
617.2000, 23194.00
618.3660, 23343.00
619.5310, 23141.00
620.6970, 23050.00
621.8620, 22845.00
623.0270, 22847.00
624.1920, 22715.00
625.3570, 22764.00
626.5220, 22778.00
627.6860, 22655.00
628.8500, 22650.00
630.0140, 22540.00
631.1780, 22498.00
632.3420, 22444.00
633.5060, 22389.00
634.6700, 22369.16
635.8330, 22586.00
636.9960, 22403.00
638.1590, 22460.00
639.3220, 22641.00
640.4850, 22600.00
641.6470, 22340.00
642.8100, 22636.00
643.9720, 22781.00
645.1340, 22439.00
646.2960, 22723.00
647.4570, 22459.00
648.6190, 22515.00
649.7800, 22346.00
650.9420, 22688.00
652.1030, 22707.00
653.2640, 22591.00
654.4240, 22470.00
655.5850, 22659.00
656.7450, 22634.00
657.9060, 22587.00
659.0660, 22744.00
660.2260, 22742.00
661.3850, 22644.00
662.5450, 22809.00
663.7040, 22805.00
664.8640, 22802.00
666.0230, 22829.00
667.1820, 22790.00
668.3410, 22952.00
669.4990, 22847.00
670.6580, 22827.00
671.8160, 22902.00
672.9740, 23044.00
674.1320, 22999.00
675.2900, 23222.00
676.4480, 23139.00
677.6050, 23332.00
678.7630, 23244.00
679.9200, 23238.00
681.0770, 23232.00
682.2340, 23399.00
683.3900, 23276.00
684.5470, 23437.00
685.7030, 23151.00
686.8590, 23397.00
688.0150, 23382.00
689.1710, 23410.00
690.3270, 23647.00
691.4830, 23699.00
692.6380, 23594.00
693.7930, 23626.00
694.9480, 23757.00
696.1030, 23894.00
697.2580, 23756.00
698.4130, 23797.00
699.5670, 23805.00
700.7210, 23895.00
701.8750, 23853.00
703.0290, 23889.00
704.1830, 23785.00
705.3370, 23974.00
706.4900, 23995.00
707.6430, 24255.00
708.7970, 24216.00
709.9490, 24135.00
711.1020, 24325.00
712.2550, 24415.00
713.4070, 24386.00
714.5600, 24419.00
715.7120, 24491.78
716.8640, 24366.00
718.0160, 24620.00
719.1670, 24542.00
720.3190, 24573.00
721.4700, 24744.00
722.6210, 24683.00
723.7720, 24777.00
724.9230, 24611.00
726.0740, 24685.00
727.2250, 24713.00
728.3750, 24816.00
729.5250, 24833.00
730.6750, 24953.00
731.8250, 24943.61
732.9750, 24856.00
734.1240, 24905.00
735.2740, 25103.00
736.4230, 25032.00
737.5720, 25149.00
738.7210, 25050.00
739.8700, 25292.00
741.0190, 25126.00
742.1670, 25368.00
743.3150, 25300.00
744.4630, 25259.00
745.6110, 25333.00
746.7590, 25243.00
747.9070, 25438.00
749.0540, 25509.00
750.2020, 25715.00
751.3490, 25602.00
752.4960, 25586.00
753.6430, 25447.00
754.7890, 25604.00
755.9360, 25741.00
757.0820, 25647.00
758.2280, 25666.00
759.3740, 25749.00
760.5200, 25799.00
761.6660, 25847.84
762.8120, 25903.97
763.9570, 25949.00
765.1020, 26009.00
766.2470, 26047.00
767.3920, 26129.00
768.5370, 26118.00
769.6810, 26349.00
770.8260, 26170.00
771.9700, 26276.00
773.1140, 26145.00
774.2580, 26360.00
775.4020, 26230.00
776.5460, 26389.00
777.6890, 26264.00
778.8320, 26588.00
779.9750, 26283.00
781.1180, 26535.00
782.2610, 26565.00
783.4040, 26377.00
784.5460, 26667.00
785.6890, 26482.00
786.8310, 26826.00
787.9730, 26787.00
789.1150, 26732.00
790.2560, 26928.00
791.3980, 26987.00
792.5390, 27112.00
793.6810, 26999.00
794.8220, 27332.00
795.9630, 26989.00
797.1030, 26886.00
798.2440, 27285.00
799.3840, 27380.00
800.5240, 27386.00
801.6650, 27339.00
802.8040, 27275.00
803.9440, 27483.00
805.0840, 27508.00
806.2230, 27574.00
807.3630, 27534.00
808.5020, 27349.00
809.6410, 27568.00
810.7790, 27580.00
811.9180, 27727.00
813.0570, 27546.00
814.1950, 27729.00
815.3330, 27958.00
816.4710, 27990.00
817.6090, 27722.00
818.7470, 28005.00
819.8840, 27866.00
821.0220, 27848.00
822.1590, 27879.00
823.2960, 27875.00
824.4330, 28109.00
825.5690, 28014.00
826.7060, 28181.00
827.8420, 28281.00
828.9790, 28337.00
830.1150, 28250.00
831.2510, 28196.00
832.3860, 28390.00
833.5220, 28463.00
834.6570, 28486.00
835.7930, 28255.00
836.9280, 28595.00
838.0630, 28329.00
839.1980, 28650.00
840.3320, 28561.00
841.4670, 28590.00
842.6010, 28780.00
843.7350, 28844.00
844.8690, 28768.00
846.0030, 28951.00
847.1370, 28725.00
848.2700, 28953.00
849.4040, 28894.00
850.5370, 29027.00
851.6700, 29055.00
852.8030, 28969.00
853.9360, 29114.00
855.0680, 29128.00
856.2000, 29013.00
857.3330, 29068.00
858.4650, 29268.00
859.5970, 29300.00
860.7290, 29390.00
861.8600, 29232.00
862.9920, 29215.00
864.1230, 29528.00
865.2540, 29283.00
866.3850, 29312.00
867.5160, 29546.00
868.6460, 29542.00
869.7770, 29526.00
870.9070, 29695.00
872.0370, 29552.00
873.1670, 29583.00
874.2970, 29923.00
875.4270, 29943.00
876.5570, 29992.00
877.6860, 29763.00
878.8150, 30035.00
879.9440, 29886.00
881.0730, 30002.00
882.2020, 30086.00
883.3300, 30110.00
884.4590, 30077.00
885.5870, 30001.00
886.7150, 30116.02
887.8430, 29990.00
888.9710, 30336.00
890.0990, 30154.00
891.2260, 30288.00
892.3530, 30126.00
893.4810, 30154.00
894.6080, 30038.00
895.7340, 30170.00
896.8610, 30362.00
897.9880, 30331.00
899.1140, 30232.00
900.2400, 30372.00
901.3660, 30264.00
902.4920, 30484.00
903.6180, 30480.00
904.7430, 30381.00
905.8690, 30743.00
906.9940, 30703.00
908.1190, 30582.00
909.2440, 30659.00
910.3690, 30963.00
911.4930, 30581.00
912.6180, 30789.00
913.7420, 30903.00
914.8660, 30701.00
915.9900, 31223.00
917.1140, 30681.00
918.2380, 30936.00
919.3610, 31055.00
920.4850, 30822.00
921.6080, 31121.00
922.7310, 31209.00
923.8540, 31032.00
924.9760, 31368.00
926.0990, 31410.00
927.2210, 31297.00
928.3440, 31460.00
929.4660, 31435.00
930.5880, 31280.00
931.7090, 31608.00
932.8310, 31357.00
933.9520, 31599.00
935.0740, 31566.00
936.1950, 31586.00
937.3160, 31715.21
938.4360, 31751.00
939.5570, 31860.00
940.6780, 31870.00
941.7980, 31914.00
942.9180, 31787.00
944.0380, 31929.00
945.1580, 32332.00
946.2780, 32063.00
947.3970, 32180.00
948.5170, 32143.00
949.6360, 32579.00
950.7550, 32261.00
951.8740, 32644.00
952.9930, 32576.00
954.1110, 32851.00
955.2300, 32568.00
956.3480, 32967.00
957.4660, 32968.00
958.5840, 33196.00
959.7020, 33606.00
960.8190, 33729.00
961.9370, 33896.00
963.0540, 34315.00
964.1710, 34757.00
965.2880, 35495.00
966.4050, 36071.00
967.5220, 36950.00
968.6380, 37723.00
969.7550, 38530.00
970.8710, 39261.00
971.9870, 39793.00
973.1030, 40458.00
974.2190, 41145.00
975.3340, 41403.00
976.4500, 41811.00
977.5650, 42499.00
978.6800, 43167.00
979.7950, 43996.31
980.9100, 44812.00
982.0250, 45920.00
983.1390, 47188.00
984.2530, 48301.00
985.3680, 49422.00
986.4820, 50088.00
987.5950, 50692.00
988.7090, 50403.00
989.8230, 49921.00
990.9360, 48560.00
992.0490, 47792.00
993.1620, 46671.00
994.2750, 45503.00
995.3880, 44251.00
996.5010, 43260.00
997.6130, 42356.10
998.7250, 41376.00
999.8370, 40832.00
1000.949, 40195.00
1002.061, 39571.00
1003.173, 39047.88
1004.284, 38332.00
1005.396, 38058.00
1006.507, 37676.00
1007.618, 37365.00
1008.729, 37227.00
1009.839, 37379.00
1010.950, 37160.00
1012.060, 37167.00
1013.171, 37156.00
1014.281, 37173.00
1015.391, 36838.00
1016.500, 36939.00
1017.610, 36771.00
1018.719, 36709.00
1019.829, 36721.00
1020.938, 36428.00
1022.047, 36488.00
1023.156, 36641.00
1024.264, 36414.00
1025.373, 36517.00
1026.481, 36554.00
1027.589, 36598.00
1028.697, 36487.00
1029.805, 36572.57
1030.913, 36540.00
1032.020, 36667.00
1033.128, 36679.13
1034.235, 36741.20
1035.342, 36717.00
1036.449, 36890.00
1037.556, 36841.00
1038.663, 36948.00
1039.769, 37037.38
1040.875, 37149.00
1041.981, 37216.00
1043.087, 37125.00
1044.193, 37193.28
1045.299, 37162.00
1046.404, 37316.00
1047.510, 37439.00
1048.615, 37382.00
1049.720, 37504.00
1050.825, 37566.00
1051.930, 37582.00
1053.034, 37709.00
1054.139, 37653.00
1055.243, 37647.00
1056.347, 37848.00
1057.451, 37695.00
1058.555, 37867.00
1059.658, 37921.00
1060.762, 38016.00
1061.865, 38095.00
1062.968, 38166.00
1064.071, 38093.00
1065.174, 38199.00
1066.277, 38487.00
1067.380, 38361.00
1068.482, 38593.00
1069.584, 38577.00
1070.686, 38661.00
1071.788, 38659.00
1072.890, 39157.00
1073.992, 39075.00
1075.093, 38855.00
1076.194, 39489.00
1077.295, 39290.00
1078.396, 39215.00
1079.497, 39621.00
1080.598, 39700.00
1081.698, 39991.00
1082.799, 40035.00
1083.899, 40160.00
1084.999, 40075.00
1086.099, 40454.00
1087.199, 40400.00
1088.298, 40509.75
1089.398, 40396.00
1090.497, 40624.00
1091.596, 40570.00
1092.695, 40561.00
1093.794, 40390.00
1094.892, 40544.00
1095.991, 40609.00
1097.089, 40840.00
1098.187, 40382.00
1099.285, 40432.00
1100.383, 40400.00
1101.481, 40313.00
1102.579, 40188.00
1103.676, 40423.00
1104.773, 40373.00
1105.870, 40195.00
1106.967, 40501.00
1108.064, 40324.00
1109.161, 40533.00
1110.257, 40384.00
1111.353, 40413.00
1112.449, 40324.00
1113.545, 40583.00
1114.641, 40580.00
1115.737, 40601.00
1116.832, 40595.00
1117.928, 40821.00
1119.023, 40633.00
1120.118, 40907.00
1121.213, 41309.00
1122.308, 40975.00
1123.402, 41063.00
1124.497, 41159.00
1125.591, 41146.00
1126.685, 41054.00
1127.779, 41150.00
1128.873, 41170.00
1129.967, 41313.00
1131.060, 41351.00
1132.153, 41032.00
1133.247, 41192.00
1134.340, 41218.00
1135.433, 41113.00
1136.525, 41497.00
1137.618, 41299.00
1138.710, 41304.00
1139.802, 41292.00
1140.895, 41787.00
1141.987, 41727.00
1143.078, 41608.00
1144.170, 41908.00
1145.261, 41737.00
1146.353, 41731.00
1147.444, 41844.00
1148.535, 41899.00
1149.626, 41987.00
1150.716, 42038.00
1151.807, 42222.00
1152.897, 42271.82
1153.988, 41984.00
1155.078, 42325.00
1156.168, 42391.00
1157.257, 42159.00
1158.347, 42359.00
1159.436, 42311.00
1160.526, 42546.00
1161.615, 42612.00
1162.704, 42402.00
1163.793, 42594.00
1164.881, 42550.00
1165.970, 42481.00
1167.058, 42509.00
1168.147, 42802.00
1169.235, 42593.00
1170.323, 42697.00
1171.410, 42783.00
1172.498, 42648.00
1173.585, 42852.00
1174.673, 42974.00
1175.760, 42991.00
1176.847, 42875.00
1177.934, 42947.00
1179.020, 43051.00
1180.107, 42772.00
1181.193, 43121.00
1182.279, 42998.00
1183.365, 43307.00
1184.451, 42782.00
1185.537, 43360.00
1186.623, 42836.00
1187.708, 42860.00
1188.793, 43115.00
1189.878, 43315.00
1190.963, 43276.00
1192.048, 43267.00
1193.133, 43249.00
1194.217, 43282.00
1195.302, 43285.67
1196.386, 43474.00
1197.470, 43396.00
1198.554, 43479.00
1199.638, 43680.00
1200.721, 43733.00
1201.805, 43699.00
1202.888, 43676.00
1203.971, 43576.00
1205.054, 43650.00
1206.137, 43842.00
1207.219, 44026.00
1208.302, 43661.00
1209.384, 43893.00
1210.466, 43955.00
1211.548, 43856.00
1212.630, 44026.00
1213.712, 44283.00
1214.794, 44128.00
1215.875, 44341.00
1216.956, 44236.00
1218.037, 44403.00
1219.118, 44434.00
1220.199, 44587.00
1221.280, 44611.00
1222.360, 44762.00
1223.441, 44863.00
1224.521, 44519.00
1225.601, 44712.00
1226.681, 44751.00
1227.760, 44592.00
1228.840, 44850.00
1229.919, 45037.00
1230.999, 45039.00
1232.078, 45142.00
1233.157, 44959.00
1234.236, 45088.00
1235.314, 45016.00
1236.393, 45205.00
1237.471, 45281.00
1238.549, 45211.00
1239.627, 45241.00
1240.705, 45200.00
1241.783, 45517.00
1242.860, 45472.00
1243.938, 45492.00
1245.015, 45669.00
1246.092, 45546.00
1247.169, 45426.00
1248.246, 45704.00
1249.323, 45526.00
1250.399, 45726.00
1251.475, 45865.00
1252.552, 45946.00
1253.628, 46081.92
1254.703, 46176.94
1255.779, 46252.00
1256.855, 46373.00
1257.930, 46423.00
1259.005, 46518.00
1260.080, 46431.00
1261.155, 46191.00
1262.230, 46393.00
1263.305, 46184.00
1264.379, 46560.00
1265.454, 46666.00
1266.528, 46582.00
1267.602, 46776.00
1268.676, 46734.00
1269.750, 46743.00
1270.823, 46813.00
1271.897, 46929.00
1272.970, 46637.00
1274.043, 47077.00
1275.116, 46962.00
1276.189, 47176.00
1277.261, 46940.00
1278.334, 47493.00
1279.406, 47323.00
1280.478, 47523.00
1281.550, 47332.00
1282.622, 47561.00
1283.694, 47706.00
1284.766, 47700.00
1285.837, 47652.00
1286.908, 47455.00
1287.979, 47693.00
1289.050, 47647.00
1290.121, 47849.00
1291.192, 47998.00
1292.262, 47789.00
1293.333, 48107.00
1294.403, 48024.00
1295.473, 47565.00
1296.543, 48213.00
1297.613, 47995.00
1298.682, 48240.00
1299.752, 48705.00
1300.821, 48328.00
1301.890, 48542.00
1302.959, 48580.00
1304.028, 48405.00
1305.096, 48505.00
1306.165, 48663.00
1307.233, 48901.00
1308.301, 48927.00
1309.370, 49194.00
1310.437, 49330.00
1311.505, 49093.00
1312.573, 49124.00
1313.640, 48977.00
1314.708, 49143.00
1315.775, 49138.13
1316.842, 49268.49
1317.908, 49311.00
1318.975, 49530.00
1320.042, 49701.00
1321.108, 49677.00
1322.174, 49688.00
1323.240, 49781.00
1324.306, 49770.00
1325.372, 49806.00
1326.438, 50144.00
1327.503, 49965.00
1328.568, 50244.00
1329.634, 49890.00
1330.699, 50237.00
1331.763, 50252.00
1332.828, 50261.00
1333.893, 50294.00
1334.957, 50417.00
1336.021, 50451.00
1337.085, 50668.00
1338.149, 50634.00
1339.213, 50772.00
1340.277, 50607.00
1341.340, 50917.00
1342.404, 50588.00
1343.467, 50780.00
1344.530, 50757.00
1345.593, 50546.00
1346.655, 50812.00
1347.718, 50781.00
1348.780, 50886.00
1349.843, 51308.00
1350.905, 51061.00
1351.967, 51234.00
1353.028, 51258.00
1354.090, 51169.00
1355.152, 51226.00
1356.213, 51314.00
1357.274, 51428.00
1358.335, 51242.00
1359.396, 51245.00
1360.457, 51348.00
1361.517, 51431.00
1362.578, 51756.00
1363.638, 51306.00
1364.698, 51655.00
1365.758, 51580.00
1366.818, 51885.00
1367.878, 51717.00
1368.937, 51899.00
1369.997, 51897.00
1371.056, 51894.00
1372.115, 52012.00
1373.174, 52037.00
1374.232, 52121.02
1375.291, 52255.00
