##NAMES=Hedenbergite
##RRUFFID=R060040
##IDEAL CHEMISTRY=CaFe^2+^Si_2_O_6_
##LOCALITY=Rio Marina, Elba, Italy
##OWNER=RRUFF
##SOURCE=University of Arizona Mineral Museum
##DESCRIPTION=Radial aggregate of green thin bladed crystals
##STATUS=The identification of this mineral has been confirmed by X-ray diffraction and chemical analysis
##URL=rruff.info/R060040
##MEASURED CHEMISTRY=Ca_1.00_(Fe^2+^_0.89_Mg_0.09_Mn_0.02_)_Î£=1_Si_2.00_O_6_
##PIN_ID=M00548
##ORIENTATION=Laser parallel to c* (0 0 1). Fiducial mark perpendicular to laser is parallel to a [1 0 0]
262.4900, 12857.00
263.7050, 12721.00
264.9210, 12965.00
266.1360, 12929.00
267.3520, 12950.00
268.5670, 13135.00
269.7820, 13192.00
270.9960, 13208.00
272.2110, 13359.00
273.4250, 13412.00
274.6400, 13413.00
275.8540, 13516.00
277.0680, 13344.00
278.2810, 13606.00
279.4950, 13484.00
280.7090, 13566.00
281.9220, 13614.00
283.1350, 13754.00
284.3480, 13529.00
285.5610, 13747.00
286.7730, 13792.00
287.9860, 13840.00
289.1980, 13836.00
290.4100, 13868.00
291.6220, 14089.00
292.8340, 14055.00
294.0460, 14227.00
295.2570, 14259.00
296.4690, 14306.00
297.6800, 14578.00
298.8910, 14741.00
300.1020, 14615.00
301.3120, 15005.00
302.5230, 15133.00
303.7330, 15238.00
304.9440, 15137.00
306.1540, 15397.00
307.3630, 15404.00
308.5730, 15307.00
309.7830, 15309.00
310.9920, 15025.00
312.2010, 14889.00
313.4100, 14768.00
314.6190, 14535.00
315.8280, 14411.00
317.0370, 14549.00
318.2450, 14274.00
319.4530, 14352.00
320.6610, 14256.00
321.8690, 14439.00
323.0770, 14456.00
324.2850, 14468.00
325.4920, 14536.00
326.6990, 14568.00
327.9060, 14558.00
329.1130, 14806.00
330.3200, 14890.00
331.5270, 15156.00
332.7330, 15252.00
333.9390, 15312.00
335.1450, 15571.00
336.3510, 15456.00
337.5570, 15664.00
338.7630, 15798.00
339.9680, 16035.00
341.1740, 15914.00
342.3790, 15709.00
343.5840, 15716.00
344.7890, 15489.00
345.9930, 15142.00
347.1980, 14893.00
348.4020, 14966.00
349.6060, 14652.00
350.8100, 14565.00
352.0140, 14486.00
353.2180, 14519.00
354.4210, 14556.00
355.6250, 14541.00
356.8280, 14598.00
358.0310, 14659.00
359.2340, 14770.00
360.4360, 14883.00
361.6390, 15077.00
362.8410, 15263.00
364.0430, 15480.00
365.2450, 15826.00
366.4470, 16261.00
367.6490, 16657.00
368.8510, 16948.00
370.0520, 17421.00
371.2530, 17893.00
372.4540, 18168.00
373.6550, 18423.00
374.8560, 18682.00
376.0560, 18487.00
377.2570, 18263.00
378.4570, 17776.00
379.6570, 17434.00
380.8570, 17048.00
382.0570, 16602.00
383.2560, 16037.00
384.4560, 15616.00
385.6550, 15382.00
386.8540, 15055.00
388.0530, 14904.00
389.2520, 14832.00
390.4510, 14606.00
391.6490, 14463.00
392.8470, 14334.00
394.0450, 14440.00
395.2430, 14480.00
396.4410, 14470.00
397.6390, 14450.00
398.8360, 14067.00
400.0340, 14492.00
401.2310, 14310.00
402.4280, 14216.00
403.6250, 14191.00
404.8210, 14272.00
406.0180, 14156.00
407.2140, 14245.00
408.4100, 14242.00
409.6060, 14225.00
410.8020, 14304.00
411.9980, 14112.00
413.1930, 14256.00
414.3890, 14133.00
415.5840, 14298.00
416.7790, 14213.00
417.9740, 14277.00
419.1680, 14364.00
420.3630, 14338.00
421.5570, 14433.00
422.7510, 14496.00
423.9450, 14458.00
425.1390, 14204.00
426.3330, 14612.00
427.5270, 14653.00
428.7200, 14498.00
429.9130, 14626.00
431.1060, 14520.00
432.2990, 14675.00
433.4920, 14786.00
434.6840, 14743.00
435.8770, 14707.00
437.0690, 14703.00
438.2610, 14804.00
439.4530, 14760.00
440.6450, 14714.00
441.8360, 14724.00
443.0280, 14866.00
444.2190, 14889.00
445.4100, 14728.00
446.6010, 14886.00
447.7920, 14827.00
448.9820, 14689.00
450.1730, 14668.00
451.3630, 14828.00
452.5530, 14712.00
453.7430, 14848.00
454.9330, 14948.00
456.1230, 14757.00
457.3120, 14656.00
458.5010, 14828.00
459.6910, 14852.00
460.8800, 14764.00
462.0680, 14865.00
463.2570, 14812.00
464.4460, 14773.82
465.6340, 14850.57
466.8220, 14896.74
468.0100, 14913.96
469.1980, 14815.54
470.3860, 14866.44
471.5730, 14857.50
472.7600, 14846.10
473.9480, 15072.00
475.1350, 14837.00
476.3210, 14948.00
477.5080, 14989.00
478.6950, 14961.00
479.8810, 15057.00
481.0670, 15162.00
482.2530, 15154.00
483.4390, 15214.00
484.6250, 15208.00
485.8100, 15064.00
486.9960, 15295.00
488.1810, 15207.00
489.3660, 15382.00
490.5510, 15251.00
491.7360, 15597.00
492.9200, 15694.00
494.1050, 15564.00
495.2890, 15550.00
496.4730, 15646.00
497.6570, 15606.00
498.8400, 15610.00
500.0240, 15632.00
501.2070, 15641.00
502.3910, 15500.00
503.5740, 15497.00
504.7570, 15498.00
505.9400, 15621.00
507.1220, 15678.00
508.3050, 15626.00
509.4870, 15568.00
510.6690, 15698.00
511.8510, 15845.00
513.0330, 15838.00
514.2140, 15797.00
515.3960, 15798.00
516.5770, 15912.00
517.7580, 15945.00
518.9390, 16203.00
520.1200, 16042.00
521.3010, 15900.00
522.4810, 15965.00
523.6610, 16098.00
524.8420, 16130.00
526.0220, 15957.00
527.2010, 16071.00
528.3810, 16012.00
529.5610, 15926.00
530.7400, 15918.00
531.9190, 15917.00
533.0980, 15988.00
534.2770, 15895.00
535.4560, 15856.00
536.6340, 16206.00
537.8120, 15965.00
538.9910, 16027.00
540.1690, 16043.00
541.3460, 16358.00
542.5240, 16179.00
543.7020, 16230.00
544.8790, 16415.00
546.0560, 16394.00
547.2330, 16609.00
548.4100, 16790.00
549.5870, 16800.00
550.7630, 17203.00
551.9400, 17150.00
553.1160, 17197.00
554.2920, 17391.00
555.4680, 16993.00
556.6440, 16850.00
557.8190, 16701.00
558.9950, 16574.00
560.1700, 16700.00
561.3450, 16636.00
562.5200, 16498.00
563.6950, 16469.00
564.8690, 16605.00
566.0440, 16395.00
567.2180, 16361.00
568.3920, 16322.00
569.5660, 16537.00
570.7400, 16408.00
571.9130, 16458.00
573.0870, 16559.00
574.2600, 16665.00
575.4330, 16528.00
576.6060, 16467.00
577.7790, 16378.00
578.9520, 16449.00
580.1240, 16601.00
581.2960, 16644.00
582.4690, 16553.00
583.6410, 16534.00
584.8120, 16442.00
585.9840, 16625.00
587.1560, 16597.00
588.3270, 16649.00
589.4980, 16770.00
590.6690, 16657.00
591.8400, 16710.00
593.0110, 16746.00
594.1810, 16739.00
595.3510, 16783.00
596.5220, 16773.00
597.6920, 16843.00
598.8610, 16928.00
600.0310, 16929.00
601.2010, 16942.00
602.3700, 16845.00
603.5390, 16972.00
604.7080, 17032.00
605.8770, 17037.00
607.0460, 16995.00
608.2140, 16992.00
609.3830, 17227.00
610.5510, 17072.00
611.7190, 17207.00
612.8870, 17221.00
614.0550, 17226.00
615.2220, 17394.00
616.3900, 17190.00
617.5570, 17432.00
618.7240, 17277.00
619.8910, 17288.00
621.0580, 17371.00
622.2240, 17395.00
623.3910, 17455.00
624.5570, 17553.00
625.7230, 17540.00
626.8890, 17406.00
628.0550, 17668.00
629.2200, 17633.00
630.3860, 17578.00
631.5510, 17697.00
632.7160, 17949.00
633.8810, 17865.00
635.0460, 17857.00
636.2100, 17921.00
637.3750, 18016.00
638.5390, 18253.00
639.7030, 18292.00
640.8670, 18318.00
642.0310, 18591.00
643.1950, 18753.00
644.3580, 18818.00
645.5210, 19301.00
646.6850, 19507.00
647.8480, 19666.00
649.0100, 20323.00
650.1730, 20570.00
651.3350, 21461.00
652.4980, 22167.00
653.6600, 22690.00
654.8220, 23628.00
655.9840, 24643.00
657.1450, 25752.00
658.3070, 26564.00
659.4680, 27129.00
660.6300, 27098.00
661.7910, 26626.00
662.9510, 26007.00
664.1120, 25149.00
665.2730, 24021.00
666.4330, 22908.00
667.5930, 21874.00
668.7530, 21198.00
669.9130, 20476.00
671.0730, 20023.00
672.2320, 19726.00
673.3920, 19373.00
674.5510, 19137.00
675.7100, 18945.00
676.8690, 18811.00
678.0280, 18812.00
679.1860, 18780.00
680.3450, 18598.00
681.5030, 18408.00
682.6610, 18398.00
683.8190, 18432.00
684.9770, 18433.00
686.1340, 18420.00
687.2920, 18458.00
688.4490, 18354.00
689.6060, 18384.00
690.7630, 18300.00
691.9200, 18323.00
693.0760, 18387.00
694.2330, 18216.00
695.3890, 18406.00
696.5450, 18423.00
697.7010, 18438.00
698.8570, 18317.00
700.0130, 18507.00
701.1680, 18497.00
702.3230, 18365.00
703.4780, 18500.00
704.6330, 18519.00
705.7880, 18410.00
706.9430, 18434.00
708.0970, 18374.00
709.2520, 18370.00
710.4060, 18616.00
711.5600, 18687.00
712.7140, 18530.00
713.8670, 18554.00
715.0210, 18643.00
716.1740, 18741.00
717.3270, 18619.00
718.4800, 18722.00
719.6330, 18729.00
720.7860, 18711.00
721.9380, 18663.00
723.0910, 18736.00
724.2430, 18569.00
725.3950, 18842.00
726.5470, 18721.00
727.6980, 18825.00
728.8500, 18783.00
730.0010, 18832.00
731.1530, 18812.00
732.3040, 18837.00
733.4550, 18949.00
734.6050, 18930.00
735.7560, 18932.00
736.9060, 18944.00
738.0560, 18840.00
739.2060, 19067.00
740.3560, 19055.00
741.5060, 18969.00
742.6560, 18915.00
743.8050, 19051.00
744.9540, 19163.00
746.1030, 19298.00
747.2520, 18957.00
748.4010, 19237.00
749.5500, 19025.00
750.6980, 19195.00
751.8460, 19233.00
752.9950, 19408.00
754.1420, 19314.00
755.2900, 19407.00
756.4380, 19381.00
757.5850, 19472.00
758.7330, 19287.00
759.8800, 19278.00
761.0270, 19523.00
762.1730, 19403.00
763.3200, 19418.00
764.4670, 19407.00
765.6130, 19633.00
766.7590, 19366.00
767.9050, 19277.00
769.0510, 19577.00
770.1960, 19462.00
771.3420, 19584.00
772.4870, 19629.00
773.6320, 19394.00
774.7770, 19434.00
775.9220, 19414.00
777.0670, 19670.00
778.2110, 19616.00
779.3560, 19475.00
780.5000, 19344.00
781.6440, 19550.00
782.7880, 19667.00
783.9320, 19772.00
785.0750, 19735.00
786.2180, 19888.00
787.3620, 19824.00
788.5050, 19728.00
789.6480, 19756.00
790.7900, 19799.00
791.9330, 19787.00
793.0750, 20031.00
794.2170, 19869.00
795.3590, 19840.00
796.5010, 19938.00
797.6430, 20039.00
798.7850, 19925.00
799.9260, 19778.00
801.0670, 19974.00
802.2080, 19915.00
803.3490, 20068.00
804.4900, 20030.00
805.6310, 20070.00
806.7710, 20081.00
807.9110, 19991.00
809.0510, 20153.00
810.1910, 20161.00
811.3310, 20109.00
812.4710, 20259.00
813.6100, 20156.00
814.7490, 20161.00
815.8880, 20197.00
817.0270, 20401.00
818.1660, 20252.00
819.3050, 20335.00
820.4430, 20426.00
821.5820, 20259.00
822.7200, 20468.00
823.8580, 20540.00
824.9950, 20572.00
826.1330, 20453.00
827.2710, 20554.00
828.4080, 20440.00
829.5450, 20595.00
830.6820, 20787.00
831.8190, 20739.00
832.9560, 20674.00
834.0920, 20783.00
835.2280, 20892.00
836.3650, 20908.00
837.5010, 20666.00
838.6360, 20784.00
839.7720, 20726.00
840.9080, 20794.00
842.0430, 21209.00
843.1780, 21136.00
844.3130, 20973.00
845.4480, 21156.00
846.5830, 21223.00
847.7170, 21301.00
848.8520, 21304.00
849.9860, 21400.00
851.1200, 21625.00
852.2540, 21472.00
853.3870, 21501.00
854.5210, 21738.00
855.6540, 21771.00
856.7880, 21502.00
857.9210, 21680.00
859.0540, 21417.00
860.1860, 21418.00
861.3190, 21278.00
862.4510, 21395.00
863.5840, 21458.00
864.7160, 21467.00
865.8480, 21362.00
866.9790, 21453.00
868.1110, 21798.00
869.2420, 21360.00
870.3740, 21407.00
871.5050, 21448.00
872.6360, 21463.00
873.7660, 21697.00
874.8970, 21857.00
876.0280, 21547.00
877.1580, 21705.00
878.2880, 21709.00
879.4180, 21910.00
880.5480, 21959.00
881.6770, 21846.00
882.8070, 21863.00
883.9360, 21802.00
885.0650, 21960.00
886.1940, 21962.00
887.3230, 21865.00
888.4520, 21966.00
889.5800, 21932.00
890.7090, 22135.00
891.8370, 22130.00
892.9650, 21980.00
894.0930, 22152.00
895.2200, 22180.00
896.3480, 22224.00
897.4750, 22215.00
898.6020, 22229.00
899.7290, 22192.00
900.8560, 22281.00
901.9830, 22290.00
903.1090, 22467.00
904.2360, 22473.00
905.3620, 22380.00
906.4880, 22559.00
907.6140, 22337.00
908.7400, 22604.00
909.8650, 22575.00
910.9900, 22231.00
912.1160, 22395.00
913.2410, 22430.00
914.3660, 22688.00
915.4900, 22265.00
916.6150, 22503.00
917.7390, 22424.00
918.8640, 22637.00
919.9880, 22479.00
921.1120, 22595.00
922.2350, 22643.00
923.3590, 22611.00
924.4820, 22676.00
925.6060, 22535.00
926.7290, 22556.00
927.8520, 22752.00
928.9740, 22749.00
930.0970, 22553.00
931.2190, 22529.00
932.3420, 22642.00
933.4640, 22583.00
934.5860, 22636.00
935.7080, 22763.00
936.8290, 22758.00
937.9510, 22683.00
939.0720, 22767.00
940.1930, 22683.00
941.3140, 22794.00
942.4350, 22913.00
943.5560, 22770.00
944.6760, 22923.00
945.7960, 22887.00
946.9170, 22955.00
948.0370, 22881.00
949.1560, 22977.00
950.2760, 23043.00
951.3960, 23129.00
952.5150, 23027.00
953.6340, 23188.00
954.7530, 23204.00
955.8720, 23102.00
956.9910, 23416.00
958.1090, 23334.00
959.2280, 23424.00
960.3460, 23275.00
961.4640, 23232.00
962.5820, 23440.00
963.6990, 23552.00
964.8170, 23541.00
965.9340, 23569.00
967.0510, 23670.00
968.1690, 23777.00
969.2850, 23379.00
970.4020, 23735.00
971.5190, 23686.00
972.6350, 23700.00
973.7510, 23528.00
974.8670, 23542.00
975.9830, 23516.00
977.0990, 23939.00
978.2150, 23887.00
979.3300, 24188.00
980.4450, 23931.00
981.5600, 24169.00
982.6750, 24066.00
983.7900, 24286.00
984.9050, 24364.00
986.0190, 24376.00
987.1340, 24555.00
988.2480, 24641.00
989.3620, 24674.00
990.4750, 24919.00
991.5890, 25005.00
992.7020, 25147.00
993.8160, 25494.00
994.9290, 25700.00
996.0420, 25951.00
997.1550, 26326.00
998.2670, 26629.00
999.3800, 27275.00
1000.492, 27852.00
1001.604, 28682.00
1002.716, 29819.00
1003.828, 31161.00
1004.940, 32781.00
1006.051, 35409.00
1007.163, 37846.00
1008.274, 40532.00
1009.385, 43688.00
1010.496, 45972.00
1011.606, 47517.00
1012.717, 47332.00
1013.827, 45354.00
1014.937, 42525.00
1016.047, 38804.00
1017.157, 35986.00
1018.267, 33540.00
1019.377, 31589.00
1020.486, 30366.00
1021.595, 29457.00
1022.704, 29049.00
1023.813, 28472.00
1024.922, 28138.00
1026.030, 27932.00
1027.139, 27873.00
1028.247, 27650.00
1029.355, 27492.00
1030.463, 27541.00
1031.571, 27243.00
1032.678, 27015.00
1033.786, 26971.00
1034.893, 26802.00
1036.000, 26463.00
1037.107, 26626.00
1038.214, 26136.00
1039.321, 26196.00
1040.427, 25906.00
1041.533, 26001.00
1042.639, 25965.00
1043.745, 25837.00
1044.851, 25526.00
1045.957, 25450.00
1047.062, 25576.00
1048.168, 25452.00
1049.273, 25497.00
1050.378, 25448.00
1051.482, 25588.00
1052.587, 25432.00
1053.692, 25586.00
1054.796, 25588.00
1055.900, 25719.00
1057.004, 25672.00
1058.108, 25522.00
1059.212, 25507.00
1060.315, 25401.00
1061.418, 25408.00
1062.522, 25570.00
1063.625, 25498.00
1064.728, 25643.00
1065.830, 25540.00
1066.933, 25724.00
1068.035, 25408.00
1069.137, 25841.00
1070.239, 25681.00
1071.341, 25657.00
1072.443, 25812.00
1073.545, 25649.00
1074.646, 25639.00
1075.747, 25866.00
1076.848, 25928.00
1077.949, 25909.00
1079.050, 25868.00
1080.150, 25947.00
1081.251, 26183.00
1082.351, 26234.00
1083.451, 26361.00
1084.551, 26447.00
1085.651, 26627.00
1086.750, 26739.00
1087.850, 26573.00
1088.949, 26289.00
1090.048, 26186.00
1091.147, 26016.00
1092.246, 26228.00
1093.345, 26078.00
1094.443, 25943.00
1095.541, 26150.00
1096.639, 26024.00
1097.737, 25967.00
1098.835, 26296.00
1099.933, 26135.00
1101.030, 26051.00
1102.128, 26226.00
1103.225, 26290.00
1104.322, 26041.00
1105.419, 26185.00
1106.515, 26299.00
1107.612, 26330.00
1108.708, 26277.00
1109.804, 26218.00
1110.900, 26399.00
1111.996, 26326.00
1113.092, 26460.00
1114.187, 26629.00
1115.283, 26380.00
1116.378, 26553.00
1117.473, 26313.00
1118.568, 26307.00
1119.662, 26288.00
1120.757, 26651.00
1121.851, 26538.00
1122.946, 26514.00
1124.040, 26621.00
1125.134, 26620.00
1126.227, 26817.00
1127.321, 26529.00
1128.414, 26666.00
1129.508, 26816.00
1130.601, 26542.00
1131.693, 26868.00
1132.786, 26910.00
1133.879, 26666.00
1134.971, 26781.00
1136.064, 26809.00
1137.156, 26743.00
1138.248, 26971.00
1139.339, 26988.00
1140.431, 27029.00
1141.522, 27073.00
1142.614, 26872.00
1143.705, 26870.00
1144.796, 27153.00
1145.887, 26998.00
1146.977, 26959.00
1148.068, 26997.00
1149.158, 27140.00
1150.248, 27142.00
1151.338, 27125.00
1152.428, 26983.00
1153.518, 27112.00
1154.607, 27057.00
1155.696, 27266.00
1156.785, 27223.00
1157.874, 27334.00
1158.963, 27322.00
1160.052, 27197.00
1161.141, 27334.00
1162.229, 27259.00
1163.317, 27259.00
1164.405, 27482.00
1165.493, 27267.00
1166.581, 27632.00
1167.668, 27468.00
1168.756, 27490.00
1169.843, 27451.00
1170.930, 27695.00
1172.017, 27397.00
1173.103, 27398.00
1174.190, 27620.00
1175.276, 27461.00
1176.363, 27777.00
1177.449, 27658.00
1178.535, 27768.00
1179.620, 27396.00
1180.706, 27754.00
1181.791, 27769.00
1182.877, 27653.00
1183.962, 27963.00
1185.047, 27882.00
1186.131, 27967.00
1187.216, 27602.00
1188.300, 28152.00
1189.385, 27902.00
1190.469, 27853.00
1191.553, 28026.00
1192.637, 27767.00
1193.720, 27881.00
1194.804, 27852.00
1195.887, 28178.00
1196.970, 28214.00
1198.053, 28327.00
1199.136, 28146.00
1200.219, 28263.00
1201.301, 28083.00
1202.383, 28084.00
1203.465, 28371.00
1204.547, 28120.00
1205.629, 28480.00
1206.711, 28355.00
1207.792, 28454.00
1208.874, 28427.00
1209.955, 28366.00
1211.036, 28170.00
1212.117, 28555.00
1213.198, 28528.00
1214.278, 28463.00
1215.359, 28475.00
1216.439, 28698.00
1217.519, 28359.00
1218.599, 28809.00
1219.678, 28605.00
1220.758, 28764.00
1221.837, 28889.00
1222.917, 28732.00
1223.996, 28650.00
1225.075, 28674.00
1226.153, 28810.00
1227.232, 28995.00
1228.310, 28794.00
1229.389, 28864.00
1230.467, 29017.00
1231.545, 28920.00
1232.622, 29109.00
1233.700, 28886.00
1234.777, 29127.00
1235.855, 29216.00
1236.932, 28974.00
1238.009, 29171.00
1239.086, 29105.00
1240.162, 29548.00
1241.239, 29081.00
1242.315, 29130.00
1243.391, 29443.00
1244.467, 29348.00
1245.543, 29445.00
1246.619, 29302.00
1247.694, 29286.00
1248.769, 29311.00
1249.844, 29499.00
1250.919, 29290.00
1251.994, 29534.00
1253.069, 29716.00
1254.144, 29686.00
1255.218, 29792.00
1256.292, 29499.00
1257.366, 29514.00
1258.440, 29608.00
1259.514, 29705.00
1260.587, 29540.00
1261.661, 29541.00
1262.734, 29750.00
1263.807, 29935.00
1264.880, 29672.00
1265.952, 29875.00
1267.025, 29609.00
1268.097, 29944.00
1269.170, 29775.00
1270.242, 29978.00
1271.314, 29993.00
1272.385, 29884.00
1273.457, 30148.00
1274.528, 30055.00
1275.600, 29930.00
1276.671, 30130.00
1277.742, 30020.00
1278.812, 30310.00
1279.883, 30285.00
1280.954, 30247.00
1282.024, 30343.00
1283.094, 30404.00
1284.164, 30222.00
1285.234, 30204.00
1286.303, 30343.00
1287.373, 30230.00
1288.442, 30172.00
1289.511, 30290.00
1290.580, 30288.00
1291.649, 30463.00
1292.718, 30447.00
1293.786, 30388.00
1294.855, 30438.00
1295.923, 30250.00
1296.991, 30493.00
1298.059, 30758.00
1299.126, 30543.00
1300.194, 30743.00
1301.261, 30726.00
1302.328, 30473.00
1303.395, 30787.00
1304.462, 30873.00
1305.529, 30738.00
1306.596, 30849.00
1307.662, 31058.00
1308.728, 31018.00
1309.794, 30950.00
1310.860, 30701.00
1311.926, 30940.00
1312.991, 30859.00
1314.057, 30994.00
1315.122, 31058.00
1316.187, 31148.00
1317.252, 31186.00
1318.317, 31020.00
1319.381, 31230.00
1320.446, 31212.00
1321.510, 31365.00
1322.574, 31125.00
1323.638, 31359.00
1324.702, 31276.00
1325.766, 31349.00
1326.829, 31607.00
1327.892, 31188.00
1328.956, 31422.00
1330.019, 31422.00
1331.081, 31426.00
1332.144, 31555.00
1333.206, 31710.00
1334.269, 31581.00
1335.331, 31450.00
1336.393, 31760.00
1337.455, 31817.00
1338.516, 31434.00
1339.578, 31654.00
1340.639, 31651.00
1341.701, 31672.00
1342.762, 31827.00
1343.822, 31821.00
1344.883, 31868.00
1345.944, 31802.00
1347.004, 32049.00
1348.064, 31975.00
1349.124, 31829.00
1350.184, 31742.00
1351.244, 31675.00
1352.304, 32115.00
1353.363, 32187.00
1354.422, 32083.00
1355.481, 32081.00
1356.540, 32032.00
1357.599, 32094.00
1358.657, 31979.00
1359.716, 32020.00
1360.774, 32059.00
1361.832, 32014.00
1362.890, 32116.00
1363.948, 31880.00
1365.006, 32180.00
1366.063, 32246.00
1367.120, 32392.00
1368.178, 32334.00
1369.234, 32589.00
1370.291, 32384.00
1371.348, 32730.00
1372.404, 32541.00
1373.461, 32488.00
1374.517, 32359.00
1375.573, 32590.00
1376.629, 32598.00
1377.684, 32274.00
1378.740, 32474.00
1379.795, 32631.00
1380.850, 32534.00
1381.905, 32527.00
1382.960, 32894.00
1384.015, 32703.00
1385.070, 32685.00
1386.124, 32731.00
1387.178, 32922.00
1388.232, 32932.00
1389.286, 32773.00
1390.340, 32901.00
1391.393, 32716.00
1392.447, 32932.00
1393.500, 32707.00
1394.553, 32949.00
1395.606, 32896.00
1396.659, 33056.00
1397.711, 33001.00
1398.764, 33039.00
1399.816, 33098.00
1400.868, 32853.00
1401.920, 32865.00
1402.972, 33127.00
1404.023, 33130.00
1405.075, 33117.00
1406.126, 32991.00
1407.177, 32978.00
1408.228, 33229.00
1409.279, 33196.00
1410.330, 33250.00
1411.380, 33201.00
1412.431, 33342.00
1413.481, 33225.00
1414.531, 33246.00
1415.580, 33261.00
1416.630, 33294.00
1417.680, 33356.00
1418.729, 33536.00
1419.778, 33523.00
