##NAMES=Hedenbergite
##RRUFFID=R060040
##IDEAL CHEMISTRY=CaFe^2+^Si_2_O_6_
##LOCALITY=Rio Marina, Elba, Italy
##OWNER=RRUFF
##SOURCE=University of Arizona Mineral Museum
##DESCRIPTION=Radial aggregate of green thin bladed crystals
##STATUS=The identification of this mineral has been confirmed by X-ray diffraction and chemical analysis
##URL=rruff.info/R060040
##MEASURED CHEMISTRY=Ca_1.00_(Fe^2+^_0.89_Mg_0.09_Mn_0.02_)_Î£=1_Si_2.00_O_6_
##PIN_ID=M01578
##ORIENTATION=Laser parallel to (-1 0 -1). Fiducial mark perpendicular to laser is parallel to -b [0 -1 0]
262.4900, 11562.00
263.7050, 11446.00
264.9210, 11532.00
266.1360, 11671.00
267.3520, 11698.00
268.5670, 11683.00
269.7820, 11834.00
270.9960, 11748.00
272.2110, 11754.00
273.4250, 11966.00
274.6400, 11792.00
275.8540, 11931.00
277.0680, 11908.00
278.2810, 12102.00
279.4950, 11892.00
280.7090, 12166.00
281.9220, 12225.00
283.1350, 12313.00
284.3480, 12496.00
285.5610, 12415.00
286.7730, 12301.00
287.9860, 12611.00
289.1980, 12520.00
290.4100, 12665.00
291.6220, 12687.00
292.8340, 12782.00
294.0460, 13027.00
295.2570, 13113.00
296.4690, 13312.00
297.6800, 13242.00
298.8910, 13513.00
300.1020, 13698.00
301.3120, 13797.00
302.5230, 13968.00
303.7330, 14351.00
304.9440, 14516.00
306.1540, 14663.00
307.3630, 14569.00
308.5730, 14754.00
309.7830, 14689.00
310.9920, 14391.00
312.2010, 14155.00
313.4100, 14021.00
314.6190, 13727.00
315.8280, 13491.00
317.0370, 13379.00
318.2450, 13380.00
319.4530, 13230.00
320.6610, 13231.00
321.8690, 13099.00
323.0770, 13202.00
324.2850, 13062.00
325.4920, 13121.00
326.6990, 13134.00
327.9060, 13255.00
329.1130, 13284.00
330.3200, 13323.00
331.5270, 13481.00
332.7330, 13580.00
333.9390, 13553.00
335.1450, 13797.00
336.3510, 13990.00
337.5570, 14027.00
338.7630, 14020.00
339.9680, 14066.00
341.1740, 14286.00
342.3790, 14003.00
343.5840, 14076.00
344.7890, 13923.00
345.9930, 13808.00
347.1980, 13766.00
348.4020, 13624.00
349.6060, 13572.00
350.8100, 13618.00
352.0140, 13610.00
353.2180, 13589.00
354.4210, 13695.00
355.6250, 13819.00
356.8280, 13890.00
358.0310, 13997.00
359.2340, 14298.00
360.4360, 14483.00
361.6390, 14695.00
362.8410, 15072.00
364.0430, 15413.00
365.2450, 15835.00
366.4470, 16371.00
367.6490, 17052.00
368.8510, 17754.00
370.0520, 18412.00
371.2530, 19396.00
372.4540, 20072.00
373.6550, 20725.00
374.8560, 21639.00
376.0560, 21662.00
377.2570, 21437.00
378.4570, 20784.00
379.6570, 19881.00
380.8570, 18883.00
382.0570, 17938.00
383.2560, 17007.00
384.4560, 16201.00
385.6550, 15726.00
386.8540, 15128.00
388.0530, 14824.00
389.2520, 14464.00
390.4510, 14367.00
391.6490, 14095.00
392.8470, 13920.00
394.0450, 13831.00
395.2430, 13660.00
396.4410, 13502.00
397.6390, 13494.00
398.8360, 13480.00
400.0340, 13453.00
401.2310, 13394.00
402.4280, 13481.00
403.6250, 13354.00
404.8210, 13409.00
406.0180, 13250.00
407.2140, 13430.00
408.4100, 13268.00
409.6060, 13381.00
410.8020, 13422.00
411.9980, 13229.00
413.1930, 13269.00
414.3890, 13360.00
415.5840, 13430.00
416.7790, 13273.00
417.9740, 13411.00
419.1680, 13496.00
420.3630, 13210.00
421.5570, 13605.00
422.7510, 13366.00
423.9450, 13270.00
425.1390, 13297.00
426.3330, 13264.00
427.5270, 13512.00
428.7200, 13508.00
429.9130, 13376.00
431.1060, 13404.00
432.2990, 13562.00
433.4920, 13491.00
434.6840, 13584.00
435.8770, 13580.00
437.0690, 13662.00
438.2610, 13605.00
439.4530, 13640.00
440.6450, 13644.00
441.8360, 13678.00
443.0280, 13713.00
444.2190, 13614.00
445.4100, 13628.00
446.6010, 13728.00
447.7920, 13718.00
448.9820, 13634.00
450.1730, 13745.00
451.3630, 13730.00
452.5530, 13685.00
453.7430, 13776.00
454.9330, 13742.00
456.1230, 13791.00
457.3120, 13710.00
458.5010, 13805.00
459.6910, 13702.00
460.8800, 13830.00
462.0680, 13780.00
463.2570, 13983.00
464.4460, 13791.85
465.6340, 13947.07
466.8220, 14040.90
468.0100, 14076.63
469.1980, 13880.26
470.3860, 13983.60
471.5730, 13966.82
472.7600, 13945.11
473.9480, 14090.63
475.1350, 13928.01
476.3210, 14070.85
477.5080, 14091.76
478.6950, 14095.00
479.8810, 14163.00
481.0670, 14354.00
482.2530, 14180.00
483.4390, 14339.00
484.6250, 14156.00
485.8100, 14355.00
486.9960, 14211.00
488.1810, 14487.00
489.3660, 14498.00
490.5510, 14508.00
491.7360, 14502.00
492.9200, 14575.00
494.1050, 14590.00
495.2890, 14711.00
496.4730, 14641.00
497.6570, 14656.00
498.8400, 14737.00
500.0240, 14713.00
501.2070, 14643.00
502.3910, 14508.00
503.5740, 14703.00
504.7570, 14676.00
505.9400, 14628.00
507.1220, 14814.00
508.3050, 14876.00
509.4870, 14850.00
510.6690, 14946.00
511.8510, 15110.00
513.0330, 15246.00
514.2140, 15057.00
515.3960, 15317.00
516.5770, 15283.00
517.7580, 15499.00
518.9390, 15550.00
520.1200, 15652.00
521.3010, 15749.00
522.4810, 15895.00
523.6610, 15709.00
524.8420, 15588.00
526.0220, 15605.00
527.2010, 15403.00
528.3810, 15350.00
529.5610, 15222.00
530.7400, 15108.00
531.9190, 15105.00
533.0980, 15131.00
534.2770, 15008.00
535.4560, 15187.00
536.6340, 15071.00
537.8120, 15205.00
538.9910, 15129.00
540.1690, 15137.00
541.3460, 15174.00
542.5240, 15318.00
543.7020, 15301.00
544.8790, 15333.00
546.0560, 15249.00
547.2330, 15551.00
548.4100, 15832.00
549.5870, 15635.00
550.7630, 15869.00
551.9400, 15860.00
553.1160, 15567.00
554.2920, 15779.00
555.4680, 15631.00
556.6440, 15621.00
557.8190, 15485.00
558.9950, 15575.00
560.1700, 15539.00
561.3450, 15469.00
562.5200, 15541.00
563.6950, 15253.00
564.8690, 15354.00
566.0440, 15357.00
567.2180, 15280.00
568.3920, 15454.00
569.5660, 15475.00
570.7400, 15386.00
571.9130, 15394.00
573.0870, 15414.00
574.2600, 15403.00
575.4330, 15402.00
576.6060, 15521.00
577.7790, 15306.00
578.9520, 15502.00
580.1240, 15441.00
581.2960, 15402.00
582.4690, 15535.00
583.6410, 15564.00
584.8120, 15348.00
585.9840, 15319.00
587.1560, 15619.00
588.3270, 15535.00
589.4980, 15577.00
590.6690, 15559.00
591.8400, 15594.00
593.0110, 15610.00
594.1810, 15688.00
595.3510, 15555.00
596.5220, 15641.00
597.6920, 15633.00
598.8610, 15663.00
600.0310, 15630.00
601.2010, 15617.00
602.3700, 15937.00
603.5390, 15663.00
604.7080, 15712.00
605.8770, 15826.00
607.0460, 15678.00
608.2140, 15900.00
609.3830, 15814.00
610.5510, 15900.00
611.7190, 15853.00
612.8870, 15968.00
614.0550, 16192.00
615.2220, 15985.00
616.3900, 15857.00
617.5570, 16066.00
618.7240, 15978.00
619.8910, 16026.00
621.0580, 16228.00
622.2240, 16110.00
623.3910, 16167.00
624.5570, 16154.00
625.7230, 16349.00
626.8890, 16309.00
628.0550, 16454.00
629.2200, 16249.00
630.3860, 16448.00
631.5510, 16359.00
632.7160, 16562.00
633.8810, 16453.00
635.0460, 16610.00
636.2100, 16649.00
637.3750, 16647.00
638.5390, 16626.00
639.7030, 16828.00
640.8670, 16914.00
642.0310, 16963.00
643.1950, 17077.00
644.3580, 17260.00
645.5210, 17362.00
646.6850, 17558.00
647.8480, 17964.00
649.0100, 18144.00
650.1730, 18635.00
651.3350, 18869.00
652.4980, 19718.00
653.6600, 20764.00
654.8220, 20642.00
655.9840, 21552.00
657.1450, 22157.00
658.3070, 22936.00
659.4680, 23629.00
660.6300, 23984.00
661.7910, 23874.00
662.9510, 23250.00
664.1120, 22534.00
665.2730, 21760.00
666.4330, 20924.00
667.5930, 20114.00
668.7530, 19762.00
669.9130, 19223.00
671.0730, 18706.00
672.2320, 18375.00
673.3920, 18137.00
674.5510, 18103.00
675.7100, 17933.00
676.8690, 17725.00
678.0280, 17631.00
679.1860, 17588.00
680.3450, 17574.00
681.5030, 17654.00
682.6610, 17455.00
683.8190, 17404.00
684.9770, 17477.00
686.1340, 17387.00
687.2920, 17268.00
688.4490, 17346.00
689.6060, 17418.00
690.7630, 17351.00
691.9200, 17330.00
693.0760, 17348.00
694.2330, 17206.00
695.3890, 17299.00
696.5450, 17456.00
697.7010, 17280.00
698.8570, 17359.00
700.0130, 17612.00
701.1680, 17289.00
702.3230, 17475.00
703.4780, 17291.00
704.6330, 17442.00
705.7880, 17465.00
706.9430, 17463.00
708.0970, 17375.00
709.2520, 17540.00
710.4060, 17677.00
711.5600, 17694.00
712.7140, 17395.00
713.8670, 17457.00
715.0210, 17646.00
716.1740, 17500.00
717.3270, 17763.00
718.4800, 17492.00
719.6330, 17574.00
720.7860, 17541.00
721.9380, 17610.00
723.0910, 17640.00
724.2430, 17601.00
725.3950, 17579.00
726.5470, 17756.00
727.6980, 17697.00
728.8500, 17441.00
730.0010, 17702.00
731.1530, 17705.00
732.3040, 17658.00
733.4550, 17686.00
734.6050, 17817.00
735.7560, 17740.00
736.9060, 17860.00
738.0560, 17969.00
739.2060, 17804.00
740.3560, 17833.00
741.5060, 17946.00
742.6560, 17936.00
743.8050, 17863.00
744.9540, 18087.00
746.1030, 18005.00
747.2520, 17984.00
748.4010, 18090.00
749.5500, 18014.00
750.6980, 18070.00
751.8460, 18090.00
752.9950, 18027.00
754.1420, 18178.00
755.2900, 18279.00
756.4380, 18264.00
757.5850, 18361.00
758.7330, 18243.00
759.8800, 18320.00
761.0270, 18127.00
762.1730, 18353.00
763.3200, 18132.00
764.4670, 18353.00
765.6130, 18366.00
766.7590, 18369.00
767.9050, 18349.00
769.0510, 18226.00
770.1960, 18197.00
771.3420, 18480.00
772.4870, 18478.00
773.6320, 18221.00
774.7770, 18363.00
775.9220, 18459.00
777.0670, 18478.00
778.2110, 18515.00
779.3560, 18556.00
780.5000, 18434.00
781.6440, 18446.00
782.7880, 18901.00
783.9320, 18608.00
785.0750, 18614.00
786.2180, 18677.00
787.3620, 18592.00
788.5050, 18529.00
789.6480, 18445.00
790.7900, 18636.00
791.9330, 18446.00
793.0750, 18607.00
794.2170, 18729.00
795.3590, 18579.00
796.5010, 18658.00
797.6430, 18732.00
798.7850, 18773.00
799.9260, 18871.00
801.0670, 18684.00
802.2080, 18725.00
803.3490, 18815.00
804.4900, 18637.00
805.6310, 18604.00
806.7710, 18850.00
807.9110, 18950.00
809.0510, 18876.00
810.1910, 18715.00
811.3310, 18858.00
812.4710, 19041.00
813.6100, 19088.00
814.7490, 18952.00
815.8880, 18895.00
817.0270, 18974.00
818.1660, 18973.00
819.3050, 18934.00
820.4430, 19126.00
821.5820, 18954.00
822.7200, 19064.00
823.8580, 19018.00
824.9950, 19000.00
826.1330, 19106.00
827.2710, 19179.00
828.4080, 19278.00
829.5450, 19195.00
830.6820, 19243.00
831.8190, 19196.00
832.9560, 19236.00
834.0920, 19296.00
835.2280, 19255.00
836.3650, 19398.00
837.5010, 19296.00
838.6360, 19435.00
839.7720, 19270.00
840.9080, 19532.00
842.0430, 19595.00
843.1780, 19425.00
844.3130, 19452.00
845.4480, 19549.00
846.5830, 19481.00
847.7170, 19885.00
848.8520, 19668.00
849.9860, 19726.00
851.1200, 19850.00
852.2540, 19831.00
853.3870, 20049.00
854.5210, 19858.00
855.6540, 19946.00
856.7880, 19962.00
857.9210, 19804.00
859.0540, 19974.00
860.1860, 20030.00
861.3190, 19901.00
862.4510, 19856.00
863.5840, 19794.00
864.7160, 19883.00
865.8480, 19879.00
866.9790, 20269.00
868.1110, 20163.00
869.2420, 20025.00
870.3740, 20022.00
871.5050, 20138.00
872.6360, 20178.00
873.7660, 20149.00
874.8970, 20255.00
876.0280, 20263.00
877.1580, 20406.00
878.2880, 20239.00
879.4180, 20241.00
880.5480, 20218.00
881.6770, 20369.00
882.8070, 20280.00
883.9360, 20383.00
885.0650, 20334.00
886.1940, 20449.00
887.3230, 20286.00
888.4520, 20522.00
889.5800, 20421.00
890.7090, 20573.00
891.8370, 20428.00
892.9650, 20670.00
894.0930, 20646.00
895.2200, 20377.00
896.3480, 20551.00
897.4750, 20616.00
898.6020, 20414.00
899.7290, 20596.00
900.8560, 20617.00
901.9830, 20988.00
903.1090, 20570.00
904.2360, 20708.00
905.3620, 20711.00
906.4880, 20849.00
907.6140, 20838.00
908.7400, 20960.00
909.8650, 20967.00
910.9900, 20793.00
912.1160, 20847.00
913.2410, 20777.00
914.3660, 20872.00
915.4900, 21078.00
916.6150, 20921.00
917.7390, 20746.00
918.8640, 20855.00
919.9880, 20904.00
921.1120, 20856.00
922.2350, 21062.00
923.3590, 21107.00
924.4820, 20948.00
925.6060, 21102.00
926.7290, 21059.00
927.8520, 20975.00
928.9740, 20903.00
930.0970, 20874.00
931.2190, 20875.00
932.3420, 21032.00
933.4640, 20841.00
934.5860, 20981.00
935.7080, 21008.00
936.8290, 21027.00
937.9510, 21187.00
939.0720, 21233.00
940.1930, 21137.00
941.3140, 21057.00
942.4350, 20989.00
943.5560, 21117.00
944.6760, 21338.00
945.7960, 21239.00
946.9170, 21149.89
948.0370, 21337.92
949.1560, 21455.76
950.2760, 21507.23
951.3960, 21293.44
952.5150, 21422.15
953.6340, 21413.60
954.7530, 21399.41
955.8720, 21576.33
956.9910, 21597.00
958.1090, 21588.00
959.2280, 21592.00
960.3460, 21623.00
961.4640, 21565.00
962.5820, 21812.00
963.6990, 21702.00
964.8170, 21752.00
965.9340, 21952.00
967.0510, 21788.00
968.1690, 21948.00
969.2850, 22002.00
970.4020, 21806.00
971.5190, 21741.00
972.6350, 21905.00
973.7510, 21934.00
974.8670, 22044.00
975.9830, 22015.00
977.0990, 22082.00
978.2150, 22356.00
979.3300, 22178.00
980.4450, 22244.00
981.5600, 22318.00
982.6750, 22439.00
983.7900, 22519.00
984.9050, 22552.00
986.0190, 22617.00
987.1340, 22702.00
988.2480, 22877.00
989.3620, 23038.00
990.4750, 23037.00
991.5890, 23279.00
992.7020, 23342.00
993.8160, 23581.00
994.9290, 23779.00
996.0420, 23965.00
997.1550, 24256.00
998.2670, 24768.00
999.3800, 25179.00
1000.492, 25851.00
1001.604, 26314.00
1002.716, 27625.00
1003.828, 28913.00
1004.940, 30384.00
1006.051, 32633.00
1007.163, 34837.00
1008.274, 37731.00
1009.385, 41240.00
1010.496, 44397.00
1011.606, 46926.00
1012.717, 47581.00
1013.827, 46116.00
1014.937, 42992.00
1016.047, 39299.00
1017.157, 35808.00
1018.267, 33009.00
1019.377, 31180.00
1020.486, 29586.00
1021.595, 28277.00
1022.704, 27610.00
1023.813, 27312.00
1024.922, 26791.00
1026.030, 26353.00
1027.139, 26298.00
1028.247, 25978.00
1029.355, 25789.00
1030.463, 25721.00
1031.571, 25714.00
1032.678, 25523.00
1033.786, 24926.00
1034.893, 24796.00
1036.000, 24823.00
1037.107, 24694.00
1038.214, 24691.00
1039.321, 24298.00
1040.427, 24069.00
1041.533, 23969.00
1042.639, 24025.00
1043.745, 23816.00
1044.851, 24012.00
1045.957, 23702.00
1047.062, 23777.00
1048.168, 23847.00
1049.273, 23795.00
1050.378, 23707.00
1051.482, 23475.00
1052.587, 23389.00
1053.692, 23683.00
1054.796, 23282.00
1055.900, 23670.00
1057.004, 23343.00
1058.108, 23574.00
1059.212, 23493.00
1060.315, 23777.00
1061.418, 23747.00
1062.522, 23445.00
1063.625, 23612.00
1064.728, 23474.00
1065.830, 23527.00
1066.933, 23654.00
1068.035, 23309.00
1069.137, 23491.00
1070.239, 23574.00
1071.341, 23775.00
1072.443, 23548.00
1073.545, 23721.00
1074.646, 23742.00
1075.747, 23748.00
1076.848, 23710.00
1077.949, 23681.00
1079.050, 23703.00
1080.150, 23841.00
1081.251, 23783.00
1082.351, 23780.00
1083.451, 23802.00
1084.551, 23886.00
1085.651, 23986.00
1086.750, 23889.00
1087.850, 23857.00
1088.949, 23876.00
1090.048, 24037.00
1091.147, 23780.00
1092.246, 23879.00
1093.345, 24010.00
1094.443, 23888.00
1095.541, 23853.00
1096.639, 23915.00
1097.737, 23975.00
1098.835, 23941.00
1099.933, 24010.00
1101.030, 24136.00
1102.128, 24067.00
1103.225, 23941.00
1104.322, 24141.00
1105.419, 23903.00
1106.515, 24084.00
1107.612, 24239.00
1108.708, 24086.00
1109.804, 24226.00
1110.900, 24242.00
1111.996, 24289.00
1113.092, 24025.00
1114.187, 24158.00
1115.283, 24371.00
1116.378, 24297.00
1117.473, 24407.00
1118.568, 24382.00
1119.662, 24474.00
1120.757, 24361.00
1121.851, 24505.00
1122.946, 24482.00
1124.040, 24316.00
1125.134, 24271.00
1126.227, 24400.00
1127.321, 24247.00
1128.414, 24498.00
1129.508, 24324.00
1130.601, 24440.00
1131.693, 24401.00
1132.786, 24477.00
1133.879, 24371.00
1134.971, 24310.00
1136.064, 24551.00
1137.156, 24581.00
1138.248, 24532.00
1139.339, 24686.00
1140.431, 24869.00
1141.522, 24488.00
1142.614, 24644.00
1143.705, 24565.00
1144.796, 24546.00
1145.887, 24757.00
1146.977, 24554.00
1148.068, 24702.00
1149.158, 24592.00
1150.248, 24845.00
1151.338, 24724.00
1152.428, 24665.00
1153.518, 24776.00
1154.607, 24764.00
1155.696, 24754.00
1156.785, 24969.00
1157.874, 24785.00
1158.963, 24872.00
1160.052, 24968.00
1161.141, 24974.00
1162.229, 24772.00
1163.317, 25088.00
1164.405, 24975.00
1165.493, 24822.41
1166.581, 25007.76
1167.668, 25122.91
1168.756, 25171.70
1169.843, 24955.20
1170.930, 25081.23
1172.017, 25069.99
1173.103, 25053.10
1174.190, 25227.33
1175.276, 25049.39
1176.363, 25220.59
1177.449, 25252.41
1178.535, 25380.00
1179.620, 25312.00
1180.706, 25226.00
1181.791, 25269.00
1182.877, 25333.00
1183.962, 25251.00
1185.047, 25302.00
1186.131, 25393.00
1187.216, 25526.00
1188.300, 25516.00
1189.385, 25400.00
1190.469, 25406.00
1191.553, 25282.00
1192.637, 25745.00
1193.720, 25262.00
1194.804, 25502.00
1195.887, 25411.00
1196.970, 25365.00
1198.053, 25821.00
1199.136, 25633.00
1200.219, 25634.00
1201.301, 25705.00
1202.383, 25719.00
1203.465, 25533.00
1204.547, 25727.00
1205.629, 26016.00
1206.711, 25748.00
1207.792, 25769.00
1208.874, 25791.00
1209.955, 25518.00
1211.036, 25915.00
1212.117, 25981.00
1213.198, 25830.00
1214.278, 26015.00
1215.359, 25793.00
1216.439, 25945.00
1217.519, 25927.00
1218.599, 25767.00
1219.678, 26027.00
1220.758, 26149.00
1221.837, 26164.00
1222.917, 25973.00
1223.996, 26206.00
1225.075, 26108.00
1226.153, 26370.00
1227.232, 26084.00
1228.310, 26302.00
1229.389, 26083.00
1230.467, 26211.00
1231.545, 26123.00
1232.622, 26251.00
1233.700, 25989.00
1234.777, 26275.00
1235.855, 26277.00
1236.932, 26393.00
1238.009, 26396.00
1239.086, 26312.00
1240.162, 26287.00
1241.239, 26527.00
1242.315, 26451.00
1243.391, 26592.00
1244.467, 26426.00
1245.543, 26408.00
1246.619, 26334.00
1247.694, 26339.00
1248.769, 26466.00
1249.844, 26382.00
1250.919, 26708.00
1251.994, 26506.00
1253.069, 26538.00
1254.144, 26554.00
1255.218, 26906.00
1256.292, 26705.00
1257.366, 26658.00
1258.440, 26744.00
1259.514, 26740.00
1260.587, 26673.00
1261.661, 26684.00
1262.734, 26654.00
1263.807, 26484.00
1264.880, 26651.00
1265.952, 26996.00
1267.025, 26773.00
1268.097, 26867.00
1269.170, 26926.00
1270.242, 27013.00
1271.314, 26940.00
1272.385, 26904.00
1273.457, 26990.00
1274.528, 26945.00
1275.600, 27187.00
1276.671, 26944.00
1277.742, 27067.00
1278.812, 27008.00
1279.883, 27146.00
1280.954, 27093.00
1282.024, 27053.00
1283.094, 27182.00
1284.164, 27026.00
1285.234, 27102.00
1286.303, 27150.00
1287.373, 27436.00
1288.442, 27219.00
1289.511, 27206.00
1290.580, 27463.00
1291.649, 27212.00
1292.718, 27382.00
1293.786, 27396.00
1294.855, 27481.00
1295.923, 27185.00
1296.991, 27535.00
1298.059, 27490.00
1299.126, 27389.00
1300.194, 27196.00
1301.261, 27308.00
1302.328, 27393.00
1303.395, 27432.00
1304.462, 27516.00
1305.529, 27557.00
1306.596, 27485.00
1307.662, 27937.00
1308.728, 27677.00
1309.794, 27494.00
1310.860, 27535.00
1311.926, 27755.00
1312.991, 27575.00
1314.057, 27744.00
1315.122, 27780.00
1316.187, 27987.00
1317.252, 27920.00
1318.317, 27865.00
1319.381, 27888.00
1320.446, 27965.00
1321.510, 27963.00
1322.574, 27795.00
1323.638, 28071.00
1324.702, 28097.00
1325.766, 28024.00
1326.829, 27889.00
1327.892, 27917.00
1328.956, 28077.00
1330.019, 28066.00
1331.081, 28184.00
1332.144, 28130.00
1333.206, 28299.00
1334.269, 28351.00
1335.331, 27896.00
1336.393, 28223.00
1337.455, 28253.00
1338.516, 28287.00
1339.578, 28263.00
1340.639, 28195.00
1341.701, 28313.00
1342.762, 28197.00
1343.822, 28368.00
1344.883, 28449.00
1345.944, 28139.00
1347.004, 28711.00
1348.064, 28486.00
1349.124, 28336.00
1350.184, 28498.00
1351.244, 28545.00
1352.304, 28676.00
1353.363, 28497.00
1354.422, 28624.00
1355.481, 28523.00
1356.540, 28581.00
1357.599, 28776.00
1358.657, 28457.00
1359.716, 28634.00
1360.774, 28783.00
1361.832, 28836.00
1362.890, 28726.00
1363.948, 28711.00
1365.006, 28765.00
1366.063, 28808.00
1367.120, 28817.00
1368.178, 28777.00
1369.234, 29006.00
1370.291, 28803.00
1371.348, 28745.00
1372.404, 28773.00
1373.461, 29120.00
1374.517, 29032.00
1375.573, 28861.00
1376.629, 28956.00
1377.684, 28953.00
1378.740, 29255.00
1379.795, 28907.00
1380.850, 29052.00
1381.905, 28992.00
1382.960, 29062.00
1384.015, 28829.00
1385.070, 28889.00
1386.124, 29127.00
1387.178, 29151.00
1388.232, 29263.00
1389.286, 29190.00
1390.340, 29035.00
1391.393, 29181.00
1392.447, 29106.00
1393.500, 29386.00
1394.553, 29252.00
1395.606, 29208.00
1396.659, 29389.00
1397.711, 29260.00
1398.764, 29427.00
1399.816, 29341.00
1400.868, 29528.00
1401.920, 29276.00
1402.972, 29500.00
1404.023, 29588.00
1405.075, 29599.00
1406.126, 29462.00
1407.177, 29390.00
1408.228, 29390.00
1409.279, 29430.00
1410.330, 29563.00
1411.380, 29531.00
1412.431, 29525.00
1413.481, 29675.00
1414.531, 29714.00
1415.580, 29476.00
1416.630, 29507.00
1417.680, 29555.00
1418.729, 29676.00
1419.778, 29668.00
