##NAMES=Hedenbergite
##RRUFFID=R060040
##IDEAL CHEMISTRY=CaFe^2+^Si_2_O_6_
##LOCALITY=Rio Marina, Elba, Italy
##OWNER=RRUFF
##SOURCE=University of Arizona Mineral Museum
##DESCRIPTION=Radial aggregate of green thin bladed crystals
##STATUS=The identification of this mineral has been confirmed by X-ray diffraction and chemical analysis
##URL=rruff.info/R060040
##MEASURED CHEMISTRY=Ca_1.00_(Fe^2+^_0.89_Mg_0.09_Mn_0.02_)_Î£=1_Si_2.00_O_6_
##PIN_ID=M01289
##ORIENTATION=Laser parallel to a* (1 0 0). Fiducial mark perpendicular to laser is parallel to b [0 1 0]
262.4900, 12465.00
263.7050, 12431.00
264.9210, 12319.00
266.1360, 12473.00
267.3520, 12525.00
268.5670, 12583.00
269.7820, 12569.00
270.9960, 12711.00
272.2110, 12728.00
273.4250, 12650.00
274.6400, 12760.00
275.8540, 12854.00
277.0680, 12650.00
278.2810, 12860.00
279.4950, 12899.00
280.7090, 12782.00
281.9220, 13064.00
283.1350, 13064.00
284.3480, 13015.00
285.5610, 13142.00
286.7730, 13252.00
287.9860, 13434.00
289.1980, 13311.00
290.4100, 13253.00
291.6220, 13517.00
292.8340, 13558.00
294.0460, 13595.00
295.2570, 13854.00
296.4690, 14033.00
297.6800, 14345.00
298.8910, 14454.00
300.1020, 14782.00
301.3120, 15015.00
302.5230, 15512.00
303.7330, 15802.00
304.9440, 16317.00
306.1540, 16601.00
307.3630, 16961.00
308.5730, 16960.00
309.7830, 17027.00
310.9920, 16763.00
312.2010, 16419.00
313.4100, 16050.00
314.6190, 15820.00
315.8280, 15526.00
317.0370, 15273.00
318.2450, 15040.00
319.4530, 14818.00
320.6610, 14707.00
321.8690, 14541.00
323.0770, 14710.00
324.2850, 14575.00
325.4920, 14499.00
326.6990, 14612.00
327.9060, 14370.00
329.1130, 14446.00
330.3200, 14388.00
331.5270, 14561.00
332.7330, 14549.00
333.9390, 14575.00
335.1450, 14491.00
336.3510, 14614.00
337.5570, 14614.00
338.7630, 14520.00
339.9680, 14567.00
341.1740, 14713.00
342.3790, 14404.00
343.5840, 14308.00
344.7890, 14369.00
345.9930, 14282.00
347.1980, 14241.00
348.4020, 14339.00
349.6060, 14034.00
350.8100, 13914.00
352.0140, 14104.00
353.2180, 14177.00
354.4210, 14094.00
355.6250, 14080.00
356.8280, 14139.00
358.0310, 14101.00
359.2340, 14196.00
360.4360, 14516.00
361.6390, 14382.00
362.8410, 14434.00
364.0430, 14541.00
365.2450, 14897.00
366.4470, 14992.00
367.6490, 15293.00
368.8510, 15417.00
370.0520, 15701.00
371.2530, 15950.00
372.4540, 16456.00
373.6550, 16619.00
374.8560, 17002.00
376.0560, 17107.00
377.2570, 17076.00
378.4570, 16643.00
379.6570, 16469.00
380.8570, 16139.00
382.0570, 15945.00
383.2560, 15579.00
384.4560, 15180.00
385.6550, 14896.00
386.8540, 14647.00
388.0530, 14478.00
389.2520, 14499.00
390.4510, 14356.00
391.6490, 14248.00
392.8470, 14178.00
394.0450, 14162.00
395.2430, 14160.00
396.4410, 13998.00
397.6390, 14140.00
398.8360, 14086.00
400.0340, 13950.00
401.2310, 13807.00
402.4280, 13825.00
403.6250, 13993.00
404.8210, 13979.00
406.0180, 13946.00
407.2140, 14030.00
408.4100, 13891.00
409.6060, 14085.00
410.8020, 14073.00
411.9980, 13942.00
413.1930, 13928.00
414.3890, 13963.00
415.5840, 14082.00
416.7790, 13969.00
417.9740, 14108.00
419.1680, 14076.00
420.3630, 13967.00
421.5570, 13982.00
422.7510, 14053.00
423.9450, 14061.00
425.1390, 14138.00
426.3330, 14109.00
427.5270, 14154.00
428.7200, 14023.00
429.9130, 14240.00
431.1060, 14209.00
432.2990, 14093.00
433.4920, 14225.00
434.6840, 14323.00
435.8770, 14283.00
437.0690, 14106.00
438.2610, 14114.00
439.4530, 14391.00
440.6450, 14307.00
441.8360, 14299.00
443.0280, 14315.00
444.2190, 14284.00
445.4100, 14350.00
446.6010, 14275.00
447.7920, 14351.00
448.9820, 14437.00
450.1730, 14303.00
451.3630, 14467.00
452.5530, 14396.00
453.7430, 14597.00
454.9330, 14426.00
456.1230, 14520.00
457.3120, 14471.00
458.5010, 14517.00
459.6910, 14506.00
460.8800, 14509.00
462.0680, 14446.00
463.2570, 14606.00
464.4460, 14593.00
465.6340, 14398.00
466.8220, 14398.00
468.0100, 14527.00
469.1980, 14671.00
470.3860, 14606.00
471.5730, 14504.00
472.7600, 14567.00
473.9480, 14534.00
475.1350, 14726.00
476.3210, 14581.00
477.5080, 14705.00
478.6950, 14792.00
479.8810, 14754.00
481.0670, 14815.00
482.2530, 14833.00
483.4390, 14713.00
484.6250, 14796.00
485.8100, 14792.00
486.9960, 14997.00
488.1810, 14939.00
489.3660, 14915.00
490.5510, 15099.00
491.7360, 14969.00
492.9200, 15154.00
494.1050, 15295.00
495.2890, 15259.00
496.4730, 15348.00
497.6570, 15354.00
498.8400, 15300.00
500.0240, 15423.00
501.2070, 15442.00
502.3910, 15380.00
503.5740, 15256.00
504.7570, 15244.00
505.9400, 15358.00
507.1220, 15161.00
508.3050, 15204.00
509.4870, 15262.00
510.6690, 15312.00
511.8510, 15311.00
513.0330, 15560.00
514.2140, 15358.00
515.3960, 15509.00
516.5770, 15591.00
517.7580, 15476.00
518.9390, 15467.00
520.1200, 15539.00
521.3010, 15624.00
522.4810, 15785.00
523.6610, 15672.00
524.8420, 15636.00
526.0220, 15648.00
527.2010, 15718.00
528.3810, 15741.00
529.5610, 15781.00
530.7400, 15740.00
531.9190, 15716.00
533.0980, 15725.00
534.2770, 15921.00
535.4560, 15960.00
536.6340, 15819.00
537.8120, 15786.00
538.9910, 15939.00
540.1690, 15901.00
541.3460, 15892.00
542.5240, 15880.00
543.7020, 15933.00
544.8790, 15989.00
546.0560, 15905.00
547.2330, 16079.00
548.4100, 16153.00
549.5870, 16109.00
550.7630, 16092.00
551.9400, 16091.00
553.1160, 16134.00
554.2920, 16266.00
555.4680, 15982.00
556.6440, 16017.00
557.8190, 16082.00
558.9950, 15988.00
560.1700, 15941.00
561.3450, 16051.00
562.5200, 16116.00
563.6950, 15961.00
564.8690, 16070.00
566.0440, 16027.00
567.2180, 15745.00
568.3920, 16009.00
569.5660, 15838.41
570.7400, 15931.54
571.9130, 15979.85
573.0870, 15985.73
574.2600, 15822.11
575.4330, 15877.36
576.6060, 16038.00
577.7790, 16167.00
578.9520, 15971.00
580.1240, 16096.00
581.2960, 16001.00
582.4690, 15994.00
583.6410, 16010.00
584.8120, 15982.00
585.9840, 15994.00
587.1560, 16070.00
588.3270, 15846.00
589.4980, 15903.00
590.6690, 16086.00
591.8400, 15991.00
593.0110, 16170.00
594.1810, 16103.00
595.3510, 16158.00
596.5220, 16142.00
597.6920, 16162.00
598.8610, 16212.00
600.0310, 16178.00
601.2010, 16298.00
602.3700, 16069.00
603.5390, 16297.00
604.7080, 16171.00
605.8770, 16223.00
607.0460, 16292.00
608.2140, 16262.00
609.3830, 16324.00
610.5510, 16345.00
611.7190, 16549.00
612.8870, 16437.00
614.0550, 16459.00
615.2220, 16636.00
616.3900, 16649.00
617.5570, 16488.00
618.7240, 16623.00
619.8910, 16518.00
621.0580, 16636.00
622.2240, 16727.00
623.3910, 16711.00
624.5570, 16763.00
625.7230, 16700.00
626.8890, 16701.00
628.0550, 16972.00
629.2200, 16957.00
630.3860, 17019.00
631.5510, 17116.00
632.7160, 17129.00
633.8810, 17066.00
635.0460, 17230.00
636.2100, 17399.00
637.3750, 17539.00
638.5390, 17592.00
639.7030, 17454.00
640.8670, 17811.00
642.0310, 17946.00
643.1950, 18155.00
644.3580, 18343.00
645.5210, 18548.00
646.6850, 18952.00
647.8480, 19210.00
649.0100, 19815.00
650.1730, 20191.00
651.3350, 20913.00
652.4980, 21946.00
653.6600, 23044.00
654.8220, 24008.00
655.9840, 25389.00
657.1450, 27147.00
658.3070, 28641.00
659.4680, 30054.00
660.6300, 30921.00
661.7910, 30817.00
662.9510, 29789.00
664.1120, 28387.00
665.2730, 26636.00
666.4330, 24820.00
667.5930, 23699.00
668.7530, 22340.00
669.9130, 21353.00
671.0730, 20602.00
672.2320, 20190.00
673.3920, 19686.00
674.5510, 19292.00
675.7100, 19087.00
676.8690, 18730.00
678.0280, 18543.00
679.1860, 18244.00
680.3450, 18313.00
681.5030, 18094.00
682.6610, 18014.00
683.8190, 18019.00
684.9770, 17948.00
686.1340, 17858.00
687.2920, 17868.00
688.4490, 17837.00
689.6060, 17861.00
690.7630, 17845.00
691.9200, 17686.00
693.0760, 17821.00
694.2330, 17767.00
695.3890, 17846.00
696.5450, 17790.00
697.7010, 17668.00
698.8570, 17834.00
700.0130, 17694.00
701.1680, 17719.00
702.3230, 17721.00
703.4780, 17782.00
704.6330, 17691.00
705.7880, 17729.00
706.9430, 17774.00
708.0970, 17771.00
709.2520, 17703.00
710.4060, 17973.00
711.5600, 17721.00
712.7140, 17720.00
713.8670, 17739.00
715.0210, 17814.00
716.1740, 17811.00
717.3270, 17797.00
718.4800, 17786.00
719.6330, 17691.00
720.7860, 17809.00
721.9380, 17826.00
723.0910, 17884.00
724.2430, 17818.00
725.3950, 17800.00
726.5470, 17844.00
727.6980, 17844.00
728.8500, 18069.00
730.0010, 18062.00
731.1530, 17989.00
732.3040, 18026.00
733.4550, 18066.00
734.6050, 17971.00
735.7560, 17823.00
736.9060, 18028.00
738.0560, 17954.00
739.2060, 18049.00
740.3560, 18118.00
741.5060, 18050.00
742.6560, 18153.00
743.8050, 17927.00
744.9540, 18047.00
746.1030, 18159.00
747.2520, 18096.00
748.4010, 18096.00
749.5500, 18189.00
750.6980, 18266.00
751.8460, 18283.00
752.9950, 18277.00
754.1420, 18368.00
755.2900, 18415.00
756.4380, 18293.00
757.5850, 18248.00
758.7330, 18308.00
759.8800, 18566.00
761.0270, 18474.00
762.1730, 18531.00
763.3200, 18192.00
764.4670, 18445.00
765.6130, 18514.00
766.7590, 18500.00
767.9050, 18300.00
769.0510, 18511.00
770.1960, 18491.00
771.3420, 18612.00
772.4870, 18433.00
773.6320, 18522.00
774.7770, 18561.00
775.9220, 18453.00
777.0670, 18713.00
778.2110, 18485.00
779.3560, 18415.00
780.5000, 18539.00
781.6440, 18707.00
782.7880, 18567.00
783.9320, 18560.00
785.0750, 18532.00
786.2180, 18722.00
787.3620, 18712.00
788.5050, 18710.00
789.6480, 18669.00
790.7900, 18726.00
791.9330, 18641.00
793.0750, 18900.00
794.2170, 18666.00
795.3590, 18859.00
796.5010, 18571.00
797.6430, 19029.00
798.7850, 19012.00
799.9260, 18898.00
801.0670, 18922.00
802.2080, 18964.00
803.3490, 18946.00
804.4900, 18735.00
805.6310, 18906.00
806.7710, 19146.00
807.9110, 19083.00
809.0510, 19105.00
810.1910, 19116.00
811.3310, 19218.00
812.4710, 19175.00
813.6100, 19200.00
814.7490, 19300.00
815.8880, 19085.00
817.0270, 19162.00
818.1660, 19274.00
819.3050, 19286.00
820.4430, 19366.00
821.5820, 19268.00
822.7200, 19209.00
823.8580, 19292.00
824.9950, 19231.00
826.1330, 19259.00
827.2710, 19279.00
828.4080, 19243.00
829.5450, 19326.00
830.6820, 19532.00
831.8190, 19274.00
832.9560, 19347.00
834.0920, 19378.00
835.2280, 19463.00
836.3650, 19347.00
837.5010, 19401.00
838.6360, 19658.00
839.7720, 19487.00
840.9080, 19595.00
842.0430, 19533.00
843.1780, 19641.00
844.3130, 19768.00
845.4480, 19874.00
846.5830, 20097.00
847.7170, 19932.00
848.8520, 20107.00
849.9860, 20179.00
851.1200, 20445.00
852.2540, 20604.00
853.3870, 20662.00
854.5210, 20428.00
855.6540, 20442.00
856.7880, 20520.00
857.9210, 20402.00
859.0540, 20365.00
860.1860, 20268.00
861.3190, 20028.00
862.4510, 20247.00
863.5840, 20177.00
864.7160, 20291.00
865.8480, 20212.00
866.9790, 20107.00
868.1110, 20219.00
869.2420, 20232.00
870.3740, 20093.00
871.5050, 20180.00
872.6360, 20430.00
873.7660, 20128.00
874.8970, 20170.00
876.0280, 20147.00
877.1580, 20307.00
878.2880, 20167.00
879.4180, 20434.00
880.5480, 20423.00
881.6770, 20484.00
882.8070, 20475.00
883.9360, 20375.00
885.0650, 20363.00
886.1940, 20180.00
887.3230, 20449.00
888.4520, 20376.00
889.5800, 20302.00
890.7090, 20383.00
891.8370, 20492.00
892.9650, 20603.00
894.0930, 20620.00
895.2200, 20594.00
896.3480, 20675.00
897.4750, 20565.00
898.6020, 20541.00
899.7290, 20600.00
900.8560, 20580.00
901.9830, 20709.00
903.1090, 20752.00
904.2360, 20622.00
905.3620, 20649.00
906.4880, 20871.00
907.6140, 20768.00
908.7400, 20964.00
909.8650, 20723.00
910.9900, 20708.00
912.1160, 20704.00
913.2410, 20907.00
914.3660, 21007.00
915.4900, 20852.00
916.6150, 20981.00
917.7390, 20983.00
918.8640, 21031.00
919.9880, 20956.00
921.1120, 20951.00
922.2350, 21000.00
923.3590, 20848.00
924.4820, 20877.00
925.6060, 21226.00
926.7290, 20851.00
927.8520, 20888.00
928.9740, 20930.00
930.0970, 21003.00
931.2190, 20958.00
932.3420, 21059.00
933.4640, 21068.00
934.5860, 20922.00
935.7080, 20990.00
936.8290, 21220.00
937.9510, 21241.00
939.0720, 21047.00
940.1930, 21167.00
941.3140, 21084.00
942.4350, 21107.00
943.5560, 21055.00
944.6760, 21243.00
945.7960, 21111.00
946.9170, 21222.00
948.0370, 21399.00
949.1560, 21241.00
950.2760, 21236.00
951.3960, 21271.00
952.5150, 21336.00
953.6340, 21375.00
954.7530, 21348.00
955.8720, 21389.00
956.9910, 21438.00
958.1090, 21390.00
959.2280, 21604.00
960.3460, 21495.00
961.4640, 21601.00
962.5820, 21538.00
963.6990, 21443.00
964.8170, 21534.00
965.9340, 21421.00
967.0510, 21552.00
968.1690, 21437.00
969.2850, 21609.00
970.4020, 21635.00
971.5190, 21539.00
972.6350, 21649.00
973.7510, 21501.00
974.8670, 21655.00
975.9830, 21768.00
977.0990, 21875.00
978.2150, 21753.00
979.3300, 21913.00
980.4450, 21990.00
981.5600, 21775.00
982.6750, 21980.00
983.7900, 22043.00
984.9050, 22052.00
986.0190, 21945.00
987.1340, 22224.00
988.2480, 22404.00
989.3620, 22285.00
990.4750, 22310.00
991.5890, 22381.00
992.7020, 22747.00
993.8160, 22593.00
994.9290, 22947.00
996.0420, 22945.00
997.1550, 22937.00
998.2670, 23264.00
999.3800, 23666.00
1000.492, 24254.00
1001.604, 24460.00
1002.716, 25119.00
1003.828, 26177.00
1004.940, 26893.00
1006.051, 27984.00
1007.163, 29834.00
1008.274, 31700.00
1009.385, 33930.00
1010.496, 35719.00
1011.606, 37466.00
1012.717, 38270.00
1013.827, 38230.00
1014.937, 36448.00
1016.047, 33925.00
1017.157, 31798.00
1018.267, 29809.00
1019.377, 28450.00
1020.486, 27297.00
1021.595, 26359.00
1022.704, 25921.00
1023.813, 25329.00
1024.922, 25174.00
1026.030, 24599.00
1027.139, 24799.00
1028.247, 24495.00
1029.355, 24328.00
1030.463, 24412.00
1031.571, 24198.00
1032.678, 24248.00
1033.786, 24021.00
1034.893, 23774.00
1036.000, 24003.00
1037.107, 23853.00
1038.214, 23679.00
1039.321, 23716.00
1040.427, 23645.00
1041.533, 23561.00
1042.639, 23541.00
1043.745, 23622.00
1044.851, 23606.00
1045.957, 23477.00
1047.062, 23742.00
1048.168, 23676.00
1049.273, 23432.00
1050.378, 23495.00
1051.482, 23375.00
1052.587, 23450.00
1053.692, 23456.00
1054.796, 23285.00
1055.900, 23381.00
1057.004, 23430.00
1058.108, 23340.00
1059.212, 23505.00
1060.315, 23346.00
1061.418, 23400.00
1062.522, 23293.00
1063.625, 23467.00
1064.728, 23268.03
1065.830, 23386.00
1066.933, 23459.15
1068.035, 23489.87
1069.137, 23351.08
1070.239, 23431.16
1071.341, 23423.54
1072.443, 23412.31
1073.545, 23611.00
1074.646, 23437.00
1075.747, 23491.00
1076.848, 23618.00
1077.949, 23719.00
1079.050, 23568.00
1080.150, 23696.00
1081.251, 23559.00
1082.351, 23553.00
1083.451, 23550.00
1084.551, 23689.00
1085.651, 23791.00
1086.750, 23611.00
1087.850, 23738.00
1088.949, 23708.00
1090.048, 23745.00
1091.147, 23910.00
1092.246, 23611.00
1093.345, 23789.00
1094.443, 23572.00
1095.541, 23670.00
1096.639, 23699.00
1097.737, 23725.00
1098.835, 23864.00
1099.933, 23835.00
1101.030, 23835.00
1102.128, 23852.00
1103.225, 23807.00
1104.322, 23744.00
1105.419, 23935.00
1106.515, 23834.00
1107.612, 23901.00
1108.708, 23849.00
1109.804, 23884.00
1110.900, 23755.00
1111.996, 23867.00
1113.092, 23968.00
1114.187, 23717.00
1115.283, 24026.00
1116.378, 23934.00
1117.473, 23839.00
1118.568, 24005.00
1119.662, 23971.00
1120.757, 24233.00
1121.851, 24005.00
1122.946, 24059.00
1124.040, 24109.00
1125.134, 23977.00
1126.227, 24084.00
1127.321, 24169.00
1128.414, 24127.00
1129.508, 24049.00
1130.601, 24199.00
1131.693, 24201.00
1132.786, 24140.00
1133.879, 23934.00
1134.971, 24185.00
1136.064, 24254.00
1137.156, 24108.00
1138.248, 24243.00
1139.339, 24329.00
1140.431, 24209.00
1141.522, 24138.00
1142.614, 24314.00
1143.705, 24416.00
1144.796, 24349.00
1145.887, 24507.00
1146.977, 24263.00
1148.068, 24414.00
1149.158, 24364.00
1150.248, 24293.00
1151.338, 24397.00
1152.428, 24544.00
1153.518, 24531.00
1154.607, 24245.00
1155.696, 24579.00
1156.785, 24237.00
1157.874, 24448.00
1158.963, 24534.00
1160.052, 24522.00
1161.141, 24567.00
1162.229, 24645.00
1163.317, 24621.00
1164.405, 24586.00
1165.493, 24536.00
1166.581, 24475.00
1167.668, 24687.00
1168.756, 24616.00
1169.843, 24790.00
1170.930, 24863.00
1172.017, 24717.00
1173.103, 24679.00
1174.190, 24883.00
1175.276, 24798.00
1176.363, 24788.00
1177.449, 24892.00
1178.535, 24852.00
1179.620, 24960.00
1180.706, 24847.00
1181.791, 24753.00
1182.877, 24889.00
1183.962, 24880.00
1185.047, 24965.00
1186.131, 25068.00
1187.216, 24820.00
1188.300, 24949.00
1189.385, 24925.00
1190.469, 24973.00
1191.553, 25014.00
1192.637, 25122.00
1193.720, 25138.00
1194.804, 25029.00
1195.887, 25133.00
1196.970, 25197.00
1198.053, 25157.00
1199.136, 25382.00
1200.219, 25318.00
1201.301, 25040.00
1202.383, 25455.00
1203.465, 25382.00
1204.547, 25272.00
1205.629, 25431.00
1206.711, 25177.00
1207.792, 25259.00
1208.874, 25224.00
1209.955, 25320.00
1211.036, 25490.00
1212.117, 25278.00
1213.198, 25229.00
1214.278, 25580.00
1215.359, 25428.00
1216.439, 25523.00
1217.519, 25345.00
1218.599, 25687.00
1219.678, 25569.00
1220.758, 25697.00
1221.837, 25590.00
1222.917, 25708.00
1223.996, 25731.00
1225.075, 25646.00
1226.153, 25593.00
1227.232, 25777.00
1228.310, 25781.00
1229.389, 25915.00
1230.467, 25716.00
1231.545, 25688.00
1232.622, 25838.00
1233.700, 25638.00
1234.777, 25658.00
1235.855, 25714.00
1236.932, 25743.00
1238.009, 25639.00
1239.086, 25846.00
1240.162, 25720.00
1241.239, 25898.00
1242.315, 25856.00
1243.391, 25929.00
1244.467, 25930.00
1245.543, 26120.00
1246.619, 26094.00
1247.694, 26111.00
1248.769, 25890.00
1249.844, 26178.00
1250.919, 26325.00
1251.994, 26186.00
1253.069, 26085.00
1254.144, 26520.00
1255.218, 26116.00
1256.292, 26320.00
1257.366, 26245.00
1258.440, 26410.00
1259.514, 26412.00
1260.587, 26338.00
1261.661, 26478.00
1262.734, 26247.00
1263.807, 26386.00
1264.880, 26621.00
1265.952, 26529.00
1267.025, 26439.00
1268.097, 26397.00
1269.170, 26471.00
1270.242, 26656.00
1271.314, 26417.00
1272.385, 26535.00
1273.457, 26558.00
1274.528, 26435.00
1275.600, 26518.00
1276.671, 26565.00
1277.742, 26543.00
1278.812, 26630.00
1279.883, 26556.00
1280.954, 26692.00
1282.024, 26553.00
1283.094, 26834.00
1284.164, 26682.00
1285.234, 26570.00
1286.303, 26996.00
1287.373, 26729.00
1288.442, 26597.98
1289.511, 26819.63
1290.580, 26951.62
1291.649, 26998.74
1292.718, 26706.87
1293.786, 26852.73
1294.855, 26823.18
1295.923, 26786.41
1296.991, 26993.89
1298.059, 26751.30
1299.126, 26954.89
1300.194, 26980.38
1301.261, 27087.37
1302.328, 27017.85
1303.395, 27002.85
1304.462, 27164.41
1305.529, 27228.21
1306.596, 27138.37
1307.662, 27276.00
1308.728, 27082.00
1309.794, 27342.00
1310.860, 27244.00
1311.926, 26933.00
1312.991, 27203.00
1314.057, 27316.00
1315.122, 27244.00
1316.187, 27194.00
1317.252, 27475.00
1318.317, 27688.00
1319.381, 27662.00
1320.446, 27182.32
1321.510, 27414.37
1322.574, 27556.75
1323.638, 27614.27
1324.702, 27332.80
1325.766, 27489.07
1326.829, 27469.89
1327.892, 27443.51
1328.956, 27661.40
1330.019, 27429.20
1331.081, 27643.16
1332.144, 27679.04
1333.206, 27796.41
1334.269, 27737.29
1335.331, 27732.67
1336.393, 27904.61
1337.455, 27978.78
1338.516, 27899.29
1339.578, 28021.84
1340.639, 27783.43
1341.701, 27772.00
1342.762, 27708.00
1343.822, 27814.00
1344.883, 27935.00
1345.944, 27908.00
1347.004, 27916.00
1348.064, 27990.00
1349.124, 28013.00
1350.184, 27972.00
1351.244, 27790.00
1352.304, 27930.00
1353.363, 27913.00
1354.422, 28000.00
1355.481, 28027.00
1356.540, 27881.00
1357.599, 28086.00
1358.657, 28039.00
1359.716, 28005.00
1360.774, 28020.00
1361.832, 28191.00
1362.890, 28236.00
1363.948, 28094.00
1365.006, 28396.00
1366.063, 28123.00
1367.120, 28300.00
1368.178, 28310.00
1369.234, 28424.00
1370.291, 28326.00
1371.348, 28392.00
1372.404, 28122.00
1373.461, 28262.00
1374.517, 28416.00
1375.573, 28405.00
1376.629, 28447.00
1377.684, 28393.00
1378.740, 28572.00
1379.795, 28534.00
1380.850, 28530.00
1381.905, 28711.00
1382.960, 28312.00
1384.015, 28531.00
1385.070, 28558.00
1386.124, 28387.00
1387.178, 28638.00
1388.232, 28613.00
1389.286, 28472.00
1390.340, 28472.00
1391.393, 28515.00
1392.447, 28602.00
1393.500, 28543.00
1394.553, 28684.00
1395.606, 28526.00
1396.659, 28605.00
1397.711, 28644.00
1398.764, 28629.00
1399.816, 28888.00
1400.868, 28854.00
1401.920, 28806.00
1402.972, 28766.00
1404.023, 28740.00
1405.075, 28838.00
1406.126, 28685.00
1407.177, 28986.00
1408.228, 28804.00
1409.279, 28912.00
1410.330, 28921.00
1411.380, 28847.00
1412.431, 28893.00
1413.481, 28876.00
1414.531, 29003.00
1415.580, 28962.00
1416.630, 28821.00
1417.680, 28894.00
1418.729, 28976.00
1419.778, 28900.00
