##NAMES=Hedenbergite
##RRUFFID=R060040
##IDEAL CHEMISTRY=CaFe^2+^Si_2_O_6_
##LOCALITY=Rio Marina, Elba, Italy
##OWNER=RRUFF
##SOURCE=University of Arizona Mineral Museum
##DESCRIPTION=Radial aggregate of green thin bladed crystals
##STATUS=The identification of this mineral has been confirmed by X-ray diffraction and chemical analysis
##URL=rruff.info/R060040
##MEASURED CHEMISTRY=Ca_1.00_(Fe^2+^_0.89_Mg_0.09_Mn_0.02_)_Î£=1_Si_2.00_O_6_
##PIN_ID=M00921
##ORIENTATION=Laser parallel to -b* (0 -1 0). Fiducial mark perpendicular to laser is parallel to c [0 0 1]
262.4900, 13933.00
263.7050, 13835.00
264.9210, 13841.00
266.1360, 14036.00
267.3520, 14022.00
268.5670, 14055.00
269.7820, 14187.00
270.9960, 14315.00
272.2110, 14244.00
273.4250, 14181.00
274.6400, 14516.00
275.8540, 14379.00
277.0680, 14432.00
278.2810, 14518.00
279.4950, 14544.00
280.7090, 14541.00
281.9220, 14624.00
283.1350, 14462.00
284.3480, 14500.00
285.5610, 14423.00
286.7730, 14562.00
287.9860, 14581.00
289.1980, 14704.00
290.4100, 14592.00
291.6220, 14912.00
292.8340, 15140.00
294.0460, 14984.00
295.2570, 15128.00
296.4690, 15286.00
297.6800, 15387.00
298.8910, 15422.00
300.1020, 15841.00
301.3120, 15886.00
302.5230, 16044.00
303.7330, 16185.00
304.9440, 16118.00
306.1540, 16491.00
307.3630, 16539.00
308.5730, 16448.00
309.7830, 16625.00
310.9920, 16436.00
312.2010, 16353.00
313.4100, 16252.00
314.6190, 16223.00
315.8280, 16174.00
317.0370, 16217.00
318.2450, 16276.00
319.4530, 16284.00
320.6610, 16377.00
321.8690, 16436.00
323.0770, 16398.00
324.2850, 16804.00
325.4920, 16906.00
326.6990, 16970.00
327.9060, 16995.00
329.1130, 17218.00
330.3200, 17405.00
331.5270, 17422.00
332.7330, 17321.00
333.9390, 17363.00
335.1450, 17218.00
336.3510, 17216.00
337.5570, 16989.00
338.7630, 16849.00
339.9680, 16744.00
341.1740, 16620.00
342.3790, 16360.00
343.5840, 16397.00
344.7890, 16143.00
345.9930, 16183.00
347.1980, 15911.00
348.4020, 15847.00
349.6060, 15750.00
350.8100, 15858.00
352.0140, 15854.00
353.2180, 15867.00
354.4210, 15967.00
355.6250, 15827.00
356.8280, 16077.00
358.0310, 15919.00
359.2340, 16126.00
360.4360, 16221.00
361.6390, 16279.00
362.8410, 16569.00
364.0430, 16848.00
365.2450, 16917.00
366.4470, 17295.00
367.6490, 17527.00
368.8510, 17552.00
370.0520, 17956.00
371.2530, 17983.00
372.4540, 18362.00
373.6550, 18628.00
374.8560, 18209.00
376.0560, 18521.00
377.2570, 18450.00
378.4570, 18080.00
379.6570, 17861.00
380.8570, 17608.00
382.0570, 17247.00
383.2560, 17113.00
384.4560, 16743.00
385.6550, 16482.00
386.8540, 16409.00
388.0530, 16376.00
389.2520, 16226.00
390.4510, 16059.00
391.6490, 16202.00
392.8470, 15897.00
394.0450, 16049.00
395.2430, 15940.00
396.4410, 15870.00
397.6390, 15848.00
398.8360, 15935.00
400.0340, 15897.00
401.2310, 15929.00
402.4280, 15988.00
403.6250, 15954.00
404.8210, 15708.00
406.0180, 15919.00
407.2140, 16046.00
408.4100, 15864.00
409.6060, 15930.00
410.8020, 15915.00
411.9980, 16001.00
413.1930, 15846.00
414.3890, 16003.00
415.5840, 15937.00
416.7790, 15831.00
417.9740, 16081.00
419.1680, 16126.00
420.3630, 16114.00
421.5570, 16075.00
422.7510, 15958.00
423.9450, 16118.00
425.1390, 16128.00
426.3330, 16292.00
427.5270, 16182.00
428.7200, 16263.00
429.9130, 16030.00
431.1060, 16326.00
432.2990, 16043.00
433.4920, 16196.00
434.6840, 16259.00
435.8770, 16329.00
437.0690, 16184.00
438.2610, 16188.00
439.4530, 16389.00
440.6450, 16277.00
441.8360, 16348.00
443.0280, 16263.00
444.2190, 16266.00
445.4100, 16298.00
446.6010, 16335.00
447.7920, 16405.00
448.9820, 16330.00
450.1730, 16499.00
451.3630, 16440.00
452.5530, 16401.00
453.7430, 16513.00
454.9330, 16548.00
456.1230, 16630.00
457.3120, 16560.00
458.5010, 16732.00
459.6910, 16632.00
460.8800, 16458.00
462.0680, 16630.00
463.2570, 16888.00
464.4460, 16665.00
465.6340, 16606.00
466.8220, 16670.00
468.0100, 16604.00
469.1980, 16741.00
470.3860, 16841.00
471.5730, 16712.00
472.7600, 16720.00
473.9480, 16868.00
475.1350, 16845.00
476.3210, 16920.00
477.5080, 16917.00
478.6950, 16834.00
479.8810, 16935.00
481.0670, 16999.00
482.2530, 16913.00
483.4390, 17010.00
484.6250, 17147.00
485.8100, 17127.00
486.9960, 17254.00
488.1810, 17348.00
489.3660, 17250.00
490.5510, 17288.00
491.7360, 17286.00
492.9200, 17216.00
494.1050, 17482.00
495.2890, 17400.00
496.4730, 17424.00
497.6570, 17395.00
498.8400, 17579.00
500.0240, 17485.00
501.2070, 17458.00
502.3910, 17471.00
503.5740, 17356.00
504.7570, 17505.00
505.9400, 17376.00
507.1220, 17390.00
508.3050, 17565.00
509.4870, 17382.00
510.6690, 17493.00
511.8510, 17537.00
513.0330, 17536.00
514.2140, 17468.00
515.3960, 17656.00
516.5770, 17690.00
517.7580, 17817.00
518.9390, 17621.00
520.1200, 17530.00
521.3010, 17787.00
522.4810, 17584.00
523.6610, 17722.00
524.8420, 17733.00
526.0220, 17841.00
527.2010, 17759.00
528.3810, 17816.00
529.5610, 17825.00
530.7400, 17797.00
531.9190, 17932.00
533.0980, 18005.00
534.2770, 17960.00
535.4560, 17874.00
536.6340, 18010.00
537.8120, 17865.00
538.9910, 18030.00
540.1690, 18090.00
541.3460, 18169.00
542.5240, 18272.00
543.7020, 18264.00
544.8790, 18261.00
546.0560, 18309.00
547.2330, 18320.00
548.4100, 18334.00
549.5870, 18513.00
550.7630, 18505.00
551.9400, 18269.00
553.1160, 18652.00
554.2920, 18527.00
555.4680, 18476.00
556.6440, 18540.00
557.8190, 18353.00
558.9950, 18413.00
560.1700, 18481.00
561.3450, 18276.00
562.5200, 18373.00
563.6950, 18355.00
564.8690, 18391.00
566.0440, 18340.00
567.2180, 18398.00
568.3920, 18473.00
569.5660, 18497.00
570.7400, 18417.00
571.9130, 18328.00
573.0870, 18542.00
574.2600, 18431.00
575.4330, 18400.00
576.6060, 18440.00
577.7790, 18523.00
578.9520, 18658.00
580.1240, 18338.00
581.2960, 18503.00
582.4690, 18404.00
583.6410, 18570.00
584.8120, 18697.00
585.9840, 18489.00
587.1560, 18656.00
588.3270, 18689.00
589.4980, 18646.00
590.6690, 18707.00
591.8400, 18672.00
593.0110, 18609.00
594.1810, 18778.00
595.3510, 18628.75
596.5220, 18797.71
597.6920, 18903.90
598.8610, 18950.69
600.0310, 18760.27
601.2010, 18876.18
602.3700, 18869.30
603.5390, 18981.00
604.7080, 19128.00
605.8770, 18944.00
607.0460, 18890.00
608.2140, 19052.00
609.3830, 19189.00
610.5510, 19073.00
611.7190, 19339.00
612.8870, 19148.00
614.0550, 19259.00
615.2220, 19254.00
616.3900, 19092.00
617.5570, 19385.00
618.7240, 19340.00
619.8910, 19393.00
621.0580, 19534.00
622.2240, 19454.00
623.3910, 19597.00
624.5570, 19540.00
625.7230, 19678.00
626.8890, 19577.00
628.0550, 19800.00
629.2200, 19921.00
630.3860, 19961.00
631.5510, 20030.00
632.7160, 20190.00
633.8810, 19967.00
635.0460, 20229.00
636.2100, 20235.00
637.3750, 20370.00
638.5390, 20545.00
639.7030, 20664.00
640.8670, 20972.00
642.0310, 21081.00
643.1950, 21500.00
644.3580, 21561.00
645.5210, 22016.00
646.6850, 22447.00
647.8480, 22937.00
649.0100, 23698.00
650.1730, 24508.00
651.3350, 25306.00
652.4980, 26478.00
653.6600, 27746.00
654.8220, 28421.00
655.9840, 29662.00
657.1450, 30570.00
658.3070, 31164.00
659.4680, 31439.00
660.6300, 31264.00
661.7910, 30641.00
662.9510, 29462.00
664.1120, 28151.00
665.2730, 26841.00
666.4330, 25747.00
667.5930, 24498.00
668.7530, 23794.00
669.9130, 23173.00
671.0730, 22410.00
672.2320, 21910.00
673.3920, 21666.00
674.5510, 21460.00
675.7100, 21342.00
676.8690, 21024.00
678.0280, 21069.00
679.1860, 20828.00
680.3450, 20787.00
681.5030, 20822.00
682.6610, 20776.00
683.8190, 20666.00
684.9770, 20410.00
686.1340, 20420.00
687.2920, 20557.00
688.4490, 20569.00
689.6060, 20665.00
690.7630, 20394.00
691.9200, 20523.00
693.0760, 20509.00
694.2330, 20578.00
695.3890, 20601.00
696.5450, 20677.00
697.7010, 20552.00
698.8570, 20510.00
700.0130, 20529.00
701.1680, 20756.00
702.3230, 20612.00
703.4780, 20698.00
704.6330, 20343.00
705.7880, 20662.00
706.9430, 20700.00
708.0970, 20672.00
709.2520, 20514.00
710.4060, 20737.00
711.5600, 20599.00
712.7140, 20591.00
713.8670, 20653.00
715.0210, 20716.00
716.1740, 20855.00
717.3270, 20796.00
718.4800, 20863.00
719.6330, 20886.00
720.7860, 20998.00
721.9380, 20768.00
723.0910, 21158.00
724.2430, 20813.00
725.3950, 20890.00
726.5470, 20995.00
727.6980, 20910.00
728.8500, 20899.00
730.0010, 20982.00
731.1530, 20905.00
732.3040, 20964.00
733.4550, 20937.00
734.6050, 21080.00
735.7560, 20995.00
736.9060, 21092.00
738.0560, 21190.00
739.2060, 21138.00
740.3560, 21301.00
741.5060, 21242.00
742.6560, 21267.00
743.8050, 21168.00
744.9540, 21377.00
746.1030, 21429.00
747.2520, 21202.00
748.4010, 21306.00
749.5500, 21253.00
750.6980, 21488.00
751.8460, 21457.00
752.9950, 21486.00
754.1420, 21583.00
755.2900, 21536.00
756.4380, 21561.00
757.5850, 21615.00
758.7330, 21598.00
759.8800, 21581.00
761.0270, 21704.00
762.1730, 21701.00
763.3200, 21768.00
764.4670, 21689.00
765.6130, 21424.00
766.7590, 21720.00
767.9050, 21671.00
769.0510, 21875.00
770.1960, 21669.00
771.3420, 21916.00
772.4870, 21940.00
773.6320, 21754.00
774.7770, 21704.00
775.9220, 21823.00
777.0670, 21882.00
778.2110, 21900.00
779.3560, 21843.00
780.5000, 22019.00
781.6440, 21829.00
782.7880, 21854.00
783.9320, 21997.00
785.0750, 22032.00
786.2180, 22145.00
787.3620, 21806.00
788.5050, 21966.00
789.6480, 22208.00
790.7900, 22018.00
791.9330, 21955.00
793.0750, 22137.00
794.2170, 22161.00
795.3590, 22142.00
796.5010, 21987.00
797.6430, 22195.00
798.7850, 22263.00
799.9260, 22296.00
801.0670, 22253.00
802.2080, 22291.00
803.3490, 22318.00
804.4900, 22423.00
805.6310, 22317.00
806.7710, 22493.00
807.9110, 22341.00
809.0510, 22516.00
810.1910, 22465.00
811.3310, 22559.00
812.4710, 22618.00
813.6100, 22465.00
814.7490, 22647.00
815.8880, 22502.00
817.0270, 22526.00
818.1660, 22453.00
819.3050, 22783.00
820.4430, 22681.00
821.5820, 22659.00
822.7200, 22662.00
823.8580, 22751.00
824.9950, 22810.00
826.1330, 22666.56
827.2710, 22766.29
828.4080, 22834.62
829.5450, 22873.25
830.6820, 22793.27
831.8190, 22866.46
832.9560, 22878.26
834.0920, 23020.00
835.2280, 22958.00
836.3650, 23063.00
837.5010, 22993.00
838.6360, 23135.00
839.7720, 23199.00
840.9080, 23231.00
842.0430, 23303.00
843.1780, 23731.00
844.3130, 23743.00
845.4480, 23839.00
846.5830, 24165.00
847.7170, 24345.00
848.8520, 24708.00
849.9860, 24744.00
851.1200, 24943.00
852.2540, 24971.00
853.3870, 25123.00
854.5210, 24948.00
855.6540, 25008.00
856.7880, 24676.00
857.9210, 24414.00
859.0540, 24234.00
860.1860, 24103.00
861.3190, 24154.00
862.4510, 24114.00
863.5840, 23811.00
864.7160, 23953.00
865.8480, 23961.00
866.9790, 24058.00
868.1110, 23797.00
869.2420, 23886.00
870.3740, 24062.00
871.5050, 23873.00
872.6360, 23955.00
873.7660, 23734.00
874.8970, 23954.00
876.0280, 23838.00
877.1580, 23901.00
878.2880, 24044.00
879.4180, 23897.00
880.5480, 23908.00
881.6770, 24096.00
882.8070, 24298.00
883.9360, 24035.00
885.0650, 24065.00
886.1940, 24198.00
887.3230, 24156.00
888.4520, 24347.00
889.5800, 24140.00
890.7090, 24110.00
891.8370, 24332.00
892.9650, 24358.00
894.0930, 24458.00
895.2200, 24537.00
896.3480, 24290.00
897.4750, 24399.00
898.6020, 24326.00
899.7290, 24416.00
900.8560, 24366.00
901.9830, 24597.00
903.1090, 24628.00
904.2360, 24619.00
905.3620, 24551.00
906.4880, 24481.00
907.6140, 24594.00
908.7400, 24648.00
909.8650, 24775.00
910.9900, 24429.00
912.1160, 24728.00
913.2410, 24693.00
914.3660, 24642.00
915.4900, 24666.00
916.6150, 24678.00
917.7390, 24653.00
918.8640, 24701.00
919.9880, 24893.00
921.1120, 24827.00
922.2350, 24695.00
923.3590, 24764.00
924.4820, 24672.00
925.6060, 25150.00
926.7290, 24869.00
927.8520, 24943.00
928.9740, 24973.00
930.0970, 24998.00
931.2190, 24972.00
932.3420, 24916.00
933.4640, 25137.00
934.5860, 24952.00
935.7080, 25253.00
936.8290, 25089.00
937.9510, 25099.00
939.0720, 25040.00
940.1930, 24865.00
941.3140, 25174.00
942.4350, 25322.00
943.5560, 25172.00
944.6760, 25232.00
945.7960, 24993.00
946.9170, 25163.00
948.0370, 25297.00
949.1560, 25155.02
950.2760, 25323.93
951.3960, 25430.08
952.5150, 25476.84
953.6340, 25286.35
954.7530, 25402.21
955.8720, 25395.30
956.9910, 25383.36
958.1090, 25542.31
959.2280, 25386.33
960.3460, 25623.00
961.4640, 25446.00
962.5820, 25582.00
963.6990, 25747.00
964.8170, 25849.00
965.9340, 25833.00
967.0510, 25939.00
968.1690, 25829.00
969.2850, 25768.00
970.4020, 25919.00
971.5190, 26006.00
972.6350, 25877.00
973.7510, 25920.00
974.8670, 26026.00
975.9830, 25980.00
977.0990, 26048.00
978.2150, 26218.00
979.3300, 26398.00
980.4450, 26260.00
981.5600, 26285.00
982.6750, 26579.00
983.7900, 26260.00
984.9050, 26434.00
986.0190, 26590.00
987.1340, 26811.00
988.2480, 26820.00
989.3620, 27001.00
990.4750, 27017.00
991.5890, 27144.00
992.7020, 27330.00
993.8160, 27525.00
994.9290, 27681.00
996.0420, 28118.00
997.1550, 28425.00
998.2670, 28905.00
999.3800, 29279.00
1000.492, 29802.00
1001.604, 30745.00
1002.716, 31856.00
1003.828, 33309.00
1004.940, 34682.00
1006.051, 36985.00
1007.163, 39078.00
1008.274, 41140.00
1009.385, 43334.00
1010.496, 44884.00
1011.606, 45012.00
1012.717, 44462.00
1013.827, 42807.00
1014.937, 40094.00
1016.047, 37660.00
1017.157, 35382.00
1018.267, 33472.00
1019.377, 32099.00
1020.486, 31417.00
1021.595, 30590.00
1022.704, 30260.00
1023.813, 29701.00
1024.922, 29312.00
1026.030, 29394.00
1027.139, 28940.00
1028.247, 28954.00
1029.355, 28897.00
1030.463, 28622.00
1031.571, 28546.00
1032.678, 28595.00
1033.786, 28348.00
1034.893, 28197.00
1036.000, 28260.00
1037.107, 28007.00
1038.214, 27899.00
1039.321, 27968.00
1040.427, 28026.00
1041.533, 27937.00
1042.639, 27863.00
1043.745, 27787.00
1044.851, 27804.00
1045.957, 27733.00
1047.062, 27816.00
1048.168, 27728.00
1049.273, 27983.00
1050.378, 27591.00
1051.482, 27697.00
1052.587, 27808.00
1053.692, 27827.00
1054.796, 27699.00
1055.900, 27710.00
1057.004, 27604.00
1058.108, 27450.00
1059.212, 27701.00
1060.315, 27696.00
1061.418, 27919.00
1062.522, 27909.00
1063.625, 27841.00
1064.728, 27862.00
1065.830, 27937.00
1066.933, 27893.00
1068.035, 27964.00
1069.137, 27845.00
1070.239, 28024.00
1071.341, 28219.00
1072.443, 27996.00
1073.545, 27958.00
1074.646, 28040.00
1075.747, 28092.00
1076.848, 28228.00
1077.949, 28208.00
1079.050, 28043.00
1080.150, 28129.00
1081.251, 27983.00
1082.351, 27998.00
1083.451, 28371.00
1084.551, 28122.00
1085.651, 28294.00
1086.750, 28298.00
1087.850, 28339.00
1088.949, 28183.00
1090.048, 28483.00
1091.147, 28402.00
1092.246, 28332.00
1093.345, 28459.00
1094.443, 28358.00
1095.541, 28434.00
1096.639, 28591.00
1097.737, 28551.00
1098.835, 28514.00
1099.933, 28542.00
1101.030, 28390.00
1102.128, 28451.00
1103.225, 28709.00
1104.322, 28870.00
1105.419, 28730.00
1106.515, 28687.00
1107.612, 28697.00
1108.708, 28912.00
1109.804, 28883.00
1110.900, 28715.00
1111.996, 28708.00
1113.092, 28597.00
1114.187, 28754.00
1115.283, 28818.00
1116.378, 28990.00
1117.473, 28677.00
1118.568, 28880.00
1119.662, 29101.00
1120.757, 28948.00
1121.851, 28950.00
1122.946, 28802.00
1124.040, 28842.00
1125.134, 29104.00
1126.227, 29000.00
1127.321, 29083.00
1128.414, 29023.00
1129.508, 29359.00
1130.601, 29202.00
1131.693, 29050.00
1132.786, 29112.00
1133.879, 29161.00
1134.971, 29197.00
1136.064, 29322.00
1137.156, 29252.00
1138.248, 29000.00
1139.339, 29088.00
1140.431, 29309.00
1141.522, 29200.00
1142.614, 29228.00
1143.705, 29402.00
1144.796, 29280.00
1145.887, 29492.00
1146.977, 29298.00
1148.068, 29637.00
1149.158, 29384.00
1150.248, 29448.00
1151.338, 29449.00
1152.428, 29541.00
1153.518, 29647.00
1154.607, 29640.00
1155.696, 29600.00
1156.785, 29582.00
1157.874, 29587.00
1158.963, 29475.00
1160.052, 29767.00
1161.141, 29716.00
1162.229, 29718.00
1163.317, 29767.00
1164.405, 29739.00
1165.493, 29488.00
1166.581, 29856.00
1167.668, 29773.00
1168.756, 29892.00
1169.843, 29876.00
1170.930, 29815.00
1172.017, 29905.00
1173.103, 30048.00
1174.190, 30094.00
1175.276, 29897.00
1176.363, 30190.00
1177.449, 29684.00
1178.535, 30038.00
1179.620, 29976.00
1180.706, 29972.00
1181.791, 30039.00
1182.877, 30162.00
1183.962, 30216.00
1185.047, 30260.00
1186.131, 30161.00
1187.216, 30407.00
1188.300, 30207.00
1189.385, 30350.00
1190.469, 30362.00
1191.553, 30576.00
1192.637, 30344.00
1193.720, 30256.00
1194.804, 30472.00
1195.887, 30389.00
1196.970, 30780.00
1198.053, 30633.00
1199.136, 30577.00
1200.219, 30823.00
1201.301, 30472.00
1202.383, 30770.00
1203.465, 30749.00
1204.547, 30916.00
1205.629, 30626.00
1206.711, 30794.00
1207.792, 30746.00
1208.874, 30631.00
1209.955, 31046.00
1211.036, 30815.00
1212.117, 30963.00
1213.198, 30816.00
1214.278, 30930.00
1215.359, 30846.00
1216.439, 31123.00
1217.519, 30922.00
1218.599, 31179.00
1219.678, 31043.00
1220.758, 31108.00
1221.837, 30892.00
1222.917, 31007.00
1223.996, 31056.00
1225.075, 31015.00
1226.153, 30964.00
1227.232, 31163.00
1228.310, 31171.00
1229.389, 31248.00
1230.467, 31243.00
1231.545, 31304.00
1232.622, 31379.00
1233.700, 31347.00
1234.777, 31459.00
1235.855, 31292.00
1236.932, 31522.00
1238.009, 31628.00
1239.086, 31491.00
1240.162, 31881.00
1241.239, 31429.00
1242.315, 31507.00
1243.391, 31684.00
1244.467, 31711.00
1245.543, 31790.00
1246.619, 31693.00
1247.694, 32001.00
1248.769, 31676.00
1249.844, 31715.00
1250.919, 31812.00
1251.994, 31896.00
1253.069, 32170.00
1254.144, 31869.00
1255.218, 31986.00
1256.292, 31955.00
1257.366, 32085.00
1258.440, 32090.00
1259.514, 32100.00
1260.587, 31982.00
1261.661, 32068.00
1262.734, 32226.00
1263.807, 32095.00
1264.880, 32225.00
1265.952, 32128.00
1267.025, 32138.00
1268.097, 32344.00
1269.170, 32453.00
1270.242, 32181.00
1271.314, 32392.00
1272.385, 32400.00
1273.457, 32449.00
1274.528, 32577.00
1275.600, 32479.00
1276.671, 32608.00
1277.742, 32555.00
1278.812, 32713.00
1279.883, 32578.00
1280.954, 32634.00
1282.024, 32478.00
1283.094, 32418.00
1284.164, 32357.00
1285.234, 32725.00
1286.303, 32638.00
1287.373, 32635.00
1288.442, 32616.00
1289.511, 32719.00
1290.580, 32687.00
1291.649, 32891.00
1292.718, 32763.00
1293.786, 32921.00
1294.855, 32902.00
1295.923, 32981.00
1296.991, 33215.00
1298.059, 33134.00
1299.126, 33009.00
1300.194, 32932.00
1301.261, 32943.00
1302.328, 33273.00
1303.395, 33036.00
1304.462, 32951.00
1305.529, 33187.00
1306.596, 33254.00
1307.662, 33206.00
1308.728, 33328.00
1309.794, 33538.00
1310.860, 33536.00
1311.926, 33420.00
1312.991, 33576.00
1314.057, 33447.00
1315.122, 33688.00
1316.187, 33661.00
1317.252, 33548.00
1318.317, 33694.00
1319.381, 33805.00
1320.446, 33676.00
1321.510, 33805.00
1322.574, 33774.00
1323.638, 33893.00
1324.702, 33753.00
1325.766, 33903.00
1326.829, 33880.00
1327.892, 33737.00
1328.956, 33925.00
1330.019, 33704.00
1331.081, 33869.00
1332.144, 34010.00
1333.206, 34126.00
1334.269, 33989.00
1335.331, 33966.00
1336.393, 33907.00
1337.455, 33848.00
1338.516, 34128.00
1339.578, 34166.00
1340.639, 34147.00
1341.701, 34118.00
1342.762, 34275.00
1343.822, 34131.00
1344.883, 34178.00
1345.944, 34114.00
1347.004, 34491.00
1348.064, 34020.00
1349.124, 34349.00
1350.184, 34323.00
1351.244, 34359.00
1352.304, 34376.00
1353.363, 34267.00
1354.422, 34277.00
1355.481, 34379.00
1356.540, 34404.00
1357.599, 34466.00
1358.657, 34572.00
1359.716, 34507.00
1360.774, 34526.00
1361.832, 34729.00
1362.890, 34577.00
1363.948, 34571.00
1365.006, 34619.00
1366.063, 34823.00
1367.120, 34848.00
1368.178, 34746.00
1369.234, 34844.00
1370.291, 34765.00
1371.348, 34655.00
1372.404, 34960.00
1373.461, 34764.00
1374.517, 34868.00
1375.573, 34921.00
1376.629, 34948.00
1377.684, 35023.00
1378.740, 34976.00
1379.795, 35125.00
1380.850, 34961.00
1381.905, 35197.00
1382.960, 34969.00
1384.015, 35443.00
1385.070, 35044.00
1386.124, 34976.00
1387.178, 35042.00
1388.232, 35214.00
1389.286, 35332.00
1390.340, 35381.00
1391.393, 35333.00
1392.447, 35438.00
1393.500, 35211.00
1394.553, 35315.00
1395.606, 35219.00
1396.659, 35464.00
1397.711, 35430.00
1398.764, 35424.00
1399.816, 35383.00
1400.868, 35233.00
1401.920, 35349.00
1402.972, 35329.00
1404.023, 35485.00
1405.075, 35641.00
1406.126, 35211.00
1407.177, 35530.00
1408.228, 35399.00
1409.279, 35312.00
1410.330, 35498.00
1411.380, 35366.00
1412.431, 35831.00
1413.481, 35733.00
1414.531, 35568.00
1415.580, 35735.00
1416.630, 35697.00
1417.680, 35756.00
1418.729, 35531.00
