##NAMES=Hedenbergite
##RRUFFID=R060040
##IDEAL CHEMISTRY=CaFe^2+^Si_2_O_6_
##LOCALITY=Rio Marina, Elba, Italy
##OWNER=RRUFF
##SOURCE=University of Arizona Mineral Museum
##DESCRIPTION=Radial aggregate of green thin bladed crystals
##STATUS=The identification of this mineral has been confirmed by X-ray diffraction and chemical analysis
##URL=rruff.info/R060040
##MEASURED CHEMISTRY=Ca_1.00_(Fe^2+^_0.89_Mg_0.09_Mn_0.02_)_Î£=1_Si_2.00_O_6_
##PIN_ID=M00921
##ORIENTATION=Laser parallel to -b* (0 -1 0). Fiducial mark perpendicular to laser is parallel to c [0 0 1]
262.4900, 14706.00
263.7050, 14704.00
264.9210, 14849.00
266.1360, 14779.00
267.3520, 14973.00
268.5670, 14787.00
269.7820, 14968.00
270.9960, 14669.00
272.2110, 14916.00
273.4250, 14795.00
274.6400, 14990.00
275.8540, 14993.00
277.0680, 15168.00
278.2810, 15024.00
279.4950, 15053.00
280.7090, 15014.00
281.9220, 15275.00
283.1350, 15218.00
284.3480, 15197.00
285.5610, 15259.00
286.7730, 15349.00
287.9860, 15290.00
289.1980, 15437.00
290.4100, 15537.00
291.6220, 15689.00
292.8340, 15900.00
294.0460, 15957.00
295.2570, 15935.00
296.4690, 16167.00
297.6800, 16253.00
298.8910, 16534.00
300.1020, 16741.00
301.3120, 16840.00
302.5230, 17152.00
303.7330, 17195.00
304.9440, 17258.00
306.1540, 17367.00
307.3630, 17524.00
308.5730, 17277.00
309.7830, 17216.00
310.9920, 17394.00
312.2010, 16982.00
313.4100, 16924.00
314.6190, 16512.00
315.8280, 16436.00
317.0370, 16372.00
318.2450, 16167.00
319.4530, 16270.00
320.6610, 16125.00
321.8690, 16364.00
323.0770, 16137.00
324.2850, 16218.00
325.4920, 16015.00
326.6990, 16036.00
327.9060, 16218.00
329.1130, 16168.00
330.3200, 16011.00
331.5270, 16254.00
332.7330, 16139.00
333.9390, 16164.00
335.1450, 15885.00
336.3510, 16055.00
337.5570, 15986.00
338.7630, 16076.00
339.9680, 16168.00
341.1740, 16027.00
342.3790, 15883.00
343.5840, 16080.00
344.7890, 16022.00
345.9930, 16042.00
347.1980, 16040.00
348.4020, 15941.00
349.6060, 16022.00
350.8100, 16064.00
352.0140, 15967.00
353.2180, 16022.00
354.4210, 15972.00
355.6250, 15946.00
356.8280, 15950.00
358.0310, 16108.00
359.2340, 16006.00
360.4360, 16097.00
361.6390, 16138.00
362.8410, 16253.00
364.0430, 16195.00
365.2450, 16282.00
366.4470, 16264.00
367.6490, 16263.00
368.8510, 16191.00
370.0520, 16613.00
371.2530, 16282.00
372.4540, 16509.00
373.6550, 16198.00
374.8560, 16497.00
376.0560, 16379.00
377.2570, 16592.00
378.4570, 16468.00
379.6570, 16451.00
380.8570, 16332.00
382.0570, 16313.00
383.2560, 16295.00
384.4560, 16305.00
385.6550, 16223.00
386.8540, 16467.00
388.0530, 16128.00
389.2520, 16290.00
390.4510, 16362.00
391.6490, 16234.00
392.8470, 16225.00
394.0450, 16214.00
395.2430, 16374.00
396.4410, 16271.00
397.6390, 16332.00
398.8360, 16351.00
400.0340, 16342.00
401.2310, 16271.00
402.4280, 16454.00
403.6250, 16440.00
404.8210, 16284.00
406.0180, 16327.00
407.2140, 16374.00
408.4100, 16440.00
409.6060, 16373.00
410.8020, 16597.00
411.9980, 16433.00
413.1930, 16371.00
414.3890, 16406.00
415.5840, 16449.00
416.7790, 16380.00
417.9740, 16321.00
419.1680, 16529.00
420.3630, 16727.00
421.5570, 16810.00
422.7510, 16668.00
423.9450, 16650.00
425.1390, 16679.00
426.3330, 16705.00
427.5270, 16704.00
428.7200, 16840.00
429.9130, 16709.00
431.1060, 16904.00
432.2990, 16897.00
433.4920, 16759.00
434.6840, 16827.00
435.8770, 16837.00
437.0690, 17044.00
438.2610, 16851.00
439.4530, 17121.00
440.6450, 16923.00
441.8360, 16880.00
443.0280, 17168.00
444.2190, 17070.00
445.4100, 16947.00
446.6010, 17084.00
447.7920, 16964.00
448.9820, 17039.00
450.1730, 17083.00
451.3630, 17063.00
452.5530, 17223.00
453.7430, 17036.00
454.9330, 17002.00
456.1230, 16984.00
457.3120, 17127.00
458.5010, 17162.00
459.6910, 17261.00
460.8800, 17281.00
462.0680, 17301.00
463.2570, 17365.00
464.4460, 17400.00
465.6340, 17329.00
466.8220, 17307.00
468.0100, 17304.00
469.1980, 17342.00
470.3860, 17517.00
471.5730, 17413.00
472.7600, 17422.00
473.9480, 17353.00
475.1350, 17432.00
476.3210, 17628.00
477.5080, 17582.00
478.6950, 17589.00
479.8810, 17575.00
481.0670, 17656.00
482.2530, 17664.00
483.4390, 17722.00
484.6250, 17867.00
485.8100, 17918.00
486.9960, 17801.00
488.1810, 17921.00
489.3660, 17948.00
490.5510, 17993.00
491.7360, 18068.00
492.9200, 18040.00
494.1050, 17975.00
495.2890, 18114.00
496.4730, 18258.00
497.6570, 18068.00
498.8400, 18152.00
500.0240, 18208.00
501.2070, 18117.00
502.3910, 18138.00
503.5740, 18196.00
504.7570, 18175.00
505.9400, 17978.00
507.1220, 18051.00
508.3050, 18003.00
509.4870, 18101.00
510.6690, 18025.00
511.8510, 17972.00
513.0330, 18142.00
514.2140, 18113.00
515.3960, 18171.00
516.5770, 18240.00
517.7580, 18135.00
518.9390, 18141.00
520.1200, 18051.00
521.3010, 18280.00
522.4810, 18123.00
523.6610, 18125.00
524.8420, 18197.00
526.0220, 18375.00
527.2010, 18305.00
528.3810, 18397.00
529.5610, 18342.00
530.7400, 18529.00
531.9190, 18379.00
533.0980, 18228.00
534.2770, 18523.00
535.4560, 18441.00
536.6340, 18592.00
537.8120, 18425.73
538.9910, 18547.35
540.1690, 18625.18
541.3460, 18661.57
542.5240, 18532.52
543.7020, 18617.12
544.8790, 18616.09
546.0560, 18611.54
547.2330, 18726.21
548.4100, 18783.00
549.5870, 18729.00
550.7630, 18830.00
551.9400, 19019.00
553.1160, 18945.00
554.2920, 18866.00
555.4680, 18850.00
556.6440, 18799.00
557.8190, 18783.00
558.9950, 18911.00
560.1700, 18769.00
561.3450, 18792.00
562.5200, 18908.00
563.6950, 19016.00
564.8690, 19093.00
566.0440, 18944.00
567.2180, 19099.00
568.3920, 18932.00
569.5660, 18862.00
570.7400, 18999.00
571.9130, 19100.00
573.0870, 18971.00
574.2600, 18939.00
575.4330, 19113.00
576.6060, 19140.00
577.7790, 19138.00
578.9520, 18944.00
580.1240, 18997.00
581.2960, 18968.00
582.4690, 19142.00
583.6410, 19090.00
584.8120, 19144.00
585.9840, 19180.00
587.1560, 19176.00
588.3270, 19292.00
589.4980, 19280.00
590.6690, 19370.00
591.8400, 19328.00
593.0110, 19237.00
594.1810, 19333.00
595.3510, 19307.00
596.5220, 19347.00
597.6920, 19385.00
598.8610, 19397.00
600.0310, 19295.00
601.2010, 19599.00
602.3700, 19414.00
603.5390, 19518.00
604.7080, 19630.00
605.8770, 19447.00
607.0460, 19657.00
608.2140, 19568.00
609.3830, 19573.00
610.5510, 19756.00
611.7190, 19640.00
612.8870, 19641.00
614.0550, 19738.00
615.2220, 19714.00
616.3900, 19627.00
617.5570, 19755.00
618.7240, 19748.00
619.8910, 19796.00
621.0580, 19857.00
622.2240, 20066.00
623.3910, 20035.00
624.5570, 19877.00
625.7230, 19976.00
626.8890, 20253.00
628.0550, 20196.00
629.2200, 19940.00
630.3860, 20377.00
631.5510, 20200.00
632.7160, 20262.00
633.8810, 20355.00
635.0460, 20524.00
636.2100, 20566.00
637.3750, 20480.00
638.5390, 20590.00
639.7030, 20806.00
640.8670, 20786.00
642.0310, 21104.00
643.1950, 21340.00
644.3580, 21430.00
645.5210, 21882.00
646.6850, 22167.00
647.8480, 22412.00
649.0100, 22862.00
650.1730, 23358.00
651.3350, 23972.00
652.4980, 24782.00
653.6600, 25480.00
654.8220, 26010.00
655.9840, 26882.00
657.1450, 27352.00
658.3070, 27920.00
659.4680, 28063.00
660.6300, 27904.00
661.7910, 27462.00
662.9510, 26791.00
664.1120, 25942.00
665.2730, 24828.00
666.4330, 24266.00
667.5930, 23670.00
668.7530, 23092.00
669.9130, 22646.00
671.0730, 22130.00
672.2320, 21974.00
673.3920, 21700.00
674.5510, 21533.00
675.7100, 21430.00
676.8690, 21396.00
678.0280, 21218.00
679.1860, 21104.00
680.3450, 21253.00
681.5030, 20941.00
682.6610, 21057.00
683.8190, 21064.00
684.9770, 20895.00
686.1340, 21108.00
687.2920, 20832.00
688.4490, 21137.00
689.6060, 20881.00
690.7630, 21098.00
691.9200, 20992.00
693.0760, 21340.00
694.2330, 21136.00
695.3890, 21195.00
696.5450, 21194.00
697.7010, 21195.00
698.8570, 21110.00
700.0130, 21047.00
701.1680, 21080.00
702.3230, 21332.00
703.4780, 21033.00
704.6330, 21051.00
705.7880, 21005.00
706.9430, 21131.00
708.0970, 21354.00
709.2520, 21139.00
710.4060, 21030.00
711.5600, 21270.00
712.7140, 21139.00
713.8670, 21286.00
715.0210, 21311.00
716.1740, 21458.00
717.3270, 21400.00
718.4800, 21379.00
719.6330, 21409.00
720.7860, 21252.00
721.9380, 21337.00
723.0910, 21311.00
724.2430, 21378.00
725.3950, 21381.00
726.5470, 21357.00
727.6980, 21444.00
728.8500, 21549.00
730.0010, 21472.00
731.1530, 21592.00
732.3040, 21452.00
733.4550, 21650.00
734.6050, 21583.00
735.7560, 21638.00
736.9060, 21618.00
738.0560, 21617.00
739.2060, 21928.00
740.3560, 21787.00
741.5060, 21665.00
742.6560, 21979.00
743.8050, 21871.00
744.9540, 21832.00
746.1030, 21677.00
747.2520, 21831.00
748.4010, 21792.00
749.5500, 22011.00
750.6980, 22067.00
751.8460, 22116.00
752.9950, 21916.00
754.1420, 22042.00
755.2900, 22036.00
756.4380, 22035.00
757.5850, 21985.00
758.7330, 21786.00
759.8800, 22028.00
761.0270, 22197.00
762.1730, 22167.00
763.3200, 22394.00
764.4670, 22282.00
765.6130, 22289.00
766.7590, 22293.00
767.9050, 22389.00
769.0510, 22213.00
770.1960, 22299.00
771.3420, 22287.00
772.4870, 22317.00
773.6320, 22244.00
774.7770, 22545.00
775.9220, 22460.00
777.0670, 22469.00
778.2110, 22383.00
779.3560, 22654.00
780.5000, 22509.00
781.6440, 22437.00
782.7880, 22503.00
783.9320, 22500.00
785.0750, 22576.00
786.2180, 22577.00
787.3620, 22501.00
788.5050, 22783.00
789.6480, 22640.00
790.7900, 22908.00
791.9330, 22617.00
793.0750, 22747.00
794.2170, 22794.00
795.3590, 22692.00
796.5010, 22906.00
797.6430, 22997.00
798.7850, 22795.00
799.9260, 22828.00
801.0670, 22723.00
802.2080, 22789.00
803.3490, 22830.00
804.4900, 22983.00
805.6310, 22752.00
806.7710, 22923.00
807.9110, 23030.00
809.0510, 23202.00
810.1910, 23204.00
811.3310, 23079.00
812.4710, 23265.00
813.6100, 23225.00
814.7490, 23269.00
815.8880, 23311.00
817.0270, 23086.00
818.1660, 23152.00
819.3050, 23022.00
820.4430, 23268.00
821.5820, 23225.00
822.7200, 23418.00
823.8580, 23336.00
824.9950, 23424.00
826.1330, 23444.00
827.2710, 23477.00
828.4080, 23472.00
829.5450, 23428.00
830.6820, 23651.00
831.8190, 23594.00
832.9560, 23428.00
834.0920, 23427.00
835.2280, 23533.00
836.3650, 23456.00
837.5010, 23701.00
838.6360, 23486.00
839.7720, 23492.00
840.9080, 23758.00
842.0430, 23680.00
843.1780, 23836.00
844.3130, 23799.00
845.4480, 23958.00
846.5830, 23931.00
847.7170, 23795.00
848.8520, 23845.00
849.9860, 24085.00
851.1200, 24086.00
852.2540, 23972.00
853.3870, 23914.00
854.5210, 24156.00
855.6540, 24165.00
856.7880, 24121.00
857.9210, 24109.00
859.0540, 24025.00
860.1860, 24148.00
861.3190, 24160.00
862.4510, 24489.00
863.5840, 24157.00
864.7160, 24237.00
865.8480, 24484.00
866.9790, 24558.00
868.1110, 24186.00
869.2420, 24401.00
870.3740, 24551.00
871.5050, 24468.00
872.6360, 24690.00
873.7660, 24519.00
874.8970, 24453.00
876.0280, 24584.00
877.1580, 24593.00
878.2880, 24666.00
879.4180, 24739.00
880.5480, 24452.00
881.6770, 24714.00
882.8070, 24764.00
883.9360, 24778.00
885.0650, 24542.00
886.1940, 24723.00
887.3230, 24999.00
888.4520, 24670.00
889.5800, 24763.00
890.7090, 24822.00
891.8370, 24804.00
892.9650, 24744.00
894.0930, 25045.00
895.2200, 24960.00
896.3480, 24955.00
897.4750, 24960.00
898.6020, 25067.00
899.7290, 24919.00
900.8560, 25115.00
901.9830, 25234.00
903.1090, 24892.00
904.2360, 25157.00
905.3620, 25040.00
906.4880, 25110.00
907.6140, 24878.00
908.7400, 25032.00
909.8650, 25081.00
910.9900, 25213.00
912.1160, 25189.00
913.2410, 25179.00
914.3660, 25272.00
915.4900, 25361.00
916.6150, 25277.00
917.7390, 25309.00
918.8640, 25245.00
919.9880, 25312.00
921.1120, 25509.00
922.2350, 25526.00
923.3590, 25436.00
924.4820, 25607.00
925.6060, 25462.00
926.7290, 25478.00
927.8520, 25552.00
928.9740, 25395.00
930.0970, 25641.00
931.2190, 25679.00
932.3420, 25672.00
933.4640, 25629.00
934.5860, 25569.00
935.7080, 25719.00
936.8290, 25935.00
937.9510, 25476.00
939.0720, 25873.00
940.1930, 25610.00
941.3140, 25947.00
942.4350, 25701.00
943.5560, 25753.00
944.6760, 25885.00
945.7960, 25926.00
946.9170, 25732.00
948.0370, 25894.00
949.1560, 25984.00
950.2760, 25845.00
951.3960, 26023.00
952.5150, 26020.00
953.6340, 26104.00
954.7530, 26165.00
955.8720, 26225.00
956.9910, 26222.00
958.1090, 26193.00
959.2280, 26091.00
960.3460, 25937.00
961.4640, 26200.00
962.5820, 26376.00
963.6990, 26268.00
964.8170, 26301.00
965.9340, 26351.00
967.0510, 26473.00
968.1690, 26450.00
969.2850, 26462.00
970.4020, 26429.00
971.5190, 26380.00
972.6350, 26149.00
973.7510, 26181.00
974.8670, 26350.00
975.9830, 26606.00
977.0990, 26779.00
978.2150, 26509.00
979.3300, 26763.00
980.4450, 26652.00
981.5600, 26874.00
982.6750, 27133.00
983.7900, 26838.00
984.9050, 27239.00
986.0190, 27105.00
987.1340, 27179.00
988.2480, 27246.00
989.3620, 27209.00
990.4750, 27647.00
991.5890, 27488.00
992.7020, 27663.00
993.8160, 27993.00
994.9290, 28166.00
996.0420, 28087.00
997.1550, 28508.00
998.2670, 28819.00
999.3800, 29159.00
1000.492, 29752.00
1001.604, 30339.00
1002.716, 31365.00
1003.828, 32101.00
1004.940, 33336.00
1006.051, 35131.00
1007.163, 36475.00
1008.274, 37776.00
1009.385, 39118.00
1010.496, 40009.00
1011.606, 40117.00
1012.717, 39715.00
1013.827, 38209.00
1014.937, 36850.00
1016.047, 34822.00
1017.157, 33552.00
1018.267, 31943.00
1019.377, 31111.00
1020.486, 30623.00
1021.595, 30208.00
1022.704, 29453.00
1023.813, 29314.00
1024.922, 29099.00
1026.030, 28827.00
1027.139, 28965.00
1028.247, 28885.00
1029.355, 28854.00
1030.463, 28757.00
1031.571, 28505.00
1032.678, 28599.00
1033.786, 28573.00
1034.893, 28594.00
1036.000, 28517.00
1037.107, 28267.00
1038.214, 28238.00
1039.321, 28432.00
1040.427, 28339.00
1041.533, 28000.00
1042.639, 28295.00
1043.745, 28190.00
1044.851, 28363.00
1045.957, 28348.00
1047.062, 28354.00
1048.168, 28426.00
1049.273, 28428.00
1050.378, 28087.00
1051.482, 28320.00
1052.587, 28091.00
1053.692, 28170.00
1054.796, 28193.00
1055.900, 28235.00
1057.004, 28232.00
1058.108, 28374.00
1059.212, 28628.00
1060.315, 28311.00
1061.418, 28706.00
1062.522, 28206.00
1063.625, 28520.00
1064.728, 28237.00
1065.830, 28482.00
1066.933, 28429.00
1068.035, 28486.00
1069.137, 28568.00
1070.239, 28783.00
1071.341, 28618.00
1072.443, 28609.00
1073.545, 28788.00
1074.646, 28661.00
1075.747, 28788.00
1076.848, 28641.00
1077.949, 28731.00
1079.050, 28851.00
1080.150, 29082.00
1081.251, 29177.00
1082.351, 29010.00
1083.451, 29076.00
1084.551, 29044.00
1085.651, 28893.00
1086.750, 28986.00
1087.850, 29336.00
1088.949, 28948.00
1090.048, 29194.00
1091.147, 29082.00
1092.246, 29263.00
1093.345, 29309.00
1094.443, 29027.00
1095.541, 29136.00
1096.639, 29174.00
1097.737, 29162.00
1098.835, 29142.00
1099.933, 29238.00
1101.030, 29305.00
1102.128, 29147.00
1103.225, 29367.00
1104.322, 29446.00
1105.419, 29421.00
1106.515, 29478.00
1107.612, 29439.00
1108.708, 29204.00
1109.804, 29335.00
1110.900, 29735.00
1111.996, 29617.00
1113.092, 29823.00
1114.187, 29632.00
1115.283, 29718.00
1116.378, 29600.00
1117.473, 29509.00
1118.568, 29623.00
1119.662, 29582.00
1120.757, 29669.00
1121.851, 29658.00
1122.946, 29713.00
1124.040, 29930.00
1125.134, 29902.00
1126.227, 29722.00
1127.321, 29915.00
1128.414, 29868.00
1129.508, 29957.00
1130.601, 29992.00
1131.693, 30034.00
1132.786, 29945.00
1133.879, 29920.00
1134.971, 29877.00
1136.064, 29982.00
1137.156, 29872.00
1138.248, 30032.00
1139.339, 30223.00
1140.431, 30204.00
1141.522, 30267.00
1142.614, 30216.00
1143.705, 30235.00
1144.796, 30160.00
1145.887, 30265.00
1146.977, 30071.00
1148.068, 30317.00
1149.158, 30740.00
1150.248, 30532.00
1151.338, 30321.00
1152.428, 30269.00
1153.518, 30579.00
1154.607, 30414.00
1155.696, 30705.00
1156.785, 30579.00
1157.874, 30684.00
1158.963, 30635.00
1160.052, 30486.00
1161.141, 30438.00
1162.229, 30577.00
1163.317, 30914.00
1164.405, 30720.00
1165.493, 30650.00
1166.581, 30604.00
1167.668, 30559.00
1168.756, 30775.00
1169.843, 30882.00
1170.930, 30877.00
1172.017, 30778.00
1173.103, 30806.00
1174.190, 30988.00
1175.276, 30917.00
1176.363, 30995.00
1177.449, 30995.00
1178.535, 31099.00
1179.620, 31036.00
1180.706, 30965.00
1181.791, 31056.00
1182.877, 30993.00
1183.962, 31144.00
1185.047, 31022.00
1186.131, 31131.00
1187.216, 31195.00
1188.300, 31366.00
1189.385, 31216.00
1190.469, 31259.00
1191.553, 31235.00
1192.637, 31385.00
1193.720, 31360.00
1194.804, 31309.00
1195.887, 31441.00
1196.970, 31509.00
1198.053, 31358.00
1199.136, 31407.00
1200.219, 31453.00
1201.301, 31448.00
1202.383, 31568.00
1203.465, 31922.00
1204.547, 31485.00
1205.629, 31416.00
1206.711, 31690.00
1207.792, 31725.00
1208.874, 31874.00
1209.955, 31758.00
1211.036, 31766.00
1212.117, 31629.00
1213.198, 31807.00
1214.278, 31824.00
1215.359, 31803.00
1216.439, 32291.00
1217.519, 32098.00
1218.599, 31813.00
1219.678, 31821.00
1220.758, 32146.00
1221.837, 31930.00
1222.917, 32023.00
1223.996, 32076.00
1225.075, 32298.00
1226.153, 32194.00
1227.232, 32078.00
1228.310, 32310.00
1229.389, 32231.00
1230.467, 32386.00
1231.545, 32640.00
1232.622, 32361.00
1233.700, 32384.00
1234.777, 32656.00
1235.855, 32400.00
1236.932, 32619.00
1238.009, 32556.00
1239.086, 32631.00
1240.162, 32400.00
1241.239, 32533.00
1242.315, 32659.00
1243.391, 32554.00
1244.467, 32860.00
1245.543, 32718.00
1246.619, 32794.00
1247.694, 32966.00
1248.769, 32976.00
1249.844, 32860.00
1250.919, 32739.00
1251.994, 32747.00
1253.069, 32924.00
1254.144, 32818.00
1255.218, 32765.00
1256.292, 33105.00
1257.366, 33146.00
1258.440, 33144.00
1259.514, 33123.00
1260.587, 33166.00
1261.661, 33126.00
1262.734, 33257.00
1263.807, 33288.00
1264.880, 33269.00
1265.952, 33102.00
1267.025, 33178.00
1268.097, 33341.00
1269.170, 33409.00
1270.242, 33434.00
1271.314, 33690.00
1272.385, 33562.00
1273.457, 33484.00
1274.528, 33861.00
1275.600, 33848.00
1276.671, 33602.00
1277.742, 33679.00
1278.812, 33512.00
1279.883, 33709.00
1280.954, 33919.00
1282.024, 33719.00
1283.094, 33518.00
1284.164, 33771.00
1285.234, 33674.00
1286.303, 33678.00
1287.373, 33848.00
1288.442, 33701.00
1289.511, 33847.00
1290.580, 34096.00
1291.649, 33771.00
1292.718, 33831.00
1293.786, 33876.00
1294.855, 33922.00
1295.923, 33949.00
1296.991, 33955.00
1298.059, 34144.00
1299.126, 34327.00
1300.194, 34152.00
1301.261, 34267.00
1302.328, 33886.00
1303.395, 34053.00
1304.462, 34574.00
1305.529, 34146.00
1306.596, 34345.00
1307.662, 34434.00
1308.728, 34560.00
1309.794, 34310.00
1310.860, 34559.00
1311.926, 34705.00
1312.991, 34656.00
1314.057, 34557.00
1315.122, 34728.00
1316.187, 34894.00
1317.252, 34864.00
1318.317, 34933.00
1319.381, 34761.00
1320.446, 35000.00
1321.510, 34812.00
1322.574, 34783.00
1323.638, 35088.00
1324.702, 34716.00
1325.766, 35054.00
1326.829, 35145.00
1327.892, 35027.00
1328.956, 34989.00
1330.019, 35052.00
1331.081, 35037.00
1332.144, 35124.00
1333.206, 35040.00
1334.269, 34967.00
1335.331, 35180.00
1336.393, 35000.00
1337.455, 35161.00
1338.516, 35246.00
1339.578, 35346.00
1340.639, 35312.00
1341.701, 35356.00
1342.762, 35378.00
1343.822, 35395.00
1344.883, 35479.00
1345.944, 35356.00
1347.004, 35609.00
1348.064, 35674.00
1349.124, 35593.00
1350.184, 35452.00
1351.244, 35659.00
1352.304, 35678.00
1353.363, 35360.00
1354.422, 35453.00
1355.481, 35566.00
1356.540, 35452.00
1357.599, 35632.00
1358.657, 35631.00
1359.716, 35827.00
1360.774, 35667.00
1361.832, 35953.00
1362.890, 35706.00
1363.948, 35693.00
1365.006, 35886.00
1366.063, 36009.00
1367.120, 35622.00
1368.178, 35955.00
1369.234, 35992.00
1370.291, 35888.00
1371.348, 35952.00
1372.404, 36017.00
1373.461, 35759.00
1374.517, 35824.00
1375.573, 36103.00
1376.629, 36147.00
1377.684, 36223.00
1378.740, 36250.00
1379.795, 36065.00
1380.850, 36296.00
1381.905, 36366.00
1382.960, 36062.00
1384.015, 36041.00
1385.070, 36193.00
1386.124, 36221.00
1387.178, 36508.00
1388.232, 36234.00
1389.286, 36309.00
1390.340, 36343.00
1391.393, 36501.00
1392.447, 36319.00
1393.500, 36497.00
1394.553, 36246.00
1395.606, 36575.00
1396.659, 36440.00
1397.711, 36604.00
1398.764, 36530.00
1399.816, 36683.00
1400.868, 36574.00
1401.920, 36509.00
1402.972, 36703.00
1404.023, 36624.00
1405.075, 36745.00
1406.126, 36614.00
1407.177, 36810.00
1408.228, 36722.00
1409.279, 36801.00
1410.330, 36718.00
1411.380, 36876.00
1412.431, 36712.00
1413.481, 36807.00
1414.531, 36892.00
1415.580, 36722.00
1416.630, 36998.00
1417.680, 36584.00
1418.729, 36785.00
