##NAMES=Hedenbergite
##RRUFFID=R060040
##IDEAL CHEMISTRY=CaFe^2+^Si_2_O_6_
##LOCALITY=Rio Marina, Elba, Italy
##OWNER=RRUFF
##SOURCE=University of Arizona Mineral Museum
##DESCRIPTION=Radial aggregate of green thin bladed crystals
##STATUS=The identification of this mineral has been confirmed by X-ray diffraction and chemical analysis
##URL=rruff.info/R060040
##MEASURED CHEMISTRY=Ca_1.00_(Fe^2+^_0.89_Mg_0.09_Mn_0.02_)_Î£=1_Si_2.00_O_6_
##PIN_ID=M00548
##ORIENTATION=Laser parallel to c* (0 0 1). Fiducial mark perpendicular to laser is parallel to a [1 0 0]
262.4900, 11476.00
263.7050, 11463.00
264.9210, 11556.00
266.1360, 11505.00
267.3520, 11702.00
268.5670, 11870.00
269.7820, 11925.00
270.9960, 12028.00
272.2110, 12196.00
273.4250, 12431.00
274.6400, 12701.00
275.8540, 12790.00
277.0680, 12825.00
278.2810, 13052.00
279.4950, 12931.00
280.7090, 12975.00
281.9220, 12962.00
283.1350, 12994.00
284.3480, 12929.00
285.5610, 12748.00
286.7730, 12766.00
287.9860, 12723.00
289.1980, 12899.00
290.4100, 12853.00
291.6220, 12837.00
292.8340, 12880.00
294.0460, 13025.00
295.2570, 13074.00
296.4690, 13150.00
297.6800, 13198.00
298.8910, 13239.00
300.1020, 13504.00
301.3120, 13699.00
302.5230, 13693.00
303.7330, 13659.00
304.9440, 13822.00
306.1540, 13830.00
307.3630, 13864.00
308.5730, 13759.00
309.7830, 13675.00
310.9920, 13774.00
312.2010, 13513.00
313.4100, 13233.00
314.6190, 13181.00
315.8280, 13151.00
317.0370, 13151.00
318.2450, 12953.00
319.4530, 12921.00
320.6610, 12927.00
321.8690, 12924.00
323.0770, 13028.00
324.2850, 13177.00
325.4920, 13080.00
326.6990, 13307.00
327.9060, 13503.00
329.1130, 13588.00
330.3200, 13851.00
331.5270, 14044.00
332.7330, 13997.00
333.9390, 14247.00
335.1450, 14356.00
336.3510, 14744.00
337.5570, 14883.00
338.7630, 14999.00
339.9680, 15049.00
341.1740, 15024.00
342.3790, 14792.00
343.5840, 14711.00
344.7890, 14182.00
345.9930, 13869.00
347.1980, 13701.00
348.4020, 13379.00
349.6060, 13342.00
350.8100, 13155.00
352.0140, 13109.00
353.2180, 12955.00
354.4210, 12989.00
355.6250, 13124.00
356.8280, 12970.00
358.0310, 13001.00
359.2340, 13252.00
360.4360, 13406.00
361.6390, 13324.00
362.8410, 13503.00
364.0430, 13832.00
365.2450, 13984.00
366.4470, 14237.00
367.6490, 14556.00
368.8510, 14928.00
370.0520, 15429.00
371.2530, 15808.00
372.4540, 16167.00
373.6550, 16493.00
374.8560, 16563.00
376.0560, 16494.00
377.2570, 16329.00
378.4570, 15969.00
379.6570, 15615.00
380.8570, 14974.00
382.0570, 14671.00
383.2560, 14286.00
384.4560, 13846.00
385.6550, 13708.00
386.8540, 13489.00
388.0530, 13222.00
389.2520, 13115.00
390.4510, 12971.00
391.6490, 12844.00
392.8470, 12794.00
394.0450, 12719.00
395.2430, 12802.00
396.4410, 12667.00
397.6390, 12776.00
398.8360, 12737.00
400.0340, 12771.00
401.2310, 12751.00
402.4280, 12723.00
403.6250, 12649.00
404.8210, 12656.00
406.0180, 12746.00
407.2140, 12635.00
408.4100, 12745.00
409.6060, 12760.00
410.8020, 12542.00
411.9980, 12667.00
413.1930, 12755.00
414.3890, 12708.00
415.5840, 12606.00
416.7790, 12629.00
417.9740, 12741.00
419.1680, 12863.00
420.3630, 12728.00
421.5570, 12719.00
422.7510, 12785.00
423.9450, 12794.00
425.1390, 12861.00
426.3330, 12921.00
427.5270, 13029.00
428.7200, 12901.00
429.9130, 13089.00
431.1060, 13148.00
432.2990, 13060.00
433.4920, 13196.00
434.6840, 13065.00
435.8770, 13283.00
437.0690, 13116.00
438.2610, 13247.00
439.4530, 13358.00
440.6450, 13319.00
441.8360, 13331.00
443.0280, 13241.00
444.2190, 13251.00
445.4100, 13153.00
446.6010, 13442.00
447.7920, 13210.00
448.9820, 13206.00
450.1730, 13126.28
451.3630, 13243.16
452.5530, 13307.94
453.7430, 13323.43
454.9330, 13141.99
456.1230, 13214.84
457.3120, 13185.79
458.5010, 13152.55
459.6910, 13261.20
460.8800, 13108.40
462.0680, 13214.80
463.2570, 13217.73
464.4460, 13291.00
465.6340, 13270.00
466.8220, 13215.00
468.0100, 13326.00
469.1980, 13366.00
470.3860, 13170.00
471.5730, 13335.00
472.7600, 13257.00
473.9480, 13163.00
475.1350, 13302.00
476.3210, 13167.00
477.5080, 13456.00
478.6950, 13356.00
479.8810, 13386.00
481.0670, 13428.00
482.2530, 13403.00
483.4390, 13345.00
484.6250, 13431.00
485.8100, 13557.00
486.9960, 13608.00
488.1810, 13526.00
489.3660, 13624.00
490.5510, 13715.00
491.7360, 13924.00
492.9200, 13970.00
494.1050, 13864.00
495.2890, 13906.00
496.4730, 14044.00
497.6570, 14020.00
498.8400, 14110.00
500.0240, 13768.00
501.2070, 13838.00
502.3910, 13855.00
503.5740, 13883.00
504.7570, 13981.00
505.9400, 13812.00
507.1220, 13826.00
508.3050, 13922.00
509.4870, 13928.00
510.6690, 14036.00
511.8510, 13946.00
513.0330, 13888.00
514.2140, 14124.00
515.3960, 14208.00
516.5770, 14219.00
517.7580, 14328.00
518.9390, 14206.00
520.1200, 14373.00
521.3010, 14298.00
522.4810, 14285.00
523.6610, 14332.00
524.8420, 14144.00
526.0220, 14256.00
527.2010, 14402.00
528.3810, 14311.00
529.5610, 14105.00
530.7400, 14291.00
531.9190, 14239.00
533.0980, 14137.00
534.2770, 14193.00
535.4560, 14186.00
536.6340, 14311.00
537.8120, 14217.00
538.9910, 14305.00
540.1690, 14451.00
541.3460, 14506.00
542.5240, 14666.00
543.7020, 14671.00
544.8790, 14741.00
546.0560, 15024.00
547.2330, 15053.00
548.4100, 15408.00
549.5870, 15750.00
550.7630, 15610.00
551.9400, 15750.00
553.1160, 15796.00
554.2920, 15855.00
555.4680, 15634.00
556.6440, 15411.00
557.8190, 15251.00
558.9950, 15080.00
560.1700, 14943.00
561.3450, 14890.00
562.5200, 14872.00
563.6950, 14738.00
564.8690, 14770.00
566.0440, 14802.00
567.2180, 14849.00
568.3920, 14665.00
569.5660, 14786.00
570.7400, 14698.00
571.9130, 14662.00
573.0870, 14680.00
574.2600, 14782.00
575.4330, 14912.00
576.6060, 14786.00
577.7790, 14785.00
578.9520, 14766.00
580.1240, 14833.00
581.2960, 14802.00
582.4690, 14698.00
583.6410, 14770.00
584.8120, 14912.00
585.9840, 14823.00
587.1560, 14997.00
588.3270, 14821.00
589.4980, 14997.00
590.6690, 15010.00
591.8400, 14954.00
593.0110, 15128.00
594.1810, 15242.00
595.3510, 15077.00
596.5220, 15235.00
597.6920, 15149.00
598.8610, 15218.00
600.0310, 15161.00
601.2010, 15214.00
602.3700, 15218.00
603.5390, 15216.00
604.7080, 15295.00
605.8770, 15412.00
607.0460, 15395.00
608.2140, 15338.00
609.3830, 15563.00
610.5510, 15349.00
611.7190, 15585.00
612.8870, 15556.00
614.0550, 15557.00
615.2220, 15573.00
616.3900, 15608.00
617.5570, 15631.00
618.7240, 15545.00
619.8910, 15774.00
621.0580, 15814.00
622.2240, 15701.00
623.3910, 15949.00
624.5570, 15931.00
625.7230, 15902.00
626.8890, 16094.00
628.0550, 16105.00
629.2200, 15905.00
630.3860, 16110.00
631.5510, 16095.00
632.7160, 16340.00
633.8810, 16145.00
635.0460, 16410.00
636.2100, 16433.00
637.3750, 16570.00
638.5390, 16675.00
639.7030, 16754.00
640.8670, 16968.00
642.0310, 16900.00
643.1950, 17082.00
644.3580, 17417.00
645.5210, 17604.00
646.6850, 18010.00
647.8480, 18366.00
649.0100, 19001.00
650.1730, 19493.00
651.3350, 20290.00
652.4980, 20996.00
653.6600, 21984.00
654.8220, 23222.00
655.9840, 24219.00
657.1450, 25422.00
658.3070, 26529.00
659.4680, 27444.00
660.6300, 27365.00
661.7910, 26881.00
662.9510, 25935.00
664.1120, 24768.00
665.2730, 23168.00
666.4330, 21949.00
667.5930, 20851.00
668.7530, 19950.00
669.9130, 19345.00
671.0730, 18545.00
672.2320, 18234.00
673.3920, 17697.00
674.5510, 17533.00
675.7100, 17381.00
676.8690, 17177.00
678.0280, 16941.00
679.1860, 16920.00
680.3450, 16992.00
681.5030, 16643.00
682.6610, 16665.00
683.8190, 16696.00
684.9770, 16712.00
686.1340, 16588.00
687.2920, 16793.00
688.4490, 16617.00
689.6060, 16645.00
690.7630, 16478.00
691.9200, 16688.00
693.0760, 16654.00
694.2330, 16518.00
695.3890, 16585.00
696.5450, 16516.00
697.7010, 16666.00
698.8570, 16594.00
700.0130, 16397.00
701.1680, 16745.00
702.3230, 16564.00
703.4780, 16674.00
704.6330, 16607.00
705.7880, 16731.00
706.9430, 16487.00
708.0970, 16772.00
709.2520, 16902.00
710.4060, 16972.00
711.5600, 17130.00
712.7140, 17139.00
713.8670, 17000.00
715.0210, 16935.00
716.1740, 16773.00
717.3270, 16868.00
718.4800, 16865.00
719.6330, 16753.00
720.7860, 16884.00
721.9380, 16768.00
723.0910, 16768.00
724.2430, 16817.00
725.3950, 16733.00
726.5470, 16790.00
727.6980, 16972.00
728.8500, 16924.00
730.0010, 16986.00
731.1530, 16995.00
732.3040, 17033.00
733.4550, 17018.00
734.6050, 16881.00
735.7560, 16705.00
736.9060, 16986.00
738.0560, 17013.00
739.2060, 17142.00
740.3560, 17032.00
741.5060, 17166.00
742.6560, 17186.00
743.8050, 17266.00
744.9540, 17221.00
746.1030, 17238.00
747.2520, 17394.00
748.4010, 17273.00
749.5500, 17178.00
750.6980, 17336.00
751.8460, 17515.00
752.9950, 17501.00
754.1420, 17487.00
755.2900, 17266.00
756.4380, 17542.00
757.5850, 17357.00
758.7330, 17589.00
759.8800, 17447.00
761.0270, 17479.00
762.1730, 17488.00
763.3200, 17550.00
764.4670, 17458.00
765.6130, 17591.00
766.7590, 17649.00
767.9050, 17597.00
769.0510, 17793.00
770.1960, 17722.00
771.3420, 17580.00
772.4870, 17628.00
773.6320, 17760.00
774.7770, 17619.00
775.9220, 17738.00
777.0670, 17715.00
778.2110, 17611.00
779.3560, 17821.00
780.5000, 17759.00
781.6440, 17825.00
782.7880, 17601.00
783.9320, 17976.00
785.0750, 17809.00
786.2180, 17957.00
787.3620, 17889.00
788.5050, 17699.00
789.6480, 17862.00
790.7900, 18027.00
791.9330, 17897.00
793.0750, 18053.00
794.2170, 18001.00
795.3590, 18162.00
796.5010, 17929.00
797.6430, 18168.00
798.7850, 18177.00
799.9260, 17916.00
801.0670, 17864.00
802.2080, 18283.00
803.3490, 18211.00
804.4900, 18227.00
805.6310, 18101.00
806.7710, 18136.00
807.9110, 18207.00
809.0510, 18304.00
810.1910, 18212.00
811.3310, 18359.00
812.4710, 18520.00
813.6100, 18260.00
814.7490, 18469.00
815.8880, 18585.00
817.0270, 18512.00
818.1660, 18637.00
819.3050, 18561.00
820.4430, 18454.00
821.5820, 18555.00
822.7200, 18726.00
823.8580, 18822.00
824.9950, 18676.00
826.1330, 18820.00
827.2710, 18887.00
828.4080, 19028.00
829.5450, 18830.00
830.6820, 19133.00
831.8190, 19013.00
832.9560, 19057.00
834.0920, 19472.00
835.2280, 19507.00
836.3650, 19661.26
837.5010, 19763.40
838.6360, 19816.21
839.7720, 19672.11
840.9080, 19782.31
842.0430, 19809.00
843.1780, 19806.00
844.3130, 19653.00
845.4480, 19642.00
846.5830, 19701.00
847.7170, 19588.00
848.8520, 19862.00
849.9860, 19783.00
851.1200, 19873.00
852.2540, 20152.00
853.3870, 20148.00
854.5210, 20136.00
855.6540, 20157.00
856.7880, 20011.00
857.9210, 19977.00
859.0540, 19724.00
860.1860, 19779.00
861.3190, 19834.00
862.4510, 19823.00
863.5840, 19535.00
864.7160, 19807.00
865.8480, 19800.00
866.9790, 19837.00
868.1110, 19556.00
869.2420, 19815.00
870.3740, 19808.00
871.5050, 19741.00
872.6360, 19596.00
873.7660, 19681.00
874.8970, 19852.00
876.0280, 19929.00
877.1580, 19920.00
878.2880, 19995.00
879.4180, 20027.00
880.5480, 20062.00
881.6770, 19952.00
882.8070, 20040.00
883.9360, 20034.00
885.0650, 20024.00
886.1940, 20037.00
887.3230, 20198.00
888.4520, 20287.00
889.5800, 20344.00
890.7090, 20481.00
891.8370, 20181.00
892.9650, 20292.00
894.0930, 20533.00
895.2200, 20302.00
896.3480, 20482.00
897.4750, 20384.00
898.6020, 20488.00
899.7290, 20455.00
900.8560, 20630.00
901.9830, 20514.00
903.1090, 20578.00
904.2360, 20508.00
905.3620, 20601.00
906.4880, 20656.00
907.6140, 20711.00
908.7400, 20766.00
909.8650, 20820.00
910.9900, 20503.00
912.1160, 20705.00
913.2410, 20787.00
914.3660, 20832.00
915.4900, 20698.00
916.6150, 20807.00
917.7390, 20708.00
918.8640, 20870.00
919.9880, 21066.00
921.1120, 20905.00
922.2350, 20742.00
923.3590, 20746.00
924.4820, 20682.00
925.6060, 20978.00
926.7290, 20766.00
927.8520, 20763.00
928.9740, 20722.00
930.0970, 20866.00
931.2190, 20837.00
932.3420, 20783.00
933.4640, 20744.00
934.5860, 20625.00
935.7080, 20832.00
936.8290, 20765.00
937.9510, 20893.00
939.0720, 20897.00
940.1930, 20892.00
941.3140, 21004.00
942.4350, 21001.00
943.5560, 21149.00
944.6760, 21109.00
945.7960, 21216.00
946.9170, 21123.00
948.0370, 21162.00
949.1560, 21309.00
950.2760, 21285.00
951.3960, 21219.00
952.5150, 21424.00
953.6340, 21155.00
954.7530, 21398.00
955.8720, 21408.00
956.9910, 21283.00
958.1090, 21472.00
959.2280, 21342.00
960.3460, 21643.00
961.4640, 21689.00
962.5820, 21602.00
963.6990, 21530.00
964.8170, 21879.00
965.9340, 21898.00
967.0510, 21838.00
968.1690, 21982.00
969.2850, 22008.00
970.4020, 21903.00
971.5190, 22118.00
972.6350, 21795.00
973.7510, 21859.00
974.8670, 22079.00
975.9830, 22022.00
977.0990, 22225.00
978.2150, 22085.00
979.3300, 22234.00
980.4450, 22212.00
981.5600, 22386.00
982.6750, 22424.00
983.7900, 22441.00
984.9050, 22653.00
986.0190, 22695.00
987.1340, 22680.00
988.2480, 23038.00
989.3620, 22990.00
990.4750, 23225.00
991.5890, 23415.00
992.7020, 23694.00
993.8160, 23574.00
994.9290, 24152.00
996.0420, 24459.00
997.1550, 24597.00
998.2670, 25396.00
999.3800, 25845.00
1000.492, 26385.00
1001.604, 27541.00
1002.716, 28590.00
1003.828, 30039.00
1004.940, 32070.00
1006.051, 34300.00
1007.163, 37120.00
1008.274, 40520.00
1009.385, 43920.00
1010.496, 47070.00
1011.606, 49204.00
1012.717, 48988.00
1013.827, 46877.00
1014.937, 43182.00
1016.047, 39422.00
1017.157, 35731.00
1018.267, 33037.00
1019.377, 30755.00
1020.486, 29418.00
1021.595, 28149.00
1022.704, 27718.00
1023.813, 26968.00
1024.922, 26635.00
1026.030, 26543.00
1027.139, 26329.00
1028.247, 26293.00
1029.355, 26043.00
1030.463, 25814.00
1031.571, 25758.00
1032.678, 25656.00
1033.786, 25456.00
1034.893, 25312.00
1036.000, 24999.00
1037.107, 24813.00
1038.214, 24576.00
1039.321, 24453.00
1040.427, 24498.00
1041.533, 24234.00
1042.639, 24031.00
1043.745, 24039.00
1044.851, 23843.00
1045.957, 23929.00
1047.062, 23916.00
1048.168, 23961.00
1049.273, 23601.05
1050.378, 23771.41
1051.482, 23867.36
1052.587, 23892.89
1053.692, 23637.08
1054.796, 23744.56
1055.900, 23706.45
1057.004, 23662.36
1058.108, 23820.97
1059.212, 23606.08
1060.315, 23761.47
1061.418, 23734.00
1062.522, 23867.00
1063.625, 23786.00
1064.728, 23856.00
1065.830, 23788.00
1066.933, 23931.00
1068.035, 23731.00
1069.137, 23928.00
1070.239, 23963.00
1071.341, 23883.00
1072.443, 23992.00
1073.545, 23966.00
1074.646, 24036.00
1075.747, 24079.00
1076.848, 24173.00
1077.949, 24378.00
1079.050, 24294.00
1080.150, 24722.00
1081.251, 25195.00
1082.351, 25652.00
1083.451, 26579.00
1084.551, 27790.00
1085.651, 29402.00
1086.750, 29633.00
1087.850, 28351.00
1088.949, 26565.00
1090.048, 25678.00
1091.147, 24947.00
1092.246, 24653.00
1093.345, 24552.00
1094.443, 24585.00
1095.541, 24468.00
1096.639, 24528.00
1097.737, 24251.90
1098.835, 24370.59
1099.933, 24441.92
1101.030, 24468.43
1102.128, 24315.92
1103.225, 24394.58
1104.322, 24380.59
1105.419, 24362.81
1106.515, 24474.00
1107.612, 24347.52
1108.708, 24456.66
1109.804, 24656.00
1110.900, 24760.00
1111.996, 24721.00
1113.092, 24540.00
1114.187, 24657.00
1115.283, 24588.00
1116.378, 24653.00
1117.473, 24954.00
1118.568, 24789.00
1119.662, 24742.00
1120.757, 24768.00
1121.851, 24912.00
1122.946, 24790.00
1124.040, 24980.00
1125.134, 24695.00
1126.227, 25045.00
1127.321, 25047.00
1128.414, 24845.00
1129.508, 25029.00
1130.601, 24806.00
1131.693, 25149.00
1132.786, 24898.00
1133.879, 24832.00
1134.971, 24807.00
1136.064, 24985.00
1137.156, 25092.00
1138.248, 25056.00
1139.339, 25068.00
1140.431, 25271.00
1141.522, 25055.00
1142.614, 25389.00
1143.705, 25235.00
1144.796, 25284.00
1145.887, 25140.00
1146.977, 25333.00
1148.068, 25227.00
1149.158, 25170.00
1150.248, 25381.00
1151.338, 25558.00
1152.428, 25303.00
1153.518, 25592.00
1154.607, 25250.00
1155.696, 25234.00
1156.785, 25631.00
1157.874, 25328.00
1158.963, 25554.00
1160.052, 25657.00
1161.141, 25482.00
1162.229, 25573.00
1163.317, 25665.00
1164.405, 25805.00
1165.493, 25427.00
1166.581, 25830.00
1167.668, 25573.00
1168.756, 25729.00
1169.843, 25687.00
1170.930, 25728.00
1172.017, 25774.00
1173.103, 25753.00
1174.190, 25981.00
1175.276, 25765.00
1176.363, 25837.00
1177.449, 25852.00
1178.535, 25779.00
1179.620, 25934.00
1180.706, 25995.00
1181.791, 25977.00
1182.877, 26025.00
1183.962, 26064.00
1185.047, 26070.00
1186.131, 26170.00
1187.216, 26199.00
1188.300, 26261.00
1189.385, 26123.00
1190.469, 26255.00
1191.553, 26359.00
1192.637, 26483.00
1193.720, 26532.00
1194.804, 26591.00
1195.887, 26507.00
1196.970, 26503.00
1198.053, 26428.00
1199.136, 26616.00
1200.219, 26395.00
1201.301, 26372.00
1202.383, 26589.00
1203.465, 26726.00
1204.547, 26649.00
1205.629, 26607.00
1206.711, 26556.00
1207.792, 26691.00
1208.874, 26732.00
1209.955, 26655.00
1211.036, 26648.00
1212.117, 26742.00
1213.198, 27103.00
1214.278, 26802.00
1215.359, 26754.00
1216.439, 26845.00
1217.519, 26609.00
1218.599, 26946.00
1219.678, 26991.00
1220.758, 27028.00
1221.837, 27163.00
1222.917, 26988.00
1223.996, 26929.00
1225.075, 27087.00
1226.153, 27212.00
1227.232, 27106.00
1228.310, 27170.00
1229.389, 27140.00
1230.467, 27338.00
1231.545, 27274.00
1232.622, 27577.00
1233.700, 27339.00
1234.777, 27142.00
1235.855, 27410.00
1236.932, 27500.00
1238.009, 27364.00
1239.086, 27501.00
1240.162, 27745.00
1241.239, 27819.00
1242.315, 27398.00
1243.391, 27589.00
1244.467, 27447.00
1245.543, 27556.00
1246.619, 27820.00
1247.694, 27950.00
1248.769, 27574.00
1249.844, 27664.00
1250.919, 27767.00
1251.994, 28315.00
1253.069, 28107.00
1254.144, 27865.00
1255.218, 27888.00
1256.292, 27910.00
1257.366, 27791.00
1258.440, 28117.00
1259.514, 27825.00
1260.587, 28041.00
1261.661, 27943.00
1262.734, 27940.00
1263.807, 28170.00
1264.880, 28053.00
1265.952, 28361.00
1267.025, 28188.00
1268.097, 28384.00
1269.170, 28190.00
1270.242, 28426.00
1271.314, 28427.00
1272.385, 28443.00
1273.457, 28444.00
1274.528, 28449.00
1275.600, 28491.00
1276.671, 28656.00
1277.742, 28483.00
1278.812, 28409.00
1279.883, 28701.00
1280.954, 28591.00
1282.024, 28612.00
1283.094, 28596.00
1284.164, 28545.00
1285.234, 28531.00
1286.303, 28673.00
1287.373, 28695.00
1288.442, 28846.00
1289.511, 29010.00
1290.580, 28931.00
1291.649, 28796.00
1292.718, 28744.00
1293.786, 28917.00
1294.855, 29087.00
1295.923, 29346.00
1296.991, 28975.00
1298.059, 29136.00
1299.126, 29129.00
1300.194, 29275.00
1301.261, 29087.00
1302.328, 29171.00
1303.395, 29065.00
1304.462, 29247.00
1305.529, 29526.00
1306.596, 29178.00
1307.662, 29317.00
1308.728, 29383.00
1309.794, 29421.00
1310.860, 29348.00
1311.926, 29494.00
1312.991, 29432.00
1314.057, 29557.00
1315.122, 29696.00
1316.187, 29553.00
1317.252, 29584.00
1318.317, 29448.00
1319.381, 29648.00
1320.446, 29566.00
1321.510, 29717.00
1322.574, 29729.00
1323.638, 29782.00
1324.702, 30052.00
1325.766, 29779.00
1326.829, 30131.00
1327.892, 30072.00
1328.956, 29965.00
1330.019, 30240.00
1331.081, 29971.00
1332.144, 30088.00
1333.206, 30101.00
1334.269, 29925.00
1335.331, 30063.00
1336.393, 30063.00
1337.455, 30239.00
1338.516, 30292.00
1339.578, 30517.00
1340.639, 30273.00
1341.701, 30293.00
1342.762, 30284.00
1343.822, 30304.00
1344.883, 30379.00
1345.944, 30254.00
1347.004, 30615.00
1348.064, 30331.00
1349.124, 30677.00
1350.184, 30529.00
1351.244, 30495.00
1352.304, 30367.00
1353.363, 30620.00
1354.422, 30576.00
1355.481, 30741.00
1356.540, 30656.00
1357.599, 30619.00
1358.657, 30679.00
1359.716, 30650.00
1360.774, 30754.00
1361.832, 30796.00
1362.890, 30823.00
1363.948, 30870.00
1365.006, 30774.00
1366.063, 31062.00
1367.120, 30803.00
1368.178, 30960.00
1369.234, 30894.00
1370.291, 31147.00
1371.348, 30928.00
1372.404, 31161.00
1373.461, 30968.00
1374.517, 30916.00
1375.573, 31042.00
1376.629, 31193.00
1377.684, 31095.00
1378.740, 31255.00
1379.795, 31203.00
1380.850, 31394.00
1381.905, 31303.00
1382.960, 31262.00
1384.015, 31106.00
1385.070, 31518.00
1386.124, 31412.00
1387.178, 31450.00
1388.232, 31572.00
1389.286, 31510.00
1390.340, 31488.00
1391.393, 31388.00
1392.447, 31507.00
1393.500, 31558.00
1394.553, 31739.00
1395.606, 31446.86
1396.659, 31670.74
1397.711, 31807.77
1398.764, 31862.68
1399.816, 31589.33
1400.868, 31739.82
1401.920, 31720.45
1402.972, 31694.12
1404.023, 31904.23
1405.075, 31678.63
1406.126, 31884.99
1407.177, 31918.91
1408.228, 32031.76
1409.279, 31973.70
1410.330, 32038.00
1411.380, 31914.00
1412.431, 31914.00
1413.481, 32269.00
1414.531, 32235.00
1415.580, 32040.00
1416.630, 32086.00
1417.680, 32229.00
1418.729, 32301.00
1419.778, 32120.00
