##NAMES=Helvine
##RRUFFID=R060059
##IDEAL CHEMISTRY=Mn^2+^_4_(BeSiO_4_)_3_S^2-^
##LOCALITY=Schwarzenberg, Saxony, Germany
##OWNER=RRUFF
##SOURCE=University of Arizona Mineral Museum
##DESCRIPTION=Yellow-tan colored tetrahedra
##STATUS=The identification of this mineral has been confirmed by X-ray diffraction and chemical analysis
##URL=rruff.info/R060059
##MEASURED CHEMISTRY=(Mn^2+^_2.93_Fe^2+^_0.48_Zn_0.35_Ca_0.15_Fe^3+^_0.09_)_Σ=4_Be_3.00_((Si_0.97_Al_0.03_)_Σ=1_O_4_)_3_S_1.00_; BeO assumed by stoichiometry
##PIN_ID=M00669
##ORIENTATION=Laser parallel to -a* (-1 0 0). Fiducial mark perpendicular to laser is parallel to -c [0 0 -1]
95.75900, 32328.00
96.99500, 31961.00
98.23100, 32245.00
99.46700, 33357.00
100.7030, 33559.00
101.9390, 34535.00
103.1740, 35886.00
104.4090, 37340.00
105.6440, 37402.00
106.8790, 37937.00
108.1140, 37830.00
109.3490, 37747.00
110.5830, 38542.00
111.8180, 39298.00
113.0520, 40236.00
114.2860, 41889.00
115.5200, 42976.00
116.7530, 44826.00
117.9870, 46293.98
119.2200, 48200.00
120.4530, 49560.00
121.6860, 50661.00
122.9190, 52350.00
124.1520, 54416.00
125.3850, 56652.00
126.6170, 58955.00
127.8490, 60712.00
129.0810, 61620.00
130.3130, 61777.00
131.5450, 61278.00
132.7770, 58880.00
134.0080, 56169.00
135.2390, 53154.00
136.4710, 50691.00
137.7020, 48381.00
138.9320, 46805.00
140.1630, 45324.00
141.3930, 44174.00
142.6240, 42767.00
143.8540, 41276.00
145.0840, 40245.00
146.3140, 39242.00
147.5440, 38939.00
148.7730, 38533.00
150.0020, 38796.00
151.2320, 39487.00
152.4610, 40488.00
153.6900, 41221.00
154.9180, 42538.00
156.1470, 43871.00
157.3750, 45423.00
158.6040, 47136.00
159.8320, 49122.00
161.0600, 51414.00
162.2870, 54565.00
163.5150, 57824.00
164.7420, 61882.00
165.9700, 67076.00
167.1970, 72169.00
168.4240, 77730.00
169.6510, 83589.00
170.8770, 88344.00
172.1040, 92456.00
173.3300, 93294.00
174.5560, 92926.00
175.7820, 90517.00
177.0080, 85248.00
178.2340, 77304.00
179.4590, 68549.00
180.6850, 60017.00
181.9100, 51789.00
183.1350, 45477.00
184.3600, 41495.00
185.5850, 38268.00
186.8090, 36238.00
188.0340, 35188.00
189.2580, 34217.00
190.4820, 33961.00
191.7060, 33479.00
192.9300, 33379.00
194.1530, 33152.00
195.3770, 32968.00
196.6000, 32335.00
197.8230, 31518.00
199.0460, 30796.00
200.2690, 29554.00
201.4910, 28308.00
202.7140, 27306.00
203.9360, 26286.00
205.1580, 25432.00
206.3800, 24793.00
207.6020, 24178.00
208.8240, 23951.00
210.0450, 23654.00
211.2670, 23438.00
212.4880, 23190.00
213.7090, 23034.00
214.9300, 23187.00
216.1510, 23215.00
217.3710, 23311.00
218.5920, 23143.00
219.8120, 23249.00
221.0320, 23252.00
222.2520, 23651.00
223.4720, 23855.00
224.6910, 24399.00
225.9110, 24674.00
227.1300, 25034.00
228.3490, 25719.00
229.5680, 26245.00
230.7870, 26828.00
232.0050, 27835.00
233.2240, 28430.00
234.4420, 29072.00
235.6600, 29607.00
236.8780, 30019.00
238.0960, 30454.00
239.3140, 30337.00
240.5310, 30316.00
241.7490, 29992.00
242.9660, 29287.00
244.1830, 28668.00
245.4000, 27940.00
246.6160, 27077.00
247.8330, 26231.00
249.0490, 25626.00
250.2660, 24875.00
251.4820, 24399.00
252.6980, 24298.00
253.9130, 24018.00
255.1290, 24146.00
256.3440, 23982.00
257.5600, 23886.00
258.7750, 23869.00
259.9900, 23945.46
261.2040, 23952.00
262.4190, 24290.00
263.6330, 24466.00
264.8480, 24735.00
266.0620, 24993.00
267.2760, 25252.51
268.4900, 25595.00
269.7030, 25948.00
270.9170, 26335.00
272.1300, 26959.00
273.3430, 27421.00
274.5560, 27904.00
275.7690, 28427.00
276.9820, 28960.17
278.1940, 29463.00
279.4070, 30130.00
280.6190, 30728.00
281.8310, 31417.00
283.0430, 31784.00
284.2550, 32555.00
285.4660, 32868.00
286.6770, 33670.00
287.8890, 33914.00
289.1000, 34326.00
290.3110, 34838.00
291.5210, 34995.00
292.7320, 35487.00
293.9420, 35471.00
295.1530, 35879.00
296.3630, 36220.00
297.5730, 36025.00
298.7830, 35947.00
299.9920, 36046.00
301.2020, 36112.00
302.4110, 35577.00
303.6200, 35022.00
304.8290, 34495.00
306.0380, 33619.00
307.2470, 32637.00
308.4550, 31353.00
309.6630, 29808.00
310.8720, 28897.00
312.0800, 27846.00
313.2880, 26758.00
314.4950, 26033.00
315.7030, 25405.00
316.9100, 24806.00
318.1170, 24177.00
319.3240, 23669.00
320.5310, 23414.00
321.7380, 22987.90
322.9450, 22906.00
324.1510, 22549.00
325.3570, 22416.00
326.5630, 22476.00
327.7690, 22185.00
328.9750, 22126.00
330.1810, 22359.00
331.3860, 21879.00
332.5910, 21623.00
333.7960, 21534.00
335.0010, 21632.00
336.2060, 21430.00
337.4110, 21404.00
338.6150, 21354.00
339.8200, 21289.07
341.0240, 21370.00
342.2280, 21261.00
343.4320, 21291.00
344.6350, 21307.00
345.8390, 21281.00
347.0420, 21157.00
348.2450, 21170.00
349.4480, 21224.00
350.6510, 21266.33
351.8540, 21481.00
353.0560, 21535.00
354.2590, 21738.00
355.4610, 21998.00
356.6630, 22206.00
357.8650, 22261.00
359.0670, 22582.00
360.2680, 22880.00
361.4700, 23000.00
362.6710, 22900.00
363.8720, 22841.00
365.0730, 22493.00
366.2740, 22477.00
367.4740, 22024.00
368.6750, 21654.00
369.8750, 21536.00
371.0750, 21336.00
372.2750, 21168.00
373.4750, 21084.00
374.6740, 20841.00
375.8740, 20797.00
377.0730, 20691.00
378.2720, 20690.00
379.4710, 20778.00
380.6700, 20728.00
381.8690, 20614.15
383.0670, 20540.00
384.2660, 20341.00
385.4640, 20416.00
386.6620, 20403.00
387.8600, 20478.00
389.0570, 20546.00
390.2550, 20461.00
391.4520, 20294.00
392.6490, 20341.00
393.8460, 20361.00
395.0430, 20468.00
396.2400, 20373.00
397.4370, 20434.00
398.6330, 20397.00
399.8290, 20341.00
401.0250, 20470.00
402.2210, 20457.00
403.4170, 20524.00
404.6130, 20459.00
405.8080, 20482.00
407.0030, 20392.00
408.1980, 20411.00
409.3930, 20461.00
410.5880, 20657.00
411.7830, 20653.00
412.9770, 20668.13
414.1720, 20441.00
415.3660, 20602.00
416.5600, 20379.00
417.7530, 20330.00
418.9470, 20299.00
420.1410, 20269.00
421.3340, 20240.00
422.5270, 20419.00
423.7200, 20140.00
424.9130, 20238.00
426.1060, 20258.00
427.2980, 20476.00
428.4900, 20621.00
429.6830, 20767.00
430.8750, 20992.00
432.0670, 21380.00
433.2580, 21628.00
434.4500, 21884.00
435.6410, 22395.00
436.8320, 23131.00
438.0240, 23633.00
439.2140, 24522.00
440.4050, 25204.00
441.5960, 25627.00
442.7860, 25885.00
443.9760, 25805.83
445.1670, 25519.00
446.3560, 24980.00
447.5460, 24155.00
448.7360, 23171.00
449.9250, 22103.00
451.1150, 21449.00
452.3040, 21051.00
453.4930, 20608.00
454.6810, 20367.00
455.8700, 20072.00
457.0590, 20043.00
458.2470, 19625.00
459.4350, 19532.00
460.6230, 19658.00
461.8110, 19734.00
462.9980, 19437.00
464.1860, 19683.00
465.3730, 19502.00
466.5600, 19545.00
467.7470, 19437.00
468.9340, 19437.00
470.1210, 19448.00
471.3080, 19534.00
472.4940, 19281.00
473.6800, 19351.00
474.8660, 19344.00
476.0520, 19160.00
477.2380, 19440.00
478.4230, 19271.00
479.6090, 19295.00
480.7940, 19371.00
481.9790, 19417.00
483.1640, 19430.87
484.3490, 19392.00
485.5330, 19492.00
486.7180, 19504.00
487.9020, 19613.00
489.0860, 19499.00
490.2700, 19609.00
491.4540, 19566.00
492.6370, 19632.35
493.8210, 19632.00
495.0040, 19791.00
496.1870, 19879.00
497.3700, 19961.00
498.5530, 20004.07
499.7360, 20083.00
500.9180, 19952.00
502.1000, 20163.00
503.2830, 19993.00
504.4650, 20023.00
505.6460, 20303.00
506.8280, 20225.00
508.0100, 20188.00
509.1910, 20478.00
510.3720, 20365.00
511.5530, 20641.00
512.7340, 21053.00
513.9150, 21163.00
515.0950, 21265.00
516.2760, 21508.00
517.4560, 21875.00
518.6360, 21954.00
519.8160, 22172.00
520.9950, 22554.00
522.1750, 23041.00
523.3540, 23454.00
524.5340, 23697.00
525.7130, 24238.00
526.8920, 24588.00
528.0700, 24798.00
529.2490, 25307.00
530.4270, 25749.00
531.6060, 25827.00
532.7840, 26024.00
533.9620, 25988.00
535.1390, 26051.00
536.3170, 26064.00
537.4940, 25942.83
538.6720, 25638.00
539.8490, 25601.00
541.0260, 25486.00
542.2030, 25141.00
543.3790, 25295.00
544.5560, 25180.00
545.7320, 25385.00
546.9080, 25721.00
548.0840, 26139.00
549.2600, 26303.00
550.4360, 27028.00
551.6110, 27481.00
552.7860, 28278.00
553.9620, 28828.00
555.1370, 29451.00
556.3110, 30170.00
557.4860, 30910.00
558.6610, 31690.00
559.8350, 32640.00
561.0090, 33032.00
562.1830, 33498.00
563.3570, 33943.00
564.5310, 33824.00
565.7040, 33577.00
566.8780, 33244.00
568.0510, 32635.00
569.2240, 32201.00
570.3970, 31508.00
571.5700, 30923.00
572.7420, 30599.00
573.9150, 30175.00
575.0870, 29682.00
576.2590, 29337.00
577.4310, 29133.00
578.6030, 28731.00
579.7740, 28292.00
580.9460, 27796.00
582.1170, 27305.00
583.2880, 27033.00
584.4590, 26447.00
585.6300, 25920.00
586.8010, 25522.00
587.9710, 24879.00
589.1410, 24584.00
590.3110, 24243.00
591.4810, 23774.00
592.6510, 23852.00
593.8210, 23329.00
594.9900, 23415.00
596.1600, 23180.00
597.3290, 23076.00
598.4980, 22947.00
599.6670, 23020.00
600.8350, 22751.00
602.0040, 22827.00
603.1720, 22741.00
604.3400, 22655.00
605.5080, 22667.00
606.6760, 22931.00
607.8440, 22691.09
609.0120, 22664.73
610.1790, 22368.00
611.3460, 22337.00
612.5130, 22118.00
613.6800, 21957.00
614.8470, 21477.00
616.0130, 21846.00
617.1800, 21487.00
618.3460, 21570.00
619.5120, 21588.00
620.6780, 21555.00
621.8440, 21539.00
623.0090, 21425.54
624.1750, 21402.00
625.3400, 21153.00
626.5050, 21025.00
627.6700, 20881.00
628.8350, 20637.00
629.9990, 20368.00
631.1640, 20355.00
632.3280, 19906.00
633.4920, 19846.00
634.6560, 19539.00
635.8200, 19603.00
636.9840, 19228.00
638.1470, 19159.00
639.3100, 19126.00
640.4730, 19020.00
641.6360, 18992.99
642.7990, 18943.89
643.9620, 18927.00
645.1240, 18886.00
646.2870, 18888.37
647.4490, 18897.22
648.6110, 19067.00
649.7730, 19104.00
650.9340, 19198.00
652.0960, 19345.00
653.2570, 19440.00
654.4180, 19557.00
655.5790, 19750.00
656.7400, 19812.40
657.9010, 19873.00
659.0620, 20033.86
660.2220, 20262.00
661.3820, 20469.00
662.5420, 20679.00
663.7020, 20650.00
664.8620, 21152.00
666.0210, 21045.00
667.1810, 21312.00
668.3400, 21574.00
669.4990, 21883.00
670.6580, 22269.00
671.8170, 22814.00
672.9750, 23346.00
674.1340, 23686.00
675.2920, 23891.00
676.4500, 24339.00
677.6080, 24003.00
678.7660, 24137.00
679.9230, 23863.00
681.0810, 23461.00
682.2380, 23019.00
683.3950, 22332.00
684.5520, 22138.00
685.7090, 21501.00
686.8660, 21176.00
688.0220, 20921.00
689.1780, 20816.00
690.3340, 20464.00
691.4900, 20491.00
692.6460, 20294.00
693.8020, 20389.00
694.9570, 20088.00
696.1130, 20142.00
697.2680, 20166.00
698.4230, 19967.00
699.5780, 20149.00
700.7320, 20084.00
701.8870, 20046.00
703.0410, 20075.00
704.1950, 20269.00
705.3490, 20192.00
706.5030, 20288.60
707.6570, 20322.00
708.8110, 20369.00
709.9640, 20380.00
711.1170, 20423.00
712.2700, 20458.00
713.4230, 20437.00
714.5760, 20801.00
715.7280, 20762.00
716.8810, 20704.00
718.0330, 20835.00
719.1850, 20680.00
720.3370, 20648.00
721.4890, 20777.00
722.6400, 20541.00
723.7920, 20450.00
724.9430, 20504.00
726.0940, 20420.00
727.2450, 20581.00
728.3960, 20537.00
729.5460, 20618.00
730.6970, 20569.00
731.8470, 20425.00
732.9970, 20563.00
734.1470, 20603.00
735.2970, 20690.00
736.4460, 20576.00
737.5960, 20848.00
738.7450, 20730.00
739.8940, 20878.00
741.0430, 20762.00
742.1920, 20814.00
743.3410, 21024.00
744.4890, 20836.00
745.6370, 21142.00
746.7850, 20963.00
747.9330, 21070.00
749.0810, 21083.00
750.2290, 21049.00
751.3760, 20741.00
752.5240, 20713.00
753.6710, 20613.00
754.8180, 20707.00
755.9650, 20637.00
757.1110, 20605.00
758.2580, 20572.00
759.4040, 20496.00
760.5510, 20517.00
761.6970, 20589.00
762.8420, 20728.00
763.9880, 20425.00
765.1340, 20646.00
766.2790, 20372.00
767.4240, 20347.00
768.5690, 20432.00
769.7140, 20425.00
770.8590, 20377.00
772.0030, 20255.00
773.1480, 20117.00
774.2920, 20132.18
775.4360, 20408.00
776.5800, 20189.00
777.7240, 20195.00
778.8670, 20337.00
780.0110, 20201.00
781.1540, 20319.00
782.2970, 20200.00
783.4400, 20302.00
784.5830, 20362.00
785.7250, 20358.00
786.8680, 20434.73
788.0100, 20190.00
789.1520, 20446.00
790.2940, 20364.00
791.4360, 20207.00
792.5780, 20399.00
793.7190, 20371.00
794.8600, 20531.00
796.0010, 20442.00
797.1420, 20318.00
798.2830, 20385.00
799.4240, 20469.00
800.5640, 20424.00
801.7050, 20341.00
802.8450, 20420.00
803.9850, 20407.00
805.1250, 20400.00
806.2640, 20433.00
807.4040, 20473.00
808.5430, 20412.00
809.6820, 20481.00
810.8210, 20492.00
811.9600, 20442.00
813.0990, 20577.00
814.2370, 20505.00
815.3760, 20643.00
816.5140, 20757.00
817.6520, 20651.00
818.7900, 20690.00
819.9270, 20925.00
821.0650, 20886.00
822.2020, 20929.00
823.3390, 21032.00
824.4760, 20965.00
825.6130, 21058.00
826.7500, 21238.00
827.8870, 21282.00
829.0230, 21234.00
830.1590, 21225.00
831.2950, 21197.00
832.4310, 21497.00
833.5670, 21609.00
834.7030, 21447.00
835.8380, 21414.00
836.9730, 21840.00
838.1080, 21830.00
839.2430, 22079.00
840.3780, 22130.00
841.5130, 22388.00
842.6470, 22693.00
843.7810, 22588.00
844.9150, 22597.00
846.0490, 22808.00
847.1830, 23189.00
848.3170, 23209.00
849.4500, 23578.00
850.5830, 23682.00
851.7160, 23879.00
852.8490, 24073.00
853.9820, 24539.00
855.1150, 24687.00
856.2470, 25094.00
857.3800, 25587.00
858.5120, 25953.00
859.6440, 26163.00
860.7760, 26656.00
861.9070, 27176.00
863.0390, 27940.00
864.1700, 28558.00
865.3010, 29498.00
866.4320, 30308.00
867.5630, 31288.00
868.6940, 32786.00
869.8240, 34218.00
870.9540, 36243.00
872.0850, 37809.00
873.2150, 40437.00
874.3450, 43156.00
875.4740, 46905.00
876.6040, 51149.00
877.7330, 56410.00
878.8620, 62063.00
879.9910, 70260.00
881.1200, 79303.00
882.2490, 90457.00
883.3770, 103084.0
884.5060, 117433.0
885.6340, 132839.0
886.7620, 148733.0
887.8900, 163856.0
889.0180, 177577.0
890.1450, 187649.0
891.2730, 193878.0
892.4000, 195140.0
893.5270, 193297.0
894.6540, 187283.0
895.7810, 179131.0
896.9070, 168289.0
898.0340, 156129.0
899.1600, 143389.0
900.2860, 131270.0
901.4120, 120419.0
902.5380, 109849.0
903.6630, 100065.0
904.7890, 91705.00
905.9140, 84038.00
907.0390, 77596.00
908.1640, 72052.00
909.2890, 66236.00
910.4130, 62190.00
911.5380, 58239.00
912.6620, 54851.00
913.7860, 51861.00
914.9100, 49045.00
916.0340, 46322.00
917.1580, 44517.00
918.2810, 42599.00
919.4040, 40911.00
920.5280, 39257.00
921.6510, 37947.10
922.7730, 36643.53
923.8960, 35526.06
925.0180, 34580.00
926.1410, 33751.00
927.2630, 33124.00
928.3850, 32645.00
929.5070, 31949.00
930.6280, 31405.00
931.7500, 31166.00
932.8710, 30979.00
933.9920, 30413.00
935.1130, 30434.00
936.2340, 30394.00
937.3550, 30152.00
938.4760, 30071.00
939.5960, 29854.00
940.7160, 29603.00
941.8360, 29747.00
942.9560, 28959.00
944.0760, 28958.00
945.1950, 28126.00
946.3150, 27885.00
947.4340, 27449.00
948.5530, 27068.00
949.6720, 26666.00
950.7900, 26310.23
951.9090, 25986.22
953.0270, 25664.00
954.1460, 25384.00
955.2640, 25147.00
956.3820, 24933.64
957.4990, 24805.00
958.6170, 24617.92
959.7340, 24500.00
960.8520, 24420.00
961.9690, 24442.00
963.0860, 24390.00
964.2020, 24206.00
965.3190, 24341.00
966.4350, 24132.00
967.5520, 24455.00
968.6680, 24412.00
969.7840, 24458.00
970.8990, 24789.00
972.0150, 24907.00
973.1310, 24781.00
974.2460, 24963.00
975.3610, 24650.00
976.4760, 24588.00
977.5910, 24466.00
978.7050, 24490.00
979.8200, 24072.00
980.9340, 24237.00
982.0480, 24082.00
983.1620, 23920.00
984.2760, 24020.00
985.3900, 24106.00
986.5030, 24081.77
987.6160, 23999.00
988.7300, 24134.00
989.8430, 24174.00
990.9550, 24131.00
992.0680, 24327.00
993.1810, 24313.00
994.2930, 24549.00
995.4050, 24435.00
996.5170, 24499.00
997.6290, 24631.00
998.7410, 24477.00
999.8520, 24670.00
1000.964, 25165.00
1002.075, 25147.00
1003.186, 25381.00
1004.297, 25565.00
1005.407, 25668.00
1006.518, 26024.00
1007.628, 26195.00
1008.738, 26579.00
1009.848, 27024.00
1010.958, 27505.00
1012.068, 27948.74
1013.178, 28551.00
1014.287, 28816.00
1015.396, 29189.00
1016.505, 29427.00
1017.614, 29871.00
1018.723, 29887.00
1019.831, 30240.00
1020.940, 29831.00
1022.048, 29674.00
1023.156, 29354.00
1024.264, 28792.00
1025.372, 28305.00
1026.479, 28112.00
1027.587, 27242.00
1028.694, 26881.00
1029.801, 26323.00
1030.908, 26004.00
1032.015, 25676.00
1033.121, 25176.00
1034.228, 25197.00
1035.334, 24922.00
1036.440, 24895.00
1037.546, 24509.00
1038.652, 24555.00
1039.758, 24354.00
1040.863, 24361.00
1041.968, 24322.00
1043.074, 23978.00
1044.178, 24160.00
1045.283, 23799.00
1046.388, 23768.00
1047.492, 23662.00
1048.597, 23700.00
1049.701, 23559.00
1050.805, 23273.00
1051.909, 23307.00
1053.012, 23027.00
1054.116, 22923.00
1055.219, 22820.00
1056.322, 22789.00
1057.425, 22811.00
1058.528, 22818.00
1059.631, 22757.00
1060.733, 22768.37
1061.836, 22704.35
1062.938, 22718.00
1064.040, 22581.00
1065.142, 22516.00
1066.243, 22448.00
1067.345, 22417.00
1068.446, 22558.00
1069.547, 22294.00
1070.648, 22323.00
1071.749, 22569.00
1072.850, 22422.10
1073.951, 22178.00
1075.051, 22377.00
1076.151, 22147.00
1077.251, 21970.00
1078.351, 22129.00
1079.451, 22278.00
1080.550, 22138.00
1081.650, 22233.00
1082.749, 22057.00
1083.848, 21934.00
1084.947, 21990.00
1086.046, 21886.00
1087.144, 21908.00
1088.243, 21904.84
1089.341, 21922.00
1090.439, 21870.00
1091.537, 21784.00
1092.635, 21672.00
1093.732, 21726.00
1094.830, 21733.00
1095.927, 21603.00
1097.024, 21782.00
1098.121, 21530.00
1099.218, 21735.00
1100.314, 21790.00
1101.411, 21822.00
1102.507, 21905.00
1103.603, 21878.00
1104.699, 21781.00
1105.795, 21763.00
1106.890, 21817.00
1107.986, 21868.00
1109.081, 21911.00
1110.176, 21935.81
1111.271, 21910.00
1112.366, 21982.23
1113.461, 21923.00
1114.555, 21964.00
1115.649, 22010.00
1116.744, 21954.00
1117.838, 21935.00
1118.931, 21999.00
1120.025, 21975.25
1121.119, 22089.00
1122.212, 22034.00
1123.305, 22099.00
1124.398, 22178.00
1125.491, 22201.00
1126.584, 22021.00
1127.676, 22156.00
1128.768, 22025.00
1129.861, 21948.00
1130.953, 22139.00
1132.044, 22273.00
1133.136, 22156.00
1134.228, 22168.00
1135.319, 22175.00
1136.410, 22214.00
1137.501, 22086.00
1138.592, 22154.00
1139.683, 22022.00
1140.773, 22117.00
1141.864, 22045.00
1142.954, 22122.00
1144.044, 22215.00
1145.134, 22121.00
1146.224, 22187.00
1147.313, 21980.00
1148.402, 22018.00
1149.492, 21946.00
1150.581, 22196.00
1151.670, 22187.00
1152.758, 22052.00
1153.847, 22074.00
1154.935, 21982.00
1156.024, 22174.00
1157.112, 22134.00
1158.200, 22290.00
1159.287, 22083.00
1160.375, 22181.00
1161.462, 22206.00
1162.550, 22036.00
1163.637, 22167.00
1164.724, 22344.00
1165.810, 22226.00
1166.897, 22168.00
1167.983, 22139.00
1169.070, 22317.00
1170.156, 22323.00
1171.242, 22233.00
1172.327, 22319.00
1173.413, 22223.00
1174.499, 22336.00
1175.584, 22264.00
1176.669, 22335.00
1177.754, 22483.00
1178.839, 22352.00
1179.923, 22548.00
1181.008, 22570.00
1182.092, 22651.00
1183.176, 22578.00
1184.260, 22603.00
1185.344, 22500.00
1186.428, 22401.00
1187.511, 22399.21
1188.595, 22428.85
1189.678, 22365.00
1190.761, 22551.00
1191.843, 22608.00
1192.926, 22572.00
1194.009, 22668.00
1195.091, 22746.00
1196.173, 22731.00
1197.255, 22679.00
1198.337, 22781.00
1199.419, 22726.00
1200.500, 22703.00
1201.582, 22882.00
1202.663, 22883.00
1203.744, 22856.00
1204.825, 22863.00
1205.905, 22855.00
1206.986, 22873.00
1208.066, 22857.00
1209.146, 22940.00
1210.226, 22893.98
1211.306, 22794.67
1212.386, 22939.00
1213.466, 22632.00
1214.545, 22832.00
1215.624, 23018.00
1216.703, 22821.00
1217.782, 23086.00
1218.861, 23049.00
1219.939, 22885.00
1221.018, 22959.00
1222.096, 22898.00
1223.174, 22927.66
1224.252, 22974.00
1225.330, 23015.00
1226.407, 23011.00
1227.485, 23008.00
1228.562, 23031.00
1229.639, 23052.00
1230.716, 23106.00
1231.793, 23083.74
1232.869, 23152.00
1233.946, 23068.00
1235.022, 22996.00
1236.098, 23019.00
1237.174, 22986.00
1238.250, 23086.00
1239.325, 23115.00
1240.401, 23022.00
1241.476, 23169.00
1242.551, 23052.00
1243.626, 23173.00
1244.701, 23145.82
1245.776, 23074.00
1246.850, 23093.00
1247.924, 23079.00
1248.999, 23007.00
1250.073, 22866.00
1251.146, 22871.70
1252.220, 22811.00
1253.293, 22880.00
1254.367, 22999.00
1255.440, 23159.00
1256.513, 23025.00
1257.586, 22993.00
1258.658, 22997.00
1259.731, 22923.14
1260.803, 23028.00
1261.875, 22908.00
1262.947, 22884.00
1264.019, 22981.00
1265.091, 22977.00
1266.162, 22887.00
1267.234, 23146.00
1268.305, 22995.00
1269.376, 23040.00
