##NAMES=Helvine
##RRUFFID=R060059
##IDEAL CHEMISTRY=Mn^2+^_4_(BeSiO_4_)_3_S^2-^
##LOCALITY=Schwarzenberg, Saxony, Germany
##OWNER=RRUFF
##SOURCE=University of Arizona Mineral Museum
##DESCRIPTION=Yellow-tan colored tetrahedra
##STATUS=The identification of this mineral has been confirmed by X-ray diffraction and chemical analysis
##URL=rruff.info/R060059
##MEASURED CHEMISTRY=(Mn^2+^_2.93_Fe^2+^_0.48_Zn_0.35_Ca_0.15_Fe^3+^_0.09_)_Σ=4_Be_3.00_((Si_0.97_Al_0.03_)_Σ=1_O_4_)_3_S_1.00_; BeO assumed by stoichiometry
##PIN_ID=M00669
##ORIENTATION=Laser parallel to -a* (-1 0 0). Fiducial mark perpendicular to laser is parallel to -c [0 0 -1]
93.28600, 34610.00
94.52300, 34836.00
95.75900, 34586.00
96.99500, 34245.00
98.23100, 34385.00
99.46700, 35423.00
100.7030, 36550.00
101.9390, 37474.00
103.1740, 39295.00
104.4090, 40443.00
105.6440, 40717.00
106.8790, 41412.00
108.1140, 41469.00
109.3490, 42077.00
110.5830, 42718.00
111.8180, 43851.00
113.0520, 44829.00
114.2860, 46859.00
115.5200, 49776.00
116.7530, 51645.00
117.9870, 54950.00
119.2200, 57807.00
120.4530, 59395.00
121.6860, 62623.00
122.9190, 66206.00
124.1520, 70387.00
125.3850, 74485.00
126.6170, 77589.00
127.8490, 80734.00
129.0810, 81673.00
130.3130, 80752.00
131.5450, 79394.00
132.7770, 75757.00
134.0080, 71079.00
135.2390, 66049.00
136.4710, 61657.00
137.7020, 58164.00
138.9320, 55464.00
140.1630, 53173.00
141.3930, 50927.00
142.6240, 48195.00
143.8540, 45922.00
145.0840, 43640.00
146.3140, 42246.00
147.5440, 41225.00
148.7730, 41155.00
150.0020, 41233.00
151.2320, 42170.00
152.4610, 42567.00
153.6900, 43587.00
154.9180, 44946.00
156.1470, 45879.00
157.3750, 46657.00
158.6040, 47612.00
159.8320, 48902.00
161.0600, 50096.00
162.2870, 51281.00
163.5150, 53412.00
164.7420, 55372.00
165.9700, 58202.00
167.1970, 61280.00
168.4240, 63479.00
169.6510, 66378.00
170.8770, 68033.00
172.1040, 68946.00
173.3300, 68336.00
174.5560, 66752.00
175.7820, 64331.00
177.0080, 60287.00
178.2340, 55521.00
179.4590, 49956.00
180.6850, 45069.00
181.9100, 40913.00
183.1350, 37344.00
184.3600, 34999.00
185.5850, 33368.00
186.8090, 32580.00
188.0340, 32066.00
189.2580, 31944.00
190.4820, 31946.00
191.7060, 31705.00
192.9300, 31932.00
194.1530, 31960.00
195.3770, 31826.00
196.6000, 31161.00
197.8230, 30329.00
199.0460, 29968.00
200.2690, 28799.00
201.4910, 27979.00
202.7140, 26957.00
203.9360, 26264.00
205.1580, 25382.00
206.3800, 24679.00
207.6020, 24541.00
208.8240, 24096.00
210.0450, 24158.00
211.2670, 23784.00
212.4880, 23771.00
213.7090, 23727.00
214.9300, 23782.00
216.1510, 24036.00
217.3710, 24107.00
218.5920, 24222.00
219.8120, 24204.00
221.0320, 24367.00
222.2520, 24747.00
223.4720, 25238.00
224.6910, 25591.00
225.9110, 26466.00
227.1300, 27434.00
228.3490, 28126.19
229.5680, 28944.00
230.7870, 29801.00
232.0050, 31262.00
233.2240, 31977.00
234.4420, 32819.00
235.6600, 33445.00
236.8780, 33755.00
238.0960, 33985.00
239.3140, 33453.00
240.5310, 32845.00
241.7490, 31628.00
242.9660, 30703.00
244.1830, 29637.00
245.4000, 28353.00
246.6160, 27280.00
247.8330, 26502.00
249.0490, 25989.00
250.2660, 25604.00
251.4820, 25194.00
252.6980, 24738.00
253.9130, 24797.00
255.1290, 24878.00
256.3440, 24998.00
257.5600, 24818.00
258.7750, 24814.00
259.9900, 24867.00
261.2040, 25313.00
262.4190, 25350.00
263.6330, 25866.00
264.8480, 26373.00
266.0620, 26792.24
267.2760, 27303.30
268.4900, 27891.00
269.7030, 28353.00
270.9170, 28834.00
272.1300, 29568.00
273.3430, 30564.00
274.5560, 31056.00
275.7690, 31932.00
276.9820, 32612.00
278.1940, 33611.00
279.4070, 34679.00
280.6190, 35579.00
281.8310, 36231.00
283.0430, 37012.00
284.2550, 37456.00
285.4660, 38111.00
286.6770, 39114.00
287.8890, 38988.00
289.1000, 39573.00
290.3110, 39681.00
291.5210, 39772.00
292.7320, 39918.00
293.9420, 40344.00
295.1530, 39896.00
296.3630, 39870.00
297.5730, 39502.00
298.7830, 38895.00
299.9920, 38412.00
301.2020, 37542.00
302.4110, 36484.00
303.6200, 35298.00
304.8290, 34093.00
306.0380, 32933.00
307.2470, 31596.00
308.4550, 30296.00
309.6630, 29319.00
310.8720, 28033.00
312.0800, 27177.00
313.2880, 26222.00
314.4950, 25650.00
315.7030, 24863.00
316.9100, 24259.00
318.1170, 24001.00
319.3240, 23577.00
320.5310, 23398.00
321.7380, 23001.00
322.9450, 22896.00
324.1510, 22818.00
325.3570, 22591.00
326.5630, 22427.00
327.7690, 22427.00
328.9750, 22242.00
330.1810, 22241.00
331.3860, 22030.00
332.5910, 21795.00
333.7960, 22068.00
335.0010, 21889.00
336.2060, 21950.00
337.4110, 21938.00
338.6150, 21799.00
339.8200, 21816.00
341.0240, 21873.00
342.2280, 21821.00
343.4320, 21783.00
344.6350, 21766.00
345.8390, 21803.00
347.0420, 21780.00
348.2450, 21996.00
349.4480, 21924.00
350.6510, 22197.00
351.8540, 22834.00
353.0560, 22976.45
354.2590, 23203.00
355.4610, 23451.00
356.6630, 23640.36
357.8650, 23719.00
359.0670, 24075.00
360.2680, 24377.00
361.4700, 24587.00
362.6710, 24473.00
363.8720, 24174.00
365.0730, 24013.00
366.2740, 23374.00
367.4740, 22993.00
368.6750, 22488.00
369.8750, 22105.00
371.0750, 21717.00
372.2750, 21390.00
373.4750, 21120.00
374.6740, 21016.00
375.8740, 20862.00
377.0730, 20972.00
378.2720, 20826.00
379.4710, 20891.00
380.6700, 20761.00
381.8690, 20866.00
383.0670, 20776.13
384.2660, 20665.07
385.4640, 20670.00
386.6620, 20433.00
387.8600, 20407.00
389.0570, 20369.00
390.2550, 20371.00
391.4520, 20383.27
392.6490, 20358.00
393.8460, 20434.00
395.0430, 20429.00
396.2400, 20434.00
397.4370, 20265.00
398.6330, 20413.00
399.8290, 20410.00
401.0250, 20090.00
402.2210, 20452.00
403.4170, 20358.00
404.6130, 20413.00
405.8080, 20474.00
407.0030, 20337.00
408.1980, 20283.00
409.3930, 20389.00
410.5880, 20407.00
411.7830, 20234.00
412.9770, 20307.00
414.1720, 20370.00
415.3660, 20232.00
416.5600, 20262.00
417.7530, 20119.00
418.9470, 20248.00
420.1410, 19930.00
421.3340, 19878.00
422.5270, 20094.00
423.7200, 19992.00
424.9130, 19862.00
426.1060, 20038.00
427.2980, 20201.00
428.4900, 20008.00
429.6830, 20286.00
430.8750, 20131.00
432.0670, 20456.00
433.2580, 20692.54
434.4500, 20914.99
435.6410, 21411.00
436.8320, 21519.00
438.0240, 22031.00
439.2140, 22199.00
440.4050, 22643.00
441.5960, 22988.00
442.7860, 23090.00
443.9760, 22836.00
445.1670, 22641.00
446.3560, 22201.00
447.5460, 21705.00
448.7360, 21330.00
449.9250, 20863.00
451.1150, 20223.00
452.3040, 20102.00
453.4930, 19740.00
454.6810, 19915.00
455.8700, 19712.00
457.0590, 19576.00
458.2470, 19655.00
459.4350, 19390.00
460.6230, 19633.00
461.8110, 19306.00
462.9980, 19405.00
464.1860, 19292.00
465.3730, 19155.00
466.5600, 19202.00
467.7470, 19144.00
468.9340, 19478.00
470.1210, 19216.00
471.3080, 19327.00
472.4940, 19272.00
473.6800, 19073.00
474.8660, 19086.00
476.0520, 19184.00
477.2380, 19102.00
478.4230, 19213.00
479.6090, 19407.00
480.7940, 19250.00
481.9790, 19010.00
483.1640, 19205.49
484.3490, 19164.00
485.5330, 19273.00
486.7180, 19311.00
487.9020, 19089.00
489.0860, 19468.00
490.2700, 19578.00
491.4540, 19433.00
492.6370, 19431.00
493.8210, 19349.00
495.0040, 19371.90
496.1870, 19672.00
497.3700, 19554.00
498.5530, 19610.00
499.7360, 19903.00
500.9180, 19903.00
502.1000, 19788.00
503.2830, 19814.00
504.4650, 19874.00
505.6460, 20062.00
506.8280, 20054.44
508.0100, 20200.00
509.1910, 20147.00
510.3720, 20414.00
511.5530, 20495.00
512.7340, 20741.00
513.9150, 20885.00
515.0950, 20983.00
516.2760, 21065.00
517.4560, 21712.00
518.6360, 21959.00
519.8160, 22137.00
520.9950, 22520.00
522.1750, 22621.00
523.3540, 23031.00
524.5340, 23414.00
525.7130, 23566.00
526.8920, 23843.00
528.0700, 23931.00
529.2490, 24389.00
530.4270, 24449.00
531.6060, 24493.00
532.7840, 24645.00
533.9620, 24656.00
535.1390, 24699.00
536.3170, 24823.00
537.4940, 24576.00
538.6720, 24811.00
539.8490, 24722.00
541.0260, 24765.00
542.2030, 24973.00
543.3790, 25161.00
544.5560, 25541.00
545.7320, 25859.00
546.9080, 26371.00
548.0840, 26872.00
549.2600, 27562.00
550.4360, 28338.71
551.6110, 29171.50
552.7860, 30174.00
553.9620, 31148.00
555.1370, 32244.00
556.3110, 33426.00
557.4860, 34204.00
558.6610, 35295.00
559.8350, 36309.00
561.0090, 36882.00
562.1830, 37313.00
563.3570, 37445.00
564.5310, 37266.00
565.7040, 36587.00
566.8780, 35938.00
568.0510, 34962.00
569.2240, 33952.00
570.3970, 32808.00
571.5700, 32330.00
572.7420, 31418.00
573.9150, 30891.00
575.0870, 30166.00
576.2590, 29676.00
577.4310, 29397.00
578.6030, 28836.00
579.7740, 28361.00
580.9460, 27899.00
582.1170, 27366.35
583.2880, 27043.00
584.4590, 26353.00
585.6300, 25723.00
586.8010, 25205.00
587.9710, 24806.00
589.1410, 24335.00
590.3110, 23976.00
591.4810, 23453.00
592.6510, 23300.00
593.8210, 22816.00
594.9900, 22916.00
596.1600, 22714.00
597.3290, 22585.00
598.4980, 22597.00
599.6670, 22245.00
600.8350, 22353.00
602.0040, 22128.00
603.1720, 22078.00
604.3400, 22025.00
605.5080, 21930.00
606.6760, 21841.00
607.8440, 21859.00
609.0120, 21831.00
610.1790, 21736.00
611.3460, 21468.00
612.5130, 21288.00
613.6800, 21298.00
614.8470, 21193.00
616.0130, 21139.00
617.1800, 20948.00
618.3460, 21122.00
619.5120, 21032.00
620.6780, 20984.00
621.8440, 21051.00
623.0090, 20814.00
624.1750, 20842.00
625.3400, 20891.00
626.5050, 20654.00
627.6700, 20495.00
628.8350, 20084.00
629.9990, 19757.00
631.1640, 19739.00
632.3280, 19538.00
633.4920, 19314.00
634.6560, 19176.00
635.8200, 18824.00
636.9840, 18817.00
638.1470, 18633.00
639.3100, 18650.00
640.4730, 18639.00
641.6360, 18629.42
642.7990, 18598.58
643.9620, 18705.00
645.1240, 18554.00
646.2870, 18550.00
647.4490, 18616.00
648.6110, 18462.00
649.7730, 18681.00
650.9340, 18731.00
652.0960, 18482.00
653.2570, 18646.00
654.4180, 19009.00
655.5790, 18830.00
656.7400, 18979.00
657.9010, 18985.00
659.0620, 19168.00
660.2220, 19322.00
661.3820, 19366.00
662.5420, 19496.00
663.7020, 19657.00
664.8620, 19695.00
666.0210, 20022.00
667.1810, 20077.00
668.3400, 20263.00
669.4990, 20603.00
670.6580, 20673.00
671.8170, 20966.00
672.9750, 21423.00
674.1340, 21653.00
675.2920, 21584.00
676.4500, 21799.00
677.6080, 21739.00
678.7660, 21656.00
679.9230, 21633.00
681.0810, 21152.00
682.2380, 20949.00
683.3950, 20769.00
684.5520, 20399.00
685.7090, 20351.00
686.8660, 20086.00
688.0220, 19746.00
689.1780, 19830.00
690.3340, 19705.00
691.4900, 19518.00
692.6460, 19489.00
693.8020, 19504.00
694.9570, 19477.00
696.1130, 19568.00
697.2680, 19346.00
698.4230, 19468.00
699.5780, 19729.00
700.7320, 19338.00
701.8870, 19410.00
703.0410, 19380.00
704.1950, 19757.00
705.3490, 19713.00
706.5030, 19546.00
707.6570, 19973.00
708.8110, 19649.00
709.9640, 19947.00
711.1170, 19994.00
712.2700, 20013.00
713.4230, 20083.00
714.5760, 20149.00
715.7280, 20257.00
716.8810, 20417.00
718.0330, 20273.00
719.1850, 20441.00
720.3370, 20267.00
721.4890, 20289.00
722.6400, 20180.00
723.7920, 20175.00
724.9430, 20140.00
726.0940, 19973.00
727.2450, 20191.00
728.3960, 20440.00
729.5460, 20108.00
730.6970, 20037.00
731.8470, 20166.00
732.9970, 20077.00
734.1470, 20147.00
735.2970, 20376.00
736.4460, 20357.00
737.5960, 20322.00
738.7450, 20581.00
739.8940, 20682.00
741.0430, 20650.00
742.1920, 20735.00
743.3410, 20865.00
744.4890, 20853.25
745.6370, 20851.00
746.7850, 20837.00
747.9330, 20828.00
749.0810, 20646.00
750.2290, 20710.00
751.3760, 20493.00
752.5240, 20577.00
753.6710, 20309.00
754.8180, 20276.00
755.9650, 20025.00
757.1110, 20026.00
758.2580, 20204.00
759.4040, 20167.00
760.5510, 20157.00
761.6970, 20194.00
762.8420, 20336.00
763.9880, 20157.00
765.1340, 20181.00
766.2790, 19977.00
767.4240, 20133.00
768.5690, 20045.00
769.7140, 20096.00
770.8590, 20054.00
772.0030, 20018.74
773.1480, 19829.00
774.2920, 19956.00
775.4360, 19934.00
776.5800, 19916.00
777.7240, 19981.00
778.8670, 19761.00
780.0110, 19680.00
781.1540, 19756.00
782.2970, 19753.00
783.4400, 19758.00
784.5830, 19731.00
785.7250, 19690.00
786.8680, 19707.53
788.0100, 19735.46
789.1520, 19761.00
790.2940, 19782.00
791.4360, 19893.00
792.5780, 19791.00
793.7190, 19802.00
794.8600, 19831.00
796.0010, 19746.00
797.1420, 19834.00
798.2830, 19820.00
799.4240, 19687.00
800.5640, 19775.00
801.7050, 19900.00
802.8450, 19840.00
803.9850, 19853.00
805.1250, 19802.00
806.2640, 19776.00
807.4040, 19818.00
808.5430, 19779.06
809.6820, 19967.00
810.8210, 19784.00
811.9600, 19927.00
813.0990, 19983.00
814.2370, 19879.00
815.3760, 20075.00
816.5140, 19949.00
817.6520, 19880.00
818.7900, 19990.00
819.9270, 19996.00
821.0650, 20211.00
822.2020, 20280.00
823.3390, 20290.00
824.4760, 20238.00
825.6130, 20627.00
826.7500, 20459.00
827.8870, 20683.00
829.0230, 20588.00
830.1590, 20773.00
831.2950, 20835.00
832.4310, 20748.00
833.5670, 21007.00
834.7030, 20916.00
835.8380, 20960.00
836.9730, 21279.00
838.1080, 21344.00
839.2430, 21306.00
840.3780, 21718.00
841.5130, 21548.00
842.6470, 21509.00
843.7810, 21852.00
844.9150, 22157.00
846.0490, 22118.00
847.1830, 22339.00
848.3170, 22661.00
849.4500, 22673.00
850.5830, 23186.00
851.7160, 23413.00
852.8490, 23478.00
853.9820, 23844.00
855.1150, 24219.00
856.2470, 24267.00
857.3800, 24593.00
858.5120, 25092.00
859.6440, 25643.00
860.7760, 26172.00
861.9070, 26816.00
863.0390, 27481.00
864.1700, 28111.00
865.3010, 28781.00
866.4320, 30093.00
867.5630, 31006.00
868.6940, 32471.00
869.8240, 33832.00
870.9540, 35557.00
872.0850, 37488.00
873.2150, 40161.00
874.3450, 43136.00
875.4740, 46727.00
876.6040, 50968.00
877.7330, 56034.00
878.8620, 62646.00
879.9910, 70618.00
881.1200, 79887.00
882.2490, 91110.00
883.3770, 103666.0
884.5060, 118627.0
885.6340, 133539.0
886.7620, 149645.0
887.8900, 164817.0
889.0180, 178903.0
890.1450, 188536.0
891.2730, 194364.0
892.4000, 195579.0
893.5270, 193630.0
894.6540, 187848.0
895.7810, 179832.0
896.9070, 168773.0
898.0340, 156370.0
899.1600, 144276.0
900.2860, 132101.0
901.4120, 120900.0
902.5380, 110640.0
903.6630, 100996.0
904.7890, 92255.00
905.9140, 85078.00
907.0390, 78116.00
908.1640, 72462.00
909.2890, 67465.00
910.4130, 62775.00
911.5380, 58613.00
912.6620, 54971.00
913.7860, 52347.00
914.9100, 49649.00
916.0340, 47289.00
917.1580, 44788.00
918.2810, 42933.00
919.4040, 41102.00
920.5280, 39539.00
921.6510, 37816.00
922.7730, 36822.00
923.8960, 35669.00
925.0180, 34826.00
926.1410, 34194.00
927.2630, 33376.00
928.3850, 32592.00
929.5070, 32226.00
930.6280, 31813.00
931.7500, 31443.00
932.8710, 31204.00
933.9920, 31061.00
935.1130, 30715.00
936.2340, 30664.00
937.3550, 31106.00
938.4760, 30882.00
939.5960, 30834.00
940.7160, 30749.00
941.8360, 30755.00
942.9560, 30250.00
944.0760, 29916.00
945.1950, 29269.00
946.3150, 28429.00
947.4340, 27881.00
948.5530, 27291.00
949.6720, 26900.00
950.7900, 26223.00
951.9090, 25943.00
953.0270, 25539.00
954.1460, 24848.00
955.2640, 24803.00
956.3820, 24418.00
957.4990, 24392.00
958.6170, 24104.00
959.7340, 24126.00
960.8520, 23859.00
961.9690, 23561.00
963.0860, 23655.00
964.2020, 23668.00
965.3190, 23590.00
966.4350, 23781.00
967.5520, 23383.00
968.6680, 23583.00
969.7840, 23579.00
970.8990, 23862.00
972.0150, 23725.00
973.1310, 23716.00
974.2460, 23704.00
975.3610, 23605.00
976.4760, 23772.00
977.5910, 23482.00
978.7050, 23604.00
979.8200, 23431.00
980.9340, 23403.00
982.0480, 23426.00
983.1620, 23099.00
984.2760, 23409.00
985.3900, 23772.00
986.5030, 23392.00
987.6160, 23565.00
988.7300, 23589.00
989.8430, 23575.00
990.9550, 23704.00
992.0680, 23707.68
993.1810, 23683.00
994.2930, 23826.00
995.4050, 23887.00
996.5170, 24003.00
997.6290, 24061.00
998.7410, 24156.00
999.8520, 24555.00
1000.964, 24887.00
1002.075, 24746.00
1003.186, 25301.00
1004.297, 25416.00
1005.407, 25570.00
1006.518, 26068.00
1007.628, 26566.00
1008.738, 26874.00
1009.848, 27538.00
1010.958, 27909.00
1012.068, 28751.00
1013.178, 29081.00
1014.287, 29604.00
1015.396, 30054.00
1016.505, 30363.00
1017.614, 30639.00
1018.723, 30729.51
1019.831, 30642.33
1020.940, 30613.00
1022.048, 30159.00
1023.156, 29797.00
1024.264, 29419.00
1025.372, 28678.00
1026.479, 28219.00
1027.587, 27461.00
1028.694, 26901.00
1029.801, 26320.00
1030.908, 26019.00
1032.015, 25706.00
1033.121, 25138.00
1034.228, 24685.00
1035.334, 24747.00
1036.440, 24631.00
1037.546, 24436.00
1038.652, 24391.00
1039.758, 24064.00
1040.863, 24076.00
1041.968, 23853.00
1043.074, 23864.00
1044.178, 23516.00
1045.283, 23648.00
1046.388, 23360.00
1047.492, 23382.00
1048.597, 23102.00
1049.701, 23051.00
1050.805, 22812.00
1051.909, 22661.00
1053.012, 22637.00
1054.116, 22264.00
1055.219, 22398.00
1056.322, 22238.00
1057.425, 22165.00
1058.528, 22146.15
1059.631, 22038.35
1060.733, 22000.00
1061.836, 21922.00
1062.938, 21821.00
1064.040, 21781.00
1065.142, 21717.02
1066.243, 21672.00
1067.345, 21640.00
1068.446, 21529.00
1069.547, 21510.00
1070.648, 21460.09
1071.749, 21474.00
1072.850, 21377.00
1073.951, 21448.00
1075.051, 21385.00
1076.151, 21289.00
1077.251, 21243.00
1078.351, 21312.00
1079.451, 21341.00
1080.550, 21256.00
1081.650, 21402.00
1082.749, 21154.00
1083.848, 21192.00
1084.947, 21297.00
1086.046, 20971.00
1087.144, 20929.00
1088.243, 21036.00
1089.341, 21065.00
1090.439, 20943.00
1091.537, 20980.16
1092.635, 20971.79
1093.732, 20913.00
1094.830, 20956.00
1095.927, 20973.00
1097.024, 20869.00
1098.121, 20802.00
1099.218, 20877.00
1100.314, 20815.00
1101.411, 20819.00
1102.507, 20827.00
1103.603, 20821.00
1104.699, 20918.00
1105.795, 20900.85
1106.890, 20990.00
1107.986, 20931.01
1109.081, 20900.00
1110.176, 20912.00
1111.271, 20931.00
1112.366, 20713.00
1113.461, 20893.00
1114.555, 21177.00
1115.649, 20857.00
1116.744, 21271.00
1117.838, 20954.00
1118.931, 20973.00
1120.025, 21193.00
1121.119, 21086.00
1122.212, 21299.00
1123.305, 21179.00
1124.398, 21001.00
1125.491, 21191.00
1126.584, 21048.00
1127.676, 21034.00
1128.768, 21072.00
1129.861, 21124.00
1130.953, 21036.00
1132.044, 21101.00
1133.136, 21012.00
1134.228, 20905.00
1135.319, 20946.00
1136.410, 21046.00
1137.501, 21006.00
1138.592, 20998.67
1139.683, 21181.00
1140.773, 20935.00
1141.864, 20977.00
1142.954, 21044.00
1144.044, 20948.00
1145.134, 21204.00
1146.224, 21066.00
1147.313, 21093.00
1148.402, 21145.00
1149.492, 21118.00
1150.581, 21040.00
1151.670, 21053.00
1152.758, 21035.58
1153.847, 21160.00
1154.935, 21076.00
1156.024, 21082.00
1157.112, 21159.00
1158.200, 21110.29
1159.287, 21174.00
1160.375, 21128.00
1161.462, 21140.00
1162.550, 21185.00
1163.637, 21070.00
1164.724, 21295.00
1165.810, 21368.00
1166.897, 21219.00
1167.983, 21218.00
1169.070, 21186.00
1170.156, 21256.00
1171.242, 21186.00
1172.327, 21199.00
1173.413, 21218.00
1174.499, 21311.00
1175.584, 21257.00
1176.669, 21533.00
1177.754, 21354.00
1178.839, 21432.00
1179.923, 21488.00
1181.008, 21402.00
1182.092, 21416.00
1183.176, 21567.00
1184.260, 21489.00
1185.344, 21400.00
1186.428, 21672.00
1187.511, 21525.00
1188.595, 21527.00
1189.678, 21369.00
1190.761, 21442.00
1191.843, 21466.44
1192.926, 21642.00
1194.009, 21483.00
1195.091, 21676.00
1196.173, 21388.00
1197.255, 21510.00
1198.337, 21688.00
1199.419, 21560.00
1200.500, 21646.00
1201.582, 21604.00
1202.663, 21694.00
1203.744, 21514.00
1204.825, 21694.00
1205.905, 21852.00
1206.986, 21554.00
1208.066, 21652.00
1209.146, 21929.00
1210.226, 21631.00
1211.306, 21639.00
1212.386, 21783.00
1213.466, 21746.00
1214.545, 21619.00
1215.624, 21690.00
1216.703, 21775.00
1217.782, 21723.00
1218.861, 21844.00
1219.939, 21875.00
1221.018, 21682.00
1222.096, 21811.00
1223.174, 21984.00
1224.252, 21826.00
1225.330, 21876.00
1226.407, 21781.00
1227.485, 21905.00
1228.562, 21856.00
1229.639, 21898.00
1230.716, 22009.00
1231.793, 21792.00
1232.869, 21874.00
1233.946, 21997.00
1235.022, 21835.00
1236.098, 21965.00
1237.174, 21720.00
1238.250, 21832.00
1239.325, 21962.00
1240.401, 21792.00
1241.476, 21991.00
1242.551, 21929.00
1243.626, 21819.00
1244.701, 21736.00
1245.776, 22017.00
1246.850, 21937.00
1247.924, 21775.00
1248.999, 21954.00
1250.073, 21700.00
1251.146, 22081.00
1252.220, 21757.00
1253.293, 21803.00
1254.367, 21945.00
1255.440, 21859.00
1256.513, 21957.00
1257.586, 21878.00
1258.658, 21810.00
1259.731, 21744.00
1260.803, 21757.00
1261.875, 21756.35
1262.947, 21797.00
1264.019, 21807.00
1265.091, 21785.00
1266.162, 21753.00
1267.234, 21773.00
