##NAMES=Hematite
##RRUFFID=R040024
##IDEAL CHEMISTRY=Fe^3+^_2_O_3_
##LOCALITY=near Covered Wells, Papago Indian Reservation, Arizona, USA
##OWNER=RRUFF
##SOURCE=University of Arizona Mineral Museum
##DESCRIPTION=Reddish-black foliatated mass
##STATUS=The identification of this mineral has been confirmed by X-ray diffraction and chemical analysis
##URL=rruff.info/R040024
##MEASURED CHEMISTRY=(Fe_1.99_Al_0.01_)_Î£=2_O_3_
##PIN_ID=M01935
##ORIENTATION=Laser parallel to -a* (-1 0 0). Fiducial mark perpendicular to laser is parallel to c [0 0 1]
127.7920, 21099.00
129.0260, 19751.00
130.2590, 19617.00
131.4920, 19719.00
132.7250, 19499.00
133.9580, 19505.00
135.1910, 19474.00
136.4230, 19269.00
137.6560, 19448.00
138.8880, 19805.00
140.1200, 19671.00
141.3520, 19443.00
142.5830, 19258.00
143.8150, 19121.88
145.0460, 18819.00
146.2770, 18806.00
147.5080, 18692.00
148.7390, 18459.00
149.9700, 18483.00
151.2000, 18442.00
152.4310, 18146.00
153.6610, 18244.00
154.8910, 18434.00
156.1210, 18360.00
157.3500, 18186.00
158.5800, 18174.00
159.8090, 18047.00
161.0380, 17913.00
162.2670, 18020.00
163.4960, 17917.00
164.7240, 17793.00
165.9530, 17763.00
167.1810, 17705.00
168.4090, 17851.00
169.6370, 17710.00
170.8650, 17780.00
172.0920, 17776.00
173.3200, 17682.00
174.5470, 17983.00
175.7740, 17399.00
177.0010, 17475.00
178.2280, 17559.00
179.4540, 17221.84
180.6810, 17430.00
181.9070, 17332.00
183.1330, 17628.00
184.3590, 17549.99
185.5850, 17491.00
186.8100, 17529.00
188.0350, 17173.27
189.2610, 17394.99
190.4860, 17531.69
191.7110, 17587.95
192.9350, 17322.84
194.1600, 17472.71
195.3840, 17456.26
196.6080, 17744.00
197.8320, 17598.29
199.0560, 17718.00
200.2800, 17680.00
201.5030, 17720.00
202.7270, 17523.00
203.9500, 17787.00
205.1730, 17691.00
206.3950, 17743.00
207.6180, 17488.00
208.8410, 17823.00
210.0630, 17897.00
211.2850, 18008.00
212.5070, 18217.28
213.7290, 18318.66
214.9500, 18597.00
216.1720, 18794.00
217.3930, 19145.00
218.6140, 19780.00
219.8350, 20563.00
221.0560, 20722.00
222.2770, 21132.00
223.4970, 21697.00
224.7170, 22086.00
225.9370, 22585.00
227.1570, 22776.00
228.3770, 23048.00
229.5970, 22735.00
230.8160, 22744.00
232.0350, 22218.00
233.2540, 21643.00
234.4730, 20831.00
235.6920, 20364.00
236.9110, 19735.00
238.1290, 19504.00
239.3470, 19332.00
240.5650, 19032.00
241.7830, 19000.00
243.0010, 18902.00
244.2180, 19023.00
245.4360, 19214.00
246.6530, 18867.00
247.8700, 18969.00
249.0870, 18876.00
250.3040, 18719.00
251.5200, 18607.00
252.7370, 18483.00
253.9530, 18523.00
255.1690, 18324.00
256.3850, 18203.00
257.6000, 18281.00
258.8160, 18101.00
260.0310, 18043.00
261.2460, 18116.00
262.4610, 17858.00
263.6760, 17888.00
264.8910, 17986.00
266.1050, 17872.00
267.3200, 17938.00
268.5340, 17808.00
269.7480, 17909.00
270.9620, 18079.00
272.1750, 18149.00
273.3890, 18195.20
274.6020, 18493.00
275.8150, 18265.00
277.0280, 18524.00
278.2410, 18658.00
279.4540, 18977.00
280.6660, 19116.00
281.8790, 19363.00
283.0910, 19544.00
284.3030, 19827.00
285.5140, 20364.00
286.7260, 20754.00
287.9380, 21231.00
289.1490, 21275.00
290.3600, 21774.00
291.5710, 21729.00
292.7820, 21997.00
293.9920, 22040.00
295.2030, 22067.00
296.4130, 21953.00
297.6230, 21891.00
298.8330, 21489.00
300.0430, 21550.00
301.2520, 21184.00
302.4620, 20724.00
303.6710, 20794.00
304.8800, 20721.00
306.0890, 20460.00
307.2980, 20306.00
308.5070, 20178.37
309.7150, 19958.00
310.9230, 19955.00
312.1310, 19903.00
313.3390, 19893.00
314.5470, 19487.00
315.7550, 19667.00
316.9620, 19400.00
318.1690, 19396.00
319.3760, 19275.00
320.5830, 19262.00
321.7900, 18920.00
322.9960, 18951.00
324.2030, 18693.00
325.4090, 18800.00
326.6150, 18697.00
327.8210, 18513.00
329.0270, 18560.00
330.2320, 18413.00
331.4380, 18389.00
332.6430, 18322.00
333.8480, 18196.00
335.0530, 18134.00
336.2580, 18334.00
337.4620, 18252.00
338.6670, 18360.00
339.8710, 18142.00
341.0750, 18360.00
342.2790, 18037.00
343.4820, 18256.00
344.6860, 18197.00
345.8890, 18388.00
347.0920, 18182.00
348.2960, 18072.00
349.4980, 18020.00
350.7010, 18151.00
351.9040, 18369.00
353.1060, 18342.00
354.3080, 18289.00
355.5100, 18065.00
356.7120, 18154.00
357.9140, 18121.00
359.1150, 18388.00
360.3170, 18214.00
361.5180, 18114.00
362.7190, 18033.00
363.9200, 18332.00
365.1200, 18166.00
366.3210, 18778.00
367.5210, 18420.00
368.7210, 18427.00
369.9210, 18547.00
371.1210, 18344.00
372.3210, 18663.00
373.5200, 18491.00
374.7200, 18249.00
375.9190, 18841.00
377.1180, 18481.00
378.3170, 18547.00
379.5150, 18869.00
380.7140, 18572.00
381.9120, 18704.00
383.1110, 18839.00
384.3090, 18820.00
385.5060, 18587.00
386.7040, 18885.00
387.9020, 18960.00
389.0990, 18912.00
390.2960, 19406.00
391.4930, 19141.00
392.6900, 19216.00
393.8860, 19164.00
395.0830, 19181.00
396.2790, 19268.00
397.4750, 19380.00
398.6710, 19453.00
399.8670, 19809.00
401.0630, 19964.00
402.2580, 19992.00
403.4540, 20078.00
404.6490, 20499.00
405.8440, 20745.00
407.0390, 20893.00
408.2330, 20865.00
409.4280, 21297.00
410.6220, 21346.00
411.8160, 21670.00
413.0100, 21876.00
414.2040, 21796.00
415.3980, 22165.00
416.5910, 21971.00
417.7850, 21871.00
418.9780, 21774.00
420.1710, 21468.00
421.3640, 21761.00
422.5560, 21589.00
423.7490, 21497.00
424.9410, 21067.00
426.1330, 21156.00
427.3250, 21019.00
428.5170, 20911.00
429.7090, 20668.00
430.9000, 20259.00
432.0910, 20185.00
433.2820, 20144.00
434.4730, 20174.00
435.6640, 19949.00
436.8550, 19741.00
438.0450, 19839.00
439.2360, 19695.00
440.4260, 19741.00
441.6160, 19551.00
442.8060, 19666.00
443.9950, 19505.00
445.1850, 19489.00
446.3740, 19610.00
447.5630, 19433.00
448.7520, 19324.00
449.9410, 19382.00
451.1300, 19501.00
452.3180, 19375.00
453.5060, 19410.00
454.6950, 19411.00
455.8830, 19405.26
457.0700, 19572.00
458.2580, 19452.00
459.4450, 19481.00
460.6330, 19475.00
461.8200, 19631.00
463.0070, 19467.00
464.1940, 19554.00
465.3800, 19747.00
466.5670, 19507.00
467.7530, 19649.00
468.9390, 19539.00
470.1250, 19665.00
471.3110, 19544.00
472.4970, 19631.00
473.6820, 19712.00
474.8680, 19609.00
476.0530, 19870.00
477.2380, 19828.00
478.4230, 19779.00
479.6070, 19712.00
480.7920, 19788.27
481.9760, 19978.00
483.1600, 19959.00
484.3440, 20091.00
485.5280, 20190.00
486.7120, 20240.00
487.8950, 20292.00
489.0780, 20333.00
490.2620, 20402.89
491.4450, 20469.00
492.6270, 20519.00
493.8100, 20585.00
494.9920, 20597.00
496.1750, 20656.99
497.3570, 20740.29
498.5390, 20720.00
499.7210, 20913.00
500.9020, 20901.00
502.0840, 20954.00
503.2650, 20698.00
504.4460, 20948.00
505.6270, 21119.00
506.8080, 20853.00
507.9890, 21049.00
509.1690, 20800.00
510.3500, 20975.00
511.5300, 21012.00
512.7100, 20932.00
513.8900, 21108.00
515.0690, 20739.00
516.2490, 20750.00
517.4280, 20874.00
518.6070, 20706.00
519.7860, 20744.00
520.9650, 20695.00
522.1440, 20950.00
523.3220, 20756.00
524.5010, 20739.00
525.6790, 20551.00
526.8570, 20721.00
528.0350, 20711.00
529.2130, 20610.00
530.3900, 20829.00
531.5670, 20495.00
532.7450, 20739.00
533.9220, 20891.00
535.0980, 20734.00
536.2750, 20557.00
537.4520, 20552.00
538.6280, 20708.00
539.8040, 20580.00
540.9800, 20723.00
542.1560, 20616.00
543.3320, 20635.23
544.5070, 20593.00
545.6830, 20723.00
546.8580, 20572.00
548.0330, 20785.00
549.2080, 20718.00
550.3830, 20754.00
551.5570, 20966.00
552.7310, 20819.00
553.9060, 20759.00
555.0800, 20813.00
556.2540, 20877.00
557.4270, 20996.00
558.6010, 20893.00
559.7740, 20933.00
560.9470, 20916.00
562.1210, 20945.00
563.2930, 20862.00
564.4660, 20896.00
565.6390, 21102.00
566.8110, 20980.60
567.9830, 21154.28
569.1550, 21242.96
570.3270, 21251.21
571.4990, 20938.11
572.6710, 21138.00
573.8420, 21048.00
575.0130, 20981.00
576.1840, 21010.00
577.3550, 20873.00
578.5260, 20996.00
579.6970, 20668.00
580.8670, 20845.00
582.0370, 20752.00
583.2070, 20566.00
584.3770, 20676.00
585.5470, 20481.00
586.7170, 20694.00
587.8860, 20409.00
589.0550, 20420.00
590.2240, 20294.00
591.3930, 20474.00
592.5620, 20306.00
593.7310, 20607.00
594.8990, 20188.00
596.0670, 20458.00
597.2350, 20434.00
598.4030, 20523.00
599.5710, 20524.00
600.7390, 20510.00
601.9060, 20593.00
603.0740, 20706.00
604.2410, 20857.00
605.4080, 20947.00
606.5740, 20833.00
607.7410, 21090.00
608.9080, 20897.00
610.0740, 20996.00
611.2400, 21302.00
612.4060, 21032.00
613.5720, 21432.00
614.7370, 21432.00
615.9030, 21338.00
617.0680, 21304.00
618.2330, 21466.00
619.3980, 21501.00
620.5630, 21448.54
621.7280, 21676.00
622.8920, 21413.00
624.0570, 21370.00
625.2210, 21540.00
626.3850, 21682.00
627.5490, 21738.00
628.7120, 21572.00
629.8760, 21657.00
631.0390, 21717.00
632.2020, 21459.00
633.3650, 21717.00
634.5280, 21545.00
635.6910, 21603.00
636.8530, 21699.00
638.0160, 21615.00
639.1780, 21660.97
640.3400, 21556.00
641.5020, 21756.00
642.6640, 21443.00
643.8250, 21730.00
644.9870, 21808.00
646.1480, 21734.00
647.3090, 21808.69
648.4700, 21807.25
649.6300, 21697.00
650.7910, 21845.00
651.9510, 21788.00
653.1120, 21830.00
654.2720, 22019.00
655.4320, 21898.00
656.5910, 22167.00
657.7510, 22134.00
658.9100, 22323.00
660.0690, 22396.00
661.2290, 22479.00
662.3880, 22399.00
663.5460, 22640.00
664.7050, 22529.00
665.8630, 22617.55
667.0220, 22654.00
668.1800, 22781.00
669.3380, 22712.00
670.4950, 22937.00
671.6530, 22893.00
672.8100, 22923.00
673.9680, 22880.00
675.1250, 22908.00
676.2820, 22866.00
677.4390, 23047.00
678.5950, 22886.00
679.7520, 22655.00
680.9080, 22810.00
682.0640, 22642.00
683.2200, 22570.00
684.3760, 22451.00
685.5320, 22430.00
686.6870, 22488.00
687.8420, 22205.00
688.9980, 22245.00
690.1530, 22086.00
691.3070, 21977.00
692.4620, 22090.00
693.6170, 21907.00
694.7710, 21706.00
695.9250, 21776.00
697.0790, 21742.00
698.2330, 21653.41
699.3870, 21396.00
700.5400, 21491.00
701.6940, 21466.00
702.8470, 21283.00
704.0000, 21317.98
705.1530, 21231.00
706.3050, 21202.00
707.4580, 21205.00
708.6100, 21143.00
709.7630, 21108.00
710.9150, 20912.00
712.0660, 20985.00
713.2180, 20724.00
714.3700, 20768.00
715.5210, 20922.00
716.6720, 20716.00
717.8240, 20704.00
718.9740, 20713.00
720.1250, 20585.00
721.2760, 20899.00
722.4260, 20703.00
723.5770, 20599.00
724.7270, 20805.00
725.8770, 20559.00
727.0260, 20535.00
728.1760, 20436.00
729.3250, 20641.00
730.4750, 20548.00
731.6240, 20637.00
732.7730, 20668.00
733.9220, 20652.00
735.0700, 20570.00
736.2190, 20678.00
737.3670, 20523.00
738.5150, 20712.00
739.6630, 20506.00
740.8110, 20474.00
741.9590, 20569.00
743.1060, 20650.00
744.2540, 20498.00
745.4010, 20438.00
746.5480, 20513.00
747.6950, 20526.00
748.8410, 20473.00
749.9880, 20571.00
751.1340, 20522.00
752.2800, 20347.00
753.4260, 20660.00
754.5720, 20599.00
755.7180, 20707.00
756.8640, 20588.00
758.0090, 20580.00
759.1540, 20567.00
760.2990, 20555.00
761.4440, 20525.00
762.5890, 20514.00
763.7340, 20551.00
764.8780, 20517.00
766.0220, 20571.00
767.1660, 20510.00
768.3100, 20548.00
769.4540, 20439.00
770.5980, 20427.00
771.7410, 20510.00
772.8840, 20535.00
774.0280, 20550.80
775.1700, 20552.00
776.3130, 20566.00
777.4560, 20568.69
778.5980, 20572.00
779.7410, 20565.00
780.8830, 20563.00
782.0250, 20541.00
783.1670, 20583.00
784.3080, 20581.00
785.4500, 20579.00
786.5910, 20532.00
787.7320, 20505.00
788.8730, 20599.00
790.0140, 20733.00
791.1550, 20602.27
792.2950, 20579.00
793.4360, 20353.00
794.5760, 20478.00
795.7160, 20284.44
796.8560, 20570.00
797.9960, 20495.00
799.1350, 20447.00
800.2750, 20626.00
801.4140, 20424.00
802.5530, 20588.00
803.6920, 20593.00
804.8310, 20546.00
805.9690, 20542.00
807.1080, 20669.00
808.2460, 20642.00
809.3840, 20610.00
810.5220, 20511.00
811.6600, 20550.14
812.7970, 20641.00
813.9350, 20554.00
815.0720, 20703.00
816.2090, 20631.00
817.3460, 20499.84
818.4830, 20701.24
819.6200, 20817.63
820.7560, 20853.59
821.8930, 20568.21
823.0290, 20697.78
824.1650, 20661.04
825.3010, 20617.50
826.4360, 20805.46
827.5720, 20566.81
828.7070, 20751.09
829.8420, 20766.55
830.9770, 20859.28
832.1120, 20784.68
833.2470, 20761.77
834.3820, 20906.23
835.5160, 20958.00
836.6500, 20864.14
837.7840, 20961.77
838.9180, 20717.27
840.0520, 20772.99
841.1860, 20958.25
842.3190, 20872.80
843.4520, 20973.48
844.5850, 20872.00
845.7180, 20907.00
846.8510, 20855.00
847.9840, 20877.49
849.1160, 20776.00
850.2490, 20832.00
851.3810, 20847.06
852.5130, 20792.00
853.6450, 20902.00
854.7760, 20971.00
855.9080, 21025.00
857.0390, 20990.00
858.1700, 20941.00
859.3010, 21032.00
860.4320, 20990.69
861.5630, 21096.00
862.6930, 20995.00
863.8240, 21083.49
864.9540, 21072.63
866.0840, 21164.00
867.2140, 21176.00
868.3440, 21302.00
869.4730, 21245.00
870.6030, 21115.00
871.7320, 21330.00
872.8610, 21200.23
873.9900, 21267.00
875.1190, 21205.00
876.2470, 21135.00
877.3760, 21257.00
878.5040, 21247.00
879.6320, 21303.00
880.7600, 21342.60
881.8880, 21342.81
883.0150, 21413.00
884.1430, 21341.00
885.2700, 21406.00
886.3970, 21367.00
887.5240, 21218.00
888.6510, 21336.00
889.7780, 21442.00
890.9040, 21348.00
892.0310, 21279.00
893.1570, 21472.00
894.2830, 21421.00
895.4090, 21272.00
896.5350, 21353.00
897.6600, 21588.00
898.7860, 21652.00
899.9110, 21509.00
901.0360, 21484.00
902.1610, 21575.00
903.2860, 21568.00
904.4100, 21595.00
905.5350, 21602.00
906.6590, 21735.00
907.7830, 21646.00
908.9070, 21797.00
910.0310, 21624.00
911.1540, 21737.00
912.2780, 21692.00
913.4010, 21797.00
914.5240, 21525.00
915.6470, 21704.00
916.7700, 21851.00
917.8930, 21705.00
919.0150, 21931.00
920.1380, 21886.00
921.2600, 21846.00
922.3820, 21823.00
923.5040, 21856.40
924.6260, 21823.79
925.7470, 21952.00
926.8690, 21901.00
927.9900, 21928.00
929.1110, 22166.00
930.2320, 22067.00
931.3530, 21885.00
932.4730, 22002.00
933.5940, 22087.00
934.7140, 22097.00
935.8340, 22367.00
936.9540, 22161.00
938.0740, 22296.15
939.1930, 22555.00
940.3130, 22330.00
941.4320, 22301.00
942.5510, 22263.00
943.6700, 22353.81
944.7890, 22292.27
945.9080, 22348.45
947.0260, 22248.00
948.1450, 22429.00
949.2630, 22414.00
950.3810, 22458.00
951.4990, 22488.00
952.6170, 22430.00
953.7340, 22503.00
954.8520, 22609.00
955.9690, 22467.00
957.0860, 22514.00
958.2030, 22447.00
959.3200, 22283.00
960.4360, 22541.00
961.5530, 22486.00
962.6690, 22596.00
963.7850, 22366.00
964.9010, 22672.00
966.0170, 22376.00
967.1330, 22583.00
968.2480, 22524.00
969.3630, 22566.00
970.4790, 22594.00
971.5940, 22578.21
972.7080, 22704.00
973.8230, 22627.00
974.9380, 22611.00
976.0520, 22715.00
977.1660, 22688.00
978.2800, 22673.00
979.3940, 22802.00
980.5080, 22804.00
981.6220, 22717.00
982.7350, 22904.00
983.8480, 22721.00
984.9610, 22968.00
986.0740, 22717.00
987.1870, 22864.00
988.3000, 22977.00
989.4120, 22996.00
990.5250, 23023.50
991.6370, 23042.00
992.7490, 22946.00
993.8610, 22865.00
994.9720, 22782.00
996.0840, 23038.00
997.1950, 22904.00
998.3060, 23123.00
999.4170, 23123.00
1000.528, 23111.00
1001.639, 23198.00
1002.750, 23124.00
1003.860, 23038.00
1004.970, 22940.00
1006.080, 23007.73
1007.190, 23037.00
1008.300, 23130.00
1009.410, 23225.00
1010.519, 23212.00
1011.628, 22821.16
1012.738, 23026.72
1013.846, 23147.26
1014.955, 23187.38
1016.064, 22906.15
1017.172, 23039.86
1018.281, 23080.00
1019.389, 22980.00
1020.497, 23272.00
1021.605, 23242.00
1022.713, 23249.00
1023.820, 23348.00
1024.928, 23314.00
1026.035, 23236.00
1027.142, 23211.00
1028.249, 23317.44
1029.356, 23209.85
1030.462, 23578.00
1031.569, 23213.00
1032.675, 23282.00
1033.781, 23522.00
1034.887, 23355.00
1035.993, 23610.00
1037.098, 23472.00
1038.204, 23486.00
1039.309, 23575.00
1040.415, 23622.00
1041.520, 23478.00
1042.624, 23739.00
1043.729, 23727.00
1044.834, 23881.00
1045.938, 23601.00
1047.042, 23851.00
1048.146, 24006.00
1049.250, 23758.00
1050.354, 23891.00
1051.458, 23964.00
1052.561, 23944.00
1053.664, 23986.00
1054.767, 24253.00
1055.870, 23922.00
1056.973, 24221.71
1058.076, 24203.14
1059.178, 24462.00
1060.281, 24325.00
1061.383, 24260.00
1062.485, 24336.00
1063.587, 24296.79
1064.688, 24211.00
1065.790, 24376.00
1066.891, 24193.00
1067.993, 24211.00
1069.094, 24343.00
1070.195, 24216.00
1071.295, 24309.00
1072.396, 24128.00
1073.496, 24280.00
1074.597, 24319.00
1075.697, 24312.00
1076.797, 24341.00
1077.897, 24386.00
1078.996, 24338.00
1080.096, 24168.57
1081.195, 24361.60
1082.294, 24469.62
1083.393, 24497.20
1084.492, 24203.44
1085.591, 24324.63
1086.689, 24279.53
1087.788, 24227.61
1088.886, 24407.21
1089.984, 24160.19
1091.082, 24336.00
1092.180, 24129.00
1093.277, 24198.00
1094.375, 24147.00
1095.472, 24376.00
1096.569, 24222.00
1097.666, 24531.00
1098.763, 24159.00
1099.860, 24257.00
1100.956, 24217.00
1102.053, 24216.00
1103.149, 24279.00
1104.245, 24215.00
1105.341, 24323.00
1106.436, 24205.00
1107.532, 24340.00
1108.627, 24186.00
1109.723, 24267.00
1110.818, 24249.00
1111.913, 24001.00
1113.007, 24101.00
1114.102, 24192.00
1115.197, 24192.00
1116.291, 24248.00
1117.385, 24112.00
1118.479, 24280.00
1119.573, 24034.00
1120.666, 24120.00
1121.760, 24122.11
1122.853, 24325.00
1123.947, 24110.00
1125.040, 24089.00
1126.132, 23975.00
1127.225, 23961.00
1128.318, 24089.00
1129.410, 23925.01
1130.502, 23974.28
1131.595, 23809.00
1132.687, 23874.00
1133.778, 23997.00
1134.870, 23836.00
1135.961, 23936.00
1137.053, 23983.00
1138.144, 23824.00
1139.235, 24088.00
1140.326, 23595.42
1141.416, 23787.24
1142.507, 23894.06
1143.597, 23920.45
1144.688, 23625.49
1145.778, 23745.47
1146.868, 23699.17
1147.957, 23646.05
1149.047, 23824.44
1150.136, 23576.22
1151.226, 23750.94
1152.315, 23819.00
1153.404, 23995.00
1154.493, 23705.00
1155.581, 23728.00
1156.670, 23996.00
1157.758, 23541.00
1158.846, 23558.00
1159.934, 23605.00
1161.022, 23659.00
1162.110, 23585.24
1163.198, 23779.09
1164.285, 23887.93
1165.372, 23916.33
1166.459, 23623.40
1167.546, 23745.41
1168.633, 23701.13
1169.720, 23650.03
1170.806, 23830.44
1171.892, 23584.24
1172.979, 23760.98
1174.065, 23903.00
1175.150, 23874.00
1176.236, 23915.00
1177.322, 23695.00
1178.407, 23777.00
1179.492, 23672.00
1180.577, 23839.00
1181.662, 23865.00
1182.747, 23786.00
1183.832, 23698.00
1184.916, 23762.87
1186.000, 23861.00
1187.084, 23843.00
1188.168, 23841.00
1189.252, 23857.00
1190.336, 23783.00
1191.419, 23792.00
1192.503, 23800.10
1193.586, 23890.00
1194.669, 23814.00
1195.752, 23911.00
1196.835, 23872.00
1197.917, 23904.00
1199.000, 24092.00
1200.082, 24035.00
1201.164, 23775.00
1202.246, 24020.00
1203.328, 23994.00
1204.409, 24108.00
1205.491, 23847.00
1206.572, 24053.00
1207.653, 24020.00
1208.734, 23918.00
1209.815, 24106.00
1210.896, 24064.00
1211.976, 24151.00
1213.057, 24251.06
1214.137, 24314.00
1215.217, 24350.29
1216.297, 24371.32
1217.377, 24362.53
1218.456, 24315.00
1219.536, 24261.00
1220.615, 24297.00
1221.694, 24272.00
1222.773, 24287.69
1223.852, 24306.03
1224.931, 24337.00
1226.009, 24343.00
1227.088, 24384.00
1228.166, 24404.00
1229.244, 24413.01
1230.322, 24433.00
1231.400, 24458.00
1232.477, 24504.00
1233.555, 24588.00
1234.632, 24386.00
1235.709, 24384.00
1236.786, 24649.00
1237.863, 24372.00
1238.939, 24495.00
1240.016, 24546.00
1241.092, 24785.00
1242.168, 24723.00
1243.245, 24390.00
1244.320, 24843.00
1245.396, 24911.00
1246.472, 24541.00
1247.547, 24800.00
1248.622, 24774.00
1249.697, 24894.00
1250.772, 25107.00
1251.847, 24967.00
1252.922, 24856.00
1253.996, 25182.00
1255.071, 25279.00
1256.145, 25086.00
1257.219, 25307.00
1258.293, 25110.00
1259.366, 25370.00
1260.440, 25462.00
1261.513, 25422.00
1262.587, 25403.00
1263.660, 25471.00
1264.733, 25480.27
1265.805, 25688.00
1266.878, 25639.00
1267.951, 25640.00
1269.023, 25832.00
1270.095, 25693.00
1271.167, 25747.00
1272.239, 26056.00
1273.311, 26051.00
1274.382, 26187.00
1275.454, 25854.00
1276.525, 26258.00
1277.596, 26160.00
1278.667, 26391.00
1279.738, 26243.00
1280.808, 26407.00
1281.879, 26689.00
1282.949, 26658.00
1284.019, 26742.00
1285.089, 26659.00
1286.159, 26987.00
1287.229, 26943.00
1288.298, 27112.00
1289.368, 27041.00
1290.437, 27255.00
1291.506, 27202.00
1292.575, 27504.00
1293.644, 27684.00
1294.712, 27611.00
1295.781, 27669.00
1296.849, 27777.00
1297.917, 27746.00
1298.985, 28000.00
1300.053, 28039.00
1301.121, 28245.00
1302.188, 28172.00
