##NAMES=Hematite
##RRUFFID=R040024
##IDEAL CHEMISTRY=Fe^3+^_2_O_3_
##LOCALITY=near Covered Wells, Papago Indian Reservation, Arizona, USA
##OWNER=RRUFF
##SOURCE=University of Arizona Mineral Museum
##DESCRIPTION=Reddish-black foliatated mass
##STATUS=The identification of this mineral has been confirmed by X-ray diffraction and chemical analysis
##URL=rruff.info/R040024
##MEASURED CHEMISTRY=(Fe_1.99_Al_0.01_)_Î£=2_O_3_
##PIN_ID=M01935
##ORIENTATION=Laser parallel to -a* (-1 0 0). Fiducial mark perpendicular to laser is parallel to c [0 0 1]
127.7920, 29368.00
129.0260, 28871.00
130.2590, 28604.00
131.4920, 28666.00
132.7250, 28445.00
133.9580, 28038.51
135.1910, 28136.82
136.4230, 28150.21
137.6560, 28083.09
138.8880, 27694.70
140.1200, 27721.26
141.3520, 27581.53
142.5830, 27435.05
143.8150, 27520.01
145.0460, 27178.44
146.2770, 27259.80
147.5080, 27320.00
148.7390, 27059.02
149.9700, 26937.00
151.2000, 26881.00
152.4310, 26804.00
153.6610, 26724.00
154.8910, 26810.00
156.1210, 26704.00
157.3500, 26744.00
158.5800, 26384.00
159.8090, 26595.00
161.0380, 26430.00
162.2670, 26243.00
163.4960, 26475.00
164.7240, 26186.00
165.9530, 25897.00
167.1810, 26123.00
168.4090, 25934.00
169.6370, 25829.00
170.8650, 26161.00
172.0920, 26062.00
173.3200, 26073.00
174.5470, 25968.00
175.7740, 25941.00
177.0010, 25832.18
178.2280, 25823.00
179.4540, 25779.34
180.6810, 25672.00
181.9070, 25723.00
183.1330, 25755.00
184.3590, 25721.54
185.5850, 25760.00
186.8100, 25681.00
188.0350, 25606.00
189.2610, 25668.00
190.4860, 25527.00
191.7110, 25580.00
192.9350, 25773.00
194.1600, 25747.00
195.3840, 25562.00
196.6080, 25450.00
197.8320, 25892.00
199.0560, 25863.00
200.2800, 26009.00
201.5030, 25835.00
202.7270, 25664.00
203.9500, 25978.00
205.1730, 25979.93
206.3950, 25851.48
207.6180, 25983.16
208.8410, 25933.01
210.0630, 25938.00
211.2850, 25970.00
212.5070, 25871.52
213.7290, 25906.00
214.9500, 26320.00
216.1720, 26431.00
217.3930, 27061.00
218.6140, 27778.00
219.8350, 27431.00
221.0560, 27573.00
222.2770, 28142.00
223.4970, 28268.00
224.7170, 28786.00
225.9370, 29160.00
227.1570, 29092.00
228.3770, 29323.02
229.5970, 29122.43
230.8160, 29196.00
232.0350, 28550.00
233.2540, 28154.00
234.4730, 27718.00
235.6920, 27468.00
236.9110, 27899.00
238.1290, 28501.00
239.3470, 28919.00
240.5650, 28729.00
241.7830, 28872.44
243.0010, 28552.00
244.2180, 28716.00
245.4360, 27324.00
246.6530, 27569.00
247.8700, 27392.00
249.0870, 27484.00
250.3040, 27302.00
251.5200, 27191.00
252.7370, 27007.00
253.9530, 26864.81
255.1690, 26732.24
256.3850, 26527.00
257.6000, 26521.00
258.8160, 26281.00
260.0310, 26292.00
261.2460, 26218.00
262.4610, 26375.22
263.6760, 26338.45
264.8910, 26310.94
266.1050, 26368.00
267.3200, 26320.00
268.5340, 26284.00
269.7480, 26504.00
270.9620, 26474.53
272.1750, 26344.00
273.3890, 26687.00
274.6020, 26757.00
275.8150, 27018.00
277.0280, 27065.00
278.2410, 27386.00
279.4540, 27590.00
280.6660, 27858.00
281.8790, 28437.00
283.0910, 28706.00
284.3030, 29374.00
285.5140, 30015.00
286.7260, 30653.00
287.9380, 31355.00
289.1490, 31895.00
290.3600, 32067.00
291.5710, 32865.00
292.7820, 33116.00
293.9920, 33323.00
295.2030, 32889.00
296.4130, 32626.00
297.6230, 32250.00
298.8330, 31556.00
300.0430, 31248.00
301.2520, 30439.10
302.4620, 30351.01
303.6710, 30178.16
304.8800, 29924.86
306.0890, 29350.22
307.2980, 29190.52
308.5070, 28864.53
309.7150, 28531.95
310.9230, 28254.00
312.1310, 28073.00
313.3390, 27979.00
314.5470, 27719.00
315.7550, 27524.00
316.9620, 27227.00
318.1690, 27003.00
319.3760, 26917.36
320.5830, 26992.00
321.7900, 26798.00
322.9960, 26770.00
324.2030, 26740.00
325.4090, 26633.00
326.6150, 26511.34
327.8210, 26666.87
329.0270, 26737.41
330.2320, 26727.54
331.4380, 26396.30
332.6430, 26480.04
333.8480, 26397.49
335.0530, 26308.11
336.2580, 26227.00
337.4620, 26459.00
338.6670, 26432.00
339.8710, 26363.00
341.0750, 26331.00
342.2790, 26239.00
343.4820, 26247.94
344.6860, 26333.00
345.8890, 26259.00
347.0920, 26359.00
348.2960, 26378.00
349.4980, 26330.00
350.7010, 26476.00
351.9040, 26395.00
353.1060, 26404.00
354.3080, 26511.00
355.5100, 26334.00
356.7120, 26389.00
357.9140, 26417.64
359.1150, 26568.00
360.3170, 26585.00
361.5180, 26398.00
362.7190, 26624.00
363.9200, 26509.74
365.1200, 26713.10
366.3210, 26831.46
367.5210, 26869.38
368.7210, 26585.96
369.9210, 26717.48
371.1210, 26682.71
372.3210, 26641.13
373.5200, 26920.00
374.7200, 26739.00
375.9190, 27049.00
377.1180, 26949.00
378.3170, 27131.00
379.5150, 27137.00
380.7140, 27198.00
381.9120, 27237.00
383.1110, 27269.18
384.3090, 27366.39
385.5060, 27347.00
386.7040, 27530.00
387.9020, 27581.81
389.0990, 27604.63
390.2960, 27749.00
391.4930, 27568.00
392.6900, 27711.00
393.8860, 27750.00
395.0830, 27712.00
396.2790, 28038.00
397.4750, 28062.01
398.6710, 28316.00
399.8670, 28455.00
401.0630, 28672.00
402.2580, 28909.44
403.4540, 28959.00
404.6490, 29465.00
405.8440, 29733.00
407.0390, 30173.00
408.2330, 30288.00
409.4280, 30678.00
410.6220, 30898.00
411.8160, 31146.00
413.0100, 31223.00
414.2040, 31412.00
415.3980, 31407.30
416.5910, 31289.00
417.7850, 31256.00
418.9780, 30821.00
420.1710, 30518.21
421.3640, 30653.00
422.5560, 29952.00
423.7490, 29886.00
424.9410, 29567.00
426.1330, 29408.00
427.3250, 29278.00
428.5170, 28867.00
429.7090, 28732.00
430.9000, 28452.00
432.0910, 28547.00
433.2820, 28358.00
434.4730, 28451.00
435.6640, 28088.00
436.8550, 28247.00
438.0450, 28102.00
439.2360, 28050.00
440.4260, 28038.00
441.6160, 28160.00
442.8060, 28016.00
443.9950, 28037.00
445.1850, 28192.00
446.3740, 28201.00
447.5630, 27975.41
448.7520, 28161.12
449.9410, 28261.82
451.1300, 28282.10
452.3180, 27981.04
453.5060, 28094.92
454.6950, 28042.51
455.8830, 27983.28
457.0700, 28155.57
458.2580, 28065.00
459.4450, 28197.00
460.6330, 28167.00
461.8200, 28376.00
463.0070, 28025.00
464.1940, 28312.00
465.3800, 28118.71
466.5670, 28107.87
467.7530, 28007.00
468.9390, 28043.00
470.1250, 28292.00
471.3110, 28201.00
472.4970, 28428.00
473.6820, 28321.00
474.8680, 28396.00
476.0530, 28423.00
477.2380, 28307.00
478.4230, 28466.00
479.6070, 28259.00
480.7920, 28466.00
481.9760, 28466.00
483.1600, 28595.00
484.3440, 28606.00
485.5280, 28680.09
486.7120, 28745.14
487.8950, 28812.00
489.0780, 28847.00
490.2620, 28908.00
491.4450, 28938.00
492.6270, 28959.00
493.8100, 28860.00
494.9920, 28941.47
496.1750, 28917.89
497.3570, 29110.00
498.5390, 28993.00
499.7210, 29246.00
500.9020, 29410.00
502.0840, 29230.00
503.2650, 29278.00
504.4460, 29391.00
505.6270, 29433.00
506.8080, 29416.00
507.9890, 29380.00
509.1690, 29443.00
510.3500, 29324.56
511.5300, 29439.00
512.7100, 29245.00
513.8900, 29218.00
515.0690, 29436.00
516.2490, 29463.00
517.4280, 29257.00
518.6070, 29324.32
519.7860, 29344.00
520.9650, 29268.00
522.1440, 29227.00
523.3220, 29413.00
524.5010, 29457.00
525.6790, 29383.00
526.8570, 29273.00
528.0350, 29166.70
529.2130, 29349.34
530.3900, 29446.98
531.5670, 29464.19
532.7450, 29160.05
533.9220, 29270.87
535.0980, 29215.40
536.2750, 29153.10
537.4520, 29322.32
538.6280, 29524.00
539.8040, 29387.00
540.9800, 29496.00
542.1560, 29719.00
543.3320, 29216.00
544.5070, 29557.00
545.6830, 29403.00
546.8580, 29531.00
548.0330, 29445.00
549.2080, 29474.00
550.3830, 29717.00
551.5570, 29515.00
552.7310, 29728.00
553.9060, 29725.00
555.0800, 29765.00
556.2540, 29836.00
557.4270, 29620.00
558.6010, 29738.00
559.7740, 29787.00
560.9470, 29606.93
562.1210, 29828.23
563.2930, 29964.49
564.4660, 30020.33
565.6390, 29754.83
566.8110, 29904.25
567.9830, 29887.38
569.1550, 29863.70
570.3270, 30071.52
571.4990, 29984.00
572.6710, 29922.00
573.8420, 29940.54
575.0130, 29890.50
576.1840, 29871.00
577.3550, 29803.00
578.5260, 29719.97
579.6970, 29659.61
580.8670, 29511.00
582.0370, 29573.00
583.2070, 29438.00
584.3770, 29250.00
585.5470, 29423.00
586.7170, 29266.00
587.8860, 29486.00
589.0550, 29284.00
590.2240, 29264.00
591.3930, 29416.00
592.5620, 29033.00
593.7310, 29089.00
594.8990, 29317.00
596.0670, 29148.00
597.2350, 29553.00
598.4030, 29263.00
599.5710, 29410.00
600.7390, 29606.00
601.9060, 29569.00
603.0740, 29656.08
604.2410, 30026.00
605.4080, 29723.00
606.5740, 29879.00
607.7410, 30054.00
608.9080, 30670.00
610.0740, 30419.00
611.2400, 30818.00
612.4060, 30402.00
613.5720, 30247.00
614.7370, 30688.00
615.9030, 30460.90
617.0680, 30653.73
618.2330, 30761.56
619.3980, 30788.95
620.5630, 30495.01
621.7280, 30616.01
622.8920, 30570.72
624.0570, 30535.00
625.2210, 30693.00
626.3850, 30743.00
627.5490, 30853.00
628.7120, 30619.00
629.8760, 30608.00
631.0390, 30559.00
632.2020, 30811.00
633.3650, 30739.00
634.5280, 30644.00
635.6910, 30840.00
636.8530, 30824.00
638.0160, 30961.00
639.1780, 31028.00
640.3400, 30745.00
641.5020, 30639.00
642.6640, 30748.00
643.8250, 30837.00
644.9870, 30853.00
646.1480, 30692.00
647.3090, 30590.00
648.4700, 30701.00
649.6300, 30707.00
650.7910, 30681.00
651.9510, 30883.00
653.1120, 30951.00
654.2720, 31023.00
655.4320, 31042.00
656.5910, 31165.00
657.7510, 31179.00
658.9100, 31258.00
660.0690, 31059.00
661.2290, 31234.00
662.3880, 31252.00
663.5460, 31613.00
664.7050, 31569.00
665.8630, 31736.00
667.0220, 31733.00
668.1800, 31884.00
669.3380, 31963.00
670.4950, 31970.00
671.6530, 31915.00
672.8100, 31977.00
673.9680, 32037.00
675.1250, 31777.00
676.2820, 31748.00
677.4390, 31763.50
678.5950, 32173.00
679.7520, 31910.00
680.9080, 31644.00
682.0640, 31881.00
683.2200, 31551.00
684.3760, 31566.00
685.5320, 31616.00
686.6870, 31362.00
687.8420, 31140.00
688.9980, 31240.00
690.1530, 30959.00
691.3070, 30862.00
692.4620, 30981.00
693.6170, 30757.00
694.7710, 30607.00
695.9250, 30792.00
697.0790, 30527.00
698.2330, 30437.00
699.3870, 30235.00
700.5400, 30211.00
701.6940, 30183.00
702.8470, 30185.00
704.0000, 30200.00
705.1530, 30404.00
706.3050, 30233.03
707.4580, 30206.00
708.6100, 30069.00
709.7630, 29835.00
710.9150, 29907.00
712.0660, 29533.00
713.2180, 29683.00
714.3700, 29706.00
715.5210, 29775.00
716.6720, 29793.00
717.8240, 29638.00
718.9740, 29673.00
720.1250, 29595.00
721.2760, 29612.00
722.4260, 29682.00
723.5770, 29609.00
724.7270, 29854.00
725.8770, 29729.00
727.0260, 29398.00
728.1760, 29370.00
729.3250, 29497.00
730.4750, 29486.00
731.6240, 29452.00
732.7730, 29687.00
733.9220, 29617.89
735.0700, 29660.00
736.2190, 29585.00
737.3670, 29549.00
738.5150, 29545.91
739.6630, 29293.00
740.8110, 29529.00
741.9590, 29547.00
743.1060, 29585.00
744.2540, 29399.00
745.4010, 29489.00
746.5480, 29543.00
747.6950, 29641.00
748.8410, 29330.70
749.9880, 29524.70
751.1340, 29633.68
752.2800, 29662.24
753.4260, 29369.45
754.5720, 29491.61
755.7180, 29447.48
756.8640, 29396.53
758.0090, 29577.09
759.1540, 29331.04
760.2990, 29507.93
761.4440, 29515.99
762.5890, 29601.32
763.7340, 29487.00
764.8780, 29565.00
766.0220, 29728.00
767.1660, 29726.00
768.3100, 29652.00
769.4540, 29609.00
770.5980, 29581.35
771.7410, 29601.00
772.8840, 29545.00
774.0280, 29666.00
775.1700, 29730.00
776.3130, 29670.35
777.4560, 29680.89
778.5980, 29647.00
779.7410, 29516.00
780.8830, 29638.00
782.0250, 29479.00
783.1670, 29550.00
784.3080, 29542.00
785.4500, 29545.00
786.5910, 29478.00
787.7320, 29524.00
788.8730, 29512.00
790.0140, 29607.00
791.1550, 29536.00
792.2950, 29671.00
793.4360, 29687.00
794.5760, 29634.00
795.7160, 29896.00
796.8560, 29490.00
797.9960, 29769.00
799.1350, 29579.00
800.2750, 29749.00
801.4140, 29573.00
802.5530, 29649.00
803.6920, 29715.00
804.8310, 29784.00
805.9690, 29925.00
807.1080, 29689.00
808.2460, 29933.00
809.3840, 29707.00
810.5220, 29828.00
811.6600, 29729.00
812.7970, 29673.00
813.9350, 29822.00
815.0720, 29772.00
816.2090, 29857.00
817.3460, 29973.00
818.4830, 29972.00
819.6200, 30018.00
820.7560, 30060.00
821.8930, 29924.00
823.0290, 29887.00
824.1650, 29728.00
825.3010, 29918.00
826.4360, 29789.00
827.5720, 29860.00
828.7070, 30101.00
829.8420, 30019.00
830.9770, 29925.00
832.1120, 29845.00
833.2470, 30031.00
834.3820, 30056.00
835.5160, 29970.00
836.6500, 30236.00
837.7840, 29965.00
838.9180, 30231.00
840.0520, 30077.00
841.1860, 30354.00
842.3190, 30236.00
843.4520, 29886.02
844.5850, 30091.37
845.7180, 30211.71
846.8510, 30251.62
847.9840, 29970.19
849.1160, 30103.70
850.2490, 30070.93
851.3810, 30031.32
852.5130, 30223.23
853.6450, 29988.53
854.7760, 30176.76
855.9080, 30126.00
857.0390, 30217.00
858.1700, 30055.00
859.3010, 30133.00
860.4320, 30478.00
861.5630, 30272.00
862.6930, 30389.00
863.8240, 30326.00
864.9540, 30337.00
866.0840, 30341.00
867.2140, 30457.00
868.3440, 30497.00
869.4730, 30392.00
870.6030, 30530.36
871.7320, 30471.00
872.8610, 30612.00
873.9900, 30648.00
875.1190, 30553.00
876.2470, 30559.00
877.3760, 30448.00
878.5040, 30746.00
879.6320, 30802.00
880.7600, 30568.00
881.8880, 30933.00
883.0150, 30471.00
884.1430, 30626.00
885.2700, 30661.75
886.3970, 30562.67
887.5240, 30790.00
888.6510, 30610.00
889.7780, 30709.00
890.9040, 30710.00
892.0310, 30815.00
893.1570, 30793.00
894.2830, 30932.00
895.4090, 30746.00
896.5350, 30833.00
897.6600, 30688.00
898.7860, 31059.00
899.9110, 30929.00
901.0360, 31185.00
902.1610, 30879.00
903.2860, 31130.00
904.4100, 31015.00
905.5350, 30982.00
906.6590, 31174.00
907.7830, 31199.00
908.9070, 30954.00
910.0310, 31303.00
911.1540, 31184.00
912.2780, 31270.00
913.4010, 31449.00
914.5240, 31066.00
915.6470, 31270.00
916.7700, 31128.00
917.8930, 31231.00
919.0150, 31328.00
920.1380, 31435.00
921.2600, 31455.00
922.3820, 31460.00
923.5040, 31308.00
924.6260, 31367.98
925.7470, 31436.00
926.8690, 31438.00
927.9900, 31488.95
929.1110, 31810.00
930.2320, 31348.63
931.3530, 31577.81
932.4730, 31721.96
933.5940, 31785.71
934.7140, 31528.09
935.8340, 31685.41
936.9540, 31676.44
938.0740, 31660.65
939.1930, 31876.35
940.3130, 31665.46
941.4320, 31877.49
942.5510, 31620.00
943.6700, 32061.00
944.7890, 31843.00
945.9080, 31972.20
947.0260, 32062.00
948.1450, 32110.00
949.2630, 32041.00
950.3810, 32075.00
951.4990, 31902.00
952.6170, 32134.00
953.7340, 31876.00
954.8520, 31967.00
955.9690, 32148.00
957.0860, 32115.00
958.2030, 32040.00
959.3200, 32089.00
960.4360, 31857.00
961.5530, 32469.00
962.6690, 32267.00
963.7850, 32532.00
964.9010, 32432.00
966.0170, 32397.00
967.1330, 32130.00
968.2480, 32349.00
969.3630, 32248.00
970.4790, 32232.00
971.5940, 32298.00
972.7080, 32231.00
973.8230, 32206.00
974.9380, 32367.00
976.0520, 32487.00
977.1660, 32525.46
978.2800, 32528.00
979.3940, 32597.00
980.5080, 32666.00
981.6220, 32556.00
982.7350, 32633.00
983.8480, 32614.00
984.9610, 32538.00
986.0740, 32610.00
987.1870, 32642.00
988.3000, 32658.00
989.4120, 32647.00
990.5250, 32676.00
991.6370, 32645.00
992.7490, 32731.00
993.8610, 32761.00
994.9720, 32759.78
996.0840, 32742.28
997.1950, 32732.00
998.3060, 32752.00
999.4170, 32654.00
1000.528, 32906.00
1001.639, 32759.00
1002.750, 32765.00
1003.860, 32567.00
1004.970, 32983.00
1006.080, 32759.00
1007.190, 32750.00
1008.300, 33073.00
1009.410, 32715.00
1010.519, 32782.00
1011.628, 32885.00
1012.738, 32587.00
1013.846, 32916.00
1014.955, 32663.00
1016.064, 32869.00
1017.172, 32827.00
1018.281, 33055.00
1019.389, 32890.00
1020.497, 33094.00
1021.605, 32989.00
1022.713, 32819.00
1023.820, 33087.00
1024.928, 33103.00
1026.035, 33083.00
1027.142, 33178.00
1028.249, 33165.00
1029.356, 33293.00
1030.462, 33052.00
1031.569, 33393.00
1032.675, 33203.00
1033.781, 33529.00
1034.887, 33321.00
1035.993, 33425.00
1037.098, 33527.00
1038.204, 33364.00
1039.309, 33625.00
1040.415, 33555.00
1041.520, 33651.00
1042.624, 33731.00
1043.729, 33770.41
1044.834, 33670.00
1045.938, 33986.00
1047.042, 33811.00
1048.146, 34009.00
1049.250, 34180.00
1050.354, 34069.00
1051.458, 34130.00
1052.561, 34168.00
1053.664, 34172.00
1054.767, 34241.00
1055.870, 34140.00
1056.973, 34208.00
1058.076, 34107.00
1059.178, 33961.16
1060.281, 34182.86
1061.383, 34319.52
1062.485, 34375.75
1063.587, 34110.63
1064.688, 34260.44
1065.790, 34243.98
1066.891, 34220.68
1067.993, 34428.92
1069.094, 34210.52
1070.195, 34135.00
1071.295, 34239.00
1072.396, 34541.00
1073.496, 34424.00
1074.597, 34333.00
1075.697, 34216.00
1076.797, 34246.00
1077.897, 34464.00
1078.996, 34284.00
1080.096, 34352.00
1081.195, 34250.00
1082.294, 34115.00
1083.393, 34347.00
1084.492, 34273.00
1085.591, 34393.00
1086.689, 34240.00
1087.788, 34314.00
1088.886, 34292.00
1089.984, 34490.00
1091.082, 34140.00
1092.180, 34213.00
1093.277, 34342.00
1094.375, 34264.00
1095.472, 34297.00
1096.569, 34209.57
1097.666, 34164.00
1098.763, 34099.00
1099.860, 34030.00
1100.956, 34241.00
1102.053, 34023.00
1103.149, 34232.00
1104.245, 34089.00
1105.341, 34223.00
1106.436, 34139.59
1107.532, 33979.00
1108.627, 34093.00
1109.723, 33939.00
1110.818, 34199.00
1111.913, 34195.00
1113.007, 34062.00
1114.102, 34167.00
1115.197, 34095.00
1116.291, 34125.00
1117.385, 33952.14
1118.479, 34134.79
1119.573, 34232.44
1120.666, 34249.66
1121.760, 33945.54
1122.853, 34056.36
1123.947, 34000.89
1125.040, 33938.61
1126.132, 34107.86
1127.225, 33850.48
1128.318, 34016.04
1129.410, 34012.79
1130.502, 34086.80
1131.595, 33993.48
1132.687, 33951.85
1133.778, 33755.00
1134.870, 33951.00
1135.961, 33887.00
1137.053, 34120.00
1138.144, 33936.11
1139.235, 34060.00
1140.326, 33612.00
1141.416, 33710.00
1142.507, 33630.00
1143.597, 33541.00
1144.688, 33826.00
1145.778, 33697.00
1146.868, 33839.00
1147.957, 33712.00
1149.047, 33736.00
1150.136, 33732.00
1151.226, 33676.00
1152.315, 33687.00
1153.404, 33530.00
1154.493, 33607.00
1155.581, 33746.00
1156.670, 33607.00
1157.758, 33480.00
1158.846, 33791.00
1159.934, 33802.00
1161.022, 33527.00
1162.110, 33767.00
1163.198, 33552.00
1164.285, 33282.00
1165.372, 33697.00
1166.459, 33354.00
1167.546, 33650.00
1168.633, 33636.00
1169.720, 33605.00
1170.806, 33870.00
1171.892, 33597.00
1172.979, 33443.00
1174.065, 33730.00
1175.150, 33494.00
1176.236, 33708.00
1177.322, 33580.00
1178.407, 33833.00
1179.492, 33672.00
1180.577, 33732.00
1181.662, 33584.00
1182.747, 33697.60
1183.832, 33595.00
1184.916, 33840.00
1186.000, 33772.00
1187.084, 33631.00
1188.168, 33939.00
1189.252, 33983.00
1190.336, 33762.00
1191.419, 33804.00
1192.503, 33776.00
1193.586, 33649.00
1194.669, 33912.00
1195.752, 33721.00
1196.835, 33864.00
1197.917, 33936.00
1199.000, 33813.00
1200.082, 33956.00
1201.164, 33905.00
1202.246, 33928.00
1203.328, 34042.00
1204.409, 34052.00
1205.491, 33974.00
1206.572, 33829.00
1207.653, 34187.00
1208.734, 33895.00
1209.815, 33933.00
1210.896, 34205.00
1211.976, 34114.00
1213.057, 34441.00
1214.137, 34103.00
1215.217, 34049.00
1216.297, 34047.00
1217.377, 34030.00
1218.456, 34224.00
1219.536, 34313.00
1220.615, 33982.00
1221.694, 34248.00
1222.773, 34162.09
1223.852, 34230.00
1224.931, 34269.00
1226.009, 34167.00
1227.088, 34327.00
1228.166, 34307.00
1229.244, 34622.00
1230.322, 34251.00
1231.400, 34700.00
1232.477, 34485.00
1233.555, 34322.00
1234.632, 34721.00
1235.709, 34448.21
1236.786, 34669.71
1237.863, 34806.21
1238.939, 34862.25
1240.016, 34596.96
1241.092, 34746.61
1242.168, 34729.96
1243.245, 34706.52
1244.320, 34914.54
1245.396, 34695.97
1246.472, 34900.35
1247.547, 34935.86
1248.622, 35048.65
1249.697, 35175.00
1250.772, 34932.00
1251.847, 34893.00
1252.922, 34940.00
1253.996, 35253.00
1255.071, 35125.00
1256.145, 35326.00
1257.219, 35228.00
1258.293, 35407.00
1259.366, 35266.00
1260.440, 35426.00
1261.513, 35486.00
1262.587, 35506.09
1263.660, 35625.00
1264.733, 35694.00
1265.805, 35762.00
1266.878, 35977.00
1267.951, 35984.00
1269.023, 36074.48
1270.095, 36114.75
1271.167, 36133.00
1272.239, 36200.00
1273.311, 36156.00
1274.382, 36351.00
1275.454, 36350.00
1276.525, 36661.00
1277.596, 36635.26
1278.667, 36699.00
1279.738, 36648.00
1280.808, 36876.00
1281.879, 36836.00
1282.949, 37039.00
1284.019, 37104.00
1285.089, 37069.00
1286.159, 37157.00
1287.229, 37353.00
1288.298, 37319.00
1289.368, 37371.09
1290.437, 37680.17
1291.506, 37904.25
1292.575, 38047.88
1293.644, 37870.20
1294.712, 38107.33
1295.781, 38178.29
1296.849, 38242.31
1297.917, 38537.85
1298.985, 38406.78
1300.053, 38698.65
1301.121, 38821.69
1302.188, 39021.89
