##NAMES=Hematite
##RRUFFID=R040024
##IDEAL CHEMISTRY=Fe^3+^_2_O_3_
##LOCALITY=near Covered Wells, Papago Indian Reservation, Arizona, USA
##OWNER=RRUFF
##SOURCE=University of Arizona Mineral Museum
##DESCRIPTION=Reddish-black foliatated mass
##STATUS=The identification of this mineral has been confirmed by X-ray diffraction and chemical analysis
##URL=rruff.info/R040024
##MEASURED CHEMISTRY=(Fe_1.99_Al_0.01_)_Î£=2_O_3_
##PIN_ID=M01935
##ORIENTATION=Laser parallel to -a* (-1 0 0). Fiducial mark perpendicular to laser is parallel to c [0 0 1]
127.7920, 29029.00
129.0260, 28667.00
130.2590, 28610.00
131.4920, 28731.00
132.7250, 28649.00
133.9580, 28291.00
135.1910, 28182.00
136.4230, 28100.00
137.6560, 28342.00
138.8880, 28561.00
140.1200, 28403.00
141.3520, 28133.00
142.5830, 27532.00
143.8150, 27527.00
145.0460, 27397.00
146.2770, 27347.00
147.5080, 27355.00
148.7390, 27058.00
149.9700, 27056.00
151.2000, 26884.00
152.4310, 27025.00
153.6610, 26823.00
154.8910, 26836.00
156.1210, 26924.00
157.3500, 26519.00
158.5800, 26731.00
159.8090, 26529.00
161.0380, 26521.00
162.2670, 26534.00
163.4960, 26406.00
164.7240, 26317.00
165.9530, 26237.00
167.1810, 26325.00
168.4090, 26266.00
169.6370, 26200.00
170.8650, 26241.00
172.0920, 26146.00
173.3200, 26429.00
174.5470, 26312.00
175.7740, 26106.00
177.0010, 25655.00
178.2280, 26172.00
179.4540, 25910.00
180.6810, 25946.00
181.9070, 25784.00
183.1330, 25753.00
184.3590, 25907.00
185.5850, 25737.00
186.8100, 25871.00
188.0350, 25791.00
189.2610, 25803.00
190.4860, 25786.00
191.7110, 25815.45
192.9350, 25872.01
194.1600, 25901.00
195.3840, 26012.00
196.6080, 26022.00
197.8320, 26072.00
199.0560, 25928.26
200.2800, 26113.25
201.5030, 26213.24
202.7270, 26232.79
203.9500, 25931.01
205.1730, 26044.18
206.3950, 26002.00
207.6180, 25909.00
208.8410, 25791.00
210.0630, 25806.00
211.2850, 25787.00
212.5070, 26089.00
213.7290, 25860.00
214.9500, 26056.00
216.1720, 26338.00
217.3930, 26281.00
218.6140, 26284.00
219.8350, 26187.00
221.0560, 26470.00
222.2770, 26648.00
223.4970, 26586.00
224.7170, 26796.00
225.9370, 26563.00
227.1570, 26630.00
228.3770, 26589.00
229.5970, 26560.00
230.8160, 26767.00
232.0350, 26765.00
233.2540, 26593.00
234.4730, 26745.00
235.6920, 26684.00
236.9110, 26699.00
238.1290, 26929.00
239.3470, 26649.00
240.5650, 26806.00
241.7830, 26897.95
243.0010, 27330.00
244.2180, 27110.00
245.4360, 27275.00
246.6530, 27278.00
247.8700, 27175.00
249.0870, 27067.00
250.3040, 26975.00
251.5200, 26772.12
252.7370, 26617.00
253.9530, 26463.00
255.1690, 26412.00
256.3850, 26316.65
257.6000, 26260.63
258.8160, 26276.00
260.0310, 26176.00
261.2460, 26276.00
262.4610, 26230.00
263.6760, 26430.00
264.8910, 26301.00
266.1050, 26425.00
267.3200, 26278.00
268.5340, 26439.00
269.7480, 26187.00
270.9620, 26295.00
272.1750, 26289.00
273.3890, 26223.00
274.6020, 26361.00
275.8150, 26306.00
277.0280, 26353.00
278.2410, 26656.00
279.4540, 26440.00
280.6660, 26626.00
281.8790, 26450.06
283.0910, 26778.18
284.3030, 27011.34
285.5140, 27154.02
286.7260, 26965.50
287.9380, 27181.97
289.1490, 27222.13
290.3600, 27245.53
291.5710, 27490.51
292.7820, 27298.93
293.9920, 27520.32
295.2030, 27562.98
296.4130, 27672.95
297.6230, 27625.00
298.8330, 27700.00
300.0430, 27723.00
301.2520, 27698.00
302.4620, 27506.00
303.6710, 27505.00
304.8800, 27522.00
306.0890, 27704.00
307.2980, 27601.00
308.5070, 27672.00
309.7150, 27662.00
310.9230, 27582.00
312.1310, 27595.95
313.3390, 27584.23
314.5470, 27501.00
315.7550, 27631.00
316.9620, 27548.00
318.1690, 27628.00
319.3760, 27424.00
320.5830, 27560.00
321.7900, 27556.00
322.9960, 27222.00
324.2030, 27370.00
325.4090, 27125.00
326.6150, 27260.00
327.8210, 27509.00
329.0270, 27191.00
330.2320, 27258.00
331.4380, 27127.00
332.6430, 27134.00
333.8480, 27283.00
335.0530, 27039.00
336.2580, 26924.00
337.4620, 27087.00
338.6670, 27070.00
339.8710, 26915.00
341.0750, 27318.00
342.2790, 27044.00
343.4820, 27117.00
344.6860, 27098.32
345.8890, 27102.15
347.0920, 27117.46
348.2960, 27105.01
349.4980, 27092.00
350.7010, 27126.00
351.9040, 27073.00
353.1060, 27136.00
354.3080, 27277.00
355.5100, 26975.00
356.7120, 27487.00
357.9140, 27146.00
359.1150, 27424.00
360.3170, 27364.00
361.5180, 27351.00
362.7190, 27452.00
363.9200, 27230.00
365.1200, 27358.00
366.3210, 27391.00
367.5210, 27466.00
368.7210, 27414.00
369.9210, 27596.00
371.1210, 27582.00
372.3210, 27664.00
373.5200, 27708.27
374.7200, 27692.00
375.9190, 27752.00
377.1180, 27751.00
378.3170, 27771.00
379.5150, 27851.00
380.7140, 27892.00
381.9120, 27712.00
383.1110, 28163.00
384.3090, 27906.00
385.5060, 28014.00
386.7040, 27831.00
387.9020, 28254.00
389.0990, 28193.00
390.2960, 28160.00
391.4930, 28423.00
392.6900, 28500.00
393.8860, 28277.00
395.0830, 28473.43
396.2790, 28352.00
397.4750, 28516.00
398.6710, 28704.00
399.8670, 28664.00
401.0630, 28919.00
402.2580, 28925.00
403.4540, 29321.00
404.6490, 29447.00
405.8440, 29482.00
407.0390, 29724.00
408.2330, 29813.00
409.4280, 30444.00
410.6220, 30518.00
411.8160, 30881.00
413.0100, 30853.00
414.2040, 31263.00
415.3980, 31378.00
416.5910, 31682.00
417.7850, 31853.00
418.9780, 32023.00
420.1710, 32119.00
421.3640, 31994.00
422.5560, 31930.00
423.7490, 31992.00
424.9410, 31694.00
426.1330, 31486.00
427.3250, 31642.00
428.5170, 31248.00
429.7090, 31059.00
430.9000, 30925.00
432.0910, 30644.72
433.2820, 30474.86
434.4730, 30229.00
435.6640, 30063.00
436.8550, 29838.00
438.0450, 29649.00
439.2360, 29457.00
440.4260, 29516.00
441.6160, 29435.00
442.8060, 29396.00
443.9950, 29272.00
445.1850, 29284.00
446.3740, 29206.00
447.5630, 29376.00
448.7520, 29402.00
449.9410, 29394.17
451.1300, 29337.11
452.3180, 29491.00
453.5060, 29089.00
454.6950, 29315.00
455.8830, 29238.00
457.0700, 29336.00
458.2580, 29432.00
459.4450, 29233.00
460.6330, 29246.00
461.8200, 29379.00
463.0070, 29346.00
464.1940, 29396.00
465.3800, 29344.00
466.5670, 29351.00
467.7530, 29236.82
468.9390, 29455.15
470.1250, 29588.48
471.3110, 29641.38
472.4970, 29372.93
473.6820, 29519.41
474.8680, 29499.62
476.0530, 29472.99
477.2380, 29677.87
478.4230, 29456.14
479.6070, 29657.33
480.7920, 29689.71
481.9760, 29799.35
483.1600, 29863.00
484.3440, 30109.00
485.5280, 30067.00
486.7120, 30122.00
487.8950, 30031.00
489.0780, 30196.00
490.2620, 30454.00
491.4450, 30626.00
492.6270, 30579.00
493.8100, 30779.00
494.9920, 30733.00
496.1750, 30797.00
497.3570, 30919.00
498.5390, 31017.00
499.7210, 31052.00
500.9020, 31238.00
502.0840, 31057.00
503.2650, 30931.00
504.4460, 31284.00
505.6270, 31238.00
506.8080, 31008.00
507.9890, 31182.00
509.1690, 31061.24
510.3500, 31015.48
511.5300, 31074.00
512.7100, 30937.00
513.8900, 31041.00
515.0690, 31052.00
516.2490, 30878.00
517.4280, 30876.00
518.6070, 30837.00
519.7860, 31065.00
520.9650, 30860.00
522.1440, 31026.00
523.3220, 30804.00
524.5010, 30947.00
525.6790, 30945.00
526.8570, 30920.57
528.0350, 30907.29
529.2130, 30953.00
530.3900, 30837.00
531.5670, 30815.00
532.7450, 30939.00
533.9220, 31025.00
535.0980, 30915.00
536.2750, 30860.05
537.4520, 31072.59
538.6280, 31200.12
539.8040, 31247.22
540.9800, 30972.97
542.1560, 31113.68
543.3320, 31088.09
544.5070, 31055.66
545.6830, 31254.77
546.8580, 31027.24
548.0330, 31222.66
549.2080, 31249.25
550.3830, 31353.11
551.5570, 31289.63
552.7310, 31312.00
553.9060, 31183.00
555.0800, 31386.00
556.2540, 31331.00
557.4270, 31075.69
558.6010, 31302.77
559.7740, 31444.81
560.9470, 31506.42
562.1210, 31246.71
563.2930, 31401.90
564.4660, 31390.82
565.6390, 31372.93
566.8110, 31586.52
567.9830, 31493.62
569.1550, 31490.00
570.3270, 31686.00
571.4990, 31739.00
572.6710, 31607.00
573.8420, 31714.00
575.0130, 31671.00
576.1840, 31314.00
577.3550, 31298.00
578.5260, 31294.00
579.6970, 31119.00
580.8670, 30792.00
582.0370, 30890.00
583.2070, 30674.75
584.3770, 30628.00
585.5470, 30490.00
586.7170, 30364.00
587.8860, 30278.00
589.0550, 30387.00
590.2240, 30450.00
591.3930, 30353.00
592.5620, 30446.00
593.7310, 30234.00
594.8990, 30166.00
596.0670, 30499.00
597.2350, 30276.20
598.4030, 30524.74
599.5710, 30688.27
600.7390, 30771.36
601.9060, 30533.07
603.0740, 30709.77
604.2410, 30720.14
605.4080, 30723.68
606.5740, 31052.00
607.7410, 31069.00
608.9080, 31297.00
610.0740, 31318.00
611.2400, 31382.00
612.4060, 31471.90
613.5720, 31502.00
614.7370, 31521.00
615.9030, 31678.00
617.0680, 31622.00
618.2330, 31841.00
619.3980, 31830.00
620.5630, 32023.00
621.7280, 32013.00
622.8920, 31799.00
624.0570, 32016.00
625.2210, 31846.00
626.3850, 31840.00
627.5490, 32017.00
628.7120, 31613.00
629.8760, 31522.00
631.0390, 31782.00
632.2020, 32023.00
633.3650, 31683.00
634.5280, 31707.00
635.6910, 31762.00
636.8530, 31939.00
638.0160, 31874.96
639.1780, 31633.00
640.3400, 31786.00
641.5020, 31689.00
642.6640, 31549.00
643.8250, 31715.00
644.9870, 31555.00
646.1480, 31627.00
647.3090, 31877.00
648.4700, 31598.00
649.6300, 31711.00
650.7910, 31813.00
651.9510, 31951.00
653.1120, 32155.00
654.2720, 32080.00
655.4320, 32115.00
656.5910, 32005.00
657.7510, 32250.00
658.9100, 32515.00
660.0690, 32476.00
661.2290, 32662.27
662.3880, 32691.00
663.5460, 32846.00
664.7050, 32971.00
665.8630, 33159.00
667.0220, 33027.00
668.1800, 33181.00
669.3380, 32996.00
670.4950, 33120.00
671.6530, 33354.00
672.8100, 33392.00
673.9680, 33157.00
675.1250, 33296.00
676.2820, 33157.00
677.4390, 33134.00
678.5950, 33328.00
679.7520, 33189.00
680.9080, 33129.00
682.0640, 32875.00
683.2200, 33127.00
684.3760, 32841.00
685.5320, 32914.00
686.6870, 32741.00
687.8420, 32755.00
688.9980, 32476.00
690.1530, 32152.00
691.3070, 32364.00
692.4620, 32015.00
693.6170, 32083.00
694.7710, 31929.00
695.9250, 31930.00
697.0790, 32043.23
698.2330, 32135.00
699.3870, 32145.00
700.5400, 31846.00
701.6940, 31520.00
702.8470, 31515.30
704.0000, 31371.97
705.1530, 31427.00
706.3050, 31226.00
707.4580, 31327.00
708.6100, 30995.00
709.7630, 31006.73
710.9150, 31037.90
712.0660, 30879.00
713.2180, 31071.00
714.3700, 31008.00
715.5210, 30828.00
716.6720, 30904.14
717.8240, 30594.00
718.9740, 30865.00
720.1250, 30588.00
721.2760, 30612.00
722.4260, 31197.00
723.5770, 30852.00
724.7270, 30787.00
725.8770, 30707.00
727.0260, 30532.00
728.1760, 30638.00
729.3250, 30492.00
730.4750, 30520.00
731.6240, 30652.00
732.7730, 30430.00
733.9220, 30691.00
735.0700, 30503.00
736.2190, 30660.00
737.3670, 30565.00
738.5150, 30531.00
739.6630, 30581.00
740.8110, 30585.00
741.9590, 30529.00
743.1060, 30487.00
744.2540, 30368.00
745.4010, 30698.00
746.5480, 30829.00
747.6950, 30669.00
748.8410, 30579.00
749.9880, 30682.00
751.1340, 30713.00
752.2800, 30714.00
753.4260, 30721.54
754.5720, 30658.83
755.7180, 30612.00
756.8640, 30553.00
758.0090, 30392.00
759.1540, 30441.00
760.2990, 30372.00
761.4440, 30509.00
762.5890, 30296.00
763.7340, 30575.00
764.8780, 30660.00
766.0220, 30573.00
767.1660, 30638.00
768.3100, 30555.00
769.4540, 30603.00
770.5980, 30539.65
771.7410, 30681.00
772.8840, 30440.00
774.0280, 30295.00
775.1700, 30289.00
776.3130, 30491.00
777.4560, 30550.00
778.5980, 30358.00
779.7410, 30252.00
780.8830, 30271.00
782.0250, 30489.00
783.1670, 30607.00
784.3080, 30472.00
785.4500, 30444.00
786.5910, 30494.46
787.7320, 30658.00
788.8730, 30491.00
790.0140, 30487.00
791.1550, 30350.00
792.2950, 30637.00
793.4360, 30283.00
794.5760, 30721.00
795.7160, 30424.00
796.8560, 30770.00
797.9960, 30764.00
799.1350, 30514.00
800.2750, 30237.00
801.4140, 30682.00
802.5530, 30746.00
803.6920, 30651.00
804.8310, 30771.00
805.9690, 30685.00
807.1080, 30668.00
808.2460, 30615.00
809.3840, 30720.00
810.5220, 30632.00
811.6600, 30484.00
812.7970, 30718.00
813.9350, 30830.00
815.0720, 30516.00
816.2090, 31080.00
817.3460, 31123.00
818.4830, 30480.00
819.6200, 30789.00
820.7560, 30595.46
821.8930, 31065.00
823.0290, 30587.00
824.1650, 30699.00
825.3010, 30743.00
826.4360, 30695.00
827.5720, 30870.00
828.7070, 30806.00
829.8420, 30908.00
830.9770, 31033.00
832.1120, 30952.53
833.2470, 31004.00
834.3820, 30886.00
835.5160, 31020.00
836.6500, 31029.00
837.7840, 30913.00
838.9180, 30945.00
840.0520, 30945.52
841.1860, 31036.00
842.3190, 30995.00
843.4520, 31105.00
844.5850, 31121.00
845.7180, 31091.00
846.8510, 31071.00
847.9840, 30928.00
849.1160, 31146.00
850.2490, 30948.00
851.3810, 31210.00
852.5130, 31051.00
853.6450, 31053.00
854.7760, 31137.00
855.9080, 30895.00
857.0390, 31194.00
858.1700, 30757.00
859.3010, 30936.00
860.4320, 31207.00
861.5630, 31290.00
862.6930, 31307.00
863.8240, 31275.00
864.9540, 31124.00
866.0840, 31369.00
867.2140, 31272.00
868.3440, 31337.00
869.4730, 31603.00
870.6030, 31300.00
871.7320, 31159.00
872.8610, 31192.00
873.9900, 31541.00
875.1190, 31440.00
876.2470, 31385.00
877.3760, 31567.49
878.5040, 31428.57
879.6320, 31610.00
880.7600, 31452.00
881.8880, 31178.00
883.0150, 31419.00
884.1430, 31419.00
885.2700, 31522.00
886.3970, 31553.00
887.5240, 31394.00
888.6510, 31450.85
889.7780, 31766.00
890.9040, 31369.00
892.0310, 31558.00
893.1570, 31507.00
894.2830, 31388.00
895.4090, 31342.00
896.5350, 31578.00
897.6600, 31819.00
898.7860, 31789.00
899.9110, 31511.57
901.0360, 31731.89
902.1610, 31867.20
903.2860, 31922.08
904.4100, 31655.59
905.5350, 31804.07
906.6590, 31786.23
907.7830, 31761.58
908.9070, 31968.44
910.0310, 31748.69
911.1540, 31951.86
912.2780, 31986.22
913.4010, 32097.82
914.5240, 32082.00
915.6470, 32171.00
916.7700, 32018.00
917.8930, 31807.00
919.0150, 32029.00
920.1380, 32111.00
921.2600, 31872.00
922.3820, 31999.00
923.5040, 32001.00
924.6260, 32099.00
925.7470, 32219.00
926.8690, 32005.00
927.9900, 32128.00
929.1110, 32377.00
930.2320, 32114.00
931.3530, 32376.00
932.4730, 32114.00
933.5940, 32474.00
934.7140, 32173.00
935.8340, 32309.00
936.9540, 32307.00
938.0740, 32283.00
939.1930, 32319.00
940.3130, 32477.00
941.4320, 32426.00
942.5510, 32557.00
943.6700, 32406.00
944.7890, 32541.00
945.9080, 32519.00
947.0260, 32491.00
948.1450, 32468.00
949.2630, 32523.00
950.3810, 32585.54
951.4990, 32736.00
952.6170, 32813.00
953.7340, 32730.00
954.8520, 32870.00
955.9690, 32678.00
957.0860, 32442.00
958.2030, 32639.00
959.3200, 32655.00
960.4360, 32810.00
961.5530, 32680.00
962.6690, 32880.00
963.7850, 32931.00
964.9010, 32886.70
966.0170, 32947.00
967.1330, 32826.00
968.2480, 33092.00
969.3630, 33043.00
970.4790, 32690.00
971.5940, 32914.00
972.7080, 32713.00
973.8230, 32959.00
974.9380, 32947.00
976.0520, 33131.00
977.1660, 32989.00
978.2800, 33060.00
979.3940, 33034.00
980.5080, 32959.32
981.6220, 32996.00
982.7350, 33003.73
983.8480, 32993.34
984.9610, 33103.00
986.0740, 33023.00
987.1870, 33090.00
988.3000, 33130.00
989.4120, 33240.00
990.5250, 33272.00
991.6370, 33300.00
992.7490, 33340.65
993.8610, 33223.00
994.9720, 33375.00
996.0840, 33406.00
997.1950, 33437.00
998.3060, 33264.00
999.4170, 33433.00
1000.528, 33474.00
1001.639, 33228.22
1002.750, 33417.49
1003.860, 33521.77
1004.970, 33545.61
1006.080, 33248.10
1007.190, 33365.55
1008.300, 33316.70
1009.410, 33261.04
1010.519, 33436.89
1011.628, 33186.13
1012.738, 33420.00
1013.846, 33436.00
1014.955, 33488.00
1016.064, 33525.00
1017.172, 33386.00
1018.281, 33642.00
1019.389, 33523.00
1020.497, 33337.00
1021.605, 33847.00
1022.713, 33674.00
1023.820, 33636.00
1024.928, 33838.00
1026.035, 33437.00
1027.142, 33563.00
1028.249, 33609.00
1029.356, 33767.00
1030.462, 33712.00
1031.569, 34006.00
1032.675, 33782.00
1033.781, 33965.00
1034.887, 33972.00
1035.993, 34065.00
1037.098, 34104.09
1038.204, 33943.00
1039.309, 34165.00
1040.415, 33968.00
1041.520, 34041.00
1042.624, 34042.00
1043.729, 34182.00
1044.834, 34025.00
1045.938, 34308.00
1047.042, 34290.00
1048.146, 34409.00
1049.250, 34238.00
1050.354, 34458.00
1051.458, 34367.00
1052.561, 34691.00
1053.664, 34332.00
1054.767, 34412.00
1055.870, 34429.00
1056.973, 34551.00
1058.076, 34505.00
1059.178, 34687.00
1060.281, 34679.67
1061.383, 34788.00
1062.485, 34751.00
1063.587, 34608.00
1064.688, 34671.00
1065.790, 34549.00
1066.891, 34665.00
1067.993, 34527.00
1069.094, 34906.00
1070.195, 34580.00
1071.295, 34892.00
1072.396, 34500.00
1073.496, 34640.02
1074.597, 34656.83
1075.697, 34764.00
1076.797, 34694.00
1077.897, 34708.00
1078.996, 34673.00
1080.096, 34790.00
1081.195, 34774.00
1082.294, 34699.00
1083.393, 34810.57
1084.492, 34808.00
1085.591, 34872.00
1086.689, 34780.34
1087.788, 34666.00
1088.886, 34729.00
1089.984, 34655.00
1091.082, 34766.00
1092.180, 34665.00
1093.277, 34568.00
1094.375, 34694.00
1095.472, 34739.00
1096.569, 34551.00
1097.666, 34849.00
1098.763, 34738.00
1099.860, 34776.00
1100.956, 34629.00
1102.053, 34526.00
1103.149, 34814.00
1104.245, 34756.00
1105.341, 34514.00
1106.436, 34756.00
1107.532, 34603.00
1108.627, 34561.00
1109.723, 34622.00
1110.818, 34501.00
1111.913, 34543.00
1113.007, 34769.00
1114.102, 34239.00
1115.197, 34532.00
1116.291, 34283.00
1117.385, 34468.00
1118.479, 34745.00
1119.573, 34472.00
1120.666, 34469.00
1121.760, 34456.00
1122.853, 34474.00
1123.947, 34473.21
1125.040, 34512.00
1126.132, 34468.00
1127.225, 34500.00
1128.318, 34450.00
1129.410, 34476.00
1130.502, 34438.00
1131.595, 34354.00
1132.687, 34336.00
1133.778, 34264.00
1134.870, 34386.00
1135.961, 34231.00
1137.053, 34370.00
1138.144, 34200.00
1139.235, 34044.00
1140.326, 34259.00
1141.416, 34219.00
1142.507, 34119.00
1143.597, 34249.00
1144.688, 34390.00
1145.778, 33929.90
1146.868, 34116.66
1147.957, 34218.41
1149.047, 34239.73
1150.136, 33939.72
1151.226, 34054.64
1152.315, 34003.28
1153.404, 33945.10
1154.493, 34118.43
1155.581, 33865.16
1156.670, 34034.82
1157.758, 34035.66
1158.846, 34113.77
1159.934, 34024.56
1161.022, 33910.00
1162.110, 33858.00
1163.198, 33910.53
1164.285, 34051.00
1165.372, 33915.00
1166.459, 34007.00
1167.546, 33854.00
1168.633, 33947.00
1169.720, 33905.00
1170.806, 34043.00
1171.892, 34102.00
1172.979, 34029.00
1174.065, 34181.00
1175.150, 33935.00
1176.236, 34087.00
1177.322, 34131.89
1178.407, 34097.73
1179.492, 34275.00
1180.577, 34165.00
1181.662, 34113.00
1182.747, 34132.00
1183.832, 34093.04
1184.916, 34209.00
1186.000, 34161.00
1187.084, 34218.33
1188.168, 34173.00
1189.252, 34286.00
1190.336, 34293.00
1191.419, 34293.73
1192.503, 34414.00
1193.586, 34228.00
1194.669, 34162.00
1195.752, 34242.00
1196.835, 34342.00
1197.917, 34202.00
1199.000, 34365.00
1200.082, 34294.00
1201.164, 34347.00
1202.246, 34303.00
1203.328, 34757.00
1204.409, 34466.00
1205.491, 34307.00
1206.572, 34608.00
1207.653, 34271.00
1208.734, 34481.00
1209.815, 34305.00
1210.896, 34435.00
1211.976, 34566.00
1213.057, 34410.00
1214.137, 34498.00
1215.217, 34369.00
1216.297, 34422.00
1217.377, 34482.00
1218.456, 34384.00
1219.536, 34459.00
1220.615, 34660.00
1221.694, 34496.00
1222.773, 34499.00
1223.852, 34674.00
1224.931, 35214.00
1226.009, 35136.00
1227.088, 34901.00
1228.166, 34575.00
1229.244, 34586.00
1230.322, 34763.00
1231.400, 34905.00
1232.477, 34879.00
1233.555, 34996.00
1234.632, 34866.00
1235.709, 34906.00
1236.786, 34757.00
1237.863, 34755.00
1238.939, 35044.00
1240.016, 34939.00
1241.092, 34770.00
1242.168, 35288.00
1243.245, 35267.00
1244.320, 35034.00
1245.396, 34977.00
1246.472, 35077.00
1247.547, 35150.00
1248.622, 35190.00
1249.697, 35221.00
1250.772, 35314.00
1251.847, 35409.00
1252.922, 35418.00
1253.996, 35483.00
1255.071, 35410.00
1256.145, 35250.00
1257.219, 35402.00
1258.293, 35586.00
1259.366, 35536.00
1260.440, 35744.00
1261.513, 35792.67
1262.587, 35826.00
1263.660, 35866.00
1264.733, 35946.00
1265.805, 35803.00
1266.878, 35686.00
1267.951, 36253.00
1269.023, 36171.00
1270.095, 36294.00
1271.167, 36117.00
1272.239, 36297.00
1273.311, 36404.00
1274.382, 36649.00
1275.454, 36571.00
1276.525, 36475.00
1277.596, 36480.00
1278.667, 36601.00
1279.738, 36576.00
1280.808, 36724.44
1281.879, 36889.00
1282.949, 36956.00
1284.019, 37143.00
1285.089, 37174.00
1286.159, 37382.00
1287.229, 37411.00
1288.298, 37544.00
1289.368, 37483.00
1290.437, 37675.00
1291.506, 37826.00
1292.575, 37616.00
1293.644, 37890.00
1294.712, 37930.00
1295.781, 37994.00
1296.849, 38210.00
1297.917, 38315.00
1298.985, 38435.00
1300.053, 38593.31
1301.121, 38505.00
1302.188, 38803.00
