##NAMES=Hematite
##RRUFFID=R040024
##IDEAL CHEMISTRY=Fe^3+^_2_O_3_
##LOCALITY=near Covered Wells, Papago Indian Reservation, Arizona, USA
##OWNER=RRUFF
##SOURCE=University of Arizona Mineral Museum
##DESCRIPTION=Reddish-black foliatated mass
##STATUS=The identification of this mineral has been confirmed by X-ray diffraction and chemical analysis
##URL=rruff.info/R040024
##MEASURED CHEMISTRY=(Fe_1.99_Al_0.01_)_Î£=2_O_3_
##PIN_ID=M00584
##ORIENTATION=Laser parallel to c* (0 0 1). Fiducial mark perpendicular to laser is parallel to b [0 1 0]
103.0560, 13300.00
104.2930, 13643.00
105.5290, 14700.00
106.7660, 16063.00
108.0020, 16502.00
109.2390, 16970.00
110.4750, 17058.00
111.7110, 17493.00
112.9460, 20184.00
114.1820, 23171.00
115.4170, 24124.00
116.6530, 26422.00
117.8880, 28045.00
119.1230, 28689.00
120.3580, 27815.00
121.5920, 26446.00
122.8270, 22153.00
124.0610, 18850.00
125.2950, 16236.09
126.5290, 16409.48
127.7630, 16456.09
128.9970, 16382.95
130.2300, 15817.94
131.4640, 15898.51
132.6970, 15726.76
133.9300, 15549.02
135.1630, 15733.52
136.3950, 15263.47
137.6280, 15451.36
138.8600, 15382.99
140.0920, 15438.53
141.3240, 15240.08
142.5560, 15126.00
143.7880, 15275.06
145.0190, 15285.49
146.2510, 15075.38
147.4820, 15165.71
148.7130, 14731.92
149.9440, 14766.54
151.1750, 15005.81
152.4050, 14831.37
153.6360, 14949.01
154.8660, 14961.66
156.0960, 14481.02
157.3260, 14870.61
158.5560, 14890.32
159.7850, 14530.12
161.0150, 14903.58
162.2440, 14605.39
163.4730, 14553.05
164.7020, 14686.85
165.9310, 14635.80
167.1590, 15031.38
168.3880, 14679.00
169.6160, 14797.00
170.8440, 14945.00
172.0720, 14707.00
173.3000, 14916.00
174.5280, 14863.00
175.7550, 14701.00
176.9820, 14723.00
178.2100, 14803.00
179.4370, 14727.00
180.6630, 14572.57
181.8900, 14866.24
183.1170, 15054.84
184.3430, 15143.97
185.5690, 14835.90
186.7950, 15040.73
188.0210, 15040.02
189.2470, 15030.87
190.4720, 15307.85
191.6970, 15215.00
192.9230, 15304.00
194.1480, 15327.00
195.3730, 15385.00
196.5970, 15304.00
197.8220, 15357.00
199.0460, 15565.00
200.2700, 15624.00
201.4940, 15504.00
202.7180, 15233.00
203.9420, 15238.00
205.1660, 15182.00
206.3890, 14892.00
207.6120, 15181.00
208.8350, 15093.00
210.0580, 15211.00
211.2810, 15390.00
212.5040, 15363.00
213.7260, 15457.00
214.9480, 15519.00
216.1700, 16032.00
217.3920, 16162.00
218.6140, 16930.00
219.8360, 17898.00
221.0570, 19075.00
222.2790, 20144.00
223.5000, 21171.00
224.7210, 21641.00
225.9410, 21325.00
227.1620, 20560.00
228.3820, 19341.00
229.6030, 18319.00
230.8230, 17193.00
232.0430, 16380.00
233.2630, 16135.00
234.4820, 15866.00
235.7020, 15969.00
236.9210, 15789.00
238.1400, 16087.00
239.3590, 16114.00
240.5780, 16496.00
241.7970, 16681.00
243.0150, 17170.00
244.2340, 17820.00
245.4520, 17709.22
246.6700, 17745.00
247.8880, 17555.00
249.1060, 17090.00
250.3230, 16756.00
251.5400, 16476.00
252.7580, 15836.00
253.9750, 15747.00
255.1920, 15211.27
256.4080, 15376.34
257.6250, 15453.82
258.8410, 15448.48
260.0580, 15112.10
261.2740, 15203.18
262.4900, 15122.96
263.7050, 15035.75
264.9210, 15186.99
266.1360, 14898.81
267.3520, 15046.26
268.5670, 15019.84
269.7820, 14906.00
270.9960, 14890.00
272.2110, 14840.00
273.4250, 14916.00
274.6400, 14916.77
275.8540, 14972.00
277.0680, 15021.00
278.2810, 15100.59
279.4950, 15186.30
280.7090, 15329.00
281.9220, 15376.00
283.1350, 15553.00
284.3480, 15634.00
285.5610, 15925.00
286.7730, 16154.00
287.9860, 16590.00
289.1980, 16863.88
290.4100, 17290.00
291.6220, 17568.00
292.8340, 18022.00
294.0460, 18455.00
295.2570, 18908.00
296.4690, 19334.00
297.6800, 19547.00
298.8910, 19488.00
300.1020, 19190.00
301.3120, 18675.00
302.5230, 17997.00
303.7330, 17444.00
304.9440, 17100.00
306.1540, 16539.00
307.3630, 16007.00
308.5730, 15859.00
309.7830, 15631.00
310.9920, 15487.00
312.2010, 15333.00
313.4100, 15420.00
314.6190, 15518.00
315.8280, 15038.00
317.0370, 15080.00
318.2450, 14752.00
319.4530, 14839.00
320.6610, 14861.00
321.8690, 14914.00
323.0770, 14875.00
324.2850, 14763.00
325.4920, 14840.00
326.6990, 14863.00
327.9060, 14611.00
329.1130, 14846.00
330.3200, 14759.00
331.5270, 14833.00
332.7330, 14657.00
333.9390, 14870.00
335.1450, 14839.00
336.3510, 14825.00
337.5570, 14907.00
338.7630, 14859.29
339.9680, 14846.00
341.1740, 14865.00
342.3790, 14804.00
343.5840, 14861.00
344.7890, 14936.00
345.9930, 14854.57
347.1980, 14798.00
348.4020, 14776.00
349.6060, 14815.00
350.8100, 14842.00
352.0140, 14857.00
353.2180, 14870.62
354.4210, 14953.00
355.6250, 14910.00
356.8280, 14913.00
358.0310, 15002.00
359.2340, 14930.00
360.4360, 15192.00
361.6390, 15095.00
362.8410, 14966.00
364.0430, 15162.00
365.2450, 15181.00
366.4470, 15172.00
367.6490, 15207.00
368.8510, 15222.00
370.0520, 15233.00
371.2530, 15414.00
372.4540, 15383.00
373.6550, 15430.00
374.8560, 15509.48
376.0560, 15433.00
377.2570, 15590.00
378.4570, 15649.00
379.6570, 15641.00
380.8570, 15842.00
382.0570, 15738.00
383.2560, 15927.00
384.4560, 16023.00
385.6550, 16230.00
386.8540, 16328.03
388.0530, 16761.00
389.2520, 16641.00
390.4510, 16731.00
391.6490, 17092.00
392.8470, 17453.00
394.0450, 17630.00
395.2430, 18134.00
396.4410, 18778.00
397.6390, 19292.00
398.8360, 19922.00
400.0340, 21002.00
401.2310, 22020.00
402.4280, 23208.00
403.6250, 24901.00
404.8210, 26373.00
406.0180, 28105.00
407.2140, 29221.00
408.4100, 30454.00
409.6060, 30996.00
410.8020, 30755.00
411.9980, 30123.00
413.1930, 29056.00
414.3890, 27627.00
415.5840, 26054.00
416.7790, 24213.00
417.9740, 22981.00
419.1680, 21502.00
420.3630, 20765.00
421.5570, 19887.00
422.7510, 19034.00
423.9450, 18675.00
425.1390, 18304.00
426.3330, 18018.00
427.5270, 17577.00
428.7200, 17475.00
429.9130, 17311.00
431.1060, 17021.00
432.2990, 17078.00
433.4920, 16948.00
434.6840, 16691.00
435.8770, 16923.00
437.0690, 16992.00
438.2610, 16653.00
439.4530, 16673.00
440.6450, 16523.00
441.8360, 16573.00
443.0280, 16574.00
444.2190, 16512.39
445.4100, 16500.00
446.6010, 16497.00
447.7920, 16460.00
448.9820, 16535.00
450.1730, 16488.00
451.3630, 16517.00
452.5530, 16592.00
453.7430, 16468.00
454.9330, 16372.00
456.1230, 16329.00
457.3120, 16322.75
458.5010, 16332.68
459.6910, 16412.00
460.8800, 16448.00
462.0680, 16538.00
463.2570, 16641.00
464.4460, 16739.00
465.6340, 16831.00
466.8220, 17025.00
468.0100, 16937.90
469.1980, 17032.00
470.3860, 16844.00
471.5730, 16782.00
472.7600, 16852.00
473.9480, 16863.00
475.1350, 16825.00
476.3210, 16929.03
477.5080, 16961.51
478.6950, 17132.00
479.8810, 17174.00
481.0670, 17373.00
482.2530, 17612.00
483.4390, 17641.00
484.6250, 17867.00
485.8100, 17994.00
486.9960, 18144.00
488.1810, 18278.00
489.3660, 18473.11
490.5510, 18681.09
491.7360, 18921.00
492.9200, 19189.00
494.1050, 19510.00
495.2890, 19854.00
496.4730, 19965.00
497.6570, 20132.00
498.8400, 20498.00
500.0240, 20597.00
501.2070, 20453.00
502.3910, 20568.00
503.5740, 20283.00
504.7570, 20163.00
505.9400, 20159.00
507.1220, 19846.00
508.3050, 19807.76
509.4870, 19552.00
510.6690, 19525.00
511.8510, 19341.00
513.0330, 19095.00
514.2140, 19068.00
515.3960, 19029.00
516.5770, 18992.00
517.7580, 18981.00
518.9390, 18925.00
520.1200, 18854.00
521.3010, 18813.00
522.4810, 18894.00
523.6610, 18897.00
524.8420, 18834.00
526.0220, 18790.00
527.2010, 18646.00
528.3810, 18654.00
529.5610, 18772.00
530.7400, 18861.94
531.9190, 18783.98
533.0980, 18826.82
534.2770, 18697.00
535.4560, 18695.00
536.6340, 18799.00
537.8120, 18610.68
538.9910, 18744.00
540.1690, 18662.00
541.3460, 18697.00
542.5240, 18869.00
543.7020, 19352.00
544.8790, 19879.00
546.0560, 20025.00
547.2330, 19414.92
548.4100, 19499.56
549.5870, 19517.91
550.7630, 19474.72
551.9400, 19121.73
553.1160, 19217.44
554.2920, 19163.09
555.4680, 19122.95
556.6440, 19342.51
557.8190, 19143.81
558.9950, 19402.04
560.1700, 19586.00
561.3450, 19570.00
562.5200, 19712.00
563.6950, 19682.00
564.8690, 19825.00
566.0440, 19884.00
567.2180, 19794.00
568.3920, 19807.00
569.5660, 19650.00
570.7400, 20084.00
571.9130, 19869.00
573.0870, 19761.00
574.2600, 19743.00
575.4330, 19433.00
576.6060, 19097.00
577.7790, 19068.00
578.9520, 18896.00
580.1240, 18726.00
581.2960, 18803.00
582.4690, 18963.00
583.6410, 18632.00
584.8120, 18462.70
585.9840, 18767.00
587.1560, 17751.00
588.3270, 17868.00
589.4980, 17592.00
590.6690, 17687.00
591.8400, 17807.00
593.0110, 17821.00
594.1810, 18115.00
595.3510, 18272.00
596.5220, 18350.00
597.6920, 18382.00
598.8610, 18810.00
600.0310, 19525.00
601.2010, 19608.95
602.3700, 20299.00
603.5390, 20244.00
604.7080, 20367.00
605.8770, 20838.00
607.0460, 20846.00
608.2140, 21101.00
609.3830, 21339.00
610.5510, 21386.00
611.7190, 21227.00
612.8870, 21109.00
614.0550, 21000.00
615.2220, 20698.00
616.3900, 20362.00
617.5570, 20164.00
618.7240, 19895.00
619.8910, 19351.00
621.0580, 19162.00
622.2240, 19039.00
623.3910, 19048.00
624.5570, 18839.36
625.7230, 18462.00
626.8890, 18560.00
628.0550, 18321.00
629.2200, 18212.00
630.3860, 18167.00
631.5510, 18205.00
632.7160, 18380.00
633.8810, 18172.00
635.0460, 18370.00
636.2100, 18171.00
637.3750, 18140.00
638.5390, 18253.00
639.7030, 18125.00
640.8670, 18150.00
642.0310, 18180.00
643.1950, 18233.37
644.3580, 18318.50
645.5210, 18431.00
646.6850, 18509.00
647.8480, 18558.00
649.0100, 18618.00
650.1730, 18757.00
651.3350, 18916.00
652.4980, 18925.00
653.6600, 18929.00
654.8220, 18918.00
655.9840, 18940.19
657.1450, 19024.73
658.3070, 19076.37
659.4680, 19096.32
660.6300, 19018.65
661.7910, 19044.96
662.9510, 19016.11
664.1120, 18975.76
665.2730, 18989.16
666.4330, 18876.15
667.5930, 18869.34
668.7530, 18806.67
669.9130, 18761.87
671.0730, 18421.14
672.2320, 18435.24
673.3920, 18290.82
674.5510, 18128.86
675.7100, 18159.72
676.8690, 18299.00
678.0280, 17836.00
679.1860, 18066.00
680.3450, 17820.00
681.5030, 17858.00
682.6610, 17764.00
683.8190, 17618.00
684.9770, 17816.00
686.1340, 17550.00
687.2920, 17553.00
688.4490, 17534.00
689.6060, 17532.00
690.7630, 17443.00
691.9200, 17547.00
693.0760, 17406.00
694.2330, 17355.00
695.3890, 17410.00
696.5450, 17344.00
697.7010, 17471.00
698.8570, 17362.00
700.0130, 17475.00
701.1680, 17383.00
702.3230, 17336.00
703.4780, 17562.00
704.6330, 17416.49
705.7880, 17334.00
706.9430, 17267.00
708.0970, 17346.00
709.2520, 17141.00
710.4060, 17238.00
711.5600, 17096.00
712.7140, 17115.00
713.8670, 16993.00
715.0210, 17097.00
716.1740, 17078.00
717.3270, 17048.63
718.4800, 16987.00
719.6330, 16997.00
720.7860, 16969.00
721.9380, 16902.00
723.0910, 16990.00
724.2430, 16891.00
725.3950, 17073.00
726.5470, 16998.00
727.6980, 16993.00
728.8500, 17005.00
730.0010, 16893.00
731.1530, 17021.00
732.3040, 16952.78
733.4550, 16960.65
734.6050, 16882.00
735.7560, 16984.00
736.9060, 16872.00
738.0560, 16924.00
739.2060, 16918.00
740.3560, 16795.00
741.5060, 16878.00
742.6560, 17022.00
743.8050, 16975.26
744.9540, 16924.00
746.1030, 17038.00
747.2520, 16942.00
748.4010, 16977.00
749.5500, 16960.00
750.6980, 16853.00
751.8460, 16985.00
752.9950, 16876.32
754.1420, 16935.00
755.2900, 16745.00
756.4380, 17024.00
757.5850, 16921.00
758.7330, 17017.00
759.8800, 16831.00
761.0270, 17092.00
762.1730, 16810.00
763.3200, 17017.00
764.4670, 16932.00
765.6130, 17166.00
766.7590, 17081.00
767.9050, 17037.00
769.0510, 16994.00
770.1960, 16947.32
771.3420, 16934.00
772.4870, 16958.00
773.6320, 16920.00
774.7770, 17089.00
775.9220, 17243.00
777.0670, 17118.00
778.2110, 17061.00
779.3560, 17209.00
780.5000, 17092.30
781.6440, 17189.80
782.7880, 17031.00
783.9320, 17275.00
785.0750, 17246.00
786.2180, 17200.00
787.3620, 17085.00
788.5050, 17349.00
789.6480, 17252.00
790.7900, 17386.00
791.9330, 17307.00
793.0750, 17457.00
794.2170, 17673.00
795.3590, 17565.00
796.5010, 17637.00
797.6430, 17462.00
798.7850, 17572.00
799.9260, 17449.00
801.0670, 17632.00
802.2080, 17652.00
803.3490, 17694.00
804.4900, 17733.05
805.6310, 17778.76
806.7710, 17710.00
807.9110, 17855.00
809.0510, 17827.00
810.1910, 17797.00
811.3310, 17969.00
812.4710, 17964.00
813.6100, 17986.00
814.7490, 18063.15
815.8880, 18043.02
817.0270, 18110.00
818.1660, 18070.00
819.3050, 18022.00
820.4430, 18072.00
821.5820, 17973.00
822.7200, 17941.00
823.8580, 17999.00
824.9950, 18012.00
826.1330, 18057.00
827.2710, 17915.00
828.4080, 18136.00
829.5450, 17966.00
830.6820, 17991.00
831.8190, 18017.00
832.9560, 17877.00
834.0920, 17842.00
835.2280, 17780.00
836.3650, 17780.00
837.5010, 17824.00
838.6360, 17962.00
839.7720, 17990.00
840.9080, 17903.00
842.0430, 17750.00
843.1780, 17666.00
844.3130, 17798.00
845.4480, 17747.00
846.5830, 17740.00
847.7170, 17752.00
848.8520, 17790.00
849.9860, 17695.00
851.1200, 17763.00
852.2540, 17731.97
853.3870, 17838.00
854.5210, 17729.00
855.6540, 17700.00
856.7880, 17720.00
857.9210, 17765.00
859.0540, 17672.00
860.1860, 17569.00
861.3190, 17716.00
862.4510, 17696.00
863.5840, 17927.00
864.7160, 17877.00
865.8480, 17548.00
866.9790, 17570.00
868.1110, 17742.00
869.2420, 17829.00
870.3740, 17746.00
871.5050, 17744.00
872.6360, 17811.00
873.7660, 17589.00
874.8970, 17739.00
876.0280, 17784.00
877.1580, 17720.00
878.2880, 17872.00
879.4180, 17676.00
880.5480, 17798.00
881.6770, 17639.00
882.8070, 17722.00
883.9360, 17950.00
885.0650, 18080.00
886.1940, 17864.00
887.3230, 17875.00
888.4520, 18010.00
889.5800, 17883.00
890.7090, 17945.00
891.8370, 18061.00
892.9650, 17827.00
894.0930, 17985.00
895.2200, 18058.00
896.3480, 17816.00
897.4750, 18146.00
898.6020, 17973.00
899.7290, 18102.00
900.8560, 18128.00
901.9830, 18221.00
903.1090, 18072.00
904.2360, 17977.00
905.3620, 18179.00
906.4880, 18017.00
907.6140, 18109.00
908.7400, 18188.00
909.8650, 18193.00
910.9900, 18203.00
912.1160, 18185.00
913.2410, 18125.00
914.3660, 18209.00
915.4900, 18323.00
916.6150, 18108.00
917.7390, 18229.73
918.8640, 18303.00
919.9880, 18270.00
921.1120, 18253.00
922.2350, 18310.00
923.3590, 18331.00
924.4820, 18326.00
925.6060, 18518.00
926.7290, 18373.00
927.8520, 18268.00
928.9740, 18439.00
930.0970, 18367.00
931.2190, 18372.00
932.3420, 18328.00
933.4640, 18419.00
934.5860, 18481.00
935.7080, 18488.00
936.8290, 18509.00
937.9510, 18498.00
939.0720, 18428.00
940.1930, 18406.00
941.3140, 18571.00
942.4350, 18408.00
943.5560, 18494.00
944.6760, 18710.00
945.7960, 18523.00
946.9170, 18659.00
948.0370, 18688.00
949.1560, 18750.00
950.2760, 18560.00
951.3960, 18706.00
952.5150, 18687.00
953.6340, 18832.00
954.7530, 18648.00
955.8720, 18661.00
956.9910, 18720.00
958.1090, 18853.00
959.2280, 18657.00
960.3460, 18679.00
961.4640, 18574.76
962.5820, 18750.23
963.6990, 18850.64
964.8170, 18880.04
965.9340, 18625.72
967.0510, 18737.76
968.1690, 18702.98
969.2850, 18662.18
970.4020, 18825.79
971.5190, 18612.73
972.6350, 18773.09
973.7510, 18784.39
974.8670, 18716.89
975.9830, 18898.84
977.0990, 19005.73
978.2150, 19041.62
979.3300, 18793.77
980.4450, 18912.29
981.5600, 18883.98
982.6750, 18849.66
983.7900, 19019.74
984.9050, 18813.16
986.0190, 18979.99
987.1340, 18997.77
988.2480, 19083.76
989.3620, 19022.02
990.4750, 19005.90
991.5890, 18990.45
992.7020, 19147.18
993.8160, 19233.09
994.9290, 19252.25
996.0420, 18991.92
997.1550, 19102.20
998.2670, 19069.89
999.3800, 19035.81
1000.492, 19210.36
1001.604, 19012.48
1002.716, 19192.26
1003.828, 19227.21
1004.940, 19334.61
1006.051, 19298.49
1007.163, 19312.26
1008.274, 19477.99
1009.385, 19566.13
1010.496, 19252.00
1011.606, 19550.00
1012.717, 19358.00
1013.827, 19566.00
1014.937, 19445.00
1016.047, 19544.00
1017.157, 19548.00
1018.267, 19422.00
1019.377, 19475.00
1020.486, 19469.00
1021.595, 19516.01
1022.704, 19791.00
1023.813, 19664.00
1024.922, 19751.00
1026.030, 19782.00
1027.139, 19728.00
1028.247, 19798.03
1029.355, 19731.00
1030.463, 19903.00
1031.571, 19954.00
1032.678, 20127.00
1033.786, 20174.78
1034.893, 20216.35
1036.000, 20283.00
1037.107, 20278.00
1038.214, 20335.49
1039.321, 20419.00
1040.427, 20409.00
1041.533, 20325.00
1042.639, 20380.00
1043.745, 20527.00
1044.851, 20610.00
1045.957, 20512.00
1047.062, 20570.00
1048.168, 20571.00
1049.273, 20516.00
1050.378, 20646.00
1051.482, 20736.00
1052.587, 20756.00
1053.692, 20695.00
1054.796, 20594.00
1055.900, 20710.18
1057.004, 20729.27
1058.108, 20899.00
1059.212, 20817.00
1060.315, 20886.00
1061.418, 20681.00
1062.522, 20723.00
1063.625, 20806.00
1064.728, 20860.00
1065.830, 20979.00
1066.933, 20846.00
1068.035, 20847.00
1069.137, 20893.00
1070.239, 20915.00
1071.341, 20772.00
1072.443, 20757.00
1073.545, 20808.00
1074.646, 20660.00
1075.747, 20993.00
1076.848, 20839.00
1077.949, 20980.00
1079.050, 20801.00
1080.150, 20810.00
1081.251, 20782.00
1082.351, 20758.00
1083.451, 20845.25
1084.551, 20773.00
1085.651, 20991.00
1086.750, 20972.00
1087.850, 20958.00
1088.949, 21035.00
1090.048, 20859.00
1091.147, 20875.00
1092.246, 20919.00
1093.345, 20976.00
1094.443, 20715.00
1095.541, 21126.00
1096.639, 20793.00
1097.737, 21106.00
1098.835, 21199.00
1099.933, 21089.00
1101.030, 20858.00
1102.128, 21040.00
1103.225, 20690.00
1104.322, 20895.00
1105.419, 21011.00
1106.515, 20960.00
1107.612, 21048.00
1108.708, 20995.00
1109.804, 21097.00
1110.900, 21041.27
1111.996, 20996.00
1113.092, 20966.00
1114.187, 20862.00
1115.283, 20854.00
1116.378, 20827.00
1117.473, 20894.00
1118.568, 20703.00
1119.662, 20888.00
1120.757, 20623.00
1121.851, 20571.00
1122.946, 20732.00
1124.040, 20622.00
1125.134, 20729.00
1126.227, 20775.00
1127.321, 20743.00
1128.414, 20534.00
1129.508, 20443.00
1130.601, 20493.00
1131.693, 20352.00
1132.786, 20492.00
1133.879, 20459.92
1134.971, 20413.00
1136.064, 20501.00
1137.156, 20557.00
1138.248, 20574.00
1139.339, 20585.00
1140.431, 20616.64
1141.522, 20497.00
1142.614, 20572.00
1143.705, 20605.00
1144.796, 20410.00
1145.887, 20613.00
1146.977, 20716.00
1148.068, 20625.00
1149.158, 20658.00
1150.248, 20681.55
1151.338, 20709.00
1152.428, 20711.00
1153.518, 20751.00
1154.607, 20748.00
1155.696, 20782.00
1156.785, 20730.00
1157.874, 20856.00
1158.963, 20910.00
1160.052, 20763.00
1161.141, 20840.00
1162.229, 20781.00
1163.317, 20812.00
1164.405, 20882.17
1165.493, 20880.00
1166.581, 21016.00
1167.668, 20991.00
1168.756, 21017.00
1169.843, 21193.00
1170.930, 21187.00
1172.017, 21260.00
1173.103, 21082.00
1174.190, 21242.00
1175.276, 21356.00
1176.363, 21340.00
1177.449, 21541.00
1178.535, 21356.00
1179.620, 21602.00
1180.706, 21628.00
1181.791, 21619.00
1182.877, 21679.00
1183.962, 21679.00
1185.047, 21730.00
1186.131, 21985.00
1187.216, 21891.00
1188.300, 21997.00
1189.385, 21842.00
1190.469, 21940.00
1191.553, 21825.00
1192.637, 21932.00
1193.720, 22122.00
1194.804, 22039.00
1195.887, 21975.00
1196.970, 22090.00
1198.053, 21958.00
1199.136, 22231.00
1200.219, 22241.00
1201.301, 22120.00
1202.383, 22126.00
1203.465, 22386.00
1204.547, 22389.00
1205.629, 22341.00
1206.711, 22647.00
1207.792, 22469.00
1208.874, 22599.00
1209.955, 22636.00
1211.036, 22364.00
1212.117, 22472.00
1213.198, 22559.00
1214.278, 22750.00
1215.359, 22758.00
1216.439, 22628.00
1217.519, 22749.00
1218.599, 22745.00
1219.678, 22949.00
1220.758, 22910.00
1221.837, 22993.00
1222.917, 23120.12
1223.996, 23134.56
1225.075, 23232.00
1226.153, 23314.00
1227.232, 23126.00
1228.310, 23310.00
1229.389, 23427.00
1230.467, 23472.00
1231.545, 23762.00
1232.622, 23767.00
1233.700, 24047.00
1234.777, 23975.00
1235.855, 24112.00
1236.932, 23944.00
1238.009, 24117.00
1239.086, 24156.00
1240.162, 24198.00
1241.239, 24397.00
1242.315, 24515.00
1243.391, 24674.01
1244.467, 24885.88
1245.543, 24941.00
1246.619, 25056.36
1247.694, 25401.68
1248.769, 25632.82
1249.844, 25756.81
1250.919, 25401.45
1251.994, 25704.37
1253.069, 25767.49
1254.144, 25837.23
1255.218, 26281.65
1256.292, 26084.03
1257.366, 26557.00
1258.440, 26786.22
1259.514, 27151.98
1260.587, 27276.06
1261.661, 27497.32
1262.734, 27675.00
1263.807, 27721.00
1264.880, 28004.00
1265.952, 28043.00
1267.025, 28497.00
1268.097, 28362.00
1269.170, 28542.00
1270.242, 29117.00
1271.314, 28979.00
1272.385, 29622.00
1273.457, 29388.00
1274.528, 30077.00
1275.600, 30127.79
1276.671, 30147.00
1277.742, 30461.00
1278.812, 30545.00
1279.883, 30838.00
1280.954, 31049.00
1282.024, 31286.00
