##NAMES=Hematite
##RRUFFID=R040024
##IDEAL CHEMISTRY=Fe^3+^_2_O_3_
##LOCALITY=near Covered Wells, Papago Indian Reservation, Arizona, USA
##OWNER=RRUFF
##SOURCE=University of Arizona Mineral Museum
##DESCRIPTION=Reddish-black foliatated mass
##STATUS=The identification of this mineral has been confirmed by X-ray diffraction and chemical analysis
##URL=rruff.info/R040024
##MEASURED CHEMISTRY=(Fe_1.99_Al_0.01_)_Î£=2_O_3_
##PIN_ID=M01935
##ORIENTATION=Laser parallel to -a* (-1 0 0). Fiducial mark perpendicular to laser is parallel to c [0 0 1]
127.7670, 27813.00
129.0000, 27697.00
130.2340, 27452.00
131.4670, 27231.00
132.7000, 27324.00
133.9330, 27247.00
135.1660, 27121.00
136.3990, 27219.00
137.6310, 27611.00
138.8640, 27423.00
140.0960, 27103.00
141.3280, 27203.00
142.5600, 26637.00
143.7910, 26567.00
145.0230, 26636.00
146.2540, 26636.00
147.4850, 26654.00
148.7160, 26270.00
149.9470, 25880.00
151.1780, 25688.00
152.4080, 25964.00
153.6380, 25961.00
154.8690, 26142.00
156.0980, 25822.00
157.3280, 25898.00
158.5580, 25902.00
159.7870, 25839.00
161.0170, 25741.00
162.2460, 25777.54
163.4750, 26099.00
164.7030, 25761.00
165.9320, 25491.00
167.1600, 25364.00
168.3890, 25870.00
169.6170, 25534.00
170.8450, 26003.00
172.0730, 25889.82
173.3000, 25212.00
174.5280, 25613.00
175.7550, 25676.00
176.9820, 25246.00
178.2090, 24994.00
179.4350, 25350.00
180.6620, 25128.10
181.8880, 25004.00
183.1150, 25282.00
184.3410, 25339.00
185.5670, 25461.00
186.7920, 25260.00
188.0180, 25175.00
189.2430, 25178.00
190.4690, 25283.00
191.6940, 25377.00
192.9180, 25278.00
194.1430, 25282.00
195.3680, 25282.00
196.5920, 25513.00
197.8160, 25564.00
199.0400, 25572.00
200.2640, 25506.00
201.4880, 25735.00
202.7110, 25623.00
203.9350, 25630.00
205.1580, 25581.00
206.3810, 25781.00
207.6040, 25933.44
208.8270, 26277.00
210.0490, 26632.00
211.2710, 26749.00
212.4940, 27506.00
213.7160, 27756.00
214.9370, 28470.00
216.1590, 29263.00
217.3810, 30469.00
218.6020, 31224.00
219.8230, 32571.00
221.0440, 33735.00
222.2650, 35126.00
223.4860, 36565.00
224.7060, 37286.00
225.9260, 38182.00
227.1470, 38463.00
228.3670, 38151.00
229.5860, 37052.00
230.8060, 35595.00
232.0260, 33697.00
233.2450, 32062.00
234.4640, 30470.00
235.6830, 29717.00
236.9020, 28567.00
238.1200, 28068.00
239.3390, 27749.00
240.5570, 26941.00
241.7750, 27071.00
242.9930, 26645.00
244.2110, 26563.00
245.4290, 26220.00
246.6460, 26251.00
247.8630, 26092.00
249.0810, 25908.00
250.2980, 25905.00
251.5140, 25956.00
252.7310, 25837.00
253.9470, 25934.00
255.1640, 25849.45
256.3800, 25718.00
257.5960, 25760.00
258.8120, 25614.00
260.0270, 25614.00
261.2430, 25498.00
262.4580, 25702.00
263.6730, 25640.00
264.8880, 25799.00
266.1030, 25786.00
267.3170, 25579.00
268.5320, 25848.00
269.7460, 25738.00
270.9600, 25985.00
272.1740, 26010.00
273.3880, 26114.00
274.6010, 25966.00
275.8150, 26382.00
277.0280, 26233.00
278.2410, 26459.00
279.4540, 26589.00
280.6670, 26725.71
281.8790, 26958.00
283.0920, 27161.00
284.3040, 27549.00
285.5160, 27793.00
286.7280, 27875.00
287.9400, 28297.00
289.1510, 28504.00
290.3630, 28414.02
291.5740, 28574.02
292.7850, 28649.01
293.9960, 28643.56
295.2070, 28316.77
296.4170, 28368.00
297.6280, 28433.00
298.8380, 28393.00
300.0480, 28448.00
301.2580, 28440.00
302.4680, 28603.00
303.6770, 28562.00
304.8870, 28470.00
306.0960, 28775.00
307.3050, 28779.00
308.5140, 28980.00
309.7230, 28915.00
310.9310, 28950.00
312.1400, 29169.00
313.3480, 29038.00
314.5560, 29222.00
315.7640, 29160.00
316.9720, 28903.00
318.1790, 28702.00
319.3870, 28730.00
320.5940, 28374.00
321.8010, 28212.00
323.0080, 27882.00
324.2150, 27844.00
325.4210, 27574.00
326.6280, 27288.00
327.8340, 27278.00
329.0400, 26896.00
330.2460, 27015.00
331.4510, 26707.00
332.6570, 26762.00
333.8620, 26435.07
335.0680, 26566.72
336.2730, 26613.42
337.4780, 26579.69
338.6820, 26224.67
339.8870, 26284.54
341.0910, 26457.00
342.2950, 26197.00
343.5000, 26238.00
344.7030, 26292.00
345.9070, 26232.00
347.1110, 26375.00
348.3140, 26381.00
349.5170, 26340.00
350.7200, 26302.00
351.9230, 26422.00
353.1260, 26494.00
354.3290, 26200.00
355.5310, 26265.00
356.7330, 26347.83
357.9350, 26517.00
359.1370, 26531.00
360.3390, 26396.00
361.5400, 26251.00
362.7420, 26384.00
363.9430, 26728.00
365.1440, 26501.00
366.3450, 26722.00
367.5460, 26403.00
368.7460, 26551.00
369.9470, 26595.00
371.1470, 26510.00
372.3470, 26654.00
373.5470, 26623.00
374.7460, 26900.00
375.9460, 26724.00
377.1450, 26872.00
378.3450, 26738.00
379.5440, 26912.00
380.7430, 26865.00
381.9410, 26803.00
383.1400, 27208.00
384.3380, 27066.00
385.5370, 27090.00
386.7350, 27049.00
387.9320, 27059.91
389.1300, 27069.31
390.3280, 27197.00
391.5250, 27102.00
392.7220, 27279.00
393.9190, 27322.00
395.1160, 27523.00
396.3130, 27534.00
397.5100, 27648.05
398.7060, 27726.14
399.9020, 27744.00
401.0980, 27869.00
402.2940, 27760.00
403.4900, 27860.00
404.6860, 28927.00
405.8810, 28588.42
407.0760, 28820.00
408.2710, 28717.00
409.4660, 28733.00
410.6610, 28928.00
411.8550, 28875.00
413.0500, 29073.00
414.2440, 29282.00
415.4380, 29354.00
416.6320, 29635.00
417.8260, 29489.00
419.0190, 29586.00
420.2130, 30007.00
421.4060, 29904.45
422.5990, 29678.00
423.7920, 29693.00
424.9850, 29572.33
426.1770, 29352.00
427.3700, 29448.00
428.5620, 29184.00
429.7540, 29092.00
430.9460, 28906.00
432.1380, 28819.00
433.3290, 28645.00
434.5210, 28543.97
435.7120, 28484.67
436.9030, 28443.00
438.0940, 28364.00
439.2850, 28536.00
440.4750, 28436.00
441.6660, 27955.00
442.8560, 28332.00
444.0460, 28048.00
445.2360, 28357.00
446.4260, 28212.00
447.6160, 28115.00
448.8050, 28284.00
449.9940, 28107.00
451.1830, 28208.00
452.3720, 28367.00
453.5610, 28065.00
454.7500, 28285.00
455.9380, 28391.00
457.1260, 28235.00
458.3150, 28317.52
459.5020, 28329.00
460.6900, 28300.00
461.8780, 28103.00
463.0650, 28282.00
464.2530, 28315.00
465.4400, 28129.11
466.6270, 28367.81
467.8130, 28521.46
469.0000, 28594.72
470.1870, 28346.64
471.3730, 28513.46
472.5590, 28513.99
473.7450, 28507.71
474.9310, 28732.94
476.1160, 28531.51
477.3020, 28753.07
478.4870, 28805.76
479.6720, 28935.71
480.8570, 28898.35
482.0420, 29055.00
483.2270, 29266.00
484.4110, 29139.00
485.5960, 29171.00
486.7800, 29549.00
487.9640, 29736.00
489.1480, 29697.00
490.3310, 30066.00
491.5150, 30009.00
492.6980, 30141.00
493.8810, 30168.00
495.0640, 30228.00
496.2470, 30545.00
497.4300, 30556.00
498.6120, 30578.00
499.7950, 30486.00
500.9770, 30650.00
502.1590, 30649.37
503.3410, 30847.00
504.5220, 30777.00
505.7040, 30664.00
506.8850, 30696.00
508.0660, 30681.00
509.2470, 30491.00
510.4280, 30192.00
511.6090, 30324.00
512.7890, 30193.65
513.9700, 30108.41
515.1500, 30257.00
516.3300, 30050.00
517.5100, 30138.00
518.6900, 30280.00
519.8690, 30130.00
521.0490, 30104.00
522.2280, 30103.00
523.4070, 30102.00
524.5860, 30205.00
525.7640, 29908.00
526.9430, 30116.00
528.1210, 29967.00
529.3000, 29948.96
530.4780, 29938.90
531.6560, 30070.00
532.8330, 29701.00
534.0110, 30035.00
535.1880, 29709.98
536.3650, 29746.00
537.5430, 29737.00
538.7190, 29835.00
539.8960, 29897.00
541.0730, 29841.00
542.2490, 30037.00
543.4250, 30030.00
544.6020, 29915.00
545.7780, 29896.00
546.9530, 29883.64
548.1290, 29808.00
549.3040, 29898.96
550.4800, 29930.64
551.6550, 29973.00
552.8300, 30003.00
554.0040, 30101.00
555.1790, 30009.00
556.3540, 30338.00
557.5280, 30115.00
558.7020, 30099.00
559.8760, 29962.00
561.0500, 30204.00
562.2230, 30401.00
563.3970, 30492.00
564.5700, 30145.00
565.7430, 30123.00
566.9160, 30304.00
568.0890, 30439.00
569.2620, 30399.00
570.4340, 30207.00
571.6070, 30434.00
572.7790, 30430.00
573.9510, 30149.00
575.1230, 30129.00
576.2940, 30007.00
577.4660, 29846.00
578.6370, 29821.00
579.8080, 29901.00
580.9790, 29915.00
582.1500, 29674.00
583.3210, 29456.00
584.4910, 29457.48
585.6620, 29470.00
586.8320, 29366.00
588.0020, 29273.00
589.1720, 29217.00
590.3410, 29153.00
591.5110, 29145.44
592.6800, 29131.36
593.8500, 29183.00
595.0190, 29151.50
596.1880, 29213.30
597.3560, 29226.00
598.5250, 29148.00
599.6930, 29180.87
600.8620, 29344.00
602.0300, 29199.00
603.1970, 29181.71
604.3650, 29395.10
605.5330, 29523.49
606.7000, 29571.43
607.8680, 29298.04
609.0350, 29439.57
610.2020, 29509.00
611.3680, 29830.00
612.5350, 29390.00
613.7010, 29774.00
614.8680, 29592.00
616.0340, 29587.00
617.2000, 29646.00
618.3660, 29753.00
619.5310, 29634.00
620.6970, 29705.00
621.8620, 29800.00
623.0270, 29828.00
624.1920, 30146.00
625.3570, 29984.41
626.5220, 30184.00
627.6860, 29785.00
628.8500, 29980.00
630.0140, 29909.00
631.1780, 29928.00
632.3420, 29963.86
633.5060, 29964.10
634.6700, 29964.00
635.8330, 30018.00
636.9960, 30049.00
638.1590, 30045.00
639.3220, 30104.00
640.4850, 30233.00
641.6470, 30235.00
642.8100, 30231.00
643.9720, 30357.00
645.1340, 30071.00
646.2960, 30294.00
647.4570, 30162.00
648.6190, 30463.00
649.7800, 30515.00
650.9420, 30314.00
652.1030, 30547.00
653.2640, 30454.00
654.4240, 30396.00
655.5850, 30352.00
656.7450, 30429.36
657.9060, 30572.00
659.0660, 30713.00
660.2260, 30655.00
661.3850, 30913.00
662.5450, 30718.00
663.7040, 31128.00
664.8640, 31018.00
666.0230, 30906.00
667.1820, 31196.00
668.3410, 31166.00
669.4990, 31168.00
670.6580, 31171.00
671.8160, 31201.00
672.9740, 31233.00
674.1320, 31209.00
675.2900, 31204.00
676.4480, 31141.00
677.6050, 31173.00
678.7630, 31273.00
679.9200, 30985.00
681.0770, 31187.00
682.2340, 31041.00
683.3900, 30928.00
684.5470, 30787.00
685.7030, 30725.15
686.8590, 30729.00
688.0150, 30678.00
689.1710, 30685.00
690.3270, 30800.00
691.4830, 30568.00
692.6380, 30756.00
693.7930, 30242.00
694.9480, 30478.00
696.1030, 30397.00
697.2580, 30200.00
698.4130, 30403.00
699.5670, 30169.00
700.7210, 30152.00
701.8750, 30006.00
703.0290, 29971.21
704.1830, 29984.37
705.3370, 29987.00
706.4900, 29963.00
707.6430, 30057.00
708.7970, 29871.00
709.9490, 30041.00
711.1020, 29870.00
712.2550, 29767.00
713.4070, 29857.00
714.5600, 29865.00
715.7120, 29982.00
716.8640, 29760.00
718.0160, 29830.00
719.1670, 29765.00
720.3190, 29663.00
721.4700, 29710.85
722.6210, 29887.00
723.7720, 29686.00
724.9230, 29683.00
726.0740, 29602.00
727.2250, 29856.00
728.3750, 29623.00
729.5250, 29634.86
730.6750, 29786.71
731.8250, 29853.57
732.9750, 29839.99
734.1240, 29505.11
735.2740, 29661.00
736.4230, 29740.00
737.5720, 29794.00
738.7210, 29592.00
739.8700, 29952.00
741.0190, 29853.00
742.1670, 29882.00
743.3150, 29753.00
744.4630, 29820.00
745.6110, 29878.00
746.7590, 29901.00
747.9070, 29905.55
749.0540, 29773.00
750.2020, 29847.00
751.3490, 29792.00
752.4960, 29712.00
753.6430, 29924.00
754.7890, 29824.00
755.9360, 30033.00
757.0820, 29791.00
758.2280, 29777.00
759.3740, 29940.00
760.5200, 30059.00
761.6660, 29886.00
762.8120, 29868.00
763.9570, 29773.00
765.1020, 29892.00
766.2470, 29961.00
767.3920, 29975.06
768.5370, 29886.00
769.6810, 30072.00
770.8260, 29979.00
771.9700, 29993.00
773.1140, 29832.00
774.2580, 29948.00
775.4020, 29803.00
776.5460, 29750.00
777.6890, 29849.00
778.8320, 29847.93
779.9750, 29774.00
781.1180, 30009.00
782.2610, 29952.00
783.4040, 29969.00
784.5460, 29865.00
785.6890, 30053.00
786.8310, 29874.00
787.9730, 30087.00
789.1150, 30035.00
790.2560, 29787.00
791.3980, 29893.70
792.5390, 30098.00
793.6810, 29878.00
794.8220, 30088.00
795.9630, 30213.00
797.1030, 30056.81
798.2440, 30126.00
799.3840, 29959.00
800.5240, 29811.00
801.6650, 29936.00
802.8040, 30114.00
803.9440, 29779.00
805.0840, 30304.00
806.2230, 29820.00
807.3630, 29809.00
808.5020, 30107.00
809.6410, 29955.80
810.7790, 30065.38
811.9180, 30145.00
813.0570, 30103.00
814.1950, 30149.00
815.3330, 30154.00
816.4710, 29954.04
817.6090, 30155.85
818.7470, 30272.66
819.8840, 30309.03
821.0220, 30024.06
822.1590, 30154.04
823.2960, 30117.72
824.4330, 30313.00
825.5690, 30259.00
826.7060, 30468.00
827.8420, 30168.00
828.9790, 30459.00
830.1150, 30410.00
831.2510, 30586.00
832.3860, 30505.00
833.5220, 30418.00
834.6570, 30469.00
835.7930, 30281.00
836.9280, 30228.00
838.0630, 30460.00
839.1980, 30358.00
840.3320, 30473.00
841.4670, 30685.00
842.6010, 30358.00
843.7350, 30450.00
844.8690, 30264.00
846.0030, 30423.00
847.1370, 30359.29
848.2700, 30328.56
849.4040, 30378.00
850.5370, 30305.00
851.6700, 30406.00
852.8030, 30449.00
853.9360, 30222.00
855.0680, 30364.00
856.2000, 30607.00
857.3330, 30624.00
858.4650, 30407.00
859.5970, 30530.00
860.7290, 30713.06
861.8600, 30892.66
862.9920, 30987.25
864.1230, 31001.41
865.2540, 30694.24
866.3850, 30802.01
867.5160, 30743.49
868.6460, 30678.16
869.7770, 30844.34
870.9070, 30792.00
872.0370, 30775.00
873.1670, 30804.13
874.2970, 30963.00
875.4270, 31079.00
876.5570, 30736.00
877.6860, 30918.00
878.8150, 30909.00
879.9440, 30942.00
881.0730, 30992.00
882.2020, 31011.00
883.3300, 30849.00
884.4590, 30952.00
885.5870, 31019.00
886.7150, 31165.00
887.8430, 31009.00
888.9710, 31044.00
890.0990, 31164.00
891.2260, 30996.00
892.3530, 31393.00
893.4810, 31280.00
894.6080, 31292.00
895.7340, 31147.00
896.8610, 31169.00
897.9880, 31240.00
899.1140, 31170.00
900.2400, 31098.00
901.3660, 31329.00
902.4920, 31578.00
903.6180, 31349.00
904.7430, 31410.00
905.8690, 31218.00
906.9940, 31289.00
908.1190, 31453.00
909.2440, 31642.00
910.3690, 31500.00
911.4930, 31327.00
912.6180, 31318.00
913.7420, 31756.00
914.8660, 31861.00
915.9900, 31781.00
917.1140, 31645.00
918.2380, 31487.00
919.3610, 31808.00
920.4850, 32049.00
921.6080, 31748.00
922.7310, 31794.00
923.8540, 31769.00
924.9760, 31822.00
926.0990, 31905.00
927.2210, 32076.00
928.3440, 32117.43
929.4660, 32219.00
930.5880, 32225.00
931.7090, 31985.00
932.8310, 31905.00
933.9520, 31853.00
935.0740, 31848.03
936.1950, 31983.00
937.3160, 31971.00
938.4360, 32056.00
939.5570, 32090.00
940.6780, 32126.00
941.7980, 32124.66
942.9180, 32002.00
944.0380, 32080.00
945.1580, 32135.00
946.2780, 32118.00
947.3970, 32321.00
948.5170, 32468.00
949.6360, 32455.00
950.7550, 32586.00
951.8740, 32341.00
952.9930, 32532.00
954.1110, 32377.00
955.2300, 32433.00
956.3480, 32459.00
957.4660, 32325.00
958.5840, 32379.00
959.7020, 32390.00
960.8190, 32344.00
961.9370, 32536.00
963.0540, 32630.00
964.1710, 32522.00
965.2880, 32460.00
966.4050, 32594.00
967.5220, 32484.00
968.6380, 32641.01
969.7550, 32641.00
970.8710, 32715.00
971.9870, 32952.00
973.1030, 32578.00
974.2190, 32529.00
975.3340, 33072.00
976.4500, 32766.00
977.5650, 32584.00
978.6800, 32946.00
979.7950, 32852.00
980.9100, 32891.00
982.0250, 33060.00
983.1390, 33002.68
984.2530, 33376.00
985.3680, 32973.00
986.4820, 33098.00
987.5950, 32930.00
988.7090, 33099.00
989.8230, 33191.00
990.9360, 33069.00
992.0490, 33345.00
993.1620, 33250.00
994.2750, 33213.00
995.3880, 33279.00
996.5010, 33370.00
997.6130, 33263.00
998.7250, 33033.00
999.8370, 33287.00
1000.949, 33142.00
1002.061, 33206.00
1003.173, 33032.00
1004.284, 33372.00
1005.396, 33156.00
1006.507, 33021.00
1007.618, 33329.00
1008.729, 33295.00
1009.839, 33260.00
1010.950, 33030.00
1012.060, 33267.00
1013.171, 33258.00
1014.281, 33452.00
1015.391, 33087.00
1016.500, 33079.00
1017.610, 33023.00
1018.719, 33286.00
1019.829, 33332.00
1020.938, 33202.00
1022.047, 33121.00
1023.156, 33370.00
1024.264, 33621.00
1025.373, 33495.71
1026.481, 33230.00
1027.589, 33422.00
1028.697, 33450.00
1029.805, 33528.00
1030.913, 33571.74
1032.020, 33602.80
1033.128, 33600.00
1034.235, 33626.00
1035.342, 33661.00
1036.449, 33598.00
1037.556, 33559.00
1038.663, 33666.00
1039.769, 33875.00
1040.875, 33907.00
1041.981, 34064.00
1043.087, 34056.00
1044.193, 34010.00
1045.299, 34028.00
1046.404, 33893.00
1047.510, 34067.00
1048.615, 33972.65
1049.720, 34195.81
1050.825, 34333.96
1051.930, 34391.68
1053.034, 34128.04
1054.139, 34279.36
1055.243, 34264.36
1056.347, 34242.55
1057.451, 34452.25
1058.555, 34235.34
1059.658, 34734.00
1060.762, 34573.00
1061.865, 34642.00
1062.968, 34479.00
1064.071, 34488.00
1065.174, 34482.04
1066.277, 34553.00
1067.380, 34453.00
1068.482, 34533.00
1069.584, 34462.00
1070.686, 34723.00
1071.788, 34565.00
1072.890, 34620.00
1073.992, 34504.00
1075.093, 34663.00
1076.194, 34395.00
1077.295, 34524.00
1078.396, 34565.00
1079.497, 34353.00
1080.598, 34614.00
1081.698, 34535.00
1082.799, 34421.00
1083.899, 34778.00
1084.999, 34438.00
1086.099, 34487.00
1087.199, 34480.00
1088.298, 34591.00
1089.398, 34509.00
1090.497, 34683.00
1091.596, 34517.00
1092.695, 34399.00
1093.794, 34434.00
1094.892, 34365.00
1095.991, 34487.00
1097.089, 34387.00
1098.187, 34406.00
1099.285, 34563.00
1100.383, 34599.00
1101.481, 34457.00
1102.579, 34549.00
1103.676, 34411.00
1104.773, 34358.00
1105.870, 34182.00
1106.967, 34382.00
1108.064, 34414.00
1109.161, 34388.00
1110.257, 34742.00
1111.353, 34448.00
1112.449, 34414.00
1113.545, 34459.00
1114.641, 34660.00
1115.737, 34426.00
1116.832, 34643.00
1117.928, 34361.00
1119.023, 34656.00
1120.118, 34443.00
1121.213, 34378.00
1122.308, 34541.00
1123.402, 34494.00
1124.497, 34576.00
1125.591, 34508.00
1126.685, 34403.00
1127.779, 34462.00
1128.873, 34232.00
1129.967, 34460.00
1131.060, 34345.00
1132.153, 34035.00
1133.247, 34040.00
1134.340, 33914.70
1135.433, 33859.94
1136.525, 33897.00
1137.618, 33896.00
1138.710, 34069.00
1139.802, 34203.00
1140.895, 34074.00
1141.987, 34132.00
1143.078, 33911.00
1144.170, 34029.00
1145.261, 33934.00
1146.353, 34094.00
1147.444, 34014.00
1148.535, 34003.00
1149.626, 33981.00
1150.716, 34013.00
1151.807, 34095.00
1152.897, 34056.00
1153.988, 33945.00
1155.078, 33953.00
1156.168, 33824.00
1157.257, 34254.00
1158.347, 33749.00
1159.436, 34283.00
1160.526, 34043.00
1161.615, 34122.00
1162.704, 33791.00
1163.793, 33685.00
1164.881, 33801.00
1165.970, 33860.00
1167.058, 34014.00
1168.147, 34027.00
1169.235, 33964.00
1170.323, 34095.00
1171.410, 34018.35
1172.498, 33939.00
1173.585, 33970.00
1174.673, 34093.00
1175.760, 34115.00
1176.847, 34124.63
1177.934, 34083.00
1179.020, 34045.00
1180.107, 34098.00
1181.193, 33942.00
1182.279, 34010.00
1183.365, 34122.00
1184.451, 34167.00
1185.537, 33947.00
1186.623, 33984.00
1187.708, 34050.00
1188.793, 34040.00
1189.878, 34090.00
1190.963, 34179.00
1192.048, 33874.00
1193.133, 33984.00
1194.217, 33869.00
1195.302, 34214.00
1196.386, 34072.00
1197.470, 34126.00
1198.554, 34077.00
1199.638, 34089.00
1200.721, 34140.00
1201.805, 34149.59
1202.888, 34120.00
1203.971, 34201.00
1205.054, 34209.00
1206.137, 34153.00
1207.219, 34073.00
1208.302, 34145.00
1209.384, 34182.00
1210.466, 34021.00
1211.548, 34136.46
1212.630, 34051.00
1213.712, 34179.00
1214.794, 34468.00
1215.875, 34428.00
1216.956, 34430.00
1218.037, 34565.00
1219.118, 34575.38
1220.199, 34541.00
1221.280, 34620.00
1222.360, 34264.95
1223.441, 34460.21
1224.521, 34570.48
1225.601, 34600.31
1226.681, 34308.80
1227.760, 34432.23
1228.840, 34389.38
1229.919, 34339.70
1230.999, 34521.54
1232.078, 34638.00
1233.157, 34669.00
1234.236, 34882.00
1235.314, 34691.00
1236.393, 34684.00
1237.471, 34343.00
1238.549, 34744.00
1239.627, 34651.00
1240.705, 34607.00
1241.783, 34677.00
1242.860, 34688.00
1243.938, 34759.00
1245.015, 35003.00
1246.092, 34841.00
1247.169, 34963.00
1248.246, 34871.00
1249.323, 34785.00
1250.399, 35112.00
1251.475, 34927.00
1252.552, 35314.00
1253.628, 35245.52
1254.703, 35466.00
1255.779, 35195.00
1256.855, 35253.00
1257.930, 35180.00
1259.005, 35183.50
1260.080, 35109.00
1261.155, 35314.00
1262.230, 35335.00
1263.305, 35429.00
1264.379, 35399.31
1265.454, 35643.00
1266.528, 35296.00
1267.602, 35514.00
1268.676, 35567.00
1269.750, 35895.00
1270.823, 35826.00
1271.897, 35854.99
1272.970, 35912.33
1274.043, 35734.00
1275.116, 35944.00
1276.189, 35922.00
1277.261, 36103.00
1278.334, 36066.00
1279.406, 36147.00
1280.478, 36191.00
1281.550, 36173.00
1282.622, 36336.00
1283.694, 36372.00
1284.766, 36428.12
1285.837, 36545.00
1286.908, 36550.00
1287.979, 36543.00
1289.050, 36620.00
1290.121, 36620.00
1291.192, 36877.00
1292.262, 36857.00
1293.333, 37103.00
1294.403, 36783.00
1295.473, 37183.00
1296.543, 37129.00
1297.613, 37290.00
1298.682, 37397.00
1299.752, 37615.00
1300.821, 37678.51
1301.890, 37817.00
1302.959, 37786.00
