##NAMES=Heulandite-Ca
##RRUFFID=R060465
##IDEAL CHEMISTRY=(Ca,Na,K)_5_(Si_27_Al_9_)O_72_&#183;26H_2_O
##LOCALITY=Garrawilla, near Gunnadah, New South Wales, Australia
##OWNER=RRUFF
##SOURCE=Michael Scott
##DESCRIPTION=Orange fan of platy crystals
##STATUS=The identification of this mineral has been confirmed by X-ray diffraction and chemical analysis
##URL=rruff.info/R060465
##MEASURED CHEMISTRY=(Ca_0.66_Na_0.24_K_0.10_)_5_(Si_0.77_Al_0.23_)_36_O_72_Â·24H_2_O
##PIN_ID=M01887
##ORIENTATION=Laser parallel to b* (0 1 0). Fiducial mark perpendicular to laser is parallel to -c [0 0 -1]
83.24300, 2215.000
84.48300, 2529.000
85.72200, 2944.000
86.96100, 3438.000
88.20000, 4007.350
89.43900, 4655.825
90.67800, 5403.000
91.91600, 6209.000
93.15500, 7117.000
94.39300, 8142.000
95.63100, 9123.000
96.86900, 10128.00
98.10600, 11108.00
99.34400, 11973.00
100.5810, 13070.00
101.8190, 13914.00
103.0560, 14700.00
104.2930, 15687.00
105.5290, 16491.00
106.7660, 17434.00
108.0020, 18179.49
109.2390, 19014.00
110.4750, 19623.00
111.7110, 19952.00
112.9460, 20611.00
114.1820, 21192.00
115.4170, 21644.00
116.6530, 22264.00
117.8880, 22441.00
119.1230, 22907.00
120.3580, 23123.00
121.5920, 23540.00
122.8270, 23939.00
124.0610, 24254.00
125.2950, 24467.00
126.5290, 24554.00
127.7630, 25009.00
128.9970, 25279.00
130.2300, 25228.00
131.4640, 25596.00
132.6970, 25739.00
133.9300, 26110.00
135.1630, 26362.00
136.3950, 26429.00
137.6280, 26856.00
138.8600, 27188.00
140.0920, 27063.00
141.3240, 27263.00
142.5560, 27037.00
143.7880, 26878.00
145.0190, 26370.00
146.2510, 26168.00
147.4820, 25705.00
148.7130, 25231.00
149.9440, 24652.00
151.1750, 24476.00
152.4050, 24093.00
153.6360, 23439.00
154.8660, 22831.00
156.0960, 22460.00
157.3260, 21944.03
158.5560, 21506.00
159.7850, 21158.00
161.0150, 20871.00
162.2440, 20523.00
163.4730, 20119.00
164.7020, 19780.35
165.9310, 19479.00
167.1590, 19036.00
168.3880, 18626.00
169.6160, 18278.34
170.8440, 18082.00
172.0720, 17671.00
173.3000, 17230.00
174.5280, 16944.00
175.7550, 16493.00
176.9820, 16252.00
178.2100, 15842.00
179.4370, 15340.00
180.6630, 14998.00
181.8900, 14903.00
183.1170, 14347.00
184.3430, 14257.00
185.5690, 14225.00
186.7950, 13925.00
188.0210, 13676.00
189.2470, 13551.00
190.4720, 13218.00
191.6970, 13024.00
192.9230, 13073.00
194.1480, 12850.00
195.3730, 12705.00
196.5970, 12523.00
197.8220, 12444.00
199.0460, 12541.00
200.2700, 12410.00
201.4940, 12477.00
202.7180, 12153.00
203.9420, 11842.00
205.1660, 11619.00
206.3890, 11325.00
207.6120, 11376.00
208.8350, 11255.00
210.0580, 11254.00
211.2810, 11171.00
212.5040, 11071.00
213.7260, 11137.00
214.9480, 11081.00
216.1700, 11057.00
217.3920, 11088.00
218.6140, 11034.60
219.8360, 11063.00
221.0570, 11001.00
222.2790, 10998.00
223.5000, 11023.00
224.7210, 10991.00
225.9410, 11099.00
227.1620, 11246.00
228.3820, 11151.00
229.6030, 11228.00
230.8230, 11347.00
232.0430, 11523.00
233.2630, 11577.00
234.4820, 11895.00
235.7020, 11868.00
236.9210, 12143.00
238.1400, 12359.00
239.3590, 12402.00
240.5780, 12620.00
241.7970, 12842.00
243.0150, 12978.00
244.2340, 13245.00
245.4520, 13403.00
246.6700, 13610.00
247.8880, 13770.00
249.1060, 13859.10
250.3230, 13935.83
251.5400, 13950.00
252.7580, 13929.00
253.9750, 13848.00
255.1920, 13795.76
256.4080, 13680.53
257.6250, 13598.00
258.8410, 13432.91
260.0580, 13290.14
261.2740, 13187.00
262.4900, 12968.00
263.7050, 12797.00
264.9210, 12715.00
266.1360, 12580.00
267.3520, 12399.00
268.5670, 12305.35
269.7820, 12062.00
270.9960, 12054.00
272.2110, 11809.00
273.4250, 11662.00
274.6400, 11493.00
275.8540, 11425.00
277.0680, 11329.00
278.2810, 11279.00
279.4950, 11040.00
280.7090, 11116.00
281.9220, 10902.00
283.1350, 10994.00
284.3480, 10834.00
285.5610, 10705.00
286.7730, 10600.00
287.9860, 10686.00
289.1980, 10716.00
290.4100, 10543.00
291.6220, 10661.00
292.8340, 10504.00
294.0460, 10636.00
295.2570, 10567.00
296.4690, 10535.00
297.6800, 10593.00
298.8910, 10545.00
300.1020, 10558.00
301.3120, 10499.00
302.5230, 10441.00
303.7330, 10578.00
304.9440, 10620.00
306.1540, 10549.00
307.3630, 10646.00
308.5730, 10606.00
309.7830, 10713.00
310.9920, 10553.00
312.2010, 10792.00
313.4100, 10627.00
314.6190, 10763.00
315.8280, 10719.00
317.0370, 10885.00
318.2450, 10826.00
319.4530, 10823.00
320.6610, 10920.00
321.8690, 10997.00
323.0770, 11079.00
324.2850, 11048.00
325.4920, 11277.00
326.6990, 11220.00
327.9060, 11274.00
329.1130, 11150.00
330.3200, 11230.00
331.5270, 11306.00
332.7330, 11306.00
333.9390, 11499.00
335.1450, 11405.00
336.3510, 11423.00
337.5570, 11444.00
338.7630, 11568.00
339.9680, 11540.00
341.1740, 11639.00
342.3790, 11552.00
343.5840, 11691.00
344.7890, 11905.00
345.9930, 11797.00
347.1980, 11963.00
348.4020, 12038.00
349.6060, 12114.00
350.8100, 12190.00
352.0140, 12317.47
353.2180, 12468.00
354.4210, 12629.00
355.6250, 12685.00
356.8280, 12926.00
358.0310, 13060.00
359.2340, 13137.00
360.4360, 13502.00
361.6390, 13545.00
362.8410, 13895.00
364.0430, 14176.00
365.2450, 14394.00
366.4470, 14534.00
367.6490, 14882.00
368.8510, 15100.00
370.0520, 15415.00
371.2530, 15690.00
372.4540, 16093.00
373.6550, 16336.00
374.8560, 16694.00
376.0560, 16899.00
377.2570, 17428.00
378.4570, 17720.00
379.6570, 18132.00
380.8570, 18784.00
382.0570, 19169.00
383.2560, 19868.00
384.4560, 20445.00
385.6550, 21092.00
386.8540, 22150.00
388.0530, 22758.00
389.2520, 23777.00
390.4510, 24898.00
391.6490, 25826.00
392.8470, 26841.00
394.0450, 27990.00
395.2430, 28853.00
396.4410, 30200.00
397.6390, 31244.00
398.8360, 32443.00
400.0340, 32814.00
401.2310, 33480.00
402.4280, 34347.00
403.6250, 34014.00
404.8210, 33894.00
406.0180, 33432.00
407.2140, 32983.00
408.4100, 32434.00
409.6060, 31344.00
410.8020, 30398.00
411.9980, 29433.00
413.1930, 28325.00
414.3890, 27359.00
415.5840, 25983.00
416.7790, 25083.00
417.9740, 23841.00
419.1680, 22789.00
420.3630, 21887.00
421.5570, 21041.00
422.7510, 20017.00
423.9450, 19063.00
425.1390, 18338.00
426.3330, 17418.00
427.5270, 16722.00
428.7200, 16104.00
429.9130, 15544.00
431.1060, 15069.00
432.2990, 14572.16
433.4920, 14105.00
434.6840, 13735.00
435.8770, 13240.00
437.0690, 12900.00
438.2610, 12654.00
439.4530, 12427.00
440.6450, 12344.00
441.8360, 12159.00
443.0280, 12097.00
444.2190, 11891.00
445.4100, 11713.00
446.6010, 11804.00
447.7920, 11739.00
448.9820, 11940.00
450.1730, 11962.00
451.3630, 12086.00
452.5530, 12349.00
453.7430, 12552.00
454.9330, 12959.00
456.1230, 13214.00
457.3120, 13711.00
458.5010, 14152.00
459.6910, 14484.00
460.8800, 15193.00
462.0680, 15682.00
463.2570, 16192.00
464.4460, 16593.00
465.6340, 17400.00
466.8220, 17919.00
468.0100, 18464.00
469.1980, 19011.00
470.3860, 19455.00
471.5730, 20421.00
472.7600, 21053.00
473.9480, 21831.00
475.1350, 23066.00
476.3210, 24182.00
477.5080, 25049.00
478.6950, 26423.00
479.8810, 27436.00
481.0670, 28175.00
482.2530, 28654.00
483.4390, 28697.00
484.6250, 28158.00
485.8100, 27336.00
486.9960, 26244.00
488.1810, 24792.00
489.3660, 23321.00
490.5510, 21706.00
491.7360, 20211.00
492.9200, 18603.00
494.1050, 17314.00
495.2890, 15888.00
496.4730, 14914.00
497.6570, 14059.00
498.8400, 13224.00
500.0240, 12350.00
501.2070, 11732.00
502.3910, 11292.00
503.5740, 10949.00
504.7570, 10657.00
505.9400, 10285.00
507.1220, 10007.00
508.3050, 9829.000
509.4870, 9721.000
510.6690, 9512.000
511.8510, 9464.000
513.0330, 9365.000
514.2140, 9235.000
515.3960, 9263.000
516.5770, 9076.000
517.7580, 8865.000
518.9390, 9021.000
520.1200, 8972.000
521.3010, 8896.000
522.4810, 8778.000
523.6610, 8674.000
524.8420, 8690.000
526.0220, 8637.000
527.2010, 8551.000
528.3810, 8660.000
529.5610, 8425.000
530.7400, 8613.000
531.9190, 8506.000
533.0980, 8419.000
534.2770, 8401.000
535.4560, 8331.000
536.6340, 8278.000
537.8120, 8260.970
538.9910, 8281.000
540.1690, 8253.000
541.3460, 8250.000
542.5240, 8322.000
543.7020, 8340.000
544.8790, 8227.000
546.0560, 8395.000
547.2330, 8313.000
548.4100, 8207.000
549.5870, 8335.000
550.7630, 8304.000
551.9400, 8297.000
553.1160, 8299.000
554.2920, 8201.000
555.4680, 8207.000
556.6440, 8152.000
557.8190, 8279.000
558.9950, 8197.000
560.1700, 8245.000
561.3450, 8250.000
562.5200, 8284.000
563.6950, 8145.000
564.8690, 8199.000
566.0440, 8279.000
567.2180, 8267.000
568.3920, 8378.000
569.5660, 8389.000
570.7400, 8404.164
571.9130, 8342.000
573.0870, 8432.000
574.2600, 8375.000
575.4330, 8413.000
576.6060, 8479.000
577.7790, 8505.000
578.9520, 8553.000
580.1240, 8594.000
581.2960, 8691.000
582.4690, 8614.000
583.6410, 8815.000
584.8120, 8835.000
585.9840, 9006.000
587.1560, 9063.000
588.3270, 9040.000
589.4980, 9399.000
590.6690, 9397.000
591.8400, 9469.000
593.0110, 9641.000
594.1810, 9832.000
595.3510, 10005.09
596.5220, 10306.00
597.6920, 10458.00
598.8610, 10677.00
600.0310, 10959.00
601.2010, 11102.00
602.3700, 11457.00
603.5390, 11865.00
604.7080, 12054.00
605.8770, 12258.00
607.0460, 12324.00
608.2140, 12464.00
609.3830, 12622.43
610.5510, 12840.00
611.7190, 12866.00
612.8870, 12906.00
614.0550, 12891.00
615.2220, 12824.69
616.3900, 12735.00
617.5570, 12626.00
618.7240, 12472.00
619.8910, 12351.00
621.0580, 12239.00
622.2240, 12076.00
623.3910, 11959.00
624.5570, 11877.00
625.7230, 11602.00
626.8890, 11507.00
628.0550, 11033.00
629.2200, 10650.00
630.3860, 10410.00
631.5510, 10053.00
632.7160, 9860.267
633.8810, 9607.000
635.0460, 9540.000
636.2100, 9368.000
637.3750, 9304.000
638.5390, 9179.000
639.7030, 9297.000
640.8670, 9243.000
642.0310, 9350.000
643.1950, 9225.000
644.3580, 9268.000
645.5210, 9271.000
646.6850, 9254.000
647.8480, 9286.000
649.0100, 9208.162
650.1730, 9075.000
651.3350, 9037.000
652.4980, 8926.000
653.6600, 8788.000
654.8220, 8695.000
655.9840, 8509.000
657.1450, 8363.000
658.3070, 8289.000
659.4680, 8129.000
660.6300, 8019.000
661.7910, 7851.000
662.9510, 7861.000
664.1120, 7907.000
665.2730, 7680.000
666.4330, 7719.000
667.5930, 7700.000
668.7530, 7570.000
669.9130, 7692.000
671.0730, 7589.000
672.2320, 7579.000
673.3920, 7598.000
674.5510, 7496.000
675.7100, 7514.000
676.8690, 7491.000
678.0280, 7472.000
679.1860, 7452.000
680.3450, 7434.000
681.5030, 7362.000
682.6610, 7390.000
683.8190, 7478.000
684.9770, 7470.000
686.1340, 7385.000
687.2920, 7293.000
688.4490, 7398.000
689.6060, 7328.000
690.7630, 7341.000
691.9200, 7320.000
693.0760, 7249.000
694.2330, 7322.000
695.3890, 7268.000
696.5450, 7309.000
697.7010, 7397.000
698.8570, 7431.000
700.0130, 7386.000
701.1680, 7404.000
702.3230, 7379.000
703.4780, 7432.000
704.6330, 7394.000
705.7880, 7394.000
706.9430, 7386.000
708.0970, 7278.000
709.2520, 7375.000
710.4060, 7342.000
711.5600, 7442.000
712.7140, 7443.000
713.8670, 7362.000
715.0210, 7431.000
716.1740, 7326.000
717.3270, 7319.000
718.4800, 7425.000
719.6330, 7473.000
720.7860, 7484.000
721.9380, 7327.000
723.0910, 7386.000
724.2430, 7407.000
725.3950, 7529.000
726.5470, 7524.980
727.6980, 7531.000
728.8500, 7537.000
730.0010, 7570.000
731.1530, 7528.000
732.3040, 7474.000
733.4550, 7601.000
734.6050, 7576.000
735.7560, 7439.000
736.9060, 7490.000
738.0560, 7473.000
739.2060, 7423.000
740.3560, 7433.000
741.5060, 7473.000
742.6560, 7471.000
743.8050, 7462.000
744.9540, 7560.000
746.1030, 7610.000
747.2520, 7534.000
748.4010, 7596.000
749.5500, 7578.330
750.6980, 7547.000
751.8460, 7600.000
752.9950, 7546.000
754.1420, 7604.000
755.2900, 7570.000
756.4380, 7677.000
757.5850, 7602.000
758.7330, 7640.000
759.8800, 7725.000
761.0270, 7638.000
762.1730, 7746.000
763.3200, 7882.000
764.4670, 7913.000
765.6130, 7879.000
766.7590, 7790.000
767.9050, 7907.000
769.0510, 8017.000
770.1960, 8037.000
771.3420, 8142.000
772.4870, 8079.000
773.6320, 8175.000
774.7770, 8193.000
775.9220, 8292.000
777.0670, 8325.000
778.2110, 8368.405
779.3560, 8348.000
780.5000, 8466.000
781.6440, 8529.000
782.7880, 8622.000
783.9320, 8589.000
785.0750, 8662.000
786.2180, 8701.178
787.3620, 8760.000
788.5050, 8756.000
789.6480, 8757.000
790.7900, 8703.000
791.9330, 8709.000
793.0750, 8804.000
794.2170, 8731.000
795.3590, 8650.000
796.5010, 8759.000
797.6430, 8659.000
798.7850, 8648.000
799.9260, 8501.000
801.0670, 8669.000
802.2080, 8522.000
803.3490, 8527.000
804.4900, 8529.000
805.6310, 8318.000
806.7710, 8375.000
807.9110, 8229.000
809.0510, 8383.000
810.1910, 8367.000
811.3310, 8377.000
812.4710, 8243.000
813.6100, 8403.000
814.7490, 8315.000
815.8880, 8352.000
817.0270, 8263.000
818.1660, 8344.000
819.3050, 8313.000
820.4430, 8320.000
821.5820, 8353.000
822.7200, 8205.000
823.8580, 8085.000
824.9950, 8161.000
826.1330, 8084.000
827.2710, 8026.000
828.4080, 8020.000
829.5450, 8019.000
830.6820, 8004.523
831.8190, 7966.000
832.9560, 8011.000
834.0920, 7961.000
835.2280, 7958.000
836.3650, 7980.000
837.5010, 8014.000
838.6360, 8035.000
839.7720, 8078.000
840.9080, 8092.317
842.0430, 8064.000
843.1780, 8136.000
844.3130, 8149.000
845.4480, 8190.000
846.5830, 8289.000
847.7170, 8225.000
848.8520, 8226.000
849.9860, 8210.000
851.1200, 8466.000
852.2540, 8428.000
853.3870, 8516.000
854.5210, 8531.000
855.6540, 8515.000
856.7880, 8756.000
857.9210, 8847.000
859.0540, 8988.000
860.1860, 8963.000
861.3190, 8950.000
862.4510, 8856.000
863.5840, 8763.000
864.7160, 8761.000
865.8480, 8549.000
866.9790, 8475.000
868.1110, 8371.000
869.2420, 8224.000
870.3740, 8172.000
871.5050, 8151.000
872.6360, 8176.000
873.7660, 8181.000
874.8970, 8146.000
876.0280, 8157.571
877.1580, 8009.000
878.2880, 8117.000
879.4180, 8041.000
880.5480, 7967.000
881.6770, 8040.000
882.8070, 7896.000
883.9360, 7904.000
885.0650, 7860.000
886.1940, 7995.000
887.3230, 7990.000
888.4520, 7937.000
889.5800, 8029.000
890.7090, 7933.000
891.8370, 7914.000
892.9650, 7871.000
894.0930, 7988.000
895.2200, 8015.000
896.3480, 7982.619
897.4750, 7969.000
898.6020, 7918.000
899.7290, 7932.000
900.8560, 7899.000
901.9830, 7928.000
903.1090, 8026.000
904.2360, 7995.000
905.3620, 7878.000
906.4880, 8021.000
907.6140, 7954.000
908.7400, 7901.000
909.8650, 7987.000
910.9900, 7812.000
912.1160, 7878.000
913.2410, 7906.000
914.3660, 7753.000
915.4900, 7773.000
916.6150, 7750.000
917.7390, 7715.000
918.8640, 7625.000
919.9880, 7766.000
921.1120, 7527.000
922.2350, 7702.000
923.3590, 7673.000
924.4820, 7580.000
925.6060, 7631.000
926.7290, 7642.000
927.8520, 7735.000
928.9740, 7736.000
930.0970, 7786.000
931.2190, 7746.000
932.3420, 7690.000
933.4640, 7661.000
934.5860, 7700.000
935.7080, 7674.000
936.8290, 7679.000
937.9510, 7625.000
939.0720, 7612.000
940.1930, 7683.000
941.3140, 7567.000
942.4350, 7600.000
943.5560, 7657.000
944.6760, 7718.000
945.7960, 7718.000
946.9170, 7709.000
948.0370, 7649.000
949.1560, 7684.000
950.2760, 7730.000
951.3960, 7771.000
952.5150, 7628.000
953.6340, 7823.000
954.7530, 7786.000
955.8720, 7766.000
956.9910, 7863.000
958.1090, 7668.000
959.2280, 7848.000
960.3460, 7817.294
961.4640, 7827.366
962.5820, 7879.000
963.6990, 7828.000
964.8170, 7849.000
965.9340, 7697.000
967.0510, 7733.000
968.1690, 7651.000
969.2850, 7775.000
970.4020, 7703.000
971.5190, 7697.000
972.6350, 7575.000
973.7510, 7630.000
974.8670, 7720.000
975.9830, 7605.000
977.0990, 7642.000
978.2150, 7778.000
979.3300, 7707.000
980.4450, 7777.000
981.5600, 7745.000
982.6750, 7767.000
983.7900, 7832.000
984.9050, 7900.000
986.0190, 7996.000
987.1340, 7922.000
988.2480, 8053.000
989.3620, 7943.000
990.4750, 7973.000
991.5890, 8032.000
992.7020, 8066.000
993.8160, 8148.000
994.9290, 8170.000
996.0420, 8330.000
997.1550, 8558.000
998.2670, 8658.000
999.3800, 8990.000
1000.492, 9325.000
1001.604, 9596.000
1002.716, 9610.000
1003.828, 9529.000
1004.940, 9095.000
1006.051, 8762.000
1007.163, 8523.000
1008.274, 8464.000
1009.385, 8428.000
1010.496, 8397.000
1011.606, 8387.000
1012.717, 8419.000
1013.827, 8504.000
1014.937, 8503.000
1016.047, 8580.000
1017.157, 8634.000
1018.267, 8682.000
1019.377, 8803.000
1020.486, 8836.000
1021.595, 9010.000
1022.704, 8952.000
1023.813, 9023.000
1024.922, 8883.000
1026.030, 8847.000
1027.139, 8759.000
1028.247, 8748.063
1029.355, 8690.000
1030.463, 8655.195
1031.571, 8666.000
1032.678, 8628.000
1033.786, 8648.000
1034.893, 8707.000
1036.000, 8642.000
1037.107, 8654.000
1038.214, 8738.000
1039.321, 8596.000
1040.427, 8707.000
1041.533, 8714.000
1042.639, 8676.000
1043.745, 8566.000
1044.851, 8635.000
1045.957, 8682.000
1047.062, 8781.000
1048.168, 8757.000
1049.273, 8783.238
1050.378, 8767.000
1051.482, 8753.000
1052.587, 8684.000
1053.692, 8647.000
1054.796, 8766.000
1055.900, 8777.000
1057.004, 8551.000
1058.108, 8588.000
1059.212, 8711.000
1060.315, 8681.000
1061.418, 8759.000
1062.522, 8710.000
1063.625, 8713.000
1064.728, 8832.000
1065.830, 8761.000
1066.933, 8778.000
1068.035, 9012.000
1069.137, 8919.000
1070.239, 9101.000
1071.341, 8951.000
1072.443, 9137.000
1073.545, 9148.000
1074.646, 9271.000
1075.747, 9397.000
1076.848, 9475.000
1077.949, 9737.000
1079.050, 9750.000
1080.150, 9988.000
1081.251, 9884.000
1082.351, 10140.00
1083.451, 9961.000
1084.551, 10211.00
1085.651, 10221.00
1086.750, 10177.00
1087.850, 10353.00
1088.949, 10256.00
1090.048, 10238.00
1091.147, 10233.00
1092.246, 10338.00
1093.345, 10338.00
1094.443, 10272.00
1095.541, 10323.00
1096.639, 10311.00
1097.737, 10382.00
1098.835, 10342.00
1099.933, 10381.90
1101.030, 10503.00
1102.128, 10449.00
1103.225, 10488.00
1104.322, 10570.00
1105.419, 10470.00
1106.515, 10579.00
1107.612, 10584.00
1108.708, 10521.00
1109.804, 10651.00
1110.900, 10702.00
1111.996, 10616.00
1113.092, 10766.00
1114.187, 10690.00
1115.283, 10545.00
1116.378, 10668.00
1117.473, 10638.00
1118.568, 10526.00
1119.662, 10456.00
1120.757, 10642.00
1121.851, 10627.00
1122.946, 10634.00
1124.040, 10628.00
1125.134, 10587.00
1126.227, 10624.07
1127.321, 10573.00
1128.414, 10658.00
1129.508, 10570.00
1130.601, 10542.00
1131.693, 10622.00
1132.786, 10677.00
1133.879, 10497.00
1134.971, 10505.00
1136.064, 10594.00
1137.156, 10492.00
1138.248, 10503.00
1139.339, 10414.00
1140.431, 10318.00
1141.522, 10345.00
1142.614, 10349.00
1143.705, 10292.00
1144.796, 10365.00
1145.887, 10274.00
1146.977, 10427.00
1148.068, 10265.00
1149.158, 10401.00
1150.248, 10266.00
1151.338, 10351.00
1152.428, 10337.00
1153.518, 10192.00
1154.607, 10164.00
1155.696, 10131.00
1156.785, 10175.00
1157.874, 10215.00
1158.963, 10250.00
1160.052, 10282.00
1161.141, 10110.00
1162.229, 10195.00
1163.317, 10207.00
1164.405, 10047.00
1165.493, 10105.00
1166.581, 10156.00
1167.668, 10081.00
1168.756, 10106.00
1169.843, 10004.00
1170.930, 9984.000
1172.017, 9985.000
1173.103, 9994.000
1174.190, 9874.000
1175.276, 9879.702
1176.363, 9884.000
1177.449, 9780.000
1178.535, 9740.000
1179.620, 9647.000
1180.706, 9596.000
1181.791, 9655.000
1182.877, 9615.000
1183.962, 9460.000
1185.047, 9477.000
1186.131, 9336.000
1187.216, 9410.000
1188.300, 9161.000
1189.385, 9167.000
1190.469, 9203.000
1191.553, 9103.000
1192.637, 9039.000
1193.720, 8931.000
1194.804, 8875.000
1195.887, 8838.000
1196.970, 8786.753
1198.053, 8700.000
1199.136, 8754.000
1200.219, 8763.000
1201.301, 8792.000
1202.383, 8678.000
1203.465, 8688.000
1204.547, 8647.000
1205.629, 8703.000
1206.711, 8641.203
1207.792, 8601.000
1208.874, 8525.000
1209.955, 8538.000
1211.036, 8431.000
1212.117, 8470.000
1213.198, 8567.000
1214.278, 8627.000
1215.359, 8502.000
1216.439, 8537.000
1217.519, 8477.000
1218.599, 8512.000
1219.678, 8364.000
1220.758, 8405.000
1221.837, 8392.000
1222.917, 8425.000
1223.996, 8495.000
1225.075, 8442.000
1226.153, 8474.000
1227.232, 8414.000
1228.310, 8560.000
1229.389, 8486.000
1230.467, 8485.000
1231.545, 8639.000
1232.622, 8563.000
1233.700, 8563.000
1234.777, 8640.000
1235.855, 8636.000
1236.932, 8726.000
1238.009, 8720.000
1239.086, 8618.000
1240.162, 8519.000
1241.239, 8633.000
1242.315, 8639.000
1243.391, 8623.000
1244.467, 8652.000
1245.543, 8719.000
1246.619, 8650.000
1247.694, 8688.000
1248.769, 8761.000
1249.844, 8875.000
1250.919, 8658.000
1251.994, 8729.000
1253.069, 8713.000
1254.144, 8705.000
1255.218, 8799.000
1256.292, 8722.000
1257.366, 8828.000
1258.440, 8845.000
1259.514, 8811.000
1260.587, 8889.000
1261.661, 8850.000
1262.734, 8921.000
