##NAMES=Heulandite-Ca
##RRUFFID=R050097
##IDEAL CHEMISTRY=(Ca,Na,K)_5_(Si_27_Al_9_)O_72_&#183;26H_2_O
##LOCALITY=Rat's Nest Claim, Custer County, Idaho, USA
##OWNER=RRUFF
##SOURCE=John Cornish
##DESCRIPTION=Pale pink coffin-shaped tabular single crystals
##STATUS=The identification of this mineral has been confirmed by X-ray diffraction and chemical analysis
##URL=rruff.info/R050097
##MEASURED CHEMISTRY=(Ca_0.66_Na_0.30_K_0.04_)_5_(Si_0.77_Al_0.23_)_36_O_72_Â·24H_2_O
##PIN_ID=L00100
##ORIENTATION=Laser parallel to a* (1 0 0). Fiducial mark perpendicular to laser is parallel to b [0 1 0]
120.5960, 21146.00
121.8270, 21089.00
123.0580, 21159.00
124.2880, 21395.00
125.5190, 21143.00
126.7490, 21158.00
127.9790, 21034.00
129.2090, 21307.00
130.4390, 21086.00
131.6680, 21233.00
132.8980, 21189.00
134.1270, 21178.00
135.3560, 21224.00
136.5850, 20980.00
137.8140, 21472.00
139.0430, 21393.00
140.2710, 21732.00
141.5000, 21499.00
142.7280, 22082.00
143.9560, 22287.00
145.1840, 21591.00
146.4120, 21477.00
147.6390, 21629.00
148.8670, 21473.00
150.0940, 21274.00
151.3210, 21653.00
152.5490, 21319.00
153.7750, 21545.00
155.0020, 21326.00
156.2290, 21418.00
157.4550, 21112.00
158.6810, 21050.00
159.9080, 20926.00
161.1340, 21117.00
162.3590, 21004.00
163.5850, 20941.00
164.8110, 20805.00
166.0360, 20706.38
167.2610, 20647.38
168.4860, 20505.00
169.7110, 20510.00
170.9360, 20474.00
172.1610, 20369.00
173.3850, 20292.00
174.6100, 20322.00
175.8340, 20227.00
177.0580, 20326.00
178.2820, 20345.00
179.5050, 20164.00
180.7290, 20273.00
181.9520, 20352.00
183.1760, 20211.00
184.3990, 20264.00
185.6220, 20467.00
186.8450, 20205.00
188.0670, 20226.00
189.2900, 20412.00
190.5120, 20402.00
191.7340, 20408.00
192.9560, 20407.00
194.1780, 20338.00
195.4000, 20377.87
196.6220, 20433.00
197.8430, 20374.00
199.0640, 20408.00
200.2860, 20324.00
201.5070, 20531.00
202.7270, 20684.00
203.9480, 20532.00
205.1690, 20259.00
206.3890, 20418.00
207.6090, 20355.00
208.8290, 20352.00
210.0490, 20246.00
211.2690, 20242.00
212.4890, 20288.00
213.7080, 20338.00
214.9280, 20397.00
216.1470, 20452.00
217.3660, 20515.00
218.5850, 20465.00
219.8030, 20284.00
221.0220, 20368.00
222.2400, 20496.00
223.4590, 20428.00
224.6770, 20643.00
225.8950, 20672.00
227.1120, 20620.00
228.3300, 20519.00
229.5480, 20757.00
230.7650, 20664.00
231.9820, 20903.00
233.1990, 20945.00
234.4160, 21010.00
235.6330, 20913.00
236.8490, 20931.00
238.0660, 21034.00
239.2820, 21104.00
240.4980, 21203.92
241.7140, 21438.00
242.9300, 21433.00
244.1460, 21528.00
245.3610, 21636.00
246.5770, 21624.00
247.7920, 21734.00
249.0070, 21836.00
250.2220, 21768.00
251.4370, 21791.00
252.6510, 21683.00
253.8660, 21821.00
255.0800, 21864.51
256.2940, 22133.00
257.5080, 22109.00
258.7220, 22214.05
259.9360, 22388.00
261.1490, 22170.00
262.3630, 22240.00
263.5760, 22070.00
264.7890, 22226.00
266.0020, 22074.00
267.2150, 22223.00
268.4270, 22348.00
269.6400, 22196.00
270.8520, 22368.00
272.0640, 22184.00
273.2760, 22317.00
274.4880, 22416.00
275.7000, 22433.00
276.9120, 22495.67
278.1230, 22570.00
279.3340, 22477.00
280.5450, 22500.00
281.7560, 22381.00
282.9670, 22492.00
284.1780, 22600.00
285.3880, 22533.00
286.5980, 22507.00
287.8090, 22863.00
289.0190, 22697.00
290.2290, 22699.00
291.4380, 22726.00
292.6480, 22642.00
293.8570, 22849.00
295.0670, 22894.00
296.2760, 22963.00
297.4850, 23029.00
298.6930, 22822.00
299.9020, 23013.00
301.1110, 22875.00
302.3190, 22959.00
303.5270, 23110.00
304.7350, 22863.00
305.9430, 23371.00
307.1510, 23396.00
308.3580, 23216.00
309.5660, 23403.00
310.7730, 23189.00
311.9800, 23761.00
313.1870, 23585.00
314.3940, 23600.00
315.6010, 23700.00
316.8070, 23776.00
318.0130, 23686.00
319.2200, 23958.00
320.4260, 23854.00
321.6310, 24226.00
322.8370, 24321.00
324.0430, 24037.00
325.2480, 24201.00
326.4540, 24144.00
327.6590, 24429.00
328.8640, 24460.00
330.0680, 24648.00
331.2730, 24611.00
332.4780, 24673.00
333.6820, 24701.00
334.8860, 24785.00
336.0900, 24822.00
337.2940, 24940.00
338.4980, 25133.00
339.7010, 25175.00
340.9050, 25363.00
342.1080, 25316.00
343.3110, 25504.00
344.5140, 25495.00
345.7170, 25720.00
346.9200, 25586.00
348.1220, 25704.00
349.3240, 26115.00
350.5270, 26062.00
351.7290, 26190.00
352.9310, 26175.00
354.1320, 26606.00
355.3340, 26626.00
356.5350, 26858.00
357.7370, 26845.00
358.9380, 27196.00
360.1390, 27359.00
361.3400, 27575.00
362.5400, 27619.00
363.7410, 27821.00
364.9410, 28076.00
366.1410, 28111.00
367.3410, 28091.00
368.5410, 28400.00
369.7410, 28573.00
370.9400, 28818.00
372.1400, 29082.00
373.3390, 29255.29
374.5380, 29601.00
375.7370, 29657.00
376.9360, 29842.00
378.1350, 30066.00
379.3330, 30378.00
380.5310, 30695.00
381.7300, 31008.00
382.9280, 31483.00
384.1260, 31729.00
385.3230, 31969.00
386.5210, 32587.00
387.7180, 33048.00
388.9160, 33634.00
390.1130, 33919.00
391.3100, 34555.00
392.5060, 34890.00
393.7030, 35443.00
394.9000, 36001.00
396.0960, 36433.00
397.2920, 36848.00
398.4880, 37452.00
399.6840, 37691.00
400.8800, 37819.00
402.0750, 37905.00
403.2710, 37790.00
404.4660, 37776.00
405.6610, 37676.00
406.8560, 37295.00
408.0510, 36887.00
409.2450, 36562.00
410.4400, 35894.00
411.6340, 35428.00
412.8280, 34915.00
414.0220, 34316.00
415.2160, 33735.00
416.4100, 33425.00
417.6030, 32805.00
418.7970, 32295.00
419.9900, 31606.00
421.1830, 31012.00
422.3760, 30820.00
423.5690, 30262.00
424.7610, 30020.00
425.9540, 29589.00
427.1460, 29299.00
428.3380, 28739.00
429.5300, 28705.00
430.7220, 28157.00
431.9140, 28211.00
433.1050, 28076.00
434.2970, 27798.00
435.4880, 27639.00
436.6790, 27404.00
437.8700, 27368.00
439.0610, 27318.34
440.2510, 27463.00
441.4420, 27351.00
442.6320, 27497.00
443.8220, 27499.00
445.0120, 27483.00
446.2020, 27458.00
447.3910, 27340.00
448.5810, 27736.00
449.7700, 27708.00
450.9600, 27968.00
452.1490, 27999.00
453.3370, 28041.00
454.5260, 28432.00
455.7150, 28664.00
456.9030, 29078.00
458.0910, 29430.00
459.2800, 29630.00
460.4670, 30012.00
461.6550, 30369.00
462.8430, 30568.00
464.0300, 30922.00
465.2180, 31255.00
466.4050, 31383.00
467.5920, 31775.00
468.7790, 32266.00
469.9650, 32734.00
471.1520, 33010.75
472.3380, 33123.00
473.5250, 33542.00
474.7110, 33956.00
475.8970, 34197.00
477.0820, 34653.00
478.2680, 34774.00
479.4540, 34651.00
480.6390, 34960.00
481.8240, 34552.00
483.0090, 34245.00
484.1940, 34365.00
485.3780, 33654.00
486.5630, 33171.00
487.7470, 32648.00
488.9320, 31874.00
490.1160, 31630.00
491.3000, 30809.00
492.4830, 30628.00
493.6670, 29973.00
494.8500, 29483.00
496.0340, 29352.00
497.2170, 28950.00
498.4000, 28684.00
499.5820, 28392.00
500.7650, 28280.00
501.9480, 28089.00
503.1300, 27776.00
504.3120, 27734.00
505.4940, 27756.00
506.6760, 27822.00
507.8580, 27853.00
509.0390, 27553.00
510.2210, 27698.00
511.4020, 27496.00
512.5830, 27429.00
513.7640, 27515.00
514.9450, 27660.00
516.1250, 27637.00
517.3060, 27593.00
518.4860, 27411.00
519.6660, 27657.00
520.8460, 27540.00
522.0260, 27432.00
523.2060, 27488.00
524.3850, 27488.00
525.5650, 27653.00
526.7440, 27641.00
527.9230, 27641.00
529.1020, 27573.00
530.2810, 27456.00
531.4590, 27567.00
532.6380, 27722.00
533.8160, 27677.00
534.9940, 27609.00
536.1720, 27653.37
537.3500, 27618.26
538.5270, 27635.00
539.7050, 27616.00
540.8820, 27651.00
542.0590, 27635.00
543.2360, 27682.61
544.4130, 27848.00
545.5900, 27782.00
546.7660, 27955.00
547.9430, 28021.00
549.1190, 27781.00
550.2950, 27978.00
551.4710, 27821.00
552.6470, 28102.00
553.8220, 28004.00
554.9980, 27913.00
556.1730, 28191.00
557.3480, 28332.00
558.5230, 28409.00
559.6980, 28470.40
560.8730, 28116.00
562.0470, 28379.00
563.2220, 28400.00
564.3960, 28239.00
565.5700, 28519.00
566.7440, 28427.00
567.9170, 28615.00
569.0910, 28515.00
570.2640, 28664.00
571.4380, 28673.00
572.6110, 28741.00
573.7840, 28675.00
574.9570, 28844.00
576.1290, 28668.00
577.3020, 28737.00
578.4740, 28518.00
579.6460, 28831.00
580.8180, 29096.00
581.9900, 28936.00
583.1620, 29093.00
584.3330, 29178.00
585.5040, 29331.00
586.6760, 29150.00
587.8470, 29283.00
589.0180, 29298.00
590.1880, 29431.00
591.3590, 29497.00
592.5290, 29724.00
593.7000, 29802.00
594.8700, 29774.00
596.0400, 29861.00
597.2090, 30176.00
598.3790, 30167.00
599.5490, 30240.00
600.7180, 30168.00
601.8870, 30434.00
603.0560, 30252.00
604.2250, 30828.00
605.3940, 30767.00
606.5620, 30700.00
607.7300, 30891.00
608.8990, 30813.00
610.0670, 30754.00
611.2350, 30750.00
612.4020, 30744.00
613.5700, 30980.00
614.7370, 30636.00
615.9050, 30638.00
617.0720, 30872.00
618.2390, 30567.00
619.4060, 30611.00
620.5720, 30701.00
621.7390, 30616.00
622.9050, 30692.00
624.0710, 30419.00
625.2370, 30570.00
626.4030, 30391.00
627.5690, 30404.00
628.7340, 30310.00
629.9000, 30361.00
631.0650, 30370.00
632.2300, 30456.00
633.3950, 30363.00
634.5600, 30448.00
635.7240, 30130.00
636.8890, 30468.00
638.0530, 30375.00
639.2170, 30265.00
640.3810, 30481.00
641.5450, 30544.00
642.7080, 30828.00
643.8720, 30612.00
645.0350, 30316.00
646.1980, 30655.00
647.3610, 30474.00
648.5240, 30453.00
649.6870, 30828.00
650.8490, 30766.00
652.0120, 30530.00
653.1740, 30564.00
654.3360, 30782.00
655.4980, 30500.00
656.6600, 30803.00
657.8210, 30920.00
658.9830, 30745.00
660.1440, 30725.00
661.3050, 30886.00
662.4660, 30873.00
663.6270, 30831.00
664.7870, 30763.00
665.9480, 30916.00
667.1080, 31028.00
668.2680, 30940.00
669.4280, 31253.00
670.5880, 31069.00
671.7480, 31122.00
672.9070, 31137.00
674.0670, 31382.00
675.2260, 31251.00
676.3850, 31135.00
677.5440, 31362.00
678.7030, 31311.00
679.8610, 31239.00
681.0200, 31672.00
682.1780, 31502.00
683.3360, 31441.00
684.4940, 31403.00
685.6520, 31500.00
686.8090, 31365.00
687.9670, 31480.00
689.1240, 31614.00
690.2810, 31507.00
691.4380, 31614.00
692.5950, 31700.00
693.7520, 31560.00
694.9080, 31709.00
696.0650, 31596.00
697.2210, 31780.00
698.3770, 31767.00
699.5330, 31815.74
700.6880, 31888.41
701.8440, 31882.00
702.9990, 31978.00
704.1550, 31909.00
705.3100, 31962.00
706.4650, 31950.00
707.6190, 31689.00
708.7740, 32106.00
709.9290, 31965.00
711.0830, 32308.00
712.2370, 32233.00
713.3910, 31949.00
714.5450, 32170.00
715.6980, 32000.00
716.8520, 32397.00
718.0050, 32198.00
719.1580, 32451.00
720.3110, 32363.00
721.4640, 32462.00
722.6170, 32516.00
723.7700, 32560.00
724.9220, 32486.00
726.0740, 32315.00
727.2260, 32501.00
728.3780, 32631.00
729.5300, 32420.00
730.6810, 32503.00
731.8330, 32738.00
732.9840, 32539.00
734.1350, 32553.00
735.2860, 32599.00
736.4370, 32935.00
737.5880, 32781.00
738.7380, 32910.00
739.8880, 32926.00
741.0390, 32943.00
742.1890, 32733.00
743.3380, 32894.18
744.4880, 32957.00
745.6380, 33022.00
746.7870, 33326.00
747.9360, 33271.00
749.0850, 33067.00
750.2340, 33450.00
751.3830, 33398.00
752.5310, 33402.00
753.6800, 33493.06
754.8280, 33471.00
755.9760, 33481.00
757.1240, 33433.00
758.2720, 33463.00
759.4190, 33569.00
760.5670, 33324.00
761.7140, 33592.00
762.8610, 33470.00
764.0080, 33673.00
765.1550, 33634.00
766.3020, 33776.00
767.4480, 34028.00
768.5950, 33761.00
769.7410, 34064.00
770.8870, 33887.00
772.0330, 33758.00
773.1780, 33872.00
774.3240, 34001.00
775.4690, 34169.00
776.6140, 33971.00
777.7590, 34022.00
778.9040, 34057.00
780.0490, 34060.00
781.1940, 34290.00
782.3380, 34316.00
783.4820, 34465.00
784.6260, 34128.00
785.7700, 34117.00
786.9140, 34126.00
788.0580, 34368.00
789.2010, 34275.00
790.3450, 34261.00
791.4880, 34460.00
792.6310, 34244.00
793.7730, 34256.00
794.9160, 34370.00
796.0590, 34565.00
797.2010, 34336.00
798.3430, 34388.00
799.4850, 34278.00
800.6270, 34331.00
801.7690, 34407.00
802.9100, 34634.00
804.0520, 34662.00
805.1930, 34522.00
806.3340, 34980.00
807.4750, 34804.00
808.6160, 34807.00
809.7560, 34567.00
810.8970, 34598.00
812.0370, 34720.00
813.1770, 34635.00
814.3170, 34639.00
815.4570, 34951.00
816.5960, 34574.00
817.7360, 34912.00
818.8750, 35168.00
820.0140, 34869.00
821.1530, 34975.00
822.2920, 35173.00
823.4310, 35092.00
824.5690, 35225.08
825.7070, 35187.00
826.8460, 35340.00
827.9840, 35066.00
829.1220, 35118.00
830.2590, 34907.00
831.3970, 35068.00
832.5340, 35325.00
833.6710, 34998.00
834.8080, 35317.00
835.9450, 35407.00
837.0820, 35508.00
838.2190, 35305.00
839.3550, 35333.00
840.4910, 35254.00
841.6270, 35640.00
842.7630, 35368.00
843.8990, 35688.00
845.0350, 35566.00
846.1700, 35669.00
847.3060, 35810.00
848.4410, 35649.00
849.5760, 35761.00
850.7100, 35643.00
851.8450, 35797.00
852.9800, 35746.00
854.1140, 35938.00
855.2480, 35885.00
856.3820, 35913.00
857.5160, 36166.00
858.6500, 36170.00
859.7830, 36081.00
860.9170, 36218.00
862.0500, 36053.00
863.1830, 36296.00
864.3160, 36132.00
865.4480, 36130.00
866.5810, 36165.00
867.7130, 36533.00
868.8460, 36171.00
869.9780, 36467.00
871.1100, 36008.00
872.2410, 36560.00
873.3730, 36428.00
874.5050, 36439.00
875.6360, 36423.00
876.7670, 36416.39
877.8980, 36463.01
879.0290, 36463.00
880.1590, 36604.00
881.2900, 36613.00
882.4200, 36772.00
883.5500, 36836.00
884.6800, 36788.00
885.8100, 36682.00
886.9400, 36769.00
888.0690, 36634.00
889.1990, 36847.00
890.3280, 36753.00
891.4570, 36832.00
892.5860, 36995.00
893.7140, 36847.00
894.8430, 36745.00
895.9710, 37094.00
897.1000, 37337.00
898.2280, 36811.00
899.3560, 37104.00
900.4830, 37053.00
901.6110, 37159.00
902.7380, 37085.00
903.8660, 37126.00
904.9930, 37097.00
906.1200, 37113.55
907.2460, 37222.00
908.3730, 37267.00
909.5000, 37217.00
910.6260, 37505.00
911.7520, 37482.00
912.8780, 37565.00
914.0040, 37750.00
915.1290, 37582.00
916.2550, 37712.00
917.3800, 37710.00
918.5050, 37702.00
919.6300, 37857.00
920.7550, 37796.00
921.8800, 37869.00
923.0040, 37935.73
924.1290, 37774.00
925.2530, 38000.00
926.3770, 37982.00
927.5010, 37886.00
928.6250, 38173.00
929.7480, 38025.00
930.8720, 38203.00
931.9950, 38277.00
933.1180, 38150.00
934.2410, 38097.00
935.3640, 38051.00
936.4860, 38507.00
937.6090, 38342.00
938.7310, 38311.00
939.8530, 38511.00
940.9750, 38426.00
942.0970, 38555.00
943.2180, 38416.00
944.3400, 38735.00
945.4610, 38434.00
946.5820, 38786.00
947.7030, 38696.00
948.8240, 38745.00
949.9450, 38708.00
951.0650, 38806.00
952.1860, 38825.00
953.3060, 39037.00
954.4260, 39025.00
955.5460, 39220.00
956.6650, 39170.00
957.7850, 38835.00
958.9040, 39171.00
960.0230, 39185.00
961.1420, 39025.00
962.2610, 39332.00
963.3800, 39103.00
964.4990, 38897.00
965.6170, 39251.00
966.7350, 39237.00
967.8530, 39364.00
968.9710, 39152.00
970.0890, 39565.00
971.2070, 39432.00
972.3240, 39751.00
973.4410, 39594.00
974.5580, 39494.00
975.6750, 39717.00
976.7920, 39558.00
977.9090, 39919.00
979.0250, 39859.00
980.1410, 39849.00
981.2580, 39887.00
982.3740, 39803.00
983.4890, 40085.00
984.6050, 40070.62
985.7200, 39836.00
986.8360, 40258.00
987.9510, 40243.00
989.0660, 40347.00
990.1810, 40135.00
991.2950, 40432.00
992.4100, 40296.00
993.5240, 40238.00
994.6390, 40394.00
995.7530, 40516.00
996.8660, 40354.00
997.9800, 40714.00
999.0940, 40864.00
1000.207, 40594.00
1001.320, 40908.00
1002.433, 41029.00
1003.546, 40870.00
1004.659, 40922.00
1005.772, 40785.00
1006.884, 40701.00
1007.996, 40852.00
1009.108, 41065.00
1010.220, 41134.00
1011.332, 40839.00
1012.444, 41019.00
1013.555, 40987.00
1014.666, 41337.00
1015.777, 41294.00
1016.888, 41280.00
1017.999, 41066.00
1019.110, 41478.00
1020.220, 41330.00
1021.331, 41365.00
1022.441, 41266.00
1023.551, 41526.00
1024.661, 41552.00
1025.770, 41485.00
1026.880, 41699.00
1027.989, 41367.00
1029.098, 41829.00
1030.207, 41636.00
1031.316, 41592.00
1032.425, 41621.00
1033.533, 41828.00
1034.642, 41755.00
1035.750, 41700.00
1036.858, 42054.00
1037.966, 41829.00
1039.073, 41852.00
1040.181, 42253.00
1041.288, 42113.00
1042.396, 42216.00
1043.503, 42297.00
1044.610, 42197.00
1045.716, 42260.00
1046.823, 42322.00
1047.929, 42215.00
1049.036, 42212.00
1050.142, 42437.00
1051.248, 42105.00
1052.353, 42349.00
1053.459, 42677.00
1054.564, 42343.00
1055.670, 42413.00
1056.775, 42424.00
1057.880, 42698.00
1058.985, 42645.00
1060.089, 42821.00
1061.194, 42982.00
1062.298, 42757.00
1063.402, 43040.00
1064.506, 42805.00
1065.610, 43099.00
1066.713, 43034.00
1067.817, 42784.00
1068.920, 43109.00
1070.023, 43058.00
1071.126, 43031.00
1072.229, 43067.00
1073.332, 43272.00
1074.435, 43254.00
1075.537, 43280.35
1076.639, 43359.00
1077.741, 43250.00
1078.843, 43277.00
1079.945, 43297.09
1081.046, 43433.00
1082.148, 43596.00
1083.249, 43656.00
1084.350, 43977.00
1085.451, 43894.00
1086.551, 44002.00
1087.652, 44079.00
1088.752, 44035.00
1089.853, 44131.00
1090.953, 44069.00
1092.053, 44483.00
1093.152, 44377.00
1094.252, 44221.00
1095.351, 44527.00
1096.451, 44247.00
1097.550, 44358.00
1098.649, 44723.00
1099.748, 44242.00
1100.846, 44765.00
1101.945, 44546.00
1103.043, 44773.00
1104.141, 44669.00
1105.239, 44692.00
1106.337, 44633.00
1107.434, 44870.00
1108.532, 44950.00
1109.629, 44784.00
1110.726, 44761.00
1111.823, 45041.00
1112.920, 45190.00
1114.017, 45176.00
1115.113, 45151.00
1116.210, 45547.00
1117.306, 45112.00
1118.402, 45599.00
1119.498, 45784.00
1120.593, 45882.00
1121.689, 46303.00
1122.784, 46080.00
1123.879, 46193.00
1124.974, 46245.00
1126.069, 45821.00
1127.164, 45780.00
1128.259, 45847.00
1129.353, 45770.00
1130.447, 45972.00
1131.541, 45718.00
1132.635, 45725.00
1133.729, 45921.00
1134.822, 45804.00
1135.916, 45696.00
1137.009, 45717.00
1138.102, 45736.68
1139.195, 45781.00
1140.288, 45858.00
1141.380, 45890.00
1142.473, 45835.00
1143.565, 45753.00
1144.657, 46053.00
1145.749, 45796.00
1146.841, 45861.00
1147.932, 46011.00
1149.024, 45757.00
1150.115, 46105.00
1151.206, 45993.00
1152.297, 46096.00
1153.388, 45763.00
1154.479, 46228.00
1155.569, 45929.00
1156.659, 45838.00
1157.750, 46057.00
1158.839, 45792.00
1159.929, 45772.00
1161.019, 46070.00
1162.108, 45872.00
1163.198, 45630.00
1164.287, 45835.00
1165.376, 46098.00
1166.465, 45922.00
1167.553, 46094.00
1168.642, 45857.00
1169.730, 45948.00
1170.818, 46019.00
1171.906, 46002.00
1172.994, 45979.00
1174.082, 45950.00
1175.170, 46130.00
1176.257, 45997.00
1177.344, 46123.00
1178.431, 46172.00
1179.518, 46045.00
1180.605, 46251.00
1181.691, 45933.00
1182.778, 46145.00
1183.864, 46102.00
1184.950, 45912.00
1186.036, 46115.00
1187.122, 45912.00
1188.207, 45875.00
1189.292, 45928.00
1190.378, 46088.00
1191.463, 45860.00
1192.548, 46107.00
1193.632, 45969.00
1194.717, 46122.00
1195.801, 45716.00
1196.886, 46222.00
1197.970, 45973.00
1199.054, 46088.00
1200.137, 46172.00
1201.221, 46282.00
1202.305, 46212.00
1203.388, 46204.00
1204.471, 46233.00
1205.554, 46209.00
1206.637, 46286.00
1207.719, 46208.00
1208.802, 46537.00
1209.884, 46223.00
1210.966, 46316.00
1212.048, 46576.00
1213.130, 46413.00
1214.212, 46152.00
1215.293, 46470.00
1216.374, 46475.00
1217.456, 46399.00
1218.536, 46719.00
1219.617, 46836.00
1220.698, 46816.00
1221.778, 46645.00
1222.859, 46724.00
1223.939, 46632.00
1225.019, 46612.00
1226.099, 46512.00
1227.178, 46764.00
1228.258, 46713.00
1229.337, 46860.00
1230.417, 46999.00
1231.496, 46623.00
1232.574, 46867.00
1233.653, 47075.00
1234.732, 47214.00
1235.810, 46814.00
1236.888, 47125.00
1237.966, 46931.00
1239.044, 47251.00
1240.122, 47407.00
1241.199, 46878.00
1242.277, 46828.00
1243.354, 47439.00
1244.431, 47248.00
1245.508, 47243.00
1246.585, 47039.00
1247.661, 47512.00
1248.738, 47237.00
1249.814, 47401.00
1250.890, 46989.00
1251.966, 47322.00
1253.042, 47420.00
1254.117, 47623.00
1255.193, 47022.00
1256.268, 47262.00
1257.343, 47635.00
1258.418, 47237.00
1259.493, 47631.00
1260.567, 47776.00
1261.642, 47534.00
1262.716, 47828.00
1263.790, 47811.00
1264.864, 47724.00
1265.938, 47950.00
1267.011, 47601.00
1268.085, 47786.00
1269.158, 47772.00
1270.231, 47798.00
1271.304, 47879.00
1272.377, 47758.00
1273.450, 47646.00
1274.522, 47907.00
1275.594, 47939.00
1276.666, 48006.00
1277.738, 47934.00
1278.810, 47991.00
1279.882, 47982.00
1280.953, 48105.00
1282.025, 48092.00
1283.096, 48099.00
1284.167, 48088.00
1285.238, 48522.00
1286.308, 48067.00
1287.379, 48348.00
1288.449, 48637.00
1289.519, 48258.00
1290.589, 48287.00
1291.659, 48485.00
1292.729, 48633.00
1293.798, 48576.00
1294.868, 48573.00
