##NAMES=Heulandite-Ca
##RRUFFID=R060465
##IDEAL CHEMISTRY=(Ca,Na,K)_5_(Si_27_Al_9_)O_72_&#183;26H_2_O
##LOCALITY=Garrawilla, near Gunnadah, New South Wales, Australia
##OWNER=RRUFF
##SOURCE=Michael Scott
##DESCRIPTION=Orange fan of platy crystals
##STATUS=The identification of this mineral has been confirmed by X-ray diffraction and chemical analysis
##URL=rruff.info/R060465
##MEASURED CHEMISTRY=(Ca_0.66_Na_0.24_K_0.10_)_5_(Si_0.77_Al_0.23_)_36_O_72_Â·24H_2_O
##PIN_ID=M01887
##ORIENTATION=Laser parallel to b* (0 1 0). Fiducial mark perpendicular to laser is parallel to -c [0 0 -1]
82.00300, 1974.000
83.24300, 2338.000
84.48300, 2712.000
85.72200, 3192.000
86.96100, 3729.000
88.20000, 4488.000
89.43900, 5205.000
90.67800, 6209.000
91.91600, 7212.000
93.15500, 8367.000
94.39300, 9490.000
95.63100, 10787.00
96.86900, 11992.00
98.10600, 13199.00
99.34400, 14598.00
100.5810, 15697.00
101.8190, 16738.00
103.0560, 18186.00
104.2930, 19194.00
105.5290, 20283.00
106.7660, 21424.00
108.0020, 22262.08
109.2390, 23115.19
110.4750, 23892.00
111.7110, 24604.00
112.9460, 25246.00
114.1820, 25905.43
115.4170, 26480.03
116.6530, 27078.00
117.8880, 27483.00
119.1230, 27971.00
120.3580, 28263.00
121.5920, 28491.00
122.8270, 29088.00
124.0610, 29518.00
125.2950, 29511.00
126.5290, 30258.00
127.7630, 30440.00
128.9970, 30850.00
130.2300, 31421.00
131.4640, 31882.00
132.6970, 32281.74
133.9300, 32619.00
135.1630, 33019.00
136.3950, 33426.00
137.6280, 33700.00
138.8600, 34265.00
140.0920, 34699.00
141.3240, 34945.00
142.5560, 35072.00
143.7880, 35058.00
145.0190, 34877.00
146.2510, 34279.00
147.4820, 33565.00
148.7130, 33104.00
149.9440, 32463.00
151.1750, 31953.00
152.4050, 31276.00
153.6360, 30743.00
154.8660, 30234.00
156.0960, 29896.00
157.3260, 29592.00
158.5560, 29080.00
159.7850, 28721.00
161.0150, 28597.00
162.2440, 28162.00
163.4730, 28112.00
164.7020, 27734.00
165.9310, 27450.00
167.1590, 27048.00
168.3880, 26897.78
169.6160, 26655.23
170.8440, 26542.00
172.0720, 26315.00
173.3000, 25992.00
174.5280, 25802.00
175.7550, 25514.00
176.9820, 25393.00
178.2100, 25260.00
179.4370, 25197.00
180.6630, 24941.00
181.8900, 24891.00
183.1170, 24649.00
184.3430, 24554.43
185.5690, 24461.17
186.7950, 24357.00
188.0210, 24280.00
189.2470, 24200.00
190.4720, 24081.00
191.6970, 24116.00
192.9230, 23960.00
194.1480, 23906.00
195.3730, 23967.00
196.5970, 23915.00
197.8220, 23932.00
199.0460, 23938.00
200.2700, 24076.00
201.4940, 23751.00
202.7180, 23790.00
203.9420, 23784.00
205.1660, 23404.00
206.3890, 23364.00
207.6120, 23370.00
208.8350, 23424.00
210.0580, 23422.00
211.2810, 23527.00
212.5040, 23519.00
213.7260, 23394.00
214.9480, 23261.00
216.1700, 23279.00
217.3920, 23344.00
218.6140, 23358.00
219.8360, 23333.00
221.0570, 23395.00
222.2790, 23545.00
223.5000, 23573.00
224.7210, 23461.00
225.9410, 23422.00
227.1620, 23825.00
228.3820, 23632.00
229.6030, 23834.00
230.8230, 23902.00
232.0430, 23822.00
233.2630, 24242.00
234.4820, 24195.00
235.7020, 24353.00
236.9210, 24543.00
238.1400, 24433.00
239.3590, 24562.00
240.5780, 24630.00
241.7970, 24865.00
243.0150, 24882.00
244.2340, 25160.00
245.4520, 25366.00
246.6700, 25476.00
247.8880, 25570.00
249.1060, 25647.01
250.3230, 25534.00
251.5400, 25693.00
252.7580, 25646.00
253.9750, 25611.00
255.1920, 25359.00
256.4080, 25475.00
257.6250, 25508.00
258.8410, 25547.00
260.0580, 25529.00
261.2740, 25181.00
262.4900, 24989.00
263.7050, 24908.00
264.9210, 24812.00
266.1360, 24815.00
267.3520, 24628.00
268.5670, 24556.00
269.7820, 24460.00
270.9960, 24291.72
272.2110, 24082.00
273.4250, 24088.00
274.6400, 23954.00
275.8540, 24064.00
277.0680, 24085.00
278.2810, 24026.00
279.4950, 23794.00
280.7090, 23697.00
281.9220, 23715.00
283.1350, 23712.00
284.3480, 23654.00
285.5610, 23638.00
286.7730, 23460.00
287.9860, 23570.00
289.1980, 23638.00
290.4100, 23492.00
291.6220, 23648.00
292.8340, 23490.00
294.0460, 23430.00
295.2570, 23597.00
296.4690, 23447.00
297.6800, 23498.00
298.8910, 23614.00
300.1020, 23577.00
301.3120, 23747.00
302.5230, 23740.73
303.7330, 23518.00
304.9440, 23742.00
306.1540, 23684.00
307.3630, 23581.00
308.5730, 23791.00
309.7830, 23678.00
310.9920, 23810.00
312.2010, 23805.00
313.4100, 23751.00
314.6190, 23722.00
315.8280, 24062.00
317.0370, 23809.00
318.2450, 23752.00
319.4530, 24227.00
320.6610, 24199.00
321.8690, 24049.00
323.0770, 24166.00
324.2850, 24291.00
325.4920, 24408.00
326.6990, 24602.00
327.9060, 24824.00
329.1130, 24646.00
330.3200, 24776.00
331.5270, 24598.00
332.7330, 24712.00
333.9390, 24725.00
335.1450, 24888.00
336.3510, 24799.00
337.5570, 24771.00
338.7630, 24698.00
339.9680, 24937.00
341.1740, 24923.73
342.3790, 25215.00
343.5840, 25098.00
344.7890, 25282.00
345.9930, 25344.00
347.1980, 25706.00
348.4020, 25711.00
349.6060, 25725.00
350.8100, 26063.00
352.0140, 25989.00
353.2180, 26129.00
354.4210, 26125.00
355.6250, 26466.00
356.8280, 26556.00
358.0310, 26672.00
359.2340, 27033.00
360.4360, 27102.00
361.6390, 27280.00
362.8410, 27563.00
364.0430, 27760.00
365.2450, 27974.00
366.4470, 28203.74
367.6490, 28359.00
368.8510, 28613.00
370.0520, 28942.00
371.2530, 29127.00
372.4540, 29432.03
373.6550, 29798.00
374.8560, 29986.00
376.0560, 30331.00
377.2570, 30628.00
378.4570, 31220.00
379.6570, 31659.00
380.8570, 32145.00
382.0570, 32396.00
383.2560, 33034.00
384.4560, 33579.00
385.6550, 33806.00
386.8540, 34732.00
388.0530, 35471.00
389.2520, 36107.00
390.4510, 36683.00
391.6490, 37512.00
392.8470, 38590.00
394.0450, 39194.00
395.2430, 40213.00
396.4410, 40853.00
397.6390, 41278.00
398.8360, 42027.00
400.0340, 42489.00
401.2310, 43026.00
402.4280, 43134.00
403.6250, 43138.00
404.8210, 42777.00
406.0180, 42395.00
407.2140, 42086.00
408.4100, 41365.00
409.6060, 40346.00
410.8020, 39826.00
411.9980, 39023.00
413.1930, 38185.00
414.3890, 37387.00
415.5840, 36580.00
416.7790, 35886.00
417.9740, 34929.00
419.1680, 34007.00
420.3630, 33251.00
421.5570, 32795.00
422.7510, 32109.00
423.9450, 31501.00
425.1390, 30740.00
426.3330, 30429.00
427.5270, 29483.00
428.7200, 29414.00
429.9130, 28769.00
431.1060, 28510.00
432.2990, 27835.00
433.4920, 27731.00
434.6840, 27705.00
435.8770, 27494.00
437.0690, 27029.00
438.2610, 26994.00
439.4530, 26731.00
440.6450, 26601.00
441.8360, 26410.00
443.0280, 26593.00
444.2190, 26515.00
445.4100, 26571.00
446.6010, 26731.00
447.7920, 26573.00
448.9820, 26449.00
450.1730, 26563.00
451.3630, 26875.00
452.5530, 26768.00
453.7430, 27067.00
454.9330, 27554.00
456.1230, 27592.00
457.3120, 27917.00
458.5010, 28270.00
459.6910, 28590.00
460.8800, 28979.00
462.0680, 29454.00
463.2570, 29792.00
464.4460, 30196.00
465.6340, 30495.00
466.8220, 30771.00
468.0100, 31276.00
469.1980, 31565.00
470.3860, 32080.00
471.5730, 32346.00
472.7600, 32798.00
473.9480, 33593.00
475.1350, 34227.00
476.3210, 34839.00
477.5080, 35602.00
478.6950, 36103.00
479.8810, 36714.00
481.0670, 37101.00
482.2530, 37262.00
483.4390, 37273.00
484.6250, 36961.00
485.8100, 36426.00
486.9960, 35614.00
488.1810, 34916.00
489.3660, 34060.00
490.5510, 32783.00
491.7360, 31986.00
492.9200, 31379.00
494.1050, 30079.00
495.2890, 29445.00
496.4730, 28836.00
497.6570, 28144.00
498.8400, 27685.00
500.0240, 27378.00
501.2070, 26986.00
502.3910, 26661.00
503.5740, 26281.00
504.7570, 26298.00
505.9400, 26030.00
507.1220, 25915.00
508.3050, 25659.00
509.4870, 25737.00
510.6690, 25535.00
511.8510, 25442.00
513.0330, 25693.00
514.2140, 25567.00
515.3960, 25277.00
516.5770, 25263.00
517.7580, 25384.00
518.9390, 25428.00
520.1200, 25412.00
521.3010, 25436.00
522.4810, 25295.00
523.6610, 25465.00
524.8420, 25176.00
526.0220, 25096.00
527.2010, 25134.00
528.3810, 25152.00
529.5610, 25378.00
530.7400, 25519.00
531.9190, 25373.00
533.0980, 25264.00
534.2770, 25258.00
535.4560, 25202.00
536.6340, 25182.00
537.8120, 25009.00
538.9910, 25152.00
540.1690, 25257.00
541.3460, 25084.00
542.5240, 25130.00
543.7020, 25267.00
544.8790, 25069.00
546.0560, 25278.00
547.2330, 25302.00
548.4100, 25099.00
549.5870, 25157.00
550.7630, 25151.00
551.9400, 25160.00
553.1160, 25180.00
554.2920, 25337.00
555.4680, 25370.00
556.6440, 25476.00
557.8190, 25222.00
558.9950, 25316.00
560.1700, 25307.00
561.3450, 25371.00
562.5200, 25525.00
563.6950, 25508.94
564.8690, 25585.00
566.0440, 25491.00
567.2180, 25488.00
568.3920, 25303.00
569.5660, 25429.00
570.7400, 25663.00
571.9130, 25607.00
573.0870, 25536.00
574.2600, 25777.00
575.4330, 25636.00
576.6060, 25643.00
577.7790, 25689.00
578.9520, 25704.07
580.1240, 25808.00
581.2960, 25910.00
582.4690, 25873.00
583.6410, 26065.00
584.8120, 26189.00
585.9840, 26230.12
587.1560, 26339.00
588.3270, 26355.00
589.4980, 26507.00
590.6690, 26530.00
591.8400, 26603.00
593.0110, 26747.02
594.1810, 27088.00
595.3510, 27005.00
596.5220, 27295.00
597.6920, 27412.00
598.8610, 27464.00
600.0310, 27707.00
601.2010, 28061.00
602.3700, 28187.00
603.5390, 28495.00
604.7080, 28656.00
605.8770, 28709.00
607.0460, 28870.00
608.2140, 29158.00
609.3830, 29188.00
610.5510, 29316.00
611.7190, 29525.00
612.8870, 29449.00
614.0550, 29437.00
615.2220, 29469.00
616.3900, 29161.00
617.5570, 29115.00
618.7240, 28986.00
619.8910, 28935.00
621.0580, 28642.00
622.2240, 28961.00
623.3910, 28510.00
624.5570, 28556.00
625.7230, 28384.00
626.8890, 28236.00
628.0550, 28181.00
629.2200, 27905.00
630.3860, 27892.00
631.5510, 27624.00
632.7160, 27620.00
633.8810, 27671.00
635.0460, 27479.00
636.2100, 27474.00
637.3750, 27554.00
638.5390, 27240.00
639.7030, 27573.00
640.8670, 27338.00
642.0310, 27412.00
643.1950, 27367.00
644.3580, 27379.00
645.5210, 27362.00
646.6850, 27340.00
647.8480, 27381.34
649.0100, 27346.56
650.1730, 27424.00
651.3350, 27268.00
652.4980, 27205.00
653.6600, 27056.00
654.8220, 27219.00
655.9840, 27138.00
657.1450, 27242.00
658.3070, 26949.00
659.4680, 26727.00
660.6300, 26938.00
661.7910, 26715.00
662.9510, 26778.00
664.1120, 26746.00
665.2730, 26870.00
666.4330, 26846.00
667.5930, 26685.00
668.7530, 26858.00
669.9130, 26849.00
671.0730, 26757.00
672.2320, 26808.00
673.3920, 26806.12
674.5510, 26830.00
675.7100, 26843.04
676.8690, 26839.74
678.0280, 26851.00
679.1860, 26838.00
680.3450, 26828.00
681.5030, 26832.00
682.6610, 27039.00
683.8190, 26875.00
684.9770, 26813.00
686.1340, 26616.00
687.2920, 26956.00
688.4490, 26946.00
689.6060, 27085.00
690.7630, 26923.00
691.9200, 26985.00
693.0760, 27057.00
694.2330, 27094.00
695.3890, 27100.00
696.5450, 27111.25
697.7010, 27193.00
698.8570, 27121.00
700.0130, 27123.00
701.1680, 27215.00
702.3230, 27315.00
703.4780, 27335.00
704.6330, 27252.00
705.7880, 27201.00
706.9430, 27259.00
708.0970, 27369.00
709.2520, 27478.00
710.4060, 27509.00
711.5600, 27578.00
712.7140, 27384.00
713.8670, 27571.00
715.0210, 27574.00
716.1740, 27679.00
717.3270, 27754.00
718.4800, 27735.00
719.6330, 27747.04
720.7860, 27773.03
721.9380, 27772.23
723.0910, 27822.00
724.2430, 27827.00
725.3950, 27905.00
726.5470, 27999.00
727.6980, 27753.00
728.8500, 27816.00
730.0010, 27873.00
731.1530, 27964.00
732.3040, 28091.00
733.4550, 28034.00
734.6050, 27955.00
735.7560, 27817.00
736.9060, 27928.00
738.0560, 27961.00
739.2060, 27877.00
740.3560, 28157.00
741.5060, 27943.00
742.6560, 28462.00
743.8050, 28183.00
744.9540, 28077.00
746.1030, 28232.00
747.2520, 28323.00
748.4010, 28287.00
749.5500, 28304.00
750.6980, 28231.00
751.8460, 28299.00
752.9950, 28237.00
754.1420, 28288.24
755.2900, 28411.00
756.4380, 28421.00
757.5850, 28434.00
758.7330, 28576.00
759.8800, 28543.00
761.0270, 28665.00
762.1730, 28808.00
763.3200, 28741.00
764.4670, 28889.00
765.6130, 29182.00
766.7590, 29144.00
767.9050, 29017.00
769.0510, 29403.00
770.1960, 29365.00
771.3420, 29278.00
772.4870, 29513.00
773.6320, 29367.00
774.7770, 29697.00
775.9220, 29775.00
777.0670, 29700.00
778.2110, 29758.00
779.3560, 29781.00
780.5000, 29736.00
781.6440, 29806.00
782.7880, 30078.00
783.9320, 30108.00
785.0750, 29896.00
786.2180, 30188.00
787.3620, 30100.00
788.5050, 29731.00
789.6480, 30041.00
790.7900, 30096.00
791.9330, 30184.00
793.0750, 30114.00
794.2170, 30329.00
795.3590, 30166.00
796.5010, 30160.00
797.6430, 29837.00
798.7850, 30003.00
799.9260, 29980.00
801.0670, 29886.00
802.2080, 30087.00
803.3490, 30059.00
804.4900, 29806.00
805.6310, 30003.00
806.7710, 29884.00
807.9110, 29874.00
809.0510, 30229.00
810.1910, 30200.00
811.3310, 30276.00
812.4710, 30373.00
813.6100, 30622.00
814.7490, 30545.00
815.8880, 30771.31
817.0270, 30411.00
818.1660, 31022.00
819.3050, 30715.00
820.4430, 30681.00
821.5820, 30364.00
822.7200, 30211.00
823.8580, 30277.00
824.9950, 30072.00
826.1330, 30079.00
827.2710, 30198.00
828.4080, 29955.00
829.5450, 30064.00
830.6820, 30145.00
831.8190, 30331.00
832.9560, 29732.00
834.0920, 29788.00
835.2280, 29947.00
836.3650, 29755.00
837.5010, 29938.00
838.6360, 29777.00
839.7720, 29992.00
840.9080, 29954.00
842.0430, 29936.00
843.1780, 29826.00
844.3130, 30132.00
845.4480, 30049.00
846.5830, 30158.00
847.7170, 30332.00
848.8520, 30081.00
849.9860, 30428.00
851.1200, 30247.00
852.2540, 30200.00
853.3870, 30209.00
854.5210, 30244.14
855.6540, 30376.00
856.7880, 30487.00
857.9210, 30641.00
859.0540, 30811.00
860.1860, 30746.00
861.3190, 30748.00
862.4510, 30485.00
863.5840, 30649.00
864.7160, 30499.00
865.8480, 30558.00
866.9790, 30484.00
868.1110, 30255.00
869.2420, 30467.00
870.3740, 30600.00
871.5050, 30323.00
872.6360, 30223.00
873.7660, 30367.00
874.8970, 30451.00
876.0280, 30413.00
877.1580, 30471.00
878.2880, 30487.18
879.4180, 30510.00
880.5480, 30513.00
881.6770, 30454.00
882.8070, 30439.00
883.9360, 30462.00
885.0650, 30333.00
886.1940, 30622.00
887.3230, 30437.00
888.4520, 30718.00
889.5800, 30677.00
890.7090, 30562.00
891.8370, 30572.00
892.9650, 30589.00
894.0930, 30765.00
895.2200, 30486.00
896.3480, 30484.00
897.4750, 30743.00
898.6020, 30946.00
899.7290, 30678.00
900.8560, 30895.00
901.9830, 31029.00
903.1090, 30807.00
904.2360, 30692.00
905.3620, 30946.00
906.4880, 30965.00
907.6140, 30821.00
908.7400, 30987.00
909.8650, 30870.00
910.9900, 30825.00
912.1160, 31122.00
913.2410, 31020.00
914.3660, 31239.00
915.4900, 31200.00
916.6150, 30747.00
917.7390, 31157.00
918.8640, 31242.00
919.9880, 30981.00
921.1120, 31172.00
922.2350, 31053.00
923.3590, 31138.00
924.4820, 30986.00
925.6060, 31275.00
926.7290, 31336.00
927.8520, 31146.00
928.9740, 31389.00
930.0970, 31328.00
931.2190, 31529.00
932.3420, 31457.00
933.4640, 31550.00
934.5860, 31640.00
935.7080, 31481.00
936.8290, 31419.00
937.9510, 31501.00
939.0720, 31553.00
940.1930, 31486.00
941.3140, 31509.00
942.4350, 31571.74
943.5560, 31668.00
944.6760, 31682.00
945.7960, 31655.00
946.9170, 31626.00
948.0370, 31816.00
949.1560, 31774.00
950.2760, 31640.00
951.3960, 31790.00
952.5150, 31748.00
953.6340, 32049.00
954.7530, 31929.00
955.8720, 32075.00
956.9910, 31958.00
958.1090, 31936.00
959.2280, 31933.00
960.3460, 31932.00
961.4640, 31783.00
962.5820, 32129.00
963.6990, 31925.00
964.8170, 32063.00
965.9340, 32124.00
967.0510, 32092.00
968.1690, 32257.00
969.2850, 32227.31
970.4020, 32159.00
971.5190, 32172.00
972.6350, 32288.00
973.7510, 32097.00
974.8670, 32142.00
975.9830, 32371.00
977.0990, 32111.00
978.2150, 32520.00
979.3300, 32358.00
980.4450, 32451.00
981.5600, 32487.00
982.6750, 32366.00
983.7900, 32602.00
984.9050, 32423.00
986.0190, 32803.00
987.1340, 32657.00
988.2480, 32831.00
989.3620, 32716.00
990.4750, 32923.00
991.5890, 32915.00
992.7020, 32782.00
993.8160, 32891.00
994.9290, 32987.00
996.0420, 33241.00
997.1550, 33177.00
998.2670, 33233.00
999.3800, 33468.00
1000.492, 33868.00
1001.604, 33881.00
1002.716, 33870.00
1003.828, 33851.00
1004.940, 33802.00
1006.051, 33506.00
1007.163, 33634.00
1008.274, 33196.00
1009.385, 33528.00
1010.496, 33533.00
1011.606, 33681.00
1012.717, 33588.00
1013.827, 33711.00
1014.937, 33639.00
1016.047, 33772.00
1017.157, 33484.00
1018.267, 33918.00
1019.377, 33875.00
1020.486, 34113.00
1021.595, 34010.00
1022.704, 34378.00
1023.813, 34112.00
1024.922, 34098.00
1026.030, 34201.00
1027.139, 34219.00
1028.247, 34186.00
1029.355, 34256.84
1030.463, 34156.00
1031.571, 34241.00
1032.678, 34209.00
1033.786, 34032.00
1034.893, 34231.00
1036.000, 34451.00
1037.107, 34318.00
1038.214, 34319.00
1039.321, 34495.00
1040.427, 34607.00
1041.533, 34519.00
1042.639, 34693.00
1043.745, 34519.00
1044.851, 34554.00
1045.957, 34816.00
1047.062, 34871.00
1048.168, 34719.00
1049.273, 34800.00
1050.378, 34677.00
1051.482, 34700.00
1052.587, 34828.00
1053.692, 34682.00
1054.796, 34612.00
1055.900, 34868.00
1057.004, 34838.00
1058.108, 34858.00
1059.212, 34861.00
1060.315, 34901.00
1061.418, 34912.00
1062.522, 34979.00
1063.625, 34923.00
1064.728, 35033.00
1065.830, 35246.00
1066.933, 34999.00
1068.035, 35247.00
1069.137, 35254.00
1070.239, 35422.00
1071.341, 35312.00
1072.443, 35488.00
1073.545, 35630.00
1074.646, 35570.00
1075.747, 35678.00
1076.848, 35968.00
1077.949, 36058.00
1079.050, 35750.00
1080.150, 36190.00
1081.251, 36179.00
1082.351, 36621.00
1083.451, 36424.00
1084.551, 36597.00
1085.651, 36642.00
1086.750, 37033.00
1087.850, 37049.00
1088.949, 36869.00
1090.048, 37024.00
1091.147, 36873.00
1092.246, 37203.00
1093.345, 37415.00
1094.443, 37129.00
1095.541, 37445.00
1096.639, 37446.00
1097.737, 37205.00
1098.835, 37222.00
1099.933, 37355.00
1101.030, 37294.00
1102.128, 37196.00
1103.225, 37161.00
1104.322, 36937.00
1105.419, 36992.00
1106.515, 37208.00
1107.612, 37501.00
1108.708, 37331.00
1109.804, 37223.00
1110.900, 37422.00
1111.996, 37283.00
1113.092, 37274.00
1114.187, 37309.00
1115.283, 37576.00
1116.378, 37574.00
1117.473, 37340.00
1118.568, 37647.00
1119.662, 37384.00
1120.757, 37501.00
1121.851, 37509.00
1122.946, 37427.75
1124.040, 37432.00
1125.134, 37361.00
1126.227, 37468.00
1127.321, 37388.00
1128.414, 37568.00
1129.508, 37671.00
1130.601, 37697.00
1131.693, 37771.00
1132.786, 37499.00
1133.879, 37600.00
1134.971, 37685.00
1136.064, 37890.00
1137.156, 37801.00
1138.248, 37723.00
1139.339, 37736.00
1140.431, 37950.00
1141.522, 37645.00
1142.614, 37740.00
1143.705, 37992.00
1144.796, 37671.00
1145.887, 37605.00
1146.977, 37832.00
1148.068, 37658.00
1149.158, 37555.00
1150.248, 37965.00
1151.338, 37878.00
1152.428, 37830.00
1153.518, 37747.00
1154.607, 37767.00
1155.696, 37859.00
1156.785, 37726.00
1157.874, 37818.00
1158.963, 37866.00
1160.052, 37839.00
1161.141, 37891.00
1162.229, 37953.00
1163.317, 37868.00
1164.405, 37939.00
1165.493, 37940.00
1166.581, 37917.00
1167.668, 37987.00
1168.756, 37893.00
1169.843, 38024.00
1170.930, 37811.00
1172.017, 37976.00
1173.103, 37926.00
1174.190, 37845.00
1175.276, 37616.00
1176.363, 37885.00
1177.449, 37936.00
1178.535, 37773.00
1179.620, 37795.00
1180.706, 37920.00
1181.791, 37861.00
1182.877, 37680.00
1183.962, 37648.00
1185.047, 37598.00
1186.131, 37722.00
1187.216, 37666.00
1188.300, 37707.00
1189.385, 37700.00
1190.469, 37797.00
1191.553, 37755.00
1192.637, 37663.00
1193.720, 37477.00
1194.804, 37594.00
1195.887, 37529.00
1196.970, 37517.00
1198.053, 37571.00
1199.136, 37522.00
1200.219, 37459.00
1201.301, 37494.00
1202.383, 37558.00
1203.465, 37540.00
1204.547, 37495.00
1205.629, 37319.00
1206.711, 37599.00
1207.792, 37502.00
1208.874, 37631.00
1209.955, 37536.00
1211.036, 37401.00
1212.117, 37410.00
1213.198, 37812.00
1214.278, 37774.00
1215.359, 37656.00
1216.439, 37711.00
1217.519, 37470.00
1218.599, 37686.00
1219.678, 37670.00
1220.758, 37818.00
1221.837, 37681.00
1222.917, 37877.00
1223.996, 37550.00
1225.075, 37879.00
1226.153, 37614.00
1227.232, 37871.00
1228.310, 37846.00
1229.389, 37759.00
1230.467, 37795.00
1231.545, 38067.00
1232.622, 38005.72
1233.700, 37979.00
1234.777, 38205.00
1235.855, 38119.00
1236.932, 38399.00
1238.009, 38134.00
1239.086, 38209.00
1240.162, 38205.00
1241.239, 38289.00
1242.315, 38263.00
1243.391, 38151.00
1244.467, 38433.00
1245.543, 38302.00
1246.619, 38428.00
1247.694, 38251.00
1248.769, 38381.00
1249.844, 38372.00
1250.919, 38447.00
1251.994, 38396.00
1253.069, 38607.00
1254.144, 38565.00
1255.218, 38601.00
1256.292, 38468.00
1257.366, 38749.00
1258.440, 38555.00
1259.514, 38718.00
1260.587, 38579.00
1261.661, 38654.77
