##NAMES=Heulandite-Ca
##RRUFFID=R050017
##IDEAL CHEMISTRY=(Ca,Na,K)_5_(Si_27_Al_9_)O_72_&#183;26H_2_O
##LOCALITY=Poona, Maharashtra State, India
##OWNER=RRUFF
##SOURCE=Eugene Schlepp
##DESCRIPTION=Single crystals
##STATUS=The identification of this mineral has been confirmed by X-ray diffraction and chemical analysis
##URL=rruff.info/R050017
##MEASURED CHEMISTRY=(Ca_.70_Na_.22_K_.02_[box]_0.06_)_5_(Si_0.77_Al_0.23_)_36_O_72_Â·24H_2_O
##PIN_ID=L00517
##ORIENTATION=Laser parallel to c* (0 0 1). Fiducial mark perpendicular to laser is parallel to -a [-1 0 0]
200.029, 17780.000
201.405, 17728.000
202.782, 17544.000
204.158, 17673.000
205.534, 17702.000
206.909, 17402.000
208.285, 17666.000
209.660, 17576.000
211.035, 17360.000
212.410, 17502.000
213.784, 17461.000
215.159, 17472.000
216.533, 17461.000
217.907, 17375.000
219.281, 17384.000
220.654, 17361.000
222.027, 17572.000
223.400, 17363.000
224.773, 17460.000
226.146, 17498.000
227.518, 17307.000
228.891, 17453.000
230.263, 17481.000
231.634, 17601.000
233.006, 17640.000
234.377, 17662.000
235.748, 17673.000
237.119, 17633.000
238.490, 17758.324
239.860, 17937.000
241.231, 18009.000
242.601, 18008.000
243.970, 18158.000
245.340, 18480.000
246.709, 18312.000
248.079, 18618.000
249.448, 18388.000
250.816, 18733.000
252.185, 18732.000
253.553, 18756.000
254.921, 19032.000
256.289, 18896.000
257.657, 19034.000
259.024, 18971.000
260.391, 19009.000
261.758, 18946.000
263.125, 18905.000
264.492, 19000.000
265.858, 18900.000
267.224, 19051.000
268.590, 18758.000
269.956, 19068.000
271.321, 19061.000
272.687, 18883.000
274.052, 18807.000
275.416, 18820.000
276.781, 18912.000
278.146, 18856.000
279.510, 18917.000
280.874, 18939.000
282.237, 19154.000
283.601, 18888.000
284.964, 18919.000
286.327, 19228.000
287.690, 19058.000
289.053, 19374.000
290.416, 19602.000
291.778, 19329.000
293.140, 19342.000
294.502, 19276.000
295.863, 19504.000
297.225, 19521.000
298.586, 19545.000
299.947, 19793.000
301.308, 19648.000
302.668, 19580.000
304.029, 19926.000
305.389, 19904.000
306.749, 20078.000
308.108, 20168.000
309.468, 20241.000
310.827, 20430.000
312.186, 20503.000
313.545, 20766.000
314.903, 20992.000
316.262, 21062.000
317.620, 21410.000
318.978, 21667.000
320.336, 21744.000
321.693, 21962.000
323.051, 22190.000
324.408, 22042.000
325.765, 22704.000
327.121, 22272.000
328.478, 22630.000
329.834, 22791.000
331.190, 22900.000
332.546, 22611.000
333.902, 23077.000
335.257, 22955.000
336.612, 23147.000
337.967, 23104.000
339.322, 23278.000
340.677, 23482.000
342.031, 23352.000
343.385, 23584.000
344.739, 23776.000
346.093, 23837.000
347.446, 24145.291
348.799, 24299.000
350.153, 24632.000
351.505, 24870.000
352.858, 25035.000
354.210, 25277.000
355.563, 25646.000
356.915, 25858.000
358.267, 26480.000
359.618, 26633.000
360.969, 27182.000
362.321, 27600.000
363.672, 28126.000
365.022, 28642.000
366.373, 28945.000
367.723, 29437.000
369.073, 29875.000
370.423, 30708.000
371.773, 30755.000
373.122, 31515.000
374.471, 32469.000
375.821, 32856.000
377.169, 33993.000
378.518, 34392.000
379.866, 35140.000
381.215, 36185.000
382.563, 37084.000
383.910, 37918.000
385.258, 39342.000
386.605, 40646.000
387.952, 41360.000
389.299, 43304.000
390.646, 44331.000
391.992, 45937.000
393.339, 47776.000
394.685, 49486.000
396.031, 51349.000
397.376, 52814.000
398.722, 54595.000
400.067, 55350.000
401.412, 56400.000
402.757, 56824.797
404.101, 56832.461
405.446, 56832.000
406.790, 55904.000
408.134, 55189.000
409.478, 53800.000
410.821, 52322.000
412.165, 49964.000
413.508, 48990.000
414.851, 46926.000
416.193, 44780.000
417.536, 43404.000
418.878, 41673.000
420.220, 40116.000
421.562, 37692.000
422.904, 36732.000
424.245, 35498.000
425.586, 33512.000
426.927, 32516.000
428.268, 30746.000
429.609, 29520.000
430.949, 28621.000
432.289, 27929.000
433.629, 26552.000
434.969, 26268.000
436.309, 25041.000
437.648, 24839.000
438.987, 24225.000
440.326, 23824.000
441.665, 23486.000
443.003, 23385.000
444.342, 23256.000
445.680, 23153.000
447.018, 23197.000
448.355, 23000.000
449.693, 23290.000
451.030, 23494.000
452.367, 24029.000
453.704, 24076.000
455.041, 24834.000
456.377, 25270.000
457.713, 25932.000
459.049, 26811.000
460.385, 27752.000
461.721, 28905.000
463.056, 29413.000
464.391, 30096.000
465.726, 31192.000
467.061, 31288.000
468.395, 31808.000
469.730, 32588.000
471.064, 32608.000
472.398, 33860.000
473.731, 34102.000
475.065, 35294.000
476.398, 36738.000
477.731, 38283.000
479.064, 39660.000
480.397, 41222.000
481.729, 42592.000
483.062, 43173.000
484.394, 43542.000
485.725, 42899.000
487.057, 42051.000
488.389, 40363.000
489.720, 38217.000
491.051, 36498.000
492.382, 34129.000
493.712, 32002.000
495.043, 29774.000
496.373, 28039.000
497.703, 26624.000
499.032, 25416.000
500.362, 24057.000
501.691, 23369.000
503.020, 22274.000
504.349, 21930.000
505.678, 21236.000
507.007, 20932.000
508.335, 20529.000
509.663, 20122.000
510.991, 19966.000
512.319, 19667.000
513.646, 19569.000
514.973, 19252.000
516.300, 19319.000
517.627, 19162.000
518.954, 18774.000
520.280, 18963.000
521.607, 18702.000
522.933, 18670.000
524.259, 18572.000
525.584, 18448.000
526.910, 18466.000
528.235, 18419.000
529.560, 18426.000
530.885, 18069.000
532.209, 18176.000
533.534, 18288.000
534.858, 18300.000
536.182, 18474.000
537.506, 17978.000
538.829, 17924.000
540.152, 17848.000
541.476, 17961.000
542.799, 17869.236
544.121, 17844.000
545.444, 17802.000
546.766, 17820.000
548.088, 17780.000
549.410, 17714.000
550.732, 17912.000
552.053, 17734.000
553.375, 17852.000
554.696, 17874.000
556.017, 17864.000
557.337, 17833.000
558.658, 17800.000
559.978, 17856.000
561.298, 17969.000
562.618, 17891.000
563.938, 17890.000
565.257, 18002.000
566.576, 17934.000
567.895, 18076.000
569.214, 18176.000
570.533, 18006.000
571.851, 18064.000
573.170, 18294.000
574.488, 18243.000
575.805, 18268.000
577.123, 18074.000
578.440, 18304.000
579.758, 18548.000
581.075, 18286.000
582.391, 18904.000
583.708, 18775.000
585.024, 18843.000
586.341, 18980.000
587.657, 19209.000
588.972, 19401.000
590.288, 19218.000
591.603, 19174.000
592.918, 19510.000
594.233, 19714.000
595.548, 20070.000
596.863, 20239.000
598.177, 20361.000
599.491, 20764.000
600.805, 20905.000
602.119, 21072.000
603.432, 21613.000
604.746, 21812.000
606.059, 21769.000
607.372, 22016.000
608.685, 22326.000
609.997, 22189.000
611.309, 22146.000
612.621, 22034.000
613.933, 22310.000
615.245, 22097.000
616.557, 22168.000
617.868, 22137.000
619.179, 21844.000
620.490, 21837.000
621.801, 22069.000
623.111, 21725.000
624.421, 21972.000
625.731, 21456.000
627.041, 21388.000
628.351, 20788.000
629.660, 20313.000
630.970, 20408.000
632.279, 20030.000
633.588, 19728.000
634.896, 19379.000
636.205, 19569.000
637.513, 19398.000
638.821, 19477.000
640.129, 19622.000
641.437, 19735.000
642.744, 19791.076
644.051, 19718.000
645.358, 19808.000
646.665, 19848.000
647.972, 19656.000
649.278, 19599.000
650.584, 19444.000
651.890, 19650.000
653.196, 19465.000
654.502, 19287.000
655.807, 19068.000
657.113, 18915.000
658.418, 18840.000
659.722, 18756.000
661.027, 18568.000
662.331, 18388.000
663.636, 18490.000
664.940, 18262.000
666.244, 18498.000
667.547, 18238.000
668.851, 18533.000
670.154, 18389.000
671.457, 18420.000
672.760, 18508.000
674.062, 18277.000
675.365, 18390.000
676.667, 18326.000
677.969, 18283.000
679.271, 18348.000
680.572, 18381.000
681.874, 18457.000
683.175, 18516.000
684.476, 18288.000
685.777, 18390.000
687.077, 18368.000
688.378, 18566.000
689.678, 18490.000
690.978, 18532.000
692.278, 18138.000
693.577, 18667.000
694.877, 18503.000
696.176, 18705.000
697.475, 18913.000
698.774, 18856.000
700.072, 18676.000
701.371, 18609.000
702.669, 18454.000
703.967, 18715.000
705.265, 18921.000
706.562, 18780.000
707.860, 18542.000
709.157, 18753.000
710.454, 18526.000
711.751, 18823.000
713.047, 18599.000
714.344, 18856.000
715.640, 18596.000
716.936, 18672.000
718.232, 18985.000
719.527, 18860.000
720.823, 18924.000
722.118, 18839.000
723.413, 18768.000
724.708, 18872.000
726.002, 19104.000
727.297, 18696.000
728.591, 19001.000
729.885, 19110.000
731.179, 18952.000
732.472, 18944.000
733.766, 18870.000
735.059, 19005.000
736.352, 19041.000
737.645, 19035.000
738.937, 19112.000
740.230, 18926.000
741.522, 18915.000
742.814, 19074.000
744.106, 19189.000
745.397, 19197.000
746.689, 19255.832
747.980, 19112.000
749.271, 19172.000
750.562, 19235.000
751.853, 19030.000
753.143, 19152.000
754.433, 19262.000
755.723, 19051.000
757.013, 19387.000
758.303, 19178.000
759.592, 19342.000
760.881, 19249.000
762.170, 19558.000
763.459, 19462.000
764.748, 19363.000
766.036, 19729.000
767.325, 19516.000
768.613, 19594.000
769.901, 19610.000
771.188, 19474.000
772.476, 19785.000
773.763, 19506.000
775.050, 19769.000
776.337, 19748.000
777.624, 19868.000
778.910, 19738.000
780.196, 19988.000
781.482, 19880.000
782.768, 19651.000
784.054, 19862.000
785.339, 19850.000
786.625, 19594.000
787.910, 19851.000
789.195, 19489.000
790.479, 19704.000
791.764, 19849.000
793.048, 19508.000
794.332, 19868.000
795.616, 19644.000
796.900, 19762.000
798.183, 19554.000
799.467, 19642.000
800.750, 19641.000
802.033, 19512.000
803.316, 19676.000
804.598, 19494.000
805.880, 19709.000
807.163, 19683.000
808.445, 19534.000
809.726, 19377.000
811.008, 19746.000
812.289, 19536.000
813.570, 19701.000
814.851, 19735.000
816.132, 19558.000
817.413, 19501.000
818.693, 19811.000
819.973, 19627.000
821.253, 19642.000
822.533, 19872.000
823.813, 19700.000
825.092, 19756.000
826.371, 19765.000
827.650, 19677.000
828.929, 19896.000
830.208, 19866.000
831.486, 19786.000
832.764, 19856.000
834.042, 19914.000
835.320, 19862.000
836.598, 19995.000
837.875, 19903.066
839.152, 20043.059
840.429, 20126.752
841.706, 20157.174
842.983, 19974.768
844.259, 20067.174
845.536, 20049.455
846.812, 20027.211
848.088, 20158.297
849.363, 20006.828
850.639, 20135.484
851.914, 20152.314
853.189, 20220.322
854.464, 20177.510
855.739, 20168.928
857.013, 20271.188
858.288, 20312.078
859.562, 20256.502
860.836, 20327.752
862.110, 20172.402
863.383, 20215.889
864.656, 20345.168
865.930, 20295.162
867.203, 20368.430
868.475, 20394.736
869.748, 20207.674
871.020, 20391.688
872.292, 20415.219
873.564, 20273.971
874.836, 20445.270
876.108, 20326.736
877.379, 20311.648
878.650, 20374.414
879.922, 20356.027
881.192, 20465.582
882.463, 20451.875
883.733, 20427.143
885.004, 20450.486
886.274, 20337.619
887.544, 20477.432
888.813, 20444.635
890.083, 20497.643
891.352, 20570.088
892.621, 20493.629
893.890, 20574.812
895.159, 20411.531
896.427, 20452.793
897.695, 20472.027
898.964, 20622.018
900.232, 20459.918
901.499, 20495.488
902.767, 20615.236
904.034, 20617.203
905.301, 20668.410
906.568, 20573.846
907.835, 20616.223
909.102, 20620.854
910.368, 20755.910
911.634, 20787.994
912.900, 20695.895
914.166, 20604.320
915.432, 20748.766
916.697, 20669.500
917.962, 20710.918
919.227, 20627.695
920.492, 20652.092
921.757, 20674.781
923.021, 20752.629
924.285, 20663.193
925.550, 20790.760
926.813, 20792.893
928.077, 20831.979
929.341, 20866.955
930.604, 20733.623
931.867, 20738.256
933.130, 20940.301
934.393, 20841.281
935.655, 20803.020
936.918, 20807.963
938.180, 21016.758
939.442, 21036.066
940.703, 20828.869
941.965, 21028.684
943.226, 20978.092
944.488, 21001.918
945.749, 20998.590
947.009, 21003.287
948.270, 20905.775
949.530, 20942.959
950.791, 21089.682
952.051, 21049.664
953.311, 21136.529
954.570, 20992.148
955.830, 20985.035
957.089, 21014.346
958.348, 21056.943
959.607, 21094.000
960.866, 21241.000
962.124, 21134.000
963.383, 21248.000
964.641, 21360.000
965.899, 21308.000
967.156, 21385.000
968.414, 21381.000
969.671, 21379.000
970.928, 21233.000
972.185, 21312.000
973.442, 21326.000
974.699, 21478.000
975.955, 21532.000
977.211, 21370.000
978.468, 21448.000
979.723, 21523.000
980.979, 21587.000
982.234, 21816.000
983.490, 21453.000
984.745, 21825.000
986.000, 21896.000
987.254, 21742.000
988.509, 22038.000
989.763, 21888.000
991.017, 22112.000
992.271, 21930.000
993.525, 22067.000
994.779, 22382.000
996.032, 22303.000
997.285, 22072.328
998.538, 22433.891
999.791, 22651.693
1001.044, 22733.461
1002.296, 22271.732
1003.548, 22511.781
1004.800, 22470.592
1006.052, 22417.869
1007.304, 22756.691
1008.555, 22635.000
1009.807, 22687.000
1011.058, 22704.000
1012.309, 22716.000
1013.559, 22712.000
1014.810, 22580.000
1016.060, 23068.000
1017.310, 23027.000
1018.560, 22829.000
1019.810, 23288.000
1021.060, 23395.000
1022.309, 23266.000
1023.558, 23438.000
1024.807, 23250.000
1026.056, 23531.000
1027.305, 23240.000
1028.553, 23540.000
1029.801, 23442.000
1031.049, 23284.000
1032.297, 23232.000
1033.545, 23196.990
1034.793, 23336.000
1036.040, 23265.000
1037.287, 23305.000
1038.534, 23489.000
1039.781, 23565.000
1041.027, 23584.994
1042.274, 23365.000
1043.520, 23620.000
1044.766, 23386.000
1046.012, 23427.000
1047.257, 23472.000
1048.503, 23730.000
1049.748, 23454.000
1050.993, 24026.000
1052.238, 24075.000
1053.483, 24009.000
1054.727, 23651.000
1055.971, 23715.000
1057.216, 23466.000
1058.459, 23616.000
1059.703, 23667.000
1060.947, 23695.000
1062.190, 23774.000
1063.433, 23762.000
1064.676, 23757.000
1065.919, 23802.000
1067.162, 23991.000
1068.404, 23774.000
1069.646, 23765.000
1070.888, 23948.000
1072.130, 24036.000
1073.372, 24086.000
1074.613, 24286.000
1075.855, 24268.000
1077.096, 24537.000
1078.337, 24641.674
1079.578, 24733.000
1080.818, 24943.000
1082.059, 25126.000
1083.299, 25266.000
1084.539, 25236.000
1085.779, 25401.000
1087.018, 25408.000
1088.258, 25470.000
1089.497, 25488.000
1090.736, 25600.000
1091.975, 25641.000
1093.213, 25728.000
1094.452, 25968.000
1095.690, 25702.000
1096.928, 26040.000
1098.166, 25950.000
1099.404, 26224.000
1100.642, 26127.000
1101.879, 26364.000
1103.116, 26272.000
1104.353, 26554.000
1105.590, 26452.000
1106.827, 26727.000
1108.063, 26477.000
1109.299, 26872.000
1110.536, 26828.000
1111.771, 26802.000
1113.007, 26770.000
1114.243, 26771.000
1115.478, 26860.000
1116.713, 26810.000
1117.948, 26979.000
1119.183, 27028.322
1120.418, 26892.000
1121.652, 27222.000
1122.886, 27308.000
1124.120, 27405.000
1125.354, 27160.000
1126.588, 27324.000
1127.821, 27168.000
1129.055, 27242.000
1130.288, 27440.000
1131.521, 27374.000
1132.753, 27276.000
1133.986, 27301.000
1135.218, 27572.000
1136.450, 27163.000
1137.682, 27626.000
1138.914, 27293.000
1140.146, 27471.000
1141.377, 27481.000
1142.609, 27418.000
1143.840, 27579.000
1145.071, 27554.000
1146.301, 27506.000
1147.532, 27592.000
1148.762, 27349.000
1149.992, 27432.000
1151.222, 27459.000
1152.452, 27301.000
1153.682, 27258.000
1154.911, 27362.000
1156.140, 27136.000
1157.369, 27153.000
1158.598, 27091.000
1159.827, 27006.064
1161.055, 26907.000
1162.284, 26932.000
1163.512, 26984.000
1164.740, 26994.000
1165.967, 26920.100
1167.195, 26860.000
1168.422, 26694.000
1169.650, 26721.000
1170.877, 26547.000
1172.103, 26398.000
1173.330, 26486.000
1174.557, 26610.000
1175.783, 26409.000
1177.009, 26118.000
1178.235, 26392.000
1179.461, 26121.000
1180.686, 25990.000
1181.912, 26091.000
1183.137, 26012.000
1184.362, 25611.000
1185.587, 25645.000
1186.811, 25650.000
1188.036, 25450.000
1189.260, 25536.000
1190.484, 25481.000
1191.708, 25457.000
1192.932, 25249.000
1194.155, 25125.000
1195.378, 24798.000
1196.602, 25154.000
1197.825, 24624.000
1199.047, 24921.000
1200.270, 24839.000
1201.492, 24909.000
1202.715, 24678.000
1203.937, 24819.000
1205.159, 24616.000
1206.380, 24679.000
1207.602, 24615.240
1208.823, 24390.000
1210.044, 24536.000
1211.265, 24357.000
1212.486, 24405.000
1213.707, 24296.000
1214.927, 24430.000
1216.147, 24370.000
1217.367, 24254.000
1218.587, 24182.000
1219.807, 24154.000
1221.027, 24041.000
1222.246, 24206.000
1223.465, 24196.000
1224.684, 24177.000
1225.903, 24094.000
1227.121, 24019.000
1228.340, 24027.486
1229.558, 24032.451
1230.776, 24074.000
1231.994, 24151.000
1233.212, 24273.000
1234.429, 24384.000
1235.646, 24314.000
1236.864, 24455.557
1238.081, 24448.000
1239.297, 24557.000
1240.514, 24552.000
1241.730, 24493.000
1242.947, 24589.045
1244.163, 24478.000
1245.378, 24633.000
1246.594, 24490.000
1247.810, 24372.000
1249.025, 24655.000
1250.240, 24458.000
1251.455, 24456.000
1252.670, 24708.000
1253.885, 24550.000
1255.099, 24514.000
1256.313, 24360.000
1257.527, 24593.000
1258.741, 24728.000
1259.955, 24398.000
1261.168, 24686.000
1262.382, 24769.000
1263.595, 24762.000
1264.808, 24768.000
1266.021, 24714.000
1267.233, 24828.000
1268.446, 25070.000
1269.658, 24952.000
1270.870, 25150.000
1272.082, 25080.000
1273.294, 25099.000
1274.505, 25158.000
1275.716, 25137.000
1276.928, 25143.080
1278.139, 25154.736
1279.349, 25109.000
1280.560, 25088.000
1281.770, 25070.000
1282.981, 24896.000
1284.191, 25107.000
1285.401, 25025.000
1286.610, 24798.000
1287.820, 25071.000
1289.029, 24682.000
1290.239, 25092.000
1291.448, 25184.000
1292.656, 25172.000
1293.865, 25241.000
1295.073, 25356.000
1296.282, 25244.000
1297.490, 25268.000
1298.698, 25440.000
1299.906, 25157.000
1301.113, 25288.000
1302.320, 25260.000
1303.528, 25291.000
1304.735, 25182.000
1305.942, 25244.000
1307.148, 25577.000
1308.355, 25402.000
1309.561, 25686.000
1310.767, 25595.000
1311.973, 25648.000
1313.179, 25534.000
1314.384, 25889.000
1315.590, 25753.000
1316.795, 25811.000
1318.000, 25848.000
1319.205, 25808.000
1320.410, 25856.613
1321.614, 25753.000
1322.819, 25872.000
1324.023, 25908.000
1325.227, 25888.000
1326.431, 25698.000
1327.634, 25566.000
1328.838, 25529.000
1330.041, 25435.357
1331.244, 25643.000
1332.447, 25346.000
1333.650, 25538.000
1334.852, 25468.000
1336.055, 25345.000
1337.257, 25542.000
1338.459, 25388.000
1339.661, 25710.000
1340.862, 25626.000
1342.064, 25376.000
1343.265, 26070.000
1344.466, 25789.000
1345.667, 25691.000
1346.868, 25860.000
1348.068, 25705.000
1349.269, 25622.000
1350.469, 25898.000
1351.669, 25690.000
1352.869, 25880.000
1354.069, 26072.000
1355.268, 25490.000
1356.468, 25912.000
1357.667, 25915.000
1358.866, 25834.000
1360.065, 26092.000
1361.263, 25832.000
1362.462, 26053.000
1363.660, 26292.000
1364.858, 25992.000
1366.056, 26108.000
1367.254, 26244.000
1368.451, 26184.000
1369.649, 26231.000
1370.846, 26276.000
1372.043, 26227.000
1373.240, 26282.000
1374.436, 26358.000
1375.633, 26252.000
1376.829, 26384.000
1378.025, 26264.000
1379.221, 26362.000
1380.417, 26502.000
1381.613, 26406.000
1382.808, 26634.000
1384.003, 26664.000
1385.199, 26540.000
1386.393, 26342.000
1387.588, 26673.000
1388.783, 26534.000
1389.977, 26576.000
1391.171, 26578.000
1392.365, 26708.000
1393.559, 26795.000
1394.753, 26780.742
1395.946, 26694.000
1397.140, 26732.000
1398.333, 26691.000
1399.526, 26584.000
1400.719, 26698.000
1401.911, 26680.000
1403.104, 26749.000
1404.296, 26562.000
1405.488, 26742.000
1406.680, 26715.000
1407.872, 26580.000
1409.063, 27113.000
1410.255, 26864.000
1411.446, 27000.000
1412.637, 26922.000
1413.828, 26947.000
1415.018, 27138.000
1416.209, 26970.000
1417.399, 26914.000
1418.589, 27378.000
1419.779, 27175.000
1420.969, 27098.000
1422.159, 27023.000
1423.348, 27310.000
1424.537, 27231.000
1425.726, 27241.000
1426.915, 27234.000
1428.104, 27340.000
1429.293, 27469.000
1430.481, 27368.000
##END=



