##NAMES=Heulandite-Ca
##RRUFFID=R050097
##IDEAL CHEMISTRY=(Ca,Na,K)_5_(Si_27_Al_9_)O_72_&#183;26H_2_O
##LOCALITY=Rat's Nest Claim, Custer County, Idaho, USA
##OWNER=RRUFF
##SOURCE=John Cornish
##DESCRIPTION=Pale pink coffin-shaped tabular single crystals
##STATUS=The identification of this mineral has been confirmed by X-ray diffraction and chemical analysis
##URL=rruff.info/R050097
##MEASURED CHEMISTRY=(Ca_0.66_Na_0.30_K_0.04_)_5_(Si_0.77_Al_0.23_)_36_O_72_Â·24H_2_O
##PIN_ID=L00100
##ORIENTATION=Laser parallel to a* (1 0 0). Fiducial mark perpendicular to laser is parallel to b [0 1 0]
120.5960, 21105.00
121.8270, 21092.00
123.0580, 21285.00
124.2880, 21290.00
125.5190, 21291.00
126.7490, 21594.00
127.9790, 21572.00
129.2090, 21563.00
130.4390, 21928.00
131.6680, 21742.00
132.8980, 21690.00
134.1270, 21914.00
135.3560, 21990.00
136.5850, 22089.00
137.8140, 22327.00
139.0430, 22551.00
140.2710, 22575.00
141.5000, 22518.00
142.7280, 22513.00
143.9560, 22312.00
145.1840, 22764.00
146.4120, 22486.00
147.6390, 22815.00
148.8670, 22609.00
150.0940, 22884.00
151.3210, 22842.00
152.5490, 22955.00
153.7750, 22759.00
155.0020, 22836.00
156.2290, 22697.00
157.4550, 22787.00
158.6810, 22552.00
159.9080, 22430.00
161.1340, 22429.05
162.3590, 22539.00
163.5850, 22260.00
164.8110, 22169.00
166.0360, 21880.00
167.2610, 21889.00
168.4860, 21779.00
169.7110, 21643.00
170.9360, 21331.00
172.1610, 21257.00
173.3850, 21209.00
174.6100, 21281.00
175.8340, 21265.00
177.0580, 21040.00
178.2820, 21098.00
179.5050, 21034.00
180.7290, 20868.00
181.9520, 20888.00
183.1760, 21023.00
184.3990, 20974.00
185.6220, 21046.00
186.8450, 20959.00
188.0670, 21108.00
189.2900, 20888.00
190.5120, 21056.00
191.7340, 21028.00
192.9560, 20980.00
194.1780, 21004.00
195.4000, 21090.00
196.6220, 20977.00
197.8430, 21094.00
199.0640, 21027.00
200.2860, 21098.00
201.5070, 21186.00
202.7270, 20899.00
203.9480, 20937.00
205.1690, 20653.00
206.3890, 20745.00
207.6090, 20674.00
208.8290, 20641.00
210.0490, 20683.00
211.2690, 20623.00
212.4890, 20605.00
213.7080, 20695.00
214.9280, 20666.00
216.1470, 20610.00
217.3660, 20447.00
218.5850, 20462.00
219.8030, 20558.00
221.0220, 20611.00
222.2400, 20575.00
223.4590, 20637.00
224.6770, 20642.62
225.8950, 20696.00
227.1120, 20670.00
228.3300, 20754.00
229.5480, 20757.00
230.7650, 20899.00
231.9820, 21104.00
233.1990, 20939.00
234.4160, 21177.00
235.6330, 21021.00
236.8490, 21051.00
238.0660, 21033.00
239.2820, 21383.00
240.4980, 21117.00
241.7140, 20969.00
242.9300, 21433.00
244.1460, 21394.00
245.3610, 21551.00
246.5770, 21230.00
247.7920, 21701.00
249.0070, 21584.00
250.2220, 21689.00
251.4370, 21555.00
252.6510, 21495.00
253.8660, 21815.00
255.0800, 21769.00
256.2940, 21697.00
257.5080, 21880.00
258.7220, 22163.00
259.9360, 22395.00
261.1490, 21927.00
262.3630, 21755.00
263.5760, 21798.00
264.7890, 21755.00
266.0020, 21771.00
267.2150, 21731.00
268.4270, 21838.00
269.6400, 21919.00
270.8520, 21964.00
272.0640, 22003.00
273.2760, 22030.00
274.4880, 21967.00
275.7000, 21771.00
276.9120, 21969.00
278.1230, 22058.00
279.3340, 21912.00
280.5450, 22053.00
281.7560, 21913.00
282.9670, 21844.00
284.1780, 21894.00
285.3880, 21937.00
286.5980, 22087.00
287.8090, 22142.00
289.0190, 22241.00
290.2290, 22295.98
291.4380, 22344.00
292.6480, 22366.00
293.8570, 22236.00
295.0670, 22237.00
296.2760, 22214.00
297.4850, 22193.00
298.6930, 22289.00
299.9020, 22408.00
301.1110, 22435.00
302.3190, 22275.00
303.5270, 22384.00
304.7350, 22549.00
305.9430, 22350.00
307.1510, 22452.00
308.3580, 22533.00
309.5660, 22580.00
310.7730, 22646.30
311.9800, 22752.00
313.1870, 22733.00
314.3940, 22839.00
315.6010, 22881.00
316.8070, 22683.00
318.0130, 22824.00
319.2200, 22851.00
320.4260, 22974.00
321.6310, 22810.00
322.8370, 23043.00
324.0430, 23245.00
325.2480, 22958.00
326.4540, 23142.00
327.6590, 23083.00
328.8640, 23266.00
330.0680, 23319.00
331.2730, 23457.00
332.4780, 23451.00
333.6820, 23360.00
334.8860, 23367.00
336.0900, 23832.00
337.2940, 23532.00
338.4980, 23783.00
339.7010, 23737.00
340.9050, 23716.00
342.1080, 23713.00
343.3110, 23801.00
344.5140, 23970.00
345.7170, 23988.00
346.9200, 23898.00
348.1220, 24071.00
349.3240, 24047.00
350.5270, 24134.00
351.7290, 24241.00
352.9310, 24239.00
354.1320, 24576.00
355.3340, 24542.00
356.5350, 24318.00
357.7370, 24704.00
358.9380, 24630.00
360.1390, 24911.00
361.3400, 24895.00
362.5400, 25165.00
363.7410, 25159.00
364.9410, 25422.00
366.1410, 25483.00
367.3410, 25572.89
368.5410, 25675.16
369.7410, 25749.00
370.9400, 25869.12
372.1400, 25928.00
373.3390, 26095.00
374.5380, 26225.00
375.7370, 26326.00
376.9360, 26381.00
378.1350, 26725.00
379.3330, 26708.00
380.5310, 27107.00
381.7300, 27141.00
382.9280, 27293.00
384.1260, 27492.00
385.3230, 27724.00
386.5210, 28006.00
387.7180, 28180.00
388.9160, 28298.00
390.1130, 28700.00
391.3100, 29065.00
392.5060, 29289.00
393.7030, 29378.00
394.9000, 29844.00
396.0960, 29938.00
397.2920, 30408.00
398.4880, 30574.00
399.6840, 30526.00
400.8800, 30678.00
402.0750, 30616.00
403.2710, 30603.00
404.4660, 30571.06
405.6610, 30453.12
406.8560, 30362.00
408.0510, 30197.00
409.2450, 29986.00
410.4400, 29824.00
411.6340, 29675.00
412.8280, 29420.00
414.0220, 29249.00
415.2160, 28809.00
416.4100, 28508.00
417.6030, 28237.00
418.7970, 27942.14
419.9900, 27705.45
421.1830, 27433.00
422.3760, 27284.00
423.5690, 26960.00
424.7610, 26829.00
425.9540, 26586.00
427.1460, 26721.00
428.3380, 26533.00
429.5300, 26592.00
430.7220, 26632.00
431.9140, 25955.00
433.1050, 25909.00
434.2970, 25889.00
435.4880, 25914.00
436.6790, 25887.00
437.8700, 26005.00
439.0610, 26040.00
440.2510, 26106.77
441.4420, 25922.00
442.6320, 26173.00
443.8220, 25999.00
445.0120, 25819.00
446.2020, 26037.00
447.3910, 25885.00
448.5810, 26062.00
449.7700, 26144.00
450.9600, 26190.00
452.1490, 26255.00
453.3370, 26374.15
454.5260, 26362.00
455.7150, 26678.00
456.9030, 26744.00
458.0910, 27013.00
459.2800, 27013.00
460.4670, 27278.00
461.6550, 27369.00
462.8430, 27435.00
464.0300, 27775.00
465.2180, 28107.00
466.4050, 28129.00
467.5920, 28491.00
468.7790, 28569.00
469.9650, 28809.00
471.1520, 28755.00
472.3380, 29373.00
473.5250, 29471.00
474.7110, 29961.00
475.8970, 30200.00
477.0820, 30375.00
478.2680, 30415.00
479.4540, 30424.00
480.6390, 30348.00
481.8240, 30322.00
483.0090, 30355.00
484.1940, 30091.00
485.3780, 29797.00
486.5630, 29571.00
487.7470, 29140.00
488.9320, 28922.00
490.1160, 28605.00
491.3000, 28543.00
492.4830, 28096.00
493.6670, 27874.00
494.8500, 27512.00
496.0340, 27721.00
497.2170, 27382.00
498.4000, 27304.00
499.5820, 27066.00
500.7650, 26892.00
501.9480, 26742.00
503.1300, 26780.00
504.3120, 26898.00
505.4940, 26842.00
506.6760, 26900.00
507.8580, 26715.00
509.0390, 26815.00
510.2210, 26991.00
511.4020, 26831.00
512.5830, 26767.00
513.7640, 26884.00
514.9450, 26741.00
516.1250, 26868.00
517.3060, 26660.00
518.4860, 26710.00
519.6660, 26829.00
520.8460, 26896.00
522.0260, 26810.00
523.2060, 26812.00
524.3850, 26927.00
525.5650, 26765.00
526.7440, 26973.00
527.9230, 26741.00
529.1020, 27046.00
530.2810, 27059.00
531.4590, 26929.00
532.6380, 27145.00
533.8160, 26931.00
534.9940, 27122.00
536.1720, 27020.00
537.3500, 26998.00
538.5270, 27007.00
539.7050, 27196.00
540.8820, 27164.00
542.0590, 27265.00
543.2360, 27275.00
544.4130, 27367.00
545.5900, 27310.00
546.7660, 27244.00
547.9430, 27312.00
549.1190, 27257.00
550.2950, 27219.00
551.4710, 27528.00
552.6470, 27366.00
553.8220, 27378.00
554.9980, 27654.00
556.1730, 27592.00
557.3480, 27554.00
558.5230, 27585.00
559.6980, 27660.00
560.8730, 27615.00
562.0470, 27502.00
563.2220, 27572.00
564.3960, 27809.00
565.5700, 27982.00
566.7440, 27699.00
567.9170, 27893.00
569.0910, 27891.00
570.2640, 27762.00
571.4380, 27909.00
572.6110, 27898.00
573.7840, 27916.47
574.9570, 28166.00
576.1290, 28040.00
577.3020, 28097.00
578.4740, 28272.00
579.6460, 28104.00
580.8180, 28224.00
581.9900, 28377.00
583.1620, 28493.00
584.3330, 28447.00
585.5040, 28329.00
586.6760, 28328.00
587.8470, 28802.00
589.0180, 28563.00
590.1880, 28839.00
591.3590, 28831.00
592.5290, 28807.00
593.7000, 28877.00
594.8700, 29061.00
596.0400, 29003.00
597.2090, 29152.00
598.3790, 29350.00
599.5490, 29188.00
600.7180, 29319.00
601.8870, 29390.00
603.0560, 29577.00
604.2250, 29584.00
605.3940, 29765.00
606.5620, 29702.00
607.7300, 29785.00
608.8990, 30002.00
610.0670, 29931.00
611.2350, 30000.46
612.4020, 29947.00
613.5700, 29967.00
614.7370, 29859.00
615.9050, 29810.00
617.0720, 29811.00
618.2390, 29889.00
619.4060, 29828.00
620.5720, 29798.00
621.7390, 29607.00
622.9050, 29768.00
624.0710, 29689.00
625.2370, 29841.00
626.4030, 29817.00
627.5690, 29622.00
628.7340, 29552.00
629.9000, 29607.00
631.0650, 29618.00
632.2300, 29793.00
633.3950, 29522.00
634.5600, 29804.00
635.7240, 29823.00
636.8890, 29582.00
638.0530, 29721.00
639.2170, 29800.00
640.3810, 29949.00
641.5450, 29798.00
642.7080, 30038.00
643.8720, 29749.00
645.0350, 29802.00
646.1980, 29785.00
647.3610, 29709.00
648.5240, 29937.00
649.6870, 29822.46
650.8490, 29831.00
652.0120, 29839.00
653.1740, 29818.00
654.3360, 29976.00
655.4980, 29911.00
656.6600, 30149.00
657.8210, 30144.00
658.9830, 29956.00
660.1440, 30180.00
661.3050, 30410.00
662.4660, 30282.00
663.6270, 30213.00
664.7870, 30246.00
665.9480, 30255.00
667.1080, 30077.00
668.2680, 30373.00
669.4280, 30532.00
670.5880, 30304.00
671.7480, 30220.00
672.9070, 30391.00
674.0670, 30298.49
675.2260, 30629.00
676.3850, 30438.00
677.5440, 30516.00
678.7030, 30678.00
679.8610, 30553.00
681.0200, 30608.00
682.1780, 30705.00
683.3360, 30725.00
684.4940, 30812.00
685.6520, 30910.00
686.8090, 30702.00
687.9670, 30963.00
689.1240, 30882.00
690.2810, 30995.00
691.4380, 30802.00
692.5950, 31003.00
693.7520, 30876.00
694.9080, 30864.00
696.0650, 31145.00
697.2210, 31205.00
698.3770, 31189.00
699.5330, 31308.00
700.6880, 31215.00
701.8440, 31184.00
702.9990, 31428.00
704.1550, 31010.00
705.3100, 31430.00
706.4650, 31270.00
707.6190, 31400.00
708.7740, 31408.00
709.9290, 31263.00
711.0830, 31514.00
712.2370, 31402.00
713.3910, 31589.00
714.5450, 31635.00
715.6980, 31461.00
716.8520, 31589.00
718.0050, 31792.00
719.1580, 31737.00
720.3110, 31821.00
721.4640, 32001.00
722.6170, 31868.00
723.7700, 31910.00
724.9220, 31911.00
726.0740, 31942.77
727.2260, 32051.00
728.3780, 32048.00
729.5300, 32126.09
730.6810, 32089.00
731.8330, 32085.00
732.9840, 32276.00
734.1350, 32106.00
735.2860, 32178.00
736.4370, 32294.00
737.5880, 32317.00
738.7380, 32296.00
739.8880, 32573.00
741.0390, 32232.00
742.1890, 32264.00
743.3380, 32303.00
744.4880, 32494.00
745.6380, 32361.00
746.7870, 32485.00
747.9360, 32752.00
749.0850, 32610.00
750.2340, 32709.00
751.3830, 32540.00
752.5310, 32768.00
753.6800, 32640.00
754.8280, 32790.00
755.9760, 32874.00
757.1240, 32911.00
758.2720, 32990.68
759.4190, 33049.51
760.5670, 33047.00
761.7140, 33140.00
762.8610, 33123.00
764.0080, 33091.00
765.1550, 33340.00
766.3020, 33266.00
767.4480, 33343.00
768.5950, 33328.00
769.7410, 33328.00
770.8870, 33483.00
772.0330, 33473.00
773.1780, 33631.00
774.3240, 33593.00
775.4690, 33600.00
776.6140, 33754.00
777.7590, 33716.00
778.9040, 33636.00
780.0490, 33782.00
781.1940, 34034.00
782.3380, 33966.00
783.4820, 33963.00
784.6260, 33830.00
785.7700, 34124.00
786.9140, 34311.00
788.0580, 33884.00
789.2010, 34241.00
790.3450, 33959.00
791.4880, 34079.00
792.6310, 33938.00
793.7730, 33784.00
794.9160, 33991.00
796.0590, 34030.00
797.2010, 33846.00
798.3430, 34145.00
799.4850, 34149.00
800.6270, 34170.00
801.7690, 34171.00
802.9100, 34294.00
804.0520, 34487.00
805.1930, 34461.00
806.3340, 34229.00
807.4750, 34466.00
808.6160, 34203.00
809.7560, 34490.00
810.8970, 34398.00
812.0370, 34713.00
813.1770, 34343.00
814.3170, 34433.00
815.4570, 34445.00
816.5960, 34402.00
817.7360, 34524.00
818.8750, 34713.00
820.0140, 34789.00
821.1530, 34753.00
822.2920, 34870.43
823.4310, 34853.42
824.5690, 34903.00
825.7070, 34883.00
826.8460, 34777.00
827.9840, 34825.00
829.1220, 34650.00
830.2590, 34727.00
831.3970, 34627.00
832.5340, 34691.46
833.6710, 34635.00
834.8080, 34803.00
835.9450, 34967.00
837.0820, 34920.00
838.2190, 35142.00
839.3550, 34902.00
840.4910, 34985.00
841.6270, 35439.00
842.7630, 35130.00
843.8990, 35184.00
845.0350, 35141.00
846.1700, 35124.17
847.3060, 35256.00
848.4410, 35268.00
849.5760, 35448.00
850.7100, 35584.00
851.8450, 35511.00
852.9800, 35520.00
854.1140, 35706.00
855.2480, 35664.00
856.3820, 35591.00
857.5160, 35593.00
858.6500, 35815.00
859.7830, 35731.00
860.9170, 35905.00
862.0500, 35820.00
863.1830, 35956.00
864.3160, 35920.00
865.4480, 36262.00
866.5810, 36237.00
867.7130, 35953.00
868.8460, 36167.00
869.9780, 35972.00
871.1100, 35966.00
872.2410, 35920.00
873.3730, 36173.00
874.5050, 36385.00
875.6360, 36297.00
876.7670, 36513.00
877.8980, 36404.00
879.0290, 36208.00
880.1590, 36310.00
881.2900, 36435.00
882.4200, 36400.00
883.5500, 36454.00
884.6800, 36404.00
885.8100, 36526.00
886.9400, 36533.00
888.0690, 36721.00
889.1990, 36683.00
890.3280, 36613.00
891.4570, 36725.00
892.5860, 36617.00
893.7140, 36861.00
894.8430, 36964.00
895.9710, 36896.00
897.1000, 36666.00
898.2280, 37080.00
899.3560, 36906.00
900.4830, 37021.00
901.6110, 36964.00
902.7380, 36987.00
903.8660, 37175.00
904.9930, 37138.00
906.1200, 37023.00
907.2460, 37198.00
908.3730, 37430.00
909.5000, 37316.00
910.6260, 37418.00
911.7520, 37399.00
912.8780, 37715.00
914.0040, 37397.00
915.1290, 37343.00
916.2550, 37610.00
917.3800, 37610.00
918.5050, 37391.00
919.6300, 37726.00
920.7550, 37540.00
921.8800, 37665.00
923.0040, 37736.00
924.1290, 37593.00
925.2530, 37739.00
926.3770, 37921.00
927.5010, 37961.00
928.6250, 38074.07
929.7480, 38146.14
930.8720, 38123.00
931.9950, 38235.00
933.1180, 38095.00
934.2410, 38074.00
935.3640, 38312.00
936.4860, 38053.00
937.6090, 38220.00
938.7310, 38089.00
939.8530, 38250.00
940.9750, 38247.00
942.0970, 38129.00
943.2180, 38369.00
944.3400, 38318.85
945.4610, 38261.00
946.5820, 38388.00
947.7030, 38661.00
948.8240, 38637.00
949.9450, 38663.00
951.0650, 38709.00
952.1860, 38452.00
953.3060, 38542.00
954.4260, 39052.00
955.5460, 39061.00
956.6650, 38806.00
957.7850, 39111.00
958.9040, 38983.00
960.0230, 39166.00
961.1420, 38858.00
962.2610, 39344.00
963.3800, 39068.00
964.4990, 39190.00
965.6170, 39189.00
966.7350, 39408.00
967.8530, 39482.00
968.9710, 39486.30
970.0890, 39306.00
971.2070, 39417.00
972.3240, 39609.00
973.4410, 39456.00
974.5580, 39619.00
975.6750, 39881.00
976.7920, 39749.00
977.9090, 39742.00
979.0250, 39892.00
980.1410, 39715.00
981.2580, 39946.00
982.3740, 40143.00
983.4890, 40029.00
984.6050, 40225.00
985.7200, 40164.00
986.8360, 40252.00
987.9510, 40344.00
989.0660, 40280.33
990.1810, 40271.00
991.2950, 40282.00
992.4100, 40331.00
993.5240, 40478.00
994.6390, 40646.00
995.7530, 40603.00
996.8660, 40901.00
997.9800, 40953.00
999.0940, 40791.00
1000.207, 40791.00
1001.320, 40730.00
1002.433, 40961.00
1003.546, 40532.00
1004.659, 40956.00
1005.772, 41050.00
1006.884, 40865.00
1007.996, 41026.00
1009.108, 41001.00
1010.220, 41205.00
1011.332, 41289.00
1012.444, 41128.00
1013.555, 41301.00
1014.666, 41475.00
1015.777, 41119.00
1016.888, 41285.00
1017.999, 41352.00
1019.110, 41630.00
1020.220, 41407.00
1021.331, 41463.00
1022.441, 41670.00
1023.551, 41905.00
1024.661, 41692.00
1025.770, 41617.00
1026.880, 41853.00
1027.989, 41756.00
1029.098, 41821.00
1030.207, 41984.00
1031.316, 41973.00
1032.425, 41964.00
1033.533, 41987.00
1034.642, 42117.00
1035.750, 42028.00
1036.858, 42175.00
1037.966, 42187.00
1039.073, 42048.00
1040.181, 42319.00
1041.288, 42294.00
1042.396, 42282.00
1043.503, 42607.00
1044.610, 42407.00
1045.716, 42551.00
1046.823, 42431.00
1047.929, 42569.00
1049.036, 42332.00
1050.142, 42671.00
1051.248, 42460.00
1052.353, 42816.00
1053.459, 42463.00
1054.564, 42513.00
1055.670, 42474.00
1056.775, 42502.00
1057.880, 42560.30
1058.985, 42690.00
1060.089, 42827.00
1061.194, 42907.00
1062.298, 43331.00
1063.402, 43031.00
1064.506, 42727.00
1065.610, 43325.00
1066.713, 43201.00
1067.817, 43155.00
1068.920, 43345.00
1070.023, 43158.00
1071.126, 43334.00
1072.229, 43378.00
1073.332, 43307.00
1074.435, 43490.00
1075.537, 43529.00
1076.639, 43563.00
1077.741, 43586.00
1078.843, 43637.14
1079.945, 43867.00
1081.046, 43809.00
1082.148, 43950.00
1083.249, 44208.00
1084.350, 43927.00
1085.451, 43901.00
1086.551, 44162.00
1087.652, 44070.00
1088.752, 44231.00
1089.853, 44164.00
1090.953, 44235.00
1092.053, 44320.00
1093.152, 44539.00
1094.252, 44423.00
1095.351, 44514.00
1096.451, 44577.00
1097.550, 44500.00
1098.649, 44494.00
1099.748, 44455.00
1100.846, 44968.00
1101.945, 44963.00
1103.043, 45036.00
1104.141, 44983.00
1105.239, 44873.00
1106.337, 44864.00
1107.434, 44903.00
1108.532, 44986.00
1109.629, 45084.00
1110.726, 45166.00
1111.823, 44922.00
1112.920, 45233.00
1114.017, 45412.00
1115.113, 45126.18
1116.210, 45236.59
1117.306, 45312.26
1118.402, 45355.08
1119.498, 45266.68
1120.593, 45347.70
1121.689, 45360.84
1122.784, 45371.16
1123.879, 45476.03
1124.974, 45406.69
1126.069, 45510.05
1127.164, 45544.48
1128.259, 45610.45
1129.353, 45608.08
1130.447, 45626.80
1131.541, 45713.88
1132.635, 45763.11
1133.729, 45752.86
1134.822, 45820.79
1135.916, 45749.04
1137.009, 45799.85
1138.102, 45903.55
1139.195, 45896.71
1140.288, 45965.89
1141.380, 45792.00
1142.473, 46049.00
1143.565, 46005.00
1144.657, 46116.00
1145.749, 45972.00
1146.841, 46092.00
1147.932, 46239.00
1149.024, 45858.00
1150.115, 46236.00
1151.206, 45871.00
1152.297, 46575.00
1153.388, 46151.00
1154.479, 46340.00
1155.569, 46293.00
1156.659, 46231.17
1157.750, 46326.59
1158.839, 46315.00
1159.929, 46362.00
1161.019, 46485.00
1162.108, 46461.00
1163.198, 46490.31
1164.287, 46499.96
1165.376, 46518.00
1166.465, 46551.00
1167.553, 46677.57
1168.642, 46890.00
1169.730, 46675.00
1170.818, 46976.00
1171.906, 46587.00
1172.994, 46711.00
1174.082, 46875.00
1175.170, 46495.00
1176.257, 46848.00
1177.344, 46564.00
1178.431, 46918.00
1179.518, 46553.00
1180.605, 46760.00
1181.691, 46596.00
1182.778, 46744.00
1183.864, 46958.00
1184.950, 46988.00
1186.036, 46863.00
1187.122, 46936.00
1188.207, 46944.00
1189.292, 46798.00
1190.378, 46945.00
1191.463, 46748.00
1192.548, 46994.00
1193.632, 46960.00
1194.717, 46942.00
1195.801, 47174.00
1196.886, 47290.00
1197.970, 47181.00
1199.054, 47253.00
1200.137, 47067.00
1201.221, 47118.00
1202.305, 47380.00
1203.388, 47236.00
1204.471, 47370.00
1205.554, 47432.00
1206.637, 47245.00
1207.719, 47382.00
1208.802, 47427.00
1209.884, 47522.00
1210.966, 47399.00
1212.048, 47458.00
1213.130, 47349.00
1214.212, 47606.00
1215.293, 47506.00
1216.374, 47600.00
1217.456, 47184.00
1218.536, 47766.00
1219.617, 47683.00
1220.698, 47686.00
1221.778, 48007.00
1222.859, 47891.00
1223.939, 47758.00
1225.019, 47966.00
1226.099, 48025.00
1227.178, 47757.00
1228.258, 48127.00
1229.337, 48093.00
1230.417, 48291.00
1231.496, 48096.00
1232.574, 48266.00
1233.653, 48105.00
1234.732, 48165.00
1235.810, 48334.00
1236.888, 48480.00
1237.966, 48500.00
1239.044, 48492.00
1240.122, 48184.00
1241.199, 48685.00
1242.277, 48658.00
1243.354, 48380.00
1244.431, 48730.00
1245.508, 48605.00
1246.585, 48480.00
1247.661, 48591.00
1248.738, 48496.00
1249.814, 48730.00
1250.890, 48776.00
1251.966, 48842.00
1253.042, 48889.00
1254.117, 48785.00
1255.193, 48984.00
1256.268, 49011.00
1257.343, 48775.00
1258.418, 48688.00
1259.493, 48973.00
1260.567, 49003.00
1261.642, 48875.00
1262.716, 48805.00
1263.790, 48958.00
1264.864, 48976.00
1265.938, 49071.00
1267.011, 49187.00
1268.085, 49165.00
1269.158, 49143.00
1270.231, 49034.00
1271.304, 49343.00
1272.377, 49249.00
1273.450, 49389.00
1274.522, 49439.00
1275.594, 49398.00
1276.666, 49299.00
1277.738, 49513.00
1278.810, 49291.00
1279.882, 49633.00
1280.953, 49670.00
1282.025, 49504.00
1283.096, 49718.00
1284.167, 49970.00
1285.238, 49877.00
1286.308, 49618.00
1287.379, 49871.00
1288.449, 49789.00
1289.519, 50088.00
1290.589, 49646.00
1291.659, 49855.00
1292.729, 49935.00
1293.798, 50288.00
1294.868, 50097.00
