##NAMES=Heulandite-Ca
##RRUFFID=R060465
##IDEAL CHEMISTRY=(Ca,Na,K)_5_(Si_27_Al_9_)O_72_&#183;26H_2_O
##LOCALITY=Garrawilla, near Gunnadah, New South Wales, Australia
##OWNER=RRUFF
##SOURCE=Michael Scott
##DESCRIPTION=Orange fan of platy crystals
##STATUS=The identification of this mineral has been confirmed by X-ray diffraction and chemical analysis
##URL=rruff.info/R060465
##MEASURED CHEMISTRY=(Ca_0.66_Na_0.24_K_0.10_)_5_(Si_0.77_Al_0.23_)_36_O_72_Â·24H_2_O
##PIN_ID=M01254
##ORIENTATION=Laser parallel to c* (0 0 1). Fiducial mark perpendicular to laser is parallel to a [1 0 0]
216.9930, 23137.00
218.2150, 23012.00
219.4380, 23123.00
220.6600, 23177.00
221.8820, 23113.00
223.1040, 23234.00
224.3260, 23117.00
225.5470, 23136.00
226.7680, 23333.00
227.9900, 23221.00
229.2110, 23265.00
230.4310, 23144.00
231.6520, 23112.00
232.8720, 23371.00
234.0930, 23451.00
235.3130, 23338.00
236.5330, 23637.00
237.7530, 23851.00
238.9720, 23910.00
240.1920, 24201.00
241.4110, 24310.00
242.6300, 24432.00
243.8490, 24680.00
245.0680, 25051.00
246.2860, 25109.00
247.5040, 25278.57
248.7230, 25295.00
249.9410, 25367.00
251.1590, 25378.00
252.3760, 25310.00
253.5940, 25242.00
254.8110, 25257.00
256.0280, 25073.00
257.2450, 25081.00
258.4620, 24990.00
259.6790, 25024.00
260.8950, 24950.00
262.1120, 24769.00
263.3280, 24596.00
264.5440, 24325.00
265.7600, 24352.00
266.9750, 24456.00
268.1910, 24043.00
269.4060, 24189.00
270.6210, 23747.00
271.8360, 24030.00
273.0510, 23895.00
274.2650, 23864.00
275.4800, 23922.00
276.6940, 23845.00
277.9080, 23835.00
279.1220, 23950.00
280.3360, 23674.00
281.5490, 23842.00
282.7630, 23694.00
283.9760, 23591.00
285.1890, 23750.00
286.4020, 23645.00
287.6150, 23628.00
288.8270, 23638.00
290.0400, 23577.00
291.2520, 23607.42
292.4640, 23605.73
293.6760, 23626.00
294.8870, 23646.00
296.0990, 23628.00
297.3100, 23663.00
298.5210, 23801.00
299.7320, 23676.00
300.9430, 23771.00
302.1540, 24003.00
303.3640, 23853.00
304.5750, 23783.00
305.7850, 23889.00
306.9950, 24086.00
308.2050, 24095.00
309.4140, 23894.00
310.6240, 24081.00
311.8330, 24074.00
313.0420, 23984.00
314.2510, 24114.00
315.4600, 24240.00
316.6680, 24317.00
317.8770, 24362.00
319.0850, 24326.00
320.2930, 24272.00
321.5010, 24371.00
322.7090, 24486.00
323.9160, 24495.00
325.1240, 24696.00
326.3310, 24731.00
327.5380, 24868.00
328.7450, 24804.00
329.9520, 24825.00
331.1580, 25067.00
332.3650, 25220.00
333.5710, 25427.00
334.7770, 25512.00
335.9830, 25694.60
337.1880, 25958.00
338.3940, 26009.00
339.5990, 26092.00
340.8040, 26264.00
342.0090, 26493.00
343.2140, 26771.00
344.4190, 27024.00
345.6230, 27226.00
346.8280, 27490.37
348.0320, 27449.00
349.2360, 27947.00
350.4400, 28266.00
351.6430, 28457.00
352.8470, 28307.00
354.0500, 29059.00
355.2530, 29321.00
356.4560, 29937.00
357.6590, 30079.00
358.8620, 30510.00
360.0640, 30802.00
361.2660, 31316.00
362.4680, 31440.00
363.6700, 32275.00
364.8720, 32500.00
366.0740, 33061.00
367.2750, 33590.00
368.4760, 33998.00
369.6770, 34480.00
370.8780, 35115.00
372.0790, 35741.00
373.2800, 36457.00
374.4800, 37117.00
375.6800, 37467.00
376.8800, 38191.00
378.0800, 38942.00
379.2800, 40009.00
380.4790, 40687.00
381.6790, 41570.00
382.8780, 42390.00
384.0770, 43422.45
385.2760, 44523.41
386.4750, 45713.00
387.6730, 46992.00
388.8720, 48362.00
390.0700, 49783.00
391.2680, 51234.00
392.4660, 53294.00
393.6630, 54724.00
394.8610, 56077.00
396.0580, 58012.00
397.2550, 58848.00
398.4520, 60547.00
399.6490, 61651.00
400.8460, 62221.00
402.0420, 62999.00
403.2390, 63454.00
404.4350, 63282.00
405.6310, 63069.00
406.8270, 62167.00
408.0220, 61458.00
409.2180, 60094.00
410.4130, 58763.00
411.6080, 56942.00
412.8030, 55503.00
413.9980, 53663.00
415.1920, 52231.00
416.3870, 50803.00
417.5810, 49237.00
418.7750, 47174.00
419.9690, 45759.00
421.1630, 44276.00
422.3570, 42992.00
423.5500, 41356.00
424.7430, 40382.00
425.9360, 39184.00
427.1290, 37693.00
428.3220, 36642.00
429.5150, 35878.00
430.7070, 34381.00
431.8990, 33845.00
433.0910, 32906.00
434.2830, 32125.00
435.4750, 31257.00
436.6670, 31007.00
437.8580, 30576.00
439.0490, 30013.00
440.2400, 29655.00
441.4310, 29360.00
442.6220, 29161.00
443.8130, 29017.77
445.0030, 28916.64
446.1930, 28932.00
447.3830, 28966.00
448.5730, 29037.00
449.7630, 29331.00
450.9520, 29600.00
452.1420, 29732.00
453.3310, 30243.00
454.5200, 30610.00
455.7090, 31123.00
456.8980, 31988.00
458.0860, 32821.00
459.2740, 33612.00
460.4630, 34577.00
461.6510, 35253.00
462.8380, 36251.00
464.0260, 36949.00
465.2140, 37452.00
466.4010, 37828.00
467.5880, 38412.00
468.7750, 38639.00
469.9620, 38622.00
471.1490, 38935.00
472.3350, 39296.00
473.5220, 39927.00
474.7080, 40406.00
475.8940, 41074.00
477.0800, 41887.00
478.2650, 43045.00
479.4510, 44097.00
480.6360, 45291.00
481.8210, 46256.00
483.0060, 46864.00
484.1910, 47046.00
485.3760, 46803.00
486.5600, 46351.00
487.7440, 45218.00
488.9290, 43829.00
490.1130, 42610.00
491.2960, 40627.00
492.4800, 39089.00
493.6630, 36983.00
494.8470, 35441.00
496.0300, 33903.00
497.2130, 32506.00
498.3960, 31104.00
499.5780, 30186.00
500.7610, 29354.00
501.9430, 28524.00
503.1250, 28016.00
504.3070, 27259.00
505.4890, 27075.00
506.6710, 26377.00
507.8520, 26229.00
509.0330, 25757.00
510.2140, 25697.00
511.3950, 25207.00
512.5760, 25181.00
513.7570, 24995.00
514.9370, 24788.00
516.1170, 25093.00
517.2980, 24685.00
518.4780, 24784.00
519.6570, 24328.00
520.8370, 24501.00
522.0160, 24467.00
523.1960, 24457.00
524.3750, 24361.00
525.5540, 24356.20
526.7320, 24177.00
527.9110, 24286.00
529.0890, 24231.00
530.2680, 24163.00
531.4460, 24207.68
532.6240, 23987.00
533.8010, 24212.00
534.9790, 23976.00
536.1560, 23977.00
537.3340, 23920.00
538.5110, 23857.00
539.6880, 23986.00
540.8650, 23780.00
542.0410, 23924.00
543.2180, 24015.00
544.3940, 23857.00
545.5700, 23753.00
546.7460, 23612.00
547.9220, 23651.00
549.0970, 23871.00
550.2730, 23605.00
551.4480, 23505.00
552.6230, 23772.00
553.7980, 23630.00
554.9730, 23783.00
556.1470, 23809.00
557.3210, 23624.00
558.4960, 23567.00
559.6700, 23870.00
560.8440, 23581.00
562.0170, 23804.00
563.1910, 23747.00
564.3640, 23731.00
565.5380, 23812.00
566.7110, 23792.16
567.8840, 23973.00
569.0560, 23903.00
570.2290, 23831.00
571.4010, 23990.00
572.5740, 23778.00
573.7460, 23962.00
574.9180, 24261.00
576.0890, 24252.00
577.2610, 24169.00
578.4320, 24375.00
579.6040, 24366.00
580.7750, 24571.00
581.9450, 24514.00
583.1160, 24671.00
584.2870, 24821.16
585.4570, 24887.00
586.6270, 25122.00
587.7980, 25337.00
588.9670, 25415.00
590.1370, 25717.00
591.3070, 25873.24
592.4760, 26014.00
593.6450, 26267.00
594.8140, 26565.00
595.9830, 26742.00
597.1520, 27294.00
598.3210, 27469.00
599.4890, 27867.00
600.6570, 28339.00
601.8250, 28596.00
602.9930, 28937.00
604.1610, 29555.00
605.3290, 29780.00
606.4960, 30016.00
607.6630, 30441.00
608.8300, 30547.00
609.9970, 30833.00
611.1640, 30687.00
612.3300, 30825.00
613.4970, 30813.00
614.6630, 30561.00
615.8290, 30410.00
616.9950, 30136.00
618.1610, 29696.00
619.3260, 29608.00
620.4920, 29124.00
621.6570, 28835.00
622.8220, 28598.00
623.9870, 28219.17
625.1520, 27938.00
626.3160, 27645.00
627.4810, 27343.00
628.6450, 27137.00
629.8090, 26798.00
630.9730, 26648.00
632.1370, 26458.00
633.3000, 26256.00
634.4640, 26017.00
635.6270, 25984.00
636.7900, 25989.00
637.9530, 25902.00
639.1160, 25573.00
640.2780, 25631.00
641.4410, 25354.00
642.6030, 25411.00
643.7650, 25448.00
644.9270, 25412.00
646.0890, 25366.00
647.2500, 25320.00
648.4120, 25261.72
649.5730, 25184.00
650.7340, 25139.00
651.8950, 25001.00
653.0560, 24941.00
654.2160, 25149.00
655.3770, 25067.00
656.5370, 25025.00
657.6970, 24816.00
658.8570, 25070.00
660.0170, 24868.00
661.1760, 24965.00
662.3360, 24980.00
663.4950, 24853.00
664.6540, 24983.00
665.8130, 24739.00
666.9720, 24939.00
668.1310, 24964.00
669.2890, 24892.00
670.4470, 24874.00
671.6050, 24960.00
672.7630, 24923.00
673.9210, 25084.00
675.0790, 24984.00
676.2360, 25081.00
677.3930, 25181.00
678.5510, 24984.00
679.7080, 25024.00
680.8640, 25025.00
682.0210, 25007.07
683.1770, 25153.00
684.3340, 25102.00
685.4900, 25113.00
686.6460, 25193.00
687.8020, 25451.00
688.9570, 25207.00
690.1130, 25430.00
691.2680, 25276.00
692.4230, 25279.00
693.5780, 25231.00
694.7330, 25378.00
695.8880, 25270.00
697.0420, 25337.00
698.1960, 25085.00
699.3510, 25249.00
700.5040, 25370.00
701.6580, 25596.00
702.8120, 25595.00
703.9650, 25471.00
705.1190, 25314.00
706.2720, 25368.19
707.4250, 25332.00
708.5780, 25431.00
709.7300, 25430.00
710.8830, 25493.00
712.0350, 25469.00
713.1870, 25650.00
714.3390, 25538.00
715.4910, 25425.00
716.6430, 25540.00
717.7940, 25428.00
718.9460, 25565.00
720.0970, 25600.00
721.2480, 25623.00
722.3990, 25574.00
723.5500, 25628.00
724.7000, 25522.00
725.8500, 25520.00
727.0010, 25470.00
728.1510, 25554.00
729.3010, 25469.00
730.4500, 25796.00
731.6000, 25859.00
732.7490, 25680.00
733.8980, 25655.00
735.0470, 25543.00
736.1960, 25724.00
737.3450, 25593.00
738.4940, 25712.00
739.6420, 25740.00
740.7900, 25941.00
741.9380, 25654.00
743.0860, 25673.00
744.2340, 25829.00
745.3810, 25890.00
746.5290, 25713.00
747.6760, 25755.00
748.8230, 25740.85
749.9700, 25825.00
751.1170, 25822.00
752.2630, 25708.00
753.4100, 25877.00
754.5560, 25948.00
755.7020, 26163.00
756.8480, 26099.00
757.9940, 26373.00
759.1390, 26388.00
760.2850, 26347.00
761.4300, 26145.00
762.5750, 26257.00
763.7200, 26286.00
764.8650, 26365.00
766.0100, 26432.00
767.1540, 26465.14
768.2980, 26476.00
769.4420, 26540.00
770.5860, 26529.00
771.7300, 26553.00
772.8740, 26595.71
774.0170, 26610.29
775.1610, 26692.00
776.3040, 26660.00
777.4470, 26748.00
778.5900, 26747.00
779.7320, 26681.00
780.8750, 26700.00
782.0170, 26670.00
783.1590, 26876.00
784.3010, 26712.00
785.4430, 26775.00
786.5850, 26947.00
787.7260, 26671.00
788.8680, 26641.00
790.0090, 26736.00
791.1500, 26726.00
792.2910, 26727.00
793.4310, 26667.00
794.5720, 26846.00
795.7120, 26681.00
796.8520, 26873.00
797.9920, 26766.00
799.1320, 26961.00
800.2720, 26907.00
801.4120, 26785.00
802.5510, 26995.00
803.6900, 26801.00
804.8290, 26897.00
805.9680, 26963.00
807.1070, 26933.00
808.2450, 27087.00
809.3840, 27107.00
810.5220, 27113.00
811.6600, 27248.00
812.7980, 27259.00
813.9360, 27066.00
815.0730, 27374.00
816.2110, 27592.00
817.3480, 27455.00
818.4850, 27624.00
819.6220, 27563.00
820.7590, 27564.00
821.8960, 27759.00
823.0320, 27681.00
824.1680, 27523.00
825.3040, 27518.00
826.4400, 27326.00
827.5760, 27134.00
828.7120, 27207.00
829.8470, 27047.00
830.9830, 26884.00
832.1180, 27031.00
833.2530, 26832.00
834.3880, 26972.00
835.5220, 26981.00
836.6570, 26851.00
837.7910, 26735.00
838.9250, 26751.00
840.0590, 26853.00
841.1930, 26775.00
842.3270, 26860.00
843.4600, 26750.00
844.5940, 26779.00
845.7270, 26795.00
846.8600, 26845.00
847.9930, 26760.00
849.1250, 26887.00
850.2580, 26810.00
851.3900, 26887.00
852.5230, 26966.00
853.6550, 26733.00
854.7870, 26835.00
855.9180, 26758.00
857.0500, 26960.00
858.1810, 26895.00
859.3130, 26974.00
860.4440, 26976.56
861.5750, 26957.00
862.7050, 26916.00
863.8360, 26911.00
864.9660, 26858.00
866.0970, 27084.00
867.2270, 27004.00
868.3570, 27068.00
869.4870, 26986.00
870.6160, 27038.00
871.7460, 26870.00
872.8750, 27045.00
874.0040, 26959.00
875.1330, 26973.00
876.2620, 26956.00
877.3910, 26849.00
878.5190, 26776.00
879.6470, 26851.87
880.7760, 27135.00
881.9040, 27096.00
883.0310, 27233.00
884.1590, 27533.00
885.2870, 27070.00
886.4140, 27267.00
887.5410, 27321.00
888.6680, 27146.00
889.7950, 27145.00
890.9220, 27185.00
892.0480, 27033.00
893.1750, 27237.00
894.3010, 27322.00
895.4270, 27140.00
896.5530, 27199.00
897.6790, 27376.00
898.8040, 27370.00
899.9300, 27631.00
901.0550, 27355.00
902.1800, 27500.00
903.3050, 27321.00
904.4300, 27347.00
905.5540, 27519.00
906.6790, 27504.00
907.8030, 27410.00
908.9270, 27555.00
910.0510, 27527.00
911.1750, 27582.00
912.2990, 27657.00
913.4220, 27663.00
914.5450, 27718.00
915.6690, 27713.00
916.7920, 27769.00
917.9140, 27846.00
919.0370, 27862.00
920.1600, 27626.00
921.2820, 27869.00
922.4040, 27793.00
923.5260, 27817.00
924.6480, 27942.00
925.7700, 27838.00
926.8910, 28002.00
928.0130, 27979.00
929.1340, 28150.00
930.2550, 28089.00
931.3760, 27867.00
932.4970, 28141.00
933.6170, 27872.00
934.7380, 28140.00
935.8580, 28287.00
936.9780, 28200.00
938.0980, 28195.00
939.2180, 28162.00
940.3370, 28180.00
941.4570, 28166.00
942.5760, 28310.00
943.6950, 28203.00
944.8140, 28243.00
945.9330, 28383.00
947.0520, 28298.96
948.1700, 28356.00
949.2890, 28293.00
950.4070, 28433.00
951.5250, 28489.00
952.6430, 28474.00
953.7600, 28512.00
954.8780, 28378.00
955.9950, 28470.00
957.1120, 28507.00
958.2290, 28338.00
959.3460, 28667.00
960.4630, 28792.00
961.5800, 28785.00
962.6960, 28891.00
963.8120, 28744.00
964.9280, 28723.00
966.0440, 29071.00
967.1600, 28795.00
968.2760, 29145.00
969.3910, 28878.00
970.5060, 28681.00
971.6210, 28846.00
972.7360, 28890.00
973.8510, 29056.00
974.9660, 29220.00
976.0800, 28903.00
977.1950, 29203.00
978.3090, 29093.00
979.4230, 29191.00
980.5370, 29227.00
981.6500, 29495.00
982.7640, 29210.00
983.8770, 29339.00
984.9900, 29523.00
986.1030, 29361.00
987.2160, 29453.00
988.3290, 29534.00
989.4420, 29643.00
990.5540, 29705.36
991.6660, 29774.82
992.7780, 29800.00
993.8900, 29934.00
995.0020, 29904.00
996.1140, 30075.00
997.2250, 30035.00
998.3360, 29897.00
999.4470, 29890.00
1000.558, 30210.00
1001.669, 30124.00
1002.780, 30301.00
1003.890, 30310.00
1005.001, 30221.00
1006.111, 30331.00
1007.221, 30196.00
1008.331, 30433.00
1009.440, 30462.00
1010.550, 30527.00
1011.659, 30519.00
1012.768, 30714.00
1013.877, 30478.00
1014.986, 30730.00
1016.095, 30693.00
1017.204, 30836.00
1018.312, 30725.00
1019.420, 30967.00
1020.528, 30907.00
1021.636, 30906.00
1022.744, 30974.00
1023.852, 30998.00
1024.959, 30903.00
1026.066, 31189.00
1027.173, 31195.00
1028.280, 31011.00
1029.387, 31025.00
1030.494, 31280.00
1031.600, 31180.00
1032.707, 31420.00
1033.813, 31152.00
1034.919, 31373.00
1036.025, 31470.00
1037.130, 31147.00
1038.236, 31579.00
1039.341, 31395.00
1040.446, 31700.00
1041.552, 31567.00
1042.656, 31544.00
1043.761, 31543.00
1044.866, 31461.37
1045.970, 31267.00
1047.074, 31516.00
1048.179, 31546.00
1049.282, 31886.00
1050.386, 31562.00
1051.490, 31684.00
1052.593, 31815.00
1053.697, 31583.00
1054.800, 31820.00
1055.903, 31762.00
1057.006, 31643.00
1058.108, 31779.00
1059.211, 31520.00
1060.313, 32009.00
1061.415, 31692.00
1062.517, 31952.00
1063.619, 31902.00
1064.721, 31881.00
1065.823, 31900.00
1066.924, 31894.00
1068.025, 31983.00
1069.126, 31938.00
1070.227, 32063.00
1071.328, 31999.00
1072.429, 32273.00
1073.529, 32444.00
1074.629, 32514.00
1075.729, 32447.00
1076.829, 32472.00
1077.929, 32596.00
1079.029, 32785.00
1080.128, 32809.26
1081.228, 32881.00
1082.327, 32937.00
1083.426, 33146.00
1084.525, 33201.00
1085.623, 33230.00
1086.722, 33291.00
1087.820, 33305.00
1088.919, 33377.00
1090.017, 33733.00
1091.115, 33673.00
1092.212, 33802.00
1093.310, 33850.00
1094.407, 33776.00
1095.505, 33862.00
1096.602, 33834.00
1097.699, 33928.05
1098.795, 34037.00
1099.892, 34175.00
1100.989, 34218.00
1102.085, 34410.00
1103.181, 34331.00
1104.277, 34263.00
1105.373, 34500.00
1106.469, 34272.00
1107.564, 34580.00
1108.660, 34424.00
1109.755, 34577.00
1110.850, 34555.00
1111.945, 34777.00
1113.040, 34611.00
1114.134, 34522.00
1115.229, 34788.00
1116.323, 34869.00
1117.417, 34613.00
1118.511, 34708.00
1119.605, 34915.00
1120.698, 34896.00
1121.792, 35185.00
1122.885, 34815.00
1123.978, 34747.00
1125.071, 34856.00
1126.164, 35039.00
1127.257, 34879.00
1128.349, 34857.00
1129.442, 34749.00
1130.534, 34694.00
1131.626, 34713.48
1132.718, 34676.00
1133.810, 34828.00
1134.901, 34930.00
1135.993, 35125.00
1137.084, 35079.78
1138.175, 34890.00
1139.266, 35052.00
1140.357, 34887.00
1141.448, 35001.00
1142.538, 35151.00
1143.628, 35216.00
1144.719, 35079.00
1145.809, 35353.00
1146.898, 35159.00
1147.988, 35221.00
1149.078, 34904.00
1150.167, 35131.00
1151.256, 35317.00
1152.345, 35278.00
1153.434, 35084.00
1154.523, 35170.00
1155.612, 35170.00
1156.700, 35290.00
1157.788, 35371.00
1158.877, 35372.00
1159.964, 35126.00
1161.052, 35482.00
1162.140, 35135.00
1163.227, 35143.00
1164.315, 35286.00
1165.402, 35109.00
1166.489, 35297.00
1167.576, 35265.00
1168.663, 35205.00
1169.749, 35048.00
1170.836, 35060.00
1171.922, 35052.00
1173.008, 35062.00
1174.094, 35174.00
1175.180, 35010.00
1176.265, 34754.00
1177.351, 34818.00
1178.436, 34795.00
1179.521, 34673.00
1180.606, 34768.00
1181.691, 34746.00
1182.776, 34624.00
1183.860, 34726.00
1184.944, 34422.00
1186.029, 34531.00
1187.113, 34343.00
1188.197, 34439.00
1189.280, 34122.00
1190.364, 34435.00
1191.447, 34260.00
1192.531, 33953.00
1193.614, 34020.00
1194.697, 34277.00
1195.779, 34246.00
1196.862, 34147.00
1197.945, 33863.00
1199.027, 33923.00
1200.109, 33772.95
1201.191, 33693.11
1202.273, 33704.00
1203.355, 33604.00
1204.436, 33708.00
1205.518, 33746.00
1206.599, 33804.00
1207.680, 33839.69
1208.761, 33843.89
1209.842, 33860.00
1210.922, 33768.00
1212.003, 33723.00
1213.083, 33537.00
1214.163, 33480.00
1215.243, 33498.00
1216.323, 33702.00
1217.402, 33674.00
1218.482, 33600.00
1219.561, 33586.00
1220.641, 33566.00
1221.720, 33414.00
1222.798, 33522.00
1223.877, 33540.00
1224.956, 33739.00
1226.034, 33470.00
1227.112, 33623.00
1228.191, 33741.00
1229.269, 33658.00
1230.346, 33992.00
1231.424, 33727.00
1232.501, 33558.00
1233.579, 33835.00
1234.656, 33731.00
1235.733, 33983.00
1236.810, 33553.00
1237.886, 33731.00
1238.963, 33801.00
1240.039, 33607.00
1241.116, 33955.00
1242.192, 33738.00
1243.268, 33819.00
1244.343, 33702.00
1245.419, 33572.00
1246.494, 33734.00
1247.570, 33835.00
1248.645, 33876.00
1249.720, 33859.00
1250.795, 33772.00
1251.869, 33774.00
1252.944, 34143.00
1254.018, 33994.00
1255.093, 34021.00
1256.167, 33892.00
1257.240, 33947.32
1258.314, 34150.00
1259.388, 34081.00
1260.461, 34073.00
1261.535, 34164.00
1262.608, 34139.00
1263.681, 34181.00
1264.753, 34266.00
1265.826, 34338.00
1266.899, 34383.00
1267.971, 34263.00
1269.043, 34303.00
1270.115, 34376.00
1271.187, 34215.00
1272.259, 34284.00
1273.330, 34374.00
1274.402, 34382.00
1275.473, 34381.00
1276.544, 34478.00
1277.615, 34400.00
1278.686, 34651.00
1279.756, 34355.00
1280.827, 34389.00
1281.897, 34586.00
1282.967, 34293.00
1284.037, 34445.00
1285.107, 34426.00
1286.177, 34550.00
1287.247, 34783.00
1288.316, 34669.00
1289.385, 34358.00
1290.454, 34407.00
1291.523, 34541.00
1292.592, 34572.00
1293.661, 34772.00
1294.729, 34739.00
1295.797, 34940.00
1296.866, 34942.00
1297.934, 34912.00
1299.001, 34934.00
1300.069, 34821.00
1301.137, 34989.00
1302.204, 34808.00
1303.271, 35106.00
1304.338, 35014.00
1305.405, 35233.00
1306.472, 35245.00
1307.539, 35401.00
1308.605, 35310.00
1309.671, 35209.00
1310.737, 35110.00
1311.803, 35185.72
1312.869, 35440.00
1313.935, 35346.00
1315.000, 35568.00
1316.066, 35593.00
1317.131, 35584.00
1318.196, 35492.00
1319.261, 35593.00
1320.326, 35562.00
1321.390, 35594.00
1322.455, 35615.38
1323.519, 35513.00
1324.583, 35679.00
1325.647, 35572.00
1326.711, 35699.00
1327.775, 35765.00
1328.838, 35733.00
1329.902, 35635.00
1330.965, 35603.00
1332.028, 35722.00
1333.091, 35688.00
1334.153, 35892.00
1335.216, 35733.00
1336.279, 35723.00
1337.341, 35943.00
1338.403, 35957.00
1339.465, 35836.00
1340.527, 35857.00
1341.588, 36049.00
1342.650, 35806.00
1343.711, 35866.00
1344.772, 35977.00
1345.834, 35834.00
1346.894, 35794.00
1347.955, 35859.00
1349.016, 35728.00
1350.076, 35967.00
1351.136, 36020.00
1352.197, 35813.00
1353.257, 36248.00
1354.316, 36119.00
1355.376, 36153.00
1356.436, 35911.00
1357.495, 35978.00
1358.554, 35992.00
1359.613, 36031.00
1360.672, 36107.00
1361.731, 36197.00
1362.789, 36113.00
1363.848, 36171.00
1364.906, 36317.00
1365.964, 36146.00
1367.022, 36270.00
1368.080, 36229.00
1369.138, 36339.00
1370.195, 36295.00
1371.253, 36159.00
1372.310, 36166.00
1373.367, 36269.00
1374.424, 36224.04
1375.480, 36431.00
1376.537, 36287.00
1377.593, 36251.00
