##NAMES=Heulandite-Ca
##RRUFFID=R060465
##IDEAL CHEMISTRY=(Ca,Na,K)_5_(Si_27_Al_9_)O_72_&#183;26H_2_O
##LOCALITY=Garrawilla, near Gunnadah, New South Wales, Australia
##OWNER=RRUFF
##SOURCE=Michael Scott
##DESCRIPTION=Orange fan of platy crystals
##STATUS=The identification of this mineral has been confirmed by X-ray diffraction and chemical analysis
##URL=rruff.info/R060465
##MEASURED CHEMISTRY=(Ca_0.66_Na_0.24_K_0.10_)_5_(Si_0.77_Al_0.23_)_36_O_72_Â·24H_2_O
##PIN_ID=M01415
##ORIENTATION=Laser parallel to a* (1 0 0). Fiducial mark perpendicular to laser is parallel to b [0 1 0]
214.0490, 21476.00
215.2770, 21396.00
216.5040, 21305.00
217.7320, 21359.00
218.9590, 21251.00
220.1860, 21415.00
221.4130, 21255.00
222.6400, 21484.00
223.8660, 21397.00
225.0920, 21508.00
226.3190, 21640.00
227.5450, 21572.00
228.7700, 21928.00
229.9960, 22484.00
231.2210, 22989.00
232.4460, 23932.00
233.6710, 23344.00
234.8960, 23672.00
236.1210, 23302.00
237.3450, 23982.00
238.5690, 24193.00
239.7930, 24583.00
241.0170, 24828.00
242.2410, 25258.00
243.4640, 25446.00
244.6870, 25913.00
245.9100, 25909.00
247.1330, 26339.00
248.3560, 25875.00
249.5780, 26218.00
250.8000, 26482.00
252.0230, 26072.00
253.2440, 26080.00
254.4660, 25797.00
255.6880, 25530.00
256.9090, 25274.00
258.1300, 25136.00
259.3510, 24858.63
260.5720, 24586.33
261.7920, 24199.00
263.0130, 23950.00
264.2330, 23501.35
265.4530, 23119.59
266.6730, 22632.00
267.8920, 22338.00
269.1120, 21954.00
270.3310, 21719.00
271.5500, 21466.00
272.7690, 21355.00
273.9880, 20931.00
275.2060, 20946.00
276.4240, 20560.00
277.6430, 20443.00
278.8600, 20062.00
280.0780, 20207.00
281.2960, 19976.00
282.5130, 19914.00
283.7300, 19763.00
284.9470, 19662.00
286.1640, 19418.00
287.3810, 19335.00
288.5970, 19383.00
289.8130, 19170.00
291.0290, 19131.00
292.2450, 19154.00
293.4610, 19055.00
294.6760, 18931.00
295.8910, 19042.00
297.1060, 18848.00
298.3210, 18826.00
299.5360, 18746.00
300.7510, 18750.00
301.9650, 18732.73
303.1790, 18824.00
304.3930, 18730.00
305.6070, 19012.00
306.8200, 19018.00
308.0340, 18892.00
309.2470, 19051.00
310.4600, 18953.00
311.6730, 19133.00
312.8850, 19320.00
314.0980, 19529.00
315.3100, 19676.00
316.5220, 19718.00
317.7340, 19920.00
318.9460, 20000.00
320.1570, 20260.00
321.3690, 20423.00
322.5800, 20617.00
323.7910, 20668.00
325.0010, 20929.00
326.2120, 20939.00
327.4220, 21087.00
328.6330, 21255.00
329.8430, 21135.00
331.0520, 21084.00
332.2620, 21323.00
333.4720, 21350.00
334.6810, 21238.00
335.8900, 21107.00
337.0990, 21120.00
338.3070, 21346.00
339.5160, 21302.00
340.7240, 21285.00
341.9320, 21043.00
343.1400, 20948.00
344.3480, 20991.00
345.5560, 21183.00
346.7630, 21386.00
347.9700, 21716.00
349.1770, 21611.00
350.3840, 21683.00
351.5910, 22114.00
352.7970, 22172.00
354.0040, 22530.00
355.2100, 22838.00
356.4160, 23058.00
357.6220, 23384.00
358.8270, 23846.00
360.0320, 23966.00
361.2380, 24592.00
362.4430, 25038.00
363.6470, 25471.00
364.8520, 25864.00
366.0560, 26525.00
367.2610, 27147.00
368.4650, 27671.00
369.6690, 28253.00
370.8720, 28906.00
372.0760, 29622.00
373.2790, 30433.00
374.4820, 31011.00
375.6850, 31785.00
376.8880, 33092.00
378.0910, 33645.00
379.2930, 34716.00
380.4950, 35563.00
381.6970, 36762.00
382.8990, 37952.00
384.1010, 38918.00
385.3020, 40161.00
386.5040, 41478.00
387.7050, 42979.00
388.9060, 44312.00
390.1060, 46139.00
391.3070, 47588.00
392.5070, 48950.00
393.7080, 50792.00
394.9080, 52168.00
396.1070, 53639.00
397.3070, 54564.00
398.5070, 56073.00
399.7060, 56898.00
400.9050, 57684.00
402.1040, 57894.00
403.3030, 57847.00
404.5010, 57428.00
405.7000, 57000.00
406.8980, 56142.00
408.0960, 55128.88
409.2940, 53735.00
410.4910, 52430.00
411.6890, 50901.00
412.8860, 49099.00
414.0830, 47402.00
415.2800, 46160.00
416.4770, 44442.00
417.6730, 42900.00
418.8690, 41408.98
420.0660, 39937.00
421.2620, 38363.00
422.4570, 37011.57
423.6530, 35430.00
424.8480, 34298.00
426.0440, 32926.00
427.2390, 31615.00
428.4340, 30567.00
429.6280, 29531.00
430.8230, 28513.00
432.0170, 27377.00
433.2110, 26684.00
434.4050, 25836.00
435.5990, 25136.00
436.7930, 24659.00
437.9860, 24200.00
439.1800, 23622.00
440.3730, 23208.00
441.5660, 22860.00
442.7580, 22390.00
443.9510, 22195.99
445.1430, 22010.00
446.3350, 21884.00
447.5270, 21764.00
448.7190, 21793.00
449.9110, 21737.00
451.1020, 21842.00
452.2930, 22032.00
453.4850, 22148.00
454.6750, 22372.00
455.8660, 22777.00
457.0570, 23211.00
458.2470, 23571.00
459.4370, 24154.00
460.6270, 24649.00
461.8170, 25353.00
463.0070, 26184.00
464.1960, 26839.00
465.3850, 27530.00
466.5750, 28161.00
467.7630, 29122.00
468.9520, 30326.00
470.1410, 31702.00
471.3290, 33030.00
472.5170, 34519.00
473.7050, 36332.00
474.8930, 38349.00
476.0810, 40549.00
477.2680, 42883.00
478.4560, 44880.00
479.6430, 47150.00
480.8300, 48545.00
482.0160, 50114.00
483.2030, 51249.00
484.3890, 51341.00
485.5760, 50579.00
486.7620, 49633.00
487.9480, 47967.00
489.1330, 45674.00
490.3190, 43262.00
491.5040, 40779.00
492.6890, 37821.00
493.8740, 35285.00
495.0590, 33216.00
496.2440, 30705.00
497.4280, 28918.00
498.6120, 27392.00
499.7960, 26036.00
500.9800, 24687.00
502.1640, 23710.00
503.3470, 22829.00
504.5310, 22084.00
505.7140, 21472.00
506.8970, 20960.00
508.0800, 20419.00
509.2620, 20159.00
510.4450, 19976.00
511.6270, 19535.00
512.8090, 19167.00
513.9910, 19028.00
515.1730, 19120.00
516.3550, 18947.00
517.5360, 18930.00
518.7170, 18605.00
519.8980, 18422.00
521.0790, 18307.00
522.2600, 18223.00
523.4400, 18178.00
524.6210, 18029.00
525.8010, 17987.00
526.9810, 17963.61
528.1610, 17797.00
529.3400, 17927.00
530.5200, 17756.00
531.6990, 17656.00
532.8780, 17766.00
534.0570, 17632.00
535.2360, 17501.00
536.4140, 17660.00
537.5930, 17543.00
538.7710, 17725.00
539.9490, 17664.00
541.1270, 17701.00
542.3040, 17472.00
543.4820, 17730.00
544.6590, 17633.00
545.8360, 17682.00
547.0130, 17504.00
548.1900, 17515.00
549.3670, 17479.34
550.5430, 17574.00
551.7190, 17439.00
552.8960, 17445.00
554.0710, 17441.00
555.2470, 17434.00
556.4230, 17462.00
557.5980, 17299.00
558.7730, 17441.00
559.9480, 17225.00
561.1230, 17490.00
562.2980, 17482.00
563.4720, 17330.00
564.6470, 17407.00
565.8210, 17477.00
566.9950, 17415.00
568.1690, 17436.00
569.3420, 17545.00
570.5160, 17633.00
571.6890, 17673.00
572.8620, 17589.00
574.0350, 17553.00
575.2080, 17753.00
576.3800, 17588.00
577.5530, 17756.00
578.7250, 17980.00
579.8970, 18028.00
581.0690, 18180.00
582.2410, 18147.00
583.4120, 18393.00
584.5830, 18356.00
585.7550, 18728.00
586.9260, 18702.00
588.0960, 19063.00
589.2670, 19288.00
590.4380, 19490.00
591.6080, 19594.00
592.7780, 19931.00
593.9480, 20280.00
595.1180, 20556.00
596.2870, 20934.00
597.4570, 21409.00
598.6260, 21755.00
599.7950, 22324.00
600.9640, 22647.00
602.1330, 23133.00
603.3010, 23638.00
604.4700, 23853.00
605.6380, 24360.00
606.8060, 24750.00
607.9740, 25067.00
609.1420, 24976.00
610.3090, 25140.00
611.4760, 25080.00
612.6440, 24977.00
613.8110, 24930.00
614.9770, 24275.00
616.1440, 24100.00
617.3110, 23692.00
618.4770, 23077.00
619.6430, 22761.00
620.8090, 22244.00
621.9750, 21860.00
623.1400, 21690.00
624.3060, 20973.00
625.4710, 20642.00
626.6360, 20489.00
627.8010, 20225.00
628.9660, 19915.00
630.1300, 19728.00
631.2950, 19261.00
632.4590, 19147.00
633.6230, 19211.00
634.7870, 18792.00
635.9510, 18718.00
637.1140, 18677.00
638.2780, 18385.00
639.4410, 18323.00
640.6040, 18243.00
641.7670, 18184.00
642.9290, 18003.00
644.0920, 17973.00
645.2540, 17802.00
646.4160, 17508.00
647.5780, 17611.00
648.7400, 17704.00
649.9020, 17442.00
651.0630, 17319.00
652.2250, 17501.00
653.3860, 17262.69
654.5470, 17588.00
655.7080, 17102.00
656.8680, 17200.00
658.0290, 17193.00
659.1890, 16956.00
660.3490, 16937.00
661.5090, 16940.00
662.6690, 17075.00
663.8280, 17009.00
664.9880, 17046.00
666.1470, 16876.00
667.3060, 17069.00
668.4650, 16965.00
669.6240, 17003.48
670.7820, 16900.00
671.9410, 17027.00
673.0990, 17039.00
674.2570, 16971.00
675.4150, 16970.00
676.5720, 16989.00
677.7300, 17080.00
678.8870, 17302.00
680.0450, 17202.00
681.2020, 16956.00
682.3590, 17182.00
683.5150, 17156.00
684.6720, 17232.00
685.8280, 17371.00
686.9840, 17263.00
688.1400, 17318.00
689.2960, 17247.00
690.4520, 17330.00
691.6070, 17250.00
692.7630, 17293.00
693.9180, 17486.00
695.0730, 17511.00
696.2280, 17469.00
697.3820, 17316.00
698.5370, 17351.00
699.6910, 17539.00
700.8450, 17480.00
701.9990, 17551.00
703.1530, 17582.00
704.3070, 17536.00
705.4600, 17586.00
706.6130, 17862.00
707.7660, 17709.00
708.9190, 17844.00
710.0720, 17597.00
711.2250, 17720.00
712.3770, 17730.00
713.5300, 17692.00
714.6820, 17764.00
715.8340, 17817.00
716.9850, 17854.00
718.1370, 17717.00
719.2880, 17653.00
720.4400, 17654.00
721.5910, 17873.00
722.7420, 17757.00
723.8930, 17790.00
725.0430, 17752.00
726.1940, 17753.00
727.3440, 17764.78
728.4940, 17751.00
729.6440, 17797.00
730.7940, 17709.00
731.9430, 17748.00
733.0930, 17597.00
734.2420, 17588.00
735.3910, 17936.00
736.5400, 17699.00
737.6890, 17807.00
738.8370, 17894.00
739.9860, 17539.00
741.1340, 17825.00
742.2820, 17571.00
743.4300, 17704.00
744.5780, 17916.00
745.7250, 17801.00
746.8730, 17937.00
748.0200, 18113.00
749.1670, 17997.00
750.3140, 18063.00
751.4610, 18178.00
752.6070, 18279.00
753.7540, 18210.00
754.9000, 18183.00
756.0460, 18321.00
757.1920, 18473.00
758.3380, 18635.00
759.4830, 18741.00
760.6280, 18845.00
761.7740, 19013.00
762.9190, 18981.00
764.0640, 19179.00
765.2080, 19513.00
766.3530, 19417.00
767.4970, 19457.00
768.6420, 19818.00
769.7860, 19943.00
770.9300, 20227.00
772.0730, 20606.00
773.2170, 20468.00
774.3600, 21146.00
775.5040, 21835.00
776.6470, 21642.00
777.7900, 21495.00
778.9320, 21937.00
780.0750, 21971.19
781.2170, 22281.83
782.3600, 22452.00
783.5020, 22811.00
784.6440, 22843.00
785.7850, 22761.00
786.9270, 22823.00
788.0680, 22904.00
789.2100, 22809.00
790.3510, 22881.04
791.4920, 22923.00
792.6320, 22881.00
793.7730, 22858.00
794.9130, 22803.00
796.0540, 22604.00
797.1940, 22559.67
798.3340, 22417.00
799.4730, 22331.00
800.6130, 22154.00
801.7520, 22002.00
802.8920, 21955.00
804.0310, 21741.00
805.1700, 21480.00
806.3090, 21404.00
807.4470, 21364.00
808.5860, 21365.00
809.7240, 21299.69
810.8620, 21101.00
812.0000, 21262.00
813.1380, 21061.00
814.2750, 21125.00
815.4130, 21140.00
816.5500, 21241.00
817.6870, 21290.00
818.8240, 21413.00
819.9610, 21256.00
821.0980, 21186.00
822.2340, 20925.00
823.3700, 20695.00
824.5070, 20432.00
825.6430, 20184.31
826.7780, 19965.00
827.9140, 19706.00
829.0500, 19419.00
830.1850, 19231.00
831.3200, 19118.00
832.4550, 18942.62
833.5900, 18689.00
834.7250, 18761.00
835.8590, 18478.00
836.9930, 18468.00
838.1280, 18334.00
839.2620, 18485.00
840.3950, 18307.00
841.5290, 18250.00
842.6630, 18239.00
843.7960, 18162.00
844.9290, 18125.00
846.0620, 18050.00
847.1950, 18051.16
848.3280, 18154.00
849.4600, 18091.00
850.5930, 18060.00
851.7250, 18139.57
852.8570, 18353.00
853.9890, 18082.00
855.1210, 18222.00
856.2520, 18020.00
857.3840, 18036.00
858.5150, 18149.00
859.6460, 18111.00
860.7770, 18068.00
861.9080, 18084.00
863.0380, 18046.00
864.1690, 18052.00
865.2990, 17978.00
866.4290, 18031.00
867.5590, 17997.83
868.6890, 18236.00
869.8190, 18010.00
870.9480, 18038.00
872.0770, 18106.00
873.2070, 17909.00
874.3360, 17959.00
875.4640, 17988.00
876.5930, 17985.00
877.7220, 17962.00
878.8500, 17967.00
879.9780, 18002.00
881.1060, 18136.00
882.2340, 18003.00
883.3620, 18066.00
884.4890, 18069.00
885.6170, 17942.00
886.7440, 18128.00
887.8710, 18010.00
888.9980, 18008.00
890.1240, 17986.00
891.2510, 17978.83
892.3770, 17978.83
893.5040, 18034.00
894.6300, 18018.00
895.7560, 18060.00
896.8810, 18160.00
898.0070, 18203.00
899.1330, 18253.00
900.2580, 18139.00
901.3830, 18314.00
902.5080, 18252.00
903.6330, 18201.00
904.7570, 18314.00
905.8820, 18285.00
907.0060, 18296.00
908.1300, 18258.00
909.2540, 18150.00
910.3780, 18212.00
911.5020, 18371.00
912.6250, 18304.00
913.7490, 18288.00
914.8720, 18384.00
915.9950, 18362.00
917.1180, 18451.00
918.2400, 18510.00
919.3630, 18479.00
920.4850, 18479.00
921.6080, 18452.00
922.7300, 18526.00
923.8520, 18431.00
924.9730, 18583.00
926.0950, 18611.00
927.2160, 18894.00
928.3380, 18705.00
929.4590, 18705.00
930.5800, 18884.00
931.7010, 18719.00
932.8210, 18675.00
933.9420, 18754.00
935.0620, 18761.00
936.1820, 18694.00
937.3020, 18891.00
938.4220, 18913.00
939.5420, 18890.00
940.6610, 18911.00
941.7810, 18833.00
942.9000, 18876.00
944.0190, 19037.00
945.1380, 18952.00
946.2570, 19002.00
947.3750, 19064.00
948.4940, 19015.00
949.6120, 19148.00
950.7300, 19106.00
951.8480, 19174.00
952.9660, 19175.00
954.0830, 19169.00
955.2010, 19271.00
956.3180, 19310.00
957.4350, 19338.98
958.5520, 19349.00
959.6690, 19441.00
960.7860, 19348.00
961.9020, 19468.00
963.0190, 19461.00
964.1350, 19360.00
965.2510, 19477.00
966.3670, 19469.00
967.4830, 19538.00
968.5980, 19666.00
969.7140, 19695.46
970.8290, 19885.00
971.9440, 19876.00
973.0590, 19822.00
974.1740, 19980.06
975.2880, 19962.83
976.4030, 20085.00
977.5170, 19976.00
978.6310, 20160.00
979.7450, 19988.00
980.8590, 20008.00
981.9730, 20066.00
983.0860, 20264.00
984.2000, 20388.00
985.3130, 20363.00
986.4260, 20350.00
987.5390, 20392.81
988.6520, 20409.17
989.7640, 20464.00
990.8770, 20487.00
991.9890, 20650.00
993.1010, 20674.00
994.2130, 20600.00
995.3250, 20906.00
996.4370, 20691.00
997.5480, 20896.00
998.6590, 21190.00
999.7710, 20952.00
1000.882, 21321.00
1001.993, 21230.00
1003.103, 21160.00
1004.214, 21286.00
1005.324, 21407.00
1006.434, 21378.00
1007.545, 21453.00
1008.655, 21507.00
1009.764, 21406.00
1010.874, 21572.00
1011.983, 21543.00
1013.093, 21675.00
1014.202, 21727.00
1015.311, 21634.00
1016.420, 21522.00
1017.528, 21718.00
1018.637, 21892.00
1019.745, 22117.00
1020.854, 21996.00
1021.962, 21950.00
1023.070, 21982.00
1024.177, 22283.00
1025.285, 22161.00
1026.392, 22210.00
1027.500, 22346.00
1028.607, 22302.00
1029.714, 22455.00
1030.821, 22333.00
1031.927, 22426.00
1033.034, 22654.00
1034.140, 22682.00
1035.246, 22656.00
1036.352, 22664.00
1037.458, 22604.00
1038.564, 22737.00
1039.670, 22752.00
1040.775, 22738.00
1041.880, 22700.00
1042.986, 22650.00
1044.090, 23051.00
1045.195, 23020.00
1046.300, 23005.00
1047.404, 22873.00
1048.509, 22846.00
1049.613, 22990.00
1050.717, 23080.00
1051.821, 23167.00
1052.925, 23214.75
1054.028, 23044.00
1055.132, 23235.00
1056.235, 23203.00
1057.338, 23152.00
1058.441, 23385.00
1059.544, 23421.00
1060.647, 23290.00
1061.749, 23494.00
1062.851, 23592.00
1063.954, 23512.00
1065.056, 23518.00
1066.158, 23594.00
1067.259, 23590.93
1068.361, 23746.00
1069.462, 23732.00
1070.564, 23771.00
1071.665, 23927.00
1072.766, 23820.70
1073.867, 24041.00
1074.967, 24201.16
1076.068, 24304.51
1077.168, 24180.62
1078.268, 24350.07
1079.368, 24401.98
1080.468, 24449.05
1081.568, 24659.79
1082.668, 24568.94
1083.767, 24777.01
1084.866, 24865.73
1085.966, 25009.14
1087.065, 25034.20
1088.163, 25095.71
1089.262, 25275.63
1090.361, 25390.02
1091.459, 25401.39
1092.557, 25548.12
1093.655, 25452.99
1094.753, 25560.00
1095.851, 25674.00
1096.949, 25652.00
1098.046, 25750.00
1099.143, 25702.00
1100.241, 25866.00
1101.338, 25791.00
1102.434, 26186.00
1103.531, 25983.00
1104.628, 26196.00
1105.724, 26227.00
1106.820, 26203.00
1107.916, 26477.00
1109.012, 26254.00
1110.108, 26352.00
1111.204, 26697.00
1112.299, 26492.00
1113.395, 26390.00
1114.490, 26492.00
1115.585, 26469.00
1116.680, 26745.00
1117.775, 26515.00
1118.869, 26901.00
1119.964, 26757.00
1121.058, 27062.00
1122.152, 26969.00
1123.246, 26747.00
1124.340, 26974.00
1125.434, 26560.00
1126.527, 26886.00
1127.620, 26619.00
1128.714, 26425.00
1129.807, 26674.00
1130.900, 26587.00
1131.992, 26444.00
1133.085, 26542.00
1134.178, 26640.00
1135.270, 26452.00
1136.362, 26581.00
1137.454, 26485.00
1138.546, 26437.00
1139.638, 26349.00
1140.729, 26275.00
1141.821, 26491.00
1142.912, 26107.00
1144.003, 26334.00
1145.094, 26497.00
1146.185, 26312.00
1147.276, 26346.00
1148.366, 26250.00
1149.456, 25911.00
1150.547, 26230.00
1151.637, 26384.00
1152.727, 26201.00
1153.816, 25860.00
1154.906, 26283.00
1155.995, 26072.00
1157.085, 26191.00
1158.174, 26154.00
1159.263, 26023.00
1160.352, 26080.00
1161.441, 25998.61
1162.529, 25849.00
1163.618, 25958.52
1164.706, 25850.00
1165.794, 25896.00
1166.882, 25801.00
1167.970, 25855.00
1169.058, 25630.00
1170.145, 25606.00
1171.232, 25641.00
1172.320, 25529.64
1173.407, 25558.00
1174.494, 25444.00
1175.580, 25392.00
1176.667, 25308.00
1177.754, 25430.00
1178.840, 25337.00
1179.926, 25254.00
1181.012, 25099.00
1182.098, 25187.00
1183.184, 25136.00
1184.269, 24948.00
1185.355, 24980.00
1186.440, 24897.00
1187.525, 24748.00
1188.610, 24722.00
1189.695, 24649.24
1190.780, 24539.00
1191.864, 24557.00
1192.949, 24471.00
1194.033, 24393.00
1195.117, 24405.00
1196.201, 24269.00
1197.285, 24287.00
1198.369, 24131.00
1199.452, 24168.00
1200.536, 24114.00
1201.619, 23937.00
1202.702, 23864.00
1203.785, 24028.00
1204.868, 24115.00
1205.950, 23939.00
1207.033, 23869.00
1208.115, 23758.00
1209.197, 23932.00
1210.279, 23722.00
1211.361, 23596.00
1212.443, 23826.00
1213.525, 23806.00
1214.606, 23777.00
1215.687, 23716.00
1216.769, 23682.00
1217.850, 23845.00
1218.930, 23698.00
1220.011, 23438.00
1221.092, 23836.00
1222.172, 23602.00
1223.252, 23633.00
1224.333, 23579.00
1225.413, 23509.00
1226.492, 23818.00
1227.572, 23660.00
1228.652, 23667.00
1229.731, 23498.00
1230.810, 23709.00
1231.889, 23733.00
1232.968, 23616.00
1234.047, 23672.00
1235.126, 23689.00
1236.204, 23706.00
1237.283, 23693.00
1238.361, 23811.00
1239.439, 23983.00
1240.517, 23912.00
1241.595, 23818.00
1242.673, 23960.00
1243.750, 23770.00
1244.827, 23836.00
1245.905, 23961.00
1246.982, 23851.00
1248.059, 23862.52
1249.135, 24016.90
1250.212, 24111.21
1251.288, 24148.64
1252.365, 23958.91
1253.441, 24062.51
1254.517, 24048.55
1255.593, 24029.77
1256.669, 24174.66
1257.744, 24017.94
1258.820, 24160.23
1259.895, 23970.00
1260.970, 24207.00
1262.045, 24186.00
1263.120, 24558.00
1264.195, 24276.00
1265.270, 24375.00
1266.344, 24286.00
1267.418, 24171.00
1268.492, 24515.00
1269.566, 24473.00
1270.640, 24659.00
1271.714, 24239.00
1272.788, 24627.00
1273.861, 24509.00
1274.934, 24577.00
1276.007, 24542.00
1277.080, 24690.00
1278.153, 24448.00
1279.226, 24869.00
1280.299, 24696.00
1281.371, 24799.00
1282.443, 24624.00
1283.515, 24481.00
1284.587, 24662.00
1285.659, 24750.00
1286.731, 24865.00
1287.802, 24948.50
1288.874, 25022.00
1289.945, 25002.00
1291.016, 25051.00
1292.087, 24926.00
1293.158, 25005.03
1294.229, 25028.02
1295.299, 25139.00
1296.370, 25105.00
1297.440, 25275.00
1298.510, 25234.00
1299.580, 25259.00
1300.650, 25456.00
1301.720, 25320.00
1302.789, 25430.12
1303.859, 25610.63
1304.928, 25448.69
1305.997, 25436.14
1307.066, 25587.43
1308.135, 25678.62
1309.203, 25712.94
1310.272, 25520.11
1311.340, 25620.60
1312.409, 25603.55
1313.477, 25581.66
1314.545, 25723.44
1315.612, 25563.62
1316.680, 25702.80
1317.748, 25722.63
1318.815, 25797.08
1319.882, 25753.23
1320.949, 25745.93
1322.016, 25856.94
1323.083, 25902.44
1324.150, 25844.98
1325.216, 25922.88
1326.283, 25758.93
1327.349, 25807.21
1328.415, 25947.06
1329.481, 25895.53
1330.547, 25975.60
1331.613, 26005.55
1332.678, 25917.00
1333.744, 26014.00
1334.809, 25909.00
1335.874, 26002.00
1336.939, 26086.00
1338.004, 26067.00
1339.068, 26119.00
1340.133, 26183.00
1341.197, 26191.00
1342.262, 26200.19
1343.326, 26105.00
1344.390, 26165.00
1345.453, 26127.00
1346.517, 26094.00
1347.581, 26121.17
1348.644, 26157.43
1349.707, 26121.00
1350.770, 26294.00
1351.833, 26288.00
1352.896, 26347.00
1353.959, 26278.00
1355.022, 26502.00
1356.084, 26571.00
1357.146, 26624.00
1358.208, 26477.00
1359.270, 26638.00
1360.332, 26443.00
1361.394, 26570.00
1362.455, 26306.00
1363.517, 26525.00
1364.578, 26367.00
1365.639, 26555.00
1366.700, 26365.00
1367.761, 26534.00
1368.822, 26670.00
1369.883, 26647.00
1370.943, 26622.00
1372.003, 26610.00
1373.063, 26700.00
1374.123, 26707.00
1375.183, 26630.00
1376.243, 26798.00
