##NAMES=Heulandite-Ca
##RRUFFID=R060465
##IDEAL CHEMISTRY=(Ca,Na,K)_5_(Si_27_Al_9_)O_72_&#183;26H_2_O
##LOCALITY=Garrawilla, near Gunnadah, New South Wales, Australia
##OWNER=RRUFF
##SOURCE=Michael Scott
##DESCRIPTION=Orange fan of platy crystals
##STATUS=The identification of this mineral has been confirmed by X-ray diffraction and chemical analysis
##URL=rruff.info/R060465
##MEASURED CHEMISTRY=(Ca_0.66_Na_0.24_K_0.10_)_5_(Si_0.77_Al_0.23_)_36_O_72_Â·24H_2_O
##PIN_ID=M01415
##ORIENTATION=Laser parallel to a* (1 0 0). Fiducial mark perpendicular to laser is parallel to b [0 1 0]
223.8660, 19174.00
225.0920, 19114.00
226.3190, 19101.00
227.5450, 19005.00
228.7700, 18963.00
229.9960, 19166.00
231.2210, 19110.00
232.4460, 19324.00
233.6710, 19225.00
234.8960, 19168.00
236.1210, 19380.00
237.3450, 19382.00
238.5690, 19489.00
239.7930, 19616.00
241.0170, 19707.00
242.2410, 19699.00
243.4640, 20049.00
244.6870, 19977.00
245.9100, 19861.00
247.1330, 20100.00
248.3560, 20255.00
249.5780, 20372.00
250.8000, 20251.00
252.0230, 20284.00
253.2440, 20337.00
254.4660, 20429.00
255.6880, 20604.00
256.9090, 20478.00
258.1300, 20650.00
259.3510, 20716.23
260.5720, 21076.00
261.7920, 20892.00
263.0130, 20709.00
264.2330, 20718.93
265.4530, 20466.00
266.6730, 20711.00
267.8920, 20551.00
269.1120, 20523.00
270.3310, 20576.00
271.5500, 20475.00
272.7690, 20547.84
273.9880, 20806.00
275.2060, 20690.00
276.4240, 20769.00
277.6430, 20953.00
278.8600, 20943.00
280.0780, 20914.00
281.2960, 20923.00
282.5130, 21156.00
283.7300, 21090.00
284.9470, 21244.00
286.1640, 21181.00
287.3810, 21117.00
288.5970, 21081.00
289.8130, 21221.00
291.0290, 21295.00
292.2450, 21405.00
293.4610, 21301.00
294.6760, 21360.00
295.8910, 21365.00
297.1060, 21310.00
298.3210, 21456.00
299.5360, 21368.00
300.7510, 21407.00
301.9650, 21443.00
303.1790, 21494.76
304.3930, 21597.00
305.6070, 21743.00
306.8200, 21737.00
308.0340, 21979.00
309.2470, 22001.00
310.4600, 22243.00
311.6730, 22336.00
312.8850, 22577.00
314.0980, 22838.00
315.3100, 22884.00
316.5220, 23292.00
317.7340, 23257.00
318.9460, 23466.00
320.1570, 23955.00
321.3690, 23860.00
322.5800, 24083.00
323.7910, 24183.00
325.0010, 24451.00
326.2120, 24495.00
327.4220, 24714.00
328.6330, 24703.00
329.8430, 24810.00
331.0520, 25078.00
332.2620, 25129.00
333.4720, 25078.00
334.6810, 25091.00
335.8900, 25188.00
337.0990, 25272.00
338.3070, 25292.00
339.5160, 25052.00
340.7240, 25389.00
341.9320, 25349.00
343.1400, 25681.00
344.3480, 25762.00
345.5560, 25946.00
346.7630, 26239.00
347.9700, 26342.00
349.1770, 26613.00
350.3840, 26819.00
351.5910, 27021.00
352.7970, 27309.00
354.0040, 27543.00
355.2100, 28005.00
356.4160, 28276.00
357.6220, 28577.00
358.8270, 28758.00
360.0320, 29358.00
361.2380, 29954.00
362.4430, 30131.00
363.6470, 30609.00
364.8520, 31070.00
366.0560, 31430.00
367.2610, 31971.00
368.4650, 32334.00
369.6690, 32872.00
370.8720, 33400.00
372.0760, 33984.00
373.2790, 34615.00
374.4820, 35267.00
375.6850, 35770.00
376.8880, 36605.00
378.0910, 37667.00
379.2930, 37964.00
380.4950, 38797.00
381.6970, 39590.00
382.8990, 40998.00
384.1010, 41552.00
385.3020, 42809.00
386.5040, 43705.00
387.7050, 45208.00
388.9060, 46240.00
390.1060, 47891.00
391.3070, 48910.00
392.5070, 50526.00
393.7080, 51985.00
394.9080, 53454.00
396.1070, 54601.00
397.3070, 55629.00
398.5070, 56959.00
399.7060, 57718.00
400.9050, 58133.00
402.1040, 58959.00
403.3030, 58788.00
404.5010, 58366.00
405.7000, 58184.00
406.8980, 57508.00
408.0960, 56064.00
409.2940, 54867.00
410.4910, 53982.00
411.6890, 52228.00
412.8860, 50907.00
414.0830, 49709.00
415.2800, 48230.00
416.4770, 46950.00
417.6730, 45168.00
418.8690, 43890.00
420.0660, 42483.00
421.2620, 41561.00
422.4570, 40113.00
423.6530, 38633.00
424.8480, 37186.00
426.0440, 35739.00
427.2390, 34553.14
428.4340, 33379.32
429.6280, 32365.00
430.8230, 31409.00
432.0170, 30535.00
433.2110, 29810.00
434.4050, 29061.00
435.5990, 28537.00
436.7930, 28006.00
437.9860, 27541.00
439.1800, 27215.00
440.3730, 26800.00
441.5660, 26480.00
442.7580, 26510.00
443.9510, 26617.00
445.1430, 26633.00
446.3350, 26469.00
447.5270, 26618.00
448.7190, 26905.00
449.9110, 27137.00
451.1020, 27461.00
452.2930, 27733.00
453.4850, 28053.00
454.6750, 28747.00
455.8660, 29218.00
457.0570, 30268.00
458.2470, 30942.00
459.4370, 31803.00
460.6270, 32581.00
461.8170, 33178.00
463.0070, 33857.00
464.1960, 34790.00
465.3850, 35239.00
466.5750, 35789.00
467.7630, 36091.00
468.9520, 36586.00
470.1410, 37110.00
471.3290, 37555.00
472.5170, 38118.00
473.7050, 39039.00
474.8930, 40065.00
476.0810, 40987.00
477.2680, 42100.00
478.4560, 43285.00
479.6430, 44244.00
480.8300, 45123.00
482.0160, 45720.00
483.2030, 46085.00
484.3890, 46029.00
485.5760, 45346.00
486.7620, 44335.00
487.9480, 43347.00
489.1330, 41362.00
490.3190, 40067.00
491.5040, 37895.00
492.6890, 36082.00
493.8740, 34461.00
495.0590, 32611.00
496.2440, 31373.00
497.4280, 30100.00
498.6120, 28633.00
499.7960, 27889.00
500.9800, 26782.00
502.1640, 26174.00
503.3470, 25673.00
504.5310, 25106.00
505.7140, 24768.00
506.8970, 24454.00
508.0800, 24250.00
509.2620, 24062.00
510.4450, 23801.00
511.6270, 23666.47
512.8090, 23301.00
513.9910, 23306.00
515.1730, 23324.00
516.3550, 23026.00
517.5360, 22876.00
518.7170, 22972.00
519.8980, 22824.00
521.0790, 22612.00
522.2600, 22248.00
523.4400, 22377.00
524.6210, 22398.00
525.8010, 22306.00
526.9810, 22326.00
528.1610, 21985.00
529.3400, 22159.00
530.5200, 21926.00
531.6990, 22044.00
532.8780, 21999.00
534.0570, 21706.00
535.2360, 21748.00
536.4140, 21631.00
537.5930, 21594.00
538.7710, 21600.82
539.9490, 21647.00
541.1270, 21625.00
542.3040, 21642.99
543.4820, 21667.20
544.6590, 21682.00
545.8360, 21660.00
547.0130, 21751.00
548.1900, 21643.00
549.3670, 21605.00
550.5430, 21745.00
551.7190, 21673.00
552.8960, 21753.00
554.0710, 21631.00
555.2470, 21742.00
556.4230, 21750.00
557.5980, 21574.00
558.7730, 21778.00
559.9480, 21828.00
561.1230, 21949.00
562.2980, 21877.00
563.4720, 22033.00
564.6470, 21973.00
565.8210, 22069.00
566.9950, 21878.00
568.1690, 21960.00
569.3420, 22037.00
570.5160, 21933.00
571.6890, 22179.00
572.8620, 22069.00
574.0350, 22160.00
575.2080, 22279.00
576.3800, 22325.00
577.5530, 22402.08
578.7250, 22404.00
579.8970, 22465.00
581.0690, 22513.00
582.2410, 22447.00
583.4120, 22757.00
584.5830, 22718.00
585.7550, 22943.00
586.9260, 22903.00
588.0960, 23122.00
589.2670, 23290.00
590.4380, 23443.00
591.6080, 23629.00
592.7780, 23682.00
593.9480, 23870.00
595.1180, 24157.00
596.2870, 24423.00
597.4570, 24429.00
598.6260, 25015.00
599.7950, 25380.00
600.9640, 25460.00
602.1330, 25480.00
603.3010, 26084.00
604.4700, 26400.00
605.6380, 26345.00
606.8060, 26897.00
607.9740, 26942.00
609.1420, 26973.00
610.3090, 27137.00
611.4760, 27143.00
612.6440, 27017.00
613.8110, 27213.00
614.9770, 26666.00
616.1440, 26584.00
617.3110, 26174.00
618.4770, 26164.00
619.6430, 26050.00
620.8090, 25899.00
621.9750, 25524.00
623.1400, 25591.00
624.3060, 25305.00
625.4710, 25052.00
626.6360, 24953.00
627.8010, 24881.00
628.9660, 24784.00
630.1300, 24742.29
631.2950, 24588.00
632.4590, 24641.00
633.6230, 24500.00
634.7870, 24387.00
635.9510, 24267.00
637.1140, 24260.00
638.2780, 24023.00
639.4410, 24186.00
640.6040, 24022.00
641.7670, 23992.00
642.9290, 23877.00
644.0920, 23820.00
645.2540, 23658.00
646.4160, 23776.00
647.5780, 23469.00
648.7400, 23748.00
649.9020, 23564.00
651.0630, 23290.00
652.2250, 23302.00
653.3860, 23305.00
654.5470, 23092.00
655.7080, 23335.00
656.8680, 23196.00
658.0290, 23284.00
659.1890, 23328.00
660.3490, 23125.00
661.5090, 23218.00
662.6690, 23258.00
663.8280, 23246.00
664.9880, 23201.00
666.1470, 23224.72
667.3060, 23312.00
668.4650, 23199.00
669.6240, 23257.00
670.7820, 23199.63
671.9410, 23227.18
673.0990, 23215.00
674.2570, 23333.00
675.4150, 23375.00
676.5720, 23492.00
677.7300, 23400.00
678.8870, 23365.00
680.0450, 23455.00
681.2020, 23337.00
682.3590, 23433.00
683.5150, 23397.00
684.6720, 23474.00
685.8280, 23438.00
686.9840, 23509.00
688.1400, 23537.47
689.2960, 23509.00
690.4520, 23612.00
691.6070, 23693.00
692.7630, 23728.27
693.9180, 23790.00
695.0730, 23729.00
696.2280, 23661.00
697.3820, 23646.00
698.5370, 23713.24
699.6910, 23805.00
700.8450, 23909.00
701.9990, 23919.00
703.1530, 23993.00
704.3070, 23887.00
705.4600, 23748.00
706.6130, 23902.00
707.7660, 23936.00
708.9190, 23915.00
710.0720, 24049.00
711.2250, 23951.00
712.3770, 24067.00
713.5300, 24115.00
714.6820, 24186.00
715.8340, 24022.00
716.9850, 24059.00
718.1370, 24074.00
719.2880, 24069.00
720.4400, 24096.00
721.5910, 24185.00
722.7420, 24165.00
723.8930, 23937.00
725.0430, 24000.00
726.1940, 23973.00
727.3440, 24136.00
728.4940, 23884.00
729.6440, 24148.00
730.7940, 24249.00
731.9430, 24019.00
733.0930, 24037.00
734.2420, 24232.00
735.3910, 24199.00
736.5400, 24081.00
737.6890, 24150.00
738.8370, 24111.00
739.9860, 24324.00
741.1340, 24415.00
742.2820, 24358.00
743.4300, 24321.00
744.5780, 24253.00
745.7250, 24193.00
746.8730, 24318.00
748.0200, 24391.00
749.1670, 24525.00
750.3140, 24245.81
751.4610, 24420.56
752.6070, 24535.19
753.7540, 24592.99
754.9000, 24423.59
756.0460, 24547.53
757.1920, 24553.90
758.3380, 24555.46
759.4830, 24720.65
760.6280, 24584.26
761.7740, 24746.88
762.9190, 24790.13
764.0640, 24857.00
765.2080, 24950.00
766.3530, 24995.00
767.4970, 24992.82
768.6420, 25095.00
769.7860, 24969.00
770.9300, 24966.00
772.0730, 25041.00
773.2170, 25246.00
774.3600, 25212.00
775.5040, 25322.00
776.6470, 25101.00
777.7900, 25253.00
778.9320, 25117.00
780.0750, 25404.00
781.2170, 25325.00
782.3600, 25329.00
783.5020, 25206.00
784.6440, 25284.00
785.7850, 25342.00
786.9270, 25246.00
788.0680, 25245.00
789.2100, 25290.00
790.3510, 25350.00
791.4920, 25101.00
792.6320, 25034.00
793.7730, 25069.00
794.9130, 25378.00
796.0540, 25168.00
797.1940, 25061.00
798.3340, 25278.00
799.4730, 24971.00
800.6130, 25260.00
801.7520, 25138.00
802.8920, 25291.00
804.0310, 25053.00
805.1700, 25182.00
806.3090, 25245.00
807.4470, 25098.00
808.5860, 25354.00
809.7240, 25187.00
810.8620, 25165.00
812.0000, 25170.00
813.1380, 25294.00
814.2750, 25245.00
815.4130, 25267.46
816.5500, 25280.00
817.6870, 25231.00
818.8240, 25361.00
819.9610, 25340.00
821.0980, 25383.00
822.2340, 25373.00
823.3700, 25327.00
824.5070, 25226.00
825.6430, 25388.00
826.7780, 25136.00
827.9140, 25375.00
829.0500, 25439.00
830.1850, 25349.00
831.3200, 25377.00
832.4550, 25399.00
833.5900, 25369.00
834.7250, 25413.72
835.8590, 25575.00
836.9930, 25447.00
838.1280, 25545.00
839.2620, 25526.00
840.3950, 25433.00
841.5290, 25654.00
842.6630, 25337.00
843.7960, 25649.00
844.9290, 25661.00
846.0620, 25439.00
847.1950, 25782.00
848.3280, 25649.00
849.4600, 25784.00
850.5930, 25772.00
851.7250, 25795.00
852.8570, 25809.00
853.9890, 25721.00
855.1210, 25809.00
856.2520, 25952.00
857.3840, 25788.00
858.5150, 25925.00
859.6460, 25842.00
860.7770, 25911.00
861.9080, 25964.00
863.0380, 25822.00
864.1690, 25898.05
865.2990, 26137.00
866.4290, 25926.00
867.5590, 26112.00
868.6890, 26195.00
869.8190, 25864.00
870.9480, 26019.00
872.0770, 25930.00
873.2070, 26121.00
874.3360, 26242.00
875.4640, 26100.00
876.5930, 26150.00
877.7220, 26161.00
878.8500, 26088.00
879.9780, 26019.00
881.1060, 26052.00
882.2340, 26330.00
883.3620, 26319.00
884.4890, 26427.00
885.6170, 26445.00
886.7440, 26632.00
887.8710, 26432.00
888.9980, 26305.00
890.1240, 26345.00
891.2510, 26643.00
892.3770, 26449.00
893.5040, 26589.00
894.6300, 26407.00
895.7560, 26505.00
896.8810, 26627.00
898.0070, 26529.00
899.1330, 26583.00
900.2580, 26541.00
901.3830, 26599.00
902.5080, 26652.39
903.6330, 26674.44
904.7570, 26764.00
905.8820, 26782.00
907.0060, 26770.48
908.1300, 26839.00
909.2540, 26784.00
910.3780, 26827.00
911.5020, 26801.00
912.6250, 26832.00
913.7490, 26828.00
914.8720, 27008.00
915.9950, 26851.00
917.1180, 26874.00
918.2400, 27102.00
919.3630, 27053.00
920.4850, 27117.00
921.6080, 27009.00
922.7300, 26994.00
923.8520, 27242.00
924.9730, 27219.00
926.0950, 27116.00
927.2160, 27394.00
928.3380, 27348.00
929.4590, 27447.00
930.5800, 27371.00
931.7010, 27495.00
932.8210, 27467.00
933.9420, 27386.00
935.0620, 27401.00
936.1820, 27457.00
937.3020, 27528.00
938.4220, 27460.00
939.5420, 27494.00
940.6610, 27451.00
941.7810, 27507.55
942.9000, 27598.00
944.0190, 27672.00
945.1380, 27650.00
946.2570, 27799.00
947.3750, 27695.00
948.4940, 27821.00
949.6120, 27709.00
950.7300, 27879.00
951.8480, 27980.00
952.9660, 27746.00
954.0830, 28006.00
955.2010, 28145.00
956.3180, 28003.00
957.4350, 28115.00
958.5520, 28170.00
959.6690, 28255.00
960.7860, 28350.00
961.9020, 28188.00
963.0190, 28362.00
964.1350, 28287.00
965.2510, 28383.00
966.3670, 28636.00
967.4830, 28342.00
968.5980, 28689.00
969.7140, 28712.00
970.8290, 28880.00
971.9440, 28801.00
973.0590, 28795.00
974.1740, 28864.65
975.2880, 28934.00
976.4030, 28855.00
977.5170, 29013.00
978.6310, 28856.00
979.7450, 29152.00
980.8590, 29005.00
981.9730, 29017.00
983.0860, 29118.00
984.2000, 29241.00
985.3130, 29125.00
986.4260, 29444.00
987.5390, 29485.00
988.6520, 29546.00
989.7640, 29370.00
990.8770, 29428.00
991.9890, 29318.00
993.1010, 29422.00
994.2130, 29474.17
995.3250, 29651.00
996.4370, 29705.00
997.5480, 29789.00
998.6590, 29987.00
999.7710, 29889.00
1000.882, 30042.00
1001.993, 30056.00
1003.103, 30025.00
1004.214, 30074.00
1005.324, 29919.00
1006.434, 30068.00
1007.545, 30258.00
1008.655, 30168.00
1009.764, 30291.00
1010.874, 30464.00
1011.983, 30344.00
1013.093, 30605.00
1014.202, 30380.00
1015.311, 30585.00
1016.420, 30503.00
1017.528, 30545.00
1018.637, 30843.00
1019.745, 30657.00
1020.854, 30752.00
1021.962, 30818.00
1023.070, 30747.00
1024.177, 30727.00
1025.285, 30763.00
1026.392, 30913.00
1027.500, 30766.00
1028.607, 31069.00
1029.714, 31255.00
1030.821, 30953.00
1031.927, 31359.00
1033.034, 31444.00
1034.140, 31270.00
1035.246, 31369.00
1036.352, 31360.00
1037.458, 31355.00
1038.564, 31184.00
1039.670, 31540.00
1040.775, 31356.00
1041.880, 31311.00
1042.986, 31711.00
1044.090, 31691.00
1045.195, 31427.00
1046.300, 31767.00
1047.404, 31747.00
1048.509, 31438.00
1049.613, 31716.00
1050.717, 31860.00
1051.821, 31833.00
1052.925, 31873.00
1054.028, 31901.00
1055.132, 31790.00
1056.235, 31774.00
1057.338, 32146.00
1058.441, 31785.00
1059.544, 32247.00
1060.647, 32299.00
1061.749, 32034.00
1062.851, 32377.00
1063.954, 32360.00
1065.056, 32499.00
1066.158, 32341.00
1067.259, 32500.00
1068.361, 32208.00
1069.462, 32721.00
1070.564, 32399.00
1071.665, 32474.00
1072.766, 32473.00
1073.867, 32822.00
1074.967, 32884.00
1076.068, 33040.00
1077.168, 33104.07
1078.268, 33347.03
1079.368, 33529.90
1080.468, 33655.90
1081.568, 33554.73
1082.668, 33746.91
1083.767, 33821.43
1084.866, 33891.13
1085.966, 34124.60
1087.065, 34056.38
1088.163, 34287.06
1089.262, 34398.48
1090.361, 34564.53
1091.459, 34612.19
1092.557, 34696.39
1093.655, 34829.00
1094.753, 34616.00
1095.851, 34785.00
1096.949, 34886.00
1098.046, 34946.00
1099.143, 35163.00
1100.241, 35161.00
1101.338, 35282.00
1102.434, 35280.00
1103.531, 35364.00
1104.628, 35283.00
1105.724, 35781.00
1106.820, 35267.00
1107.916, 35817.00
1109.012, 35818.00
1110.108, 35593.00
1111.204, 35853.00
1112.299, 36186.00
1113.395, 35736.00
1114.490, 36283.00
1115.585, 36370.00
1116.680, 36123.00
1117.775, 36478.00
1118.869, 36611.00
1119.964, 36440.00
1121.058, 36765.00
1122.152, 36918.00
1123.246, 36832.00
1124.340, 37063.00
1125.434, 36850.00
1126.527, 36926.00
1127.620, 36960.00
1128.714, 36944.00
1129.807, 36932.07
1130.900, 37087.00
1131.992, 36945.00
1133.085, 36975.00
1134.178, 37231.00
1135.270, 37050.00
1136.362, 37336.00
1137.454, 37283.00
1138.546, 37272.00
1139.638, 37424.00
1140.729, 37469.00
1141.821, 37815.00
1142.912, 37435.00
1144.003, 37668.00
1145.094, 37227.00
1146.185, 37491.00
1147.276, 37186.00
1148.366, 37505.00
1149.456, 37301.00
1150.547, 37083.00
1151.637, 37419.00
1152.727, 37084.00
1153.816, 37279.00
1154.906, 37340.00
1155.995, 37296.00
1157.085, 37372.00
1158.174, 37194.00
1159.263, 36975.00
1160.352, 36894.00
1161.441, 36850.96
1162.529, 37168.00
1163.618, 36979.00
1164.706, 36878.00
1165.794, 37135.00
1166.882, 37020.00
1167.970, 36903.00
1169.058, 36757.00
1170.145, 36727.00
1171.232, 36775.00
1172.320, 36518.00
1173.407, 36338.00
1174.494, 36696.00
1175.580, 36426.00
1176.667, 36587.00
1177.754, 36624.00
1178.840, 36438.00
1179.926, 36379.00
1181.012, 36235.00
1182.098, 36042.00
1183.184, 36134.00
1184.269, 36120.00
1185.355, 35925.00
1186.440, 35773.00
1187.525, 35998.00
1188.610, 35970.00
1189.695, 35768.00
1190.780, 35840.00
1191.864, 35717.00
1192.949, 35597.00
1194.033, 35533.00
1195.117, 35296.00
1196.201, 35569.00
1197.285, 35412.00
1198.369, 35176.00
1199.452, 35282.00
1200.536, 35146.00
1201.619, 35239.00
1202.702, 35284.00
1203.785, 35098.00
1204.868, 35053.00
1205.950, 35052.00
1207.033, 34956.00
1208.115, 35064.00
1209.197, 34971.00
1210.279, 34921.00
1211.361, 35046.00
1212.443, 35166.00
1213.525, 34952.00
1214.606, 35271.00
1215.687, 34873.00
1216.769, 35014.00
1217.850, 35123.00
1218.930, 34926.00
1220.011, 34990.00
1221.092, 35081.00
1222.172, 35051.00
1223.252, 35108.00
1224.333, 35123.00
1225.413, 34824.00
1226.492, 34967.00
1227.572, 34893.00
1228.652, 35131.00
1229.731, 35227.00
1230.810, 35170.00
1231.889, 35281.00
1232.968, 35099.00
1234.047, 35120.00
1235.126, 35273.00
1236.204, 35428.00
1237.283, 35104.00
1238.361, 35174.00
1239.439, 35192.00
1240.517, 35238.00
1241.595, 35354.00
1242.673, 35482.00
1243.750, 35239.00
1244.827, 35178.00
1245.905, 35372.00
1246.982, 35333.00
1248.059, 35391.00
1249.135, 35620.00
1250.212, 35130.00
1251.288, 35610.00
1252.365, 35444.00
1253.441, 35619.00
1254.517, 35568.00
1255.593, 35838.00
1256.669, 35779.00
1257.744, 35804.00
1258.820, 35718.00
1259.895, 35510.00
1260.970, 36044.00
1262.045, 35743.00
1263.120, 35971.00
1264.195, 35875.00
1265.270, 36186.00
1266.344, 35996.00
1267.418, 36064.00
1268.492, 35812.00
1269.566, 36024.00
1270.640, 36129.00
1271.714, 36145.00
1272.788, 35971.00
1273.861, 36038.00
1274.934, 36126.00
1276.007, 36316.00
1277.080, 36187.00
1278.153, 36209.00
1279.226, 36508.00
1280.299, 36221.00
1281.371, 36659.00
1282.443, 36253.00
1283.515, 36214.00
1284.587, 36656.00
1285.659, 36506.00
1286.731, 36609.00
1287.802, 36556.00
1288.874, 36632.00
1289.945, 36989.00
1291.016, 36869.00
1292.087, 36991.00
1293.158, 36918.00
1294.229, 36955.00
1295.299, 36953.00
1296.370, 36872.00
1297.440, 37094.00
1298.510, 37074.00
1299.580, 37280.00
1300.650, 37264.00
1301.720, 37163.00
1302.789, 37554.00
1303.859, 37024.00
1304.928, 37431.00
1305.997, 37291.00
1307.066, 37380.00
1308.135, 36990.00
1309.203, 37461.00
1310.272, 37335.00
1311.340, 37546.00
1312.409, 37458.00
1313.477, 37624.00
1314.545, 37728.00
1315.612, 37603.00
1316.680, 37899.00
1317.748, 37803.00
1318.815, 37711.00
1319.882, 37599.00
1320.949, 37851.00
1322.016, 37926.00
1323.083, 37794.00
1324.150, 37910.00
1325.216, 37793.00
1326.283, 37903.00
1327.349, 37719.00
1328.415, 37740.00
1329.481, 38023.00
1330.547, 37816.00
1331.613, 38049.00
1332.678, 38306.00
1333.744, 38166.00
1334.809, 38219.00
1335.874, 38311.00
1336.939, 38357.00
1338.004, 38266.00
1339.068, 38311.00
1340.133, 38354.28
1341.197, 38470.00
1342.262, 38478.00
1343.326, 38607.00
1344.390, 38661.00
1345.453, 38528.00
1346.517, 38697.00
1347.581, 38622.00
1348.644, 38412.00
1349.707, 38506.00
1350.770, 38515.00
1351.833, 38742.00
1352.896, 38913.00
1353.959, 38843.00
1355.022, 38843.00
1356.084, 38805.00
1357.146, 38654.00
1358.208, 38954.00
1359.270, 38912.00
1360.332, 38915.00
1361.394, 39252.00
1362.455, 38934.00
1363.517, 38956.00
1364.578, 39097.00
1365.639, 39221.00
1366.700, 39185.00
1367.761, 39390.00
1368.822, 39386.00
1369.883, 39315.00
1370.943, 39358.00
1372.003, 39371.00
1373.063, 39460.00
1374.123, 39223.00
1375.183, 39301.00
1376.243, 39210.00
1377.303, 39305.00
1378.362, 39544.00
1379.421, 39368.00
1380.481, 39534.00
1381.540, 39450.00
1382.598, 39492.00
1383.657, 39424.00
1384.716, 39389.00
