##NAMES=Heulandite-Ca
##RRUFFID=R060465
##IDEAL CHEMISTRY=(Ca,Na,K)_5_(Si_27_Al_9_)O_72_&#183;26H_2_O
##LOCALITY=Garrawilla, near Gunnadah, New South Wales, Australia
##OWNER=RRUFF
##SOURCE=Michael Scott
##DESCRIPTION=Orange fan of platy crystals
##STATUS=The identification of this mineral has been confirmed by X-ray diffraction and chemical analysis
##URL=rruff.info/R060465
##MEASURED CHEMISTRY=(Ca_0.66_Na_0.24_K_0.10_)_5_(Si_0.77_Al_0.23_)_36_O_72_Â·24H_2_O
##PIN_ID=M01120
##ORIENTATION=Laser parallel to (1 0 1). Fiducial mark perpendicular to laser is parallel to b [0 1 0]
214.5470, 15679.00
215.7700, 15487.00
216.9930, 15443.00
218.2150, 15370.00
219.4380, 15548.00
220.6600, 15547.00
221.8820, 15485.00
223.1040, 15318.00
224.3260, 15374.00
225.5470, 15472.00
226.7680, 15641.00
227.9900, 15455.00
229.2110, 15497.00
230.4310, 15426.00
231.6520, 15440.00
232.8720, 15580.00
234.0930, 15558.00
235.3130, 15579.00
236.5330, 15793.00
237.7530, 15920.07
238.9720, 16269.00
240.1920, 16425.00
241.4110, 16655.00
242.6300, 17020.00
243.8490, 17181.00
245.0680, 17323.00
246.2860, 17596.00
247.5040, 17889.00
248.7230, 18225.00
249.9410, 18126.00
251.1590, 18688.00
252.3760, 18326.00
253.5940, 18567.00
254.8110, 18518.00
256.0280, 18285.00
257.2450, 18386.00
258.4620, 18526.00
259.6790, 18341.86
260.8950, 18116.82
262.1120, 18004.00
263.3280, 17529.00
264.5440, 17009.00
265.7600, 17064.00
266.9750, 16871.00
268.1910, 16479.00
269.4060, 16372.00
270.6210, 16266.00
271.8360, 16158.00
273.0510, 16012.00
274.2650, 15937.45
275.4800, 15848.00
276.6940, 15794.00
277.9080, 15682.00
279.1220, 15665.00
280.3360, 15584.00
281.5490, 15521.00
282.7630, 15497.18
283.9760, 15509.00
285.1890, 15434.00
286.4020, 15415.00
287.6150, 15383.00
288.8270, 15510.00
290.0400, 15387.00
291.2520, 15513.00
292.4640, 15518.00
293.6760, 15427.00
294.8870, 15498.00
296.0990, 15603.00
297.3100, 15433.00
298.5210, 15556.00
299.7320, 15607.00
300.9430, 15617.00
302.1540, 15599.00
303.3640, 15676.00
304.5750, 15490.00
305.7850, 15581.00
306.9950, 15601.00
308.2050, 15427.00
309.4140, 15631.00
310.6240, 15585.00
311.8330, 15518.00
313.0420, 15416.00
314.2510, 15536.00
315.4600, 15581.00
316.6680, 15646.00
317.8770, 15532.00
319.0850, 15618.00
320.2930, 15510.00
321.5010, 15653.00
322.7090, 15628.00
323.9160, 15736.00
325.1240, 15777.00
326.3310, 15740.00
327.5380, 15882.00
328.7450, 15999.00
329.9520, 15939.00
331.1580, 15972.00
332.3650, 16079.00
333.5710, 16111.00
334.7770, 16362.00
335.9830, 16252.00
337.1880, 16255.00
338.3940, 16446.00
339.5990, 16426.00
340.8040, 16505.00
342.0090, 16499.00
343.2140, 16707.00
344.4190, 16930.00
345.6230, 16944.00
346.8280, 17207.00
348.0320, 17314.00
349.2360, 17669.00
350.4400, 17728.00
351.6430, 17904.00
352.8470, 18264.00
354.0500, 18518.00
355.2530, 18794.00
356.4560, 19195.00
357.6590, 19450.00
358.8620, 19828.00
360.0640, 20216.00
361.2660, 20569.00
362.4680, 20882.00
363.6700, 21342.00
364.8720, 21949.00
366.0740, 22305.00
367.2750, 22748.00
368.4760, 23281.00
369.6770, 23714.00
370.8780, 24337.00
372.0790, 24647.00
373.2800, 25275.00
374.4800, 25948.00
375.6800, 26734.00
376.8800, 27451.00
378.0800, 27984.00
379.2800, 28800.00
380.4790, 29639.00
381.6790, 30391.00
382.8780, 31413.00
384.0770, 32455.00
385.2760, 34041.00
386.4750, 34756.00
387.6730, 35587.00
388.8720, 37155.00
390.0700, 38849.00
391.2680, 40119.00
392.4660, 41570.00
393.6630, 43487.00
394.8610, 44900.00
396.0580, 46437.47
397.2550, 47893.80
398.4520, 49249.00
399.6490, 50496.00
400.8460, 51469.64
402.0420, 52779.00
403.2390, 53050.00
404.4350, 53604.00
405.6310, 54106.00
406.8270, 53750.00
408.0220, 52921.00
409.2180, 52272.00
410.4130, 50921.00
411.6080, 49923.00
412.8030, 48555.00
413.9980, 46911.00
415.1920, 44893.00
416.3870, 43543.00
417.5810, 41833.00
418.7750, 39934.00
419.9690, 38385.00
421.1630, 36641.00
422.3570, 35035.00
423.5500, 33547.00
424.7430, 32000.00
425.9360, 30446.00
427.1290, 29180.00
428.3220, 27959.00
429.5150, 26541.00
430.7070, 25464.89
431.8990, 24330.00
433.0910, 23439.00
434.2830, 22454.00
435.4750, 21892.00
436.6670, 21214.00
437.8580, 20567.00
439.0490, 19962.00
440.2400, 19555.00
441.4310, 19342.00
442.6220, 18917.00
443.8130, 18686.00
445.0030, 18403.00
446.1930, 18441.00
447.3830, 18378.00
448.5730, 18403.00
449.7630, 18514.00
450.9520, 18703.06
452.1420, 19019.00
453.3310, 19340.00
454.5200, 19720.00
455.7090, 20251.00
456.8980, 20793.00
458.0860, 21356.00
459.2740, 22128.00
460.4630, 22746.00
461.6510, 23692.00
462.8380, 24187.00
464.0260, 25343.00
465.2140, 26443.00
466.4010, 27052.00
467.5880, 27454.00
468.7750, 28152.00
469.9620, 28832.00
471.1490, 29591.00
472.3350, 30075.00
473.5220, 31059.00
474.7080, 32191.00
475.8940, 32999.00
477.0800, 34506.00
478.2650, 35813.00
479.4510, 36921.00
480.6360, 38706.00
481.8210, 39593.00
483.0060, 40794.00
484.1910, 41237.00
485.3760, 41505.00
486.5600, 41065.00
487.7440, 40098.00
488.9290, 38696.00
490.1130, 36971.00
491.2960, 34779.00
492.4800, 32475.00
493.6630, 30086.00
494.8470, 27837.00
496.0300, 25936.00
497.2130, 24064.05
498.3960, 22353.00
499.5780, 20971.00
500.7610, 19792.00
501.9430, 18723.00
503.1250, 17789.00
504.3070, 17167.00
505.4890, 16445.00
506.6710, 15810.00
507.8520, 15348.00
509.0330, 14923.97
510.2140, 14580.17
511.3950, 14285.45
512.5760, 14119.00
513.7570, 13897.00
514.9370, 13783.00
516.1170, 13778.00
517.2980, 13517.00
518.4780, 13241.00
519.6570, 13260.00
520.8370, 13082.00
522.0160, 12875.00
523.1960, 12833.00
524.3750, 12805.00
525.5540, 12747.00
526.7320, 12669.00
527.9110, 12686.00
529.0890, 12642.00
530.2680, 12486.00
531.4460, 12351.00
532.6240, 12440.00
533.8010, 12241.00
534.9790, 12508.00
536.1560, 12346.64
537.3340, 12243.00
538.5110, 12232.00
539.6880, 12111.00
540.8650, 12148.00
542.0410, 12160.00
543.2180, 12218.00
544.3940, 12177.93
545.5700, 12143.69
546.7460, 12106.00
547.9220, 12002.00
549.0970, 11969.00
550.2730, 11884.00
551.4480, 11969.00
552.6230, 11903.00
553.7980, 11835.00
554.9730, 11847.00
556.1470, 11972.00
557.3210, 11810.00
558.4960, 11995.00
559.6700, 11819.00
560.8440, 11849.00
562.0170, 11764.00
563.1910, 11768.20
564.3640, 11949.00
565.5380, 11814.00
566.7110, 11899.00
567.8840, 11909.00
569.0560, 11930.00
570.2290, 11882.00
571.4010, 12108.00
572.5740, 12175.00
573.7460, 12132.00
574.9180, 12274.00
576.0890, 12231.00
577.2610, 12292.00
578.4320, 12299.00
579.6040, 12410.00
580.7750, 12456.00
581.9450, 12730.00
583.1160, 12760.00
584.2870, 12980.00
585.4570, 13104.00
586.6270, 13129.00
587.7980, 13168.00
588.9670, 13551.00
590.1370, 13615.00
591.3070, 13887.00
592.4760, 14184.00
593.6450, 14335.00
594.8140, 14551.00
595.9830, 14933.00
597.1520, 15221.00
598.3210, 15787.00
599.4890, 16193.00
600.6570, 16635.99
601.8250, 17112.00
602.9930, 17525.00
604.1610, 17994.00
605.3290, 18369.00
606.4960, 18969.00
607.6630, 19188.00
608.8300, 19671.00
609.9970, 19843.00
611.1640, 19955.00
612.3300, 20114.00
613.4970, 20054.00
614.6630, 19552.00
615.8290, 19443.00
616.9950, 19136.00
618.1610, 18891.00
619.3260, 18314.00
620.4920, 17856.00
621.6570, 17573.00
622.8220, 16943.00
623.9870, 16489.00
625.1520, 16168.00
626.3160, 15567.00
627.4810, 15297.00
628.6450, 14895.00
629.8090, 14779.00
630.9730, 14520.00
632.1370, 14107.00
633.3000, 13863.00
634.4640, 13656.00
635.6270, 13461.72
636.7900, 13406.00
637.9530, 13189.00
639.1160, 13156.00
640.2780, 12948.00
641.4410, 12902.00
642.6030, 12750.00
643.7650, 12778.00
644.9270, 12643.00
646.0890, 12673.00
647.2500, 12573.00
648.4120, 12519.00
649.5730, 12313.00
650.7340, 12357.00
651.8950, 12163.90
653.0560, 12273.58
654.2160, 12323.20
655.3770, 12315.93
656.5370, 12081.51
657.6970, 12140.44
658.8570, 12081.81
660.0170, 12018.35
661.1760, 12215.00
662.3360, 12138.00
663.4950, 12211.00
664.6540, 12124.00
665.8130, 12034.00
666.9720, 12124.00
668.1310, 12069.00
669.2890, 12103.00
670.4470, 11989.00
671.6050, 12093.00
672.7630, 12150.00
673.9210, 12009.00
675.0790, 12003.00
676.2360, 12001.00
677.3930, 11982.00
678.5510, 11969.09
679.7080, 11955.88
680.8640, 11928.00
682.0210, 11910.00
683.1770, 11884.00
684.3340, 11830.00
685.4900, 11852.00
686.6460, 11826.00
687.8020, 11827.00
688.9570, 11932.00
690.1130, 11763.00
691.2680, 11886.00
692.4230, 11867.00
693.5780, 11844.00
694.7330, 11802.00
695.8880, 11759.00
697.0420, 11724.00
698.1960, 11820.00
699.3510, 11942.00
700.5040, 11852.00
701.6580, 11992.00
702.8120, 11727.00
703.9650, 11803.00
705.1190, 11811.00
706.2720, 11766.00
707.4250, 11654.00
708.5780, 11711.39
709.7300, 11584.00
710.8830, 11729.00
712.0350, 11709.00
713.1870, 11632.00
714.3390, 11764.00
715.4910, 11684.00
716.6430, 11883.00
717.7940, 11636.00
718.9460, 11805.00
720.0970, 11663.00
721.2480, 11554.00
722.3990, 11573.00
723.5500, 11595.00
724.7000, 11521.00
725.8500, 11520.00
727.0010, 11603.00
728.1510, 11655.00
729.3010, 11676.00
730.4500, 11682.00
731.6000, 11698.00
732.7490, 11666.91
733.8980, 11604.00
735.0470, 11587.00
736.1960, 11565.00
737.3450, 11514.00
738.4940, 11643.00
739.6420, 11545.00
740.7900, 11560.00
741.9380, 11555.00
743.0860, 11428.00
744.2340, 11412.00
745.3810, 11530.00
746.5290, 11529.67
747.6760, 11677.53
748.8230, 11765.31
749.9700, 11796.22
751.1170, 11599.96
752.2630, 11697.03
753.4100, 11676.55
754.5560, 11651.25
755.7020, 11789.61
756.8480, 11626.38
757.9940, 11762.15
759.1390, 11750.22
760.2850, 11690.00
761.4300, 11713.00
762.5750, 11746.00
763.7200, 11721.00
764.8650, 11728.00
766.0100, 11757.13
767.1540, 11629.00
768.2980, 11875.00
769.4420, 11924.00
770.5860, 12115.00
771.7300, 11884.00
772.8740, 11925.00
774.0170, 12012.00
775.1610, 11900.00
776.3040, 11898.00
777.4470, 11952.00
778.5900, 12003.00
779.7320, 12031.00
780.8750, 11989.00
782.0170, 12164.00
783.1590, 12062.00
784.3010, 12218.00
785.4430, 12176.00
786.5850, 12035.00
787.7260, 12154.00
788.8680, 12080.00
790.0090, 12229.00
791.1500, 12074.00
792.2910, 12190.00
793.4310, 12182.00
794.5720, 12280.00
795.7120, 12100.00
796.8520, 12047.00
797.9920, 12147.00
799.1320, 12147.00
800.2720, 12160.86
801.4120, 12313.00
802.5510, 12231.00
803.6900, 12003.00
804.8290, 12095.00
805.9680, 11986.00
807.1070, 11901.00
808.2450, 11881.00
809.3840, 11978.00
810.5220, 12037.00
811.6600, 12103.00
812.7980, 11936.00
813.9360, 12037.00
815.0730, 12007.00
816.2110, 11968.00
817.3480, 12018.00
818.4850, 12025.00
819.6220, 12080.00
820.7590, 12141.00
821.8960, 12106.00
823.0320, 12138.00
824.1680, 12124.53
825.3040, 12099.11
826.4400, 12022.00
827.5760, 12027.00
828.7120, 11835.00
829.8470, 11747.00
830.9830, 11766.00
832.1180, 11738.00
833.2530, 11751.00
834.3880, 11669.00
835.5220, 11672.91
836.6570, 11655.04
837.7910, 11640.00
838.9250, 11654.00
840.0590, 11650.00
841.1930, 11689.00
842.3270, 11554.00
843.4600, 11805.00
844.5940, 11564.00
845.7270, 11682.00
846.8600, 11602.00
847.9930, 11425.00
849.1250, 11781.00
850.2580, 11573.00
851.3900, 11738.00
852.5230, 11709.92
853.6550, 11972.00
854.7870, 11622.00
855.9180, 11715.00
857.0500, 11732.00
858.1810, 11659.00
859.3130, 11663.00
860.4440, 11649.00
861.5750, 11663.00
862.7050, 11698.00
863.8360, 11697.50
864.9660, 11637.00
866.0970, 11745.00
867.2270, 11710.00
868.3570, 11768.00
869.4870, 11707.00
870.6160, 11685.00
871.7460, 11641.00
872.8750, 11642.00
874.0040, 11779.00
875.1330, 11698.00
876.2620, 11718.00
877.3910, 11814.00
878.5190, 11774.00
879.6470, 11782.00
880.7760, 11750.00
881.9040, 11623.00
883.0310, 11743.00
884.1590, 11702.00
885.2870, 11830.00
886.4140, 11770.00
887.5410, 11718.00
888.6680, 11806.00
889.7950, 11751.00
890.9220, 11810.00
892.0480, 11919.00
893.1750, 11725.00
894.3010, 11785.00
895.4270, 11792.00
896.5530, 11812.00
897.6790, 11854.91
898.8040, 11818.00
899.9300, 11893.00
901.0550, 11935.00
902.1800, 11888.00
903.3050, 11930.00
904.4300, 11989.00
905.5540, 11791.00
906.6790, 11933.00
907.8030, 12015.00
908.9270, 12157.00
910.0510, 11988.00
911.1750, 12134.00
912.2990, 12006.00
913.4220, 12062.00
914.5450, 12106.00
915.6690, 12064.02
916.7920, 12138.00
917.9140, 12068.00
919.0370, 12216.00
920.1600, 12228.00
921.2820, 12091.00
922.4040, 12151.00
923.5260, 12070.00
924.6480, 12155.00
925.7700, 12247.00
926.8910, 12171.00
928.0130, 12167.00
929.1340, 12214.58
930.2550, 12370.00
931.3760, 12288.00
932.4970, 12371.00
933.6170, 12424.00
934.7380, 12377.00
935.8580, 12439.00
936.9780, 12481.00
938.0980, 12434.00
939.2180, 12398.00
940.3370, 12402.00
941.4570, 12441.00
942.5760, 12483.00
943.6950, 12513.00
944.8140, 12553.00
945.9330, 12528.00
947.0520, 12574.74
948.1700, 12587.00
949.2890, 12631.00
950.4070, 12581.00
951.5250, 12608.00
952.6430, 12630.00
953.7600, 12721.00
954.8780, 12793.00
955.9950, 12755.00
957.1120, 12773.00
958.2290, 12760.00
959.3460, 12803.65
960.4630, 12895.00
961.5800, 12893.00
962.6960, 12943.00
963.8120, 12947.00
964.9280, 12906.96
966.0440, 12974.60
967.1600, 12822.00
968.2760, 13025.00
969.3910, 13041.00
970.5060, 12983.00
971.6210, 13112.00
972.7360, 13213.00
973.8510, 13286.00
974.9660, 13343.00
976.0800, 13326.87
977.1950, 13362.94
978.3090, 13349.81
979.4230, 13376.00
980.5370, 13329.00
981.6500, 13355.00
982.7640, 13380.00
983.8770, 13406.00
984.9900, 13527.00
986.1030, 13504.00
987.2160, 13576.00
988.3290, 13517.00
989.4420, 13441.00
990.5540, 13706.00
991.6660, 13576.00
992.7780, 13513.00
993.8900, 13691.00
995.0020, 13750.00
996.1140, 13775.00
997.2250, 13850.00
998.3360, 13931.00
999.4470, 13988.00
1000.558, 13983.00
1001.669, 13868.00
1002.780, 13962.00
1003.890, 13958.00
1005.001, 14080.00
1006.111, 14079.00
1007.221, 14135.00
1008.331, 14109.00
1009.440, 14052.00
1010.550, 14182.00
1011.659, 14119.00
1012.768, 14171.00
1013.877, 14264.00
1014.986, 14268.00
1016.095, 14317.00
1017.204, 14487.00
1018.312, 14346.00
1019.420, 14535.00
1020.528, 14523.00
1021.636, 14450.00
1022.744, 14418.00
1023.852, 14570.00
1024.959, 14545.00
1026.066, 14426.00
1027.173, 14736.00
1028.280, 14574.00
1029.387, 14591.00
1030.494, 14804.00
1031.600, 14648.00
1032.707, 14590.00
1033.813, 14746.00
1034.919, 14743.00
1036.025, 14844.00
1037.130, 14863.30
1038.236, 14861.96
1039.341, 14917.00
1040.446, 14839.00
1041.552, 14941.00
1042.656, 14932.00
1043.761, 15011.00
1044.866, 15067.00
1045.970, 14932.00
1047.074, 14981.00
1048.179, 14941.00
1049.282, 15115.00
1050.386, 14946.00
1051.490, 15171.00
1052.593, 15122.00
1053.697, 15259.00
1054.800, 15141.00
1055.903, 15142.00
1057.006, 15015.00
1058.108, 15242.00
1059.211, 15083.00
1060.313, 15207.00
1061.415, 15064.00
1062.517, 15332.00
1063.619, 15282.00
1064.721, 15225.00
1065.823, 15312.00
1066.924, 15441.00
1068.025, 15402.00
1069.126, 15435.00
1070.227, 15603.00
1071.328, 15583.00
1072.429, 15603.00
1073.529, 15829.00
1074.629, 15824.00
1075.729, 15870.00
1076.829, 16001.00
1077.929, 16153.00
1079.029, 16242.00
1080.128, 16309.00
1081.228, 16302.00
1082.327, 16455.00
1083.426, 16475.00
1084.525, 16519.00
1085.623, 16698.00
1086.722, 16725.00
1087.820, 16765.00
1088.919, 16598.00
1090.017, 16784.00
1091.115, 16955.00
1092.212, 16882.00
1093.310, 17042.00
1094.407, 17000.00
1095.505, 17029.00
1096.602, 17214.00
1097.699, 17136.00
1098.795, 17137.00
1099.892, 17161.00
1100.989, 17288.00
1102.085, 17386.00
1103.181, 17430.00
1104.277, 17364.00
1105.373, 17400.00
1106.469, 17432.00
1107.564, 17547.00
1108.660, 17422.00
1109.755, 17538.00
1110.850, 17318.00
1111.945, 17612.00
1113.040, 17532.00
1114.134, 17603.00
1115.229, 17464.00
1116.323, 17601.00
1117.417, 17870.00
1118.511, 17889.00
1119.605, 17907.00
1120.698, 17920.00
1121.792, 17910.00
1122.885, 17817.00
1123.978, 17839.00
1125.071, 17642.00
1126.164, 17652.00
1127.257, 17616.00
1128.349, 17445.00
1129.442, 17383.00
1130.534, 17542.00
1131.626, 17467.00
1132.718, 17469.00
1133.810, 17528.00
1134.901, 17368.00
1135.993, 17485.00
1137.084, 17540.00
1138.175, 17666.00
1139.266, 17658.60
1140.357, 17701.00
1141.448, 17631.00
1142.538, 17662.00
1143.628, 17634.00
1144.719, 17650.00
1145.809, 17605.00
1146.898, 17564.00
1147.988, 17519.00
1149.078, 17482.00
1150.167, 17527.00
1151.256, 17592.00
1152.345, 17606.00
1153.434, 17630.00
1154.523, 17598.00
1155.612, 17602.00
1156.700, 17696.00
1157.788, 17871.00
1158.877, 17749.00
1159.964, 17701.00
1161.052, 17527.00
1162.140, 17562.00
1163.227, 17552.00
1164.315, 17499.00
1165.402, 17574.00
1166.489, 17476.00
1167.576, 17579.00
1168.663, 17459.00
1169.749, 17550.00
1170.836, 17344.00
1171.922, 17384.00
1173.008, 17506.00
1174.094, 17437.00
1175.180, 17372.00
1176.265, 17131.00
1177.351, 17385.00
1178.436, 17168.00
1179.521, 17191.00
1180.606, 17067.00
1181.691, 16976.00
1182.776, 16930.00
1183.860, 16876.00
1184.944, 16853.00
1186.029, 16781.00
1187.113, 16741.00
1188.197, 16745.00
1189.280, 16845.00
1190.364, 16513.00
1191.447, 16348.00
1192.531, 16470.00
1193.614, 16255.00
1194.697, 16385.00
1195.779, 16360.00
1196.862, 16285.00
1197.945, 15998.00
1199.027, 16214.00
1200.109, 16029.00
1201.191, 16056.00
1202.273, 15958.00
1203.355, 15676.00
1204.436, 15707.00
1205.518, 15598.00
1206.599, 15683.00
1207.680, 15702.00
1208.761, 15783.00
1209.842, 15724.00
1210.922, 15675.00
1212.003, 15637.93
1213.083, 15592.43
1214.163, 15554.09
1215.243, 15526.00
1216.323, 15491.00
1217.402, 15475.52
1218.482, 15471.90
1219.561, 15482.00
1220.641, 15454.00
1221.720, 15439.00
1222.798, 15452.00
1223.877, 15481.00
1224.956, 15402.00
1226.034, 15406.00
1227.112, 15442.00
1228.191, 15319.00
1229.269, 15540.00
1230.346, 15394.00
1231.424, 15288.00
1232.501, 15407.00
1233.579, 15415.00
1234.656, 15380.00
1235.733, 15304.00
1236.810, 15385.00
1237.886, 15386.00
1238.963, 15599.00
1240.039, 15424.00
1241.116, 15545.00
1242.192, 15521.00
1243.268, 15568.00
1244.343, 15406.00
1245.419, 15344.00
1246.494, 15479.00
1247.570, 15610.00
1248.645, 15585.00
1249.720, 15621.00
1250.795, 15501.00
1251.869, 15666.00
1252.944, 15600.00
1254.018, 15582.00
1255.093, 15716.00
1256.167, 15821.00
1257.240, 15645.00
1258.314, 15652.00
1259.388, 15685.00
1260.461, 15746.00
1261.535, 15797.00
1262.608, 15767.00
1263.681, 15870.00
1264.753, 15922.00
1265.826, 15838.00
1266.899, 15771.00
1267.971, 16026.00
1269.043, 15992.00
1270.115, 15953.00
1271.187, 16084.00
1272.259, 16216.00
1273.330, 16072.00
1274.402, 16093.00
1275.473, 16097.00
1276.544, 16365.00
1277.615, 16330.00
1278.686, 16312.00
1279.756, 16253.00
1280.827, 16271.70
1281.897, 16310.00
1282.967, 16338.00
1284.037, 16283.00
1285.107, 16393.00
1286.177, 16516.00
1287.247, 16362.00
1288.316, 16634.00
1289.385, 16604.00
1290.454, 16707.00
1291.523, 16597.00
1292.592, 16771.00
1293.661, 16785.00
1294.729, 16596.00
1295.797, 16664.00
1296.866, 16661.53
1297.934, 16739.71
1299.001, 16803.00
1300.069, 16975.00
1301.137, 17016.16
1302.204, 17180.00
1303.271, 17148.00
1304.338, 17248.00
1305.405, 17283.11
1306.472, 17367.00
1307.539, 17387.00
1308.605, 17382.00
1309.671, 17341.00
1310.737, 17432.00
1311.803, 17566.00
1312.869, 17504.00
1313.935, 17730.00
1315.000, 17523.00
1316.066, 17674.00
1317.131, 17893.00
1318.196, 17711.00
1319.261, 17815.00
1320.326, 17806.00
1321.390, 17993.00
1322.455, 17966.00
1323.519, 18013.00
1324.583, 17802.00
1325.647, 17817.00
1326.711, 17650.00
1327.775, 17758.38
1328.838, 17958.00
1329.902, 17930.00
1330.965, 17995.00
1332.028, 17894.00
1333.091, 17976.00
1334.153, 17923.00
1335.216, 17972.00
1336.279, 17945.54
1337.341, 17943.00
1338.403, 17887.00
1339.465, 17699.00
1340.527, 17661.00
1341.588, 17619.00
1342.650, 17561.32
1343.711, 17697.00
1344.772, 17555.00
1345.834, 17601.00
1346.894, 17639.00
1347.955, 17542.00
1349.016, 17432.00
1350.076, 17389.00
1351.136, 17541.00
1352.197, 17423.00
1353.257, 17360.00
1354.316, 17531.00
1355.376, 17411.00
1356.436, 17419.00
1357.495, 17420.00
1358.554, 17417.00
1359.613, 17370.00
1360.672, 17372.00
1361.731, 17368.00
1362.789, 17243.00
1363.848, 17235.00
1364.906, 17171.01
1365.964, 17193.38
1367.022, 17107.00
1368.080, 17229.00
1369.138, 17303.00
1370.195, 17209.00
1371.253, 17132.00
1372.310, 17270.00
1373.367, 17294.00
1374.424, 17221.00
1375.480, 17153.00
