##NAMES=Heulandite-Ca
##RRUFFID=R060465
##IDEAL CHEMISTRY=(Ca,Na,K)_5_(Si_27_Al_9_)O_72_&#183;26H_2_O
##LOCALITY=Garrawilla, near Gunnadah, New South Wales, Australia
##OWNER=RRUFF
##SOURCE=Michael Scott
##DESCRIPTION=Orange fan of platy crystals
##STATUS=The identification of this mineral has been confirmed by X-ray diffraction and chemical analysis
##URL=rruff.info/R060465
##MEASURED CHEMISTRY=(Ca_0.66_Na_0.24_K_0.10_)_5_(Si_0.77_Al_0.23_)_36_O_72_Â·24H_2_O
##PIN_ID=M01120
##ORIENTATION=Laser parallel to (1 0 1). Fiducial mark perpendicular to laser is parallel to b [0 1 0]
230.4310, 17089.00
231.6520, 16913.00
232.8720, 16890.00
234.0930, 17097.00
235.3130, 16837.00
236.5330, 16843.00
237.7530, 17123.00
238.9720, 17229.00
240.1920, 17092.00
241.4110, 17661.00
242.6300, 17606.00
243.8490, 17864.00
245.0680, 18080.00
246.2860, 18099.00
247.5040, 18161.00
248.7230, 18326.00
249.9410, 18349.58
251.1590, 18439.00
252.3760, 18466.00
253.5940, 18517.00
254.8110, 18518.00
256.0280, 18611.00
257.2450, 18521.00
258.4620, 18556.00
259.6790, 18565.29
260.8950, 18428.25
262.1120, 18466.00
263.3280, 18304.00
264.5440, 17997.00
265.7600, 18196.00
266.9750, 18049.00
268.1910, 17962.00
269.4060, 18009.00
270.6210, 17962.00
271.8360, 18092.00
273.0510, 17996.00
274.2650, 17977.00
275.4800, 17830.00
276.6940, 18100.00
277.9080, 18093.00
279.1220, 18128.00
280.3360, 17975.00
281.5490, 18153.00
282.7630, 18238.00
283.9760, 18098.00
285.1890, 18154.00
286.4020, 17973.00
287.6150, 18208.00
288.8270, 18168.00
290.0400, 18058.00
291.2520, 18147.00
292.4640, 18326.00
293.6760, 18242.00
294.8870, 18285.00
296.0990, 18223.00
297.3100, 18075.00
298.5210, 18082.00
299.7320, 18017.00
300.9430, 17852.00
302.1540, 17960.00
303.3640, 17748.00
304.5750, 17689.00
305.7850, 17782.00
306.9950, 17589.00
308.2050, 17483.00
309.4140, 17589.00
310.6240, 17414.00
311.8330, 17282.00
313.0420, 17555.00
314.2510, 17420.00
315.4600, 17365.00
316.6680, 17542.00
317.8770, 17736.00
319.0850, 17794.00
320.2930, 17987.00
321.5010, 17844.00
322.7090, 18029.00
323.9160, 18103.00
325.1240, 18250.00
326.3310, 18352.00
327.5380, 18452.00
328.7450, 18504.00
329.9520, 18600.59
331.1580, 18635.00
332.3650, 18713.00
333.5710, 18815.00
334.7770, 18781.00
335.9830, 18880.00
337.1880, 18912.00
338.3940, 19015.00
339.5990, 18929.00
340.8040, 19111.00
342.0090, 19158.00
343.2140, 19382.00
344.4190, 19413.00
345.6230, 19650.00
346.8280, 19904.00
348.0320, 20053.00
349.2360, 20274.00
350.4400, 20613.00
351.6430, 20699.00
352.8470, 21105.00
354.0500, 21384.00
355.2530, 21769.00
356.4560, 21965.00
357.6590, 22328.00
358.8620, 23047.00
360.0640, 23069.00
361.2660, 23621.00
362.4680, 23942.00
363.6700, 24665.00
364.8720, 25147.00
366.0740, 25548.00
367.2750, 26161.00
368.4760, 26996.00
369.6770, 27598.00
370.8780, 28099.00
372.0790, 28589.00
373.2800, 29286.00
374.4800, 30029.00
375.6800, 30744.00
376.8800, 31611.00
378.0800, 32340.00
379.2800, 33389.00
380.4790, 34303.00
381.6790, 34988.00
382.8780, 36484.00
384.0770, 37364.00
385.2760, 38130.00
386.4750, 39705.00
387.6730, 41202.00
388.8720, 42559.00
390.0700, 44167.00
391.2680, 45605.00
392.4660, 47321.00
393.6630, 48965.00
394.8610, 50390.00
396.0580, 52217.00
397.2550, 53467.00
398.4520, 54627.00
399.6490, 56257.00
400.8460, 57247.00
402.0420, 57511.00
403.2390, 57935.00
404.4350, 58085.00
405.6310, 57616.00
406.8270, 57331.00
408.0220, 56575.00
409.2180, 55180.00
410.4130, 54172.00
411.6080, 52459.00
412.8030, 51030.00
413.9980, 49241.00
415.1920, 47342.00
416.3870, 45698.00
417.5810, 43831.00
418.7750, 42104.00
419.9690, 40153.00
421.1630, 38457.00
422.3570, 36823.00
423.5500, 35061.00
424.7430, 33625.00
425.9360, 32001.00
427.1290, 30389.00
428.3220, 29332.00
429.5150, 27824.00
430.7070, 26630.00
431.8990, 25726.00
433.0910, 24549.00
434.2830, 23703.00
435.4750, 22962.00
436.6670, 21977.00
437.8580, 21490.00
439.0490, 20913.00
440.2400, 20645.00
441.4310, 20292.00
442.6220, 19977.00
443.8130, 19699.00
445.0030, 19553.00
446.1930, 19383.00
447.3830, 19410.00
448.5730, 19657.00
449.7630, 19991.00
450.9520, 20166.86
452.1420, 20387.00
453.3310, 20886.00
454.5200, 21349.00
455.7090, 22098.00
456.8980, 22632.00
458.0860, 23640.00
459.2740, 24251.00
460.4630, 25358.00
461.6510, 26070.00
462.8380, 26793.00
464.0260, 27674.00
465.2140, 28326.00
466.4010, 28896.00
467.5880, 29798.00
468.7750, 30328.00
469.9620, 30900.00
471.1490, 31464.00
472.3350, 32155.00
473.5220, 33458.00
474.7080, 34344.00
475.8940, 35613.00
477.0800, 36821.00
478.2650, 38052.00
479.4510, 39327.00
480.6360, 40580.00
481.8210, 41657.00
483.0060, 41913.00
484.1910, 41998.00
485.3760, 41707.00
486.5600, 40883.00
487.7440, 39648.00
488.9290, 37770.00
490.1130, 35521.00
491.2960, 33701.00
492.4800, 31255.00
493.6630, 29031.00
494.8470, 27008.00
496.0300, 25045.00
497.2130, 23449.00
498.3960, 21826.00
499.5780, 20582.00
500.7610, 19245.00
501.9430, 18296.00
503.1250, 17663.00
504.3070, 16839.00
505.4890, 16197.73
506.6710, 15737.00
507.8520, 15141.00
509.0330, 14851.00
510.2140, 14689.00
511.3950, 14318.00
512.5760, 13992.00
513.7570, 13923.00
514.9370, 13693.00
516.1170, 13484.00
517.2980, 13402.00
518.4780, 13346.00
519.6570, 13108.00
520.8370, 13037.00
522.0160, 12797.00
523.1960, 12623.00
524.3750, 12723.00
525.5540, 12611.00
526.7320, 12452.00
527.9110, 12231.00
529.0890, 12183.70
530.2680, 12166.00
531.4460, 12055.00
532.6240, 12073.00
533.8010, 12048.00
534.9790, 12097.00
536.1560, 11888.00
537.3340, 12005.00
538.5110, 11822.00
539.6880, 11666.00
540.8650, 11915.00
542.0410, 11754.00
543.2180, 11690.00
544.3940, 11683.00
545.5700, 11715.00
546.7460, 11604.00
547.9220, 11726.00
549.0970, 11620.00
550.2730, 11590.00
551.4480, 11666.00
552.6230, 11541.00
553.7980, 11593.00
554.9730, 11475.00
556.1470, 11412.00
557.3210, 11456.00
558.4960, 11391.00
559.6700, 11640.00
560.8440, 11573.00
562.0170, 11687.00
563.1910, 11660.08
564.3640, 11623.00
565.5380, 11582.00
566.7110, 11622.00
567.8840, 11682.00
569.0560, 11602.00
570.2290, 11618.00
571.4010, 11598.00
572.5740, 11547.00
573.7460, 11629.00
574.9180, 11687.00
576.0890, 11843.00
577.2610, 11915.51
578.4320, 11934.00
579.6040, 12087.00
580.7750, 12030.00
581.9450, 12030.00
583.1160, 12283.00
584.2870, 12259.00
585.4570, 12407.00
586.6270, 12502.00
587.7980, 12703.00
588.9670, 12825.00
590.1370, 13057.00
591.3070, 13120.00
592.4760, 13365.00
593.6450, 13669.00
594.8140, 14037.00
595.9830, 14244.00
597.1520, 14443.00
598.3210, 14791.00
599.4890, 15184.00
600.6570, 15725.00
601.8250, 16025.00
602.9930, 16526.00
604.1610, 16940.00
605.3290, 17260.59
606.4960, 17817.00
607.6630, 17754.00
608.8300, 18253.00
609.9970, 18146.00
611.1640, 18432.00
612.3300, 18299.00
613.4970, 18123.00
614.6630, 18186.00
615.8290, 17937.00
616.9950, 17601.00
618.1610, 17076.00
619.3260, 16729.00
620.4920, 16397.00
621.6570, 15841.00
622.8220, 15580.00
623.9870, 15100.00
625.1520, 14824.00
626.3160, 14383.00
627.4810, 14150.00
628.6450, 13769.00
629.8090, 13583.00
630.9730, 13466.00
632.1370, 13157.00
633.3000, 13005.00
634.4640, 12774.00
635.6270, 12768.00
636.7900, 12422.00
637.9530, 12441.00
639.1160, 12315.00
640.2780, 12307.00
641.4410, 12158.00
642.6030, 11996.00
643.7650, 11905.00
644.9270, 11810.00
646.0890, 11810.00
647.2500, 11652.00
648.4120, 11712.00
649.5730, 11675.00
650.7340, 11645.00
651.8950, 11551.00
653.0560, 11556.00
654.2160, 11461.00
655.3770, 11471.00
656.5370, 11481.00
657.6970, 11437.00
658.8570, 11376.00
660.0170, 11428.00
661.1760, 11205.00
662.3360, 11347.00
663.4950, 11265.00
664.6540, 11291.00
665.8130, 11189.00
666.9720, 11181.00
668.1310, 11218.00
669.2890, 11200.00
670.4470, 11098.00
671.6050, 11305.00
672.7630, 11095.00
673.9210, 11187.00
675.0790, 11189.00
676.2360, 11171.00
677.3930, 11183.00
678.5510, 11129.00
679.7080, 11122.00
680.8640, 11082.00
682.0210, 11030.00
683.1770, 11058.00
684.3340, 11052.00
685.4900, 11050.00
686.6460, 10982.00
687.8020, 11008.00
688.9570, 10975.00
690.1130, 11002.00
691.2680, 10976.00
692.4230, 10935.00
693.5780, 10858.00
694.7330, 10944.00
695.8880, 10937.00
697.0420, 10968.00
698.1960, 10992.00
699.3510, 10899.00
700.5040, 10828.00
701.6580, 10996.00
702.8120, 10813.00
703.9650, 10905.00
705.1190, 10846.00
706.2720, 11015.00
707.4250, 10925.00
708.5780, 10919.00
709.7300, 10857.00
710.8830, 10949.00
712.0350, 10939.00
713.1870, 10922.00
714.3390, 10773.00
715.4910, 10931.00
716.6430, 10777.00
717.7940, 10839.00
718.9460, 10766.00
720.0970, 10755.00
721.2480, 10805.00
722.3990, 10725.00
723.5500, 10797.00
724.7000, 10795.00
725.8500, 10796.00
727.0010, 10728.00
728.1510, 10749.00
729.3010, 10651.00
730.4500, 10528.00
731.6000, 10723.00
732.7490, 10759.00
733.8980, 10513.00
735.0470, 10655.00
736.1960, 10778.00
737.3450, 10663.00
738.4940, 10661.00
739.6420, 10650.00
740.7900, 10677.00
741.9380, 10719.00
743.0860, 10675.00
744.2340, 10693.00
745.3810, 10764.00
746.5290, 10702.00
747.6760, 10813.00
748.8230, 10638.00
749.9700, 10768.00
751.1170, 10833.00
752.2630, 10945.00
753.4100, 10748.00
754.5560, 10799.00
755.7020, 10831.00
756.8480, 11019.00
757.9940, 10911.00
759.1390, 11227.00
760.2850, 11107.00
761.4300, 11283.00
762.5750, 11191.00
763.7200, 11267.00
764.8650, 11148.00
766.0100, 11316.00
767.1540, 11463.00
768.2980, 11304.00
769.4420, 11516.00
770.5860, 11434.00
771.7300, 11437.00
772.8740, 11540.00
774.0170, 11478.00
775.1610, 11652.00
776.3040, 11639.00
777.4470, 11658.00
778.5900, 11624.00
779.7320, 11684.00
780.8750, 11640.00
782.0170, 11561.00
783.1590, 11600.00
784.3010, 11542.00
785.4430, 11495.00
786.5850, 11542.00
787.7260, 11474.22
788.8680, 11373.00
790.0090, 11417.00
791.1500, 11377.00
792.2910, 11362.00
793.4310, 11219.00
794.5720, 11352.00
795.7120, 11021.00
796.8520, 11148.00
797.9920, 11243.00
799.1320, 11087.00
800.2720, 11093.00
801.4120, 11052.00
802.5510, 10975.00
803.6900, 10882.00
804.8290, 10936.00
805.9680, 10981.00
807.1070, 10834.00
808.2450, 10869.00
809.3840, 10887.00
810.5220, 10839.00
811.6600, 10907.00
812.7980, 10827.00
813.9360, 10691.00
815.0730, 10897.00
816.2110, 10852.00
817.3480, 10749.00
818.4850, 10794.00
819.6220, 10834.00
820.7590, 10752.00
821.8960, 10696.00
823.0320, 10798.00
824.1680, 10599.00
825.3040, 10635.00
826.4400, 10452.00
827.5760, 10585.00
828.7120, 10432.00
829.8470, 10504.00
830.9830, 10340.00
832.1180, 10494.00
833.2530, 10357.00
834.3880, 10448.00
835.5220, 10307.49
836.6570, 10440.46
837.7910, 10513.33
838.9250, 10529.35
840.0590, 10318.19
841.1930, 10400.37
842.3270, 10365.00
843.4600, 10324.81
844.5940, 10448.29
845.7270, 10270.17
846.8600, 10391.06
847.9930, 10392.59
849.1250, 10448.74
850.2580, 10386.61
851.3900, 10361.02
852.5230, 10453.75
853.6550, 10454.00
854.7870, 10221.00
855.9180, 10237.98
857.0500, 10380.76
858.1810, 10463.45
859.3130, 10489.28
860.4440, 10287.94
861.5750, 10379.94
862.7050, 10354.37
863.8360, 10323.99
864.9660, 10457.28
866.0970, 10288.97
867.2270, 10419.66
868.3570, 10430.99
869.4870, 10496.95
870.6160, 10444.62
871.7460, 10428.83
872.8750, 10531.35
874.0040, 10568.36
875.1330, 10502.41
876.2620, 10571.84
877.3910, 10384.00
878.5190, 10292.00
879.6470, 10503.00
880.7760, 10396.00
881.9040, 10361.00
883.0310, 10408.00
884.1590, 10533.00
885.2870, 10477.00
886.4140, 10424.00
887.5410, 10521.00
888.6680, 10492.00
889.7950, 10471.00
890.9220, 10405.00
892.0480, 10423.00
893.1750, 10357.00
894.3010, 10628.00
895.4270, 10418.00
896.5530, 10389.00
897.6790, 10614.00
898.8040, 10506.00
899.9300, 10579.00
901.0550, 10548.00
902.1800, 10583.00
903.3050, 10560.00
904.4300, 10582.00
905.5540, 10576.00
906.6790, 10561.00
907.8030, 10623.00
908.9270, 10630.00
910.0510, 10540.00
911.1750, 10657.00
912.2990, 10564.00
913.4220, 10533.00
914.5450, 10621.00
915.6690, 10630.00
916.7920, 10723.00
917.9140, 10718.37
919.0370, 10650.00
920.1600, 10708.00
921.2820, 10713.00
922.4040, 10693.00
923.5260, 10789.00
924.6480, 10814.00
925.7700, 10724.00
926.8910, 10878.00
928.0130, 10790.00
929.1340, 10886.00
930.2550, 10836.00
931.3760, 10890.00
932.4970, 10886.00
933.6170, 10855.00
934.7380, 10864.00
935.8580, 10909.00
936.9780, 10900.08
938.0980, 10907.00
939.2180, 10938.00
940.3370, 11014.00
941.4570, 11053.00
942.5760, 10964.00
943.6950, 10945.00
944.8140, 11019.00
945.9330, 11062.00
947.0520, 11091.00
948.1700, 11116.00
949.2890, 11208.00
950.4070, 11247.00
951.5250, 11108.00
952.6430, 11247.26
953.7600, 11229.46
954.8780, 11327.00
955.9950, 11365.00
957.1120, 11280.00
958.2290, 11451.00
959.3460, 11439.00
960.4630, 11397.00
961.5800, 11488.00
962.6960, 11545.00
963.8120, 11642.00
964.9280, 11646.00
966.0440, 11597.00
967.1600, 11658.00
968.2760, 11700.00
969.3910, 11664.00
970.5060, 11740.00
971.6210, 11854.00
972.7360, 11805.00
973.8510, 11775.00
974.9660, 11723.00
976.0800, 11895.00
977.1950, 12025.00
978.3090, 12093.00
979.4230, 11982.00
980.5370, 11942.00
981.6500, 12065.00
982.7640, 12065.00
983.8770, 12138.00
984.9900, 12336.00
986.1030, 12242.00
987.2160, 12145.00
988.3290, 12232.00
989.4420, 12413.00
990.5540, 12358.00
991.6660, 12566.00
992.7780, 12508.00
993.8900, 12491.00
995.0020, 12651.00
996.1140, 12679.00
997.2250, 12821.00
998.3360, 12778.00
999.4470, 12907.00
1000.558, 12832.00
1001.669, 12803.00
1002.780, 12887.00
1003.890, 12898.00
1005.001, 12954.00
1006.111, 13105.00
1007.221, 13012.00
1008.331, 13192.00
1009.440, 13149.00
1010.550, 13008.00
1011.659, 13290.00
1012.768, 13299.00
1013.877, 13342.00
1014.986, 13251.00
1016.095, 13181.00
1017.204, 13439.00
1018.312, 13484.00
1019.420, 13471.00
1020.528, 13520.00
1021.636, 13559.00
1022.744, 13428.00
1023.852, 13509.00
1024.959, 13542.00
1026.066, 13627.00
1027.173, 13653.00
1028.280, 13540.00
1029.387, 13638.00
1030.494, 13633.00
1031.600, 13609.00
1032.707, 13715.00
1033.813, 13736.00
1034.919, 13838.00
1036.025, 13602.00
1037.130, 13792.00
1038.236, 13620.00
1039.341, 13743.00
1040.446, 13754.00
1041.552, 13730.00
1042.656, 13746.00
1043.761, 13771.87
1044.866, 13863.00
1045.970, 13857.00
1047.074, 13909.00
1048.179, 13984.00
1049.282, 13875.00
1050.386, 13808.00
1051.490, 13884.00
1052.593, 13953.00
1053.697, 14102.00
1054.800, 14029.00
1055.903, 14121.00
1057.006, 14086.00
1058.108, 13990.00
1059.211, 14171.00
1060.313, 14164.00
1061.415, 14161.00
1062.517, 14140.00
1063.619, 14149.00
1064.721, 14135.00
1065.823, 14317.00
1066.924, 14342.00
1068.025, 14355.00
1069.126, 14311.00
1070.227, 14354.00
1071.328, 14500.00
1072.429, 14607.00
1073.529, 14683.00
1074.629, 14771.00
1075.729, 14768.00
1076.829, 15081.00
1077.929, 15089.00
1079.029, 15069.00
1080.128, 15341.00
1081.228, 15409.00
1082.327, 15718.00
1083.426, 15783.00
1084.525, 15963.00
1085.623, 16000.00
1086.722, 16159.00
1087.820, 16208.00
1088.919, 16476.00
1090.017, 16308.00
1091.115, 16431.00
1092.212, 16467.00
1093.310, 16357.00
1094.407, 16342.00
1095.505, 16707.00
1096.602, 17085.00
1097.699, 16803.00
1098.795, 16649.00
1099.892, 16713.00
1100.989, 16758.00
1102.085, 16853.00
1103.181, 16886.00
1104.277, 16923.00
1105.373, 16932.00
1106.469, 17154.00
1107.564, 17086.00
1108.660, 17173.00
1109.755, 17214.00
1110.850, 17200.00
1111.945, 17359.00
1113.040, 17196.00
1114.134, 17487.00
1115.229, 17511.00
1116.323, 17474.00
1117.417, 17793.00
1118.511, 17739.00
1119.605, 17882.00
1120.698, 17993.00
1121.792, 18006.00
1122.885, 18100.00
1123.978, 17949.00
1125.071, 17853.00
1126.164, 17819.00
1127.257, 17960.00
1128.349, 17849.00
1129.442, 17928.00
1130.534, 17880.00
1131.626, 17781.00
1132.718, 17743.00
1133.810, 17749.19
1134.901, 17774.39
1135.993, 17806.00
1137.084, 17859.00
1138.175, 17904.00
1139.266, 17826.00
1140.357, 17962.00
1141.448, 17755.00
1142.538, 17836.00
1143.628, 17785.00
1144.719, 17853.00
1145.809, 17778.00
1146.898, 17903.00
1147.988, 17677.00
1149.078, 17951.00
1150.167, 17958.00
1151.256, 17867.00
1152.345, 17722.00
1153.434, 17759.00
1154.523, 17718.00
1155.612, 17751.00
1156.700, 17649.00
1157.788, 17685.00
1158.877, 17644.00
1159.964, 17567.00
1161.052, 17606.00
1162.140, 17476.00
1163.227, 17329.00
1164.315, 17126.00
1165.402, 17041.00
1166.489, 17239.00
1167.576, 17060.00
1168.663, 17087.00
1169.749, 17064.00
1170.836, 16958.00
1171.922, 16819.00
1173.008, 16801.16
1174.094, 16605.00
1175.180, 16669.00
1176.265, 16631.00
1177.351, 16482.00
1178.436, 16419.00
1179.521, 16313.60
1180.606, 16330.00
1181.691, 16143.00
1182.776, 16023.00
1183.860, 16021.00
1184.944, 15836.00
1186.029, 15860.00
1187.113, 15730.00
1188.197, 15461.00
1189.280, 15460.00
1190.364, 15549.00
1191.447, 15733.00
1192.531, 15307.00
1193.614, 15082.00
1194.697, 15196.00
1195.779, 15037.00
1196.862, 14871.00
1197.945, 14776.00
1199.027, 14722.00
1200.109, 14682.00
1201.191, 14599.00
1202.273, 14539.00
1203.355, 14499.00
1204.436, 14384.00
1205.518, 14328.00
1206.599, 14236.00
1207.680, 14248.00
1208.761, 14343.00
1209.842, 14219.00
1210.922, 14101.00
1212.003, 14148.87
1213.083, 14025.00
1214.163, 14070.62
1215.243, 14227.27
1216.323, 14323.82
1217.402, 14363.49
1218.482, 14176.01
1219.561, 14281.85
1220.641, 14270.16
1221.720, 14253.62
1222.798, 14400.73
1223.877, 14246.28
1224.956, 14390.81
1226.034, 14415.98
1227.112, 14495.77
1228.191, 14457.29
1229.269, 14455.33
1230.346, 14571.68
1231.424, 14622.52
1232.501, 14570.39
1233.579, 14653.66
1234.656, 14495.03
1235.733, 14548.65
1236.810, 14693.84
1237.886, 14647.64
1238.963, 14733.05
1240.039, 14768.32
1241.116, 14575.85
1242.192, 14779.46
1243.268, 14811.78
1244.343, 14668.18
1245.419, 14858.22
1246.494, 14738.88
1247.570, 14729.97
1248.645, 14804.15
1249.720, 14791.70
1250.795, 14915.84
1251.869, 14908.37
1252.944, 14889.17
1254.018, 14921.25
1255.093, 14807.98
1256.167, 14964.39
1257.240, 14936.55
1258.314, 15000.30
1259.388, 15084.82
1260.461, 15010.38
1261.535, 15104.22
1262.608, 14937.10
1263.681, 14988.32
1264.753, 15016.01
1265.826, 15183.28
1266.899, 15017.43
1267.971, 15062.57
1269.043, 15197.55
1270.115, 15206.82
1271.187, 15268.65
1272.259, 15174.88
1273.330, 15227.26
1274.402, 15239.37
1275.473, 15390.70
1276.544, 15432.10
1277.615, 15340.96
1278.686, 15250.37
1279.756, 15411.70
1280.827, 15334.26
1281.897, 15385.62
1282.967, 15303.94
1284.037, 15337.13
1285.107, 15368.51
1286.177, 15458.76
1287.247, 15370.46
1288.316, 15513.76
1289.385, 15523.19
1290.454, 15572.06
1291.523, 15616.53
1292.592, 15481.37
1293.661, 15493.47
1294.729, 15716.27
1295.797, 15617.71
1296.866, 15584.03
1297.934, 15596.44
1299.001, 15826.44
1300.069, 15854.20
1301.137, 15640.19
1302.204, 15860.60
1303.271, 15813.73
1304.338, 15846.29
1305.405, 15849.88
1306.472, 15862.04
1307.539, 15765.09
1308.605, 15811.91
1309.671, 15975.64
1310.737, 15940.06
1311.803, 16039.90
1312.869, 15892.93
1313.935, 15892.46
1315.000, 15930.87
1316.066, 15983.48
1317.131, 15922.74
1318.196, 16088.64
1319.261, 16103.64
1320.326, 15987.88
1321.390, 16013.94
1322.455, 16016.48
1323.519, 16264.19
1324.583, 16139.00
1325.647, 16189.00
1326.711, 16171.00
1327.775, 16150.00
1328.838, 16345.00
1329.902, 16236.00
1330.965, 16138.00
1332.028, 16016.00
1333.091, 16290.00
1334.153, 16270.00
1335.216, 16177.00
1336.279, 16156.00
1337.341, 16208.00
1338.403, 16264.00
1339.465, 15973.00
1340.527, 16139.00
1341.588, 16127.00
1342.650, 15868.00
1343.711, 16020.00
1344.772, 16077.00
1345.834, 15945.00
1346.894, 16058.00
1347.955, 16057.00
1349.016, 16058.00
1350.076, 15974.00
1351.136, 15810.00
1352.197, 15891.00
1353.257, 15819.00
1354.316, 15854.00
1355.376, 15818.00
1356.436, 15819.00
1357.495, 15810.00
1358.554, 15791.17
1359.613, 15729.00
1360.672, 15786.00
1361.731, 15765.00
1362.789, 15805.00
1363.848, 15881.00
1364.906, 15717.00
1365.964, 15819.00
1367.022, 15691.00
1368.080, 15540.00
1369.138, 15837.00
1370.195, 15608.00
1371.253, 15757.00
1372.310, 15665.00
1373.367, 15633.00
1374.424, 15771.00
1375.480, 15661.00
1376.537, 15835.00
1377.593, 15660.00
1378.650, 15707.00
1379.706, 15778.00
1380.762, 15755.00
1381.818, 15804.00
1382.873, 15606.00
1383.929, 15701.00
1384.984, 15774.00
1386.039, 15634.00
1387.094, 15760.00
1388.149, 15680.00
1389.204, 15683.00
