##NAMES=Heulandite-Ca
##RRUFFID=R040021
##IDEAL CHEMISTRY=(Ca,Na,K)_5_(Si_27_Al_9_)O_72_&#183;26H_2_O
##LOCALITY=Prospect Park, Patterson, Passaic County, New Jersey, USA
##OWNER=RRUFF
##SOURCE=University of Arizona Mineral Museum
##DESCRIPTION=Group of colorless lamellar crystals
##STATUS=The identification of this mineral has been confirmed by X-ray diffraction and chemical analysis
##URL=rruff.info/R040021
##MEASURED CHEMISTRY=Na_0.25_(Na_0.55_K_0.45_)_Σ=1_(Ca_2.42_Na_0.85_Sr_0.73_)_Σ=4.00_(Si_27.60_Al_8.40_)_Σ=36_O_72_·24H_2_O ; H_2_O estimated by difference
##PIN_ID=m00223
##ORIENTATION=Laser parallel to -c [0 0 -1]. Fiducial mark perpendicular to laser is parallel to b* (0 1 0)
100.340, 31772.000
101.732, 32258.000
103.124, 32671.000
104.516, 32955.000
105.908, 33563.000
107.300, 34082.000
108.691, 33798.000
110.082, 34662.000
111.473, 34456.000
112.864, 34473.000
114.254, 34898.000
115.644, 35214.000
117.034, 35473.000
118.424, 35252.000
119.813, 34818.000
121.203, 35585.000
122.592, 34970.000
123.981, 35016.000
125.369, 35284.000
126.758, 35158.000
128.146, 35437.000
129.534, 35163.000
130.922, 35947.000
132.309, 35874.000
133.696, 36454.000
135.083, 36189.000
136.470, 37196.000
137.857, 36936.000
139.243, 37396.000
140.630, 37640.000
142.016, 37440.000
143.401, 36944.000
144.787, 36956.000
146.172, 36309.000
147.557, 35810.000
148.942, 35098.000
150.327, 34313.000
151.711, 33814.000
153.096, 32844.000
154.480, 32328.000
155.863, 31465.000
157.247, 30756.000
158.630, 30211.000
160.013, 29434.000
161.396, 28947.000
162.779, 28136.000
164.161, 27835.000
165.544, 27075.000
166.926, 26537.000
168.308, 25961.000
169.689, 25652.000
171.070, 25142.000
172.452, 24950.000
173.833, 24582.000
175.213, 24090.000
176.594, 24016.000
177.974, 23401.000
179.354, 23348.000
180.734, 23026.000
182.114, 22881.000
183.493, 22654.000
184.872, 22440.000
186.251, 22409.000
187.630, 22272.000
189.008, 22026.000
190.387, 21948.000
191.765, 21899.000
193.143, 21840.000
194.520, 21786.000
195.898, 21683.000
197.275, 21682.000
198.652, 21492.000
200.029, 21767.000
201.405, 21497.000
202.782, 21549.000
204.158, 21368.000
205.534, 21500.000
206.909, 21537.000
208.285, 21250.000
209.660, 21304.000
211.035, 21585.000
212.410, 21342.000
213.784, 21341.000
215.159, 21265.000
216.533, 21408.000
217.907, 21532.000
219.281, 21542.000
220.654, 21656.000
222.027, 21548.000
223.400, 21744.000
224.773, 21764.000
226.146, 21965.000
227.518, 22166.000
228.891, 22191.000
230.263, 22384.000
231.634, 22573.000
233.006, 22940.000
234.377, 22948.000
235.748, 23358.000
237.119, 23575.000
238.490, 23822.000
239.860, 24487.000
241.231, 24466.000
242.601, 24973.000
243.970, 25312.000
245.340, 25522.000
246.709, 25789.000
248.079, 25912.256
249.448, 26232.000
250.816, 25977.000
252.185, 25996.000
253.553, 25774.000
254.921, 25457.000
256.289, 25568.000
257.657, 25010.000
259.024, 24763.000
260.391, 24535.000
261.758, 24366.000
263.125, 23961.000
264.492, 23795.000
265.858, 23540.000
267.224, 23232.000
268.590, 22958.000
269.956, 22757.916
271.321, 22557.000
272.687, 22395.000
274.052, 22212.000
275.416, 22074.342
276.781, 21788.000
278.146, 21721.000
279.510, 21419.000
280.874, 21325.000
282.237, 21253.000
283.601, 21346.000
284.964, 21182.000
286.327, 21016.000
287.690, 21053.000
289.053, 20886.000
290.416, 20787.000
291.778, 21073.000
293.140, 20796.000
294.502, 20846.000
295.863, 20604.000
297.225, 20846.000
298.586, 20688.000
299.947, 20668.000
301.308, 20801.000
302.668, 20697.000
304.029, 20631.000
305.389, 20800.000
306.749, 20712.000
308.108, 20772.000
309.468, 20893.000
310.827, 20875.000
312.186, 20944.000
313.545, 20798.000
314.903, 21045.000
316.262, 20952.000
317.620, 20940.000
318.978, 21084.000
320.336, 21044.000
321.693, 21237.000
323.051, 21219.000
324.408, 21517.000
325.765, 21163.000
327.121, 21680.000
328.478, 21538.000
329.834, 21769.000
331.190, 21931.000
332.546, 22227.000
333.902, 22198.000
335.257, 22518.000
336.612, 22552.000
337.967, 22782.000
339.322, 23024.000
340.677, 23296.000
342.031, 23586.000
343.385, 23806.000
344.739, 24062.000
346.093, 24440.000
347.446, 24577.000
348.799, 24859.000
350.153, 25336.000
351.505, 25788.000
352.858, 26262.000
354.210, 26635.000
355.563, 27032.000
356.915, 27662.000
358.267, 28025.000
359.618, 28673.000
360.969, 29170.000
362.321, 29908.000
363.672, 30464.000
365.022, 31313.000
366.373, 31945.000
367.723, 32384.000
369.073, 33310.000
370.423, 33857.000
371.773, 34632.000
373.122, 34865.000
374.471, 35789.000
375.821, 36907.000
377.169, 37320.000
378.518, 38637.000
379.866, 38773.000
381.215, 39938.000
382.563, 40936.000
383.910, 42058.000
385.258, 43069.000
386.605, 44576.000
387.952, 46371.000
389.299, 47208.000
390.646, 49500.000
391.992, 51114.000
393.339, 53408.000
394.685, 55210.000
396.031, 56950.000
397.376, 59076.000
398.722, 59872.000
400.067, 61483.000
401.412, 62016.000
402.757, 62336.000
404.101, 62149.598
405.446, 61698.000
406.790, 60441.000
408.134, 59064.000
409.478, 57560.000
410.821, 55888.000
412.165, 54037.945
413.508, 51070.000
414.851, 49916.000
416.193, 47634.000
417.536, 45281.000
418.878, 43692.000
420.220, 41769.000
421.562, 39992.000
422.904, 37731.000
424.245, 36747.000
425.586, 35445.000
426.927, 33912.000
428.268, 33066.000
429.609, 31233.000
430.949, 30188.000
432.289, 29542.000
433.629, 29107.000
434.969, 28006.000
436.309, 27600.000
437.648, 26617.000
438.987, 26550.000
440.326, 25961.000
441.665, 25622.000
443.003, 25493.000
444.342, 25510.000
445.680, 25261.000
447.018, 25313.000
448.355, 25573.000
449.693, 25398.000
451.030, 25732.000
452.367, 26266.000
453.704, 26721.000
455.041, 26754.000
456.377, 27970.000
457.713, 28512.000
459.049, 29624.000
460.385, 31017.000
461.721, 31925.000
463.056, 32866.000
464.391, 33738.000
465.726, 34596.000
467.061, 35652.000
468.395, 35867.000
469.730, 36248.000
471.064, 37032.000
472.398, 37342.000
473.731, 38696.000
475.065, 39320.000
476.398, 40636.000
477.731, 42040.000
479.064, 43696.000
480.397, 44521.000
481.729, 45090.000
483.062, 45000.000
484.394, 44034.000
485.725, 42838.000
487.057, 40980.000
488.389, 39254.000
489.720, 37076.000
491.051, 34832.000
492.382, 32955.000
493.712, 31385.000
495.043, 29723.000
496.373, 28366.734
497.703, 26942.000
499.032, 25907.000
500.362, 25189.000
501.691, 24138.000
503.020, 23583.000
504.349, 22877.000
505.678, 22618.000
507.007, 22068.000
508.335, 21760.000
509.663, 21427.000
510.991, 21406.000
512.319, 21196.000
513.646, 20966.000
514.973, 20805.000
516.300, 20603.000
517.627, 20583.000
518.954, 20572.000
520.280, 20379.074
521.607, 20337.000
522.933, 20067.000
524.259, 19968.000
525.584, 19794.000
526.910, 19698.000
528.235, 19816.000
529.560, 19769.000
530.885, 19784.000
532.209, 19584.000
533.534, 19448.000
534.858, 19534.000
536.182, 19557.000
537.506, 19296.000
538.829, 19454.000
540.152, 19372.000
541.476, 19247.000
542.799, 19313.000
544.121, 18948.000
545.444, 19266.000
546.766, 19154.000
548.088, 19006.000
549.410, 19128.000
550.732, 18977.000
552.053, 19064.000
553.375, 19034.000
554.696, 18900.000
556.017, 19024.000
557.337, 19056.000
558.658, 19179.000
559.978, 19036.000
561.298, 18969.000
562.618, 19203.000
563.938, 18937.000
565.257, 19102.000
566.576, 19133.000
567.895, 18947.000
569.214, 19252.000
570.533, 19306.000
571.851, 19250.000
573.170, 19109.000
574.488, 19572.000
575.805, 19543.000
577.123, 19523.000
578.440, 19375.000
579.758, 19699.000
581.075, 20010.000
582.391, 19935.000
583.708, 20198.000
585.024, 20189.000
586.341, 20265.000
587.657, 20697.000
588.972, 20996.000
590.288, 21184.000
591.603, 21289.000
592.918, 21604.955
594.233, 21696.000
595.548, 22175.000
596.863, 22579.000
598.177, 22964.000
599.491, 23314.000
600.805, 23721.840
602.119, 24192.000
603.432, 24519.000
604.746, 25027.000
606.059, 25466.000
607.372, 25776.000
608.685, 25728.000
609.997, 26238.000
611.309, 25910.000
612.621, 25965.000
613.933, 25617.000
615.245, 25402.000
616.557, 25234.000
617.868, 24953.000
619.179, 24606.000
620.490, 24167.000
621.801, 23820.000
623.111, 23867.000
624.421, 23376.000
625.731, 23134.000
627.041, 22438.000
628.351, 22578.000
629.660, 22146.000
630.970, 21940.000
632.279, 21982.000
633.588, 21581.000
634.896, 21498.000
636.205, 21066.000
637.513, 21202.000
638.821, 20865.000
640.129, 20928.000
641.437, 20936.000
642.744, 20928.000
644.051, 20896.580
645.358, 20828.000
646.665, 20776.000
647.972, 20664.000
649.278, 20601.000
650.584, 20443.000
651.890, 20342.000
653.196, 20635.000
654.502, 20587.000
655.807, 20514.000
657.113, 20301.000
658.418, 20405.000
659.722, 20480.000
661.027, 20257.000
662.331, 20170.000
663.636, 20074.000
664.940, 20254.000
666.244, 19919.000
667.547, 20122.000
668.851, 19879.000
670.154, 20208.000
671.457, 19958.000
672.760, 20007.000
674.062, 20250.000
675.365, 20033.000
676.667, 20082.000
677.969, 20155.000
679.271, 20218.000
680.572, 20029.000
681.874, 19872.000
683.175, 20216.000
684.476, 20200.000
685.777, 20323.000
687.077, 20297.000
688.378, 20350.355
689.678, 20234.000
690.978, 20255.000
692.278, 20242.000
693.577, 19833.000
694.877, 20390.000
696.176, 20007.000
697.475, 20329.000
698.774, 20222.000
700.072, 20371.000
701.371, 20210.000
702.669, 20250.000
703.967, 20069.000
705.265, 20483.000
706.562, 20552.000
707.860, 20446.000
709.157, 20160.000
710.454, 20554.000
711.751, 20360.000
713.047, 20531.000
714.344, 20438.000
715.640, 20568.000
716.936, 20590.750
718.232, 20417.000
719.527, 20634.000
720.823, 20529.000
722.118, 20495.000
723.413, 20614.000
724.708, 20387.000
726.002, 20581.000
727.297, 20708.000
728.591, 20462.000
729.885, 20606.000
731.179, 20688.000
732.472, 20520.000
733.766, 20534.000
735.059, 20617.000
736.352, 20601.000
737.645, 20677.000
738.937, 20691.000
740.230, 20741.000
741.522, 20763.682
742.814, 20813.135
744.106, 20766.000
745.397, 20880.000
746.689, 20824.000
747.980, 20772.000
749.271, 20976.000
750.562, 20874.000
751.853, 21187.000
753.143, 21011.000
754.433, 21072.000
755.723, 21201.000
757.013, 21001.000
758.303, 21394.000
759.592, 21237.000
760.881, 21292.000
762.170, 21462.000
763.459, 21636.000
764.748, 21644.000
766.036, 21680.000
767.325, 21806.361
768.613, 21905.000
769.901, 22037.000
771.188, 22163.000
772.476, 22362.000
773.763, 22523.914
775.050, 22634.525
776.337, 22862.000
777.624, 22757.000
778.910, 22805.000
780.196, 22652.000
781.482, 22493.000
782.768, 22432.516
784.054, 22158.000
785.339, 22166.000
786.625, 22221.000
787.910, 22037.000
789.195, 22144.000
790.479, 21863.000
791.764, 21948.000
793.048, 21961.000
794.332, 21760.000
795.616, 22033.000
796.900, 21864.000
798.183, 21905.000
799.467, 21733.000
800.750, 22052.000
802.033, 21959.000
803.316, 21931.000
804.598, 22458.000
805.880, 21920.000
807.163, 22288.000
808.445, 22420.000
809.726, 22391.000
811.008, 22434.000
812.289, 22560.000
813.570, 22624.000
814.851, 22773.000
816.132, 22776.000
817.413, 22710.000
818.693, 22529.000
819.973, 22702.000
821.253, 22336.000
822.533, 22201.000
823.813, 22330.000
825.092, 21942.000
826.371, 21856.000
827.650, 21850.000
828.929, 21738.000
830.208, 22035.000
831.486, 21704.000
832.764, 21489.000
834.042, 21576.000
835.320, 21248.000
836.598, 21545.000
837.875, 21387.000
839.152, 21495.000
840.429, 21440.000
841.706, 21608.000
842.983, 21355.000
844.259, 21390.000
845.536, 21494.000
846.812, 21479.000
848.088, 21366.000
849.363, 21414.000
850.639, 21555.000
851.914, 21506.000
853.189, 21331.000
854.464, 21432.000
855.739, 21341.836
857.013, 21403.740
858.288, 21367.000
859.562, 21524.000
860.836, 21688.000
862.110, 21678.000
863.383, 21611.000
864.656, 21637.000
865.930, 21545.000
867.203, 21739.000
868.475, 21584.000
869.748, 21592.000
871.020, 21404.000
872.292, 21480.000
873.564, 21596.000
874.836, 21596.000
876.108, 21593.000
877.379, 21434.000
878.650, 21713.000
879.922, 21632.000
881.192, 21614.000
882.463, 21811.000
883.733, 21717.000
885.004, 21652.000
886.274, 21735.000
887.544, 21643.000
888.813, 21932.000
890.083, 21653.000
891.352, 21669.000
892.621, 21940.000
893.890, 21826.000
895.159, 21739.000
896.427, 21732.000
897.695, 21706.000
898.964, 21704.689
900.232, 21921.000
901.499, 21774.000
902.767, 21846.000
904.034, 21952.000
905.301, 21888.000
906.568, 22081.000
907.835, 22129.000
909.102, 22108.000
910.368, 22001.000
911.634, 21825.248
912.900, 22072.271
914.166, 22216.670
915.432, 22263.957
916.697, 21923.270
917.962, 22083.559
919.227, 22043.080
920.492, 22102.000
##END=



