##NAMES=Heulandite-Ca
##RRUFFID=R060465
##IDEAL CHEMISTRY=(Ca,Na,K)_5_(Si_27_Al_9_)O_72_&#183;26H_2_O
##LOCALITY=Garrawilla, near Gunnadah, New South Wales, Australia
##OWNER=RRUFF
##SOURCE=Michael Scott
##DESCRIPTION=Orange fan of platy crystals
##STATUS=The identification of this mineral has been confirmed by X-ray diffraction and chemical analysis
##URL=rruff.info/R060465
##MEASURED CHEMISTRY=(Ca_0.66_Na_0.24_K_0.10_)_5_(Si_0.77_Al_0.23_)_36_O_72_Â·24H_2_O
##PIN_ID=M01254
##ORIENTATION=Laser parallel to c* (0 0 1). Fiducial mark perpendicular to laser is parallel to a [1 0 0]
238.9720, 25402.00
240.1920, 25427.00
241.4110, 25464.00
242.6300, 25812.00
243.8490, 25853.00
245.0680, 25995.00
246.2860, 25974.00
247.5040, 26186.00
248.7230, 26169.00
249.9410, 26746.00
251.1590, 26493.00
252.3760, 26505.00
253.5940, 26697.00
254.8110, 26439.00
256.0280, 26295.00
257.2450, 26595.00
258.4620, 26589.00
259.6790, 26886.00
260.8950, 27085.00
262.1120, 26657.00
263.3280, 26569.00
264.5440, 26178.00
265.7600, 26586.00
266.9750, 26735.00
268.1910, 26712.00
269.4060, 26580.00
270.6210, 26668.00
271.8360, 26788.00
273.0510, 26508.00
274.2650, 26594.00
275.4800, 26887.00
276.6940, 26815.00
277.9080, 26897.00
279.1220, 27031.00
280.3360, 26977.00
281.5490, 26877.00
282.7630, 27002.00
283.9760, 26961.00
285.1890, 26917.00
286.4020, 27053.00
287.6150, 27058.00
288.8270, 27190.00
290.0400, 27069.00
291.2520, 27054.74
292.4640, 27153.00
293.6760, 26945.00
294.8870, 26955.00
296.0990, 27033.00
297.3100, 27136.00
298.5210, 27087.00
299.7320, 26849.00
300.9430, 26778.00
302.1540, 26807.00
303.3640, 27036.00
304.5750, 27025.00
305.7850, 27122.00
306.9950, 27188.28
308.2050, 27120.00
309.4140, 27242.00
310.6240, 27200.00
311.8330, 27181.00
313.0420, 27104.00
314.2510, 27357.00
315.4600, 27361.00
316.6680, 27567.00
317.8770, 27724.00
319.0850, 27731.00
320.2930, 27875.00
321.5010, 27922.00
322.7090, 28090.00
323.9160, 28056.00
325.1240, 28339.00
326.3310, 28196.00
327.5380, 28324.00
328.7450, 28753.00
329.9520, 28605.00
331.1580, 28672.00
332.3650, 29078.00
333.5710, 28963.00
334.7770, 28908.00
335.9830, 29021.00
337.1880, 29143.00
338.3940, 29159.00
339.5990, 29326.00
340.8040, 29410.54
342.0090, 29496.00
343.2140, 29646.00
344.4190, 29681.00
345.6230, 29809.00
346.8280, 29880.00
348.0320, 30028.95
349.2360, 30216.28
350.4400, 30372.00
351.6430, 30636.00
352.8470, 30859.00
354.0500, 31061.00
355.2530, 31375.13
356.4560, 31596.00
357.6590, 31990.00
358.8620, 32269.00
360.0640, 32588.00
361.2660, 32537.00
362.4680, 33233.00
363.6700, 33353.00
364.8720, 33963.00
366.0740, 34295.00
367.2750, 34854.00
368.4760, 35009.00
369.6770, 35468.00
370.8780, 35919.00
372.0790, 36351.00
373.2800, 36760.00
374.4800, 37171.00
375.6800, 37731.00
376.8800, 38172.00
378.0800, 38838.00
379.2800, 39453.00
380.4790, 40001.00
381.6790, 40824.00
382.8780, 41783.00
384.0770, 42351.00
385.2760, 43421.00
386.4750, 44324.00
387.6730, 45239.00
388.8720, 46598.00
390.0700, 48079.00
391.2680, 48765.00
392.4660, 49672.00
393.6630, 51079.00
394.8610, 52065.00
396.0580, 53573.00
397.2550, 54797.00
398.4520, 55740.00
399.6490, 56559.00
400.8460, 57745.00
402.0420, 58249.00
403.2390, 58718.00
404.4350, 58431.00
405.6310, 58554.00
406.8270, 57877.00
408.0220, 57246.00
409.2180, 56463.00
410.4130, 55459.00
411.6080, 54019.00
412.8030, 52825.00
413.9980, 51603.00
415.1920, 49924.00
416.3870, 48963.00
417.5810, 47467.00
418.7750, 46606.00
419.9690, 45192.00
421.1630, 44153.00
422.3570, 43065.00
423.5500, 42045.00
424.7430, 40968.00
425.9360, 39842.00
427.1290, 38882.00
428.3220, 37818.00
429.5150, 37133.00
430.7070, 36240.00
431.8990, 35290.00
433.0910, 34448.00
434.2830, 34025.00
435.4750, 33484.00
436.6670, 33171.00
437.8580, 32667.00
439.0490, 32230.00
440.2400, 32140.00
441.4310, 31707.00
442.6220, 31277.00
443.8130, 31525.00
445.0030, 31329.00
446.1930, 31195.00
447.3830, 31181.00
448.5730, 31298.00
449.7630, 31651.00
450.9520, 31993.00
452.1420, 32154.00
453.3310, 32564.00
454.5200, 32763.00
455.7090, 33357.00
456.8980, 33829.00
458.0860, 34423.00
459.2740, 35134.00
460.4630, 35892.00
461.6510, 36569.00
462.8380, 37098.00
464.0260, 37943.00
465.2140, 38458.00
466.4010, 38628.00
467.5880, 39214.00
468.7750, 39450.00
469.9620, 39702.00
471.1490, 39827.00
472.3350, 39989.00
473.5220, 40469.00
474.7080, 41191.00
475.8940, 41746.00
477.0800, 42818.00
478.2650, 43676.00
479.4510, 44516.00
480.6360, 45541.00
481.8210, 46165.00
483.0060, 46962.00
484.1910, 47227.00
485.3760, 47144.00
486.5600, 46506.00
487.7440, 45495.00
488.9290, 44362.00
490.1130, 42798.00
491.2960, 41579.00
492.4800, 40047.00
493.6630, 38678.00
494.8470, 37277.00
496.0300, 35920.00
497.2130, 34968.00
498.3960, 33692.00
499.5780, 32768.00
500.7610, 32035.00
501.9430, 31518.00
503.1250, 30985.00
504.3070, 30326.00
505.4890, 30153.00
506.6710, 29738.00
507.8520, 29542.00
509.0330, 29444.00
510.2140, 29310.00
511.3950, 29040.00
512.5760, 28930.00
513.7570, 28835.81
514.9370, 28627.00
516.1170, 28737.00
517.2980, 28695.00
518.4780, 28684.00
519.6570, 28434.00
520.8370, 28488.00
522.0160, 28273.00
523.1960, 28410.00
524.3750, 28331.00
525.5540, 28360.00
526.7320, 28173.00
527.9110, 28144.00
529.0890, 28326.00
530.2680, 27853.00
531.4460, 28184.00
532.6240, 28462.00
533.8010, 27927.00
534.9790, 28035.00
536.1560, 28005.00
537.3340, 27988.00
538.5110, 28125.00
539.6880, 28090.00
540.8650, 27968.00
542.0410, 27811.00
543.2180, 27973.00
544.3940, 28131.00
545.5700, 28076.00
546.7460, 28086.00
547.9220, 28167.00
549.0970, 28135.00
550.2730, 28127.00
551.4480, 27975.00
552.6230, 27897.00
553.7980, 27846.00
554.9730, 28120.00
556.1470, 28138.00
557.3210, 28144.00
558.4960, 28045.00
559.6700, 28158.00
560.8440, 28068.00
562.0170, 28022.00
563.1910, 28180.00
564.3640, 28124.96
565.5380, 28178.61
566.7110, 28258.00
567.8840, 28211.00
569.0560, 28410.00
570.2290, 28383.00
571.4010, 28359.00
572.5740, 28336.00
573.7460, 28341.17
574.9180, 28652.00
576.0890, 28417.00
577.2610, 28576.00
578.4320, 28745.00
579.6040, 28695.00
580.7750, 28842.00
581.9450, 28849.00
583.1160, 28987.00
584.2870, 29085.00
585.4570, 29155.00
586.6270, 29379.00
587.7980, 29444.00
588.9670, 29603.00
590.1370, 29730.00
591.3070, 29875.00
592.4760, 29999.43
593.6450, 30105.00
594.8140, 30280.00
595.9830, 30522.00
597.1520, 30759.00
598.3210, 30934.00
599.4890, 31284.00
600.6570, 31498.00
601.8250, 31903.00
602.9930, 32154.00
604.1610, 32544.00
605.3290, 32731.00
606.4960, 32887.00
607.6630, 33077.00
608.8300, 33404.00
609.9970, 33348.00
611.1640, 33336.00
612.3300, 33191.00
613.4970, 33483.00
614.6630, 33421.00
615.8290, 33292.80
616.9950, 33159.00
618.1610, 32783.00
619.3260, 32707.00
620.4920, 32411.44
621.6570, 32158.75
622.8220, 31922.00
623.9870, 31671.00
625.1520, 31471.00
626.3160, 31285.00
627.4810, 31186.00
628.6450, 30749.00
629.8090, 30879.00
630.9730, 30882.00
632.1370, 30418.00
633.3000, 30515.00
634.4640, 30514.00
635.6270, 30287.00
636.7900, 30223.00
637.9530, 30052.00
639.1160, 30091.00
640.2780, 30276.00
641.4410, 30046.00
642.6030, 30133.00
643.7650, 30017.00
644.9270, 30111.00
646.0890, 30022.00
647.2500, 29969.00
648.4120, 29922.00
649.5730, 30011.00
650.7340, 29897.00
651.8950, 30190.00
653.0560, 29908.00
654.2160, 30055.00
655.3770, 29872.00
656.5370, 30025.00
657.6970, 29920.00
658.8570, 29932.00
660.0170, 29901.00
661.1760, 29903.00
662.3360, 29755.00
663.4950, 29916.00
664.6540, 29761.00
665.8130, 30007.00
666.9720, 29797.00
668.1310, 29690.00
669.2890, 29948.00
670.4470, 29812.00
671.6050, 29899.00
672.7630, 30162.00
673.9210, 29954.00
675.0790, 30026.00
676.2360, 29978.00
677.3930, 29936.00
678.5510, 30097.00
679.7080, 30133.00
680.8640, 30075.00
682.0210, 30252.00
683.1770, 30077.00
684.3340, 30238.00
685.4900, 30264.00
686.6460, 30203.00
687.8020, 30295.00
688.9570, 30150.00
690.1130, 30324.00
691.2680, 30420.00
692.4230, 30383.00
693.5780, 30540.00
694.7330, 30354.00
695.8880, 30465.00
697.0420, 30282.00
698.1960, 30427.00
699.3510, 30523.00
700.5040, 30590.00
701.6580, 30786.00
702.8120, 30650.00
703.9650, 30472.00
705.1190, 30470.00
706.2720, 30622.00
707.4250, 30567.85
708.5780, 30883.00
709.7300, 30688.00
710.8830, 30824.00
712.0350, 30913.00
713.1870, 30758.00
714.3390, 30872.00
715.4910, 30790.00
716.6430, 30735.00
717.7940, 30852.00
718.9460, 30957.00
720.0970, 30916.00
721.2480, 30944.00
722.3990, 30883.00
723.5500, 30924.00
724.7000, 30872.00
725.8500, 30841.00
727.0010, 30799.00
728.1510, 30903.00
729.3010, 31081.00
730.4500, 30997.00
731.6000, 31127.00
732.7490, 30851.00
733.8980, 30896.00
735.0470, 31144.00
736.1960, 31003.00
737.3450, 31166.00
738.4940, 31266.00
739.6420, 31156.00
740.7900, 31112.00
741.9380, 31282.00
743.0860, 31229.00
744.2340, 31146.00
745.3810, 31277.00
746.5290, 31219.60
747.6760, 31376.00
748.8230, 31280.00
749.9700, 31377.00
751.1170, 31479.00
752.2630, 31624.00
753.4100, 31488.00
754.5560, 31639.00
755.7020, 31544.00
756.8480, 31625.00
757.9940, 31983.00
759.1390, 31913.00
760.2850, 31935.00
761.4300, 32066.00
762.5750, 32013.00
763.7200, 31893.00
764.8650, 32127.00
766.0100, 32283.00
767.1540, 32120.00
768.2980, 32143.00
769.4420, 32436.00
770.5860, 32314.00
771.7300, 32346.00
772.8740, 32499.00
774.0170, 32204.00
775.1610, 32320.00
776.3040, 32562.00
777.4470, 32433.00
778.5900, 32688.00
779.7320, 32430.00
780.8750, 32360.00
782.0170, 32535.00
783.1590, 32412.00
784.3010, 32659.00
785.4430, 32605.00
786.5850, 32604.00
787.7260, 32606.00
788.8680, 32556.00
790.0090, 32653.00
791.1500, 32447.00
792.2910, 32327.00
793.4310, 32541.00
794.5720, 32707.00
795.7120, 32776.00
796.8520, 32618.00
797.9920, 32584.00
799.1320, 32606.00
800.2720, 32482.00
801.4120, 32563.00
802.5510, 32547.88
803.6900, 32539.00
804.8290, 32634.00
805.9680, 32640.00
807.1070, 32755.00
808.2450, 32906.00
809.3840, 32652.00
810.5220, 32751.00
811.6600, 32547.00
812.7980, 32883.00
813.9360, 32851.00
815.0730, 33017.00
816.2110, 32730.00
817.3480, 32828.00
818.4850, 32969.00
819.6220, 33102.00
820.7590, 33119.00
821.8960, 33035.00
823.0320, 33114.00
824.1680, 33107.00
825.3040, 32840.00
826.4400, 32956.00
827.5760, 32845.00
828.7120, 33112.00
829.8470, 32992.00
830.9830, 32748.00
832.1180, 33132.00
833.2530, 32800.00
834.3880, 32801.00
835.5220, 33038.00
836.6570, 33075.00
837.7910, 32852.00
838.9250, 32796.00
840.0590, 32874.00
841.1930, 33094.00
842.3270, 32991.00
843.4600, 33109.00
844.5940, 33029.00
845.7270, 33024.00
846.8600, 33039.05
847.9930, 33053.57
849.1250, 33069.00
850.2580, 33142.00
851.3900, 33158.91
852.5230, 33305.00
853.6550, 33251.00
854.7870, 33226.00
855.9180, 33298.00
857.0500, 33203.00
858.1810, 33380.00
859.3130, 33343.00
860.4440, 33577.00
861.5750, 33300.00
862.7050, 33281.00
863.8360, 33442.00
864.9660, 33253.00
866.0970, 33576.00
867.2270, 33511.00
868.3570, 33363.00
869.4870, 33356.00
870.6160, 33573.00
871.7460, 33509.00
872.8750, 33814.00
874.0040, 33757.00
875.1330, 33566.00
876.2620, 33604.00
877.3910, 33498.00
878.5190, 33749.00
879.6470, 33698.00
880.7760, 33633.00
881.9040, 33716.00
883.0310, 33632.00
884.1590, 33761.00
885.2870, 33731.00
886.4140, 33826.00
887.5410, 33676.00
888.6680, 33839.00
889.7950, 33926.00
890.9220, 34056.00
892.0480, 33918.00
893.1750, 33794.00
894.3010, 33928.00
895.4270, 33879.00
896.5530, 33892.00
897.6790, 33959.00
898.8040, 34251.00
899.9300, 34169.00
901.0550, 34191.00
902.1800, 33948.00
903.3050, 34039.55
904.4300, 34404.00
905.5540, 34080.00
906.6790, 34384.00
907.8030, 34355.00
908.9270, 34393.00
910.0510, 34502.00
911.1750, 34667.00
912.2990, 34474.00
913.4220, 34492.00
914.5450, 34421.00
915.6690, 34697.00
916.7920, 34538.00
917.9140, 34636.00
919.0370, 34683.00
920.1600, 34721.00
921.2820, 34800.00
922.4040, 34873.00
923.5260, 34968.00
924.6480, 35038.09
925.7700, 35066.00
926.8910, 35152.00
928.0130, 35051.00
929.1340, 35012.00
930.2550, 35127.00
931.3760, 35227.00
932.4970, 35154.00
933.6170, 35144.00
934.7380, 35118.00
935.8580, 35043.00
936.9780, 35310.00
938.0980, 35378.00
939.2180, 35349.00
940.3370, 35233.00
941.4570, 35469.00
942.5760, 35491.00
943.6950, 35615.00
944.8140, 35709.00
945.9330, 35604.00
947.0520, 35675.00
948.1700, 35690.00
949.2890, 35638.36
950.4070, 35724.00
951.5250, 35627.00
952.6430, 35668.00
953.7600, 35769.00
954.8780, 35849.00
955.9950, 36000.00
957.1120, 35915.00
958.2290, 36083.00
959.3460, 35759.00
960.4630, 35852.00
961.5800, 35813.00
962.6960, 35900.04
963.8120, 36087.00
964.9280, 36324.00
966.0440, 36238.00
967.1600, 36580.00
968.2760, 36462.00
969.3910, 36488.00
970.5060, 36396.00
971.6210, 36871.00
972.7360, 36828.00
973.8510, 36561.00
974.9660, 36892.00
976.0800, 36762.00
977.1950, 36732.00
978.3090, 36948.00
979.4230, 37063.00
980.5370, 37150.00
981.6500, 36934.00
982.7640, 36982.00
983.8770, 37072.00
984.9900, 37284.00
986.1030, 37219.00
987.2160, 37377.00
988.3290, 37172.00
989.4420, 37269.00
990.5540, 37667.00
991.6660, 37495.00
992.7780, 37542.00
993.8900, 37669.00
995.0020, 37994.00
996.1140, 37699.00
997.2250, 37681.00
998.3360, 38026.00
999.4470, 37814.00
1000.558, 38109.00
1001.669, 37839.00
1002.780, 38408.00
1003.890, 38110.00
1005.001, 38214.00
1006.111, 38255.00
1007.221, 38443.00
1008.331, 38167.00
1009.440, 38383.00
1010.550, 38546.00
1011.659, 38492.00
1012.768, 38761.00
1013.877, 38844.00
1014.986, 38698.00
1016.095, 38756.00
1017.204, 38827.00
1018.312, 38758.00
1019.420, 38949.00
1020.528, 38810.00
1021.636, 39003.00
1022.744, 38851.00
1023.852, 38901.00
1024.959, 38928.00
1026.066, 38987.00
1027.173, 39106.00
1028.280, 39056.00
1029.387, 39200.00
1030.494, 39255.00
1031.600, 39199.00
1032.707, 39485.00
1033.813, 39343.00
1034.919, 39434.00
1036.025, 39618.00
1037.130, 39408.00
1038.236, 39477.00
1039.341, 39425.00
1040.446, 39607.00
1041.552, 39567.00
1042.656, 39730.00
1043.761, 39648.00
1044.866, 39662.00
1045.970, 39945.00
1047.074, 39823.00
1048.179, 39723.00
1049.282, 39842.00
1050.386, 39817.00
1051.490, 39834.00
1052.593, 39939.00
1053.697, 39846.00
1054.800, 39889.00
1055.903, 39834.00
1057.006, 39792.00
1058.108, 39836.25
1059.211, 39856.05
1060.313, 39943.00
1061.415, 39985.00
1062.517, 40144.00
1063.619, 40219.00
1064.721, 40338.00
1065.823, 40182.00
1066.924, 40482.00
1068.025, 40357.00
1069.126, 40254.00
1070.227, 40413.00
1071.328, 40437.00
1072.429, 40717.00
1073.529, 40719.00
1074.629, 40759.00
1075.729, 40701.00
1076.829, 40751.00
1077.929, 41161.00
1079.029, 41086.00
1080.128, 41286.00
1081.228, 41302.00
1082.327, 41148.00
1083.426, 41434.00
1084.525, 41774.00
1085.623, 41515.00
1086.722, 41604.00
1087.820, 41569.00
1088.919, 41855.00
1090.017, 41935.00
1091.115, 41920.00
1092.212, 42222.00
1093.310, 42344.00
1094.407, 42122.00
1095.505, 42260.00
1096.602, 42329.00
1097.699, 42259.00
1098.795, 42514.00
1099.892, 42494.00
1100.989, 42787.00
1102.085, 42778.00
1103.181, 43011.00
1104.277, 43009.43
1105.373, 42843.00
1106.469, 42985.00
1107.564, 42930.00
1108.660, 42912.00
1109.755, 43350.00
1110.850, 42993.00
1111.945, 43087.57
1113.040, 43261.57
1114.134, 43375.43
1115.229, 43432.46
1116.323, 43262.29
1117.417, 43385.46
1118.511, 43391.08
1119.605, 43391.88
1120.698, 43556.30
1121.792, 43419.17
1122.885, 43581.00
1123.978, 43623.48
1125.071, 43720.59
1126.164, 43699.40
1127.257, 43714.76
1128.349, 43848.40
1129.442, 43916.56
1130.534, 43881.73
1131.626, 43982.27
1132.718, 43840.94
1133.810, 43911.86
1134.901, 44074.32
1135.993, 44045.43
1137.084, 44148.10
1138.175, 44200.66
1139.266, 44025.45
1140.357, 44213.00
1141.448, 44328.00
1142.538, 44357.20
1143.628, 44185.00
1144.719, 44443.00
1145.809, 44431.00
1146.898, 44441.00
1147.988, 44621.00
1149.078, 44478.00
1150.167, 44251.00
1151.256, 44332.00
1152.345, 44310.00
1153.434, 44384.00
1154.523, 44269.00
1155.612, 44353.00
1156.700, 44410.00
1157.788, 44549.00
1158.877, 44287.00
1159.964, 44346.00
1161.052, 44589.00
1162.140, 44248.00
1163.227, 44481.00
1164.315, 44405.00
1165.402, 44364.00
1166.489, 44408.00
1167.576, 44346.00
1168.663, 44258.00
1169.749, 44259.63
1170.836, 44170.00
1171.922, 44166.00
1173.008, 44218.00
1174.094, 44129.00
1175.180, 44158.00
1176.265, 44465.00
1177.351, 44326.00
1178.436, 44326.85
1179.521, 43948.00
1180.606, 44175.00
1181.691, 44004.00
1182.776, 44070.00
1183.860, 43896.00
1184.944, 43978.00
1186.029, 43804.00
1187.113, 43984.00
1188.197, 43933.00
1189.280, 43636.00
1190.364, 43819.00
1191.447, 43781.00
1192.531, 43732.00
1193.614, 43535.00
1194.697, 43437.00
1195.779, 43487.00
1196.862, 43416.00
1197.945, 43425.18
1199.027, 43298.00
1200.109, 43375.00
1201.191, 43471.00
1202.273, 43309.00
1203.355, 43274.00
1204.436, 43355.00
1205.518, 43357.00
1206.599, 43330.00
1207.680, 43328.79
1208.761, 43445.00
1209.842, 43232.00
1210.922, 43289.00
1212.003, 43207.00
1213.083, 43368.00
1214.163, 43360.00
1215.243, 43235.00
1216.323, 43441.00
1217.402, 43157.00
1218.482, 43271.00
1219.561, 43191.00
1220.641, 43074.00
1221.720, 43537.00
1222.798, 43316.00
1223.877, 43409.00
1224.956, 43164.00
1226.034, 43451.00
1227.112, 43325.00
1228.191, 43184.00
1229.269, 43185.00
1230.346, 43536.00
1231.424, 43932.00
1232.501, 43635.00
1233.579, 43496.00
1234.656, 43569.00
1235.733, 43555.00
1236.810, 43608.00
1237.886, 43423.00
1238.963, 43680.00
1240.039, 43469.00
1241.116, 43890.00
1242.192, 43527.00
1243.268, 43616.00
1244.343, 43845.00
1245.419, 43860.00
1246.494, 43957.00
1247.570, 43757.00
1248.645, 43840.00
1249.720, 43751.00
1250.795, 43819.00
1251.869, 43845.62
1252.944, 43892.73
1254.018, 43950.00
1255.093, 43996.00
1256.167, 44000.86
1257.240, 44017.00
1258.314, 44011.00
1259.388, 44025.00
1260.461, 44064.00
1261.535, 44265.00
1262.608, 44112.00
1263.681, 44384.00
1264.753, 44492.00
1265.826, 44158.00
1266.899, 44353.00
1267.971, 44150.00
1269.043, 44703.00
1270.115, 44387.00
1271.187, 44672.00
1272.259, 44466.00
1273.330, 44678.00
1274.402, 44656.00
1275.473, 44549.00
1276.544, 44769.00
1277.615, 44655.00
1278.686, 44676.00
1279.756, 44923.00
1280.827, 44855.00
1281.897, 44556.00
1282.967, 44626.00
1284.037, 44730.00
1285.107, 44605.00
1286.177, 44965.00
1287.247, 44868.00
1288.316, 44924.00
1289.385, 44785.00
1290.454, 44833.00
1291.523, 44719.00
1292.592, 44874.00
1293.661, 44844.00
1294.729, 45039.00
1295.797, 44762.00
1296.866, 45332.00
1297.934, 45084.00
1299.001, 45416.00
1300.069, 45294.00
1301.137, 45373.00
1302.204, 45395.00
1303.271, 45335.00
1304.338, 45383.07
1305.405, 45497.35
1306.472, 45397.00
1307.539, 45683.00
1308.605, 45735.00
1309.671, 45579.00
1310.737, 45810.00
1311.803, 45590.00
1312.869, 45655.00
1313.935, 45857.00
1315.000, 45710.00
1316.066, 45865.00
1317.131, 45876.00
1318.196, 45964.96
1319.261, 45913.00
1320.326, 46147.00
1321.390, 46149.00
1322.455, 46071.00
1323.519, 46244.00
1324.583, 46064.00
1325.647, 46250.00
1326.711, 45994.00
1327.775, 46206.00
1328.838, 46344.00
1329.902, 46398.00
1330.965, 46277.00
1332.028, 46236.00
1333.091, 46398.00
1334.153, 46372.00
1335.216, 46442.00
1336.279, 46432.00
1337.341, 46643.00
1338.403, 46659.00
1339.465, 46679.00
1340.527, 46640.00
1341.588, 46810.00
1342.650, 46820.94
1343.711, 46867.52
1344.772, 46844.00
1345.834, 47003.00
1346.894, 46750.00
1347.955, 46904.00
1349.016, 46736.00
1350.076, 46624.00
1351.136, 46738.00
1352.197, 46984.00
1353.257, 46808.00
1354.316, 46977.00
1355.376, 46792.00
1356.436, 47096.00
1357.495, 46748.00
1358.554, 47072.00
1359.613, 47284.00
1360.672, 47047.00
1361.731, 47076.00
1362.789, 47233.00
1363.848, 47197.00
1364.906, 47208.00
1365.964, 47129.00
1367.022, 47393.00
1368.080, 47359.00
1369.138, 47335.00
1370.195, 47428.00
1371.253, 47161.00
1372.310, 47475.00
1373.367, 47421.00
1374.424, 47605.00
1375.480, 47329.00
1376.537, 47355.00
1377.593, 47226.00
1378.650, 47653.00
1379.706, 47181.00
1380.762, 47237.00
1381.818, 47597.00
1382.873, 47431.00
1383.929, 47400.00
1384.984, 47837.00
1386.039, 47660.00
1387.094, 47650.00
1388.149, 47823.00
1389.204, 47532.00
1390.259, 47720.00
1391.313, 47588.00
1392.367, 48027.00
1393.422, 47620.00
1394.476, 47914.00
1395.529, 47862.00
1396.583, 47843.00
