##NAMES=Heulandite-Ca
##RRUFFID=R050097
##IDEAL CHEMISTRY=(Ca,Na,K)_5_(Si_27_Al_9_)O_72_&#183;26H_2_O
##LOCALITY=Rat's Nest Claim, Custer County, Idaho, USA
##OWNER=RRUFF
##SOURCE=John Cornish
##DESCRIPTION=Pale pink coffin-shaped tabular single crystals
##STATUS=The identification of this mineral has been confirmed by X-ray diffraction and chemical analysis
##URL=rruff.info/R050097
##MEASURED CHEMISTRY=(Ca_0.66_Na_0.30_K_0.04_)_5_(Si_0.77_Al_0.23_)_36_O_72_Â·24H_2_O
##PIN_ID=L00100
##ORIENTATION=Laser parallel to a* (1 0 0). Fiducial mark perpendicular to laser is parallel to b [0 1 0]
120.5960, 21318.00
121.8270, 21617.00
123.0580, 21888.00
124.2880, 21861.00
125.5190, 22004.00
126.7490, 22194.00
127.9790, 22396.00
129.2090, 22603.00
130.4390, 22798.00
131.6680, 23195.00
132.8980, 23286.00
134.1270, 23612.00
135.3560, 23756.00
136.5850, 23990.00
137.8140, 24022.00
139.0430, 24639.00
140.2710, 24603.00
141.5000, 24510.00
142.7280, 24821.00
143.9560, 24361.00
145.1840, 24536.00
146.4120, 24425.00
147.6390, 24703.00
148.8670, 24334.00
150.0940, 24265.00
151.3210, 24342.00
152.5490, 24196.00
153.7750, 23837.00
155.0020, 23902.00
156.2290, 23546.00
157.4550, 23614.00
158.6810, 23181.00
159.9080, 22968.00
161.1340, 23071.00
162.3590, 22732.00
163.5850, 23058.00
164.8110, 22725.00
166.0360, 22968.00
167.2610, 22614.00
168.4860, 22356.00
169.7110, 22559.00
170.9360, 22346.00
172.1610, 22216.00
173.3850, 22045.00
174.6100, 21969.00
175.8340, 21879.00
177.0580, 21697.00
178.2820, 21671.67
179.5050, 21747.00
180.7290, 21613.00
181.9520, 21590.00
183.1760, 21677.00
184.3990, 21646.00
185.6220, 21614.00
186.8450, 21578.00
188.0670, 21499.00
189.2900, 21364.00
190.5120, 21306.00
191.7340, 21480.00
192.9560, 21342.00
194.1780, 21385.00
195.4000, 21311.00
196.6220, 21483.00
197.8430, 21332.00
199.0640, 21422.00
200.2860, 21416.00
201.5070, 21577.00
202.7270, 21512.00
203.9480, 21488.00
205.1690, 21438.00
206.3890, 21370.00
207.6090, 21386.00
208.8290, 21247.00
210.0490, 21422.00
211.2690, 21457.00
212.4890, 21330.00
213.7080, 21325.00
214.9280, 21490.00
216.1470, 21176.00
217.3660, 21507.00
218.5850, 21519.00
219.8030, 21359.00
221.0220, 21318.00
222.2400, 21398.00
223.4590, 21732.00
224.6770, 21537.00
225.8950, 21688.00
227.1120, 21906.00
228.3300, 21804.00
229.5480, 21768.00
230.7650, 21940.00
231.9820, 21987.00
233.1990, 21887.00
234.4160, 22088.00
235.6330, 22155.00
236.8490, 22275.00
238.0660, 22463.00
239.2820, 22459.00
240.4980, 22664.00
241.7140, 22639.00
242.9300, 22667.00
244.1460, 22738.00
245.3610, 22826.00
246.5770, 23059.00
247.7920, 23061.00
249.0070, 23275.00
250.2220, 23008.00
251.4370, 23127.00
252.6510, 23235.00
253.8660, 22922.00
255.0800, 23135.00
256.2940, 23188.00
257.5080, 23367.00
258.7220, 23549.00
259.9360, 23603.00
261.1490, 23420.00
262.3630, 23139.00
263.5760, 22978.00
264.7890, 22925.09
266.0020, 22959.00
267.2150, 22915.00
268.4270, 22986.00
269.6400, 23019.00
270.8520, 22858.00
272.0640, 22855.00
273.2760, 23023.00
274.4880, 22886.00
275.7000, 23024.00
276.9120, 23062.00
278.1230, 22955.00
279.3340, 22953.00
280.5450, 23027.00
281.7560, 22772.00
282.9670, 22726.00
284.1780, 22880.00
285.3880, 22960.00
286.5980, 22847.00
287.8090, 22896.00
289.0190, 23024.00
290.2290, 22925.00
291.4380, 22937.00
292.6480, 22881.00
293.8570, 22805.00
295.0670, 22967.00
296.2760, 22944.00
297.4850, 22979.00
298.6930, 23114.00
299.9020, 23086.00
301.1110, 23240.00
302.3190, 23262.47
303.5270, 23098.00
304.7350, 23314.00
305.9430, 23347.00
307.1510, 23303.00
308.3580, 23449.35
309.5660, 23421.00
310.7730, 23472.00
311.9800, 23557.00
313.1870, 23313.00
314.3940, 23589.00
315.6010, 23394.00
316.8070, 23597.00
318.0130, 23671.00
319.2200, 23656.00
320.4260, 23878.00
321.6310, 23804.00
322.8370, 23987.00
324.0430, 23832.00
325.2480, 24053.00
326.4540, 23885.00
327.6590, 24114.00
328.8640, 24037.00
330.0680, 24259.00
331.2730, 24040.00
332.4780, 24356.00
333.6820, 24429.00
334.8860, 24215.00
336.0900, 24439.00
337.2940, 24400.00
338.4980, 24348.00
339.7010, 24396.00
340.9050, 24407.19
342.1080, 24429.00
343.3110, 24585.00
344.5140, 24619.00
345.7170, 24865.00
346.9200, 24829.00
348.1220, 24833.00
349.3240, 24750.00
350.5270, 24793.40
351.7290, 24973.00
352.9310, 24872.00
354.1320, 25102.00
355.3340, 25200.00
356.5350, 25163.00
357.7370, 25439.00
358.9380, 25250.00
360.1390, 25437.00
361.3400, 25714.00
362.5400, 25619.00
363.7410, 25932.00
364.9410, 25980.00
366.1410, 25974.00
367.3410, 25973.00
368.5410, 26186.00
369.7410, 26256.00
370.9400, 26408.00
372.1400, 26463.00
373.3390, 26636.00
374.5380, 26866.00
375.7370, 27073.00
376.9360, 27098.00
378.1350, 27047.00
379.3330, 27334.00
380.5310, 27488.00
381.7300, 27524.00
382.9280, 27817.00
384.1260, 28052.00
385.3230, 28328.00
386.5210, 28572.00
387.7180, 28808.00
388.9160, 29026.00
390.1130, 29079.00
391.3100, 29642.00
392.5060, 29746.00
393.7030, 30080.00
394.9000, 30536.00
396.0960, 30622.00
397.2920, 30850.00
398.4880, 31250.00
399.6840, 31365.00
400.8800, 31606.17
402.0750, 31771.00
403.2710, 31874.00
404.4660, 31801.00
405.6610, 31747.00
406.8560, 31659.70
408.0510, 31324.00
409.2450, 31236.00
410.4400, 31065.00
411.6340, 30546.00
412.8280, 30622.00
414.0220, 30497.00
415.2160, 30087.00
416.4100, 29685.00
417.6030, 29675.00
418.7970, 29660.00
419.9900, 29179.00
421.1830, 28988.00
422.3760, 28925.00
423.5690, 28523.00
424.7610, 28416.00
425.9540, 27972.00
427.1460, 27869.00
428.3380, 28161.00
429.5300, 27537.00
430.7220, 27913.00
431.9140, 27675.00
433.1050, 27691.00
434.2970, 27550.00
435.4880, 27406.00
436.6790, 27318.00
437.8700, 27233.00
439.0610, 27209.00
440.2510, 27305.00
441.4420, 27240.00
442.6320, 27304.00
443.8220, 27201.00
445.0120, 27253.00
446.2020, 27379.00
447.3910, 27333.00
448.5810, 27346.00
449.7700, 27487.00
450.9600, 27608.00
452.1490, 27488.00
453.3370, 27520.00
454.5260, 27739.00
455.7150, 27827.00
456.9030, 27827.00
458.0910, 28257.00
459.2800, 28148.00
460.4670, 28487.00
461.6550, 28558.00
462.8430, 28768.00
464.0300, 29042.00
465.2180, 28933.00
466.4050, 29303.00
467.5920, 29771.00
468.7790, 29710.00
469.9650, 30180.00
471.1520, 30144.00
472.3380, 30704.00
473.5250, 30989.00
474.7110, 31324.00
475.8970, 31695.00
477.0820, 31947.00
478.2680, 32230.00
479.4540, 32534.00
480.6390, 32720.00
481.8240, 32905.00
483.0090, 32654.00
484.1940, 32498.00
485.3780, 32319.00
486.5630, 32080.00
487.7470, 31576.00
488.9320, 31183.00
490.1160, 30813.00
491.3000, 30608.00
492.4830, 30327.00
493.6670, 29927.00
494.8500, 29839.00
496.0340, 29423.00
497.2170, 29101.00
498.4000, 28966.00
499.5820, 29008.00
500.7650, 28914.00
501.9480, 28831.00
503.1300, 28667.00
504.3120, 28684.00
505.4940, 28582.00
506.6760, 28528.00
507.8580, 28642.00
509.0390, 28324.00
510.2210, 28762.00
511.4020, 28714.00
512.5830, 28528.00
513.7640, 28561.00
514.9450, 28504.00
516.1250, 28615.00
517.3060, 28571.00
518.4860, 28604.00
519.6660, 28668.00
520.8460, 28652.00
522.0260, 28713.00
523.2060, 28666.00
524.3850, 28767.00
525.5650, 28792.00
526.7440, 28768.00
527.9230, 28849.00
529.1020, 28727.00
530.2810, 28699.00
531.4590, 28748.00
532.6380, 28828.00
533.8160, 28722.00
534.9940, 29039.00
536.1720, 28953.00
537.3500, 29037.00
538.5270, 28760.00
539.7050, 28867.00
540.8820, 29169.00
542.0590, 29302.00
543.2360, 29435.00
544.4130, 29070.00
545.5900, 29265.00
546.7660, 29103.00
547.9430, 29397.00
549.1190, 29397.00
550.2950, 29536.00
551.4710, 29525.00
552.6470, 29443.00
553.8220, 29477.00
554.9980, 29490.00
556.1730, 29602.00
557.3480, 29667.00
558.5230, 29610.00
559.6980, 29631.00
560.8730, 29693.52
562.0470, 29765.00
563.2220, 29800.00
564.3960, 29757.00
565.5700, 29747.00
566.7440, 29790.00
567.9170, 29624.00
569.0910, 29851.00
570.2640, 29745.00
571.4380, 30054.00
572.6110, 30140.00
573.7840, 30095.00
574.9570, 30200.00
576.1290, 30195.00
577.3020, 30232.74
578.4740, 30202.00
579.6460, 30334.00
580.8180, 30396.00
581.9900, 30500.41
583.1620, 30376.00
584.3330, 30571.00
585.5040, 30557.00
586.6760, 30534.00
587.8470, 30768.00
589.0180, 30698.00
590.1880, 30582.00
591.3590, 30600.00
592.5290, 30686.00
593.7000, 30979.00
594.8700, 31246.00
596.0400, 31319.38
597.2090, 31299.00
598.3790, 31479.00
599.5490, 31595.00
600.7180, 31568.00
601.8870, 31782.00
603.0560, 31694.00
604.2250, 31889.00
605.3940, 31937.00
606.5620, 31945.00
607.7300, 32291.00
608.8990, 31961.00
610.0670, 32367.00
611.2350, 32037.00
612.4020, 32242.00
613.5700, 32057.00
614.7370, 32479.00
615.9050, 32233.00
617.0720, 32358.00
618.2390, 32211.00
619.4060, 32068.00
620.5720, 31996.00
621.7390, 32123.00
622.9050, 31943.00
624.0710, 31945.00
625.2370, 31850.00
626.4030, 31837.00
627.5690, 31934.00
628.7340, 32084.00
629.9000, 31854.00
631.0650, 31940.00
632.2300, 31957.00
633.3950, 31852.00
634.5600, 31788.00
635.7240, 31950.00
636.8890, 31843.00
638.0530, 31908.00
639.2170, 31953.00
640.3810, 31839.00
641.5450, 32149.00
642.7080, 32058.00
643.8720, 32202.00
645.0350, 32151.00
646.1980, 32114.00
647.3610, 32238.00
648.5240, 32102.00
649.6870, 32048.00
650.8490, 32226.00
652.0120, 32234.00
653.1740, 32236.00
654.3360, 32154.00
655.4980, 32025.00
656.6600, 32064.00
657.8210, 32361.00
658.9830, 32177.00
660.1440, 32220.00
661.3050, 32384.00
662.4660, 32327.00
663.6270, 32502.00
664.7870, 32400.00
665.9480, 32445.00
667.1080, 32564.00
668.2680, 32655.00
669.4280, 32526.00
670.5880, 32461.00
671.7480, 32781.00
672.9070, 32591.00
674.0670, 32547.00
675.2260, 32773.00
676.3850, 32769.00
677.5440, 32862.00
678.7030, 33031.00
679.8610, 32922.00
681.0200, 32821.00
682.1780, 33030.00
683.3360, 33000.00
684.4940, 32895.00
685.6520, 33038.00
686.8090, 33247.00
687.9670, 33211.66
689.1240, 33104.00
690.2810, 33314.00
691.4380, 33178.00
692.5950, 33222.00
693.7520, 33262.00
694.9080, 33196.00
696.0650, 33416.00
697.2210, 33355.00
698.3770, 33421.00
699.5330, 33370.00
700.6880, 33348.00
701.8440, 33502.00
702.9990, 33646.00
704.1550, 33535.00
705.3100, 33730.00
706.4650, 33558.00
707.6190, 33443.00
708.7740, 33706.00
709.9290, 33643.00
711.0830, 33678.25
712.2370, 33926.00
713.3910, 33674.00
714.5450, 33932.00
715.6980, 33891.00
716.8520, 33893.00
718.0050, 34059.00
719.1580, 34089.00
720.3110, 34093.00
721.4640, 33998.00
722.6170, 34084.00
723.7700, 34149.00
724.9220, 34190.00
726.0740, 34256.00
727.2260, 34266.00
728.3780, 34313.00
729.5300, 34290.00
730.6810, 34480.00
731.8330, 34430.00
732.9840, 34600.00
734.1350, 34374.00
735.2860, 34665.00
736.4370, 34743.00
737.5880, 34546.00
738.7380, 34606.00
739.8880, 34831.00
741.0390, 34772.00
742.1890, 34883.28
743.3380, 34708.00
744.4880, 35003.00
745.6380, 34863.00
746.7870, 34963.00
747.9360, 35039.00
749.0850, 35173.00
750.2340, 35005.00
751.3830, 35181.00
752.5310, 34940.00
753.6800, 35381.00
754.8280, 35404.00
755.9760, 35300.00
757.1240, 35252.00
758.2720, 35136.00
759.4190, 35583.00
760.5670, 35517.00
761.7140, 35625.00
762.8610, 35534.00
764.0080, 35447.00
765.1550, 35853.00
766.3020, 35716.00
767.4480, 36100.00
768.5950, 35909.00
769.7410, 36084.00
770.8870, 35840.00
772.0330, 36315.00
773.1780, 35865.00
774.3240, 36042.00
775.4690, 36427.00
776.6140, 36275.00
777.7590, 36361.00
778.9040, 36298.00
780.0490, 36321.00
781.1940, 36554.00
782.3380, 36870.00
783.4820, 36755.00
784.6260, 36679.00
785.7700, 36603.00
786.9140, 36794.00
788.0580, 36529.00
789.2010, 36587.00
790.3450, 36792.00
791.4880, 36772.00
792.6310, 36764.00
793.7730, 36652.00
794.9160, 36860.00
796.0590, 36925.00
797.2010, 36749.00
798.3430, 36722.00
799.4850, 36599.00
800.6270, 36664.89
801.7690, 36795.00
802.9100, 36867.00
804.0520, 37046.00
805.1930, 37194.00
806.3340, 37079.00
807.4750, 37081.00
808.6160, 37057.00
809.7560, 37140.00
810.8970, 37003.00
812.0370, 37228.00
813.1770, 37117.00
814.3170, 37406.00
815.4570, 37197.00
816.5960, 37499.00
817.7360, 37420.00
818.8750, 37215.00
820.0140, 37124.00
821.1530, 37154.56
822.2920, 37483.00
823.4310, 37267.00
824.5690, 37463.00
825.7070, 37512.00
826.8460, 37345.00
827.9840, 37485.00
829.1220, 37341.00
830.2590, 37253.00
831.3970, 37351.36
832.5340, 37203.00
833.6710, 37445.00
834.8080, 37508.00
835.9450, 37520.00
837.0820, 37604.00
838.2190, 37637.00
839.3550, 37490.00
840.4910, 37610.20
841.6270, 37481.00
842.7630, 37673.00
843.8990, 37734.00
845.0350, 37697.00
846.1700, 37629.00
847.3060, 37678.00
848.4410, 38012.00
849.5760, 37888.00
850.7100, 37972.00
851.8450, 38033.00
852.9800, 38012.00
854.1140, 38156.00
855.2480, 38354.00
856.3820, 37943.00
857.5160, 37916.00
858.6500, 38114.00
859.7830, 38449.00
860.9170, 38247.00
862.0500, 38323.00
863.1830, 38033.00
864.3160, 38349.00
865.4480, 38263.00
866.5810, 38510.00
867.7130, 38523.00
868.8460, 38632.00
869.9780, 38732.00
871.1100, 38663.87
872.2410, 38495.00
873.3730, 38538.00
874.5050, 38589.00
875.6360, 38531.00
876.7670, 38740.00
877.8980, 38690.00
879.0290, 38814.00
880.1590, 38671.00
881.2900, 38762.00
882.4200, 38890.00
883.5500, 38860.00
884.6800, 38757.00
885.8100, 38690.00
886.9400, 38895.00
888.0690, 39250.00
889.1990, 39012.00
890.3280, 39355.00
891.4570, 39098.00
892.5860, 38974.00
893.7140, 39082.00
894.8430, 39306.00
895.9710, 39190.00
897.1000, 39357.00
898.2280, 39270.00
899.3560, 39472.00
900.4830, 39272.00
901.6110, 39311.00
902.7380, 39585.00
903.8660, 39522.00
904.9930, 39604.00
906.1200, 39661.00
907.2460, 39506.00
908.3730, 39773.00
909.5000, 39724.00
910.6260, 39736.00
911.7520, 39586.00
912.8780, 39852.00
914.0040, 39803.00
915.1290, 39805.00
916.2550, 40028.00
917.3800, 39859.00
918.5050, 39974.00
919.6300, 39987.86
920.7550, 39949.00
921.8800, 40062.00
923.0040, 40064.00
924.1290, 40210.00
925.2530, 40148.00
926.3770, 40383.00
927.5010, 40254.00
928.6250, 40295.00
929.7480, 40361.00
930.8720, 40329.00
931.9950, 40381.00
933.1180, 40441.00
934.2410, 40699.00
935.3640, 40713.26
936.4860, 40759.00
937.6090, 40828.00
938.7310, 40729.00
939.8530, 40655.00
940.9750, 40877.00
942.0970, 40792.00
943.2180, 41062.00
944.3400, 40838.00
945.4610, 40941.00
946.5820, 40682.00
947.7030, 40990.00
948.8240, 41120.00
949.9450, 40919.00
951.0650, 41091.00
952.1860, 41121.00
953.3060, 41208.00
954.4260, 41199.00
955.5460, 41319.00
956.6650, 41441.00
957.7850, 41479.00
958.9040, 41565.72
960.0230, 41509.55
961.1420, 41627.00
962.2610, 41421.00
963.3800, 41339.00
964.4990, 41439.00
965.6170, 41731.00
966.7350, 41682.00
967.8530, 41690.00
968.9710, 41467.00
970.0890, 41939.00
971.2070, 41569.00
972.3240, 41721.00
973.4410, 41955.00
974.5580, 41990.00
975.6750, 42311.00
976.7920, 42057.00
977.9090, 42236.00
979.0250, 42190.00
980.1410, 42330.00
981.2580, 42093.00
982.3740, 42120.00
983.4890, 42359.00
984.6050, 42192.00
985.7200, 42536.00
986.8360, 42605.00
987.9510, 42742.00
989.0660, 42743.00
990.1810, 42602.00
991.2950, 42972.00
992.4100, 42652.00
993.5240, 42775.00
994.6390, 42822.00
995.7530, 42941.00
996.8660, 43038.00
997.9800, 42979.00
999.0940, 42780.00
1000.207, 42970.00
1001.320, 43095.00
1002.433, 43363.00
1003.546, 43410.00
1004.659, 43438.00
1005.772, 43156.00
1006.884, 43148.00
1007.996, 43617.00
1009.108, 43304.00
1010.220, 43586.00
1011.332, 43519.00
1012.444, 43312.00
1013.555, 43684.00
1014.666, 43705.00
1015.777, 43662.00
1016.888, 43612.00
1017.999, 43863.00
1019.110, 44045.00
1020.220, 43794.00
1021.331, 43816.00
1022.441, 44131.00
1023.551, 44108.00
1024.661, 43996.00
1025.770, 44065.00
1026.880, 44188.00
1027.989, 44150.00
1029.098, 44019.00
1030.207, 44121.00
1031.316, 44349.00
1032.425, 44164.00
1033.533, 44285.00
1034.642, 44176.00
1035.750, 44251.34
1036.858, 44513.00
1037.966, 44454.00
1039.073, 44482.00
1040.181, 44642.00
1041.288, 44589.76
1042.396, 44555.00
1043.503, 44663.00
1044.610, 44712.00
1045.716, 44842.00
1046.823, 44922.00
1047.929, 45045.00
1049.036, 44889.00
1050.142, 44762.00
1051.248, 44959.00
1052.353, 45122.00
1053.459, 44914.00
1054.564, 45223.00
1055.670, 45145.00
1056.775, 45374.00
1057.880, 45081.00
1058.985, 45108.00
1060.089, 44971.00
1061.194, 44968.00
1062.298, 45002.00
1063.402, 45229.00
1064.506, 45237.72
1065.610, 45552.00
1066.713, 45506.00
1067.817, 45427.00
1068.920, 45739.00
1070.023, 45667.00
1071.126, 45587.00
1072.229, 45513.00
1073.332, 45865.00
1074.435, 45870.00
1075.537, 45855.00
1076.639, 46036.00
1077.741, 46021.84
1078.843, 46175.00
1079.945, 46126.00
1081.046, 46176.00
1082.148, 46229.00
1083.249, 46035.00
1084.350, 46189.00
1085.451, 46382.00
1086.551, 46632.00
1087.652, 46292.00
1088.752, 46490.00
1089.853, 46529.00
1090.953, 46512.00
1092.053, 46585.00
1093.152, 46758.00
1094.252, 46878.00
1095.351, 46823.00
1096.451, 47030.00
1097.550, 46738.00
1098.649, 47169.00
1099.748, 46977.00
1100.846, 46823.00
1101.945, 46962.00
1103.043, 47100.00
1104.141, 47017.00
1105.239, 47142.00
1106.337, 47078.00
1107.434, 47312.00
1108.532, 47261.00
1109.629, 47296.00
1110.726, 47499.00
1111.823, 47195.00
1112.920, 47384.00
1114.017, 47674.00
1115.113, 47519.00
1116.210, 47756.00
1117.306, 47986.00
1118.402, 48160.00
1119.498, 48269.00
1120.593, 48360.82
1121.689, 48410.84
1122.784, 48403.00
1123.879, 48411.00
1124.974, 48354.00
1126.069, 48286.00
1127.164, 47890.00
1128.259, 48069.00
1129.353, 48071.00
1130.447, 47829.00
1131.541, 47939.00
1132.635, 47954.00
1133.729, 48071.00
1134.822, 48029.96
1135.916, 48004.00
1137.009, 47937.00
1138.102, 48008.00
1139.195, 47952.00
1140.288, 48018.00
1141.380, 48217.00
1142.473, 48105.00
1143.565, 48162.00
1144.657, 47984.00
1145.749, 48061.18
1146.841, 48024.11
1147.932, 48229.00
1149.024, 48090.00
1150.115, 48307.00
1151.206, 48513.00
1152.297, 48139.00
1153.388, 48187.00
1154.479, 48264.00
1155.569, 48431.00
1156.659, 48419.00
1157.750, 48280.00
1158.839, 48512.00
1159.929, 48526.00
1161.019, 48334.00
1162.108, 48253.00
1163.198, 48444.00
1164.287, 48653.00
1165.376, 48613.00
1166.465, 48415.00
1167.553, 48665.00
1168.642, 48460.00
1169.730, 48764.00
1170.818, 48814.00
1171.906, 48707.00
1172.994, 48852.00
1174.082, 49033.00
1175.170, 48650.00
1176.257, 48498.00
1177.344, 48879.00
1178.431, 48793.00
1179.518, 48971.00
1180.605, 48920.00
1181.691, 48791.00
1182.778, 48908.00
1183.864, 48964.00
1184.950, 48970.00
1186.036, 48962.00
1187.122, 49037.00
1188.207, 49220.00
1189.292, 49198.00
1190.378, 49381.00
1191.463, 49233.00
1192.548, 49227.00
1193.632, 49151.00
1194.717, 49486.00
1195.801, 48890.00
1196.886, 49402.00
1197.970, 49285.00
1199.054, 49351.00
1200.137, 49312.00
1201.221, 49271.00
1202.305, 49405.16
1203.388, 49542.00
1204.471, 49620.00
1205.554, 49682.26
1206.637, 49522.00
1207.719, 49750.00
1208.802, 49640.00
1209.884, 49670.00
1210.966, 49819.00
1212.048, 49799.00
1213.130, 49933.00
1214.212, 50010.00
1215.293, 50004.00
1216.374, 49675.00
1217.456, 49946.00
1218.536, 49732.00
1219.617, 50089.00
1220.698, 50013.00
1221.778, 50338.00
1222.859, 50141.00
1223.939, 50095.00
1225.019, 50236.00
1226.099, 50335.00
1227.178, 50270.00
1228.258, 50282.00
1229.337, 50399.00
1230.417, 50271.00
1231.496, 50320.00
1232.574, 50415.00
1233.653, 50246.00
1234.732, 50606.00
1235.810, 50775.00
1236.888, 50517.00
1237.966, 50515.00
1239.044, 50648.00
1240.122, 50986.00
1241.199, 50745.00
1242.277, 50806.00
1243.354, 50565.00
1244.431, 50563.00
1245.508, 50873.00
1246.585, 50704.00
1247.661, 51014.00
1248.738, 50913.00
1249.814, 51010.00
1250.890, 50986.00
1251.966, 51158.00
1253.042, 50996.00
1254.117, 51196.00
1255.193, 50918.00
1256.268, 51080.00
1257.343, 50898.00
1258.418, 50942.00
1259.493, 51108.00
1260.567, 51299.00
1261.642, 51344.75
1262.716, 51256.00
1263.790, 51319.00
1264.864, 51348.99
1265.938, 51227.00
1267.011, 51455.00
1268.085, 51563.00
1269.158, 51606.00
1270.231, 51645.26
1271.304, 51463.00
1272.377, 51613.00
1273.450, 51566.00
1274.522, 51623.00
1275.594, 51918.00
1276.666, 51872.00
1277.738, 51824.00
1278.810, 52180.00
1279.882, 52021.00
1280.953, 51847.00
1282.025, 51934.00
1283.096, 51945.00
1284.167, 52217.00
1285.238, 52049.00
1286.308, 51873.00
1287.379, 52064.00
1288.449, 52331.00
1289.519, 52354.00
1290.589, 52331.00
1291.659, 52495.00
1292.729, 52314.00
1293.798, 52584.00
1294.868, 52699.00
