##NAMES=Heulandite-Ca
##RRUFFID=R050017
##IDEAL CHEMISTRY=(Ca,Na,K)_5_(Si_27_Al_9_)O_72_&#183;26H_2_O
##LOCALITY=Poona, Maharashtra State, India
##OWNER=RRUFF
##SOURCE=Eugene Schlepp
##DESCRIPTION=Single crystals
##STATUS=The identification of this mineral has been confirmed by X-ray diffraction and chemical analysis
##URL=rruff.info/R050017
##MEASURED CHEMISTRY=(Ca_.70_Na_.22_K_.02_[box]_0.06_)_5_(Si_0.77_Al_0.23_)_36_O_72_Â·24H_2_O
##PIN_ID=L00517
##ORIENTATION=Laser parallel to c* (0 0 1). Fiducial mark perpendicular to laser is parallel to -a [-1 0 0]
205.534, 19888.000
206.909, 19904.000
208.285, 19614.000
209.660, 19649.000
211.035, 19649.000
212.410, 19398.000
213.784, 19329.000
215.159, 19299.000
216.533, 19265.000
217.907, 19246.000
219.281, 19197.000
220.654, 19330.000
222.027, 19083.000
223.400, 19275.000
224.773, 19144.000
226.146, 19278.000
227.518, 19182.000
228.891, 19253.000
230.263, 19095.000
231.634, 19184.000
233.006, 19369.000
234.377, 19352.000
235.748, 19485.000
237.119, 19684.000
238.490, 19731.832
239.860, 19865.277
241.231, 19987.000
242.601, 20044.000
243.970, 20236.000
245.340, 20326.000
246.709, 20450.000
248.079, 20401.000
249.448, 20722.000
250.816, 20456.000
252.185, 20734.000
253.553, 20595.000
254.921, 20457.000
256.289, 20630.000
257.657, 20530.000
259.024, 20488.000
260.391, 20344.000
261.758, 20505.000
263.125, 20178.000
264.492, 20406.000
265.858, 20036.000
267.224, 20043.000
268.590, 20072.000
269.956, 19776.000
271.321, 19984.000
272.687, 19899.000
274.052, 19713.000
275.416, 19584.000
276.781, 19825.000
278.146, 19706.000
279.510, 19497.000
280.874, 19706.000
282.237, 19508.000
283.601, 19528.000
284.964, 19296.000
286.327, 19144.000
287.690, 19371.000
289.053, 19256.000
290.416, 19178.000
291.778, 19358.000
293.140, 19109.000
294.502, 19368.000
295.863, 19034.000
297.225, 19169.000
298.586, 19220.000
299.947, 19154.000
301.308, 19121.000
302.668, 19058.000
304.029, 19301.000
305.389, 19465.000
306.749, 19255.000
308.108, 19108.000
309.468, 19294.000
310.827, 19286.000
312.186, 19447.000
313.545, 19491.000
314.903, 19644.000
316.262, 19709.000
317.620, 19826.000
318.978, 19954.773
320.336, 20125.000
321.693, 20235.000
323.051, 20405.000
324.408, 20606.000
325.765, 20489.000
327.121, 20956.000
328.478, 20677.000
329.834, 20894.000
331.190, 21113.000
332.546, 21296.000
333.902, 21179.000
335.257, 21435.000
336.612, 21379.000
337.967, 21561.000
339.322, 21716.000
340.677, 21644.000
342.031, 21940.000
343.385, 22089.000
344.739, 22195.000
346.093, 22294.000
347.446, 22469.256
348.799, 22668.000
350.153, 22840.000
351.505, 23177.000
352.858, 23455.000
354.210, 23586.000
355.563, 24030.000
356.915, 24242.000
358.267, 24549.000
359.618, 24973.000
360.969, 25128.000
362.321, 25706.000
363.672, 25931.000
365.022, 26530.000
366.373, 27008.000
367.723, 27162.000
369.073, 27874.000
370.423, 28533.000
371.773, 28780.000
373.122, 29177.000
374.471, 30081.000
375.821, 30773.000
377.169, 31082.000
378.518, 32243.000
379.866, 32256.000
381.215, 33526.000
382.563, 34364.000
383.910, 35523.000
385.258, 36484.000
386.605, 37283.000
387.952, 38900.000
389.299, 39496.000
390.646, 41376.000
391.992, 42110.000
393.339, 43721.000
394.685, 45568.000
396.031, 46821.000
397.376, 48926.000
398.722, 49625.000
400.067, 51266.000
401.412, 51885.000
402.757, 52385.000
404.101, 53223.000
405.446, 52722.000
406.790, 51720.000
408.134, 50741.000
409.478, 49712.000
410.821, 48338.000
412.165, 46725.000
413.508, 44362.000
414.851, 43249.000
416.193, 41432.000
417.536, 39538.000
418.878, 38268.000
420.220, 36740.000
421.562, 35298.000
422.904, 33879.961
424.245, 32465.000
425.586, 31181.000
426.927, 29834.000
428.268, 28700.223
429.609, 27484.000
430.949, 26667.000
432.289, 25896.000
433.629, 25240.000
434.969, 24246.000
436.309, 24048.000
437.648, 23275.000
438.987, 23126.000
440.326, 22536.000
441.665, 22106.000
443.003, 21818.000
444.342, 21838.000
445.680, 21613.000
447.018, 21572.000
448.355, 21571.000
449.693, 21549.000
451.030, 21629.000
452.367, 21780.000
453.704, 21976.234
455.041, 22308.396
456.377, 22660.000
457.713, 23138.000
459.049, 23800.000
460.385, 24320.000
461.721, 24936.555
463.056, 25952.000
464.391, 26247.000
465.726, 26880.000
467.061, 27689.000
468.395, 27856.000
469.730, 28020.000
471.064, 28657.000
472.398, 28937.000
473.731, 30008.000
475.065, 30371.000
476.398, 31560.000
477.731, 32850.000
479.064, 34282.000
480.397, 35673.000
481.729, 37168.000
483.062, 38314.000
484.394, 38874.000
485.725, 38850.000
487.057, 38263.000
488.389, 37523.000
489.720, 36136.000
491.051, 33808.000
492.382, 32091.000
493.712, 30226.000
495.043, 28571.000
496.373, 26696.000
497.703, 25239.000
499.032, 24238.000
500.362, 23292.000
501.691, 22107.000
503.020, 21350.000
504.349, 20564.000
505.678, 20322.000
507.007, 19892.000
508.335, 19491.000
509.663, 19009.000
510.991, 18814.000
512.319, 18719.000
513.646, 18504.000
514.973, 18353.000
516.300, 18122.000
517.627, 18248.000
518.954, 18014.000
520.280, 17702.000
521.607, 17798.000
522.933, 17607.000
524.259, 17722.000
525.584, 17565.000
526.910, 17617.000
528.235, 17515.000
529.560, 17326.000
530.885, 17472.000
532.209, 17132.000
533.534, 17203.000
534.858, 17277.000
536.182, 17231.000
537.506, 17040.000
538.829, 17219.000
540.152, 17024.000
541.476, 16970.000
542.799, 17027.000
544.121, 16728.000
545.444, 16951.000
546.766, 16880.000
548.088, 16694.000
549.410, 16874.000
550.732, 16900.000
552.053, 16947.000
553.375, 16770.000
554.696, 16764.000
556.017, 16728.000
557.337, 16744.000
558.658, 16907.000
559.978, 16761.000
561.298, 16700.000
562.618, 16860.000
563.938, 16782.000
565.257, 16791.000
566.576, 16992.000
567.895, 16780.000
569.214, 16923.000
570.533, 16999.000
571.851, 16952.000
573.170, 16894.000
574.488, 16959.020
575.805, 16989.000
577.123, 17104.000
578.440, 16927.000
579.758, 17146.000
581.075, 17331.000
582.391, 17193.000
583.708, 17434.000
585.024, 17596.000
586.341, 17534.000
587.657, 17692.000
588.972, 17850.000
590.288, 18055.000
591.603, 17935.000
592.918, 17990.000
594.233, 18309.000
595.548, 18445.000
596.863, 18740.000
598.177, 18897.000
599.491, 19094.000
600.805, 19342.000
602.119, 19541.000
603.432, 19825.000
604.746, 20025.775
606.059, 20538.000
607.372, 20482.000
608.685, 20550.000
609.997, 20817.000
611.309, 20705.000
612.621, 20682.000
613.933, 20650.000
615.245, 20696.000
616.557, 20390.000
617.868, 20194.000
619.179, 20172.000
620.490, 19973.000
621.801, 19651.000
623.111, 19917.000
624.421, 19528.000
625.731, 19788.000
627.041, 19257.000
628.351, 19217.000
629.660, 18668.000
630.970, 18429.000
632.279, 18432.000
633.588, 18074.000
634.896, 18022.000
636.205, 17822.000
637.513, 17942.000
638.821, 17603.000
640.129, 17593.000
641.437, 18016.000
642.744, 17966.000
644.051, 17765.000
645.358, 17786.000
646.665, 17752.000
647.972, 17850.000
649.278, 17660.000
650.584, 17573.000
651.890, 17467.000
653.196, 17550.000
654.502, 17305.000
655.807, 17462.000
657.113, 17156.000
658.418, 17182.000
659.722, 17108.000
661.027, 17081.000
662.331, 16921.000
663.636, 16878.000
664.940, 17038.000
666.244, 16646.000
667.547, 16907.000
668.851, 16669.000
670.154, 16765.000
671.457, 16688.000
672.760, 16576.000
674.062, 16742.000
675.365, 16672.000
676.667, 16648.000
677.969, 16704.000
679.271, 16768.000
680.572, 16696.000
681.874, 16665.000
683.175, 16875.000
684.476, 16864.000
685.777, 16885.000
687.077, 16902.000
688.378, 16896.744
689.678, 16934.000
690.978, 16912.000
692.278, 16925.000
693.577, 16963.756
694.877, 17040.000
696.176, 16890.000
697.475, 17100.000
698.774, 16911.000
700.072, 17110.000
701.371, 17059.000
702.669, 17057.000
703.967, 16980.000
705.265, 17165.000
706.562, 17234.000
707.860, 17115.000
709.157, 16778.000
710.454, 17263.000
711.751, 16962.000
713.047, 17189.000
714.344, 17030.000
715.640, 17148.000
716.936, 16949.000
718.232, 17024.000
719.527, 17299.000
720.823, 17186.000
722.118, 17160.000
723.413, 17152.000
724.708, 17155.000
726.002, 17208.000
727.297, 17231.889
728.591, 17008.000
729.885, 17309.000
731.179, 17368.000
732.472, 17364.000
733.766, 17125.000
735.059, 17213.102
736.352, 17202.316
737.645, 17261.000
738.937, 17233.000
740.230, 17393.000
741.522, 17222.000
742.814, 17281.000
744.106, 17488.000
745.397, 17458.000
746.689, 17446.000
747.980, 17268.000
749.271, 17494.000
750.562, 17486.000
751.853, 17649.000
753.143, 17482.000
754.433, 17337.754
755.723, 17527.111
757.013, 17635.490
758.303, 17667.240
759.592, 17392.850
760.881, 17513.773
762.170, 17476.271
763.459, 17432.275
764.748, 17608.836
766.036, 17378.971
767.325, 17552.033
768.613, 17564.252
769.901, 17650.084
771.188, 17576.512
772.476, 17552.176
773.763, 17687.289
775.050, 17734.113
776.337, 17642.191
777.624, 17732.699
778.910, 17497.258
780.196, 17547.838
781.482, 17721.824
782.768, 17637.912
784.054, 17731.332
785.339, 17757.209
786.625, 17476.162
787.910, 17728.893
789.195, 17750.779
790.479, 17535.639
791.764, 17770.078
793.048, 17587.613
794.332, 17553.957
795.616, 17632.289
796.900, 17593.877
798.183, 17739.521
799.467, 17707.852
800.750, 17660.334
802.033, 17681.957
803.316, 17507.664
804.598, 17696.828
805.880, 17637.717
807.163, 17702.023
808.445, 17794.297
809.726, 17672.381
811.008, 17777.223
812.289, 17530.418
813.570, 17577.848
814.851, 17593.592
816.132, 17797.404
817.413, 17552.314
818.693, 17591.564
819.973, 17751.885
821.253, 17742.799
822.533, 17804.543
823.813, 17656.605
825.092, 17705.645
826.371, 17700.387
827.650, 17882.754
828.929, 17917.000
830.208, 17772.615
831.486, 17628.984
832.764, 17824.850
834.042, 17698.936
835.320, 17746.619
836.598, 17615.014
837.875, 17638.207
839.152, 17658.945
840.429, 17759.037
841.706, 17618.506
842.983, 17790.102
844.259, 17781.293
845.536, 17825.629
846.812, 17864.049
848.088, 17660.387
849.363, 17655.170
850.639, 17933.920
851.914, 17779.609
853.189, 17712.705
854.464, 17707.934
855.739, 17996.404
857.013, 18012.309
858.288, 17702.416
859.562, 17977.963
860.836, 17893.334
862.110, 17915.736
863.383, 17899.086
864.656, 17893.996
865.930, 17741.873
867.203, 17783.512
868.475, 17982.697
869.748, 17913.287
871.020, 18026.385
872.292, 17806.863
873.564, 17784.779
874.836, 17815.104
876.108, 17864.539
877.379, 17906.000
878.650, 18032.000
879.922, 17896.000
881.192, 17842.000
882.463, 17849.000
883.733, 17888.000
885.004, 17819.000
886.274, 17865.000
887.544, 17991.000
888.813, 18034.000
890.083, 17754.000
891.352, 17966.000
892.621, 17960.000
893.890, 17883.000
895.159, 18041.000
896.427, 17885.000
897.695, 17966.000
898.964, 18207.000
900.232, 18030.000
901.499, 17927.000
902.767, 18021.000
904.034, 18221.000
905.301, 17899.000
906.568, 18225.000
907.835, 18096.000
909.102, 18207.000
910.368, 17982.000
911.634, 18201.000
912.900, 18273.000
914.166, 18434.000
915.432, 18577.000
916.697, 18264.000
917.962, 18095.000
919.227, 18356.000
920.492, 18131.000
921.757, 18265.000
923.021, 18251.000
924.285, 18182.000
925.550, 18213.000
926.813, 18212.000
928.077, 18289.000
929.341, 18472.000
930.604, 18498.000
931.867, 18365.000
933.130, 18348.000
934.393, 18222.000
935.655, 18582.000
936.918, 18305.000
938.180, 18583.000
939.442, 18490.000
940.703, 18265.000
941.965, 18476.000
943.226, 18352.000
944.488, 18304.000
945.749, 18396.000
947.009, 18440.000
948.270, 18473.000
949.530, 18446.000
950.791, 18579.000
952.051, 18680.000
953.311, 18652.000
954.570, 18722.100
955.830, 18718.000
957.089, 18723.000
958.348, 18659.000
959.607, 18622.000
960.866, 18800.000
962.124, 18655.000
963.383, 18599.000
964.641, 18888.000
965.899, 18883.000
967.156, 18776.000
968.414, 18864.000
969.671, 18898.000
970.928, 18968.000
972.185, 18864.000
973.442, 19086.000
974.699, 19020.000
975.955, 19168.000
977.211, 19125.000
978.468, 19065.000
979.723, 19241.000
980.979, 19153.000
982.234, 19021.000
983.490, 19552.000
984.745, 19178.000
986.000, 19489.000
987.254, 19658.000
988.509, 19559.000
989.763, 19874.000
991.017, 19712.000
992.271, 19779.000
993.525, 19892.000
994.779, 19819.000
996.032, 20082.000
997.285, 19964.596
998.538, 20215.369
999.791, 20376.770
1001.044, 20453.602
1002.296, 20192.535
1003.548, 20367.744
1004.800, 20368.115
1006.052, 20361.316
1007.304, 20597.932
1008.555, 20385.969
1009.807, 20618.725
1011.058, 20673.932
1012.309, 20688.000
1013.559, 20705.000
1014.810, 20736.000
1016.060, 20626.000
1017.310, 20979.000
1018.560, 20951.000
1019.810, 20827.000
1021.060, 21007.000
1022.309, 21292.000
1023.558, 21087.000
1024.807, 21161.000
1026.056, 21094.000
1027.305, 21089.000
1028.553, 21219.000
1029.801, 21388.000
1031.049, 21199.000
1032.297, 21109.000
1033.545, 21232.000
1034.793, 21397.000
1036.040, 21184.000
1037.287, 21267.000
1038.534, 21266.000
1039.781, 21328.000
1041.027, 21564.000
1042.274, 21315.000
1043.520, 21488.000
1044.766, 21363.000
1046.012, 21366.000
1047.257, 21293.000
1048.503, 21216.000
1049.748, 21440.000
1050.993, 21329.000
1052.238, 21522.000
1053.483, 21400.000
1054.727, 21384.000
1055.971, 21373.000
1057.216, 21504.000
1058.459, 21263.000
1059.703, 21459.000
1060.947, 21374.000
1062.190, 21406.000
1063.433, 21261.000
1064.676, 21336.000
1065.919, 21422.000
1067.162, 21282.000
1068.404, 21656.000
1069.646, 21255.000
1070.888, 21488.000
1072.130, 21851.000
1073.372, 21646.000
1074.613, 21905.000
1075.855, 21924.000
1077.096, 21801.000
1078.337, 21888.000
1079.578, 22419.000
1080.818, 22280.000
1082.059, 22468.000
1083.299, 22532.000
1084.539, 22617.000
1085.779, 22676.000
1087.018, 22763.328
1088.258, 22802.000
1089.497, 22915.000
1090.736, 22898.000
1091.975, 22926.000
1093.213, 22784.000
1094.452, 23084.000
1095.690, 23240.000
1096.928, 23052.000
1098.166, 23904.000
1099.404, 23555.725
1100.642, 23699.000
1101.879, 23444.000
1103.116, 23556.000
1104.353, 23700.000
1105.590, 23762.000
1106.827, 23524.000
1108.063, 23866.000
1109.299, 23688.000
1110.536, 23861.000
1111.771, 23934.000
1113.007, 23586.000
1114.243, 23823.000
1115.478, 23883.000
1116.713, 23892.000
1117.948, 23953.000
1119.183, 23651.332
1120.418, 24055.568
1121.652, 24288.441
1122.886, 24359.172
1124.120, 23782.117
1125.354, 24041.543
1126.588, 23965.744
1127.821, 23876.189
1129.055, 24253.346
1130.288, 23770.498
1131.521, 24140.242
1132.753, 24169.637
1133.986, 24354.807
1135.218, 24133.000
1136.450, 24409.000
1137.682, 24090.000
1138.914, 24578.000
1140.146, 24120.000
1141.377, 24137.000
1142.609, 24024.000
1143.840, 24208.000
1145.071, 24290.000
1146.301, 24350.000
1147.532, 24192.000
1148.762, 24253.000
1149.992, 24198.000
1151.222, 24109.000
1152.452, 24114.000
1153.682, 24169.000
1154.911, 24004.000
1156.140, 24119.000
1157.369, 23909.000
1158.598, 23956.000
1159.827, 24010.000
1161.055, 23950.000
1162.284, 23987.467
1163.512, 23845.000
1164.740, 23903.000
1165.967, 23767.000
1167.195, 23552.000
1168.422, 23794.000
1169.650, 23642.000
1170.877, 23642.000
1172.103, 23301.000
1173.330, 23408.000
1174.557, 23156.000
1175.783, 23139.518
1177.009, 23400.000
1178.235, 22988.000
1179.461, 23331.000
1180.686, 23028.000
1181.912, 23062.000
1183.137, 22955.000
1184.362, 22944.000
1185.587, 22588.000
1186.811, 22544.000
1188.036, 22526.000
1189.260, 22358.000
1190.484, 22506.000
1191.708, 22362.000
1192.932, 22272.000
1194.155, 22112.000
1195.378, 22169.000
1196.602, 21986.000
1197.825, 22164.000
1199.047, 21990.000
1200.270, 22211.000
1201.492, 21976.000
1202.715, 22212.000
1203.937, 21751.000
1205.159, 21978.000
1206.380, 21870.000
1207.602, 21820.000
1208.823, 21712.000
1210.044, 21706.014
1211.265, 21713.000
1212.486, 21697.000
1213.707, 21622.000
1214.927, 21603.000
1216.147, 21712.000
1217.367, 21486.000
1218.587, 21698.000
1219.807, 21619.000
1221.027, 21680.000
1222.246, 21530.000
1223.465, 21448.000
1224.684, 21604.000
1225.903, 21822.000
1227.121, 21656.000
1228.340, 21790.102
1229.558, 21662.000
1230.776, 21752.000
1231.994, 21652.000
1233.212, 21534.000
1234.429, 21862.000
1235.646, 21911.000
1236.864, 21869.000
1238.081, 21886.000
1239.297, 21777.000
1240.514, 21903.000
1241.730, 22063.000
1242.947, 21818.000
1244.163, 21868.000
1245.378, 21889.000
1246.594, 22261.000
1247.810, 22031.000
1249.025, 21817.000
1250.240, 22166.000
1251.455, 22030.000
1252.670, 21983.000
1253.885, 21960.000
1255.099, 22114.000
1256.313, 21915.000
1257.527, 21793.000
1258.741, 22012.000
1259.955, 22210.000
1261.168, 21918.000
1262.382, 22007.000
1263.595, 22238.000
1264.808, 22110.000
1266.021, 22194.000
1267.233, 22207.988
1268.446, 22282.000
1269.658, 22288.000
1270.870, 22314.785
1272.082, 22324.000
1273.294, 22339.000
1274.505, 22438.000
1275.716, 22442.000
1276.928, 22584.000
1278.139, 22580.328
1279.349, 22489.000
1280.560, 22572.000
1281.770, 22482.000
1282.981, 22388.000
1284.191, 22282.000
1285.401, 22460.000
1286.610, 22331.000
1287.820, 22405.000
1289.029, 22456.000
1290.239, 22329.000
1291.448, 22604.000
1292.656, 22600.000
1293.865, 22580.000
1295.073, 22704.000
1296.282, 22840.000
1297.490, 22780.143
1298.698, 22704.000
1299.906, 22784.000
1301.113, 22722.000
1302.320, 22861.000
1303.528, 22782.000
1304.735, 22805.000
1305.942, 22584.000
1307.148, 22789.000
1308.355, 23004.000
1309.561, 22738.000
1310.767, 23204.000
1311.973, 22880.000
1313.179, 23049.000
1314.384, 22917.000
1315.590, 23224.000
1316.795, 23074.000
1318.000, 23168.000
1319.205, 23044.000
1320.410, 23051.258
1321.614, 23397.000
1322.819, 23122.000
1324.023, 23214.000
1325.227, 23422.000
1326.431, 23411.000
1327.634, 23247.000
1328.838, 23019.000
1330.041, 23228.000
1331.244, 23256.000
1332.447, 23304.000
1333.650, 23099.000
1334.852, 23008.000
1336.055, 23219.000
1337.257, 23169.000
1338.459, 23245.000
1339.661, 23261.000
1340.862, 23393.000
1342.064, 23267.000
1343.265, 23331.000
1344.466, 23256.000
1345.667, 23424.000
1346.868, 23394.000
1348.068, 23539.000
1349.269, 23467.000
1350.469, 23361.000
1351.669, 23584.000
1352.869, 23565.000
1354.069, 23685.000
1355.268, 23716.000
1356.468, 23735.324
1357.667, 23796.000
1358.866, 23830.000
1360.065, 23654.000
1361.263, 23802.000
1362.462, 23832.000
1363.660, 24020.000
1364.858, 24052.000
1366.056, 23938.000
1367.254, 23927.000
1368.451, 24072.000
1369.649, 24128.000
1370.846, 23993.000
1372.043, 24032.000
1373.240, 23930.000
1374.436, 24080.000
1375.633, 24138.000
1376.829, 24314.000
1378.025, 24183.000
1379.221, 24009.000
1380.417, 24392.000
1381.613, 24235.000
1382.808, 24699.000
1384.003, 24774.000
1385.199, 24558.000
1386.393, 24371.000
1387.588, 24326.000
1388.783, 24363.000
1389.977, 24444.000
1391.171, 24480.000
1392.365, 24436.000
1393.559, 24437.000
1394.753, 24836.000
1395.946, 24473.000
1397.140, 24717.000
1398.333, 24568.000
1399.526, 24672.000
1400.719, 24562.000
1401.911, 24802.000
1403.104, 24783.000
1404.296, 24640.000
1405.488, 24556.000
1406.680, 24926.000
1407.872, 24518.000
1409.063, 24977.000
1410.255, 25045.000
1411.446, 24891.000
1412.637, 25137.000
1413.828, 24876.000
1415.018, 24979.000
1416.209, 25010.000
1417.399, 24974.000
1418.589, 25117.000
1419.779, 25375.000
1420.969, 25128.000
1422.159, 25206.000
1423.348, 25036.000
1424.537, 25069.500
1425.726, 25380.000
1426.915, 25200.000
1428.104, 25322.000
1429.293, 25483.000
1430.481, 25352.000
1431.669, 25452.000
1432.857, 25742.000
##END=



