##NAMES=Heulandite-Ca
##RRUFFID=R060465
##IDEAL CHEMISTRY=(Ca,Na,K)_5_(Si_27_Al_9_)O_72_&#183;26H_2_O
##LOCALITY=Garrawilla, near Gunnadah, New South Wales, Australia
##OWNER=RRUFF
##SOURCE=Michael Scott
##DESCRIPTION=Orange fan of platy crystals
##STATUS=The identification of this mineral has been confirmed by X-ray diffraction and chemical analysis
##URL=rruff.info/R060465
##MEASURED CHEMISTRY=(Ca_0.66_Na_0.24_K_0.10_)_5_(Si_0.77_Al_0.23_)_36_O_72_Â·24H_2_O
##PIN_ID=M01254
##ORIENTATION=Laser parallel to c* (0 0 1). Fiducial mark perpendicular to laser is parallel to a [1 0 0]
238.9720, 24340.00
240.1920, 24144.00
241.4110, 24169.00
242.6300, 24376.00
243.8490, 24281.00
245.0680, 24556.00
246.2860, 24446.00
247.5040, 24888.00
248.7230, 24865.00
249.9410, 25176.00
251.1590, 24760.00
252.3760, 24905.00
253.5940, 25122.00
254.8110, 25150.00
256.0280, 25295.00
257.2450, 25141.00
258.4620, 25391.00
259.6790, 25838.00
260.8950, 25725.00
262.1120, 25585.00
263.3280, 25628.00
264.5440, 25140.00
265.7600, 25049.00
266.9750, 25167.00
268.1910, 25488.00
269.4060, 25184.00
270.6210, 25107.00
271.8360, 25577.00
273.0510, 25578.00
274.2650, 25626.00
275.4800, 25435.00
276.6940, 25601.00
277.9080, 25588.00
279.1220, 25626.00
280.3360, 25663.00
281.5490, 25739.00
282.7630, 25876.00
283.9760, 25673.00
285.1890, 25955.00
286.4020, 25888.00
287.6150, 26056.00
288.8270, 25981.00
290.0400, 26101.00
291.2520, 26036.00
292.4640, 26212.00
293.6760, 26176.00
294.8870, 26272.00
296.0990, 26515.00
297.3100, 26438.00
298.5210, 26722.00
299.7320, 26620.00
300.9430, 26394.00
302.1540, 26585.00
303.3640, 26712.00
304.5750, 26566.00
305.7850, 26739.00
306.9950, 26978.00
308.2050, 26953.00
309.4140, 27108.00
310.6240, 27271.00
311.8330, 27356.00
313.0420, 27428.00
314.2510, 27697.00
315.4600, 27743.00
316.6680, 27898.00
317.8770, 28388.00
319.0850, 28076.00
320.2930, 28215.00
321.5010, 28620.00
322.7090, 28715.00
323.9160, 28702.00
325.1240, 28894.00
326.3310, 29065.00
327.5380, 29078.00
328.7450, 29363.00
329.9520, 29201.00
331.1580, 29395.00
332.3650, 29451.00
333.5710, 29367.00
334.7770, 29553.09
335.9830, 29608.09
337.1880, 29692.00
338.3940, 29889.00
339.5990, 29815.00
340.8040, 30001.00
342.0090, 30202.00
343.2140, 30040.00
344.4190, 30166.00
345.6230, 30566.00
346.8280, 30415.00
348.0320, 30764.00
349.2360, 30811.00
350.4400, 30955.00
351.6430, 31087.00
352.8470, 31503.00
354.0500, 31540.00
355.2530, 31898.00
356.4560, 32038.00
357.6590, 32406.00
358.8620, 32525.00
360.0640, 32857.00
361.2660, 33014.00
362.4680, 33434.00
363.6700, 33704.00
364.8720, 34137.00
366.0740, 34573.00
367.2750, 34848.00
368.4760, 35097.00
369.6770, 35278.00
370.8780, 35883.00
372.0790, 36249.00
373.2800, 36855.00
374.4800, 37204.00
375.6800, 37304.00
376.8800, 38124.00
378.0800, 38537.00
379.2800, 39194.00
380.4790, 39930.00
381.6790, 40614.00
382.8780, 41124.00
384.0770, 41817.00
385.2760, 42422.00
386.4750, 43674.00
387.6730, 44458.00
388.8720, 45327.00
390.0700, 46042.00
391.2680, 47099.82
392.4660, 48536.00
393.6630, 49347.00
394.8610, 50418.00
396.0580, 51845.00
397.2550, 52536.00
398.4520, 53774.00
399.6490, 54524.00
400.8460, 55011.00
402.0420, 55426.00
403.2390, 55609.43
404.4350, 55571.00
405.6310, 55481.00
406.8270, 55035.00
408.0220, 54524.00
409.2180, 53673.00
410.4130, 52749.00
411.6080, 51892.41
412.8030, 50755.00
413.9980, 49715.00
415.1920, 48845.00
416.3870, 47377.00
417.5810, 46385.00
418.7750, 45448.00
419.9690, 43873.00
421.1630, 43091.00
422.3570, 42244.00
423.5500, 41265.00
424.7430, 40157.00
425.9360, 39278.00
427.1290, 38076.00
428.3220, 37633.00
429.5150, 36582.00
430.7070, 35921.00
431.8990, 35460.00
433.0910, 34972.00
434.2830, 34335.00
435.4750, 33717.00
436.6670, 33400.00
437.8580, 33137.00
439.0490, 32933.00
440.2400, 32307.00
441.4310, 32391.00
442.6220, 32068.00
443.8130, 32157.00
445.0030, 32343.00
446.1930, 32193.00
447.3830, 32538.00
448.5730, 32357.00
449.7630, 32754.00
450.9520, 32935.00
452.1420, 33264.00
453.3310, 33510.00
454.5200, 34013.00
455.7090, 34619.00
456.8980, 34821.00
458.0860, 35595.00
459.2740, 36261.00
460.4630, 36770.00
461.6510, 37150.00
462.8380, 37635.00
464.0260, 38205.00
465.2140, 38782.00
466.4010, 39345.00
467.5880, 39889.00
468.7750, 39890.00
469.9620, 40076.00
471.1490, 40937.00
472.3350, 41043.00
473.5220, 41797.00
474.7080, 42572.00
475.8940, 43287.00
477.0800, 43997.37
478.2650, 44742.30
479.4510, 45345.00
480.6360, 46028.00
481.8210, 46645.00
483.0060, 46918.00
484.1910, 47041.00
485.3760, 46743.00
486.5600, 46030.00
487.7440, 45081.00
488.9290, 44017.00
490.1130, 42658.00
491.2960, 41214.00
492.4800, 40161.00
493.6630, 38972.00
494.8470, 37588.00
496.0300, 36598.00
497.2130, 35599.00
498.3960, 34862.00
499.5780, 34088.00
500.7610, 33576.00
501.9430, 32902.09
503.1250, 32385.00
504.3070, 31885.00
505.4890, 31747.00
506.6710, 31567.00
507.8520, 31234.00
509.0330, 31043.00
510.2140, 31076.00
511.3950, 30834.00
512.5760, 30874.00
513.7570, 30733.00
514.9370, 30755.00
516.1170, 30439.00
517.2980, 30242.00
518.4780, 30353.00
519.6570, 30271.00
520.8370, 30365.00
522.0160, 30284.00
523.1960, 30184.00
524.3750, 30045.00
525.5540, 30370.00
526.7320, 30266.00
527.9110, 30198.00
529.0890, 29974.00
530.2680, 30222.00
531.4460, 29999.00
532.6240, 30022.00
533.8010, 30207.00
534.9790, 30177.00
536.1560, 30109.00
537.3340, 30110.00
538.5110, 30063.00
539.6880, 30117.03
540.8650, 30148.00
542.0410, 30181.00
543.2180, 30231.00
544.3940, 30116.00
545.5700, 30151.00
546.7460, 30263.00
547.9220, 30155.86
549.0970, 30261.00
550.2730, 30121.00
551.4480, 30091.00
552.6230, 30200.00
553.7980, 30292.00
554.9730, 30531.00
556.1470, 30292.00
557.3210, 30391.00
558.4960, 30511.00
559.6700, 30397.00
560.8440, 30431.00
562.0170, 30571.00
563.1910, 30594.00
564.3640, 30601.00
565.5380, 30630.00
566.7110, 30711.00
567.8840, 30701.26
569.0560, 30798.00
570.2290, 30745.00
571.4010, 30824.00
572.5740, 30894.00
573.7460, 30879.00
574.9180, 31019.00
576.0890, 30868.00
577.2610, 31110.00
578.4320, 31081.00
579.6040, 31190.00
580.7750, 31352.00
581.9450, 31304.00
583.1160, 31500.00
584.2870, 31527.00
585.4570, 31532.00
586.6270, 31735.00
587.7980, 31637.00
588.9670, 31629.00
590.1370, 32047.00
591.3070, 32034.00
592.4760, 32230.00
593.6450, 32335.00
594.8140, 32426.00
595.9830, 32848.00
597.1520, 32752.00
598.3210, 33062.00
599.4890, 33238.00
600.6570, 33353.00
601.8250, 33641.00
602.9930, 33785.62
604.1610, 34142.00
605.3290, 34139.00
606.4960, 34393.00
607.6630, 34509.00
608.8300, 34828.00
609.9970, 34858.00
611.1640, 35044.00
612.3300, 35566.00
613.4970, 35958.00
614.6630, 34570.00
615.8290, 34593.00
616.9950, 34813.00
618.1610, 34500.00
619.3260, 34205.00
620.4920, 34251.00
621.6570, 34070.00
622.8220, 33722.00
623.9870, 33631.00
625.1520, 33508.00
626.3160, 33353.00
627.4810, 33387.00
628.6450, 33183.00
629.8090, 33236.00
630.9730, 33100.00
632.1370, 33098.00
633.3000, 32923.00
634.4640, 33095.00
635.6270, 33013.00
636.7900, 32965.00
637.9530, 32894.00
639.1160, 32781.00
640.2780, 32840.00
641.4410, 32879.00
642.6030, 32995.00
643.7650, 32885.00
644.9270, 32970.00
646.0890, 32695.00
647.2500, 33016.00
648.4120, 32913.00
649.5730, 33051.00
650.7340, 32715.00
651.8950, 32838.00
653.0560, 32847.00
654.2160, 32908.00
655.3770, 32816.00
656.5370, 32944.00
657.6970, 32941.00
658.8570, 32814.00
660.0170, 33017.00
661.1760, 32840.00
662.3360, 32814.00
663.4950, 32965.00
664.6540, 32943.00
665.8130, 32868.00
666.9720, 33136.00
668.1310, 32811.00
669.2890, 33126.00
670.4470, 33165.00
671.6050, 33164.00
672.7630, 33253.00
673.9210, 33357.00
675.0790, 33292.00
676.2360, 33283.00
677.3930, 33335.00
678.5510, 33115.00
679.7080, 33393.00
680.8640, 33301.00
682.0210, 33259.00
683.1770, 33398.00
684.3340, 33581.00
685.4900, 33598.00
686.6460, 33661.00
687.8020, 33538.00
688.9570, 33605.00
690.1130, 33738.00
691.2680, 33777.00
692.4230, 33900.00
693.5780, 33751.00
694.7330, 33942.00
695.8880, 33921.00
697.0420, 33926.00
698.1960, 34023.00
699.3510, 33916.00
700.5040, 33944.00
701.6580, 34160.00
702.8120, 34176.00
703.9650, 33882.00
705.1190, 34001.00
706.2720, 34058.00
707.4250, 34092.00
708.5780, 34157.00
709.7300, 34182.00
710.8830, 34258.00
712.0350, 34246.98
713.1870, 34346.00
714.3390, 34360.72
715.4910, 34484.00
716.6430, 34397.00
717.7940, 34408.00
718.9460, 34375.00
720.0970, 34330.00
721.2480, 34397.27
722.3990, 34389.92
723.5500, 34528.00
724.7000, 34510.00
725.8500, 34588.00
727.0010, 34759.00
728.1510, 34653.00
729.3010, 34729.09
730.4500, 35080.00
731.6000, 34694.00
732.7490, 34733.00
733.8980, 34676.00
735.0470, 34901.00
736.1960, 34990.00
737.3450, 34945.00
738.4940, 35107.00
739.6420, 34918.00
740.7900, 35091.00
741.9380, 35213.00
743.0860, 34983.00
744.2340, 35322.00
745.3810, 35156.00
746.5290, 35114.00
747.6760, 35201.00
748.8230, 35183.00
749.9700, 35301.00
751.1170, 35334.43
752.2630, 35377.00
753.4100, 35446.00
754.5560, 35526.00
755.7020, 35586.00
756.8480, 35497.00
757.9940, 35751.00
759.1390, 35630.00
760.2850, 35552.00
761.4300, 35729.00
762.5750, 35763.00
763.7200, 35767.00
764.8650, 36099.00
766.0100, 36027.00
767.1540, 36080.00
768.2980, 36133.00
769.4420, 36111.00
770.5860, 36217.09
771.7300, 36324.00
772.8740, 36396.00
774.0170, 36384.00
775.1610, 36484.00
776.3040, 36389.00
777.4470, 36232.00
778.5900, 36506.00
779.7320, 36564.00
780.8750, 36385.00
782.0170, 36582.00
783.1590, 36399.00
784.3010, 36637.00
785.4430, 36714.00
786.5850, 36545.00
787.7260, 36468.00
788.8680, 36636.00
790.0090, 36245.00
791.1500, 36709.00
792.2910, 36501.00
793.4310, 36615.00
794.5720, 36564.00
795.7120, 36579.00
796.8520, 36681.00
797.9920, 36742.00
799.1320, 36637.00
800.2720, 36615.00
801.4120, 36666.00
802.5510, 36755.00
803.6900, 36437.00
804.8290, 36845.00
805.9680, 36669.00
807.1070, 36919.00
808.2450, 36913.00
809.3840, 36825.00
810.5220, 36726.00
811.6600, 36612.00
812.7980, 36642.00
813.9360, 36937.00
815.0730, 37018.00
816.2110, 37072.00
817.3480, 36829.00
818.4850, 37010.00
819.6220, 37042.00
820.7590, 37008.00
821.8960, 37148.00
823.0320, 37101.00
824.1680, 37185.00
825.3040, 37290.00
826.4400, 37320.00
827.5760, 37259.00
828.7120, 37137.00
829.8470, 37398.00
830.9830, 37357.00
832.1180, 37210.00
833.2530, 37198.00
834.3880, 37439.00
835.5220, 37544.00
836.6570, 37486.00
837.7910, 37454.00
838.9250, 37398.00
840.0590, 37505.00
841.1930, 37587.00
842.3270, 37382.00
843.4600, 37738.00
844.5940, 37797.00
845.7270, 37607.00
846.8600, 37691.00
847.9930, 37689.00
849.1250, 37646.34
850.2580, 37922.00
851.3900, 37643.00
852.5230, 37921.00
853.6550, 37932.00
854.7870, 38106.00
855.9180, 38123.00
857.0500, 38049.00
858.1810, 37891.00
859.3130, 38000.00
860.4440, 38152.00
861.5750, 38237.00
862.7050, 38298.00
863.8360, 38249.00
864.9660, 38314.00
866.0970, 38450.00
867.2270, 38311.00
868.3570, 38546.00
869.4870, 38372.00
870.6160, 38698.00
871.7460, 38503.00
872.8750, 38573.00
874.0040, 38393.00
875.1330, 38659.00
876.2620, 38413.00
877.3910, 38647.00
878.5190, 38759.00
879.6470, 38508.00
880.7760, 38852.00
881.9040, 38786.00
883.0310, 38695.00
884.1590, 38598.00
885.2870, 38589.00
886.4140, 38726.00
887.5410, 38887.00
888.6680, 38983.00
889.7950, 39013.00
890.9220, 38888.00
892.0480, 38990.00
893.1750, 38650.00
894.3010, 38843.00
895.4270, 38794.00
896.5530, 38984.00
897.6790, 38967.41
898.8040, 39385.00
899.9300, 39093.00
901.0550, 39102.00
902.1800, 39455.00
903.3050, 39213.00
904.4300, 39539.00
905.5540, 39248.00
906.6790, 39507.00
907.8030, 39281.00
908.9270, 39587.00
910.0510, 39626.00
911.1750, 39702.00
912.2990, 39861.85
913.4220, 39739.00
914.5450, 40052.00
915.6690, 39813.00
916.7920, 39859.00
917.9140, 39997.00
919.0370, 39760.00
920.1600, 40111.00
921.2820, 39840.00
922.4040, 40201.00
923.5260, 39976.00
924.6480, 40113.00
925.7700, 40306.00
926.8910, 40033.00
928.0130, 40303.00
929.1340, 40179.00
930.2550, 40432.00
931.3760, 40187.00
932.4970, 40407.00
933.6170, 40584.00
934.7380, 40274.00
935.8580, 40586.00
936.9780, 40764.00
938.0980, 40756.00
939.2180, 40448.00
940.3370, 40340.00
941.4570, 40638.00
942.5760, 40667.00
943.6950, 40837.00
944.8140, 40837.00
945.9330, 40908.00
947.0520, 40897.00
948.1700, 40792.00
949.2890, 40815.00
950.4070, 40960.00
951.5250, 41284.00
952.6430, 41141.00
953.7600, 41350.00
954.8780, 41164.00
955.9950, 41511.00
957.1120, 41441.00
958.2290, 41463.00
959.3460, 41420.00
960.4630, 41431.00
961.5800, 41611.00
962.6960, 41407.00
963.8120, 41452.00
964.9280, 41983.00
966.0440, 41634.00
967.1600, 41853.00
968.2760, 41935.00
969.3910, 41906.00
970.5060, 42165.00
971.6210, 42192.00
972.7360, 42047.00
973.8510, 42267.00
974.9660, 42054.00
976.0800, 42298.00
977.1950, 42219.00
978.3090, 42547.00
979.4230, 42315.00
980.5370, 42307.00
981.6500, 42466.00
982.7640, 42603.00
983.8770, 42645.00
984.9900, 42824.00
986.1030, 42717.00
987.2160, 42827.00
988.3290, 43076.00
989.4420, 42780.00
990.5540, 42864.00
991.6660, 42976.00
992.7780, 42984.00
993.8900, 43053.00
995.0020, 43158.00
996.1140, 43244.00
997.2250, 43283.00
998.3360, 43349.00
999.4470, 43173.00
1000.558, 43612.00
1001.669, 43299.00
1002.780, 43613.00
1003.890, 43553.00
1005.001, 43560.00
1006.111, 43804.00
1007.221, 43571.00
1008.331, 43827.00
1009.440, 43919.00
1010.550, 43968.00
1011.659, 43773.00
1012.768, 43989.00
1013.877, 43881.00
1014.986, 44040.00
1016.095, 44010.00
1017.204, 44228.00
1018.312, 44368.00
1019.420, 44210.00
1020.528, 44383.00
1021.636, 44358.00
1022.744, 44464.00
1023.852, 44338.00
1024.959, 44412.00
1026.066, 44462.00
1027.173, 44403.00
1028.280, 44422.00
1029.387, 44620.00
1030.494, 44813.00
1031.600, 44765.00
1032.707, 44867.00
1033.813, 44813.00
1034.919, 44801.00
1036.025, 44902.00
1037.130, 45257.00
1038.236, 44804.00
1039.341, 45013.00
1040.446, 45279.00
1041.552, 45014.00
1042.656, 45002.00
1043.761, 45169.00
1044.866, 45233.00
1045.970, 45331.00
1047.074, 45562.00
1048.179, 45460.00
1049.282, 45684.00
1050.386, 45671.96
1051.490, 45692.00
1052.593, 45616.00
1053.697, 45618.00
1054.800, 45431.00
1055.903, 45731.00
1057.006, 45571.00
1058.108, 45871.00
1059.211, 45472.00
1060.313, 45937.00
1061.415, 45894.00
1062.517, 46026.00
1063.619, 45898.00
1064.721, 46175.00
1065.823, 46167.00
1066.924, 46172.00
1068.025, 46205.00
1069.126, 46518.00
1070.227, 46461.00
1071.328, 46630.00
1072.429, 46593.00
1073.529, 46599.00
1074.629, 46699.00
1075.729, 46570.00
1076.829, 46947.00
1077.929, 46670.00
1079.029, 46908.00
1080.128, 46941.00
1081.228, 47196.00
1082.327, 47256.00
1083.426, 47651.00
1084.525, 47707.00
1085.623, 47619.00
1086.722, 47844.00
1087.820, 47647.00
1088.919, 47655.00
1090.017, 47802.00
1091.115, 48138.00
1092.212, 47927.00
1093.310, 48270.00
1094.407, 48272.00
1095.505, 48356.00
1096.602, 48213.00
1097.699, 48529.00
1098.795, 48578.00
1099.892, 48452.00
1100.989, 48719.00
1102.085, 48718.00
1103.181, 48834.00
1104.277, 48852.00
1105.373, 49053.00
1106.469, 49076.00
1107.564, 49054.00
1108.660, 49151.00
1109.755, 49134.00
1110.850, 49184.00
1111.945, 49553.00
1113.040, 49547.00
1114.134, 49750.00
1115.229, 49546.00
1116.323, 49668.00
1117.417, 49766.00
1118.511, 49938.00
1119.605, 50136.00
1120.698, 50162.00
1121.792, 50426.00
1122.885, 50531.00
1123.978, 50702.00
1125.071, 50157.00
1126.164, 50213.00
1127.257, 50451.00
1128.349, 50243.00
1129.442, 50504.00
1130.534, 50431.00
1131.626, 50240.00
1132.718, 50684.00
1133.810, 50852.00
1134.901, 50707.00
1135.993, 50557.00
1137.084, 50592.00
1138.175, 50607.00
1139.266, 50728.00
1140.357, 50765.90
1141.448, 50835.61
1142.538, 50898.00
1143.628, 50952.00
1144.719, 50985.00
1145.809, 50999.00
1146.898, 50921.00
1147.988, 50670.00
1149.078, 51324.00
1150.167, 50761.00
1151.256, 50906.00
1152.345, 50860.00
1153.434, 51532.00
1154.523, 51127.00
1155.612, 51303.00
1156.700, 50754.00
1157.788, 50866.00
1158.877, 50788.00
1159.964, 50990.00
1161.052, 50969.00
1162.140, 50722.00
1163.227, 50943.00
1164.315, 50879.00
1165.402, 50704.00
1166.489, 50715.00
1167.576, 50790.00
1168.663, 50848.00
1169.749, 50694.00
1170.836, 50958.00
1171.922, 50961.00
1173.008, 50961.00
1174.094, 50771.00
1175.180, 50730.00
1176.265, 50609.00
1177.351, 50745.00
1178.436, 50615.00
1179.521, 50296.00
1180.606, 50997.00
1181.691, 50522.00
1182.776, 50708.00
1183.860, 50675.00
1184.944, 50476.00
1186.029, 50565.00
1187.113, 50300.00
1188.197, 50346.00
1189.280, 50379.00
1190.364, 50167.00
1191.447, 50312.39
1192.531, 50150.00
1193.614, 50592.00
1194.697, 49997.00
1195.779, 50403.00
1196.862, 50273.25
1197.945, 50351.00
1199.027, 50068.00
1200.109, 50375.00
1201.191, 50060.00
1202.273, 50266.00
1203.355, 50063.00
1204.436, 50138.00
1205.518, 50147.00
1206.599, 49993.00
1207.680, 50115.00
1208.761, 50250.00
1209.842, 50164.00
1210.922, 50365.00
1212.003, 50255.00
1213.083, 50317.00
1214.163, 50006.00
1215.243, 50326.00
1216.323, 50546.00
1217.402, 50577.00
1218.482, 50211.00
1219.561, 50339.00
1220.641, 50416.00
1221.720, 50225.00
1222.798, 50306.00
1223.877, 50089.00
1224.956, 50522.00
1226.034, 50494.00
1227.112, 50295.00
1228.191, 50335.00
1229.269, 50314.00
1230.346, 50574.00
1231.424, 50341.00
1232.501, 50595.00
1233.579, 50645.00
1234.656, 50652.00
1235.733, 50924.00
1236.810, 50466.00
1237.886, 50321.00
1238.963, 51083.00
1240.039, 50607.00
1241.116, 50793.00
1242.192, 50782.00
1243.268, 50828.00
1244.343, 50818.00
1245.419, 50700.00
1246.494, 51045.00
1247.570, 51061.00
1248.645, 51100.00
1249.720, 50946.00
1250.795, 51111.00
1251.869, 51006.00
1252.944, 51267.00
1254.018, 51250.00
1255.093, 51158.00
1256.167, 51330.00
1257.240, 51369.00
1258.314, 51258.00
1259.388, 51399.00
1260.461, 51253.00
1261.535, 51215.00
1262.608, 51344.36
1263.681, 51338.00
1264.753, 51425.00
1265.826, 51528.38
1266.899, 51575.00
1267.971, 51675.00
1269.043, 51749.00
1270.115, 51677.00
1271.187, 51873.00
1272.259, 51837.00
1273.330, 51984.00
1274.402, 51738.00
1275.473, 51791.00
1276.544, 51786.74
1277.615, 51820.00
1278.686, 51899.00
1279.756, 51801.00
1280.827, 52063.00
1281.897, 52165.00
1282.967, 51951.00
1284.037, 52443.00
1285.107, 52278.00
1286.177, 52006.00
1287.247, 52109.00
1288.316, 52356.00
1289.385, 52248.00
1290.454, 52565.00
1291.523, 52449.00
1292.592, 52513.00
1293.661, 52573.00
1294.729, 52386.00
1295.797, 52538.00
1296.866, 52553.00
1297.934, 52775.00
1299.001, 52773.00
1300.069, 52690.00
1301.137, 53035.00
1302.204, 52836.00
1303.271, 52827.00
1304.338, 53022.00
1305.405, 52968.00
1306.472, 52943.00
1307.539, 53023.81
1308.605, 53510.00
1309.671, 53110.00
1310.737, 53457.00
1311.803, 53602.00
1312.869, 53247.00
1313.935, 53606.00
1315.000, 53398.00
1316.066, 53787.00
1317.131, 53794.79
1318.196, 53725.00
1319.261, 53832.00
1320.326, 53779.00
1321.390, 53580.00
1322.455, 53740.28
1323.519, 53642.00
1324.583, 53925.00
1325.647, 53856.00
1326.711, 53989.00
1327.775, 53862.00
1328.838, 54055.00
1329.902, 53841.00
1330.965, 54053.00
1332.028, 54157.00
1333.091, 54125.00
1334.153, 54176.00
1335.216, 54211.00
1336.279, 53982.00
1337.341, 54136.00
1338.403, 54469.00
1339.465, 54219.00
1340.527, 54387.00
1341.588, 53898.00
1342.650, 54646.00
1343.711, 54168.00
1344.772, 54431.00
1345.834, 54359.00
1346.894, 54152.00
1347.955, 54457.00
1349.016, 54601.00
1350.076, 54588.00
1351.136, 54376.00
1352.197, 54694.00
1353.257, 54892.00
1354.316, 55009.00
1355.376, 54578.00
1356.436, 54695.00
1357.495, 54701.00
1358.554, 54725.00
1359.613, 54768.00
1360.672, 54781.00
1361.731, 55068.00
1362.789, 55046.00
1363.848, 54982.00
1364.906, 54781.00
1365.964, 55056.00
1367.022, 55159.00
1368.080, 55109.00
1369.138, 54938.00
1370.195, 55019.00
1371.253, 54954.00
1372.310, 55364.00
1373.367, 55172.00
1374.424, 55240.00
1375.480, 55179.00
1376.537, 55151.63
1377.593, 55669.00
1378.650, 55263.00
1379.706, 55295.00
1380.762, 55594.00
1381.818, 55409.00
1382.873, 55487.00
1383.929, 55643.00
1384.984, 55841.00
1386.039, 55604.00
1387.094, 55752.00
1388.149, 55796.00
1389.204, 55978.00
1390.259, 55506.00
1391.313, 55878.00
1392.367, 56114.00
1393.422, 55642.00
1394.476, 56234.00
1395.529, 56011.00
1396.583, 55770.00
