##NAMES=Hubnerite
##RRUFFID=R050139
##IDEAL CHEMISTRY=Mn^2+^W^6+^O_4_
##LOCALITY=Pasto Bueno District, Pallasca Province, Ancash Department, Peru
##OWNER=RRUFF
##SOURCE=Dave Bunk Minerals
##DESCRIPTION=Black tabular crystals associated with quartz
##STATUS=The identification of this mineral has been confirmed by X-ray diffraction and chemical analysis
##URL=rruff.info/R050139
##MEASURED CHEMISTRY=(Mn^2+^_0.79_Fe^2+^_0.20_)W_1.00_O4
##PIN_ID=L00514
##ORIENTATION=Laser parallel to (1 0 1). Fiducial mark perpendicular to laser is parallel to b [0 1 0]
64.78400, 4419.000
66.01700, 4408.000
67.25000, 4291.000
68.48200, 5372.000
69.71500, 4539.000
70.94700, 4930.000
72.17900, 6972.000
73.41100, 6688.000
74.64300, 6432.000
75.87500, 5988.000
77.10700, 6288.000
78.33800, 5823.000
79.57000, 5223.000
80.80100, 5298.000
82.03200, 5555.000
83.26300, 5834.000
84.49400, 6246.000
85.72500, 6389.000
86.95500, 6608.000
88.18600, 6809.000
89.41600, 7401.000
90.64600, 8005.000
91.87600, 8866.000
93.10600, 9509.000
94.33600, 9780.000
95.56600, 10289.00
96.79500, 10779.00
98.02500, 10988.00
99.25400, 11307.00
100.4830, 11707.00
101.7120, 12011.00
102.9410, 12151.00
104.1690, 12468.00
105.3980, 12991.00
106.6260, 13831.00
107.8550, 14667.00
109.0830, 14727.00
110.3110, 14308.00
111.5390, 14250.00
112.7670, 14814.00
113.9940, 15401.00
115.2220, 16354.00
116.4490, 18312.00
117.6760, 20155.00
118.9030, 20636.00
120.1300, 20129.00
121.3570, 27798.00
122.5840, 27961.85
123.8100, 26786.93
125.0370, 25511.13
126.2630, 24142.13
127.4890, 19079.00
128.7150, 18194.00
129.9410, 18398.00
131.1670, 18702.00
132.3920, 19061.00
133.6180, 19153.00
134.8430, 18887.00
136.0680, 18264.00
137.2930, 17138.00
138.5180, 15966.00
139.7430, 15145.00
140.9670, 14531.00
142.1920, 13990.00
143.4160, 13529.51
144.6400, 13226.00
145.8650, 12940.00
147.0890, 13003.00
148.3120, 12958.00
149.5360, 13087.00
150.7590, 12974.00
151.9830, 12851.00
153.2060, 12819.00
154.4290, 12710.00
155.6520, 12510.51
156.8750, 12754.65
158.0980, 12899.07
159.3200, 12949.11
160.5430, 12622.20
161.7650, 12782.05
162.9870, 12746.83
164.2090, 12703.60
165.4310, 12931.98
166.6530, 12659.88
167.8740, 12883.93
169.0960, 12909.93
170.3170, 13026.57
171.5380, 12946.92
172.7590, 13126.00
173.9800, 12968.00
175.2010, 12895.00
176.4220, 13022.00
177.6420, 13116.00
178.8630, 13179.00
180.0830, 13142.00
181.3030, 13149.00
182.5230, 13197.00
183.7430, 13281.00
184.9620, 13336.00
186.1820, 13467.73
187.4010, 13578.00
188.6200, 13744.00
189.8390, 13963.00
191.0580, 14104.00
192.2770, 14299.00
193.4960, 14712.00
194.7140, 15346.00
195.9330, 15972.00
197.1510, 16848.00
198.3690, 17890.00
199.5870, 19195.00
200.8050, 20479.00
202.0230, 21914.00
203.2400, 23461.00
204.4580, 25083.00
205.6750, 26379.00
206.8920, 27653.00
208.1090, 28397.00
209.3260, 29217.00
210.5430, 29630.00
211.7600, 29052.00
212.9760, 28180.00
214.1920, 26430.00
215.4080, 24359.00
216.6240, 22382.00
217.8400, 20444.00
219.0560, 19004.74
220.2720, 17825.00
221.4870, 16729.00
222.7030, 15802.00
223.9180, 15501.00
225.1330, 14836.00
226.3480, 14827.00
227.5630, 14414.00
228.7770, 14157.00
229.9920, 14118.00
231.2060, 13842.00
232.4200, 13797.00
233.6340, 13732.00
234.8480, 13649.00
236.0620, 13595.05
237.2760, 13509.00
238.4890, 13484.00
239.7030, 13445.00
240.9160, 13436.04
242.1290, 13441.00
243.3420, 13351.00
244.5550, 13375.00
245.7670, 13281.00
246.9800, 13156.00
248.1920, 13342.00
249.4040, 13408.00
250.6160, 13618.00
251.8280, 13873.00
253.0400, 13949.00
254.2520, 14132.00
255.4630, 14414.00
256.6750, 14895.00
257.8860, 15171.00
259.0970, 15514.00
260.3080, 15638.00
261.5190, 15935.00
262.7300, 16260.00
263.9400, 16293.00
265.1510, 16347.00
266.3610, 16105.00
267.5710, 15632.00
268.7810, 15425.00
269.9910, 14951.00
271.2000, 14827.00
272.4100, 14567.00
273.6190, 14368.00
274.8290, 14097.00
276.0380, 14219.00
277.2470, 13862.00
278.4560, 13942.00
279.6640, 13779.00
280.8730, 13775.00
282.0810, 13670.00
283.2900, 13776.00
284.4980, 13586.00
285.7060, 13500.95
286.9130, 13763.63
288.1210, 13926.62
289.3290, 13995.25
290.5360, 13686.87
291.7430, 13865.29
292.9510, 13848.64
294.1570, 13823.95
295.3640, 14070.87
296.5710, 13817.33
297.7780, 14059.95
298.9840, 14104.48
300.1900, 14239.65
301.3960, 14178.54
302.6020, 14139.00
303.8080, 14223.00
305.0140, 14416.00
306.2190, 14427.00
307.4250, 14606.00
308.6300, 14909.00
309.8350, 15003.00
311.0400, 15315.00
312.2450, 15565.00
313.4500, 16026.03
314.6540, 16542.00
315.8590, 17191.00
317.0630, 17888.00
318.2670, 18711.00
319.4710, 19801.00
320.6750, 20427.00
321.8780, 21469.00
323.0820, 22511.00
324.2850, 23349.00
325.4890, 23848.00
326.6920, 24366.00
327.8950, 24680.00
329.0970, 24615.00
330.3000, 24358.00
331.5030, 23559.00
332.7050, 22671.00
333.9070, 21592.00
335.1090, 20442.00
336.3110, 19846.00
337.5130, 19295.00
338.7150, 18071.00
339.9160, 17515.00
341.1180, 16876.00
342.3190, 16628.00
343.5200, 16112.00
344.7210, 15917.00
345.9220, 15589.00
347.1220, 15503.00
348.3230, 15360.00
349.5230, 15207.00
350.7230, 15067.00
351.9230, 15027.16
353.1230, 14968.00
354.3230, 14960.00
355.5230, 14882.00
356.7220, 14803.00
357.9220, 14760.00
359.1210, 14724.83
360.3200, 14713.83
361.5190, 14659.00
362.7170, 14710.00
363.9160, 14613.00
365.1150, 14560.00
366.3130, 14631.00
367.5110, 14544.95
368.7090, 14695.00
369.9070, 14441.00
371.1050, 14329.99
372.3020, 14175.62
373.5000, 14237.00
374.6970, 14057.00
375.8940, 14199.00
377.0910, 13929.00
378.2880, 13959.00
379.4850, 13936.00
380.6810, 14018.00
381.8780, 13956.00
383.0740, 13956.00
384.2700, 13869.00
385.4660, 13976.00
386.6620, 13955.00
387.8580, 13969.00
389.0530, 13878.00
390.2490, 13664.00
391.4440, 13940.00
392.6390, 13891.00
393.8340, 13931.32
395.0290, 14139.00
396.2230, 14030.00
397.4180, 14104.00
398.6120, 14137.00
399.8060, 14143.00
401.0000, 14228.00
402.1940, 14240.00
403.3880, 14153.00
404.5820, 14153.00
405.7750, 14313.00
406.9690, 14118.00
408.1620, 14238.00
409.3550, 14093.00
410.5480, 14049.00
411.7400, 14117.00
412.9330, 14083.00
414.1260, 14159.00
415.3180, 14164.00
416.5100, 14099.00
417.7020, 14256.00
418.8940, 14074.00
420.0860, 14260.00
421.2770, 14148.00
422.4690, 14094.00
423.6600, 14308.00
424.8510, 14262.00
426.0420, 14363.00
427.2330, 14326.00
428.4230, 14273.00
429.6140, 14366.00
430.8040, 14412.00
431.9950, 14438.00
433.1850, 14502.55
434.3750, 14645.00
435.5640, 14600.00
436.7540, 14707.00
437.9440, 14782.00
439.1330, 14747.00
440.3220, 14843.00
441.5110, 14868.14
442.7000, 14958.27
443.8890, 14988.00
445.0770, 15131.00
446.2660, 15265.00
447.4540, 15266.00
448.6420, 15343.70
449.8300, 15389.77
451.0180, 15371.00
452.2060, 15443.00
453.3930, 15441.00
454.5810, 15425.00
455.7680, 15468.00
456.9550, 15308.00
458.1420, 15253.00
459.3290, 15240.87
460.5160, 15239.00
461.7020, 15164.00
462.8890, 15259.00
464.0750, 15161.00
465.2610, 15104.00
466.4470, 15192.00
467.6330, 15238.00
468.8180, 15277.00
470.0040, 15227.00
471.1890, 15213.00
472.3740, 15106.00
473.5590, 15177.00
474.7440, 15156.00
475.9290, 15283.00
477.1130, 15312.00
478.2980, 15220.00
479.4820, 15052.00
480.6660, 15356.00
481.8500, 15202.00
483.0340, 15144.00
484.2180, 15321.00
485.4010, 15205.17
486.5850, 15572.00
487.7680, 15269.00
488.9510, 15271.00
490.1340, 15458.00
491.3170, 15246.00
492.4990, 15321.00
493.6820, 15304.00
494.8640, 15323.00
496.0460, 15328.00
497.2280, 15372.00
498.4100, 15411.00
499.5920, 15238.00
500.7730, 15364.00
501.9550, 15347.00
503.1360, 15434.51
504.3170, 15542.00
505.4980, 15575.00
506.6790, 15646.00
507.8600, 15458.00
509.0400, 15613.00
510.2200, 15597.00
511.4010, 15476.00
512.5810, 15623.00
513.7610, 15463.00
514.9400, 15426.00
516.1200, 15522.49
517.3000, 15498.46
518.4790, 15596.00
519.6580, 15654.00
520.8370, 15538.00
522.0160, 15642.00
523.1950, 15561.00
524.3730, 15920.00
525.5510, 15708.93
526.7300, 15932.00
527.9080, 15458.00
529.0860, 15576.00
530.2640, 15475.00
531.4410, 15553.00
532.6190, 15629.00
533.7960, 15585.00
534.9730, 15718.00
536.1500, 15540.00
537.3270, 15498.00
538.5040, 15561.00
539.6800, 15400.00
540.8570, 15572.00
542.0330, 15416.00
543.2090, 15577.00
544.3850, 15724.00
545.5610, 15721.00
546.7370, 15682.00
547.9120, 15701.00
549.0880, 15680.39
550.2630, 15635.00
551.4380, 15714.00
552.6130, 15616.00
553.7880, 15735.00
554.9620, 15778.00
556.1370, 15552.00
557.3110, 16016.00
558.4850, 15617.00
559.6590, 15546.00
560.8330, 15691.00
562.0070, 15832.00
563.1800, 15758.00
564.3530, 15665.00
565.5270, 15761.00
566.7000, 15607.00
567.8730, 15704.00
569.0450, 15847.00
570.2180, 15749.00
571.3910, 15662.00
572.5630, 15847.00
573.7350, 15733.00
574.9070, 15676.00
576.0790, 15727.00
577.2510, 15490.00
578.4220, 15478.00
579.5940, 15457.00
580.7650, 15477.00
581.9360, 15410.00
583.1070, 15375.00
584.2780, 15378.00
585.4480, 15262.00
586.6190, 15281.00
587.7890, 15138.00
588.9590, 15264.00
590.1290, 15139.00
591.2990, 15108.00
592.4690, 15176.00
593.6380, 15219.00
594.8080, 15244.54
595.9770, 15292.59
597.1460, 15393.00
598.3150, 15342.00
599.4840, 15538.00
600.6520, 15537.00
601.8210, 15547.00
602.9890, 15478.00
604.1570, 15481.00
605.3250, 15661.00
606.4930, 15679.00
607.6610, 15740.00
608.8280, 15823.00
609.9960, 15906.00
611.1630, 16010.00
612.3300, 15813.00
613.4970, 15968.00
614.6640, 15986.00
615.8300, 16190.00
616.9970, 16303.00
618.1630, 16260.08
619.3290, 16419.00
620.4950, 16428.00
621.6610, 16422.28
622.8270, 16448.38
623.9920, 16423.59
625.1580, 16401.00
626.3230, 16290.09
627.4880, 16553.24
628.6530, 16716.67
629.8180, 16785.74
630.9820, 16477.80
632.1470, 16656.68
633.3110, 16640.45
634.4750, 16616.22
635.6390, 16863.58
636.8030, 16610.47
637.9670, 16853.53
639.1300, 16898.50
640.2940, 17034.14
641.4570, 16973.47
642.6200, 16973.42
643.7830, 17169.73
644.9460, 17257.31
646.1080, 17174.01
647.2710, 17315.39
648.4330, 17034.00
649.5950, 17245.00
650.7570, 17265.00
651.9190, 17360.89
653.0800, 17545.00
654.2420, 17601.00
655.4030, 17564.00
656.5650, 17741.00
657.7260, 17824.00
658.8860, 18134.00
660.0470, 18204.00
661.2080, 18568.00
662.3680, 18669.47
663.5280, 18842.80
664.6880, 18929.00
665.8480, 19187.00
667.0080, 19308.00
668.1680, 19572.00
669.3270, 20158.00
670.4870, 20570.00
671.6460, 20789.00
672.8050, 21044.00
673.9640, 21718.00
675.1220, 22083.00
676.2810, 22576.00
677.4390, 22900.00
678.5970, 23662.00
679.7560, 24345.00
680.9130, 24975.00
682.0710, 25894.00
683.2290, 27440.00
684.3860, 29061.00
685.5430, 30076.00
686.7010, 31453.00
687.8580, 32964.00
689.0140, 34761.00
690.1710, 37020.00
691.3280, 39565.00
692.4840, 41465.00
693.6400, 44036.00
694.7960, 46242.00
695.9520, 48502.00
697.1080, 50478.00
698.2630, 51738.00
699.4190, 52729.00
700.5740, 52791.00
701.7290, 52238.00
702.8840, 51043.00
704.0390, 50033.00
705.1930, 47925.01
706.3480, 45853.00
707.5020, 43033.00
708.6560, 40291.00
709.8100, 37484.00
710.9640, 35250.00
712.1180, 33390.00
713.2710, 31613.00
714.4240, 30021.00
715.5780, 28755.00
716.7310, 27731.00
717.8840, 26415.00
719.0360, 25506.00
720.1890, 25009.00
721.3410, 24213.00
722.4940, 23690.91
723.6460, 23254.00
724.7980, 22689.00
725.9490, 22347.00
727.1010, 21849.00
728.2520, 21550.00
729.4040, 21207.00
730.5550, 20911.00
731.7060, 20594.00
732.8570, 20444.00
734.0070, 20202.00
735.1580, 19989.00
736.3080, 19818.00
737.4580, 19545.00
738.6080, 19433.00
739.7580, 19142.00
740.9080, 19196.00
742.0580, 19187.00
743.2070, 18999.00
744.3560, 18684.00
745.5050, 18614.00
746.6540, 18575.00
747.8030, 18392.00
748.9520, 18506.00
750.1000, 18440.00
751.2480, 18328.00
752.3960, 18135.00
753.5440, 18367.00
754.6920, 18146.00
755.8400, 18203.00
756.9870, 18245.00
758.1350, 18231.00
759.2820, 18209.00
760.4290, 18185.00
761.5760, 18238.00
762.7220, 18286.00
763.8690, 18255.00
765.0150, 18463.00
766.1620, 18391.00
767.3080, 18600.00
768.4530, 18639.00
769.5990, 18493.00
770.7450, 18697.00
771.8900, 18679.00
773.0350, 18836.00
774.1810, 18807.00
775.3260, 18758.00
776.4700, 18952.00
777.6150, 18766.00
778.7590, 18847.00
779.9040, 18617.00
781.0480, 18766.00
782.1920, 18676.00
783.3360, 18525.00
784.4790, 18930.00
785.6230, 18772.00
786.7660, 18719.00
787.9090, 18655.00
789.0520, 18745.00
790.1950, 18625.00
791.3380, 18718.00
792.4800, 18643.00
793.6230, 18640.93
794.7650, 18684.00
795.9070, 18636.00
797.0490, 18565.00
798.1910, 18569.00
799.3320, 18576.00
800.4740, 18533.00
801.6150, 18539.00
802.7560, 18475.00
803.8970, 18336.00
805.0380, 18319.00
806.1790, 18304.35
807.3190, 18365.00
808.4590, 18374.00
809.5990, 18372.00
810.7390, 18463.00
811.8790, 18419.00
813.0190, 18488.00
814.1580, 18431.00
815.2980, 18585.00
816.4370, 18507.00
817.5760, 18531.00
818.7150, 18473.00
819.8530, 18512.00
820.9920, 18434.00
822.1300, 18522.00
823.2690, 18596.00
824.4070, 18656.00
825.5450, 18640.00
826.6820, 18714.00
827.8200, 18499.00
828.9570, 18684.00
830.0940, 18640.84
831.2320, 18774.00
832.3680, 18769.00
833.5050, 18730.00
834.6420, 18933.00
835.7780, 18908.00
836.9150, 19053.00
838.0510, 19321.00
839.1870, 19160.00
840.3220, 19158.00
841.4580, 19493.00
842.5930, 19556.00
843.7290, 19712.00
844.8640, 19843.00
845.9990, 19949.00
847.1340, 20333.50
848.2680, 20676.00
849.4030, 21024.00
850.5370, 21210.00
851.6710, 21307.00
852.8050, 21711.00
853.9390, 22359.00
855.0730, 23042.00
856.2060, 23346.00
857.3400, 23851.00
858.4730, 24509.00
859.6060, 25190.74
860.7390, 26085.00
861.8720, 26987.00
863.0040, 28117.00
864.1370, 29342.12
865.2690, 30648.61
866.4010, 32123.00
867.5330, 33978.00
868.6650, 35811.00
869.7960, 38471.00
870.9280, 41496.00
872.0590, 45057.00
873.1900, 49619.00
874.3210, 55294.00
875.4520, 62405.00
876.5820, 70353.00
877.7130, 80478.00
878.8430, 90855.00
879.9730, 103285.0
881.1030, 115332.0
882.2330, 126754.0
883.3620, 137704.0
884.4920, 143017.0
885.6210, 142647.0
886.7500, 139572.0
887.8790, 131718.0
889.0080, 119330.0
890.1370, 106306.0
891.2650, 91784.00
892.3930, 80275.00
893.5220, 69682.00
894.6500, 60882.00
895.7770, 52838.34
896.9050, 45454.00
898.0330, 40702.00
899.1600, 36509.00
900.2870, 33586.00
901.4140, 31113.00
902.5410, 29056.00
903.6680, 27309.00
904.7940, 26015.00
905.9210, 24889.00
907.0470, 24097.00
908.1730, 23153.00
909.2990, 22560.00
910.4240, 22005.00
911.5500, 21407.00
912.6750, 21083.00
913.8010, 20636.00
914.9260, 20420.00
916.0510, 20128.00
917.1750, 19711.00
918.3000, 19607.00
919.4240, 19207.00
920.5480, 18892.00
921.6730, 18969.00
922.7960, 18904.00
923.9200, 18649.00
925.0440, 18746.00
926.1670, 18562.00
927.2900, 18285.00
928.4140, 18087.00
929.5360, 18308.00
930.6590, 18129.00
931.7820, 18077.00
932.9040, 17939.00
934.0270, 18058.00
935.1490, 17914.00
936.2710, 17901.00
937.3920, 17846.00
938.5140, 17685.00
939.6350, 17904.00
940.7570, 17815.00
941.8780, 17742.00
942.9990, 17579.00
944.1200, 17720.00
945.2400, 17723.00
946.3610, 17509.00
947.4810, 17531.00
948.6010, 17480.00
949.7210, 17481.73
950.8410, 17471.11
951.9600, 17499.00
953.0800, 17527.00
954.1990, 17353.00
955.3180, 17531.00
956.4370, 17611.00
957.5560, 17465.00
958.6750, 17251.00
959.7930, 17478.00
960.9120, 17323.00
962.0300, 17402.00
963.1480, 17166.00
964.2650, 17313.00
965.3830, 17149.00
966.5010, 17049.00
967.6180, 17120.00
968.7350, 17184.00
969.8520, 16809.00
970.9690, 16973.00
972.0860, 16877.00
973.2020, 16975.00
974.3180, 17009.00
975.4350, 17060.00
976.5510, 16829.00
977.6660, 16875.21
978.7820, 17069.00
979.8980, 16757.00
981.0130, 16916.00
982.1280, 16849.00
983.2430, 16825.00
984.3580, 16802.00
985.4730, 16756.00
986.5870, 16831.00
987.7010, 16808.00
988.8160, 16629.00
989.9300, 16785.00
991.0440, 16707.00
992.1570, 16959.00
993.2710, 16865.00
994.3840, 17323.00
995.4970, 17072.80
996.6100, 17012.17
997.7230, 16855.00
998.8360, 16603.00
999.9480, 16797.00
1001.061, 16625.00
1002.173, 16594.00
1003.285, 16804.00
1004.397, 16639.00
1005.508, 16840.00
1006.620, 16617.00
1007.731, 16850.00
1008.843, 16769.53
1009.954, 16536.00
1011.064, 16731.00
1012.175, 16599.00
1013.286, 16639.00
1014.396, 16624.00
1015.506, 16589.00
1016.616, 16712.00
1017.726, 16829.00
1018.836, 16693.00
1019.945, 16777.00
1021.055, 16790.00
1022.164, 17106.00
1023.273, 16662.00
1024.382, 16749.00
1025.490, 17285.00
1026.599, 16656.00
1027.707, 16732.00
1028.815, 16812.34
1029.923, 16771.00
1031.031, 16826.00
1032.139, 16948.00
1033.247, 16808.00
1034.354, 16669.00
1035.461, 16589.00
1036.568, 16887.00
1037.675, 16913.00
1038.782, 16800.00
1039.888, 16738.00
1040.994, 16715.00
1042.101, 16823.00
1043.207, 16747.00
1044.313, 16702.00
1045.418, 16786.00
1046.524, 16624.00
1047.629, 16793.00
1048.734, 16746.00
1049.839, 16954.00
1050.944, 16708.00
1052.049, 16907.00
1053.153, 16890.16
1054.258, 16861.00
1055.362, 16945.00
1056.466, 16940.00
1057.570, 16973.00
1058.673, 16689.99
1059.777, 16917.66
1060.880, 17045.62
1061.983, 17079.21
1063.086, 16735.83
1064.189, 16879.23
1065.292, 16827.56
1066.394, 16767.88
1067.497, 16979.80
1068.599, 16691.25
1069.701, 16898.86
1070.803, 16908.41
1071.904, 17008.61
1073.006, 16912.53
1074.107, 16877.06
1075.208, 17037.95
1076.309, 17090.12
1077.410, 16971.44
1078.511, 17077.40
1079.611, 16781.99
1080.712, 16838.79
1081.812, 17047.55
1082.912, 16938.74
1084.011, 17048.29
1085.111, 17074.67
1086.211, 16723.11
1087.310, 17028.84
1088.409, 17050.30
1089.508, 16779.90
1090.607, 17063.11
1091.705, 16832.95
1092.804, 16786.03
1093.902, 16877.01
1095.000, 16824.23
1096.098, 16998.10
1097.196, 16953.63
1098.294, 16889.64
1099.391, 16910.79
1100.488, 16853.43
1101.585, 16918.17
1102.682, 16839.91
1103.779, 16913.62
1104.876, 17021.78
1105.972, 16866.19
1107.068, 16989.82
1108.165, 16680.44
1109.260, 16733.38
1110.356, 16747.30
1111.452, 16992.82
1112.547, 16685.54
1113.643, 16728.42
1114.738, 16920.38
1115.832, 16903.73
1116.927, 16974.30
1118.022, 16786.67
1119.116, 16841.60
1120.210, 16829.67
1121.305, 17048.78
1122.398, 17085.50
1123.492, 16902.25
1124.586, 16719.93
1125.679, 16955.66
1126.772, 16795.16
1127.865, 16848.43
1128.958, 16680.92
1130.051, 16704.03
1131.143, 16724.12
1132.236, 16841.93
1133.328, 16821.97
1134.420, 16869.29
1135.512, 16853.00
1136.604, 16902.14
1137.695, 16944.01
1138.786, 16687.78
1139.878, 16706.00
1140.969, 16737.00
1142.060, 16642.00
1143.150, 16661.00
1144.241, 16634.79
1145.331, 16654.53
1146.421, 16626.00
1147.511, 16693.00
1148.601, 16751.00
1149.691, 16678.00
1150.780, 16608.00
1151.869, 16685.00
1152.959, 16629.00
1154.048, 16680.00
1155.136, 16640.00
1156.225, 16644.00
1157.313, 16703.00
1158.402, 16543.00
1159.490, 16571.00
1160.578, 16746.00
1161.666, 16590.17
1162.753, 16645.13
1163.841, 16577.00
1164.928, 16517.00
1166.015, 16748.00
1167.102, 16576.00
1168.189, 16696.00
1169.275, 16715.00
1170.362, 16649.86
1171.448, 16874.27
1172.534, 16998.96
1173.620, 17029.29
1174.706, 16682.65
1175.791, 16822.79
1176.877, 16767.85
1177.962, 16704.92
1179.047, 16913.58
1180.132, 16621.76
1181.216, 16826.12
1182.301, 16832.41
1183.385, 16929.35
1184.470, 16830.01
1185.554, 16791.29
1186.637, 16948.92
1187.721, 16997.84
1188.805, 16875.89
1189.888, 16978.60
1190.971, 16679.94
1192.054, 16733.48
1193.137, 16938.99
1194.220, 16826.92
1195.302, 16933.22
1196.384, 16956.36
1197.467, 16601.53
1198.549, 16904.01
1199.630, 16922.23
1200.712, 16648.58
1201.793, 16928.54
1202.875, 16695.13
1203.956, 16644.96
1205.037, 16732.69
1206.118, 16676.66
1207.198, 16847.29
1208.279, 16799.57
1209.359, 16732.34
1210.439, 16750.24
1211.519, 16689.63
1212.599, 16751.12
1213.678, 16669.63
1214.758, 16740.09
1215.837, 16845.01
1216.916, 16686.18
1217.995, 16806.57
1219.073, 16493.95
1220.152, 16543.64
1221.230, 16554.33
1222.308, 16796.60
1223.387, 16486.09
1224.464, 16525.73
1225.542, 16714.45
1226.620, 16694.56
1227.697, 16761.89
1228.774, 16571.03
1229.851, 16622.72
1230.928, 16607.56
1232.005, 16823.43
1233.081, 16856.91
1234.157, 16670.43
1235.233, 16484.88
1236.309, 16717.38
1237.385, 16553.64
1238.461, 16603.68
1239.536, 16432.94
1240.611, 16452.82
1241.687, 16469.68
1242.762, 16584.25
1243.836, 16561.07
1244.911, 16605.15
1245.985, 16585.64
1247.059, 16631.56
