##NAMES=Hubnerite
##RRUFFID=R050139
##IDEAL CHEMISTRY=Mn^2+^W^6+^O_4_
##LOCALITY=Pasto Bueno District, Pallasca Province, Ancash Department, Peru
##OWNER=RRUFF
##SOURCE=Dave Bunk Minerals
##DESCRIPTION=Black tabular crystals associated with quartz
##STATUS=The identification of this mineral has been confirmed by X-ray diffraction and chemical analysis
##URL=rruff.info/R050139
##MEASURED CHEMISTRY=(Mn^2+^_0.79_Fe^2+^_0.20_)W_1.00_O4
##PIN_ID=L00514
##ORIENTATION=Laser parallel to (1 0 1). Fiducial mark perpendicular to laser is parallel to b [0 1 0]
64.78400, 3508.000
66.01700, 3497.000
67.25000, 3384.000
68.48200, 3484.000
69.71500, 3501.000
70.94700, 3584.000
72.17900, 3523.000
73.41100, 3808.000
74.64300, 3807.000
75.87500, 4053.000
77.10700, 4292.000
78.33800, 4646.000
79.57000, 4865.000
80.80100, 5112.000
82.03200, 5377.000
83.26300, 5814.000
84.49400, 6190.222
85.72500, 6691.000
86.95500, 7180.000
88.18600, 7693.000
89.41600, 8342.000
90.64600, 9127.000
91.87600, 9953.000
93.10600, 10480.00
94.33600, 10876.00
95.56600, 11280.00
96.79500, 11604.00
98.02500, 11973.00
99.25400, 12205.00
100.4830, 12483.00
101.7120, 13396.00
102.9410, 13508.01
104.1690, 14125.01
105.3980, 14256.00
106.6260, 15084.00
107.8550, 15639.00
109.0830, 16058.00
110.3110, 15474.00
111.5390, 15891.00
112.7670, 17055.00
113.9940, 18189.00
115.2220, 19917.00
116.4490, 21635.00
117.6760, 22289.00
118.9030, 22811.00
120.1300, 24960.00
121.3570, 28906.00
122.5840, 32251.00
123.8100, 33941.00
125.0370, 37035.00
126.2630, 40214.00
127.4890, 43525.00
128.7150, 46026.00
129.9410, 48899.00
131.1670, 51680.00
132.3920, 53485.00
133.6180, 53828.00
134.8430, 52184.00
136.0680, 46312.00
137.2930, 38148.00
138.5180, 30077.00
139.7430, 23814.00
140.9670, 20160.00
142.1920, 17651.00
143.4160, 15927.00
144.6400, 14878.00
145.8650, 14202.00
147.0890, 13931.00
148.3120, 13575.00
149.5360, 13404.00
150.7590, 13341.00
151.9830, 13149.00
153.2060, 13108.00
154.4290, 13101.00
155.6520, 13019.14
156.8750, 12996.70
158.0980, 12970.00
159.3200, 12917.00
160.5430, 12888.00
161.7650, 12853.00
162.9870, 12840.66
164.2090, 12897.44
165.4310, 12882.00
166.6530, 13017.00
167.8740, 13157.00
169.0960, 13158.00
170.3170, 13157.00
171.5380, 13083.00
172.7590, 13150.00
173.9800, 13166.00
175.2010, 13065.00
176.4220, 13169.00
177.6420, 13188.00
178.8630, 13284.00
180.0830, 13193.00
181.3030, 13143.00
182.5230, 13460.00
183.7430, 13619.00
184.9620, 13469.00
186.1820, 13657.00
187.4010, 13796.00
188.6200, 13955.00
189.8390, 14130.85
191.0580, 14324.04
192.2770, 14491.00
193.4960, 14827.74
194.7140, 15058.08
195.9330, 15489.00
197.1510, 15956.00
198.3690, 16664.65
199.5870, 17468.17
200.8050, 18379.00
202.0230, 19379.00
203.2400, 20393.00
204.4580, 21259.00
205.6750, 22115.00
206.8920, 22778.00
208.1090, 23546.00
209.3260, 23767.00
210.5430, 23979.00
211.7600, 23551.00
212.9760, 22502.29
214.1920, 21280.00
215.4080, 19811.00
216.6240, 18409.00
217.8400, 17506.00
219.0560, 16572.00
220.2720, 15974.00
221.4870, 15166.00
222.7030, 14890.00
223.9180, 14578.00
225.1330, 14287.00
226.3480, 14085.00
227.5630, 14054.00
228.7770, 13794.38
229.9920, 13826.00
231.2060, 13533.00
232.4200, 13636.00
233.6340, 13714.00
234.8480, 13625.00
236.0620, 13696.00
237.2760, 13632.00
238.4890, 13539.00
239.7030, 13440.00
240.9160, 13469.00
242.1290, 13632.00
243.3420, 13701.00
244.5550, 13631.47
245.7670, 13408.00
246.9800, 13446.00
248.1920, 13457.00
249.4040, 13357.00
250.6160, 13486.00
251.8280, 13658.00
253.0400, 13723.00
254.2520, 13915.02
255.4630, 13849.00
256.6750, 14190.00
257.8860, 14285.00
259.0970, 14280.00
260.3080, 14167.00
261.5190, 14497.00
262.7300, 14627.00
263.9400, 14373.00
265.1510, 14660.00
266.3610, 14590.00
267.5710, 14603.00
268.7810, 14604.00
269.9910, 14542.84
271.2000, 14585.00
272.4100, 14117.74
273.6190, 14548.11
274.8290, 14779.01
276.0380, 14821.22
277.2470, 14109.47
278.4560, 14371.30
279.6640, 14242.98
280.8730, 14098.64
282.0810, 14497.52
283.2900, 13895.43
284.4980, 14285.69
285.7060, 14279.84
286.9130, 14455.29
288.1210, 14238.15
289.3290, 14079.00
290.5360, 14351.00
291.7430, 14321.00
292.9510, 14475.00
294.1570, 14540.71
295.3640, 14545.00
296.5710, 14613.00
297.7780, 14716.00
298.9840, 14718.00
300.1900, 14896.00
301.3960, 15180.00
302.6020, 14971.00
303.8080, 15258.00
305.0140, 15331.00
306.2190, 15753.00
307.4250, 15963.00
308.6300, 16167.00
309.8350, 16643.00
311.0400, 17099.00
312.2450, 17534.00
313.4500, 18389.00
314.6540, 19159.00
315.8590, 20044.00
317.0630, 21183.00
318.2670, 22806.00
319.4710, 24171.00
320.6750, 25515.00
321.8780, 27000.00
323.0820, 28191.00
324.2850, 29571.00
325.4890, 30319.00
326.6920, 31168.00
327.8950, 31200.64
329.0970, 31144.00
330.3000, 30141.00
331.5030, 29161.00
332.7050, 27289.00
333.9070, 25791.00
335.1090, 24466.00
336.3110, 22915.00
337.5130, 21824.00
338.7150, 20903.00
339.9160, 19890.00
341.1180, 19158.00
342.3190, 18655.00
343.5200, 18031.27
344.7210, 17609.18
345.9220, 17276.00
347.1220, 16980.00
348.3230, 16725.17
349.5230, 16570.67
350.7230, 16381.00
351.9230, 16382.00
353.1230, 16353.00
354.3230, 16328.00
355.5230, 16260.00
356.7220, 16361.00
357.9220, 16087.00
359.1210, 16328.00
360.3200, 16220.00
361.5190, 16093.00
362.7170, 16128.00
363.9160, 16118.00
365.1150, 16133.00
366.3130, 16134.00
367.5110, 16312.00
368.7090, 16195.10
369.9070, 16286.00
371.1050, 16124.00
372.3020, 16015.00
373.5000, 16128.00
374.6970, 16174.00
375.8940, 16186.00
377.0910, 16358.00
378.2880, 16211.00
379.4850, 16596.00
380.6810, 16601.00
381.8780, 16765.58
383.0740, 17077.93
384.2700, 17365.00
385.4660, 17946.00
386.6620, 18821.00
387.8580, 19949.00
389.0530, 21254.00
390.2490, 23002.00
391.4440, 24554.00
392.6390, 26537.00
393.8340, 28336.00
395.0290, 30145.00
396.2230, 31709.00
397.4180, 32748.00
398.6120, 33216.00
399.8060, 33258.00
401.0000, 31971.00
402.1940, 29814.00
403.3880, 27374.00
404.5820, 25016.00
405.7750, 22802.00
406.9690, 20900.00
408.1620, 19642.00
409.3550, 18717.00
410.5480, 18044.00
411.7400, 17681.00
412.9330, 17154.00
414.1260, 16945.00
415.3180, 16582.00
416.5100, 16480.00
417.7020, 16303.00
418.8940, 16179.00
420.0860, 16256.00
421.2770, 15984.00
422.4690, 15958.00
423.6600, 15715.00
424.8510, 15846.00
426.0420, 15683.00
427.2330, 15606.18
428.4230, 15598.00
429.6140, 15435.00
430.8040, 15401.00
431.9950, 15327.00
433.1850, 15416.00
434.3750, 15428.00
435.5640, 15432.00
436.7540, 15440.00
437.9440, 15455.79
439.1330, 15499.46
440.3220, 15488.00
441.5110, 15476.00
442.7000, 15489.75
443.8890, 15639.00
445.0770, 15556.00
446.2660, 15651.00
447.4540, 15720.00
448.6420, 15657.00
449.8300, 15619.00
451.0180, 15702.00
452.2060, 15731.00
453.3930, 15766.89
454.5810, 15687.00
455.7680, 15860.00
456.9550, 15690.00
458.1420, 15396.75
459.3290, 15756.75
460.5160, 15954.58
461.7020, 15999.15
462.8890, 15419.43
464.0750, 15655.04
465.2610, 15569.52
466.4470, 15474.68
467.6330, 15836.50
468.8180, 15368.19
470.0040, 15730.85
471.1890, 15767.39
472.3740, 15959.01
473.5590, 15827.48
474.7440, 15801.00
475.9290, 16105.77
477.1130, 16233.30
478.2980, 16080.12
479.4820, 16305.29
480.6660, 15865.51
481.8500, 16016.74
483.0340, 16425.23
484.2180, 16308.42
485.4010, 16559.49
486.5850, 16676.00
487.7680, 16166.51
488.9510, 16756.51
490.1340, 16876.73
491.3170, 16500.97
492.4990, 16552.00
493.6820, 16516.00
494.8640, 16681.00
496.0460, 16758.00
497.2280, 16721.00
498.4100, 16777.00
499.5920, 16886.00
500.7730, 16944.00
501.9550, 17096.00
503.1360, 17127.00
504.3170, 17417.00
505.4980, 17264.00
506.6790, 17604.00
507.8600, 17655.00
509.0400, 17693.00
510.2200, 17637.00
511.4010, 17815.00
512.5810, 17943.00
513.7610, 18128.00
514.9400, 18355.00
516.1200, 18437.00
517.3000, 18523.00
518.4790, 18724.00
519.6580, 18951.00
520.8370, 19112.00
522.0160, 19391.00
523.1950, 19663.00
524.3730, 20117.00
525.5510, 20418.00
526.7300, 21032.00
527.9080, 21685.00
529.0860, 22236.00
530.2640, 22822.00
531.4410, 23751.00
532.6190, 24468.00
533.7960, 25533.00
534.9730, 26566.00
536.1500, 27668.00
537.3270, 28697.00
538.5040, 29672.00
539.6800, 30947.00
540.8570, 31784.00
542.0330, 32531.00
543.2090, 33511.00
544.3850, 33510.00
545.5610, 33551.00
546.7370, 33053.00
547.9120, 32764.00
549.0880, 31956.00
550.2630, 31045.00
551.4380, 30053.00
552.6130, 28764.00
553.7880, 27587.00
554.9620, 26508.00
556.1370, 25393.38
557.3110, 24059.00
558.4850, 23367.00
559.6590, 22463.00
560.8330, 21546.00
562.0070, 21106.00
563.1800, 20507.00
564.3530, 20159.00
565.5270, 19820.00
566.7000, 19474.00
567.8730, 18883.00
569.0450, 18443.00
570.2180, 18355.00
571.3910, 18177.00
572.5630, 18132.00
573.7350, 18013.00
574.9070, 17537.00
576.0790, 17618.00
577.2510, 17373.00
578.4220, 17395.00
579.5940, 17262.00
580.7650, 16816.00
581.9360, 16973.00
583.1070, 17115.00
584.2780, 16874.00
585.4480, 16627.00
586.6190, 16651.00
587.7890, 16435.00
588.9590, 16571.00
590.1290, 16400.00
591.2990, 16503.00
592.4690, 16439.00
593.6380, 16380.00
594.8080, 16656.00
595.9770, 16522.00
597.1460, 16573.00
598.3150, 16492.00
599.4840, 16593.00
600.6520, 16786.00
601.8210, 16640.00
602.9890, 16783.00
604.1570, 16681.00
605.3250, 16618.00
606.4930, 16575.00
607.6610, 16579.00
608.8280, 16655.00
609.9960, 16610.33
611.1630, 17053.00
612.3300, 16651.00
613.4970, 16798.00
614.6640, 16955.00
615.8300, 16715.00
616.9970, 16870.00
618.1630, 16772.00
619.3290, 16847.00
620.4950, 16844.00
621.6610, 16736.00
622.8270, 16841.00
623.9920, 16785.03
625.1580, 16815.70
626.3230, 16879.00
627.4880, 16755.00
628.6530, 17017.00
629.8180, 16736.00
630.9820, 16755.59
632.1470, 16926.00
633.3110, 16690.00
634.4750, 16728.00
635.6390, 16922.00
636.8030, 16888.00
637.9670, 16747.00
639.1300, 16708.00
640.2940, 16691.00
641.4570, 16816.00
642.6200, 16749.00
643.7830, 16894.00
644.9460, 16900.00
646.1080, 16797.00
647.2710, 16809.00
648.4330, 16749.00
649.5950, 16877.00
650.7570, 16895.00
651.9190, 16854.00
653.0800, 16871.00
654.2420, 16889.00
655.4030, 17086.00
656.5650, 17047.00
657.7260, 17008.00
658.8860, 17233.00
660.0470, 17224.00
661.2080, 17451.00
662.3680, 17295.00
663.5280, 17507.00
664.6880, 17505.00
665.8480, 17665.00
667.0080, 17897.00
668.1680, 18133.00
669.3270, 18313.00
670.4870, 18313.00
671.6460, 18571.00
672.8050, 18625.00
673.9640, 18777.00
675.1220, 18951.00
676.2810, 19225.42
677.4390, 19383.00
678.5970, 19530.47
679.7560, 19819.00
680.9130, 19807.00
682.0710, 19900.00
683.2290, 20107.00
684.3860, 20336.00
685.5430, 20738.00
686.7010, 20911.00
687.8580, 21184.00
689.0140, 21461.00
690.1710, 22106.00
691.3280, 22204.00
692.4840, 22479.00
693.6400, 23005.00
694.7960, 23199.00
695.9520, 23432.00
697.1080, 23781.00
698.2630, 23980.00
699.4190, 23869.00
700.5740, 24020.00
701.7290, 23539.00
702.8840, 23351.00
704.0390, 23208.00
705.1930, 22633.00
706.3480, 21976.00
707.5020, 21299.00
708.6560, 20742.00
709.8100, 20485.00
710.9640, 20075.08
712.1180, 19911.00
713.2710, 19513.00
714.4240, 19339.00
715.5780, 18889.00
716.7310, 18706.00
717.8840, 18454.00
719.0360, 18441.00
720.1890, 18030.00
721.3410, 18057.00
722.4940, 17648.14
723.6460, 17977.47
724.7980, 18140.61
725.9490, 18146.53
727.1010, 17524.10
728.2520, 17713.03
729.4040, 17576.78
730.5550, 17427.24
731.7060, 17730.36
732.8570, 17199.37
734.0070, 17495.35
735.1580, 17461.19
736.3080, 17578.16
737.4580, 17367.98
738.6080, 17258.85
739.7580, 17476.96
740.9080, 17513.87
742.0580, 17266.04
743.2070, 17392.65
744.3560, 16850.31
745.5050, 16894.98
746.6540, 16952.00
747.8030, 16971.00
748.9520, 17075.00
750.1000, 16892.00
751.2480, 16974.00
752.3960, 17250.00
753.5440, 16937.00
754.6920, 17088.00
755.8400, 16999.00
756.9870, 17059.00
758.1350, 17305.00
759.2820, 17191.00
760.4290, 17304.33
761.5760, 17018.00
762.7220, 17305.00
763.8690, 17339.00
765.0150, 17233.00
766.1620, 17521.00
767.3080, 17781.00
768.4530, 17463.00
769.5990, 17750.00
770.7450, 17640.00
771.8900, 17853.00
773.0350, 17782.00
774.1810, 17926.00
775.3260, 17997.00
776.4700, 17938.00
777.6150, 17858.00
778.7590, 18130.00
779.9040, 18033.00
781.0480, 18260.00
782.1920, 18281.00
783.3360, 18203.00
784.4790, 18241.00
785.6230, 18228.00
786.7660, 18264.04
787.9090, 18279.95
789.0520, 18335.00
790.1950, 18387.00
791.3380, 18426.54
792.4800, 18524.00
793.6230, 18523.53
794.7650, 18583.00
795.9070, 18628.00
797.0490, 18643.00
798.1910, 18658.00
799.3320, 18641.00
800.4740, 18574.00
801.6150, 18667.00
802.7560, 18979.00
803.8970, 19549.00
805.0380, 19196.00
806.1790, 19250.00
807.3190, 18903.00
808.4590, 19030.00
809.5990, 19177.00
810.7390, 19437.00
811.8790, 19563.00
813.0190, 19483.00
814.1580, 19621.89
815.2980, 19687.00
816.4370, 19753.00
817.5760, 19652.00
818.7150, 19904.00
819.8530, 19864.00
820.9920, 20143.00
822.1300, 20001.00
823.2690, 20246.00
824.4070, 20283.00
825.5450, 20334.00
826.6820, 20446.00
827.8200, 20551.00
828.9570, 20669.00
830.0940, 20915.00
831.2320, 20897.00
832.3680, 21267.00
833.5050, 21373.00
834.6420, 21741.00
835.7780, 21753.00
836.9150, 21792.00
838.0510, 22370.00
839.1870, 22409.00
840.3220, 22727.00
841.4580, 23036.00
842.5930, 23462.00
843.7290, 23699.00
844.8640, 24152.00
845.9990, 24796.00
847.1340, 25190.00
848.2680, 25819.00
849.4030, 26643.00
850.5370, 27195.00
851.6710, 28015.00
852.8050, 28892.00
853.9390, 29824.00
855.0730, 30961.00
856.2060, 32217.00
857.3400, 33594.00
858.4730, 35245.00
859.6060, 37045.00
860.7390, 39019.00
861.8720, 41416.00
863.0040, 44058.00
864.1370, 47180.00
865.2690, 50307.00
866.4010, 54294.00
867.5330, 58817.94
868.6650, 65930.00
869.7960, 70073.00
870.9280, 80587.00
872.0590, 89277.00
873.1900, 98758.00
874.3210, 112042.0
875.4520, 128779.0
876.5820, 148837.0
877.7130, 171423.0
878.8430, 196271.0
879.9730, 223114.0
881.1030, 247298.0
882.2330, 268916.0
883.3620, 284313.0
884.4920, 291933.0
885.6210, 288666.0
886.7500, 276138.0
887.8790, 254416.0
889.0080, 225189.0
890.1370, 194709.0
891.2650, 164327.0
892.3930, 137322.0
893.5220, 115602.0
894.6500, 99991.00
895.7770, 84002.00
896.9050, 71069.00
898.0330, 61375.00
899.1600, 54281.00
900.2870, 48382.00
901.4140, 43296.00
902.5410, 39713.00
903.6680, 36607.00
904.7940, 34190.00
905.9210, 31873.63
907.0470, 30272.00
908.1730, 28584.00
909.2990, 27383.00
910.4240, 26464.00
911.5500, 25390.00
912.6750, 24626.00
913.8010, 23923.33
914.9260, 23656.00
916.0510, 22744.00
917.1750, 22353.00
918.3000, 21793.00
919.4240, 21357.00
920.5480, 21031.00
921.6730, 20594.00
922.7960, 20269.00
923.9200, 20227.00
925.0440, 20058.00
926.1670, 19787.00
927.2900, 19781.00
928.4140, 19433.00
929.5360, 19549.00
930.6590, 19315.38
931.7820, 19180.72
932.9040, 18966.00
934.0270, 18905.00
935.1490, 18682.00
936.2710, 18551.00
937.3920, 18619.00
938.5140, 18409.00
939.6350, 18536.00
940.7570, 18397.00
941.8780, 18285.00
942.9990, 18365.00
944.1200, 18386.00
945.2400, 18306.34
946.3610, 18255.96
947.4810, 18283.00
948.6010, 18054.00
949.7210, 18225.00
950.8410, 18214.00
951.9600, 18100.00
953.0800, 18157.00
954.1990, 18318.00
955.3180, 18077.00
956.4370, 18198.00
957.5560, 18210.00
958.6750, 17951.00
959.7930, 17960.00
960.9120, 18089.00
962.0300, 17993.00
963.1480, 18103.00
964.2650, 17916.53
965.3830, 17857.75
966.5010, 17608.00
967.6180, 17620.00
968.7350, 17665.00
969.8520, 17570.00
970.9690, 17278.00
972.0860, 17349.00
973.2020, 17521.00
974.3180, 17240.00
975.4350, 17348.00
976.5510, 17397.00
977.6660, 17398.00
978.7820, 17544.00
979.8980, 17422.16
981.0130, 17310.00
982.1280, 17189.00
983.2430, 17276.00
984.3580, 17103.00
985.4730, 17301.00
986.5870, 17178.00
987.7010, 17055.00
988.8160, 17186.00
989.9300, 17301.00
991.0440, 17099.00
992.1570, 17011.00
993.2710, 17116.00
994.3840, 17001.46
995.4970, 17020.55
996.6100, 16997.00
997.7230, 16971.00
998.8360, 16994.00
999.9480, 16903.00
1001.061, 16941.00
1002.173, 16967.00
1003.285, 16798.00
1004.397, 16866.00
1005.508, 16866.00
1006.620, 17011.00
1007.731, 16862.00
1008.843, 16861.00
1009.954, 17089.00
1011.064, 16933.70
1012.175, 16989.00
1013.286, 16884.00
1014.396, 16876.00
1015.506, 16922.00
1016.616, 16904.00
1017.726, 16881.00
1018.836, 17251.00
1019.945, 17042.02
1021.055, 16924.00
1022.164, 16806.00
1023.273, 17112.00
1024.382, 16902.00
1025.490, 16922.00
1026.599, 17006.00
1027.707, 16869.00
1028.815, 16997.00
1029.923, 16952.00
1031.031, 16934.00
1032.139, 17037.00
1033.247, 16958.00
1034.354, 17053.00
1035.461, 16915.00
1036.568, 17086.00
1037.675, 16995.00
1038.782, 16959.00
1039.888, 16935.00
1040.994, 17027.00
1042.101, 16911.00
1043.207, 16873.00
1044.313, 17047.00
1045.418, 17004.00
1046.524, 17205.00
1047.629, 17357.00
1048.734, 17185.14
1049.839, 17547.00
1050.944, 16910.00
1052.049, 17161.00
1053.153, 17136.00
1054.258, 17141.00
1055.362, 17231.53
1056.466, 17194.70
1057.570, 17207.00
1058.673, 17216.00
1059.777, 17046.00
1060.880, 17090.00
1061.983, 17515.00
1063.086, 17377.78
1064.189, 17412.25
1065.292, 17403.00
1066.394, 17287.00
1067.497, 17116.00
1068.599, 17190.00
1069.701, 18124.00
1070.803, 18200.00
1071.904, 18172.00
1073.006, 18346.00
1074.107, 17563.00
1075.208, 17143.00
1076.309, 17051.00
1077.410, 17155.00
1078.511, 17248.00
1079.611, 17218.00
1080.712, 17248.24
1081.812, 17226.00
1082.912, 17193.00
1084.011, 17116.00
1085.111, 17081.00
1086.211, 17148.00
1087.310, 17411.00
1088.409, 17305.26
1089.508, 17308.28
1090.607, 17181.00
1091.705, 17195.00
1092.804, 16960.00
1093.902, 17082.00
1095.000, 17020.00
1096.098, 16935.00
1097.196, 17075.00
1098.294, 17122.00
1099.391, 17091.00
1100.488, 17167.00
1101.585, 17108.56
1102.682, 17045.00
1103.779, 17016.00
1104.876, 16927.00
1105.972, 16886.00
1107.068, 16953.00
1108.165, 16934.00
1109.260, 17020.00
1110.356, 16929.00
1111.452, 16994.56
1112.547, 16981.00
1113.643, 16788.46
1114.738, 17011.04
1115.832, 17133.90
1116.927, 17162.40
1118.022, 16813.93
1119.116, 16952.25
1120.210, 16895.48
1121.305, 16830.71
1122.398, 17037.55
1123.492, 16743.90
1124.586, 16946.43
1125.679, 16950.90
1126.772, 17046.01
1127.865, 16944.84
1128.958, 16904.29
1130.051, 17060.10
1131.143, 17107.19
1132.236, 16983.42
1133.328, 17084.30
1134.420, 16783.82
1135.512, 16835.54
1136.604, 17039.22
1137.695, 16925.33
1138.786, 17029.80
1139.878, 17051.11
1140.969, 16694.47
1142.060, 16995.12
1143.150, 17011.52
1144.241, 16736.05
1145.331, 17014.19
1146.421, 16778.95
1147.511, 16726.96
1148.601, 16812.87
1149.691, 16755.02
1150.780, 16923.83
1151.869, 16874.29
1152.959, 16805.23
1154.048, 16821.32
1155.136, 16758.89
1156.225, 16818.56
1157.313, 16735.25
1158.402, 16803.89
1159.490, 16906.99
1160.578, 16746.34
1161.666, 16864.91
1162.753, 16550.47
1163.841, 16598.35
1164.928, 16607.22
1166.015, 16847.68
1167.102, 16535.35
1168.189, 16573.17
1169.275, 16760.07
1170.362, 16738.37
1171.448, 16803.89
1172.534, 16611.21
1173.620, 16477.90
1174.706, 16703.31
1175.791, 16829.01
1176.877, 16860.34
1177.962, 16514.70
1179.047, 16655.84
1180.132, 16601.91
1181.216, 16539.97
1182.301, 16749.63
1183.385, 16458.83
1184.470, 16664.18
1185.554, 16671.47
1186.637, 16769.42
1187.721, 16671.07
1188.805, 16633.36
1189.888, 16791.99
1190.971, 16841.90
1192.054, 16720.97
1193.137, 16824.67
1194.220, 16527.01
1195.302, 16581.55
1196.384, 16788.06
1197.467, 16676.99
1198.549, 16784.29
1199.630, 16808.43
1200.712, 16454.61
1201.793, 16758.09
1202.875, 16777.30
1203.956, 16504.65
1205.037, 16785.61
1206.118, 16553.19
1207.198, 16504.02
1208.279, 16592.75
1209.359, 16537.73
1210.439, 16709.35
1211.519, 16662.63
1212.599, 16596.39
1213.678, 16615.30
1214.758, 16555.69
1215.837, 16618.18
1216.916, 16537.67
1217.995, 16609.14
1219.073, 16715.05
1220.152, 16557.21
1221.230, 16678.60
1222.308, 16366.98
1223.387, 16417.67
1224.464, 16429.35
1225.542, 16672.62
1226.620, 16363.10
1227.697, 16403.73
1228.774, 16593.45
1229.851, 16574.56
1230.928, 16642.89
1232.005, 16453.02
1233.081, 16505.71
1234.157, 16491.54
1235.233, 16708.41
1236.309, 16742.88
1237.385, 16557.39
1238.461, 16372.83
1239.536, 16606.33
1240.611, 16443.59
1241.687, 16494.62
1242.762, 16324.87
1243.836, 16345.74
1244.911, 16363.60
1245.985, 16479.17
1247.059, 16456.97
