##NAMES=Hubnerite
##RRUFFID=R050139
##IDEAL CHEMISTRY=Mn^2+^W^6+^O_4_
##LOCALITY=Pasto Bueno District, Pallasca Province, Ancash Department, Peru
##OWNER=RRUFF
##SOURCE=Dave Bunk Minerals
##DESCRIPTION=Black tabular crystals associated with quartz
##STATUS=The identification of this mineral has been confirmed by X-ray diffraction and chemical analysis
##URL=rruff.info/R050139
##MEASURED CHEMISTRY=(Mn^2+^_0.79_Fe^2+^_0.20_)W_1.00_O4
##PIN_ID=L00514
##ORIENTATION=Laser parallel to (1 0 1). Fiducial mark perpendicular to laser is parallel to b [0 1 0]
64.78400, 3384.000
66.01700, 3409.000
67.25000, 3306.000
68.48200, 3320.000
69.71500, 3399.000
70.94700, 3354.000
72.17900, 3350.000
73.41100, 3483.000
74.64300, 3551.000
75.87500, 3692.000
77.10700, 3970.000
78.33800, 4226.000
79.57000, 4372.084
80.80100, 4706.719
82.03200, 4809.000
83.26300, 5258.000
84.49400, 5721.000
85.72500, 5921.000
86.95500, 6161.000
88.18600, 6545.000
89.41600, 7057.000
90.64600, 7568.000
91.87600, 8396.000
93.10600, 9062.000
94.33600, 9575.000
95.56600, 9826.000
96.79500, 10121.00
98.02500, 10385.00
99.25400, 10792.00
100.4830, 11095.00
101.7120, 11235.00
102.9410, 11313.00
104.1690, 11606.00
105.3980, 12279.00
106.6260, 13112.00
107.8550, 13863.00
109.0830, 13776.00
110.3110, 13378.00
111.5390, 13432.00
112.7670, 14249.00
113.9940, 14773.00
115.2220, 15985.00
116.4490, 17435.00
117.6760, 19307.00
118.9030, 19721.00
120.1300, 20305.00
121.3570, 24582.00
122.5840, 25915.51
123.8100, 27123.49
125.0370, 30254.00
126.2630, 28700.00
127.4890, 27575.00
128.7150, 27446.00
129.9410, 28619.00
131.1670, 29610.00
132.3920, 30692.00
133.6180, 30942.00
134.8430, 30615.00
136.0680, 27884.00
137.2930, 24554.00
138.5180, 20859.00
139.7430, 17737.00
140.9670, 15714.00
142.1920, 14318.00
143.4160, 13383.00
144.6400, 12728.00
145.8650, 12420.00
147.0890, 12187.00
148.3120, 12267.00
149.5360, 11953.00
150.7590, 11896.00
151.9830, 11556.88
153.2060, 11808.35
154.4290, 11960.10
155.6520, 12017.50
156.8750, 11697.91
158.0980, 11865.12
159.3200, 11837.22
160.5430, 11801.35
161.7650, 12037.05
162.9870, 11772.27
164.2090, 12003.67
165.4310, 12037.00
166.6530, 12160.98
167.8740, 12088.65
169.0960, 12076.97
170.3170, 12261.62
171.5380, 12337.55
172.7590, 12242.62
173.9800, 12057.00
175.2010, 11991.00
176.4220, 11981.00
177.6420, 12062.00
178.8630, 12094.00
180.0830, 12087.00
181.3030, 12070.00
182.5230, 12005.79
183.7430, 12217.10
184.9620, 12363.41
186.1820, 12450.10
187.4010, 12194.47
188.6200, 12460.31
189.8390, 12565.76
191.0580, 12697.90
192.2770, 13136.31
193.4960, 13108.95
194.7140, 13612.17
195.9330, 13952.25
197.1510, 14347.00
198.3690, 15211.00
199.5870, 16018.00
200.8050, 16877.00
202.0230, 18087.00
203.2400, 19304.00
204.4580, 20244.00
205.6750, 21191.00
206.8920, 22136.00
208.1090, 22755.00
209.3260, 23060.00
210.5430, 22988.00
211.7600, 22905.00
212.9760, 22774.00
214.1920, 22451.00
215.4080, 19562.00
216.6240, 17994.00
217.8400, 16713.00
219.0560, 15669.00
220.2720, 15030.00
221.4870, 14168.00
222.7030, 13534.00
223.9180, 13330.00
225.1330, 12945.00
226.3480, 12586.00
227.5630, 12491.00
228.7770, 12240.00
229.9920, 12260.00
231.2060, 12000.00
232.4200, 12035.00
233.6340, 11931.00
234.8480, 12145.00
236.0620, 11970.00
237.2760, 11883.00
238.4890, 11860.00
239.7030, 11777.85
240.9160, 11742.00
242.1290, 11724.00
243.3420, 11697.00
244.5550, 11677.00
245.7670, 11749.00
246.9800, 11788.00
248.1920, 11749.00
249.4040, 11809.00
250.6160, 11828.00
251.8280, 11813.00
253.0400, 12022.00
254.2520, 12075.00
255.4630, 12272.00
256.6750, 12527.58
257.8860, 12869.00
259.0970, 13081.00
260.3080, 13045.00
261.5190, 13270.00
262.7300, 13383.00
263.9400, 13440.00
265.1510, 13513.00
266.3610, 13522.00
267.5710, 13356.00
268.7810, 13239.00
269.9910, 13177.00
271.2000, 13055.00
272.4100, 12976.28
273.6190, 12868.65
274.8290, 12792.38
276.0380, 12660.00
277.2470, 12532.98
278.4560, 12450.65
279.6640, 12359.00
280.8730, 12315.00
282.0810, 12262.00
283.2900, 12209.00
284.4980, 12196.00
285.7060, 12324.00
286.9130, 12417.00
288.1210, 12389.00
289.3290, 12586.00
290.5360, 12602.62
291.7430, 12845.00
292.9510, 12819.00
294.1570, 13047.00
295.3640, 13353.00
296.5710, 13239.00
297.7780, 13378.00
298.9840, 13384.00
300.1900, 13319.82
301.3960, 13307.74
302.6020, 13250.00
303.8080, 13170.00
305.0140, 13218.00
306.2190, 13228.00
307.4250, 13215.00
308.6300, 13395.00
309.8350, 13622.00
311.0400, 13983.00
312.2450, 14399.00
313.4500, 14730.00
314.6540, 15289.00
315.8590, 15887.00
317.0630, 16513.00
318.2670, 17218.00
319.4710, 18242.00
320.6750, 19308.00
321.8780, 20331.00
323.0820, 21289.00
324.2850, 21950.00
325.4890, 22754.00
326.6920, 23086.00
327.8950, 23372.00
329.0970, 23203.00
330.3000, 23103.00
331.5030, 22218.00
332.7050, 21377.00
333.9070, 20273.00
335.1090, 19383.00
336.3110, 18880.00
337.5130, 17724.00
338.7150, 17038.00
339.9160, 16321.00
341.1180, 16050.00
342.3190, 15872.00
343.5200, 15421.23
344.7210, 15277.00
345.9220, 14926.00
347.1220, 15065.00
348.3230, 15037.00
349.5230, 15123.00
350.7230, 15022.00
351.9230, 15335.00
353.1230, 15385.00
354.3230, 15374.00
355.5230, 15351.00
356.7220, 15425.00
357.9220, 15253.00
359.1210, 15231.00
360.3200, 15277.00
361.5190, 15116.00
362.7170, 15152.00
363.9160, 14848.00
365.1150, 14667.00
366.3130, 14576.00
367.5110, 14246.00
368.7090, 13991.00
369.9070, 14019.00
371.1050, 14116.00
372.3020, 13789.00
373.5000, 13879.00
374.6970, 13743.00
375.8940, 13481.00
377.0910, 13574.00
378.2880, 13454.00
379.4850, 13516.00
380.6810, 13553.00
381.8780, 13506.00
383.0740, 13467.00
384.2700, 13601.00
385.4660, 13811.00
386.6620, 14199.00
387.8580, 14390.00
389.0530, 14838.00
390.2490, 15354.00
391.4440, 16196.00
392.6390, 16891.00
393.8340, 17655.00
395.0290, 18312.00
396.2230, 18935.00
397.4180, 19558.00
398.6120, 19460.00
399.8060, 19625.00
401.0000, 19434.00
402.1940, 18641.00
403.3880, 17842.00
404.5820, 17228.00
405.7750, 15994.00
406.9690, 15201.00
408.1620, 14708.00
409.3550, 14282.00
410.5480, 13933.76
411.7400, 13751.00
412.9330, 13600.00
414.1260, 13444.00
415.3180, 13445.00
416.5100, 13260.00
417.7020, 13305.00
418.8940, 13218.00
420.0860, 13051.00
421.2770, 13079.00
422.4690, 12989.64
423.6600, 12922.00
424.8510, 12955.00
426.0420, 12906.00
427.2330, 12959.00
428.4230, 12991.00
429.6140, 12954.00
430.8040, 12971.00
431.9950, 12910.00
433.1850, 12985.00
434.3750, 12933.00
435.5640, 13038.00
436.7540, 13101.00
437.9440, 13136.00
439.1330, 13073.00
440.3220, 13099.00
441.5110, 13189.00
442.7000, 13374.00
443.8890, 13377.00
445.0770, 13421.00
446.2660, 13356.00
447.4540, 13341.00
448.6420, 13398.00
449.8300, 13393.58
451.0180, 13468.00
452.2060, 13449.00
453.3930, 13512.00
454.5810, 13488.00
455.7680, 13510.00
456.9550, 13582.00
458.1420, 13422.00
459.3290, 13573.00
460.5160, 13315.00
461.7020, 13472.00
462.8890, 13612.00
464.0750, 13446.39
465.2610, 13560.00
466.4470, 13219.00
467.6330, 13500.00
468.8180, 13248.00
470.0040, 13481.00
471.1890, 13424.00
472.3740, 13385.00
473.5590, 13418.00
474.7440, 13525.00
475.9290, 13559.00
477.1130, 13563.00
478.2980, 13641.00
479.4820, 13494.00
480.6660, 13514.00
481.8500, 13572.00
483.0340, 13663.00
484.2180, 13668.41
485.4010, 13686.00
486.5850, 13706.00
487.7680, 13729.00
488.9510, 13727.00
490.1340, 13905.00
491.3170, 13838.00
492.4990, 13945.00
493.6820, 13942.00
494.8640, 13741.00
496.0460, 13965.00
497.2280, 13924.00
498.4100, 14103.00
499.5920, 14075.00
500.7730, 14194.00
501.9550, 14430.00
503.1360, 14388.00
504.3170, 14738.00
505.4980, 14835.00
506.6790, 14864.00
507.8600, 15040.00
509.0400, 15069.00
510.2200, 15332.00
511.4010, 15237.00
512.5810, 15459.00
513.7610, 15462.00
514.9400, 15579.00
516.1200, 15330.00
517.3000, 15468.00
518.4790, 15263.00
519.6580, 15398.00
520.8370, 15238.00
522.0160, 15252.00
523.1950, 15438.00
524.3730, 15552.00
525.5510, 15582.00
526.7300, 15623.00
527.9080, 15855.00
529.0860, 16043.88
530.2640, 16422.00
531.4410, 16625.00
532.6190, 16949.00
533.7960, 17280.00
534.9730, 17931.00
536.1500, 18229.00
537.3270, 18639.66
538.5040, 19098.02
539.6800, 19376.00
540.8570, 19767.00
542.0330, 20189.00
543.2090, 20233.00
544.3850, 20632.00
545.5610, 20517.00
546.7370, 20688.00
547.9120, 20469.00
549.0880, 20237.00
550.2630, 19943.79
551.4380, 19271.74
552.6130, 18950.23
553.7880, 18556.92
554.9620, 17809.59
556.1370, 17571.25
557.3110, 17160.74
558.4850, 16764.76
559.6590, 16662.92
560.8330, 16083.17
562.0070, 16022.12
563.1800, 15785.78
564.3530, 15662.57
565.5270, 15423.22
566.7000, 15094.00
567.8730, 14907.00
569.0450, 14850.00
570.2180, 14600.92
571.3910, 14688.91
572.5630, 14687.36
573.7350, 14601.48
574.9070, 14148.68
576.0790, 14192.72
577.2510, 14051.72
578.4220, 13912.83
579.5940, 14055.51
580.7650, 13707.82
581.9360, 13866.32
583.1070, 13836.79
584.2780, 13907.94
585.4480, 13792.84
586.6190, 13748.39
587.7890, 13910.30
588.9590, 13973.51
590.1290, 13875.89
591.2990, 14012.92
592.4690, 13772.00
593.6380, 13834.00
594.8080, 13886.02
595.9770, 13956.00
597.1460, 13956.00
598.3150, 13891.00
599.4840, 13894.00
600.6520, 14117.00
601.8210, 14062.00
602.9890, 14165.00
604.1570, 14066.00
605.3250, 14203.00
606.4930, 14240.00
607.6610, 14095.00
608.8280, 14111.00
609.9960, 14388.00
611.1630, 14568.00
612.3300, 14431.00
613.4970, 14344.00
614.6640, 14314.00
615.8300, 14335.00
616.9970, 14531.00
618.1630, 14475.00
619.3290, 14535.00
620.4950, 14540.00
621.6610, 14591.00
622.8270, 14488.00
623.9920, 14685.00
625.1580, 14553.00
626.3230, 14755.00
627.4880, 14760.00
628.6530, 14695.00
629.8180, 14896.00
630.9820, 14728.00
632.1470, 14802.00
633.3110, 14809.00
634.4750, 14938.00
635.6390, 14920.10
636.8030, 14957.00
637.9670, 15028.00
639.1300, 14965.00
640.2940, 15049.38
641.4570, 14952.00
642.6200, 15142.00
643.7830, 15194.00
644.9460, 15234.00
646.1080, 15373.00
647.2710, 15355.00
648.4330, 15428.00
649.5950, 15442.00
650.7570, 15675.00
651.9190, 15617.00
653.0800, 15781.00
654.2420, 15819.00
655.4030, 16109.00
656.5650, 16231.00
657.7260, 16417.00
658.8860, 16230.00
660.0470, 16707.00
661.2080, 16959.00
662.3680, 17266.00
663.5280, 17962.00
664.6880, 18114.00
665.8480, 18439.00
667.0080, 18633.00
668.1680, 19066.00
669.3270, 19594.00
670.4870, 20041.00
671.6460, 20548.00
672.8050, 20949.00
673.9640, 21307.29
675.1220, 21590.00
676.2810, 21959.00
677.4390, 22245.00
678.5970, 22592.00
679.7560, 22871.51
680.9130, 22847.00
682.0710, 23378.00
683.2290, 23710.00
684.3860, 23881.00
685.5430, 24507.00
686.7010, 24953.00
687.8580, 25889.06
689.0140, 26620.79
690.1710, 28022.00
691.3280, 28495.00
692.4840, 29538.00
693.6400, 30693.00
694.7960, 31474.00
695.9520, 32394.00
697.1080, 33246.00
698.2630, 34066.00
699.4190, 34084.00
700.5740, 33974.00
701.7290, 33627.00
702.8840, 33005.00
704.0390, 32241.00
705.1930, 30841.00
706.3480, 29502.00
707.5020, 28204.00
708.6560, 26646.00
709.8100, 25630.00
710.9640, 24375.00
712.1180, 23337.00
713.2710, 22364.00
714.4240, 21788.00
715.5780, 21015.00
716.7310, 20535.00
717.8840, 20007.00
719.0360, 19357.00
720.1890, 19174.00
721.3410, 18711.00
722.4940, 18394.00
723.6460, 18017.00
724.7980, 17779.00
725.9490, 17658.00
727.1010, 17596.00
728.2520, 17274.00
729.4040, 17140.00
730.5550, 16869.00
731.7060, 16860.00
732.8570, 16719.00
734.0070, 16506.00
735.1580, 16481.00
736.3080, 16234.60
737.4580, 16303.00
738.6080, 16055.00
739.7580, 16255.00
740.9080, 16029.77
742.0580, 16006.00
743.2070, 15725.00
744.3560, 15931.00
745.5050, 15851.00
746.6540, 15820.50
747.8030, 15704.00
748.9520, 15705.00
750.1000, 15894.00
751.2480, 15622.00
752.3960, 16207.00
753.5440, 15780.00
754.6920, 16047.00
755.8400, 15579.00
756.9870, 15695.00
758.1350, 15735.00
759.2820, 15487.00
760.4290, 15655.47
761.5760, 15977.00
762.7220, 15771.00
763.8690, 15908.00
765.0150, 15994.00
766.1620, 16069.18
767.3080, 16231.22
768.4530, 16394.00
769.5990, 16466.00
770.7450, 16619.00
771.8900, 16594.00
773.0350, 16596.00
774.1810, 16751.00
775.3260, 16788.00
776.4700, 16953.00
777.6150, 16954.54
778.7590, 16725.00
779.9040, 16946.00
781.0480, 16744.74
782.1920, 16683.00
783.3360, 16635.00
784.4790, 16629.00
785.6230, 16610.00
786.7660, 16593.13
787.9090, 16624.00
789.0520, 16597.00
790.1950, 16553.00
791.3380, 16599.00
792.4800, 16545.00
793.6230, 16481.00
794.7650, 16601.00
795.9070, 16604.00
797.0490, 16584.00
798.1910, 16480.00
799.3320, 16491.00
800.4740, 16463.00
801.6150, 16541.00
802.7560, 16489.69
803.8970, 16611.00
805.0380, 16433.00
806.1790, 16579.00
807.3190, 16564.00
808.4590, 16574.00
809.5990, 16565.00
810.7390, 16691.00
811.8790, 16692.00
813.0190, 16745.00
814.1580, 16772.79
815.2980, 16710.00
816.4370, 16813.00
817.5760, 16814.00
818.7150, 16882.00
819.8530, 16863.00
820.9920, 17027.00
822.1300, 16867.00
823.2690, 17131.00
824.4070, 17156.00
825.5450, 17111.00
826.6820, 17217.00
827.8200, 17184.18
828.9570, 17271.04
830.0940, 17231.00
831.2320, 17396.00
832.3680, 17528.00
833.5050, 17505.00
834.6420, 17732.00
835.7780, 17779.00
836.9150, 18132.00
838.0510, 18273.00
839.1870, 18385.00
840.3220, 18485.00
841.4580, 18690.61
842.5930, 18934.00
843.7290, 19079.00
844.8640, 19390.00
845.9990, 19554.00
847.1340, 19900.00
848.2680, 20337.00
849.4030, 20844.00
850.5370, 21130.00
851.6710, 21664.00
852.8050, 22291.00
853.9390, 22703.00
855.0730, 23575.00
856.2060, 24167.00
857.3400, 24963.00
858.4730, 26116.00
859.6060, 27133.00
860.7390, 28379.00
861.8720, 29789.00
863.0040, 30922.00
864.1370, 33020.00
865.2690, 34777.00
866.4010, 37114.00
867.5330, 39480.00
868.6650, 42715.00
869.7960, 46282.00
870.9280, 50717.00
872.0590, 56074.00
873.1900, 62676.00
874.3210, 70225.00
875.4520, 79771.00
876.5820, 91877.00
877.7130, 105139.0
878.8430, 119950.0
879.9730, 136682.0
881.1030, 153578.0
882.2330, 168062.0
883.3620, 179427.0
884.4920, 186234.0
885.6210, 187551.0
886.7500, 181115.0
887.8790, 169719.0
889.0080, 153562.0
890.1370, 134762.0
891.2650, 115160.0
892.3930, 98392.00
893.5220, 83299.00
894.6500, 70676.00
895.7770, 61267.00
896.9050, 52662.00
898.0330, 46173.00
899.1600, 40985.00
900.2870, 36891.00
901.4140, 33846.00
902.5410, 31650.00
903.6680, 29181.00
904.7940, 27595.00
905.9210, 25999.00
907.0470, 24646.00
908.1730, 23553.00
909.2990, 22859.00
910.4240, 21292.00
911.5500, 20798.00
912.6750, 20328.00
913.8010, 20378.00
914.9260, 19523.00
916.0510, 19152.00
917.1750, 18883.00
918.3000, 18486.00
919.4240, 18141.00
920.5480, 17914.00
921.6730, 17643.00
922.7960, 17571.00
923.9200, 17307.00
925.0440, 17170.00
926.1670, 17007.00
927.2900, 16899.00
928.4140, 16765.46
929.5360, 16676.00
930.6590, 16599.00
931.7820, 16526.00
932.9040, 16596.00
934.0270, 16473.00
935.1490, 16412.00
936.2710, 16183.00
937.3920, 16187.00
938.5140, 16088.00
939.6350, 16073.00
940.7570, 16068.00
941.8780, 16024.00
942.9990, 15995.50
944.1200, 16045.00
945.2400, 15913.00
946.3610, 15854.00
947.4810, 15817.00
948.6010, 15926.00
949.7210, 15796.00
950.8410, 15946.00
951.9600, 16783.00
953.0800, 16611.00
954.1990, 16499.00
955.3180, 15995.00
956.4370, 16033.00
957.5560, 15784.00
958.6750, 15731.00
959.7930, 15739.00
960.9120, 15726.00
962.0300, 15648.00
963.1480, 15648.00
964.2650, 15581.00
965.3830, 15614.00
966.5010, 15379.00
967.6180, 15209.00
968.7350, 15366.00
969.8520, 15286.00
970.9690, 15256.00
972.0860, 15244.00
973.2020, 15192.00
974.3180, 15190.67
975.4350, 15166.00
976.5510, 15226.00
977.6660, 15242.00
978.7820, 15198.01
979.8980, 15139.00
981.0130, 15101.00
982.1280, 14980.00
983.2430, 14911.00
984.3580, 14919.97
985.4730, 15029.00
986.5870, 14987.00
987.7010, 15037.00
988.8160, 15144.00
989.9300, 15004.00
991.0440, 15108.00
992.1570, 15124.00
993.2710, 15058.00
994.3840, 15030.00
995.4970, 15005.00
996.6100, 15106.00
997.7230, 14889.00
998.8360, 15049.00
999.9480, 15052.00
1001.061, 14943.00
1002.173, 14990.00
1003.285, 15162.00
1004.397, 15207.00
1005.508, 15191.71
1006.620, 15340.06
1007.731, 15104.00
1008.843, 14994.00
1009.954, 14946.64
1011.064, 14958.00
1012.175, 14915.00
1013.286, 14964.00
1014.396, 14916.00
1015.506, 14824.00
1016.616, 15039.00
1017.726, 15055.00
1018.836, 14789.00
1019.945, 15292.00
1021.055, 15204.00
1022.164, 14938.00
1023.273, 14974.00
1024.382, 15172.00
1025.490, 15033.00
1026.599, 15056.00
1027.707, 15220.00
1028.815, 15111.00
1029.923, 15106.00
1031.031, 15042.00
1032.139, 14967.00
1033.247, 15210.00
1034.354, 15003.00
1035.461, 15071.00
1036.568, 15251.00
1037.675, 15188.00
1038.782, 15246.63
1039.888, 14994.00
1040.994, 15161.00
1042.101, 15060.00
1043.207, 14866.00
1044.313, 15015.00
1045.418, 15054.00
1046.524, 15074.00
1047.629, 15092.00
1048.734, 15014.00
1049.839, 14988.00
1050.944, 14969.00
1052.049, 15104.00
1053.153, 14994.00
1054.258, 15048.00
1055.362, 15097.00
1056.466, 15088.00
1057.570, 15149.96
1058.673, 15183.00
1059.777, 15158.00
1060.880, 15259.00
1061.983, 15112.00
1063.086, 15362.00
1064.189, 15274.00
1065.292, 15314.00
1066.394, 15212.00
1067.497, 15074.00
1068.599, 15231.00
1069.701, 15265.00
1070.803, 15197.00
1071.904, 15218.00
1073.006, 15241.00
1074.107, 15397.00
1075.208, 15132.00
1076.309, 15038.00
1077.410, 15253.00
1078.511, 15610.00
1079.611, 15454.42
1080.712, 15072.00
1081.812, 15365.00
1082.912, 15190.00
1084.011, 15144.00
1085.111, 15102.00
1086.211, 15044.61
1087.310, 15263.00
1088.409, 15069.00
1089.508, 15175.00
1090.607, 15311.00
1091.705, 15208.00
1092.804, 15275.00
1093.902, 15289.39
1095.000, 15226.00
1096.098, 15306.00
1097.196, 15269.48
1098.294, 15255.72
1099.391, 15274.00
1100.488, 15191.00
1101.585, 15068.00
1102.682, 15280.00
1103.779, 15426.00
1104.876, 15162.00
1105.972, 15161.00
1107.068, 15271.00
1108.165, 14975.00
1109.260, 15164.00
1110.356, 15147.00
1111.452, 15029.00
1112.547, 15087.00
1113.643, 15257.00
1114.738, 15124.00
1115.832, 15176.00
1116.927, 15106.00
1118.022, 15160.00
1119.116, 15096.00
1120.210, 15144.00
1121.305, 15231.00
1122.398, 15085.00
1123.492, 15052.00
1124.586, 14976.00
1125.679, 15037.00
1126.772, 14978.29
1127.865, 15135.00
1128.958, 14954.00
1130.051, 15015.00
1131.143, 15044.00
1132.236, 14940.00
1133.328, 15095.00
1134.420, 15107.00
1135.512, 15044.00
1136.604, 14978.00
1137.695, 15005.87
1138.786, 15169.00
1139.878, 15107.00
1140.969, 14856.00
1142.060, 15044.00
1143.150, 15023.00
1144.241, 14967.00
1145.331, 15124.00
1146.421, 14941.00
1147.511, 15050.00
1148.601, 15083.00
1149.691, 15003.71
1150.780, 14993.00
1151.869, 14989.00
1152.959, 14880.00
1154.048, 14980.00
1155.136, 15111.00
1156.225, 14989.00
1157.313, 14875.00
1158.402, 15016.00
1159.490, 14994.00
1160.578, 14804.00
1161.666, 15013.00
1162.753, 14960.00
1163.841, 14932.00
1164.928, 14946.00
1166.015, 14928.60
1167.102, 14930.00
1168.189, 14956.00
1169.275, 14911.71
1170.362, 14938.24
1171.448, 14878.00
1172.534, 14920.00
1173.620, 14986.00
1174.706, 14905.00
1175.791, 14962.00
1176.877, 14936.00
1177.962, 14907.00
1179.047, 14974.00
1180.132, 15034.00
1181.216, 15047.64
1182.301, 15233.00
1183.385, 15057.00
1184.470, 15019.00
1185.554, 14882.00
1186.637, 14950.86
1187.721, 15159.00
1188.805, 15066.00
1189.888, 15111.74
1190.971, 15019.00
1192.054, 14994.64
1193.137, 14916.00
1194.220, 14922.00
1195.302, 14922.00
1196.384, 14897.00
1197.467, 14929.10
1198.549, 14941.00
1199.630, 14958.00
1200.712, 14979.32
1201.793, 15009.00
1202.875, 15008.00
1203.956, 15006.94
1205.037, 15005.44
1206.118, 14951.00
1207.198, 15027.00
1208.279, 14986.00
1209.359, 15010.00
1210.439, 14936.00
1211.519, 14937.00
1212.599, 15052.00
1213.678, 14949.00
1214.758, 14875.00
1215.837, 15108.00
1216.916, 14964.00
1217.995, 15128.00
1219.073, 15196.30
1220.152, 15284.00
1221.230, 15402.00
1222.308, 14896.00
1223.387, 15032.00
1224.464, 15073.00
1225.542, 15000.00
1226.620, 15080.00
1227.697, 15132.00
1228.774, 15032.00
1229.851, 15183.00
1230.928, 15068.00
1232.005, 14921.00
1233.081, 15014.00
1234.157, 15078.00
1235.233, 15021.00
1236.309, 15100.00
1237.385, 15107.00
1238.461, 15099.00
1239.536, 15040.00
1240.611, 14872.00
1241.687, 14920.00
1242.762, 14928.00
1243.836, 14978.00
1244.911, 15098.00
1245.985, 14869.00
1247.059, 15064.00
