##NAMES=Hubnerite
##RRUFFID=R050139
##IDEAL CHEMISTRY=Mn^2+^W^6+^O_4_
##LOCALITY=Pasto Bueno District, Pallasca Province, Ancash Department, Peru
##OWNER=RRUFF
##SOURCE=Dave Bunk Minerals
##DESCRIPTION=Black tabular crystals associated with quartz
##STATUS=The identification of this mineral has been confirmed by X-ray diffraction and chemical analysis
##URL=rruff.info/R050139
##MEASURED CHEMISTRY=(Mn^2+^_0.79_Fe^2+^_0.20_)W_1.00_O4
##PIN_ID=L00514
##ORIENTATION=Laser parallel to (1 0 1). Fiducial mark perpendicular to laser is parallel to b [0 1 0]
64.78400, 4035.000
66.01700, 3988.000
67.25000, 3924.000
68.48200, 3841.000
69.71500, 3967.000
70.94700, 3990.000
72.17900, 3971.000
73.41100, 4103.000
74.64300, 4028.000
75.87500, 4373.000
77.10700, 4471.000
78.33800, 4809.000
79.57000, 4946.581
80.80100, 5250.058
82.03200, 5337.000
83.26300, 5832.000
84.49400, 6254.000
85.72500, 6495.000
86.95500, 6767.000
88.18600, 7160.000
89.41600, 7823.000
90.64600, 8486.000
91.87600, 9276.000
93.10600, 10053.00
94.33600, 10294.00
95.56600, 10729.00
96.79500, 10960.00
98.02500, 11136.00
99.25400, 11565.00
100.4830, 11878.00
101.7120, 11983.00
102.9410, 12155.00
104.1690, 12566.00
105.3980, 13132.00
106.6260, 13447.78
107.8550, 13626.81
109.0830, 14189.00
110.3110, 14071.00
111.5390, 14094.00
112.7670, 14880.00
113.9940, 15688.00
115.2220, 17223.00
116.4490, 19356.00
117.6760, 19536.00
118.9030, 18869.00
120.1300, 19181.00
121.3570, 21650.00
122.5840, 24094.00
123.8100, 22431.00
125.0370, 21222.00
126.2630, 20959.00
127.4890, 21475.00
128.7150, 22179.00
129.9410, 22814.00
131.1670, 24201.00
132.3920, 23992.00
133.6180, 25238.00
134.8430, 23954.00
136.0680, 22212.00
137.2930, 19898.00
138.5180, 18148.00
139.7430, 16321.00
140.9670, 15137.00
142.1920, 14232.00
143.4160, 13468.00
144.6400, 13148.00
145.8650, 12915.00
147.0890, 12879.00
148.3120, 12658.00
149.5360, 12776.00
150.7590, 12772.00
151.9830, 12835.00
153.2060, 12817.00
154.4290, 12849.00
155.6520, 12837.00
156.8750, 12813.00
158.0980, 12826.00
159.3200, 12917.82
160.5430, 13142.00
161.7650, 13186.00
162.9870, 13319.53
164.2090, 13427.71
165.4310, 13464.00
166.6530, 13558.00
167.8740, 13513.00
169.0960, 13463.00
170.3170, 13448.00
171.5380, 13543.00
172.7590, 13716.00
173.9800, 13511.00
175.2010, 13274.00
176.4220, 13377.00
177.6420, 13263.00
178.8630, 13163.00
180.0830, 13206.16
181.3030, 12954.00
182.5230, 13134.00
183.7430, 13332.00
184.9620, 13176.00
186.1820, 12993.00
187.4010, 13091.00
188.6200, 13256.00
189.8390, 13212.00
191.0580, 13330.00
192.2770, 13426.00
193.4960, 13721.00
194.7140, 14010.00
195.9330, 14244.00
197.1510, 14631.00
198.3690, 15182.00
199.5870, 15660.00
200.8050, 16595.00
202.0230, 17071.00
203.2400, 18118.00
204.4580, 18470.00
205.6750, 19204.00
206.8920, 19777.00
208.1090, 20308.00
209.3260, 20490.00
210.5430, 20844.00
211.7600, 20496.00
212.9760, 20163.00
214.1920, 19188.00
215.4080, 18263.00
216.6240, 17129.00
217.8400, 16380.00
219.0560, 15556.17
220.2720, 15071.00
221.4870, 14353.00
222.7030, 13970.00
223.9180, 13868.00
225.1330, 13491.00
226.3480, 13273.00
227.5630, 13172.00
228.7770, 12945.00
229.9920, 13052.00
231.2060, 12827.00
232.4200, 12877.00
233.6340, 12767.00
234.8480, 12912.00
236.0620, 12798.00
237.2760, 12792.00
238.4890, 12738.00
239.7030, 12754.00
240.9160, 12811.00
242.1290, 12661.00
243.3420, 12710.00
244.5550, 12599.00
245.7670, 12590.00
246.9800, 12696.00
248.1920, 12698.00
249.4040, 12692.00
250.6160, 12788.00
251.8280, 12784.00
253.0400, 12886.00
254.2520, 13035.00
255.4630, 13113.00
256.6750, 13373.00
257.8860, 13478.82
259.0970, 13832.00
260.3080, 13799.00
261.5190, 14055.00
262.7300, 14254.00
263.9400, 14381.00
265.1510, 14444.00
266.3610, 14286.00
267.5710, 14492.00
268.7810, 14227.00
269.9910, 14128.00
271.2000, 14079.00
272.4100, 14062.00
273.6190, 13960.00
274.8290, 13711.00
276.0380, 13616.00
277.2470, 13439.00
278.4560, 13432.00
279.6640, 13350.00
280.8730, 13251.00
282.0810, 13364.00
283.2900, 13146.00
284.4980, 13331.00
285.7060, 13438.00
286.9130, 13650.00
288.1210, 13780.00
289.3290, 13937.00
290.5360, 14129.00
291.7430, 14181.00
292.9510, 14535.00
294.1570, 14877.00
295.3640, 15232.00
296.5710, 15218.05
297.7780, 15319.00
298.9840, 14982.00
300.1900, 14987.00
301.3960, 14618.00
302.6020, 14331.00
303.8080, 14100.00
305.0140, 14207.00
306.2190, 13956.00
307.4250, 14093.00
308.6300, 13969.00
309.8350, 14168.00
311.0400, 14278.00
312.2450, 14547.00
313.4500, 14705.00
314.6540, 15099.00
315.8590, 15502.00
317.0630, 15919.00
318.2670, 16423.00
319.4710, 17142.00
320.6750, 17459.00
321.8780, 18228.00
323.0820, 18666.00
324.2850, 18996.00
325.4890, 19538.00
326.6920, 19744.00
327.8950, 19791.00
329.0970, 20045.00
330.3000, 19722.00
331.5030, 19140.00
332.7050, 18825.00
333.9070, 18138.00
335.1090, 17663.00
336.3110, 17180.00
337.5130, 16791.00
338.7150, 16608.00
339.9160, 16147.00
341.1180, 15990.00
342.3190, 15945.00
343.5200, 16142.00
344.7210, 16060.00
345.9220, 16171.00
347.1220, 16263.00
348.3230, 16604.00
349.5230, 17072.00
350.7230, 17055.00
351.9230, 17424.90
353.1230, 17451.00
354.3230, 17737.00
355.5230, 17973.00
356.7220, 17855.00
357.9220, 17917.00
359.1210, 18126.00
360.3200, 17623.00
361.5190, 17524.00
362.7170, 17151.00
363.9160, 17091.00
365.1150, 16504.00
366.3130, 16162.00
367.5110, 16101.00
368.7090, 15608.00
369.9070, 15630.00
371.1050, 15460.00
372.3020, 15054.00
373.5000, 15028.00
374.6970, 14797.00
375.8940, 14684.00
377.0910, 14857.00
378.2880, 14655.00
379.4850, 14600.00
380.6810, 14532.00
381.8780, 14521.00
383.0740, 14539.00
384.2700, 14595.00
385.4660, 14666.00
386.6620, 14755.00
387.8580, 14914.46
389.0530, 15202.14
390.2490, 15387.00
391.4440, 15874.00
392.6390, 16367.00
393.8340, 16677.00
395.0290, 17067.00
396.2230, 17271.00
397.4180, 17552.00
398.6120, 17517.00
399.8060, 17525.00
401.0000, 17425.00
402.1940, 17068.76
403.3880, 16728.16
404.5820, 15997.00
405.7750, 15901.00
406.9690, 14931.00
408.1620, 14856.00
409.3550, 14723.00
410.5480, 14640.00
411.7400, 14322.00
412.9330, 14259.00
414.1260, 14262.00
415.3180, 14282.00
416.5100, 14256.00
417.7020, 14241.00
418.8940, 14195.55
420.0860, 14280.00
421.2770, 14091.00
422.4690, 14016.00
423.6600, 13991.91
424.8510, 14046.00
426.0420, 13951.00
427.2330, 14081.00
428.4230, 14067.00
429.6140, 14110.00
430.8040, 14045.00
431.9950, 14024.00
433.1850, 14066.11
434.3750, 14251.00
435.5640, 14163.00
436.7540, 14212.00
437.9440, 14315.00
439.1330, 14166.00
440.3220, 14326.00
441.5110, 14299.90
442.7000, 14427.00
443.8890, 14312.00
445.0770, 14484.00
446.2660, 14444.00
447.4540, 14464.00
448.6420, 14576.00
449.8300, 14622.00
451.0180, 14607.03
452.2060, 14503.00
453.3930, 14579.00
454.5810, 14576.00
455.7680, 14610.00
456.9550, 14623.56
458.1420, 14573.00
459.3290, 14603.00
460.5160, 14573.00
461.7020, 14503.00
462.8890, 14616.00
464.0750, 14406.00
465.2610, 14371.00
466.4470, 14629.00
467.6330, 14483.00
468.8180, 14549.00
470.0040, 14570.00
471.1890, 14555.00
472.3740, 14519.00
473.5590, 14543.27
474.7440, 14564.20
475.9290, 14589.00
477.1130, 14596.00
478.2980, 14676.00
479.4820, 14577.00
480.6660, 14579.00
481.8500, 14719.00
483.0340, 14565.00
484.2180, 14692.00
485.4010, 14825.00
486.5850, 14948.00
487.7680, 14919.00
488.9510, 14982.73
490.1340, 15017.79
491.3170, 14978.00
492.4990, 15083.00
493.6820, 15094.00
494.8640, 15150.00
496.0460, 15051.00
497.2280, 15242.00
498.4100, 15315.00
499.5920, 15389.00
500.7730, 15551.00
501.9550, 15507.73
503.1360, 15863.00
504.3170, 15879.00
505.4980, 16332.00
506.6790, 16507.37
507.8600, 16737.00
509.0400, 16994.00
510.2200, 16887.00
511.4010, 17097.00
512.5810, 17376.00
513.7610, 17869.00
514.9400, 17806.00
516.1200, 17547.78
517.3000, 17299.38
518.4790, 16747.00
519.6580, 16395.00
520.8370, 16380.00
522.0160, 16302.00
523.1950, 16247.00
524.3730, 16271.00
525.5510, 16178.00
526.7300, 16251.00
527.9080, 16307.00
529.0860, 16520.00
530.2640, 16540.00
531.4410, 16740.00
532.6190, 17258.00
533.7960, 17234.05
534.9730, 17500.19
536.1500, 17504.00
537.3270, 17842.00
538.5040, 18036.00
539.6800, 18345.00
540.8570, 18565.00
542.0330, 18872.00
543.2090, 18986.72
544.3850, 19079.43
545.5610, 19133.00
546.7370, 19009.00
547.9120, 18931.00
549.0880, 18636.00
550.2630, 18475.00
551.4380, 18114.00
552.6130, 18059.00
553.7880, 17715.00
554.9620, 17403.00
556.1370, 17302.00
557.3110, 17054.00
558.4850, 16873.83
559.6590, 16682.00
560.8330, 16535.00
562.0070, 16369.00
563.1800, 16221.00
564.3530, 16019.00
565.5270, 15947.00
566.7000, 15895.00
567.8730, 15780.00
569.0450, 15804.00
570.2180, 15658.00
571.3910, 15822.00
572.5630, 15641.00
573.7350, 15709.00
574.9070, 15527.00
576.0790, 15569.00
577.2510, 15449.00
578.4220, 15613.00
579.5940, 15275.00
580.7650, 15208.00
581.9360, 15061.00
583.1070, 15159.00
584.2780, 15643.00
585.4480, 15524.00
586.6190, 15573.00
587.7890, 15525.00
588.9590, 15517.94
590.1290, 15368.01
591.2990, 15494.00
592.4690, 15094.00
593.6380, 14971.00
594.8080, 15023.00
595.9770, 15161.00
597.1460, 14990.00
598.3150, 14885.00
599.4840, 14951.00
600.6520, 15145.00
601.8210, 15240.00
602.9890, 15222.00
604.1570, 15171.00
605.3250, 15221.00
606.4930, 15255.00
607.6610, 15438.00
608.8280, 15405.00
609.9960, 15377.00
611.1630, 15411.00
612.3300, 15383.00
613.4970, 15417.00
614.6640, 15477.28
615.8300, 15530.00
616.9970, 15590.00
618.1630, 15570.00
619.3290, 15544.00
620.4950, 15494.00
621.6610, 15556.98
622.8270, 15565.51
623.9920, 15691.00
625.1580, 15676.00
626.3230, 15752.00
627.4880, 15833.00
628.6530, 16003.00
629.8180, 15795.00
630.9820, 15879.00
632.1470, 15926.00
633.3110, 16127.00
634.4750, 16293.00
635.6390, 16192.00
636.8030, 16411.00
637.9670, 16101.00
639.1300, 16398.00
640.2940, 16417.00
641.4570, 16354.00
642.6200, 16484.00
643.7830, 16587.00
644.9460, 16567.00
646.1080, 16698.00
647.2710, 16667.00
648.4330, 16748.00
649.5950, 17038.00
650.7570, 16934.00
651.9190, 17319.00
653.0800, 17390.00
654.2420, 17650.00
655.4030, 17520.00
656.5650, 17884.00
657.7260, 17972.00
658.8860, 18294.00
660.0470, 18746.00
661.2080, 18981.00
662.3680, 19411.00
663.5280, 19899.00
664.6880, 20122.00
665.8480, 20785.00
667.0080, 21420.00
668.1680, 21786.00
669.3270, 22428.00
670.4870, 23013.00
671.6460, 23657.00
672.8050, 24273.00
673.9640, 24615.00
675.1220, 25051.00
676.2810, 25212.00
677.4390, 25592.00
678.5970, 25845.00
679.7560, 25911.00
680.9130, 25930.00
682.0710, 25784.00
683.2290, 25653.00
684.3860, 25811.00
685.5430, 25830.00
686.7010, 26169.00
687.8580, 26141.00
689.0140, 26587.00
690.1710, 27168.00
691.3280, 27734.00
692.4840, 28464.00
693.6400, 29093.00
694.7960, 29865.00
695.9520, 30249.00
697.1080, 30698.00
698.2630, 30928.00
699.4190, 31181.00
700.5740, 30988.00
701.7290, 30790.00
702.8840, 30537.00
704.0390, 29557.00
705.1930, 28592.00
706.3480, 27699.00
707.5020, 26593.00
708.6560, 25564.00
709.8100, 24502.00
710.9640, 23720.00
712.1180, 22737.00
713.2710, 22202.00
714.4240, 21710.00
715.5780, 20834.00
716.7310, 20432.00
717.8840, 20117.00
719.0360, 19486.00
720.1890, 19506.00
721.3410, 19111.00
722.4940, 18835.00
723.6460, 18469.00
724.7980, 18494.00
725.9490, 18241.00
727.1010, 18019.00
728.2520, 17969.00
729.4040, 17679.00
730.5550, 17563.00
731.7060, 17367.00
732.8570, 17333.00
734.0070, 17252.00
735.1580, 17071.00
736.3080, 16957.00
737.4580, 16931.80
738.6080, 17050.00
739.7580, 16913.00
740.9080, 16788.00
742.0580, 16789.00
743.2070, 16615.00
744.3560, 16828.00
745.5050, 16563.00
746.6540, 16471.00
747.8030, 16599.00
748.9520, 16522.00
750.1000, 16447.00
751.2480, 16450.00
752.3960, 16394.00
753.5440, 16385.00
754.6920, 16372.00
755.8400, 16411.00
756.9870, 16513.00
758.1350, 16511.84
759.2820, 16662.00
760.4290, 16569.00
761.5760, 16703.00
762.7220, 16715.00
763.8690, 16947.00
765.0150, 17040.00
766.1620, 17002.00
767.3080, 17395.00
768.4530, 17187.00
769.5990, 17516.00
770.7450, 17832.00
771.8900, 17736.00
773.0350, 17917.00
774.1810, 17930.00
775.3260, 17931.00
776.4700, 17746.00
777.6150, 17851.00
778.7590, 17943.00
779.9040, 17830.00
781.0480, 18001.00
782.1920, 17644.00
783.3360, 17701.00
784.4790, 17663.15
785.6230, 17580.00
786.7660, 17692.00
787.9090, 17590.00
789.0520, 17746.00
790.1950, 17396.00
791.3380, 17445.00
792.4800, 17285.00
793.6230, 17371.00
794.7650, 17201.00
795.9070, 17379.00
797.0490, 17229.00
798.1910, 17235.00
799.3320, 17251.00
800.4740, 17208.00
801.6150, 17382.00
802.7560, 17155.00
803.8970, 17307.00
805.0380, 17174.00
806.1790, 17195.00
807.3190, 17209.00
808.4590, 17219.00
809.5990, 17212.07
810.7390, 17218.05
811.8790, 17205.00
813.0190, 17231.00
814.1580, 17273.00
815.2980, 17320.00
816.4370, 17389.00
817.5760, 17436.79
818.7150, 17548.00
819.8530, 17517.00
820.9920, 17519.00
822.1300, 17479.00
823.2690, 17376.00
824.4070, 17539.00
825.5450, 17631.00
826.6820, 17659.47
827.8200, 17596.00
828.9570, 17801.00
830.0940, 17667.00
831.2320, 17707.00
832.3680, 17748.00
833.5050, 17884.00
834.6420, 17951.00
835.7780, 17956.00
836.9150, 18048.00
838.0510, 18133.27
839.1870, 18289.00
840.3220, 18380.00
841.4580, 18551.00
842.5930, 18750.00
843.7290, 18812.00
844.8640, 19093.00
845.9990, 19305.00
847.1340, 19383.00
848.2680, 19706.00
849.4030, 20047.00
850.5370, 20395.00
851.6710, 20867.00
852.8050, 21073.00
853.9390, 21554.00
855.0730, 21805.00
856.2060, 22682.00
857.3400, 23147.00
858.4730, 23961.00
859.6060, 24738.00
860.7390, 25438.00
861.8720, 26465.00
863.0040, 27563.00
864.1370, 29092.00
865.2690, 30182.00
866.4010, 31802.00
867.5330, 33708.00
868.6650, 35977.00
869.7960, 38524.00
870.9280, 41666.00
872.0590, 45544.00
873.1900, 50120.00
874.3210, 55562.00
875.4520, 62551.00
876.5820, 70700.00
877.7130, 79907.00
878.8430, 90704.00
879.9730, 101820.0
881.1030, 112733.0
882.2330, 121992.0
883.3620, 129086.0
884.4920, 133718.0
885.6210, 133442.0
886.7500, 128612.0
887.8790, 120764.0
889.0080, 108456.0
890.1370, 96278.00
891.2650, 83419.00
892.3930, 72218.00
893.5220, 62466.00
894.6500, 54466.00
895.7770, 48468.00
896.9050, 41941.00
898.0330, 37745.00
899.1600, 34055.00
900.2870, 31322.00
901.4140, 28677.00
902.5410, 26991.00
903.6680, 25671.00
904.7940, 24258.00
905.9210, 23332.00
907.0470, 22510.00
908.1730, 21865.00
909.2990, 21062.00
910.4240, 20632.00
911.5500, 20247.00
912.6750, 19782.00
913.8010, 19440.00
914.9260, 19088.00
916.0510, 18820.00
917.1750, 18687.00
918.3000, 18557.00
919.4240, 18080.00
920.5480, 18084.00
921.6730, 17875.00
922.7960, 17701.00
923.9200, 17618.00
925.0440, 17482.00
926.1670, 17458.00
927.2900, 17400.58
928.4140, 17159.13
929.5360, 17361.12
930.6590, 17463.38
931.7820, 17471.28
932.9040, 17102.21
934.0270, 17219.92
935.1490, 17142.56
936.2710, 17057.21
937.3920, 17243.47
938.5140, 16929.25
939.6350, 17111.20
940.7570, 17095.08
941.8780, 17169.62
942.9990, 17047.88
944.1200, 16986.77
945.2400, 17122.02
946.3610, 17148.54
947.4810, 17004.22
948.6010, 17084.55
949.7210, 16763.51
950.8410, 16794.68
951.9600, 16977.83
953.0800, 16843.38
954.1990, 16927.33
955.3180, 16928.11
956.4370, 16550.93
957.5560, 16831.05
958.6750, 16826.91
959.7930, 16530.92
960.9120, 16788.52
962.0300, 16532.77
963.1480, 16460.27
964.2650, 16525.68
965.3830, 16447.32
966.5010, 16455.70
967.6180, 16525.57
968.7350, 16436.02
969.8520, 16431.61
970.9690, 16405.76
972.0860, 16204.84
973.2020, 16423.06
974.3180, 16541.56
975.4350, 16565.70
976.5510, 16212.87
977.6660, 16346.83
978.7820, 16285.70
979.8980, 16216.57
981.0130, 16419.05
982.1280, 16121.06
983.2430, 16319.23
984.3580, 16319.34
985.4730, 16410.10
986.5870, 16304.57
987.7010, 16259.68
988.8160, 16411.13
989.9300, 16453.86
991.0440, 16325.74
992.1570, 16422.28
993.2710, 16117.44
994.3840, 16164.81
995.4970, 16364.15
996.6100, 16245.91
997.7230, 16346.03
998.8360, 16362.99
999.9480, 16002.01
1001.061, 16298.32
1002.173, 16310.37
1003.285, 16030.55
1004.397, 16304.34
1005.508, 16064.77
1006.620, 16008.43
1007.731, 16090.00
1008.843, 16027.81
1009.954, 16192.27
1011.064, 16138.40
1012.175, 16065.01
1013.286, 16076.75
1014.396, 15847.25
1015.506, 16065.32
1016.616, 15918.00
1017.726, 16015.00
1018.836, 15932.00
1019.945, 15831.00
1021.055, 16122.00
1022.164, 15999.00
1023.273, 16098.00
1024.382, 16089.00
1025.490, 16144.00
1026.599, 16064.00
1027.707, 15981.00
1028.815, 16029.00
1029.923, 16134.00
1031.031, 16016.74
1032.139, 16060.00
1033.247, 15829.00
1034.354, 16093.00
1035.461, 15940.00
1036.568, 15921.00
1037.675, 16135.00
1038.782, 16030.00
1039.888, 16017.00
1040.994, 16036.00
1042.101, 16207.00
1043.207, 15974.00
1044.313, 16088.00
1045.418, 15964.00
1046.524, 16048.00
1047.629, 16599.00
1048.734, 16323.00
1049.839, 16335.97
1050.944, 16328.00
1052.049, 16021.00
1053.153, 16075.00
1054.258, 16145.00
1055.362, 16044.00
1056.466, 16251.00
1057.570, 16112.00
1058.673, 16270.00
1059.777, 16063.00
1060.880, 16115.00
1061.983, 16282.00
1063.086, 16172.00
1064.189, 16353.00
1065.292, 16221.00
1066.394, 16269.00
1067.497, 16183.00
1068.599, 16246.00
1069.701, 16178.00
1070.803, 16209.52
1071.904, 16336.00
1073.006, 16242.00
1074.107, 16333.00
1075.208, 16301.00
1076.309, 16308.00
1077.410, 16361.83
1078.511, 16288.27
1079.611, 16417.00
1080.712, 16225.00
1081.812, 16188.00
1082.912, 16251.00
1084.011, 16242.00
1085.111, 16249.47
1086.211, 16263.00
1087.310, 16236.00
1088.409, 16198.00
1089.508, 16128.00
1090.607, 16147.00
1091.705, 16174.00
1092.804, 16281.00
1093.902, 16246.16
1095.000, 16199.00
1096.098, 16239.00
1097.196, 16151.00
1098.294, 16170.00
1099.391, 16138.00
1100.488, 16129.13
1101.585, 16112.55
1102.682, 16150.00
1103.779, 16092.00
1104.876, 16123.00
1105.972, 16172.00
1107.068, 16166.00
1108.165, 16195.00
1109.260, 16070.00
1110.356, 16087.00
1111.452, 16110.00
1112.547, 16093.00
1113.643, 16099.00
1114.738, 16112.16
1115.832, 16130.00
1116.927, 16152.00
1118.022, 16020.00
1119.116, 16061.00
1120.210, 16253.00
1121.305, 16130.66
1122.398, 16171.80
1123.492, 16087.00
1124.586, 16107.00
1125.679, 16122.00
1126.772, 16144.00
1127.865, 15831.00
1128.958, 15960.00
1130.051, 15932.00
1131.143, 16089.00
1132.236, 16139.00
1133.328, 15950.00
1134.420, 16034.00
1135.512, 16073.00
1136.604, 15882.00
1137.695, 16019.00
1138.786, 15910.00
1139.878, 15980.00
1140.969, 16057.00
1142.060, 16052.00
1143.150, 16066.69
1144.241, 16050.00
1145.331, 15993.86
1146.421, 16003.00
1147.511, 15904.00
1148.601, 16034.00
1149.691, 15756.00
1150.780, 16011.00
1151.869, 15874.00
1152.959, 16037.00
1154.048, 15982.00
1155.136, 15910.00
1156.225, 15912.00
1157.313, 15857.00
1158.402, 15887.00
1159.490, 15893.00
1160.578, 15964.00
1161.666, 15863.00
1162.753, 15809.00
1163.841, 15857.00
1164.928, 15877.00
1166.015, 15872.47
1167.102, 15918.33
1168.189, 15895.00
1169.275, 15965.00
1170.362, 15976.00
1171.448, 15783.45
1172.534, 16009.58
1173.620, 16136.00
1174.706, 16168.05
1175.791, 15823.13
1176.877, 15964.99
1177.962, 15911.78
1179.047, 15850.56
1180.132, 16060.94
1181.216, 15770.85
1182.301, 15976.93
1183.385, 15984.94
1184.470, 16083.60
1185.554, 15985.98
1186.637, 15948.98
1187.721, 16108.33
1188.805, 16158.96
1189.888, 16038.74
1190.971, 16143.17
1192.054, 15846.22
1193.137, 15901.49
1194.220, 16108.71
1195.302, 15998.36
1196.384, 16106.38
1197.467, 16131.23
1198.549, 15778.13
1199.630, 16082.32
1200.712, 16102.26
1201.793, 15830.32
1202.875, 16112.00
1203.956, 15880.30
1205.037, 15831.84
1206.118, 15921.29
1207.198, 15866.98
1208.279, 16039.32
1209.359, 15993.31
1210.439, 15927.80
1211.519, 15947.42
1212.599, 15888.52
1213.678, 15951.73
1214.758, 15871.94
1215.837, 15944.12
1216.916, 16050.75
1217.995, 15893.62
1219.073, 16015.73
1220.152, 15704.82
1221.230, 15756.23
1222.308, 15768.62
1223.387, 16012.61
1224.464, 15703.81
1225.542, 15745.15
1226.620, 15935.58
1227.697, 15917.41
1228.774, 15986.45
1229.851, 15797.29
1230.928, 15850.69
1232.005, 15837.24
1233.081, 16054.82
1234.157, 16090.01
1235.233, 15905.23
1236.309, 15721.39
1237.385, 15955.60
1238.461, 15793.57
1239.536, 15845.31
1240.611, 15676.28
1241.687, 15697.86
1242.762, 15716.43
1243.836, 15832.71
1244.911, 15811.23
1245.985, 15857.02
1247.059, 15839.21
