##NAMES=Ilvaite
##RRUFFID=R050040
##IDEAL CHEMISTRY=CaFe^2+^_2_Fe^3+^OSi_2_O_7_(OH)
##LOCALITY=Capo Calamita, Isle of Elba, Italy
##OWNER=RRUFF
##SOURCE=University of Arizona Mineral Museum
##DESCRIPTION=Brown fragment
##STATUS=The identification of this mineral has been confirmed by X-ray diffraction and chemical analysis
##URL=rruff.info/R050040
##MEASURED CHEMISTRY=Ca_1.00_(Fe^2+^_1.89_Mn_0.10_Mg_0.01_)_Î£=2_Fe^3+^_1.00_OSi_2.00_O_7_(OH); trace amounts of Al; OH estimated by charge balance
##PIN_ID=M00376
##ORIENTATION=Laser parallel to -a* (-1 0 0). Fiducial mark perpendicular to laser is parallel to -b [0 -1 0]
135.0140, 48083.00
136.2500, 48718.00
137.4850, 48902.00
138.7200, 49530.00
139.9550, 49387.00
141.1900, 49151.00
142.4250, 48869.00
143.6600, 49211.00
144.8940, 49442.00
146.1280, 49882.00
147.3620, 49961.00
148.5960, 50015.00
149.8300, 50637.00
151.0630, 51059.00
152.2960, 50875.00
153.5300, 50558.00
154.7620, 50490.00
155.9950, 50459.00
157.2280, 50317.00
158.4600, 50186.91
159.6920, 50086.65
160.9250, 49868.00
162.1560, 49750.00
163.3880, 49646.00
164.6200, 49305.00
165.8510, 48869.00
167.0820, 48863.00
168.3130, 48465.00
169.5440, 48538.00
170.7750, 48456.00
172.0050, 48539.00
173.2350, 48453.00
174.4650, 48528.00
175.6950, 48701.00
176.9250, 48785.00
178.1550, 48709.00
179.3840, 48801.73
180.6130, 48794.09
181.8420, 48758.00
183.0710, 48880.00
184.3000, 48753.00
185.5280, 48925.00
186.7570, 48437.00
187.9850, 48567.00
189.2130, 48510.00
190.4400, 48584.00
191.6680, 48065.00
192.8960, 47741.00
194.1230, 47428.00
195.3500, 47101.00
196.5770, 46749.00
197.8030, 46042.00
199.0300, 46536.00
200.2560, 46050.00
201.4830, 45452.00
202.7090, 44300.00
203.9340, 43143.00
205.1600, 41855.00
206.3860, 40970.00
207.6110, 40446.00
208.8360, 40198.00
210.0610, 39776.00
211.2860, 39357.00
212.5100, 39338.00
213.7350, 38727.00
214.9590, 38324.00
216.1830, 38186.00
217.4070, 37750.00
218.6310, 37311.00
219.8540, 37098.00
221.0780, 36940.00
222.3010, 36708.00
223.5240, 36433.00
224.7470, 36111.00
225.9690, 36103.00
227.1920, 35964.00
228.4140, 36028.00
229.6360, 35659.00
230.8580, 35332.00
232.0800, 35373.00
233.3020, 35203.00
234.5230, 35183.00
235.7440, 35219.00
236.9650, 34785.00
238.1860, 34550.00
239.4070, 34642.00
240.6280, 34146.00
241.8480, 33990.00
243.0680, 33843.00
244.2880, 33678.00
245.5080, 33837.00
246.7280, 33763.00
247.9470, 33723.00
249.1660, 33700.00
250.3860, 33700.00
251.6040, 33245.00
252.8230, 32991.02
254.0420, 33213.22
255.2600, 33342.82
256.4790, 33384.82
257.6970, 33076.79
258.9150, 33220.74
260.1320, 33183.54
261.3500, 33138.93
262.5670, 33346.49
263.7840, 33089.35
265.0010, 33292.91
266.2180, 33301.00
267.4350, 33463.00
268.6510, 33506.00
269.8680, 33648.00
271.0840, 33475.00
272.3000, 33866.00
273.5160, 33826.00
274.7310, 34117.00
275.9470, 34004.00
277.1620, 34386.00
278.3770, 34207.13
279.5920, 34445.00
280.8070, 33858.00
282.0210, 33829.00
283.2360, 33510.00
284.4500, 33705.00
285.6640, 33566.00
286.8780, 33239.00
288.0920, 33133.04
289.3050, 32909.00
290.5180, 32590.00
291.7320, 32577.00
292.9450, 32376.00
294.1570, 32313.00
295.3700, 32184.00
296.5830, 32089.00
297.7950, 31894.00
299.0070, 31865.00
300.2190, 31739.26
301.4310, 31824.00
302.6420, 31606.00
303.8540, 31617.00
305.0650, 31654.00
306.2760, 31456.00
307.4870, 31646.00
308.6980, 31589.00
309.9080, 31530.00
311.1190, 31519.10
312.3290, 31867.00
313.5390, 31489.00
314.7490, 31331.00
315.9580, 31623.00
317.1680, 31886.00
318.3770, 31753.00
319.5860, 31862.00
320.7950, 32038.00
322.0040, 32191.00
323.2130, 32524.00
324.4210, 32667.00
325.6290, 32768.25
326.8380, 32788.00
328.0460, 32842.00
329.2530, 32751.00
330.4610, 32669.00
331.6680, 32652.00
332.8760, 32409.00
334.0830, 32406.76
335.2890, 32156.71
336.4960, 32252.00
337.7030, 31785.00
338.9090, 31609.00
340.1150, 31648.00
341.3210, 31312.00
342.5270, 31370.00
343.7330, 31207.00
344.9380, 30864.00
346.1440, 30908.00
347.3490, 30577.00
348.5540, 30655.00
349.7590, 30526.00
350.9630, 30458.00
352.1680, 30388.00
353.3720, 30338.50
354.5760, 30312.47
355.7800, 30254.00
356.9840, 30288.00
358.1870, 30188.00
359.3910, 30174.00
360.5940, 30064.00
361.7970, 29960.00
363.0000, 29738.00
364.2030, 29794.00
365.4050, 29518.00
366.6080, 29587.00
367.8100, 29171.00
369.0120, 29218.00
370.2140, 29035.00
371.4150, 28900.00
372.6170, 29102.00
373.8180, 28873.00
375.0190, 28737.00
376.2200, 28525.00
377.4210, 28592.00
378.6220, 28524.00
379.8220, 28567.00
381.0230, 28611.00
382.2230, 28622.00
383.4230, 28622.00
384.6220, 28563.00
385.8220, 28482.00
387.0220, 28704.00
388.2210, 28578.00
389.4200, 28509.00
390.6190, 28608.00
391.8180, 28481.00
393.0160, 28865.00
394.2150, 28691.00
395.4130, 28766.00
396.6110, 28717.00
397.8090, 28719.00
399.0060, 28971.00
400.2040, 28891.00
401.4010, 29005.00
402.5980, 29163.00
403.7950, 28996.00
404.9920, 28821.00
406.1890, 29087.00
407.3860, 28939.00
408.5820, 29031.00
409.7780, 28886.00
410.9740, 28872.00
412.1700, 28765.00
413.3650, 28737.00
414.5610, 28927.00
415.7560, 28806.00
416.9510, 28737.00
418.1460, 28907.00
419.3410, 28852.00
420.5360, 28931.00
421.7300, 28683.00
422.9240, 28564.00
424.1180, 28667.00
425.3120, 28794.00
426.5060, 28494.00
427.7000, 28711.00
428.8930, 28403.00
430.0860, 28609.00
431.2790, 28525.00
432.4720, 28547.00
433.6650, 28682.00
434.8580, 28464.00
436.0500, 28313.00
437.2420, 28174.00
438.4340, 28106.84
439.6260, 28090.31
440.8180, 28122.00
442.0090, 28193.00
443.2010, 28369.00
444.3920, 28526.00
445.5830, 28355.00
446.7740, 28080.00
447.9640, 28193.00
449.1550, 28265.00
450.3450, 28304.00
451.5350, 28344.00
452.7250, 28324.00
453.9150, 28347.00
455.1050, 28212.00
456.2940, 28481.00
457.4830, 28262.00
458.6720, 28423.00
459.8610, 28301.00
461.0500, 28319.00
462.2390, 28290.00
463.4270, 28274.00
464.6150, 28417.00
465.8040, 28427.00
466.9910, 28449.00
468.1790, 28441.00
469.3670, 28473.57
470.5540, 28448.67
471.7410, 28495.00
472.9280, 28442.00
474.1150, 28377.00
475.3020, 28450.00
476.4890, 28513.14
477.6750, 28715.00
478.8610, 28759.00
480.0470, 28792.00
481.2330, 28892.00
482.4190, 28875.00
483.6040, 28836.00
484.7900, 28694.00
485.9750, 29125.00
487.1600, 29140.00
488.3450, 28910.00
489.5290, 29299.00
490.7140, 29049.00
491.8980, 29159.00
493.0820, 29165.00
494.2660, 29346.00
495.4500, 29145.00
496.6340, 29511.00
497.8170, 29424.00
499.0010, 29554.00
500.1840, 29437.00
501.3670, 29879.00
502.5500, 29732.00
503.7320, 29703.00
504.9150, 29804.00
506.0970, 29654.00
507.2790, 29512.00
508.4610, 29516.00
509.6430, 29485.00
510.8250, 29452.79
512.0060, 29483.00
513.1870, 29426.00
514.3680, 29451.00
515.5490, 29387.00
516.7300, 29237.00
517.9110, 29464.00
519.0910, 29419.00
520.2710, 29290.00
521.4510, 29390.00
522.6310, 29223.00
523.8110, 29246.00
524.9910, 29293.00
526.1700, 29073.00
527.3490, 29071.00
528.5280, 29154.00
529.7070, 29033.00
530.8860, 29136.00
532.0650, 28883.00
533.2430, 28994.00
534.4210, 29018.00
535.5990, 28826.00
536.7770, 28943.00
537.9550, 28615.00
539.1320, 28743.00
540.3100, 28725.00
541.4870, 28948.00
542.6640, 28773.00
543.8410, 28602.00
545.0170, 28795.00
546.1940, 28581.00
547.3700, 28723.00
548.5470, 28637.00
549.7230, 28611.43
550.8980, 28654.00
552.0740, 28630.00
553.2500, 28517.00
554.4250, 28611.00
555.6000, 28565.00
556.7750, 28611.00
557.9500, 28542.47
559.1250, 28287.00
560.2990, 28351.00
561.4730, 28279.00
562.6480, 28134.00
563.8220, 28242.00
564.9950, 28136.00
566.1690, 27993.00
567.3430, 28315.00
568.5160, 28245.00
569.6890, 28010.00
570.8620, 28000.00
572.0350, 27968.00
573.2070, 27688.00
574.3800, 27886.00
575.5520, 27792.00
576.7240, 27430.00
577.8960, 27537.00
579.0680, 27604.00
580.2400, 27393.00
581.4110, 27399.00
582.5830, 27174.00
583.7540, 27274.00
584.9250, 27185.00
586.0950, 27174.00
587.2660, 27135.02
588.4370, 27079.46
589.6070, 26964.00
590.7770, 27013.00
591.9470, 26857.00
593.1170, 26867.24
594.2860, 26810.00
595.4560, 26709.00
596.6250, 26745.00
597.7940, 26705.00
598.9630, 26532.00
600.1320, 26768.00
601.3000, 26515.00
602.4690, 26659.00
603.6370, 26693.00
604.8050, 26601.00
605.9730, 26416.00
607.1410, 26546.00
608.3090, 26702.00
609.4760, 26462.00
610.6430, 26449.00
611.8100, 26520.00
612.9770, 26433.00
614.1440, 26435.00
615.3110, 26423.65
616.4770, 26343.00
617.6430, 26343.00
618.8090, 26262.00
619.9750, 26225.04
621.1410, 26321.00
622.3070, 26145.00
623.4720, 26123.00
624.6370, 26105.00
625.8020, 26199.00
626.9670, 26049.00
628.1320, 26114.00
629.2970, 26211.00
630.4610, 26207.00
631.6250, 26210.00
632.7890, 26128.00
633.9530, 26066.00
635.1170, 26067.55
636.2810, 26069.00
637.4440, 26063.00
638.6070, 26141.00
639.7700, 26174.00
640.9330, 26126.41
642.0960, 26062.00
643.2590, 26004.00
644.4210, 26012.00
645.5830, 25917.00
646.7450, 25887.00
647.9070, 25814.00
649.0690, 25990.00
650.2310, 25811.00
651.3920, 25873.00
652.5530, 25664.00
653.7140, 25688.00
654.8750, 25894.00
656.0360, 25750.00
657.1970, 25792.00
658.3570, 25850.04
659.5170, 25888.00
660.6770, 25880.00
661.8370, 25822.00
662.9970, 25740.00
664.1570, 25692.37
665.3160, 25643.36
666.4750, 25578.00
667.6340, 25605.00
668.7930, 25619.00
669.9520, 25694.00
671.1110, 25636.00
672.2690, 25667.21
673.4270, 25611.00
674.5850, 25651.00
675.7430, 25590.00
676.9010, 25556.00
678.0590, 25604.00
679.2160, 25788.00
680.3730, 25831.00
681.5300, 25785.50
682.6870, 25781.03
683.8440, 25643.00
685.0010, 25679.00
686.1570, 25661.00
687.3130, 25784.00
688.4690, 25886.00
689.6250, 25635.00
690.7810, 25636.00
691.9370, 25832.00
693.0920, 25799.00
694.2470, 25861.00
695.4020, 25969.00
696.5570, 25809.00
697.7120, 26024.00
698.8670, 25896.00
700.0210, 26026.00
701.1750, 26126.00
702.3290, 26054.00
703.4830, 26005.00
704.6370, 25933.00
705.7910, 25959.00
706.9440, 25789.00
708.0970, 25848.00
709.2510, 25668.00
710.4030, 25558.00
711.5560, 25643.00
712.7090, 25615.00
713.8610, 25681.00
715.0140, 25750.00
716.1660, 25574.00
717.3180, 25437.00
718.4690, 25596.00
719.6210, 25774.00
720.7730, 25438.00
721.9240, 25434.00
723.0750, 25482.00
724.2260, 25443.00
725.3770, 25405.00
726.5270, 25611.00
727.6780, 25313.00
728.8280, 25550.00
729.9780, 25396.00
731.1280, 25508.00
732.2780, 25659.00
733.4280, 25484.00
734.5770, 25351.00
735.7260, 25554.00
736.8760, 25510.00
738.0250, 25541.00
739.1730, 25376.00
740.3220, 25418.00
741.4700, 25597.00
742.6190, 25415.00
743.7670, 25489.00
744.9150, 25289.00
746.0630, 25565.00
747.2100, 25302.00
748.3580, 25387.00
749.5050, 25395.00
750.6520, 25588.00
751.7990, 25404.00
752.9460, 25511.00
754.0930, 25412.00
755.2390, 25597.00
756.3860, 25527.00
757.5320, 25462.00
758.6780, 25525.00
759.8240, 25382.00
760.9690, 25590.00
762.1150, 25612.00
763.2600, 25481.00
764.4060, 25498.00
765.5510, 25596.00
766.6950, 25532.00
767.8400, 25507.00
768.9850, 25597.00
770.1290, 25530.00
771.2730, 25514.00
772.4170, 25365.00
773.5610, 25692.00
774.7050, 25370.00
775.8480, 25723.00
776.9920, 25661.00
778.1350, 25661.00
779.2780, 25595.00
780.4210, 25613.00
781.5640, 25409.00
782.7060, 25670.00
783.8490, 25495.94
784.9910, 26024.00
786.1330, 25453.00
787.2750, 25633.00
788.4170, 25850.00
789.5580, 25782.00
790.7000, 25595.00
791.8410, 25720.00
792.9820, 25535.00
794.1230, 25872.00
795.2640, 25646.00
796.4040, 25780.00
797.5450, 25680.00
798.6850, 25808.00
799.8250, 25816.00
800.9650, 25659.00
802.1050, 25867.00
803.2450, 25969.00
804.3840, 26062.00
805.5230, 25878.00
806.6630, 26020.00
807.8020, 25923.00
808.9400, 25937.00
810.0790, 26108.00
811.2170, 25989.00
812.3560, 26014.00
813.4940, 25942.00
814.6320, 26280.00
815.7700, 26141.00
816.9070, 26186.00
818.0450, 26112.00
819.1820, 26160.00
820.3190, 26112.00
821.4560, 26039.00
822.5930, 26059.48
823.7300, 26014.24
824.8670, 26016.00
826.0030, 25993.00
827.1390, 25929.00
828.2750, 25935.00
829.4110, 25891.00
830.5470, 25824.00
831.6820, 25859.27
832.8180, 26052.00
833.9530, 25940.00
835.0880, 25877.00
836.2230, 25997.00
837.3580, 25722.00
838.4920, 25729.00
839.6270, 25940.00
840.7610, 25814.00
841.8950, 25903.00
843.0290, 25935.00
844.1630, 25900.00
845.2960, 25991.00
846.4300, 25982.00
847.5630, 26077.56
848.6960, 26140.00
849.8290, 26182.00
850.9620, 26204.00
852.0940, 26040.00
853.2270, 26132.00
854.3590, 26181.00
855.4910, 26041.00
856.6230, 26200.00
857.7550, 25954.00
858.8870, 26248.00
860.0180, 26115.00
861.1500, 26314.00
862.2810, 26200.00
863.4120, 26133.00
864.5430, 26240.00
865.6730, 26320.00
866.8040, 26432.00
867.9340, 26414.00
869.0640, 26311.00
870.1940, 26371.00
871.3240, 26181.00
872.4540, 26531.00
873.5830, 26549.00
874.7130, 26296.00
875.8420, 26555.00
876.9710, 26602.00
878.1000, 26486.00
879.2290, 26495.00
880.3570, 26525.00
881.4860, 26627.00
882.6140, 26347.00
883.7420, 26747.00
884.8700, 26459.00
885.9980, 26789.00
887.1250, 26655.00
888.2530, 26465.00
889.3800, 26648.00
890.5070, 26600.00
891.6340, 26498.00
892.7610, 26776.00
893.8880, 26726.00
895.0140, 26701.00
896.1400, 26748.00
897.2670, 26868.00
898.3930, 26698.00
899.5180, 26902.00
900.6440, 26847.00
901.7700, 26814.00
902.8950, 26686.00
904.0200, 26825.00
905.1450, 27037.00
906.2700, 26829.00
907.3950, 26862.00
908.5190, 26897.53
909.6440, 26810.87
910.7680, 26893.00
911.8920, 26773.00
913.0160, 26683.00
914.1400, 26665.00
915.2630, 26627.50
916.3870, 26658.00
917.5100, 26635.00
918.6330, 26606.00
919.7560, 26598.00
920.8790, 26465.00
922.0010, 26565.00
923.1240, 26477.00
924.2460, 26516.10
925.3680, 26546.00
926.4900, 26575.00
927.6120, 26396.00
928.7340, 26364.00
929.8550, 26456.00
930.9760, 26282.00
932.0980, 26390.00
933.2190, 26308.00
934.3390, 26370.00
935.4600, 26315.00
936.5810, 26221.00
937.7010, 26253.00
938.8210, 26226.00
939.9410, 26234.00
941.0610, 26228.00
942.1810, 26136.00
943.3010, 26295.00
944.4200, 26468.00
945.5390, 26320.00
946.6580, 26159.00
947.7770, 26094.00
948.8960, 26331.00
950.0150, 26158.37
951.1330, 26305.19
952.2510, 26154.00
953.3690, 26320.00
954.4870, 26508.00
955.6050, 26194.00
956.7230, 26270.00
957.8400, 26310.00
958.9580, 26190.00
960.0750, 26122.00
961.1920, 26367.00
962.3090, 26336.00
963.4250, 26201.00
964.5420, 26424.00
965.6580, 26175.00
966.7740, 26240.00
967.8900, 26397.00
969.0060, 26367.00
970.1220, 26307.00
971.2380, 26304.00
972.3530, 26092.83
973.4680, 26310.21
974.5830, 26434.99
975.6980, 26472.16
976.8130, 26159.30
977.9280, 26298.44
979.0420, 26256.43
980.1560, 26206.99
981.2710, 26409.74
982.3850, 26147.79
983.4980, 26346.52
984.6120, 26361.37
985.7260, 26460.37
986.8390, 26377.12
987.9520, 26350.16
989.0650, 26505.52
990.1780, 26559.92
991.2910, 26260.00
992.4030, 26451.00
993.5160, 26339.00
994.6280, 26533.00
995.7400, 26250.00
996.8520, 26205.00
997.9640, 26135.00
999.0750, 26339.00
1000.187, 26267.00
1001.298, 26291.00
1002.409, 26212.00
1003.520, 26368.00
1004.631, 26086.00
1005.741, 26074.00
1006.852, 26012.00
1007.962, 26336.00
1009.072, 25925.00
1010.182, 26237.00
1011.292, 26099.32
1012.402, 26087.92
1013.511, 26017.00
1014.621, 26073.00
1015.730, 26212.00
1016.839, 26087.00
1017.948, 26153.00
1019.056, 26088.00
1020.165, 26246.00
1021.273, 26237.00
1022.382, 26255.00
1023.490, 25853.00
1024.598, 25894.00
1025.706, 25804.00
1026.813, 25999.00
1027.921, 25937.00
1029.028, 25832.00
1030.135, 25931.00
1031.242, 26090.00
1032.349, 26054.00
1033.456, 26013.00
1034.562, 26104.00
1035.668, 25978.00
1036.775, 25933.02
1037.881, 26141.96
1038.987, 26258.30
1040.092, 26287.03
1041.198, 25965.73
1042.303, 26096.42
1043.408, 26045.98
1044.514, 25988.10
1045.618, 26182.41
1046.723, 25912.03
1047.828, 26102.34
1048.932, 26108.75
1050.037, 26199.32
1051.141, 26107.64
1052.245, 26155.00
1053.349, 25772.00
1054.452, 26198.00
1055.556, 25855.00
1056.659, 26021.00
1057.762, 25872.00
1058.865, 25942.00
1059.968, 25868.00
1061.071, 26062.00
1062.174, 25837.00
1063.276, 25765.00
1064.378, 25942.00
1065.480, 25946.00
1066.582, 26024.00
1067.684, 26007.00
1068.786, 25980.00
1069.887, 25991.00
1070.988, 26013.85
1072.090, 26002.78
1073.191, 26066.00
1074.291, 25989.00
1075.392, 25946.00
1076.493, 25892.00
1077.593, 25748.00
1078.693, 25826.00
1079.793, 25944.00
1080.893, 26035.00
1081.993, 25782.00
1083.092, 25723.00
1084.192, 25896.00
1085.291, 25949.00
1086.390, 26036.00
1087.489, 26031.94
1088.588, 25979.28
1089.686, 25955.00
1090.785, 25792.00
1091.883, 25744.00
1092.981, 25650.00
1094.079, 25610.86
1095.177, 25648.99
1096.275, 25588.00
1097.373, 25736.89
1098.470, 25762.00
1099.567, 25735.00
1100.664, 25782.00
1101.761, 25746.00
1102.858, 25739.00
1103.954, 25743.00
1105.051, 25689.00
1106.147, 25635.00
1107.243, 25745.00
1108.339, 25569.00
1109.435, 25683.00
1110.531, 25636.00
1111.626, 25602.00
1112.722, 25620.91
1113.817, 25595.00
1114.912, 25577.00
1116.007, 25538.00
1117.101, 25513.00
1118.196, 25503.00
1119.290, 25497.37
1120.385, 25523.28
1121.479, 25520.80
1122.573, 25567.00
1123.666, 25602.00
1124.760, 25402.00
1125.853, 25441.00
1126.947, 25373.90
1128.040, 25567.70
1129.133, 25668.91
1130.226, 25682.51
1131.318, 25346.10
1132.411, 25461.66
1133.503, 25396.10
1134.596, 25323.09
1135.688, 25502.29
1136.780, 25216.78
1137.871, 25391.99
1138.963, 25383.28
1140.054, 25458.76
1141.146, 25351.96
1142.237, 25301.47
1143.328, 25433.30
1144.419, 25464.18
1145.509, 25336.43
1146.600, 25417.26
1147.690, 25125.42
1148.780, 25038.00
1149.870, 25326.00
1150.960, 25069.00
1152.050, 25101.00
1153.139, 25260.00
1154.229, 25087.00
1155.318, 24993.00
1156.407, 25197.00
1157.496, 25006.00
1158.585, 25093.00
1159.674, 25079.00
1160.762, 25180.00
1161.850, 25115.00
1162.939, 25155.00
1164.027, 25061.00
1165.114, 25035.00
1166.202, 24950.00
1167.290, 24900.00
1168.377, 25020.00
1169.464, 24906.00
1170.551, 25154.00
1171.638, 24918.00
1172.725, 24983.00
1173.812, 25070.00
1174.898, 25017.00
1175.984, 24898.00
1177.071, 25039.00
1178.157, 25152.00
1179.242, 24973.00
1180.328, 25012.00
1181.414, 25156.00
1182.499, 24971.00
1183.584, 24974.00
1184.669, 24939.00
1185.754, 24909.00
1186.839, 25025.00
1187.924, 24920.00
1189.008, 25061.00
1190.092, 24961.00
1191.177, 24973.00
1192.260, 25116.00
1193.344, 25013.00
1194.428, 25054.00
1195.512, 24842.00
1196.595, 25012.00
1197.678, 24738.00
1198.761, 25026.00
1199.844, 24792.00
1200.927, 24795.00
1202.009, 24917.00
1203.092, 24874.00
1204.174, 25003.00
1205.256, 25013.45
1206.338, 25037.00
1207.420, 24984.00
1208.502, 24946.00
1209.583, 24752.00
1210.665, 24878.00
1211.746, 24759.00
1212.827, 24865.00
1213.908, 24736.00
1214.988, 24815.00
1216.069, 24764.00
1217.149, 24762.98
1218.230, 24963.00
1219.310, 24748.00
1220.390, 24803.00
1221.470, 24724.00
1222.549, 24921.00
1223.629, 24697.00
1224.708, 24736.00
1225.787, 24904.00
1226.866, 24691.00
1227.945, 25072.00
1229.024, 24633.00
1230.103, 24673.00
1231.181, 24740.00
1232.259, 24724.00
1233.337, 24979.00
1234.415, 24866.00
1235.493, 25005.00
1236.571, 24751.00
1237.648, 24841.00
1238.726, 25018.00
1239.803, 24816.00
1240.880, 24841.00
1241.957, 24718.00
1243.034, 24812.00
1244.110, 24891.00
1245.187, 25045.00
1246.263, 24829.00
1247.339, 24921.76
1248.415, 25031.00
1249.491, 24874.00
1250.566, 24918.00
1251.642, 24913.00
1252.717, 24730.00
1253.793, 25002.00
1254.868, 25460.00
1255.943, 24786.00
1257.017, 25047.00
1258.092, 24912.00
1259.166, 24778.00
1260.241, 24960.00
1261.315, 24744.00
1262.389, 24836.00
1263.462, 24630.00
1264.536, 24939.00
1265.610, 24858.00
1266.683, 24846.00
1267.756, 24845.19
1268.829, 24794.67
1269.902, 24692.00
1270.975, 24766.00
1272.048, 24783.00
1273.120, 24832.00
1274.192, 24752.00
1275.264, 24874.00
1276.336, 24696.00
1277.408, 24951.00
1278.480, 24908.00
1279.551, 24876.00
1280.623, 24795.00
1281.694, 24783.00
1282.765, 25115.00
1283.836, 24876.00
1284.907, 25068.00
1285.977, 25034.00
1287.048, 24784.00
1288.118, 24713.00
1289.188, 25069.00
1290.258, 24949.00
1291.328, 24957.00
1292.398, 24905.00
1293.467, 24836.00
1294.537, 24770.00
1295.606, 24816.00
1296.675, 24797.00
1297.744, 24828.64
1298.813, 24955.00
1299.882, 24910.00
1300.950, 25009.00
1302.018, 25044.00
1303.086, 24914.00
1304.155, 24827.00
1305.222, 24784.00
