##NAMES=Ilvaite
##RRUFFID=R050040
##IDEAL CHEMISTRY=CaFe^2+^_2_Fe^3+^OSi_2_O_7_(OH)
##LOCALITY=Capo Calamita, Isle of Elba, Italy
##OWNER=RRUFF
##SOURCE=University of Arizona Mineral Museum
##DESCRIPTION=Brown fragment
##STATUS=The identification of this mineral has been confirmed by X-ray diffraction and chemical analysis
##URL=rruff.info/R050040
##MEASURED CHEMISTRY=Ca_1.00_(Fe^2+^_1.89_Mn_0.10_Mg_0.01_)_Î£=2_Fe^3+^_1.00_OSi_2.00_O_7_(OH); trace amounts of Al; OH estimated by charge balance
##PIN_ID=M00376
##ORIENTATION=Laser parallel to -a* (-1 0 0). Fiducial mark perpendicular to laser is parallel to -b [0 -1 0]
135.0140, 50410.00
136.2500, 50425.00
137.4850, 50854.00
138.7200, 50656.03
139.9550, 50992.00
141.1900, 50401.00
142.4250, 50539.00
143.6600, 50573.00
144.8940, 50335.00
146.1280, 50752.00
147.3620, 51070.00
148.5960, 50949.00
149.8300, 51637.00
151.0630, 52176.00
152.2960, 51635.00
153.5300, 51528.00
154.7620, 51865.00
155.9950, 51198.00
157.2280, 51073.00
158.4600, 50778.00
159.6920, 50618.00
160.9250, 50481.00
162.1560, 50864.00
163.3880, 50503.00
164.6200, 51212.00
165.8510, 50549.00
167.0820, 50803.00
168.3130, 50412.00
169.5440, 50341.94
170.7750, 50933.00
172.0050, 50260.00
173.2350, 50165.00
174.4650, 50133.00
175.6950, 50535.00
176.9250, 50573.00
178.1550, 50598.00
179.3840, 50358.00
180.6130, 50574.00
181.8420, 50774.00
183.0710, 50747.00
184.3000, 50851.00
185.5280, 51124.00
186.7570, 51227.00
187.9850, 50934.00
189.2130, 51253.00
190.4400, 51307.00
191.6680, 51638.00
192.8960, 51628.00
194.1230, 51944.00
195.3500, 51843.00
196.5770, 51618.00
197.8030, 51384.00
199.0300, 51625.00
200.2560, 51817.00
201.4830, 51446.00
202.7090, 50330.00
203.9340, 48108.00
205.1600, 47045.00
206.3860, 46172.00
207.6110, 45656.00
208.8360, 45385.00
210.0610, 44896.55
211.2860, 44706.50
212.5100, 44327.00
213.7350, 44330.00
214.9590, 44028.00
216.1830, 43788.00
217.4070, 43444.00
218.6310, 43068.00
219.8540, 42654.00
221.0780, 42691.00
222.3010, 42403.00
223.5240, 42309.00
224.7470, 42572.00
225.9690, 42323.75
227.1920, 42197.00
228.4140, 42177.00
229.6360, 42090.00
230.8580, 42005.00
232.0800, 41850.00
233.3020, 41969.00
234.5230, 41956.00
235.7440, 41989.00
236.9650, 41894.00
238.1860, 41644.00
239.4070, 41541.00
240.6280, 41236.00
241.8480, 41404.00
243.0680, 41051.00
244.2880, 41169.00
245.5080, 41221.00
246.7280, 41041.00
247.9470, 40907.00
249.1660, 40974.00
250.3860, 40634.00
251.6040, 40768.00
252.8230, 40805.00
254.0420, 40601.43
255.2600, 41008.07
256.4790, 41260.53
257.6970, 41366.98
258.9150, 40890.32
260.1320, 41166.58
261.3500, 41141.13
262.5670, 41103.26
263.7840, 41485.50
265.0010, 41093.60
266.2180, 41469.18
267.4350, 41538.39
268.6510, 41628.00
269.8680, 41773.00
271.0840, 42012.00
272.3000, 42126.00
273.5160, 42296.25
274.7310, 42399.00
275.9470, 42518.00
277.1620, 42431.00
278.3770, 42369.00
279.5920, 42104.00
280.8070, 42249.00
282.0210, 41789.00
283.2360, 41854.00
284.4500, 42074.00
285.6640, 41771.00
286.8780, 41726.47
288.0920, 41390.00
289.3050, 41336.00
290.5180, 41149.00
291.7320, 41062.00
292.9450, 40795.00
294.1570, 41122.00
295.3700, 40813.00
296.5830, 40895.00
297.7950, 40599.00
299.0070, 40716.00
300.2190, 40836.00
301.4310, 40824.00
302.6420, 40761.23
303.8540, 40609.00
305.0650, 40594.00
306.2760, 40472.00
307.4870, 40604.00
308.6980, 40650.00
309.9080, 40620.57
311.1190, 40952.00
312.3290, 40720.00
313.5390, 40749.00
314.7490, 41001.00
315.9580, 40899.00
317.1680, 41489.00
318.3770, 41303.00
319.5860, 41548.00
320.7950, 41948.00
322.0040, 42160.00
323.2130, 42442.00
324.4210, 43120.00
325.6290, 42863.00
326.8380, 43383.00
328.0460, 43891.00
329.2530, 44000.00
330.4610, 43887.00
331.6680, 43676.00
332.8760, 43992.00
334.0830, 43687.00
335.2890, 43559.00
336.4960, 43358.00
337.7030, 43015.00
338.9090, 42832.33
340.1150, 42531.00
341.3210, 42240.00
342.5270, 42042.00
343.7330, 41584.00
344.9380, 41372.00
346.1440, 41251.00
347.3490, 40793.00
348.5540, 40692.00
349.7590, 40709.00
350.9630, 40675.00
352.1680, 40631.00
353.3720, 40481.00
354.5760, 40539.00
355.7800, 40400.00
356.9840, 40461.00
358.1870, 40470.00
359.3910, 40522.00
360.5940, 40406.00
361.7970, 40312.00
363.0000, 40014.00
364.2030, 40109.00
365.4050, 39842.00
366.6080, 39705.00
367.8100, 39840.00
369.0120, 39518.00
370.2140, 39643.00
371.4150, 39518.00
372.6170, 39548.00
373.8180, 39345.00
375.0190, 39144.00
376.2200, 39003.00
377.4210, 39166.00
378.6220, 39196.00
379.8220, 39101.00
381.0230, 39104.78
382.2230, 38857.00
383.4230, 38926.00
384.6220, 38733.00
385.8220, 38638.00
387.0220, 38913.00
388.2210, 38940.00
389.4200, 39046.00
390.6190, 39019.00
391.8180, 38948.00
393.0160, 39269.00
394.2150, 39207.00
395.4130, 39170.00
396.6110, 39260.00
397.8090, 39225.00
399.0060, 39230.00
400.2040, 39200.00
401.4010, 39179.54
402.5980, 39168.21
403.7950, 39153.00
404.9920, 39182.00
406.1890, 39216.00
407.3860, 39330.00
408.5820, 39245.00
409.7780, 39376.00
410.9740, 39432.00
412.1700, 39393.00
413.3650, 39426.00
414.5610, 39614.00
415.7560, 39333.00
416.9510, 39585.00
418.1460, 39743.00
419.3410, 39629.00
420.5360, 39716.00
421.7300, 39789.00
422.9240, 39846.00
424.1180, 40217.00
425.3120, 40252.88
426.5060, 40210.11
427.7000, 40465.00
428.8930, 40133.00
430.0860, 40036.00
431.2790, 40324.00
432.4720, 40156.00
433.6650, 40309.00
434.8580, 40148.00
436.0500, 40159.05
437.2420, 40123.00
438.4340, 40036.00
439.6260, 40045.00
440.8180, 39791.00
442.0090, 39847.00
443.2010, 39587.00
444.3920, 39678.04
445.5830, 39700.18
446.7740, 39911.00
447.9640, 39796.00
449.1550, 40044.00
450.3450, 39958.00
451.5350, 39956.00
452.7250, 39895.00
453.9150, 39913.72
455.1050, 40002.00
456.2940, 39952.00
457.4830, 40110.00
458.6720, 40104.21
459.8610, 39984.00
461.0500, 40002.00
462.2390, 40073.00
463.4270, 40053.00
464.6150, 40214.00
465.8040, 40171.00
466.9910, 39993.00
468.1790, 40105.00
469.3670, 40072.00
470.5540, 40384.00
471.7410, 40307.00
472.9280, 40121.00
474.1150, 40463.00
475.3020, 40242.00
476.4890, 40735.00
477.6750, 40700.00
478.8610, 40753.00
480.0470, 40904.00
481.2330, 40896.00
482.4190, 41023.87
483.6040, 41009.00
484.7900, 41277.00
485.9750, 41405.00
487.1600, 41653.00
488.3450, 41623.00
489.5290, 41668.00
490.7140, 41938.18
491.8980, 42286.00
493.0820, 42461.00
494.2660, 42905.00
495.4500, 43261.00
496.6340, 43531.00
497.8170, 43675.00
499.0010, 43783.00
500.1840, 43873.00
501.3670, 44035.80
502.5500, 44128.00
503.7320, 44172.00
504.9150, 44126.00
506.0970, 43822.00
507.2790, 43666.00
508.4610, 43593.04
509.6430, 43135.00
510.8250, 43234.00
512.0060, 43413.00
513.1870, 42807.00
514.3680, 42794.00
515.5490, 42787.00
516.7300, 42887.00
517.9110, 42724.00
519.0910, 42872.00
520.2710, 42597.00
521.4510, 42590.00
522.6310, 42793.00
523.8110, 42979.00
524.9910, 42687.00
526.1700, 42843.00
527.3490, 42857.00
528.5280, 42900.00
529.7070, 42649.00
530.8860, 42456.00
532.0650, 42463.00
533.2430, 42723.00
534.4210, 42445.00
535.5990, 42526.00
536.7770, 42306.00
537.9550, 42539.00
539.1320, 42205.50
540.3100, 42404.55
541.4870, 42487.97
542.6640, 42461.92
543.8410, 41998.54
545.0170, 42099.94
546.1940, 41974.98
547.3700, 41840.78
548.5470, 42021.61
549.7230, 41897.00
550.8980, 41709.00
552.0740, 41716.00
553.2500, 41589.00
554.4250, 41782.00
555.6000, 41348.00
556.7750, 41416.00
557.9500, 41150.00
559.1250, 41196.00
560.2990, 41286.00
561.4730, 41120.00
562.6480, 41228.00
563.8220, 41207.00
564.9950, 41066.00
566.1690, 41116.00
567.3430, 40946.00
568.5160, 40871.00
569.6890, 40888.00
570.8620, 40825.00
572.0350, 40967.00
573.2070, 41093.00
574.3800, 41101.47
575.5520, 41061.96
576.7240, 41236.00
577.8960, 40886.00
579.0680, 40976.00
580.2400, 40996.00
581.4110, 40808.00
582.5830, 41105.00
583.7540, 40593.00
584.9250, 40837.00
586.0950, 40502.00
587.2660, 40286.00
588.4370, 40140.00
589.6070, 40214.00
590.7770, 40103.00
591.9470, 39796.00
593.1170, 39673.00
594.2860, 39498.00
595.4560, 39425.00
596.6250, 39149.00
597.7940, 38986.00
598.9630, 39148.00
600.1320, 39372.00
601.3000, 39038.00
602.4690, 39053.00
603.6370, 38593.00
604.8050, 39063.00
605.9730, 38872.00
607.1410, 38441.41
608.3090, 38772.07
609.4760, 38948.50
610.6430, 38978.98
611.8100, 38426.35
612.9770, 38626.68
614.1440, 38525.26
615.3110, 38411.46
616.4770, 38717.79
617.6430, 38249.99
618.8090, 38549.65
619.9750, 38542.96
621.1410, 38676.48
622.3070, 38506.38
623.4720, 38430.08
624.6370, 38657.49
625.8020, 38716.73
626.9670, 38511.70
628.1320, 38654.15
629.2970, 38175.76
630.4610, 38242.18
631.6250, 38543.66
632.7890, 38353.92
633.9530, 38501.94
635.1170, 38521.32
636.2810, 37956.08
637.4440, 38407.57
638.6070, 38419.36
639.7700, 37979.69
640.9330, 38396.34
642.0960, 38018.91
643.2590, 37924.92
644.4210, 38044.25
645.5830, 37941.21
646.7450, 38188.77
647.9070, 38098.57
649.0690, 37978.21
650.2310, 37989.53
651.3920, 37627.70
652.5530, 37958.18
653.7140, 37815.75
654.8750, 37908.39
656.0360, 38054.31
657.1970, 37792.26
658.3570, 37962.14
659.5170, 37462.23
660.6770, 37522.76
661.8370, 37522.93
662.9970, 37877.00
664.1570, 38076.00
665.3160, 37677.00
666.4750, 37561.00
667.6340, 37505.00
668.7930, 37531.00
669.9520, 37511.36
671.1110, 37651.00
672.2690, 37699.00
673.4270, 37588.00
674.5850, 37920.00
675.7430, 37858.00
676.9010, 37612.00
678.0590, 37727.00
679.2160, 37819.00
680.3730, 37716.00
681.5300, 37687.00
682.6870, 37847.00
683.8440, 37776.00
685.0010, 37960.00
686.1570, 37775.00
687.3130, 37662.00
688.4690, 37827.00
689.6250, 38067.00
690.7810, 38071.00
691.9370, 38323.00
693.0920, 38427.00
694.2470, 38547.63
695.4020, 38571.00
696.5570, 38820.00
697.7120, 38935.00
698.8670, 39088.00
700.0210, 39577.00
701.1750, 39797.00
702.3290, 39887.00
703.4830, 39871.00
704.6370, 39831.00
705.7910, 39661.00
706.9440, 39511.00
708.0970, 39410.00
709.2510, 39169.79
710.4030, 38951.18
711.5560, 38656.00
712.7090, 38533.00
713.8610, 38156.00
715.0140, 38193.00
716.1660, 37910.00
717.3180, 37891.00
718.4690, 37756.00
719.6210, 37859.00
720.7730, 37753.00
721.9240, 37770.61
723.0750, 37545.00
724.2260, 37759.00
725.3770, 37725.00
726.5270, 37653.00
727.6780, 37804.00
728.8280, 37853.00
729.9780, 37773.84
731.1280, 37761.00
732.2780, 37661.00
733.4280, 37732.00
734.5770, 37753.00
735.7260, 37580.00
736.8760, 37392.00
738.0250, 37437.00
739.1730, 37739.00
740.3220, 37581.00
741.4700, 37489.00
742.6190, 37699.00
743.7670, 37621.00
744.9150, 37419.00
746.0630, 37741.00
747.2100, 37570.00
748.3580, 37936.00
749.5050, 37725.00
750.6520, 37563.00
751.7990, 37507.00
752.9460, 37554.00
754.0930, 37440.00
755.2390, 37596.00
756.3860, 38058.00
757.5320, 37970.28
758.6780, 38027.70
759.8240, 38045.00
760.9690, 37837.00
762.1150, 37647.00
763.2600, 37543.00
764.4060, 37501.37
765.5510, 38011.00
766.6950, 37567.00
767.8400, 37651.00
768.9850, 37766.00
770.1290, 37449.00
771.2730, 37915.00
772.4170, 37691.00
773.5610, 37652.00
774.7050, 37899.00
775.8480, 37527.00
776.9920, 37456.00
778.1350, 37749.00
779.2780, 37624.00
780.4210, 37783.30
781.5640, 37710.00
782.7060, 37932.00
783.8490, 37926.00
784.9910, 37842.00
786.1330, 38013.00
787.2750, 37862.59
788.4170, 37696.00
789.5580, 37783.00
790.7000, 37786.00
791.8410, 37971.00
792.9820, 38058.00
794.1230, 37840.00
795.2640, 38169.00
796.4040, 38260.00
797.5450, 38327.26
798.6850, 38106.00
799.8250, 38464.00
800.9650, 38471.00
802.1050, 38272.00
803.2450, 38403.00
804.3840, 38387.00
805.5230, 38732.00
806.6630, 38832.00
807.8020, 39048.00
808.9400, 38883.00
810.0790, 39190.00
811.2170, 39292.00
812.3560, 39523.00
813.4940, 39324.00
814.6320, 39763.00
815.7700, 39484.00
816.9070, 39633.00
818.0450, 40096.00
819.1820, 40038.00
820.3190, 40196.00
821.4560, 40211.00
822.5930, 39589.00
823.7300, 39625.00
824.8670, 39315.00
826.0030, 39173.92
827.1390, 39101.56
828.2750, 38990.00
829.4110, 38985.00
830.5470, 38814.00
831.6820, 38907.00
832.8180, 38796.00
833.9530, 38749.00
835.0880, 38571.00
836.2230, 38554.48
837.3580, 38578.00
838.4920, 38582.00
839.6270, 38529.00
840.7610, 38771.00
841.8950, 38735.00
843.0290, 38904.00
844.1630, 38914.21
845.2960, 38971.75
846.4300, 38902.00
847.5630, 38998.00
848.6960, 38977.00
849.8290, 38813.00
850.9620, 39253.00
852.0940, 39112.00
853.2270, 39203.00
854.3590, 39605.00
855.4910, 39447.00
856.6230, 39554.45
857.7550, 39824.00
858.8870, 39523.00
860.0180, 39432.00
861.1500, 39487.00
862.2810, 39423.00
863.4120, 39384.00
864.5430, 39645.00
865.6730, 39546.00
866.8040, 39739.00
867.9340, 39300.00
869.0640, 39420.00
870.1940, 39447.08
871.3240, 39461.00
872.4540, 39517.00
873.5830, 39548.00
874.7130, 39525.74
875.8420, 39289.00
876.9710, 39471.00
878.1000, 39413.00
879.2290, 39383.00
880.3570, 39586.00
881.4860, 39536.00
882.6140, 39453.00
883.7420, 39584.00
884.8700, 39537.00
885.9980, 39573.00
887.1250, 39544.00
888.2530, 39585.64
889.3800, 39747.00
890.5070, 39652.00
891.6340, 39718.00
892.7610, 39698.00
893.8880, 39642.00
895.0140, 39503.00
896.1400, 39648.00
897.2670, 39525.68
898.3930, 39878.00
899.5180, 39496.00
900.6440, 39634.00
901.7700, 39754.00
902.8950, 39638.00
904.0200, 39503.00
905.1450, 39502.00
906.2700, 39442.00
907.3950, 39538.00
908.5190, 39445.00
909.6440, 39592.00
910.7680, 39712.00
911.8920, 39791.00
913.0160, 39679.00
914.1400, 39858.00
915.2630, 39766.00
916.3870, 39866.00
917.5100, 39872.00
918.6330, 39588.00
919.7560, 39634.00
920.8790, 39626.00
922.0010, 39773.00
923.1240, 39640.00
924.2460, 39765.00
925.3680, 39732.00
926.4900, 39687.00
927.6120, 39715.00
928.7340, 40043.00
929.8550, 40052.00
930.9760, 39952.00
932.0980, 39881.00
933.2190, 39772.00
934.3390, 39880.00
935.4600, 39902.00
936.5810, 39861.00
937.7010, 40023.00
938.8210, 39801.00
939.9410, 39983.00
941.0610, 39887.00
942.1810, 39820.00
943.3010, 40030.00
944.4200, 39832.00
945.5390, 39808.00
946.6580, 39999.00
947.7770, 39868.00
948.8960, 39676.00
950.0150, 39793.00
951.1330, 39780.00
952.2510, 39794.00
953.3690, 39957.00
954.4870, 40099.00
955.6050, 39884.00
956.7230, 40007.00
957.8400, 40273.00
958.9580, 40103.00
960.0750, 40274.00
961.1920, 40193.00
962.3090, 39995.00
963.4250, 40403.00
964.5420, 40314.00
965.6580, 40243.00
966.7740, 40557.00
967.8900, 40671.00
969.0060, 41099.00
970.1220, 40769.00
971.2380, 40754.00
972.3530, 41156.00
973.4680, 41205.00
974.5830, 41530.00
975.6980, 41589.00
976.8130, 41836.00
977.9280, 41909.00
979.0420, 42022.00
980.1560, 42130.00
981.2710, 42072.00
982.3850, 42228.00
983.4980, 41996.00
984.6120, 42180.00
985.7260, 42008.00
986.8390, 41904.00
987.9520, 42225.00
989.0650, 41827.09
990.1780, 41274.00
991.2910, 41455.00
992.4030, 40987.00
993.5160, 41079.00
994.6280, 40951.00
995.7400, 40965.00
996.8520, 40579.00
997.9640, 40664.00
999.0750, 40379.00
1000.187, 40439.00
1001.298, 40458.00
1002.409, 40434.00
1003.520, 40391.14
1004.631, 40329.04
1005.741, 40229.00
1006.852, 40179.00
1007.962, 40097.00
1009.072, 40079.00
1010.182, 40128.00
1011.292, 39935.00
1012.402, 40155.00
1013.511, 39800.00
1014.621, 39879.00
1015.730, 39807.49
1016.839, 39715.00
1017.948, 39657.00
1019.056, 39827.00
1020.165, 39735.00
1021.273, 39653.00
1022.382, 39819.00
1023.490, 39651.00
1024.598, 39718.00
1025.706, 39637.00
1026.813, 39778.00
1027.921, 39250.84
1029.028, 39611.12
1030.135, 39817.16
1031.242, 39877.25
1032.349, 39354.22
1033.456, 39584.16
1034.562, 39512.34
1035.668, 39428.14
1036.775, 39764.05
1037.881, 39325.84
1038.987, 39655.08
1040.092, 39677.96
1041.198, 39841.06
1042.303, 39700.54
1043.408, 39653.79
1044.514, 39910.76
1045.618, 39999.55
1046.723, 39824.08
1047.828, 39996.08
1048.932, 39547.24
1050.037, 39643.20
1051.141, 39974.21
1052.245, 39813.99
1053.349, 39991.54
1054.452, 40040.45
1055.556, 39504.74
1056.659, 39985.73
1057.762, 40027.03
1058.865, 39616.86
1059.968, 40063.02
1061.071, 39715.09
1062.174, 39650.60
1063.276, 39799.41
1064.378, 39725.85
1065.480, 40002.88
1066.582, 39942.17
1067.684, 39851.28
1068.786, 39892.08
1069.887, 39559.71
1070.988, 39710.00
1072.090, 39886.00
1073.191, 39730.00
1074.291, 39690.00
1075.392, 39693.00
1076.493, 39846.00
1077.593, 39837.00
1078.693, 39653.00
1079.793, 39757.00
1080.893, 39633.80
1081.993, 39662.00
1083.092, 39509.00
1084.192, 39521.00
1085.291, 39486.00
1086.390, 39535.00
1087.489, 39474.00
1088.588, 39522.00
1089.686, 39338.00
1090.785, 39509.00
1091.883, 39645.00
1092.981, 39474.00
1094.079, 39857.00
1095.177, 39407.00
1096.275, 39593.00
1097.373, 39628.00
1098.470, 39673.00
1099.567, 39474.00
1100.664, 39449.00
1101.761, 39762.00
1102.858, 39847.00
1103.954, 39459.00
1105.051, 39218.00
1106.147, 39490.00
1107.243, 39568.00
1108.339, 39507.00
1109.435, 39425.00
1110.531, 39413.00
1111.626, 39447.00
1112.722, 39297.00
1113.817, 39169.00
1114.912, 39450.00
1116.007, 39319.00
1117.101, 39498.00
1118.196, 39457.00
1119.290, 39443.00
1120.385, 39581.00
1121.479, 39394.00
1122.573, 39457.00
1123.666, 39381.00
1124.760, 39233.00
1125.853, 39431.00
1126.947, 39197.00
1128.040, 39238.00
1129.133, 39386.00
1130.226, 39027.00
1131.318, 39216.00
1132.411, 39056.03
1133.503, 39091.00
1134.596, 38837.00
1135.688, 39045.00
1136.780, 38925.00
1137.871, 38794.00
1138.963, 39163.00
1140.054, 38878.00
1141.146, 38852.00
1142.237, 38905.00
1143.328, 38951.00
1144.419, 39302.00
1145.509, 39134.00
1146.600, 38898.00
1147.690, 38592.00
1148.780, 38875.00
1149.870, 38748.00
1150.960, 38725.00
1152.050, 38910.00
1153.139, 38605.00
1154.229, 38854.00
1155.318, 38547.00
1156.407, 39018.00
1157.496, 38589.00
1158.585, 38636.00
1159.674, 38485.00
1160.762, 38662.00
1161.850, 38380.98
1162.939, 38730.37
1164.027, 38925.52
1165.114, 38974.71
1166.202, 38440.79
1167.290, 38659.84
1168.377, 38577.13
1169.464, 38482.05
1170.551, 38807.07
1171.638, 38357.97
1172.725, 38676.33
1173.812, 38688.33
1174.898, 38840.55
1175.984, 38689.14
1177.071, 38631.52
1178.157, 38877.61
1179.242, 38955.54
1180.328, 38327.00
1181.414, 38606.00
1182.499, 38384.00
1183.584, 38538.00
1184.669, 38428.00
1185.754, 38676.00
1186.839, 38536.00
1187.924, 38746.00
1189.008, 38563.00
1190.092, 38313.00
1191.177, 38457.00
1192.260, 38402.00
1193.344, 38597.00
1194.428, 38635.00
1195.512, 38864.00
1196.595, 38689.00
1197.678, 38514.00
1198.761, 38368.00
1199.844, 38570.00
1200.927, 38634.00
1202.009, 38302.00
1203.092, 38664.00
1204.174, 38338.00
1205.256, 38320.00
1206.338, 38502.00
1207.420, 38563.00
1208.502, 38502.00
1209.583, 38495.00
1210.665, 38418.00
1211.746, 38574.00
1212.827, 38471.00
1213.908, 38522.00
1214.988, 38782.00
1216.069, 38246.00
1217.149, 38523.00
1218.230, 38286.00
1219.310, 38425.73
1220.390, 38387.00
1221.470, 38350.21
1222.549, 38551.00
1223.629, 38327.00
1224.708, 38340.00
1225.787, 38278.00
1226.866, 38237.00
1227.945, 38297.22
1229.024, 38275.00
1230.103, 38397.00
1231.181, 38427.00
1232.259, 38437.74
1233.337, 38529.96
1234.415, 38471.00
1235.493, 38702.00
1236.571, 38284.00
1237.648, 38431.00
1238.726, 38736.00
1239.803, 38923.00
1240.880, 38236.00
1241.957, 38657.00
1243.034, 38471.00
1244.110, 38636.00
1245.187, 38344.00
1246.263, 38643.00
1247.339, 38647.00
1248.415, 38545.11
1249.491, 38577.84
1250.566, 38474.00
1251.642, 38390.00
1252.717, 38478.00
1253.793, 38431.00
1254.868, 38523.00
1255.943, 38416.00
1257.017, 38897.00
1258.092, 38318.00
1259.166, 38104.00
1260.241, 38429.00
1261.315, 38568.00
1262.389, 38326.00
1263.462, 38312.00
1264.536, 38530.00
1265.610, 38558.00
1266.683, 38317.00
1267.756, 38649.00
1268.829, 38445.00
1269.902, 38398.00
1270.975, 38287.00
1272.048, 38457.00
1273.120, 38446.00
1274.192, 38217.00
1275.264, 38526.00
1276.336, 38663.00
1277.408, 38561.00
1278.480, 38456.00
1279.551, 38470.00
1280.623, 38862.00
1281.694, 38483.00
1282.765, 38712.00
1283.836, 38553.00
1284.907, 38611.00
1285.977, 38590.00
1287.048, 38290.00
1288.118, 38422.00
1289.188, 38706.00
1290.258, 38478.00
1291.328, 38837.00
1292.398, 38699.00
1293.467, 38709.00
1294.537, 38533.00
1295.606, 38699.00
1296.675, 38568.00
1297.744, 38630.00
1298.813, 38734.00
1299.882, 38450.00
1300.950, 38633.00
1302.018, 38929.00
1303.086, 38788.00
1304.155, 38609.00
1305.222, 38516.00
