##NAMES=Ilvaite
##RRUFFID=R050040
##IDEAL CHEMISTRY=CaFe^2+^_2_Fe^3+^OSi_2_O_7_(OH)
##LOCALITY=Capo Calamita, Isle of Elba, Italy
##OWNER=RRUFF
##SOURCE=University of Arizona Mineral Museum
##DESCRIPTION=Brown fragment
##STATUS=The identification of this mineral has been confirmed by X-ray diffraction and chemical analysis
##URL=rruff.info/R050040
##MEASURED CHEMISTRY=Ca_1.00_(Fe^2+^_1.89_Mn_0.10_Mg_0.01_)_Î£=2_Fe^3+^_1.00_OSi_2.00_O_7_(OH); trace amounts of Al; OH estimated by charge balance
##PIN_ID=M00410
##ORIENTATION=Laser parallel to b* (0 1 0). Fiducial mark perpendicular to laser is parallel to c [0 0 1]
127.5960, 54058.00
128.8330, 54092.00
130.0700, 54045.00
131.3060, 53519.00
132.5420, 53576.00
133.7780, 53920.00
135.0140, 54308.00
136.2500, 54424.00
137.4850, 55159.00
138.7200, 55700.00
139.9550, 55435.00
141.1900, 54914.00
142.4250, 54859.00
143.6600, 54849.00
144.8940, 55280.00
146.1280, 55399.00
147.3620, 55454.00
148.5960, 55789.00
149.8300, 56142.00
151.0630, 56390.00
152.2960, 56236.00
153.5300, 56443.00
154.7620, 56365.00
155.9950, 56019.00
157.2280, 55271.00
158.4600, 55320.00
159.6920, 55144.00
160.9250, 55422.00
162.1560, 55061.00
163.3880, 55373.00
164.6200, 54929.00
165.8510, 54452.00
167.0820, 54601.00
168.3130, 53918.00
169.5440, 53951.00
170.7750, 53835.00
172.0050, 53160.00
173.2350, 52965.00
174.4650, 53398.00
175.6950, 53304.00
176.9250, 53727.00
178.1550, 53899.70
179.3840, 53925.00
180.6130, 54410.00
181.8420, 53796.00
183.0710, 54122.00
184.3000, 54400.00
185.5280, 54151.00
186.7570, 53628.00
187.9850, 53598.00
189.2130, 53066.00
190.4400, 53365.00
191.6680, 52879.00
192.8960, 52580.00
194.1230, 52401.23
195.3500, 52363.00
196.5770, 51808.00
197.8030, 51472.00
199.0300, 51328.00
200.2560, 50956.00
201.4830, 50869.00
202.7090, 49493.00
203.9340, 47638.00
205.1600, 46219.00
206.3860, 45511.00
207.6110, 44960.00
208.8360, 44529.00
210.0610, 44398.00
211.2860, 43961.00
212.5100, 43938.00
213.7350, 43679.00
214.9590, 43734.00
216.1830, 42675.00
217.4070, 42814.00
218.6310, 42283.00
219.8540, 42348.00
221.0780, 41917.00
222.3010, 41970.00
223.5240, 42047.00
224.7470, 41690.00
225.9690, 41807.02
227.1920, 41588.31
228.4140, 41662.00
229.6360, 41234.00
230.8580, 40948.00
232.0800, 40519.83
233.3020, 40735.96
234.5230, 40836.45
235.7440, 40827.46
236.9650, 40381.15
238.1860, 40499.56
239.4070, 40391.65
240.6280, 40274.47
241.8480, 40472.40
243.0680, 40089.73
244.2880, 40282.67
245.5080, 40245.83
246.7280, 40314.16
247.9470, 40154.81
249.1660, 40065.80
250.3860, 40204.53
251.6040, 40217.21
252.8230, 40031.65
254.0420, 40106.70
255.2600, 39716.16
256.4790, 39734.17
257.6970, 39928.52
258.9150, 39754.45
260.1320, 39833.74
261.3500, 39816.51
262.5670, 39360.86
263.7840, 39667.73
265.0010, 39644.84
266.2180, 39354.00
267.4350, 39358.00
268.6510, 39368.00
269.8680, 39161.00
271.0840, 39394.00
272.3000, 39798.00
273.5160, 39718.00
274.7310, 39922.00
275.9470, 40081.00
277.1620, 40072.00
278.3770, 40115.00
279.5920, 39986.00
280.8070, 40187.00
282.0210, 40106.00
283.2360, 39807.00
284.4500, 39873.00
285.6640, 39645.88
286.8780, 39334.00
288.0920, 39344.00
289.3050, 39010.00
290.5180, 38864.00
291.7320, 38764.00
292.9450, 38662.00
294.1570, 38568.00
295.3700, 38345.00
296.5830, 38301.55
297.7950, 38051.00
299.0070, 38057.00
300.2190, 37931.00
301.4310, 37633.00
302.6420, 37914.00
303.8540, 37770.00
305.0650, 37930.00
306.2760, 37651.00
307.4870, 37808.00
308.6980, 37867.00
309.9080, 37986.00
311.1190, 37698.00
312.3290, 37822.00
313.5390, 37849.00
314.7490, 37988.00
315.9580, 38052.00
317.1680, 39069.00
318.3770, 39531.00
319.5860, 39184.00
320.7950, 38836.00
322.0040, 39188.00
323.2130, 38811.00
324.4210, 38850.00
325.6290, 38946.00
326.8380, 39211.00
328.0460, 39100.00
329.2530, 39147.00
330.4610, 38978.00
331.6680, 38779.00
332.8760, 38868.00
334.0830, 38589.00
335.2890, 38689.00
336.4960, 38452.00
337.7030, 38234.00
338.9090, 37856.00
340.1150, 37697.00
341.3210, 37578.52
342.5270, 37581.00
343.7330, 37479.00
344.9380, 37451.72
346.1440, 37661.00
347.3490, 37466.00
348.5540, 37561.00
349.7590, 37735.00
350.9630, 37421.24
352.1680, 37316.54
353.3720, 37102.00
354.5760, 36944.12
355.7800, 36919.00
356.9840, 36711.00
358.1870, 36626.00
359.3910, 36595.00
360.5940, 36472.00
361.7970, 36322.00
363.0000, 36041.00
364.2030, 35836.00
365.4050, 35711.13
366.6080, 35532.00
367.8100, 35606.00
369.0120, 35296.00
370.2140, 35519.00
371.4150, 35276.00
372.6170, 35221.07
373.8180, 35199.00
375.0190, 35152.00
376.2200, 35138.00
377.4210, 35325.00
378.6220, 34987.00
379.8220, 35162.00
381.0230, 35149.00
382.2230, 34945.00
383.4230, 35005.00
384.6220, 35211.00
385.8220, 35131.00
387.0220, 35316.88
388.2210, 35912.00
389.4200, 35400.00
390.6190, 35560.00
391.8180, 35242.00
393.0160, 35069.00
394.2150, 35686.00
395.4130, 35613.00
396.6110, 35387.00
397.8090, 35572.00
399.0060, 35465.00
400.2040, 35292.00
401.4010, 35412.00
402.5980, 35641.00
403.7950, 35917.00
404.9920, 35748.00
406.1890, 35447.00
407.3860, 35782.00
408.5820, 35620.00
409.7780, 35647.00
410.9740, 35670.00
412.1700, 35797.00
413.3650, 35831.00
414.5610, 35796.00
415.7560, 35860.22
416.9510, 35824.00
418.1460, 35827.00
419.3410, 35733.00
420.5360, 35587.00
421.7300, 35617.00
422.9240, 35571.00
424.1180, 35435.00
425.3120, 35414.00
426.5060, 35414.84
427.7000, 35253.00
428.8930, 35377.00
430.0860, 35389.69
431.2790, 35347.00
432.4720, 35385.78
433.6650, 35332.00
434.8580, 35360.00
436.0500, 35365.00
437.2420, 35365.00
438.4340, 35390.02
439.6260, 35514.00
440.8180, 35457.00
442.0090, 35385.00
443.2010, 35477.00
444.3920, 35278.00
445.5830, 35503.00
446.7740, 35369.00
447.9640, 35374.00
449.1550, 35422.00
450.3450, 35196.00
451.5350, 35361.01
452.7250, 35254.77
453.9150, 35679.00
455.1050, 35326.00
456.2940, 35731.00
457.4830, 36118.00
458.6720, 35637.00
459.8610, 35744.00
461.0500, 35372.00
462.2390, 35507.00
463.4270, 35611.00
464.6150, 35376.00
465.8040, 35438.00
466.9910, 35469.00
468.1790, 35601.00
469.3670, 35673.00
470.5540, 35797.00
471.7410, 35691.00
472.9280, 36034.00
474.1150, 35651.00
475.3020, 35976.00
476.4890, 35894.95
477.6750, 36153.00
478.8610, 35901.00
480.0470, 36000.00
481.2330, 36124.00
482.4190, 36170.00
483.6040, 36148.00
484.7900, 36351.00
485.9750, 36217.00
487.1600, 36489.00
488.3450, 36250.00
489.5290, 36520.00
490.7140, 36711.00
491.8980, 36758.00
493.0820, 36894.00
494.2660, 36789.00
495.4500, 36741.00
496.6340, 36912.00
497.8170, 36686.00
499.0010, 37125.00
500.1840, 37065.00
501.3670, 37319.00
502.5500, 37625.00
503.7320, 37209.00
504.9150, 37238.00
506.0970, 36948.00
507.2790, 36802.00
508.4610, 37043.00
509.6430, 37053.00
510.8250, 37072.00
512.0060, 36881.00
513.1870, 36714.00
514.3680, 36949.00
515.5490, 36790.00
516.7300, 36841.00
517.9110, 36752.00
519.0910, 37077.00
520.2710, 36930.93
521.4510, 37110.00
522.6310, 36841.00
523.8110, 36869.00
524.9910, 36838.00
526.1700, 36643.00
527.3490, 36544.00
528.5280, 36553.96
529.7070, 36487.98
530.8860, 36550.00
532.0650, 36535.00
533.2430, 36450.00
534.4210, 36521.00
535.5990, 36579.00
536.7770, 36531.67
537.9550, 36293.00
539.1320, 36537.00
540.3100, 36418.00
541.4870, 36488.00
542.6640, 36605.00
543.8410, 36468.00
545.0170, 37259.00
546.1940, 36473.00
547.3700, 36553.00
548.5470, 36010.00
549.7230, 36371.00
550.8980, 36163.00
552.0740, 36447.00
553.2500, 36082.00
554.4250, 36396.00
555.6000, 36186.00
556.7750, 36306.00
557.9500, 36323.00
559.1250, 36379.00
560.2990, 36163.00
561.4730, 36012.00
562.6480, 36214.00
563.8220, 35833.00
564.9950, 36044.00
566.1690, 36091.00
567.3430, 36087.00
568.5160, 35823.00
569.6890, 35814.00
570.8620, 35617.00
572.0350, 35914.00
573.2070, 35673.00
574.3800, 35328.00
575.5520, 35602.00
576.7240, 35445.00
577.8960, 35380.00
579.0680, 35287.00
580.2400, 35127.00
581.4110, 35102.29
582.5830, 34821.00
583.7540, 34972.00
584.9250, 34652.00
586.0950, 34500.00
587.2660, 34496.00
588.4370, 34419.00
589.6070, 34344.00
590.7770, 34450.00
591.9470, 34276.00
593.1170, 34067.00
594.2860, 34258.00
595.4560, 34104.00
596.6250, 34196.00
597.7940, 34197.00
598.9630, 34107.00
600.1320, 34243.00
601.3000, 34258.00
602.4690, 33885.00
603.6370, 34285.00
604.8050, 33872.00
605.9730, 33847.00
607.1410, 33972.00
608.3090, 33758.00
609.4760, 34001.00
610.6430, 33647.00
611.8100, 34024.00
612.9770, 33914.00
614.1440, 33846.00
615.3110, 33707.00
616.4770, 33677.75
617.6430, 33568.00
618.8090, 33700.00
619.9750, 33728.00
621.1410, 33949.00
622.3070, 33610.00
623.4720, 33807.00
624.6370, 33843.00
625.8020, 33591.00
626.9670, 33789.00
628.1320, 33970.00
629.2970, 33647.00
630.4610, 33617.00
631.6250, 33922.00
632.7890, 33807.00
633.9530, 33562.00
635.1170, 34101.00
636.2810, 33830.00
637.4440, 33773.00
638.6070, 33612.00
639.7700, 33577.80
640.9330, 33687.00
642.0960, 33626.00
643.2590, 33560.00
644.4210, 33675.00
645.5830, 33474.00
646.7450, 33421.00
647.9070, 33437.00
649.0690, 33269.00
650.2310, 33498.00
651.3920, 33502.00
652.5530, 33558.00
653.7140, 33537.00
654.8750, 33674.00
656.0360, 33439.00
657.1970, 33416.00
658.3570, 33288.00
659.5170, 33677.00
660.6770, 33410.00
661.8370, 33512.47
662.9970, 33653.00
664.1570, 33534.00
665.3160, 33271.00
666.4750, 33324.00
667.6340, 33221.00
668.7930, 33383.00
669.9520, 33329.00
671.1110, 33195.00
672.2690, 33268.00
673.4270, 33209.00
674.5850, 33410.00
675.7430, 33316.69
676.9010, 33419.48
678.0590, 33370.00
679.2160, 33356.00
680.3730, 33375.51
681.5300, 33257.29
682.6870, 33394.61
683.8440, 33307.00
685.0010, 33391.00
686.1570, 33436.00
687.3130, 33681.00
688.4690, 33288.00
689.6250, 33202.00
690.7810, 33347.00
691.9370, 33355.00
693.0920, 33325.00
694.2470, 33601.00
695.4020, 33834.00
696.5570, 33837.00
697.7120, 33742.00
698.8670, 33551.00
700.0210, 33485.00
701.1750, 33415.00
702.3290, 33783.00
703.4830, 33899.00
704.6370, 33645.00
705.7910, 34323.00
706.9440, 34005.00
708.0970, 33554.00
709.2510, 33473.00
710.4030, 33622.00
711.5560, 33543.00
712.7090, 33617.00
713.8610, 33456.00
715.0140, 33259.00
716.1660, 33335.00
717.3180, 33189.00
718.4690, 33139.00
719.6210, 33193.00
720.7730, 33181.00
721.9240, 33398.00
723.0750, 33439.00
724.2260, 33264.00
725.3770, 33130.00
726.5270, 33213.00
727.6780, 33247.00
728.8280, 33343.00
729.9780, 33455.00
731.1280, 33338.00
732.2780, 33200.00
733.4280, 33567.00
734.5770, 33170.00
735.7260, 33453.00
736.8760, 33275.00
738.0250, 33026.00
739.1730, 33234.00
740.3220, 33239.00
741.4700, 33273.00
742.6190, 33289.00
743.7670, 33414.00
744.9150, 33376.00
746.0630, 33167.00
747.2100, 33389.00
748.3580, 33522.00
749.5050, 33657.00
750.6520, 33251.00
751.7990, 33343.00
752.9460, 33280.00
754.0930, 33237.00
755.2390, 33471.00
756.3860, 33312.00
757.5320, 33277.00
758.6780, 33359.00
759.8240, 33299.00
760.9690, 33378.00
762.1150, 33513.00
763.2600, 33496.00
764.4060, 33471.00
765.5510, 33514.51
766.6950, 33567.00
767.8400, 33455.00
768.9850, 33485.00
770.1290, 33128.40
771.2730, 33406.84
772.4170, 33569.60
773.5610, 33622.89
774.7050, 33238.86
775.8480, 33419.53
776.9920, 33373.89
778.1350, 33318.97
779.2780, 33579.12
780.4210, 33258.68
781.5640, 33513.84
782.7060, 33539.22
783.8490, 33669.77
784.9910, 33572.59
786.1330, 33545.75
787.2750, 33746.69
788.4170, 33821.50
789.5580, 33698.10
790.7000, 33835.32
791.8410, 33506.90
792.9820, 33587.07
794.1230, 33843.54
795.2640, 33731.59
796.4040, 33872.95
797.5450, 33917.84
798.6850, 33524.25
799.8250, 33893.20
800.9650, 33932.38
802.1050, 33632.95
803.2450, 33975.77
804.3840, 33723.01
805.5230, 33682.84
806.6630, 33802.65
807.8020, 33755.68
808.9400, 33971.63
810.0790, 33934.29
811.2170, 33845.00
812.3560, 34011.00
813.4940, 33844.00
814.6320, 34018.00
815.7700, 34074.00
816.9070, 34157.00
818.0450, 34059.00
819.1820, 34142.00
820.3190, 34051.00
821.4560, 34021.00
822.5930, 34237.00
823.7300, 33963.00
824.8670, 34165.00
826.0030, 34160.00
827.1390, 33863.00
828.2750, 34017.00
829.4110, 34157.00
830.5470, 33853.00
831.6820, 33809.00
832.8180, 33848.00
833.9530, 33990.00
835.0880, 33828.00
836.2230, 33976.00
837.3580, 33827.00
838.4920, 34024.00
839.6270, 33813.00
840.7610, 33830.00
841.8950, 34029.00
843.0290, 34106.00
844.1630, 33985.00
845.2960, 34000.00
846.4300, 33994.00
847.5630, 33961.00
848.6960, 33879.00
849.8290, 34048.00
850.9620, 34353.00
852.0940, 34141.00
853.2270, 34456.00
854.3590, 34197.00
855.4910, 34150.00
856.6230, 34151.03
857.7550, 34043.60
858.8870, 34093.00
860.0180, 34053.00
861.1500, 34060.50
862.2810, 34138.81
863.4120, 34125.00
864.5430, 34304.00
865.6730, 34396.00
866.8040, 34486.00
867.9340, 34228.00
869.0640, 34181.00
870.1940, 34249.00
871.3240, 34502.00
872.4540, 34017.00
873.5830, 34492.00
874.7130, 34285.00
875.8420, 34209.00
876.9710, 34557.00
878.1000, 34415.00
879.2290, 34222.00
880.3570, 34362.00
881.4860, 34582.00
882.6140, 34535.00
883.7420, 34535.00
884.8700, 34770.00
885.9980, 34386.00
887.1250, 34722.00
888.2530, 34427.00
889.3800, 34727.00
890.5070, 34809.00
891.6340, 34566.00
892.7610, 34484.00
893.8880, 34604.00
895.0140, 34562.00
896.1400, 34619.00
897.2670, 34561.00
898.3930, 34703.00
899.5180, 34720.00
900.6440, 34715.00
901.7700, 35005.00
902.8950, 34571.00
904.0200, 34803.00
905.1450, 34760.00
906.2700, 35070.00
907.3950, 34919.00
908.5190, 34651.00
909.6440, 34979.00
910.7680, 34811.00
911.8920, 34669.00
913.0160, 35175.00
914.1400, 35342.00
915.2630, 34729.00
916.3870, 34566.00
917.5100, 34736.00
918.6330, 34393.00
919.7560, 34622.00
920.8790, 34415.00
922.0010, 34558.00
923.1240, 34409.00
924.2460, 34427.00
925.3680, 34306.00
926.4900, 34221.00
927.6120, 34637.00
928.7340, 34401.00
929.8550, 34520.00
930.9760, 34375.00
932.0980, 34369.00
933.2190, 34423.00
934.3390, 34254.00
935.4600, 34267.00
936.5810, 34226.00
937.7010, 34406.00
938.8210, 34374.00
939.9410, 34411.19
941.0610, 34481.00
942.1810, 34453.00
943.3010, 34432.00
944.4200, 34478.00
945.5390, 34362.00
946.6580, 34225.00
947.7770, 34375.00
948.8960, 34543.00
950.0150, 34457.00
951.1330, 34480.00
952.2510, 34473.93
953.3690, 34442.00
954.4870, 34391.00
955.6050, 34452.00
956.7230, 34414.00
957.8400, 34433.00
958.9580, 34363.00
960.0750, 34538.00
961.1920, 34396.00
962.3090, 34418.00
963.4250, 34287.00
964.5420, 34298.02
965.6580, 34478.00
966.7740, 34362.00
967.8900, 34417.00
969.0060, 34557.00
970.1220, 34580.00
971.2380, 34559.00
972.3530, 34684.00
973.4680, 34648.92
974.5830, 34684.38
975.6980, 34625.00
976.8130, 34698.00
977.9280, 34630.00
979.0420, 34601.00
980.1560, 34648.00
981.2710, 34862.00
982.3850, 34563.00
983.4980, 34867.00
984.6120, 34659.00
985.7260, 34785.00
986.8390, 34744.00
987.9520, 34918.00
989.0650, 34568.00
990.1780, 34556.00
991.2910, 34797.00
992.4030, 34687.00
993.5160, 34931.00
994.6280, 34453.00
995.7400, 34559.00
996.8520, 34478.00
997.9640, 34425.00
999.0750, 34641.00
1000.187, 34472.00
1001.298, 34447.00
1002.409, 34317.00
1003.520, 34501.00
1004.631, 34435.00
1005.741, 34459.00
1006.852, 34452.00
1007.962, 34608.00
1009.072, 34345.00
1010.182, 34385.00
1011.292, 34275.00
1012.402, 34428.00
1013.511, 34311.00
1014.621, 34195.00
1015.730, 34381.00
1016.839, 34463.00
1017.948, 34393.00
1019.056, 34432.00
1020.165, 34542.00
1021.273, 34375.00
1022.382, 34251.00
1023.490, 34375.00
1024.598, 34299.00
1025.706, 34299.00
1026.813, 34470.00
1027.921, 34477.00
1029.028, 34526.00
1030.135, 34410.00
1031.242, 34501.00
1032.349, 34418.00
1033.456, 34370.00
1034.562, 34353.00
1035.668, 34479.00
1036.775, 34041.00
1037.881, 34393.00
1038.987, 34470.00
1040.092, 34226.00
1041.198, 34460.00
1042.303, 34270.00
1043.408, 34574.00
1044.514, 34416.00
1045.618, 34367.00
1046.723, 34448.56
1047.828, 34483.00
1048.932, 34476.00
1050.037, 34343.00
1051.141, 34412.00
1052.245, 34298.00
1053.349, 34367.00
1054.452, 34509.00
1055.556, 34294.00
1056.659, 34152.00
1057.762, 34403.00
1058.865, 34510.00
1059.968, 34509.00
1061.071, 34382.00
1062.174, 34463.00
1063.276, 34367.00
1064.378, 34290.00
1065.480, 34302.00
1066.582, 34606.00
1067.684, 34380.00
1068.786, 34313.00
1069.887, 34431.00
1070.988, 34166.00
1072.090, 34371.00
1073.191, 34366.00
1074.291, 34547.00
1075.392, 34542.00
1076.493, 34219.00
1077.593, 34440.00
1078.693, 34312.00
1079.793, 34170.00
1080.893, 34338.00
1081.993, 34256.00
1083.092, 34183.00
1084.192, 34194.00
1085.291, 34147.13
1086.390, 34255.00
1087.489, 34154.00
1088.588, 34279.00
1089.686, 34349.00
1090.785, 34332.00
1091.883, 34243.00
1092.981, 34078.00
1094.079, 34160.00
1095.177, 34290.00
1096.275, 34355.00
1097.373, 34134.00
1098.470, 34118.00
1099.567, 34171.00
1100.664, 33940.00
1101.761, 34170.00
1102.858, 34367.00
1103.954, 34230.00
1105.051, 34429.37
1106.147, 34192.00
1107.243, 34489.00
1108.339, 34237.00
1109.435, 34089.00
1110.531, 34180.00
1111.626, 34014.00
1112.722, 34154.00
1113.817, 33804.00
1114.912, 34220.00
1116.007, 34229.00
1117.101, 34081.00
1118.196, 34025.00
1119.290, 34113.00
1120.385, 34009.00
1121.479, 33890.00
1122.573, 34023.00
1123.666, 33948.00
1124.760, 33805.00
1125.853, 33753.00
1126.947, 33786.00
1128.040, 33869.00
1129.133, 33677.00
1130.226, 33789.00
1131.318, 33803.00
1132.411, 33752.00
1133.503, 33914.00
1134.596, 33563.00
1135.688, 33647.00
1136.780, 33619.00
1137.871, 33580.00
1138.963, 33647.00
1140.054, 33732.00
1141.146, 33698.00
1142.237, 33734.00
1143.328, 33642.00
1144.419, 33577.00
1145.509, 33564.28
1146.600, 33547.00
1147.690, 33542.00
1148.780, 33465.00
1149.870, 33554.00
1150.960, 33657.00
1152.050, 33598.00
1153.139, 33520.00
1154.229, 33341.00
1155.318, 33393.00
1156.407, 33515.00
1157.496, 33469.00
1158.585, 33519.00
1159.674, 33497.00
1160.762, 33429.00
1161.850, 33334.00
1162.939, 33594.00
1164.027, 33674.00
1165.114, 33493.00
1166.202, 33427.00
1167.290, 33344.00
1168.377, 33364.00
1169.464, 33405.00
1170.551, 33354.00
1171.638, 33224.00
1172.725, 33523.00
1173.812, 33257.00
1174.898, 33679.00
1175.984, 33235.00
1177.071, 33431.00
1178.157, 33416.00
1179.242, 33374.00
1180.328, 33524.48
1181.414, 33432.61
1182.499, 33659.00
1183.584, 33441.00
1184.669, 33380.00
1185.754, 33554.00
1186.839, 33570.00
1187.924, 33477.16
1189.008, 33497.00
1190.092, 33352.00
1191.177, 33192.00
1192.260, 33314.00
1193.344, 33281.00
1194.428, 33354.00
1195.512, 33342.00
1196.595, 33246.00
1197.678, 33388.00
1198.761, 33255.00
1199.844, 33339.00
1200.927, 33401.00
1202.009, 33195.00
1203.092, 33209.00
1204.174, 33285.00
1205.256, 33229.00
1206.338, 33287.00
1207.420, 33195.00
1208.502, 33331.00
1209.583, 33216.00
1210.665, 33243.00
1211.746, 33164.00
1212.827, 33125.00
1213.908, 33256.00
1214.988, 33405.00
1216.069, 33438.00
1217.149, 33337.00
1218.230, 33405.00
1219.310, 33209.00
1220.390, 33203.00
1221.470, 33173.00
1222.549, 33190.00
1223.629, 33241.00
1224.708, 33292.00
1225.787, 33288.34
1226.866, 33183.00
1227.945, 33305.00
1229.024, 33274.00
1230.103, 33312.00
1231.181, 32976.00
1232.259, 33221.00
1233.337, 33013.00
1234.415, 33008.00
1235.493, 33082.00
1236.571, 33008.04
1237.648, 33042.00
1238.726, 33049.00
1239.803, 33143.00
1240.880, 33197.00
1241.957, 33077.00
1243.034, 33381.00
1244.110, 33188.00
1245.187, 33200.00
1246.263, 33088.00
1247.339, 33253.00
1248.415, 33190.00
1249.491, 33235.00
1250.566, 33285.00
1251.642, 33238.20
1252.717, 33329.46
1253.793, 33165.00
1254.868, 33397.00
1255.943, 33313.00
1257.017, 33212.00
1258.092, 33023.00
1259.166, 33234.00
1260.241, 33190.00
1261.315, 33135.00
1262.389, 33270.00
1263.462, 33141.00
1264.536, 33363.00
1265.610, 33006.00
1266.683, 33331.00
1267.756, 33192.00
1268.829, 33066.00
1269.902, 33135.00
1270.975, 33118.00
1272.048, 33190.00
1273.120, 33068.00
1274.192, 33150.09
1275.264, 33031.00
1276.336, 33194.00
1277.408, 33303.00
1278.480, 33248.00
1279.551, 33134.00
1280.623, 33350.00
1281.694, 33268.00
1282.765, 33293.00
1283.836, 33115.00
1284.907, 33098.00
1285.977, 33226.00
1287.048, 33388.00
1288.118, 33126.00
1289.188, 33225.00
1290.258, 33385.00
1291.328, 33069.00
1292.398, 33205.00
1293.467, 32957.00
1294.537, 32965.00
1295.606, 33065.00
1296.675, 33107.00
1297.744, 32974.00
1298.813, 33152.00
1299.882, 33315.00
