##NAMES=Inyoite
##RRUFFID=R040161
##IDEAL CHEMISTRY=CaB_3_O_3_(OH)_5_&#183;4H_2_O
##LOCALITY=Kramer deposit, Boron, Kern County, California, USA
##OWNER=RRUFF
##SOURCE=University of Arizona Mineral Museum
##DESCRIPTION=Group of colorless indistinct rounded crystals
##STATUS=The identification of this mineral has been confirmed by X-ray diffraction and chemical analysis
##URL=rruff.info/R040161
##MEASURED CHEMISTRY=Ca_1.00_B_3.00_O_3_(OH)_5_Â·4H_2_O
##PIN_ID=L00092
##ORIENTATION=Laser parallel to (1 0 1). Fiducial mark perpendicular to laser is parallel to b [0 1 0]
93.15500, 8890.000
94.39300, 9138.000
95.63100, 9184.000
96.86900, 9487.000
98.10600, 9816.000
99.34400, 10243.00
100.5810, 10457.00
101.8190, 10868.00
103.0560, 11377.00
104.2930, 11650.00
105.5290, 11735.00
106.7660, 12180.00
108.0020, 12060.00
109.2390, 11893.00
110.4750, 11657.00
111.7110, 11399.00
112.9460, 11271.00
114.1820, 11274.00
115.4170, 11239.00
116.6530, 11359.00
117.8880, 11482.00
119.1230, 11577.00
120.3580, 11604.00
121.5920, 11827.00
122.8270, 12100.00
124.0610, 12258.00
125.2950, 12313.00
126.5290, 12372.00
127.7630, 12678.00
128.9970, 12941.00
130.2300, 13241.00
131.4640, 13686.00
132.6970, 14093.00
133.9300, 14255.00
135.1630, 14076.00
136.3950, 13853.00
137.6280, 13722.00
138.8600, 13908.43
140.0920, 13985.00
141.3240, 14521.00
142.5560, 14949.00
143.7880, 15478.00
145.0190, 16285.00
146.2510, 17345.00
147.4820, 18840.00
148.7130, 20337.00
149.9440, 21511.00
151.1750, 22462.00
152.4050, 21717.00
153.6360, 20014.00
154.8660, 18419.00
156.0960, 16939.00
157.3260, 15852.00
158.5560, 15325.00
159.7850, 15134.00
161.0150, 15022.00
162.2440, 14872.00
163.4730, 15247.00
164.7020, 15308.00
165.9310, 15645.00
167.1590, 16457.00
168.3880, 16933.00
169.6160, 17768.00
170.8440, 18924.00
172.0720, 19915.00
173.3000, 21146.00
174.5280, 22094.00
175.7550, 23555.00
176.9820, 24757.00
178.2100, 25711.00
179.4370, 26647.00
180.6630, 27363.00
181.8900, 27338.00
183.1170, 26825.00
184.3430, 25678.00
185.5690, 24993.00
186.7950, 24403.00
188.0210, 23999.00
189.2470, 23794.00
190.4720, 23983.00
191.6970, 24061.00
192.9230, 24770.00
194.1480, 24366.00
195.3730, 23711.00
196.5970, 22607.00
197.8220, 21582.00
199.0460, 20295.00
200.2700, 18896.00
201.4940, 17985.00
202.7180, 17180.00
203.9420, 16607.00
205.1660, 16172.00
206.3890, 15589.00
207.6120, 15425.00
208.8350, 15076.00
210.0580, 14968.00
211.2810, 14828.00
212.5040, 14796.00
213.7260, 14503.00
214.9480, 14348.00
216.1700, 14168.00
217.3920, 13958.00
218.6140, 14007.00
219.8360, 13903.00
221.0570, 14005.00
222.2790, 13714.00
223.5000, 13723.00
224.7210, 13716.00
225.9410, 13677.00
227.1620, 13694.00
228.3820, 13654.00
229.6030, 13876.00
230.8230, 13974.00
232.0430, 13742.00
233.2630, 13899.00
234.4820, 13848.00
235.7020, 13955.00
236.9210, 13918.00
238.1400, 13951.00
239.3590, 13878.00
240.5780, 13837.00
241.7970, 14071.00
243.0150, 14070.00
244.2340, 14026.00
245.4520, 14081.00
246.6700, 14359.00
247.8880, 14356.00
249.1060, 14452.00
250.3230, 14437.00
251.5400, 14512.00
252.7580, 14835.00
253.9750, 15170.00
255.1920, 15221.00
256.4080, 15247.00
257.6250, 15407.00
258.8410, 15486.78
260.0580, 15568.71
261.2740, 15685.00
262.4900, 15765.00
263.7050, 15737.00
264.9210, 15873.00
266.1360, 15936.00
267.3520, 15839.00
268.5670, 15793.00
269.7820, 15773.00
270.9960, 15902.00
272.2110, 15936.00
273.4250, 15972.00
274.6400, 15825.00
275.8540, 15866.00
277.0680, 15835.00
278.2810, 15566.00
279.4950, 15794.00
280.7090, 15579.00
281.9220, 15378.00
283.1350, 15374.00
284.3480, 15328.00
285.5610, 15278.00
286.7730, 15277.00
287.9860, 15240.00
289.1980, 15315.00
290.4100, 15273.00
291.6220, 15280.00
292.8340, 15342.00
294.0460, 15200.00
295.2570, 15161.00
296.4690, 15179.00
297.6800, 15155.00
298.8910, 15327.00
300.1020, 15384.00
301.3120, 15391.00
302.5230, 15461.00
303.7330, 15539.00
304.9440, 15597.00
306.1540, 15598.00
307.3630, 15641.00
308.5730, 15831.00
309.7830, 15916.00
310.9920, 16084.70
312.2010, 16213.00
313.4100, 16453.00
314.6190, 16684.00
315.8280, 16907.00
317.0370, 17131.00
318.2450, 17594.00
319.4530, 17658.00
320.6610, 17867.00
321.8690, 18289.00
323.0770, 18363.00
324.2850, 18806.00
325.4920, 18898.00
326.6990, 19232.00
327.9060, 19192.00
329.1130, 19141.00
330.3200, 18955.00
331.5270, 18794.00
332.7330, 18381.00
333.9390, 18074.00
335.1450, 17894.00
336.3510, 17462.00
337.5570, 17351.00
338.7630, 17077.00
339.9680, 16849.00
341.1740, 16843.00
342.3790, 16663.00
343.5840, 16597.00
344.7890, 16504.00
345.9930, 16565.00
347.1980, 16607.00
348.4020, 16585.00
349.6060, 16547.00
350.8100, 16646.00
352.0140, 16624.00
353.2180, 16780.00
354.4210, 16724.00
355.6250, 16693.00
356.8280, 16906.00
358.0310, 16828.00
359.2340, 16881.00
360.4360, 16945.00
361.6390, 17006.00
362.8410, 16947.00
364.0430, 17308.00
365.2450, 17376.00
366.4470, 17527.00
367.6490, 17861.00
368.8510, 17910.00
370.0520, 18152.00
371.2530, 18418.00
372.4540, 18759.00
373.6550, 18874.00
374.8560, 19077.00
376.0560, 19005.00
377.2570, 18922.00
378.4570, 18887.00
379.6570, 19074.00
380.8570, 19049.00
382.0570, 19183.00
383.2560, 19433.00
384.4560, 19617.00
385.6550, 19755.00
386.8540, 19869.00
388.0530, 19989.00
389.2520, 20163.00
390.4510, 20159.00
391.6490, 19973.00
392.8470, 19750.00
394.0450, 19376.00
395.2430, 19119.00
396.4410, 18813.00
397.6390, 18836.00
398.8360, 18679.00
400.0340, 18900.00
401.2310, 18773.00
402.4280, 18785.00
403.6250, 18936.00
404.8210, 18867.00
406.0180, 19092.00
407.2140, 19283.00
408.4100, 19307.00
409.6060, 19084.00
410.8020, 18868.00
411.9980, 18859.00
413.1930, 18415.00
414.3890, 18443.00
415.5840, 18303.00
416.7790, 18054.00
417.9740, 17988.00
419.1680, 17788.00
420.3630, 17858.00
421.5570, 17540.00
422.7510, 17683.00
423.9450, 17302.00
425.1390, 17245.00
426.3330, 17288.00
427.5270, 17295.00
428.7200, 17086.00
429.9130, 17099.00
431.1060, 17044.00
432.2990, 17097.00
433.4920, 17167.00
434.6840, 17089.00
435.8770, 17173.00
437.0690, 17178.00
438.2610, 17180.00
439.4530, 17206.00
440.6450, 17143.00
441.8360, 17165.00
443.0280, 17041.00
444.2190, 17075.90
445.4100, 17108.00
446.6010, 17147.00
447.7920, 17154.00
448.9820, 17295.00
450.1730, 17275.00
451.3630, 17264.00
452.5530, 17322.00
453.7430, 17260.00
454.9330, 17508.00
456.1230, 17405.00
457.3120, 17512.00
458.5010, 17751.00
459.6910, 17689.00
460.8800, 17983.00
462.0680, 17842.00
463.2570, 18019.00
464.4460, 18248.00
465.6340, 18110.00
466.8220, 18120.00
468.0100, 18020.00
469.1980, 17939.85
470.3860, 17883.47
471.5730, 17849.00
472.7600, 17776.00
473.9480, 17892.00
475.1350, 17968.00
476.3210, 17993.00
477.5080, 18006.18
478.6950, 18002.18
479.8810, 17943.00
481.0670, 17944.00
482.2530, 17895.00
483.4390, 17864.00
484.6250, 17876.00
485.8100, 17855.00
486.9960, 17929.00
488.1810, 18030.00
489.3660, 18021.00
490.5510, 18192.00
491.7360, 18077.00
492.9200, 18251.00
494.1050, 18240.00
495.2890, 18411.00
496.4730, 18328.00
497.6570, 18518.00
498.8400, 18461.00
500.0240, 18635.00
501.2070, 18549.00
502.3910, 18884.00
503.5740, 18964.00
504.7570, 19032.00
505.9400, 18945.00
507.1220, 19101.00
508.3050, 19099.00
509.4870, 19239.00
510.6690, 19057.00
511.8510, 19060.00
513.0330, 19302.00
514.2140, 19128.00
515.3960, 19022.00
516.5770, 19313.00
517.7580, 19145.00
518.9390, 19313.00
520.1200, 19119.00
521.3010, 19338.00
522.4810, 19284.00
523.6610, 19473.00
524.8420, 19352.00
526.0220, 19760.00
527.2010, 19568.00
528.3810, 19722.00
529.5610, 19643.00
530.7400, 19730.00
531.9190, 19533.00
533.0980, 19709.00
534.2770, 19510.00
535.4560, 19677.00
536.6340, 19716.00
537.8120, 19721.00
538.9910, 19823.00
540.1690, 19680.00
541.3460, 19705.00
542.5240, 19775.00
543.7020, 19707.00
544.8790, 19813.00
546.0560, 19758.00
547.2330, 19922.00
548.4100, 19926.40
549.5870, 19761.00
550.7630, 19965.00
551.9400, 19890.00
553.1160, 19814.00
554.2920, 19792.00
555.4680, 20047.00
556.6440, 20152.00
557.8190, 20118.00
558.9950, 20229.00
560.1700, 20209.00
561.3450, 20307.00
562.5200, 20552.00
563.6950, 20409.00
564.8690, 20620.00
566.0440, 20593.00
567.2180, 20811.00
568.3920, 20673.00
569.5660, 20838.00
570.7400, 21007.00
571.9130, 20858.00
573.0870, 21078.00
574.2600, 21043.00
575.4330, 21240.00
576.6060, 21333.00
577.7790, 21310.00
578.9520, 21625.00
580.1240, 21613.00
581.2960, 21689.00
582.4690, 21792.00
583.6410, 21896.00
584.8120, 21971.00
585.9840, 22017.00
587.1560, 22141.00
588.3270, 22381.00
589.4980, 22620.00
590.6690, 22619.00
591.8400, 23042.00
593.0110, 23180.00
594.1810, 23401.00
595.3510, 23911.00
596.5220, 24481.00
597.6920, 25018.00
598.8610, 25541.00
600.0310, 26384.00
601.2010, 27376.00
602.3700, 28468.00
603.5390, 29900.00
604.7080, 31624.00
605.8770, 33415.00
607.0460, 35943.00
608.2140, 38667.00
609.3830, 41589.00
610.5510, 45186.00
611.7190, 48516.00
612.8870, 51697.00
614.0550, 54833.00
615.2220, 56420.00
616.3900, 55637.93
617.5570, 54602.00
618.7240, 50981.00
619.8910, 46524.00
621.0580, 41997.00
622.2240, 37866.00
623.3910, 34191.00
624.5570, 31627.00
625.7230, 29551.00
626.8890, 28276.00
628.0550, 26692.00
629.2200, 25742.00
630.3860, 24981.00
631.5510, 24447.00
632.7160, 23881.00
633.8810, 23578.00
635.0460, 23100.00
636.2100, 22911.00
637.3750, 22684.00
638.5390, 22519.00
639.7030, 22259.00
640.8670, 22258.00
642.0310, 22072.00
643.1950, 22024.00
644.3580, 22048.00
645.5210, 21799.00
646.6850, 22073.00
647.8480, 21821.00
649.0100, 21914.00
650.1730, 21906.00
651.3350, 21880.00
652.4980, 21846.00
653.6600, 21800.00
654.8220, 21763.00
655.9840, 21723.39
657.1450, 21733.00
658.3070, 21664.00
659.4680, 21587.00
660.6300, 21595.90
661.7910, 21815.00
662.9510, 21644.00
664.1120, 21692.00
665.2730, 21757.00
666.4330, 21583.00
667.5930, 21733.00
668.7530, 21574.00
669.9130, 21834.00
671.0730, 21553.00
672.2320, 21562.00
673.3920, 21830.00
674.5510, 21747.00
675.7100, 22016.00
676.8690, 22060.00
678.0280, 21825.00
679.1860, 21914.00
680.3450, 21827.00
681.5030, 22030.00
682.6610, 22064.00
683.8190, 22002.00
684.9770, 22187.00
686.1340, 22005.00
687.2920, 22132.00
688.4490, 22122.00
689.6060, 22171.00
690.7630, 22005.00
691.9200, 21974.00
693.0760, 21958.00
694.2330, 21984.00
695.3890, 22178.00
696.5450, 22144.00
697.7010, 22276.00
698.8570, 22133.00
700.0130, 22161.00
701.1680, 22135.00
702.3230, 22105.73
703.4780, 22238.00
704.6330, 22137.00
705.7880, 22085.00
706.9430, 22161.00
708.0970, 22468.00
709.2520, 22286.00
710.4060, 22444.00
711.5600, 22262.00
712.7140, 22301.61
713.8670, 22426.00
715.0210, 22502.00
716.1740, 22724.00
717.3270, 22812.56
718.4800, 23013.00
719.6330, 23087.00
720.7860, 23541.00
721.9380, 23745.00
723.0910, 24056.00
724.2430, 24546.00
725.3950, 25085.00
726.5470, 25641.00
727.6980, 26074.00
728.8500, 26624.00
730.0010, 26952.00
731.1530, 27089.00
732.3040, 26949.00
733.4550, 26712.00
734.6050, 26116.00
735.7560, 25468.00
736.9060, 24737.00
738.0560, 23923.00
739.2060, 23819.00
740.3560, 23515.00
741.5060, 23031.00
742.6560, 23054.00
743.8050, 22778.00
744.9540, 22544.00
746.1030, 22385.00
747.2520, 22365.00
748.4010, 22351.00
749.5500, 22288.00
750.6980, 22261.00
751.8460, 22289.00
752.9950, 22218.00
754.1420, 22264.00
755.2900, 22238.00
756.4380, 22143.00
757.5850, 22178.06
758.7330, 22293.00
759.8800, 22202.00
761.0270, 22171.00
762.1730, 22261.00
763.3200, 22177.00
764.4670, 22223.00
765.6130, 22196.00
766.7590, 22225.00
767.9050, 22278.00
769.0510, 22354.00
770.1960, 22334.47
771.3420, 22390.84
772.4870, 22314.00
773.6320, 22395.00
774.7770, 22401.00
775.9220, 22298.00
777.0670, 22232.00
778.2110, 22401.00
779.3560, 22271.00
780.5000, 22294.00
781.6440, 22508.00
782.7880, 22329.00
783.9320, 22466.00
785.0750, 22292.00
786.2180, 22490.00
787.3620, 22317.00
788.5050, 22551.00
789.6480, 22432.00
790.7900, 22557.00
791.9330, 22486.00
793.0750, 22504.00
794.2170, 22617.00
795.3590, 22467.00
796.5010, 22710.00
797.6430, 22400.00
798.7850, 22726.00
799.9260, 22508.00
801.0670, 22612.00
802.2080, 22434.00
803.3490, 22603.00
804.4900, 22781.00
805.6310, 22741.00
806.7710, 22868.00
807.9110, 22477.00
809.0510, 22837.00
810.1910, 22795.00
811.3310, 22612.00
812.4710, 22891.00
813.6100, 22742.00
814.7490, 22839.00
815.8880, 22795.00
817.0270, 23166.00
818.1660, 22857.00
819.3050, 22908.00
820.4430, 23144.00
821.5820, 23030.00
822.7200, 22943.00
823.8580, 23095.00
824.9950, 23115.00
826.1330, 23195.00
827.2710, 23284.00
828.4080, 23067.00
829.5450, 22996.00
830.6820, 23208.00
831.8190, 23159.00
832.9560, 23211.00
834.0920, 23126.00
835.2280, 23440.00
836.3650, 23304.00
837.5010, 23331.00
838.6360, 23501.00
839.7720, 23396.00
840.9080, 23447.00
842.0430, 23564.00
843.1780, 23642.00
844.3130, 23465.00
845.4480, 23722.00
846.5830, 23632.00
847.7170, 23703.00
848.8520, 23978.00
849.9860, 23901.00
851.1200, 24079.00
852.2540, 24101.00
853.3870, 24156.00
854.5210, 24172.75
855.6540, 24119.00
856.7880, 24177.00
857.9210, 24252.00
859.0540, 24373.00
860.1860, 24343.00
861.3190, 24191.00
862.4510, 24417.00
863.5840, 24651.00
864.7160, 24595.00
865.8480, 24855.00
866.9790, 24662.00
868.1110, 24492.00
869.2420, 24858.00
870.3740, 24756.00
871.5050, 24972.00
872.6360, 24787.00
873.7660, 24958.00
874.8970, 24809.00
876.0280, 24779.00
877.1580, 24860.00
878.2880, 25030.00
879.4180, 24882.00
880.5480, 24945.00
881.6770, 24874.00
882.8070, 24913.00
883.9360, 25064.00
885.0650, 24998.00
886.1940, 25081.00
887.3230, 24784.00
888.4520, 25069.00
889.5800, 24955.00
890.7090, 25135.00
891.8370, 24925.00
892.9650, 25002.00
894.0930, 25260.00
895.2200, 25149.00
896.3480, 25115.00
897.4750, 25193.00
898.6020, 25252.00
899.7290, 25178.00
900.8560, 25214.00
901.9830, 25493.00
903.1090, 25569.00
904.2360, 25588.00
905.3620, 25385.00
906.4880, 25571.00
907.6140, 25647.00
908.7400, 25649.00
909.8650, 25779.00
910.9900, 25795.00
912.1160, 25839.00
913.2410, 25964.00
914.3660, 26046.00
915.4900, 26042.00
916.6150, 26270.00
917.7390, 26420.00
918.8640, 26248.00
919.9880, 26734.00
921.1120, 26747.00
922.2350, 27048.00
923.3590, 26973.00
924.4820, 27204.00
925.6060, 27263.00
926.7290, 27445.00
927.8520, 27585.00
928.9740, 27832.00
930.0970, 27521.00
931.2190, 27431.00
932.3420, 27313.00
933.4640, 27403.00
934.5860, 27244.00
935.7080, 27289.00
936.8290, 26988.00
937.9510, 27250.00
939.0720, 26898.00
940.1930, 26784.00
941.3140, 26839.00
942.4350, 26785.00
943.5560, 26609.00
944.6760, 26684.00
945.7960, 26821.00
946.9170, 26498.00
948.0370, 26410.00
949.1560, 26641.00
950.2760, 26675.00
951.3960, 26463.00
952.5150, 26604.00
953.6340, 26781.00
954.7530, 26532.00
955.8720, 26782.00
956.9910, 26693.00
958.1090, 26763.00
959.2280, 26813.00
960.3460, 26762.00
961.4640, 26778.67
962.5820, 26611.00
963.6990, 26676.00
964.8170, 26585.00
965.9340, 26444.00
967.0510, 26660.00
968.1690, 26784.00
969.2850, 26685.00
970.4020, 26813.00
971.5190, 26694.00
972.6350, 26500.00
973.7510, 26672.00
974.8670, 26578.00
975.9830, 26622.00
977.0990, 26825.00
978.2150, 26648.00
979.3300, 26665.00
980.4450, 26531.00
981.5600, 26568.00
982.6750, 26843.00
983.7900, 26571.00
984.9050, 26594.00
986.0190, 26696.00
987.1340, 26424.00
988.2480, 26658.00
989.3620, 26725.00
990.4750, 26592.00
991.5890, 26528.00
992.7020, 26756.00
993.8160, 26762.00
994.9290, 26667.00
996.0420, 26687.00
997.1550, 26717.00
998.2670, 26809.00
999.3800, 26888.00
1000.492, 27056.00
1001.604, 27106.00
1002.716, 27185.00
1003.828, 26934.00
1004.940, 27078.00
1006.051, 27045.00
1007.163, 27277.00
1008.274, 26983.00
1009.385, 27129.00
1010.496, 27232.00
1011.606, 27269.00
1012.717, 27090.00
1013.827, 27111.00
1014.937, 27179.00
1016.047, 27273.00
1017.157, 27314.00
1018.267, 27306.12
1019.377, 27354.00
1020.486, 27263.00
1021.595, 27150.00
1022.704, 27165.00
1023.813, 27175.00
1024.922, 27380.00
1026.030, 27348.00
1027.139, 27276.00
1028.247, 27209.00
1029.355, 27186.00
1030.463, 27030.00
1031.571, 27165.00
1032.678, 27386.00
1033.786, 27195.00
1034.893, 27380.00
1036.000, 27130.00
1037.107, 27418.00
1038.214, 27331.00
1039.321, 27375.00
1040.427, 27459.00
1041.533, 27487.00
1042.639, 27372.00
1043.745, 27393.00
1044.851, 27543.00
1045.957, 27667.00
1047.062, 27739.00
1048.168, 27917.00
1049.273, 27844.00
1050.378, 27726.00
1051.482, 27957.00
1052.587, 27820.00
1053.692, 28198.00
1054.796, 28036.00
1055.900, 28257.00
1057.004, 28099.00
1058.108, 28080.00
1059.212, 28182.00
1060.315, 28306.00
1061.418, 28470.00
1062.522, 28304.00
1063.625, 28397.00
1064.728, 28537.00
1065.830, 28371.00
1066.933, 28505.00
1068.035, 28544.00
1069.137, 28682.00
1070.239, 28514.00
1071.341, 28397.00
1072.443, 28380.00
1073.545, 28467.00
1074.646, 28393.00
1075.747, 28423.70
1076.848, 28583.00
1077.949, 28388.00
1079.050, 28501.00
1080.150, 28422.00
1081.251, 28558.00
1082.351, 28401.00
1083.451, 28786.00
1084.551, 28504.00
1085.651, 28474.00
1086.750, 28664.00
1087.850, 28513.00
1088.949, 28486.00
1090.048, 28691.00
1091.147, 28618.00
1092.246, 28494.00
1093.345, 28813.00
1094.443, 28740.00
1095.541, 28759.00
1096.639, 28637.00
1097.737, 28770.00
1098.835, 28805.00
1099.933, 28678.00
1101.030, 28708.00
1102.128, 28857.00
1103.225, 28958.00
1104.322, 28634.00
1105.419, 28816.00
1106.515, 28785.00
1107.612, 28704.00
1108.708, 28707.00
1109.804, 28930.00
1110.900, 29040.00
1111.996, 28762.00
1113.092, 29061.00
1114.187, 29031.00
1115.283, 28891.00
1116.378, 28913.00
1117.473, 29040.00
1118.568, 28868.00
1119.662, 28998.00
1120.757, 29313.00
1121.851, 29114.00
1122.946, 29331.00
1124.040, 29447.00
1125.134, 29136.00
1126.227, 29492.00
1127.321, 28975.00
1128.414, 29055.00
1129.508, 29262.00
1130.601, 29259.00
1131.693, 29291.00
1132.786, 29171.00
1133.879, 29271.00
1134.971, 29341.00
1136.064, 29226.00
1137.156, 29232.00
1138.248, 29271.00
1139.339, 29259.00
1140.431, 29305.00
1141.522, 29369.00
1142.614, 29558.00
1143.705, 29303.00
1144.796, 29333.00
1145.887, 29496.00
1146.977, 29588.00
1148.068, 29485.00
1149.158, 29580.00
1150.248, 29478.00
1151.338, 29632.00
1152.428, 29779.00
1153.518, 29675.00
1154.607, 29672.00
1155.696, 29585.00
1156.785, 29667.00
1157.874, 29541.00
1158.963, 29842.00
1160.052, 29918.00
1161.141, 29760.00
1162.229, 29714.00
1163.317, 29855.00
1164.405, 29741.00
1165.493, 29814.00
1166.581, 30123.00
1167.668, 30032.00
1168.756, 30274.00
1169.843, 30213.00
1170.930, 30184.00
1172.017, 30328.00
1173.103, 30203.00
1174.190, 30224.00
1175.276, 29998.00
1176.363, 30153.00
1177.449, 30137.00
1178.535, 30410.00
1179.620, 30198.00
1180.706, 30494.00
1181.791, 30546.00
1182.877, 30427.00
1183.962, 30520.00
1185.047, 30738.00
1186.131, 30294.00
1187.216, 30637.00
1188.300, 30541.00
1189.385, 30614.00
1190.469, 30742.00
1191.553, 30751.00
1192.637, 30915.00
1193.720, 30673.00
1194.804, 30762.00
1195.887, 30883.00
1196.970, 30923.00
1198.053, 31011.00
1199.136, 31049.27
1200.219, 31069.00
1201.301, 31063.00
1202.383, 31106.00
1203.465, 31020.00
1204.547, 31024.00
1205.629, 31363.00
1206.711, 31240.00
1207.792, 31288.00
1208.874, 31045.00
1209.955, 31378.00
1211.036, 31289.00
1212.117, 31278.00
1213.198, 31448.00
1214.278, 31466.00
1215.359, 31616.00
1216.439, 31408.00
1217.519, 31536.00
1218.599, 31819.00
1219.678, 31528.00
1220.758, 31909.00
1221.837, 31744.00
1222.917, 31672.00
1223.996, 32004.00
1225.075, 31634.00
1226.153, 31712.00
1227.232, 31640.00
1228.310, 31916.00
1229.389, 31832.00
1230.467, 31652.00
1231.545, 31913.00
1232.622, 32021.00
1233.700, 32194.00
1234.777, 32102.00
1235.855, 32160.00
1236.932, 32129.00
1238.009, 32142.00
1239.086, 32193.00
1240.162, 31992.00
1241.239, 32368.00
1242.315, 32360.00
1243.391, 32082.00
1244.467, 32263.00
1245.543, 32298.00
1246.619, 32365.00
1247.694, 32522.00
1248.769, 32501.00
1249.844, 32626.00
1250.919, 32520.00
1251.994, 32629.00
1253.069, 32638.00
1254.144, 32709.00
1255.218, 32698.00
1256.292, 32459.00
1257.366, 32591.00
1258.440, 32787.00
1259.514, 32549.00
1260.587, 32723.00
1261.661, 32780.00
1262.734, 32721.00
1263.807, 32605.00
1264.880, 32811.00
1265.952, 32991.00
1267.025, 32631.00
1268.097, 32741.00
1269.170, 32649.00
1270.242, 32577.00
1271.314, 32567.00
1272.385, 32519.41
