##NAMES=Inyoite
##RRUFFID=R040161
##IDEAL CHEMISTRY=CaB_3_O_3_(OH)_5_&#183;4H_2_O
##LOCALITY=Kramer deposit, Boron, Kern County, California, USA
##OWNER=RRUFF
##SOURCE=University of Arizona Mineral Museum
##DESCRIPTION=Group of colorless indistinct rounded crystals
##STATUS=The identification of this mineral has been confirmed by X-ray diffraction and chemical analysis
##URL=rruff.info/R040161
##MEASURED CHEMISTRY=Ca_1.00_B_3.00_O_3_(OH)_5_Â·4H_2_O
##PIN_ID=L00078
##ORIENTATION=Laser parallel to -c* (0 0 -1). Fiducial mark perpendicular to laser is parallel to a [1 0 0]
93.15500, 6817.000
94.39300, 6859.000
95.63100, 7126.000
96.86900, 7407.000
98.10600, 7740.000
99.34400, 8078.000
100.5810, 8410.000
101.8190, 8978.000
103.0560, 9301.000
104.2930, 9699.000
105.5290, 9998.000
106.7660, 10271.00
108.0020, 10318.00
109.2390, 10024.00
110.4750, 9740.000
111.7110, 9473.000
112.9460, 9361.000
114.1820, 9383.000
115.4170, 9418.000
116.6530, 9492.000
117.8880, 9566.000
119.1230, 9745.000
120.3580, 9997.000
121.5920, 10401.00
122.8270, 10597.00
124.0610, 11061.00
125.2950, 11217.00
126.5290, 11428.00
127.7630, 11692.00
128.9970, 11735.00
130.2300, 11872.00
131.4640, 12277.00
132.6970, 12224.00
133.9300, 12143.00
135.1630, 11931.00
136.3950, 11705.00
137.6280, 11693.00
138.8600, 11583.00
140.0920, 11768.00
141.3240, 12073.00
142.5560, 12471.00
143.7880, 12831.00
145.0190, 13515.00
146.2510, 14291.00
147.4820, 15327.00
148.7130, 16330.00
149.9440, 16958.00
151.1750, 17131.00
152.4050, 16648.00
153.6360, 15724.00
154.8660, 14659.00
156.0960, 13897.00
157.3260, 13642.00
158.5560, 13439.00
159.7850, 13618.00
161.0150, 13728.00
162.2440, 13736.00
163.4730, 13930.00
164.7020, 14338.00
165.9310, 14859.00
167.1590, 15181.00
168.3880, 15729.00
169.6160, 16632.00
170.8440, 17749.00
172.0720, 18478.00
173.3000, 19262.00
174.5280, 20024.00
175.7550, 20389.00
176.9820, 20496.00
178.2100, 20604.00
179.4370, 20914.00
180.6630, 20845.00
181.8900, 20730.00
183.1170, 20109.00
184.3430, 19823.00
185.5690, 19363.00
186.7950, 19174.00
188.0210, 19546.00
189.2470, 19462.00
190.4720, 20069.00
191.6970, 20235.00
192.9230, 20388.00
194.1480, 20178.00
195.3730, 19807.00
196.5970, 18819.00
197.8220, 17862.00
199.0460, 16565.00
200.2700, 15781.00
201.4940, 15060.00
202.7180, 14422.00
203.9420, 14008.00
205.1660, 13678.00
206.3890, 13331.00
207.6120, 12968.00
208.8350, 12906.00
210.0580, 12686.00
211.2810, 12455.00
212.5040, 12360.00
213.7260, 12069.00
214.9480, 11919.00
216.1700, 11725.00
217.3920, 11653.00
218.6140, 11468.00
219.8360, 11461.00
221.0570, 11460.00
222.2790, 11459.00
223.5000, 11298.00
224.7210, 11199.00
225.9410, 11347.00
227.1620, 11339.00
228.3820, 11430.00
229.6030, 11309.00
230.8230, 11341.00
232.0430, 11406.00
233.2630, 11419.00
234.4820, 11416.00
235.7020, 11494.00
236.9210, 11449.00
238.1400, 11383.00
239.3590, 11571.00
240.5780, 11402.00
241.7970, 11340.00
243.0150, 11580.00
244.2340, 11426.00
245.4520, 11543.00
246.6700, 11507.00
247.8880, 11483.00
249.1060, 11454.00
250.3230, 11516.00
251.5400, 11605.00
252.7580, 11668.00
253.9750, 11661.00
255.1920, 11790.00
256.4080, 11783.00
257.6250, 11923.00
258.8410, 12026.00
260.0580, 12060.00
261.2740, 12127.86
262.4900, 12006.00
263.7050, 12170.00
264.9210, 12197.00
266.1360, 12199.00
267.3520, 12528.00
268.5670, 12302.00
269.7820, 12405.00
270.9960, 12573.00
272.2110, 12467.00
273.4250, 12635.00
274.6400, 12591.00
275.8540, 12637.00
277.0680, 12538.00
278.2810, 12581.00
279.4950, 12475.00
280.7090, 12523.00
281.9220, 12435.00
283.1350, 12401.00
284.3480, 12502.00
285.5610, 12342.00
286.7730, 12231.00
287.9860, 12275.00
289.1980, 12167.00
290.4100, 12037.00
291.6220, 11945.00
292.8340, 12082.00
294.0460, 12128.00
295.2570, 12203.00
296.4690, 12219.69
297.6800, 12070.00
298.8910, 12167.00
300.1020, 12052.00
301.3120, 11932.00
302.5230, 12175.00
303.7330, 12195.00
304.9440, 12182.00
306.1540, 12356.00
307.3630, 12400.00
308.5730, 12470.32
309.7830, 12457.00
310.9920, 12625.00
312.2010, 12606.00
313.4100, 12701.00
314.6190, 12871.00
315.8280, 12944.00
317.0370, 13165.00
318.2450, 13216.00
319.4530, 13431.00
320.6610, 13524.00
321.8690, 13606.00
323.0770, 13782.00
324.2850, 13898.00
325.4920, 13969.54
326.6990, 14110.00
327.9060, 14045.00
329.1130, 14119.00
330.3200, 14030.00
331.5270, 13962.00
332.7330, 13800.00
333.9390, 13775.00
335.1450, 13726.61
336.3510, 13722.99
337.5570, 13763.00
338.7630, 13810.00
339.9680, 13974.00
341.1740, 14060.00
342.3790, 14340.00
343.5840, 14546.00
344.7890, 14764.00
345.9930, 15080.00
347.1980, 15350.00
348.4020, 15745.00
349.6060, 16098.00
350.8100, 16111.00
352.0140, 16329.00
353.2180, 16180.00
354.4210, 16416.00
355.6250, 16283.00
356.8280, 16086.00
358.0310, 15948.00
359.2340, 15831.34
360.4360, 15817.00
361.6390, 15665.00
362.8410, 15659.00
364.0430, 15682.00
365.2450, 15799.00
366.4470, 15929.00
367.6490, 15966.00
368.8510, 16062.00
370.0520, 16355.00
371.2530, 16637.00
372.4540, 16772.00
373.6550, 16902.00
374.8560, 16983.00
376.0560, 17023.02
377.2570, 17152.00
378.4570, 16998.00
379.6570, 17018.00
380.8570, 16915.00
382.0570, 17124.00
383.2560, 17137.00
384.4560, 17418.00
385.6550, 17615.00
386.8540, 17827.00
388.0530, 18021.00
389.2520, 17948.00
390.4510, 17772.00
391.6490, 17500.00
392.8470, 17101.00
394.0450, 17088.00
395.2430, 16517.00
396.4410, 16155.00
397.6390, 16218.00
398.8360, 15878.00
400.0340, 15966.00
401.2310, 15841.00
402.4280, 15980.00
403.6250, 15981.00
404.8210, 16107.00
406.0180, 16217.00
407.2140, 16188.00
408.4100, 16181.00
409.6060, 16227.00
410.8020, 16248.00
411.9980, 16195.00
413.1930, 15991.00
414.3890, 15999.00
415.5840, 15773.00
416.7790, 15717.00
417.9740, 15463.00
419.1680, 15385.00
420.3630, 15309.00
421.5570, 15149.00
422.7510, 15091.86
423.9450, 14966.00
425.1390, 14905.00
426.3330, 14782.00
427.5270, 14650.00
428.7200, 14744.00
429.9130, 14749.00
431.1060, 14574.00
432.2990, 14657.00
433.4920, 14776.00
434.6840, 14655.00
435.8770, 14591.00
437.0690, 14773.00
438.2610, 14635.00
439.4530, 14666.00
440.6450, 14635.00
441.8360, 14672.00
443.0280, 14642.00
444.2190, 14745.00
445.4100, 14740.00
446.6010, 14686.00
447.7920, 14784.00
448.9820, 14834.00
450.1730, 14845.00
451.3630, 14846.00
452.5530, 14958.00
453.7430, 14989.60
454.9330, 14924.00
456.1230, 15073.00
457.3120, 15114.00
458.5010, 15018.00
459.6910, 15085.00
460.8800, 15258.00
462.0680, 15372.00
463.2570, 15321.00
464.4460, 15523.00
465.6340, 15686.00
466.8220, 15623.00
468.0100, 15726.00
469.1980, 15842.00
470.3860, 15632.00
471.5730, 15773.00
472.7600, 15572.00
473.9480, 15500.00
475.1350, 15484.00
476.3210, 15500.00
477.5080, 15498.00
478.6950, 15561.00
479.8810, 15570.00
481.0670, 15435.00
482.2530, 15424.00
483.4390, 15311.00
484.6250, 15563.00
485.8100, 15378.00
486.9960, 15390.00
488.1810, 15521.00
489.3660, 15400.00
490.5510, 15548.00
491.7360, 15462.00
492.9200, 15598.00
494.1050, 15607.00
495.2890, 15526.00
496.4730, 15707.00
497.6570, 15640.00
498.8400, 15813.00
500.0240, 15945.00
501.2070, 15968.00
502.3910, 16066.00
503.5740, 16271.00
504.7570, 16311.00
505.9400, 16355.71
507.1220, 16436.00
508.3050, 16326.00
509.4870, 16329.00
510.6690, 16255.00
511.8510, 16419.00
513.0330, 16478.00
514.2140, 16312.00
515.3960, 16490.00
516.5770, 16543.00
517.7580, 16504.00
518.9390, 16692.00
520.1200, 16697.00
521.3010, 16713.00
522.4810, 16839.00
523.6610, 16860.00
524.8420, 16889.00
526.0220, 17060.00
527.2010, 17178.00
528.3810, 17166.25
529.5610, 17163.00
530.7400, 17191.00
531.9190, 17148.00
533.0980, 17241.00
534.2770, 17151.00
535.4560, 17012.00
536.6340, 17087.00
537.8120, 16930.00
538.9910, 16819.00
540.1690, 16847.00
541.3460, 16845.00
542.5240, 16591.00
543.7020, 16557.00
544.8790, 16913.00
546.0560, 16667.00
547.2330, 16702.00
548.4100, 16665.00
549.5870, 16712.00
550.7630, 16719.00
551.9400, 16749.00
553.1160, 16764.00
554.2920, 16852.00
555.4680, 16933.00
556.6440, 17154.00
557.8190, 17021.00
558.9950, 17174.00
560.1700, 17207.00
561.3450, 17070.00
562.5200, 17184.00
563.6950, 17251.00
564.8690, 17362.00
566.0440, 17473.00
567.2180, 17666.00
568.3920, 17681.00
569.5660, 17631.00
570.7400, 17553.00
571.9130, 17765.00
573.0870, 17826.00
574.2600, 17895.00
575.4330, 17936.00
576.6060, 18175.00
577.7790, 18031.00
578.9520, 18457.00
580.1240, 18418.00
581.2960, 18410.00
582.4690, 18616.00
583.6410, 18758.00
584.8120, 18969.00
585.9840, 19089.00
587.1560, 19124.00
588.3270, 19268.00
589.4980, 19497.00
590.6690, 19906.00
591.8400, 20108.00
593.0110, 20223.00
594.1810, 20633.00
595.3510, 20825.00
596.5220, 21599.00
597.6920, 22060.00
598.8610, 22925.00
600.0310, 23855.00
601.2010, 24835.00
602.3700, 26206.00
603.5390, 27589.00
604.7080, 29906.00
605.8770, 32117.00
607.0460, 35131.00
608.2140, 38521.00
609.3830, 42071.00
610.5510, 45974.00
611.7190, 50239.00
612.8870, 54290.00
614.0550, 57481.00
615.2220, 59106.00
616.3900, 58667.00
617.5570, 56199.00
618.7240, 52121.00
619.8910, 47170.00
621.0580, 41802.00
622.2240, 37281.00
623.3910, 33335.00
624.5570, 30190.00
625.7230, 27759.00
626.8890, 25463.00
628.0550, 24068.00
629.2200, 23175.00
630.3860, 22154.00
631.5510, 21445.00
632.7160, 20685.00
633.8810, 20586.00
635.0460, 20009.00
636.2100, 19707.00
637.3750, 19357.00
638.5390, 19089.00
639.7030, 19120.00
640.8670, 19032.00
642.0310, 18853.00
643.1950, 18832.00
644.3580, 18651.00
645.5210, 18609.00
646.6850, 18540.71
647.8480, 18232.00
649.0100, 18367.00
650.1730, 18470.00
651.3350, 18264.00
652.4980, 18329.00
653.6600, 18156.00
654.8220, 18097.00
655.9840, 18083.00
657.1450, 18075.00
658.3070, 18105.00
659.4680, 18056.00
660.6300, 18143.00
661.7910, 18156.00
662.9510, 18008.00
664.1120, 18044.00
665.2730, 18026.01
666.4330, 18007.72
667.5930, 18061.00
668.7530, 18024.00
669.9130, 18057.00
671.0730, 18032.00
672.2320, 18069.00
673.3920, 17996.00
674.5510, 18134.00
675.7100, 18227.00
676.8690, 18170.00
678.0280, 18332.00
679.1860, 18072.00
680.3450, 18336.00
681.5030, 18319.00
682.6610, 18223.00
683.8190, 18308.00
684.9770, 18483.00
686.1340, 18256.00
687.2920, 18439.00
688.4490, 18188.00
689.6060, 18175.00
690.7630, 18330.00
691.9200, 18325.00
693.0760, 18267.00
694.2330, 18410.00
695.3890, 18105.00
696.5450, 18437.00
697.7010, 18276.00
698.8570, 18412.00
700.0130, 18361.00
701.1680, 18322.00
702.3230, 18363.00
703.4780, 18289.00
704.6330, 18443.00
705.7880, 18493.00
706.9430, 18435.00
708.0970, 18474.00
709.2520, 18799.00
710.4060, 18631.00
711.5600, 18845.00
712.7140, 18851.00
713.8670, 18919.00
715.0210, 18966.00
716.1740, 19311.00
717.3270, 19242.00
718.4800, 19533.00
719.6330, 19580.00
720.7860, 19918.00
721.9380, 20437.00
723.0910, 20432.00
724.2430, 21059.00
725.3950, 21786.00
726.5470, 22437.00
727.6980, 22767.00
728.8500, 23375.00
730.0010, 23552.00
731.1530, 23744.00
732.3040, 23685.00
733.4550, 23216.00
734.6050, 22618.00
735.7560, 21958.00
736.9060, 21435.00
738.0560, 20757.00
739.2060, 20486.00
740.3560, 19971.00
741.5060, 19589.00
742.6560, 19406.00
743.8050, 19073.00
744.9540, 19043.00
746.1030, 19111.00
747.2520, 18981.00
748.4010, 18788.00
749.5500, 18856.00
750.6980, 18763.00
751.8460, 18862.00
752.9950, 18739.00
754.1420, 18850.00
755.2900, 18983.00
756.4380, 18846.00
757.5850, 18779.00
758.7330, 18807.00
759.8800, 18813.00
761.0270, 18776.00
762.1730, 18885.00
763.3200, 18811.00
764.4670, 18925.00
765.6130, 18945.00
766.7590, 18723.00
767.9050, 18837.00
769.0510, 18954.00
770.1960, 18793.00
771.3420, 18752.00
772.4870, 18879.00
773.6320, 18766.00
774.7770, 18802.00
775.9220, 18837.00
777.0670, 18882.00
778.2110, 18725.00
779.3560, 18836.00
780.5000, 18780.00
781.6440, 18886.00
782.7880, 18855.00
783.9320, 18808.00
785.0750, 19014.00
786.2180, 18957.00
787.3620, 18836.00
788.5050, 19019.00
789.6480, 18975.00
790.7900, 19025.00
791.9330, 19099.00
793.0750, 19123.00
794.2170, 19034.00
795.3590, 19106.00
796.5010, 19080.00
797.6430, 19242.00
798.7850, 19262.00
799.9260, 19275.35
801.0670, 19278.00
802.2080, 19294.00
803.3490, 19307.00
804.4900, 19337.00
805.6310, 19443.00
806.7710, 19537.00
807.9110, 19481.00
809.0510, 19656.00
810.1910, 19500.00
811.3310, 19548.00
812.4710, 19365.00
813.6100, 19451.00
814.7490, 19389.00
815.8880, 19507.00
817.0270, 19393.00
818.1660, 19313.00
819.3050, 19527.00
820.4430, 19303.00
821.5820, 19746.00
822.7200, 19511.00
823.8580, 19349.00
824.9950, 19507.00
826.1330, 19542.00
827.2710, 19476.00
828.4080, 19446.00
829.5450, 19506.00
830.6820, 19450.00
831.8190, 19483.00
832.9560, 19540.00
834.0920, 19545.00
835.2280, 19640.00
836.3650, 19615.00
837.5010, 19618.00
838.6360, 19753.00
839.7720, 19672.00
840.9080, 19734.00
842.0430, 19865.00
843.1780, 19752.00
844.3130, 19733.00
845.4480, 19873.00
846.5830, 19770.00
847.7170, 19828.93
848.8520, 20037.00
849.9860, 19887.00
851.1200, 19922.00
852.2540, 20027.00
853.3870, 20110.00
854.5210, 20038.00
855.6540, 20182.00
856.7880, 20183.39
857.9210, 20236.58
859.0540, 20248.00
860.1860, 20348.00
861.3190, 20357.00
862.4510, 20386.00
863.5840, 20483.00
864.7160, 20512.00
865.8480, 20434.00
866.9790, 20557.00
868.1110, 20465.00
869.2420, 20563.00
870.3740, 20516.00
871.5050, 20761.00
872.6360, 20770.00
873.7660, 20634.00
874.8970, 20766.00
876.0280, 20745.00
877.1580, 20832.00
878.2880, 20537.00
879.4180, 20720.00
880.5480, 20806.00
881.6770, 20713.00
882.8070, 20890.00
883.9360, 20782.00
885.0650, 20820.00
886.1940, 20900.00
887.3230, 20742.00
888.4520, 20683.00
889.5800, 20929.00
890.7090, 20752.00
891.8370, 20849.00
892.9650, 20907.00
894.0930, 20856.00
895.2200, 21040.00
896.3480, 21166.00
897.4750, 21122.00
898.6020, 21264.00
899.7290, 21229.00
900.8560, 21216.00
901.9830, 21448.00
903.1090, 21520.00
904.2360, 21589.00
905.3620, 21692.17
906.4880, 21785.00
907.6140, 21793.00
908.7400, 21944.00
909.8650, 21993.00
910.9900, 22187.00
912.1160, 22251.00
913.2410, 22259.00
914.3660, 22408.00
915.4900, 22430.00
916.6150, 22525.00
917.7390, 22678.00
918.8640, 22607.00
919.9880, 22760.00
921.1120, 22875.00
922.2350, 23178.00
923.3590, 23019.00
924.4820, 23401.00
925.6060, 23543.00
926.7290, 23498.00
927.8520, 23749.00
928.9740, 23791.00
930.0970, 23790.00
931.2190, 23607.00
932.3420, 23362.00
933.4640, 23461.00
934.5860, 23255.00
935.7080, 23172.00
936.8290, 23039.00
937.9510, 23094.00
939.0720, 22938.00
940.1930, 22943.00
941.3140, 22827.00
942.4350, 22710.00
943.5560, 22676.00
944.6760, 22688.00
945.7960, 22725.00
946.9170, 22691.00
948.0370, 22754.00
949.1560, 22655.00
950.2760, 22748.00
951.3960, 22769.00
952.5150, 22603.00
953.6340, 22807.00
954.7530, 22878.00
955.8720, 22855.00
956.9910, 23006.00
958.1090, 22777.00
959.2280, 23134.00
960.3460, 22809.00
961.4640, 22915.00
962.5820, 22749.00
963.6990, 22732.00
964.8170, 22783.00
965.9340, 22678.00
967.0510, 22551.00
968.1690, 22675.00
969.2850, 22585.00
970.4020, 22703.00
971.5190, 22677.00
972.6350, 22609.00
973.7510, 22780.00
974.8670, 22672.00
975.9830, 22814.00
977.0990, 22768.00
978.2150, 22750.00
979.3300, 22737.00
980.4450, 22594.00
981.5600, 22753.00
982.6750, 22730.00
983.7900, 22325.00
984.9050, 22738.00
986.0190, 22613.00
987.1340, 22493.00
988.2480, 22680.00
989.3620, 22598.00
990.4750, 22510.00
991.5890, 22523.00
992.7020, 22725.00
993.8160, 22721.00
994.9290, 22873.00
996.0420, 22902.03
997.1550, 22693.00
998.2670, 22876.00
999.3800, 22948.00
1000.492, 22788.00
1001.604, 22970.00
1002.716, 22904.00
1003.828, 22753.00
1004.940, 22835.00
1006.051, 22937.00
1007.163, 23074.00
1008.274, 23172.00
1009.385, 23065.00
1010.496, 23105.00
1011.606, 23179.00
1012.717, 23360.00
1013.827, 23393.00
1014.937, 23309.00
1016.047, 23178.00
1017.157, 23230.00
1018.267, 23170.00
1019.377, 23105.00
1020.486, 23323.00
1021.595, 23319.00
1022.704, 23120.00
1023.813, 23183.00
1024.922, 23093.00
1026.030, 23153.00
1027.139, 23105.00
1028.247, 23405.00
1029.355, 23234.00
1030.463, 23437.00
1031.571, 23371.00
1032.678, 23323.00
1033.786, 23392.00
1034.893, 23296.00
1036.000, 23566.00
1037.107, 23401.00
1038.214, 23481.00
1039.321, 23463.00
1040.427, 23488.00
1041.533, 23696.00
1042.639, 23675.00
1043.745, 23692.00
1044.851, 23587.00
1045.957, 23854.00
1047.062, 23842.00
1048.168, 23908.00
1049.273, 23997.00
1050.378, 24078.00
1051.482, 24287.00
1052.587, 24290.00
1053.692, 24271.00
1054.796, 24485.00
1055.900, 24597.00
1057.004, 24622.00
1058.108, 24606.00
1059.212, 24729.37
1060.315, 24986.00
1061.418, 24930.00
1062.522, 25041.00
1063.625, 25180.00
1064.728, 24765.00
1065.830, 25082.00
1066.933, 24898.00
1068.035, 25088.00
1069.137, 25009.00
1070.239, 25045.00
1071.341, 24864.00
1072.443, 24742.00
1073.545, 24751.00
1074.646, 24854.00
1075.747, 24669.00
1076.848, 24714.00
1077.949, 24694.00
1079.050, 24589.00
1080.150, 24586.00
1081.251, 24637.00
1082.351, 24577.00
1083.451, 24550.00
1084.551, 24669.00
1085.651, 24800.00
1086.750, 24745.00
1087.850, 24864.00
1088.949, 24711.00
1090.048, 24737.00
1091.147, 24604.00
1092.246, 24679.00
1093.345, 24555.00
1094.443, 24594.00
1095.541, 24826.00
1096.639, 24633.00
1097.737, 24610.00
1098.835, 24902.00
1099.933, 24894.00
1101.030, 24845.00
1102.128, 24663.00
1103.225, 24781.00
1104.322, 24716.00
1105.419, 24829.00
1106.515, 24859.00
1107.612, 24824.00
1108.708, 24562.00
1109.804, 24670.00
1110.900, 24737.00
1111.996, 24935.00
1113.092, 24897.88
1114.187, 24826.00
1115.283, 24888.00
1116.378, 24894.00
1117.473, 24936.00
1118.568, 25080.00
1119.662, 24951.00
1120.757, 25248.00
1121.851, 25099.00
1122.946, 25304.00
1124.040, 25352.00
1125.134, 25014.00
1126.227, 25085.00
1127.321, 25139.00
1128.414, 25103.00
1129.508, 24871.00
1130.601, 24935.00
1131.693, 24843.00
1132.786, 25136.00
1133.879, 25062.00
1134.971, 24971.00
1136.064, 25145.00
1137.156, 25037.00
1138.248, 25099.00
1139.339, 25400.00
1140.431, 25095.00
1141.522, 25505.00
1142.614, 25271.00
1143.705, 25211.00
1144.796, 25388.00
1145.887, 25426.00
1146.977, 25168.00
1148.068, 25360.00
1149.158, 25375.00
1150.248, 25316.00
1151.338, 25326.00
1152.428, 25408.00
1153.518, 25344.00
1154.607, 25437.00
1155.696, 25523.00
1156.785, 25315.00
1157.874, 25390.00
1158.963, 25423.00
1160.052, 25678.00
1161.141, 25588.00
1162.229, 25469.00
1163.317, 25673.00
1164.405, 25585.00
1165.493, 25810.00
1166.581, 25599.00
1167.668, 25735.00
1168.756, 25709.00
1169.843, 25853.00
1170.930, 25740.00
1172.017, 25792.00
1173.103, 26048.00
1174.190, 25859.00
1175.276, 25970.00
1176.363, 26152.00
1177.449, 25942.00
1178.535, 26044.00
1179.620, 25981.00
1180.706, 26018.00
1181.791, 26017.00
1182.877, 26043.55
1183.962, 26101.00
1185.047, 26200.00
1186.131, 26166.00
1187.216, 26382.00
1188.300, 26330.00
1189.385, 26375.00
1190.469, 26418.00
1191.553, 26403.00
1192.637, 26226.00
1193.720, 26490.00
1194.804, 26528.00
1195.887, 26516.00
1196.970, 26795.00
1198.053, 26610.00
1199.136, 26657.00
1200.219, 26739.00
1201.301, 26639.00
1202.383, 26894.00
1203.465, 26562.00
1204.547, 26802.00
1205.629, 26788.00
1206.711, 26852.00
1207.792, 26969.00
1208.874, 27004.00
1209.955, 27090.25
1211.036, 27123.87
1212.117, 27188.00
1213.198, 27131.00
1214.278, 27080.00
1215.359, 26985.00
1216.439, 27065.00
1217.519, 27115.00
1218.599, 27199.00
1219.678, 27080.00
1220.758, 27330.00
1221.837, 27199.00
1222.917, 27104.00
1223.996, 27175.00
1225.075, 27065.00
1226.153, 27312.00
1227.232, 27370.00
1228.310, 27273.00
1229.389, 27354.00
1230.467, 27423.00
1231.545, 27287.00
1232.622, 27334.00
1233.700, 27394.72
1234.777, 27253.00
1235.855, 27484.00
1236.932, 27549.00
1238.009, 27419.00
1239.086, 27542.00
1240.162, 27526.00
1241.239, 27559.00
1242.315, 27719.00
1243.391, 27757.00
1244.467, 27730.00
1245.543, 27846.08
1246.619, 27744.00
1247.694, 27932.00
1248.769, 27832.00
1249.844, 27783.00
1250.919, 27998.00
1251.994, 28210.00
1253.069, 27868.00
1254.144, 28075.00
1255.218, 28089.00
1256.292, 27920.00
1257.366, 27977.00
1258.440, 27845.00
1259.514, 28078.00
1260.587, 27967.00
1261.661, 27988.00
1262.734, 28041.00
1263.807, 28142.00
1264.880, 28107.62
1265.952, 28040.00
1267.025, 28018.00
1268.097, 28071.00
1269.170, 27913.00
1270.242, 27857.00
1271.314, 28022.00
1272.385, 28036.00
