##NAMES=Inyoite
##RRUFFID=R040161
##IDEAL CHEMISTRY=CaB_3_O_3_(OH)_5_&#183;4H_2_O
##LOCALITY=Kramer deposit, Boron, Kern County, California, USA
##OWNER=RRUFF
##SOURCE=University of Arizona Mineral Museum
##DESCRIPTION=Group of colorless indistinct rounded crystals
##STATUS=The identification of this mineral has been confirmed by X-ray diffraction and chemical analysis
##URL=rruff.info/R040161
##MEASURED CHEMISTRY=Ca_1.00_B_3.00_O_3_(OH)_5_Â·4H_2_O
##PIN_ID=L00078
##ORIENTATION=Laser parallel to -c* (0 0 -1). Fiducial mark perpendicular to laser is parallel to a [1 0 0]
93.15500, 5875.000
94.39300, 5881.000
95.63100, 6082.000
96.86900, 6201.000
98.10600, 6532.000
99.34400, 6960.000
100.5810, 7378.000
101.8190, 7747.000
103.0560, 8054.000
104.2930, 8355.000
105.5290, 8187.000
106.7660, 8202.000
108.0020, 8014.000
109.2390, 7990.000
110.4750, 7739.000
111.7110, 7702.000
112.9460, 7687.000
114.1820, 7803.000
115.4170, 7835.000
116.6530, 7890.000
117.8880, 7979.000
119.1230, 8032.000
120.3580, 8259.000
121.5920, 8582.000
122.8270, 8769.000
124.0610, 8928.000
125.2950, 9160.000
126.5290, 9650.000
127.7630, 10112.00
128.9970, 10741.00
130.2300, 11412.00
131.4640, 12227.00
132.6970, 12675.00
133.9300, 12588.00
135.1630, 12209.00
136.3950, 11503.00
137.6280, 11032.00
138.8600, 10771.00
140.0920, 10759.00
141.3240, 10847.73
142.5560, 11192.78
143.7880, 11653.00
145.0190, 12375.00
146.2510, 13274.00
147.4820, 14243.00
148.7130, 15252.00
149.9440, 15929.00
151.1750, 16148.00
152.4050, 15631.00
153.6360, 14120.00
154.8660, 12663.00
156.0960, 11675.00
157.3260, 11170.00
158.5560, 10705.00
159.7850, 10497.00
161.0150, 10496.00
162.2440, 10572.00
163.4730, 10709.00
164.7020, 10857.00
165.9310, 11076.00
167.1590, 11423.00
168.3880, 11708.00
169.6160, 11937.00
170.8440, 12574.00
172.0720, 13034.00
173.3000, 13333.00
174.5280, 13719.00
175.7550, 13876.00
176.9820, 13902.00
178.2100, 14059.00
179.4370, 14329.00
180.6630, 14615.00
181.8900, 15185.00
183.1170, 15877.00
184.3430, 16589.00
185.5690, 17668.00
186.7950, 18759.00
188.0210, 20112.00
189.2470, 21562.00
190.4720, 22843.00
191.6970, 24016.00
192.9230, 24580.00
194.1480, 24788.00
195.3730, 23980.00
196.5970, 22493.00
197.8220, 20721.00
199.0460, 18642.00
200.2700, 17268.00
201.4940, 15682.00
202.7180, 14744.00
203.9420, 13792.00
205.1660, 12894.00
206.3890, 12404.00
207.6120, 12175.00
208.8350, 11860.00
210.0580, 11474.00
211.2810, 11048.00
212.5040, 10816.00
213.7260, 10701.00
214.9480, 10433.00
216.1700, 10242.00
217.3920, 10068.00
218.6140, 10081.00
219.8360, 9961.000
221.0570, 10018.00
222.2790, 9916.000
223.5000, 9917.000
224.7210, 9706.000
225.9410, 9891.000
227.1620, 9841.000
228.3820, 9730.000
229.6030, 9823.000
230.8230, 9803.000
232.0430, 9857.000
233.2630, 9772.000
234.4820, 9895.000
235.7020, 9892.000
236.9210, 9864.000
238.1400, 9956.000
239.3590, 9862.000
240.5780, 9860.000
241.7970, 9879.000
243.0150, 9890.000
244.2340, 9866.000
245.4520, 9855.000
246.6700, 9811.000
247.8880, 9985.000
249.1060, 9889.000
250.3230, 9886.000
251.5400, 10104.00
252.7580, 10023.00
253.9750, 10117.00
255.1920, 10157.00
256.4080, 10058.00
257.6250, 10305.00
258.8410, 10290.00
260.0580, 10523.00
261.2740, 10636.00
262.4900, 10522.00
263.7050, 10772.00
264.9210, 10777.00
266.1360, 10781.00
267.3520, 11024.00
268.5670, 11099.00
269.7820, 11251.00
270.9960, 11339.00
272.2110, 11316.00
273.4250, 11177.00
274.6400, 11328.00
275.8540, 11245.00
277.0680, 11290.00
278.2810, 11254.00
279.4950, 11105.00
280.7090, 11098.00
281.9220, 10992.00
283.1350, 10875.00
284.3480, 10984.00
285.5610, 10652.00
286.7730, 10651.00
287.9860, 10667.00
289.1980, 10697.00
290.4100, 10566.00
291.6220, 10603.00
292.8340, 10508.00
294.0460, 10574.00
295.2570, 10528.00
296.4690, 10378.00
297.6800, 10457.00
298.8910, 10403.00
300.1020, 10465.00
301.3120, 10465.00
302.5230, 10376.00
303.7330, 10519.00
304.9440, 10502.00
306.1540, 10428.00
307.3630, 10467.00
308.5730, 10540.00
309.7830, 10595.00
310.9920, 10647.00
312.2010, 10713.00
313.4100, 10636.00
314.6190, 10719.00
315.8280, 10640.00
317.0370, 10754.00
318.2450, 10833.00
319.4530, 10831.00
320.6610, 10859.00
321.8690, 10913.00
323.0770, 10951.00
324.2850, 11124.00
325.4920, 11044.00
326.6990, 11112.00
327.9060, 11276.00
329.1130, 11215.00
330.3200, 11240.00
331.5270, 11342.00
332.7330, 11185.00
333.9390, 11344.00
335.1450, 11406.00
336.3510, 11395.00
337.5570, 11407.00
338.7630, 11430.00
339.9680, 11664.00
341.1740, 11447.00
342.3790, 11593.00
343.5840, 11490.00
344.7890, 11674.00
345.9930, 11756.00
347.1980, 11698.00
348.4020, 11784.00
349.6060, 11709.00
350.8100, 11966.00
352.0140, 12108.00
353.2180, 11993.00
354.4210, 11940.00
355.6250, 12151.00
356.8280, 12239.00
358.0310, 12426.00
359.2340, 12566.00
360.4360, 12731.03
361.6390, 12708.00
362.8410, 13125.00
364.0430, 13435.00
365.2450, 13725.00
366.4470, 14277.00
367.6490, 14504.00
368.8510, 14854.00
370.0520, 15428.00
371.2530, 15749.00
372.4540, 16020.00
373.6550, 16394.00
374.8560, 16686.00
376.0560, 16535.00
377.2570, 16473.00
378.4570, 16557.00
379.6570, 16381.00
380.8570, 16410.00
382.0570, 16455.00
383.2560, 16663.00
384.4560, 16895.00
385.6550, 17000.00
386.8540, 17313.00
388.0530, 17619.00
389.2520, 17757.00
390.4510, 17334.00
391.6490, 17440.00
392.8470, 16884.00
394.0450, 16667.00
395.2430, 16315.00
396.4410, 15938.00
397.6390, 15669.00
398.8360, 15585.00
400.0340, 15398.00
401.2310, 15607.00
402.4280, 15525.00
403.6250, 15566.00
404.8210, 15847.00
406.0180, 16008.00
407.2140, 16111.00
408.4100, 16021.00
409.6060, 15822.00
410.8020, 15704.00
411.9980, 15461.00
413.1930, 15235.00
414.3890, 14789.00
415.5840, 14550.00
416.7790, 14348.00
417.9740, 14078.00
419.1680, 13915.00
420.3630, 13784.00
421.5570, 13767.00
422.7510, 13541.00
423.9450, 13392.00
425.1390, 13431.00
426.3330, 13321.00
427.5270, 13346.00
428.7200, 13209.00
429.9130, 13223.00
431.1060, 13250.00
432.2990, 13196.00
433.4920, 13228.00
434.6840, 13258.00
435.8770, 13212.00
437.0690, 13174.00
438.2610, 13085.00
439.4530, 13065.00
440.6450, 13091.00
441.8360, 13221.00
443.0280, 12992.00
444.2190, 13284.00
445.4100, 13112.00
446.6010, 13078.00
447.7920, 13114.00
448.9820, 13066.00
450.1730, 13193.00
451.3630, 13218.00
452.5530, 13235.00
453.7430, 13347.00
454.9330, 13327.00
456.1230, 13183.00
457.3120, 13345.00
458.5010, 13274.00
459.6910, 13523.00
460.8800, 13189.00
462.0680, 13416.00
463.2570, 13409.00
464.4460, 13244.00
465.6340, 13442.00
466.8220, 13322.00
468.0100, 13421.00
469.1980, 13280.00
470.3860, 13437.00
471.5730, 13492.00
472.7600, 13624.00
473.9480, 13652.00
475.1350, 13684.81
476.3210, 13608.00
477.5080, 13685.00
478.6950, 13626.00
479.8810, 13589.00
481.0670, 13624.00
482.2530, 13796.00
483.4390, 13761.00
484.6250, 13787.00
485.8100, 13723.00
486.9960, 13872.00
488.1810, 13857.00
489.3660, 13804.00
490.5510, 13826.00
491.7360, 13809.00
492.9200, 13874.00
494.1050, 13849.00
495.2890, 13996.00
496.4730, 14101.00
497.6570, 14149.00
498.8400, 14127.00
500.0240, 14164.00
501.2070, 14103.00
502.3910, 14101.35
503.5740, 14077.00
504.7570, 14031.00
505.9400, 14040.00
507.1220, 13956.00
508.3050, 13962.00
509.4870, 13912.00
510.6690, 14036.00
511.8510, 13988.00
513.0330, 14020.00
514.2140, 13987.00
515.3960, 14204.00
516.5770, 14075.00
517.7580, 14227.00
518.9390, 14226.00
520.1200, 14379.00
521.3010, 14453.00
522.4810, 14492.00
523.6610, 14512.00
524.8420, 14476.00
526.0220, 14509.00
527.2010, 14544.00
528.3810, 14644.00
529.5610, 14782.00
530.7400, 14804.00
531.9190, 14859.00
533.0980, 14793.00
534.2770, 14846.00
535.4560, 14841.00
536.6340, 14888.00
537.8120, 14875.83
538.9910, 14792.00
540.1690, 14837.00
541.3460, 14826.00
542.5240, 14780.00
543.7020, 14860.00
544.8790, 14948.00
546.0560, 14950.00
547.2330, 14854.00
548.4100, 14874.00
549.5870, 14871.00
550.7630, 14887.00
551.9400, 15133.00
553.1160, 14826.00
554.2920, 14955.00
555.4680, 14941.00
556.6440, 15210.00
557.8190, 14966.00
558.9950, 15091.00
560.1700, 15181.00
561.3450, 15135.00
562.5200, 15303.00
563.6950, 15359.00
564.8690, 15395.00
566.0440, 15489.00
567.2180, 15618.00
568.3920, 15757.00
569.5660, 15695.00
570.7400, 15982.00
571.9130, 15950.00
573.0870, 16092.00
574.2600, 16148.00
575.4330, 16318.00
576.6060, 16384.00
577.7790, 16612.00
578.9520, 16818.00
580.1240, 16959.00
581.2960, 17098.26
582.4690, 17040.00
583.6410, 17300.00
584.8120, 17352.00
585.9840, 17455.00
587.1560, 17728.00
588.3270, 17773.00
589.4980, 18079.00
590.6690, 18156.00
591.8400, 18460.00
593.0110, 18809.00
594.1810, 19279.00
595.3510, 19794.00
596.5220, 20229.00
597.6920, 20809.00
598.8610, 21696.00
600.0310, 22663.00
601.2010, 23889.00
602.3700, 25141.00
603.5390, 27193.00
604.7080, 29218.00
605.8770, 31633.00
607.0460, 34490.00
608.2140, 38037.00
609.3830, 41533.00
610.5510, 45776.00
611.7190, 49984.00
612.8870, 53365.00
614.0550, 56435.00
615.2220, 57653.00
616.3900, 57146.00
617.5570, 54199.00
618.7240, 49516.00
619.8910, 44418.00
621.0580, 38928.00
622.2240, 33952.00
623.3910, 30208.00
624.5570, 27106.00
625.7230, 24735.00
626.8890, 22832.00
628.0550, 21386.00
629.2200, 20206.00
630.3860, 19519.00
631.5510, 18623.00
632.7160, 18198.00
633.8810, 17686.00
635.0460, 17549.00
636.2100, 16997.00
637.3750, 16658.00
638.5390, 16678.00
639.7030, 16437.00
640.8670, 16284.00
642.0310, 16340.00
643.1950, 16192.00
644.3580, 15918.00
645.5210, 15870.00
646.6850, 15816.00
647.8480, 15893.00
649.0100, 15786.00
650.1730, 15656.00
651.3350, 15638.00
652.4980, 15564.00
653.6600, 15460.00
654.8220, 15469.00
655.9840, 15598.00
657.1450, 15342.00
658.3070, 15341.00
659.4680, 15526.00
660.6300, 15417.00
661.7910, 15424.00
662.9510, 15465.00
664.1120, 15226.00
665.2730, 15407.00
666.4330, 15274.00
667.5930, 15311.00
668.7530, 15255.00
669.9130, 15316.00
671.0730, 15185.00
672.2320, 15263.00
673.3920, 15349.00
674.5510, 15398.00
675.7100, 15510.00
676.8690, 15342.00
678.0280, 15432.00
679.1860, 15335.00
680.3450, 15447.00
681.5030, 15500.00
682.6610, 15466.00
683.8190, 15514.00
684.9770, 15432.00
686.1340, 15589.00
687.2920, 15724.00
688.4490, 15580.00
689.6060, 15770.00
690.7630, 15566.00
691.9200, 15816.00
693.0760, 15638.00
694.2330, 15662.00
695.3890, 15776.00
696.5450, 15686.00
697.7010, 15767.00
698.8570, 15804.00
700.0130, 15910.00
701.1680, 15873.00
702.3230, 15980.00
703.4780, 16057.00
704.6330, 16052.00
705.7880, 16130.00
706.9430, 16139.00
708.0970, 16212.00
709.2520, 16394.00
710.4060, 16510.00
711.5600, 16688.00
712.7140, 16663.00
713.8670, 16756.00
715.0210, 17028.00
716.1740, 17200.00
717.3270, 17451.82
718.4800, 17712.00
719.6330, 18010.00
720.7860, 18392.00
721.9380, 18859.84
723.0910, 19295.00
724.2430, 19988.00
725.3950, 20568.00
726.5470, 21269.00
727.6980, 21884.00
728.8500, 22751.00
730.0010, 23157.00
731.1530, 22973.00
732.3040, 22617.00
733.4550, 21997.00
734.6050, 21252.00
735.7560, 20414.00
736.9060, 19492.00
738.0560, 18678.00
739.2060, 18257.00
740.3560, 17738.00
741.5060, 17282.00
742.6560, 17390.00
743.8050, 17147.00
744.9540, 16917.00
746.1030, 17001.00
747.2520, 16865.00
748.4010, 16696.00
749.5500, 16818.00
750.6980, 16667.00
751.8460, 16629.00
752.9950, 16516.00
754.1420, 16750.00
755.2900, 16554.00
756.4380, 16659.00
757.5850, 16636.00
758.7330, 16530.00
759.8800, 16696.00
761.0270, 16529.00
762.1730, 16511.00
763.3200, 16532.00
764.4670, 16508.00
765.6130, 16656.00
766.7590, 16516.00
767.9050, 16507.00
769.0510, 16660.00
770.1960, 16563.00
771.3420, 16656.00
772.4870, 16581.00
773.6320, 16533.00
774.7770, 16514.00
775.9220, 16613.00
777.0670, 16532.00
778.2110, 16396.00
779.3560, 16493.00
780.5000, 16406.00
781.6440, 16442.00
782.7880, 16444.00
783.9320, 16368.00
785.0750, 16444.73
786.2180, 16547.00
787.3620, 16462.00
788.5050, 16631.00
789.6480, 16490.00
790.7900, 16605.00
791.9330, 16446.00
793.0750, 16533.00
794.2170, 16527.00
795.3590, 16666.00
796.5010, 16541.00
797.6430, 16638.00
798.7850, 16731.00
799.9260, 16546.00
801.0670, 16574.00
802.2080, 16487.00
803.3490, 16776.00
804.4900, 16775.00
805.6310, 16717.00
806.7710, 16853.00
807.9110, 16677.00
809.0510, 16777.00
810.1910, 16672.00
811.3310, 16821.00
812.4710, 16808.00
813.6100, 16890.00
814.7490, 16993.00
815.8880, 16890.00
817.0270, 16927.00
818.1660, 17023.00
819.3050, 16752.00
820.4430, 16915.00
821.5820, 16950.00
822.7200, 16983.00
823.8580, 16950.00
824.9950, 17024.00
826.1330, 16890.00
827.2710, 16968.00
828.4080, 16879.00
829.5450, 16909.00
830.6820, 17090.00
831.8190, 16964.00
832.9560, 16994.00
834.0920, 16991.00
835.2280, 16999.58
836.3650, 17085.00
837.5010, 17074.00
838.6360, 17060.00
839.7720, 17056.00
840.9080, 16991.00
842.0430, 17062.00
843.1780, 17238.00
844.3130, 17207.00
845.4480, 17276.00
846.5830, 17093.00
847.7170, 17243.00
848.8520, 17210.00
849.9860, 17383.00
851.1200, 17406.00
852.2540, 17506.00
853.3870, 17339.00
854.5210, 17581.00
855.6540, 17432.00
856.7880, 17537.00
857.9210, 17683.00
859.0540, 17521.00
860.1860, 17551.00
861.3190, 17647.00
862.4510, 17664.00
863.5840, 17735.00
864.7160, 17663.00
865.8480, 17777.00
866.9790, 17841.00
868.1110, 17949.00
869.2420, 17731.00
870.3740, 17807.00
871.5050, 17867.00
872.6360, 17909.00
873.7660, 17920.00
874.8970, 17938.68
876.0280, 17994.00
877.1580, 17932.00
878.2880, 17921.00
879.4180, 17910.00
880.5480, 17936.00
881.6770, 17886.00
882.8070, 18129.00
883.9360, 18044.00
885.0650, 18081.00
886.1940, 18042.00
887.3230, 17898.00
888.4520, 17840.00
889.5800, 17883.00
890.7090, 17859.00
891.8370, 17923.00
892.9650, 17959.00
894.0930, 17853.00
895.2200, 18076.00
896.3480, 17941.00
897.4750, 18193.00
898.6020, 18219.00
899.7290, 18278.00
900.8560, 18191.00
901.9830, 18124.00
903.1090, 18201.00
904.2360, 18151.00
905.3620, 18050.00
906.4880, 18284.00
907.6140, 18203.00
908.7400, 18196.00
909.8650, 18267.00
910.9900, 18187.00
912.1160, 18221.03
913.2410, 18382.00
914.3660, 18252.00
915.4900, 18275.00
916.6150, 18361.00
917.7390, 18192.00
918.8640, 18481.00
919.9880, 18524.00
921.1120, 18618.00
922.2350, 18528.00
923.3590, 18551.00
924.4820, 18544.00
925.6060, 18560.42
926.7290, 18604.64
927.8520, 18682.00
928.9740, 18694.00
930.0970, 18832.00
931.2190, 18864.00
932.3420, 18765.00
933.4640, 19039.00
934.5860, 19112.00
935.7080, 18884.00
936.8290, 18872.00
937.9510, 18856.00
939.0720, 18836.00
940.1930, 18932.00
941.3140, 18928.00
942.4350, 18875.00
943.5560, 19139.00
944.6760, 18812.00
945.7960, 18901.00
946.9170, 19127.00
948.0370, 19143.00
949.1560, 19060.00
950.2760, 19333.00
951.3960, 19462.00
952.5150, 19233.00
953.6340, 19374.00
954.7530, 19664.00
955.8720, 19366.00
956.9910, 19523.00
958.1090, 19392.00
959.2280, 19490.00
960.3460, 19266.00
961.4640, 19497.00
962.5820, 19410.00
963.6990, 19322.00
964.8170, 19344.00
965.9340, 19293.00
967.0510, 19265.00
968.1690, 19273.08
969.2850, 19234.59
970.4020, 19268.00
971.5190, 19212.00
972.6350, 19195.00
973.7510, 19216.00
974.8670, 19141.00
975.9830, 19263.00
977.0990, 19287.00
978.2150, 19166.00
979.3300, 19256.00
980.4450, 19428.00
981.5600, 19174.00
982.6750, 19280.00
983.7900, 19278.00
984.9050, 19217.00
986.0190, 19350.00
987.1340, 19200.00
988.2480, 19450.00
989.3620, 19417.00
990.4750, 19370.00
991.5890, 19376.00
992.7020, 19505.00
993.8160, 19461.00
994.9290, 19411.00
996.0420, 19562.00
997.1550, 19338.00
998.2670, 19595.00
999.3800, 19545.00
1000.492, 19707.00
1001.604, 19558.00
1002.716, 19500.00
1003.828, 19759.00
1004.940, 19793.00
1006.051, 19864.00
1007.163, 19798.00
1008.274, 19946.00
1009.385, 19829.00
1010.496, 20039.00
1011.606, 19978.00
1012.717, 20112.00
1013.827, 20028.00
1014.937, 20012.00
1016.047, 20032.00
1017.157, 19948.00
1018.267, 20146.00
1019.377, 20094.00
1020.486, 19875.00
1021.595, 19942.00
1022.704, 19777.00
1023.813, 20022.00
1024.922, 19876.00
1026.030, 19877.00
1027.139, 19963.00
1028.247, 20087.00
1029.355, 20158.00
1030.463, 20091.00
1031.571, 19945.00
1032.678, 20036.00
1033.786, 20002.00
1034.893, 20120.00
1036.000, 20229.00
1037.107, 20221.00
1038.214, 20290.86
1039.321, 20206.00
1040.427, 20378.00
1041.533, 20320.00
1042.639, 20464.00
1043.745, 20236.00
1044.851, 20229.00
1045.957, 20625.00
1047.062, 20431.00
1048.168, 20467.00
1049.273, 20429.00
1050.378, 20636.00
1051.482, 20661.00
1052.587, 20721.00
1053.692, 20691.00
1054.796, 20798.00
1055.900, 20785.00
1057.004, 21017.00
1058.108, 20966.00
1059.212, 20947.00
1060.315, 21162.00
1061.418, 21166.00
1062.522, 21171.00
1063.625, 21092.00
1064.728, 21380.00
1065.830, 21297.00
1066.933, 21267.00
1068.035, 21286.00
1069.137, 21008.00
1070.239, 21223.00
1071.341, 21061.00
1072.443, 21129.00
1073.545, 21166.00
1074.646, 21209.00
1075.747, 20913.00
1076.848, 21291.00
1077.949, 20990.00
1079.050, 21135.00
1080.150, 20934.00
1081.251, 21153.00
1082.351, 21060.00
1083.451, 21009.00
1084.551, 20889.00
1085.651, 21051.00
1086.750, 20997.00
1087.850, 21069.00
1088.949, 20996.00
1090.048, 21033.00
1091.147, 20986.00
1092.246, 21282.00
1093.345, 21002.00
1094.443, 21249.00
1095.541, 21199.00
1096.639, 21168.00
1097.737, 21224.00
1098.835, 21065.00
1099.933, 21280.00
1101.030, 21191.00
1102.128, 21322.00
1103.225, 21235.00
1104.322, 21210.00
1105.419, 21261.00
1106.515, 21330.00
1107.612, 21289.00
1108.708, 21304.00
1109.804, 21352.46
1110.900, 21376.00
1111.996, 21425.00
1113.092, 21566.00
1114.187, 21578.00
1115.283, 21299.00
1116.378, 21352.00
1117.473, 21486.00
1118.568, 21619.00
1119.662, 21673.00
1120.757, 21743.80
1121.851, 21775.00
1122.946, 21730.00
1124.040, 21780.00
1125.134, 21602.00
1126.227, 21614.00
1127.321, 21590.00
1128.414, 21509.00
1129.508, 21608.00
1130.601, 21645.00
1131.693, 21677.00
1132.786, 21615.00
1133.879, 21635.63
1134.971, 21408.00
1136.064, 21617.00
1137.156, 21533.00
1138.248, 21552.00
1139.339, 21722.00
1140.431, 21552.00
1141.522, 21690.00
1142.614, 21620.00
1143.705, 21813.00
1144.796, 21645.00
1145.887, 21683.00
1146.977, 21789.00
1148.068, 21734.00
1149.158, 21829.69
1150.248, 21759.00
1151.338, 21852.00
1152.428, 21794.00
1153.518, 21803.46
1154.607, 21916.00
1155.696, 21813.00
1156.785, 21792.00
1157.874, 21826.00
1158.963, 21854.00
1160.052, 21991.00
1161.141, 21957.00
1162.229, 21812.00
1163.317, 22000.00
1164.405, 22306.00
1165.493, 22086.00
1166.581, 21884.00
1167.668, 22184.00
1168.756, 22104.00
1169.843, 22040.00
1170.930, 22181.00
1172.017, 22169.00
1173.103, 22388.00
1174.190, 22216.00
1175.276, 22222.00
1176.363, 22248.00
1177.449, 22395.00
1178.535, 22382.00
1179.620, 22555.00
1180.706, 22425.00
1181.791, 22326.00
1182.877, 22396.00
1183.962, 22430.00
1185.047, 22543.00
1186.131, 22541.00
1187.216, 22416.00
1188.300, 22555.00
1189.385, 22498.75
1190.469, 22545.00
1191.553, 22508.00
1192.637, 22609.00
1193.720, 22602.00
1194.804, 22638.98
1195.887, 22696.00
1196.970, 22691.00
1198.053, 22799.00
1199.136, 22793.00
1200.219, 22714.00
1201.301, 23057.00
1202.383, 22937.00
1203.465, 22814.00
1204.547, 23059.00
1205.629, 22940.00
1206.711, 23069.00
1207.792, 23095.00
1208.874, 22970.00
1209.955, 23041.00
1211.036, 23202.00
1212.117, 23483.00
1213.198, 23128.00
1214.278, 23470.00
1215.359, 23220.00
1216.439, 23232.00
1217.519, 23275.00
1218.599, 23529.00
1219.678, 23475.00
1220.758, 23477.00
1221.837, 23463.00
1222.917, 23538.00
1223.996, 23489.00
1225.075, 23567.00
1226.153, 23484.00
1227.232, 23429.00
1228.310, 23359.00
1229.389, 23688.00
1230.467, 23491.00
1231.545, 23671.00
1232.622, 23400.00
1233.700, 23595.00
1234.777, 23512.00
1235.855, 23471.00
1236.932, 23640.00
1238.009, 23670.00
1239.086, 23556.00
1240.162, 23592.00
1241.239, 23382.00
1242.315, 23426.00
1243.391, 23633.00
1244.467, 23756.00
1245.543, 23629.00
1246.619, 23840.00
1247.694, 23907.00
1248.769, 23757.00
1249.844, 23872.00
1250.919, 23987.00
1251.994, 23739.00
1253.069, 23923.00
1254.144, 24024.00
1255.218, 23774.00
1256.292, 23885.00
1257.366, 24122.00
1258.440, 23932.00
1259.514, 23708.00
1260.587, 23955.00
1261.661, 23777.00
1262.734, 23959.00
1263.807, 23922.00
1264.880, 24069.00
1265.952, 23960.00
1267.025, 23886.00
1268.097, 23823.00
1269.170, 23756.00
1270.242, 23869.00
1271.314, 23661.00
1272.385, 23819.00
