##NAMES=Inyoite
##RRUFFID=R040161
##IDEAL CHEMISTRY=CaB_3_O_3_(OH)_5_&#183;4H_2_O
##LOCALITY=Kramer deposit, Boron, Kern County, California, USA
##OWNER=RRUFF
##SOURCE=University of Arizona Mineral Museum
##DESCRIPTION=Group of colorless indistinct rounded crystals
##STATUS=The identification of this mineral has been confirmed by X-ray diffraction and chemical analysis
##URL=rruff.info/R040161
##MEASURED CHEMISTRY=Ca_1.00_B_3.00_O_3_(OH)_5_Â·4H_2_O
##PIN_ID=L00078
##ORIENTATION=Laser parallel to -c* (0 0 -1). Fiducial mark perpendicular to laser is parallel to a [1 0 0]
105.5290, 8661.000
106.7660, 8989.000
108.0020, 9192.000
109.2390, 9318.000
110.4750, 9100.000
111.7110, 9191.000
112.9460, 9450.000
114.1820, 9501.000
115.4170, 9767.000
116.6530, 9870.000
117.8880, 10221.00
119.1230, 10619.00
120.3580, 10934.00
121.5920, 11411.00
122.8270, 12071.00
124.0610, 12522.00
125.2950, 12801.00
126.5290, 12850.00
127.7630, 12698.00
128.9970, 12000.00
130.2300, 11387.00
131.4640, 10894.00
132.6970, 10831.00
133.9300, 10734.00
135.1630, 10661.00
136.3950, 10772.00
137.6280, 11156.00
138.8600, 11224.00
140.0920, 11762.00
141.3240, 12127.00
142.5560, 12660.00
143.7880, 13053.00
145.0190, 13886.00
146.2510, 14793.00
147.4820, 15586.00
148.7130, 16622.00
149.9440, 17055.00
151.1750, 17062.00
152.4050, 16646.00
153.6360, 15775.00
154.8660, 14951.00
156.0960, 14684.00
157.3260, 14541.00
158.5560, 14614.00
159.7850, 14559.00
161.0150, 14755.00
162.2440, 15001.00
163.4730, 15448.00
164.7020, 16233.00
165.9310, 17050.00
167.1590, 17998.00
168.3880, 19378.00
169.6160, 21004.00
170.8440, 22799.00
172.0720, 24444.00
173.3000, 25787.00
174.5280, 26810.00
175.7550, 27852.00
176.9820, 28451.00
178.2100, 28732.00
179.4370, 28705.00
180.6630, 27954.41
181.8900, 27205.00
183.1170, 25298.00
184.3430, 23435.00
185.5690, 21070.00
186.7950, 19227.00
188.0210, 17571.00
189.2470, 16143.00
190.4720, 15276.00
191.6970, 14463.00
192.9230, 14112.00
194.1480, 13588.00
195.3730, 13374.00
196.5970, 13144.00
197.8220, 12896.00
199.0460, 12631.00
200.2700, 12673.00
201.4940, 12519.00
202.7180, 12481.00
203.9420, 12566.00
205.1660, 12544.00
206.3890, 12565.00
207.6120, 12760.00
208.8350, 12614.00
210.0580, 12753.00
211.2810, 12498.00
212.5040, 12623.00
213.7260, 12300.00
214.9480, 12168.00
216.1700, 12136.00
217.3920, 12034.00
218.6140, 11923.00
219.8360, 12056.00
221.0570, 11868.00
222.2790, 11935.00
223.5000, 11981.00
224.7210, 12031.00
225.9410, 11986.00
227.1620, 12044.00
228.3820, 12006.00
229.6030, 12180.00
230.8230, 12163.00
232.0430, 12327.00
233.2630, 12213.00
234.4820, 12247.00
235.7020, 12489.00
236.9210, 12431.00
238.1400, 12505.00
239.3590, 12472.00
240.5780, 12248.00
241.7970, 12223.00
243.0150, 12275.00
244.2340, 12187.00
245.4520, 12234.00
246.6700, 12026.00
247.8880, 11895.00
249.1060, 12056.00
250.3230, 12141.00
251.5400, 12196.00
252.7580, 12302.75
253.9750, 12448.00
255.1920, 12477.00
256.4080, 12499.00
257.6250, 12642.00
258.8410, 12737.00
260.0580, 12852.00
261.2740, 12806.00
262.4900, 12829.00
263.7050, 12829.00
264.9210, 12762.00
266.1360, 12846.00
267.3520, 12960.00
268.5670, 12946.00
269.7820, 12836.00
270.9960, 12922.00
272.2110, 13009.00
273.4250, 12871.00
274.6400, 12905.00
275.8540, 12940.00
277.0680, 12964.00
278.2810, 12993.00
279.4950, 12975.00
280.7090, 12810.00
281.9220, 12925.00
283.1350, 12810.00
284.3480, 12752.00
285.5610, 12740.00
286.7730, 12736.00
287.9860, 12607.00
289.1980, 12684.00
290.4100, 12664.00
291.6220, 12772.00
292.8340, 12741.00
294.0460, 12716.00
295.2570, 12628.00
296.4690, 12678.00
297.6800, 12946.00
298.8910, 12899.00
300.1020, 13029.00
301.3120, 12964.00
302.5230, 12982.00
303.7330, 13129.00
304.9440, 13261.00
306.1540, 13342.00
307.3630, 13395.00
308.5730, 13462.00
309.7830, 13691.00
310.9920, 13732.00
312.2010, 13844.00
313.4100, 14175.00
314.6190, 14563.00
315.8280, 14773.00
317.0370, 14903.00
318.2450, 15020.00
319.4530, 15465.00
320.6610, 15679.00
321.8690, 15934.00
323.0770, 16230.00
324.2850, 16410.00
325.4920, 16621.00
326.6990, 16853.00
327.9060, 16780.00
329.1130, 16588.00
330.3200, 16594.00
331.5270, 16278.00
332.7330, 16056.00
333.9390, 15907.00
335.1450, 15571.00
336.3510, 15698.00
337.5570, 15691.00
338.7630, 15620.00
339.9680, 16029.00
341.1740, 16157.00
342.3790, 16465.00
343.5840, 16978.00
344.7890, 17557.00
345.9930, 18031.00
347.1980, 18638.00
348.4020, 19399.00
349.6060, 19724.00
350.8100, 20163.00
352.0140, 20389.00
353.2180, 20523.00
354.4210, 20341.00
355.6250, 20075.00
356.8280, 19654.00
358.0310, 19001.00
359.2340, 18550.00
360.4360, 17911.00
361.6390, 17733.00
362.8410, 17315.00
364.0430, 17096.00
365.2450, 16925.00
366.4470, 16635.00
367.6490, 16517.00
368.8510, 16411.00
370.0520, 16322.00
371.2530, 16300.00
372.4540, 16384.00
373.6550, 16431.00
374.8560, 16297.00
376.0560, 16231.00
377.2570, 16171.00
378.4570, 16293.00
379.6570, 16330.00
380.8570, 16218.00
382.0570, 16576.00
383.2560, 16701.00
384.4560, 16529.00
385.6550, 16848.00
386.8540, 16890.00
388.0530, 17010.00
389.2520, 16689.00
390.4510, 16675.00
391.6490, 16685.00
392.8470, 16195.00
394.0450, 15927.00
395.2430, 15657.00
396.4410, 15419.00
397.6390, 15238.51
398.8360, 15039.00
400.0340, 14950.00
401.2310, 14928.00
402.4280, 14854.00
403.6250, 14818.00
404.8210, 14808.00
406.0180, 14766.00
407.2140, 14659.00
408.4100, 14843.00
409.6060, 14595.00
410.8020, 14748.00
411.9980, 14745.00
413.1930, 14683.00
414.3890, 14806.00
415.5840, 14732.00
416.7790, 14791.00
417.9740, 14822.00
419.1680, 14914.00
420.3630, 14847.00
421.5570, 14816.00
422.7510, 14796.00
423.9450, 14855.00
425.1390, 14921.00
426.3330, 14704.00
427.5270, 14867.00
428.7200, 14635.00
429.9130, 14776.00
431.1060, 14789.00
432.2990, 14731.00
433.4920, 14916.00
434.6840, 14783.00
435.8770, 14775.00
437.0690, 14962.00
438.2610, 14864.00
439.4530, 14923.00
440.6450, 15038.00
441.8360, 14881.00
443.0280, 15103.00
444.2190, 15035.00
445.4100, 14983.00
446.6010, 15129.00
447.7920, 15264.00
448.9820, 15182.00
450.1730, 15075.00
451.3630, 15091.00
452.5530, 15263.00
453.7430, 15428.00
454.9330, 15373.00
456.1230, 15633.00
457.3120, 15677.00
458.5010, 15576.00
459.6910, 15908.00
460.8800, 16115.00
462.0680, 16312.00
463.2570, 16524.00
464.4460, 16641.00
465.6340, 16867.00
466.8220, 17001.00
468.0100, 16981.17
469.1980, 16955.00
470.3860, 16866.00
471.5730, 16745.00
472.7600, 16643.00
473.9480, 16473.00
475.1350, 16519.00
476.3210, 16515.00
477.5080, 16406.00
478.6950, 16272.00
479.8810, 16372.00
481.0670, 16152.00
482.2530, 16209.00
483.4390, 16067.00
484.6250, 16070.00
485.8100, 16103.00
486.9960, 16061.00
488.1810, 15867.00
489.3660, 16042.00
490.5510, 15843.00
491.7360, 15880.00
492.9200, 15830.00
494.1050, 15934.00
495.2890, 16136.00
496.4730, 16269.00
497.6570, 16306.00
498.8400, 16419.00
500.0240, 16601.00
501.2070, 16962.00
502.3910, 16950.00
503.5740, 17071.00
504.7570, 17495.00
505.9400, 17465.00
507.1220, 17491.00
508.3050, 17692.00
509.4870, 17725.41
510.6690, 17803.00
511.8510, 17960.00
513.0330, 17850.00
514.2140, 17946.00
515.3960, 17867.00
516.5770, 17956.00
517.7580, 18242.00
518.9390, 18159.00
520.1200, 18093.00
521.3010, 18321.00
522.4810, 18339.00
523.6610, 18388.00
524.8420, 18418.00
526.0220, 18312.00
527.2010, 18625.00
528.3810, 18628.00
529.5610, 18480.00
530.7400, 18793.00
531.9190, 18671.00
533.0980, 18497.00
534.2770, 18563.00
535.4560, 18478.00
536.6340, 18332.00
537.8120, 18313.00
538.9910, 18081.00
540.1690, 17768.00
541.3460, 17803.00
542.5240, 17470.00
543.7020, 17500.00
544.8790, 17465.00
546.0560, 17228.00
547.2330, 17357.00
548.4100, 17278.00
549.5870, 17148.00
550.7630, 17490.00
551.9400, 17504.00
553.1160, 17517.00
554.2920, 17614.00
555.4680, 17696.00
556.6440, 17747.00
557.8190, 17784.00
558.9950, 18062.00
560.1700, 18191.00
561.3450, 18104.00
562.5200, 18121.00
563.6950, 18151.00
564.8690, 18107.42
566.0440, 18138.00
567.2180, 18120.00
568.3920, 18030.00
569.5660, 18107.00
570.7400, 18138.00
571.9130, 18083.00
573.0870, 18106.00
574.2600, 18109.00
575.4330, 18171.15
576.6060, 18318.00
577.7790, 18339.00
578.9520, 18433.00
580.1240, 18510.00
581.2960, 18541.00
582.4690, 18657.00
583.6410, 18820.00
584.8120, 18855.00
585.9840, 18953.00
587.1560, 19004.00
588.3270, 19395.00
589.4980, 19503.00
590.6690, 19654.00
591.8400, 19761.00
593.0110, 20353.00
594.1810, 20621.00
595.3510, 20775.00
596.5220, 21553.00
597.6920, 22075.00
598.8610, 22572.00
600.0310, 23583.00
601.2010, 24731.00
602.3700, 25875.00
603.5390, 27415.00
604.7080, 29412.00
605.8770, 31750.00
607.0460, 34539.00
608.2140, 38122.00
609.3830, 42367.00
610.5510, 46685.00
611.7190, 51466.00
612.8870, 55923.00
614.0550, 59562.00
615.2220, 62049.00
616.3900, 62217.00
617.5570, 60502.00
618.7240, 56279.00
619.8910, 51120.00
621.0580, 46032.00
622.2240, 41259.00
623.3910, 36992.00
624.5570, 33267.00
625.7230, 30544.00
626.8890, 28379.00
628.0550, 26864.00
629.2200, 25553.00
630.3860, 24239.00
631.5510, 23310.00
632.7160, 22945.00
633.8810, 22142.00
635.0460, 21719.00
636.2100, 21267.00
637.3750, 21103.00
638.5390, 20969.00
639.7030, 20650.00
640.8670, 20478.00
642.0310, 20453.00
643.1950, 20297.00
644.3580, 20092.00
645.5210, 20026.86
646.6850, 19906.36
647.8480, 19828.00
649.0100, 19794.00
650.1730, 19770.00
651.3350, 19796.00
652.4980, 19770.00
653.6600, 19636.00
654.8220, 19767.00
655.9840, 19821.00
657.1450, 19683.00
658.3070, 19736.00
659.4680, 19582.00
660.6300, 19660.00
661.7910, 19705.00
662.9510, 19588.00
664.1120, 19726.00
665.2730, 19665.00
666.4330, 19518.00
667.5930, 19635.00
668.7530, 19867.00
669.9130, 19509.00
671.0730, 19775.00
672.2320, 19818.00
673.3920, 19816.00
674.5510, 19834.00
675.7100, 19865.00
676.8690, 19802.00
678.0280, 19844.00
679.1860, 19860.00
680.3450, 19906.00
681.5030, 19922.00
682.6610, 19926.00
683.8190, 19956.72
684.9770, 19978.00
686.1340, 19955.00
687.2920, 20000.00
688.4490, 19920.00
689.6060, 19753.00
690.7630, 19936.00
691.9200, 19735.00
693.0760, 19649.00
694.2330, 19762.00
695.3890, 19524.00
696.5450, 19785.00
697.7010, 19819.00
698.8570, 19676.00
700.0130, 19572.00
701.1680, 19680.00
702.3230, 19564.00
703.4780, 19771.00
704.6330, 19680.00
705.7880, 19311.00
706.9430, 19491.00
708.0970, 19399.00
709.2520, 19434.00
710.4060, 19489.50
711.5600, 19622.00
712.7140, 19548.00
713.8670, 19533.00
715.0210, 19553.00
716.1740, 19670.00
717.3270, 19737.00
718.4800, 19836.41
719.6330, 20041.00
720.7860, 20094.00
721.9380, 20194.00
723.0910, 20398.00
724.2430, 20684.00
725.3950, 21141.00
726.5470, 21432.00
727.6980, 21748.00
728.8500, 22290.00
730.0010, 22406.00
731.1530, 22524.00
732.3040, 22597.00
733.4550, 22244.00
734.6050, 21737.00
735.7560, 21563.00
736.9060, 21129.00
738.0560, 20890.00
739.2060, 20778.00
740.3560, 20396.00
741.5060, 20290.85
742.6560, 19911.00
743.8050, 20011.00
744.9540, 19731.00
746.1030, 19675.00
747.2520, 19730.00
748.4010, 19468.00
749.5500, 19796.00
750.6980, 19520.00
751.8460, 19495.00
752.9950, 19537.00
754.1420, 19465.00
755.2900, 19441.00
756.4380, 19429.00
757.5850, 19449.00
758.7330, 19385.00
759.8800, 19634.00
761.0270, 19480.00
762.1730, 19610.00
763.3200, 19494.00
764.4670, 19457.00
765.6130, 19538.00
766.7590, 19452.00
767.9050, 19669.00
769.0510, 19552.00
770.1960, 19368.00
771.3420, 19532.00
772.4870, 19855.00
773.6320, 19498.00
774.7770, 19843.00
775.9220, 19630.00
777.0670, 19751.00
778.2110, 19768.00
779.3560, 19802.00
780.5000, 19638.00
781.6440, 19708.00
782.7880, 19685.00
783.9320, 19710.00
785.0750, 19917.00
786.2180, 19858.00
787.3620, 19759.00
788.5050, 20020.00
789.6480, 19830.00
790.7900, 19774.00
791.9330, 19733.00
793.0750, 19874.00
794.2170, 20007.00
795.3590, 20014.71
796.5010, 20103.00
797.6430, 20092.00
798.7850, 20138.00
799.9260, 20134.00
801.0670, 20238.00
802.2080, 20279.00
803.3490, 20300.00
804.4900, 20413.00
805.6310, 20625.00
806.7710, 20385.00
807.9110, 20589.00
809.0510, 20603.00
810.1910, 20433.00
811.3310, 20504.00
812.4710, 20439.00
813.6100, 20333.00
814.7490, 20524.00
815.8880, 20334.00
817.0270, 20371.00
818.1660, 20526.00
819.3050, 20337.00
820.4430, 20457.00
821.5820, 20365.00
822.7200, 20474.00
823.8580, 20551.00
824.9950, 20518.00
826.1330, 20454.00
827.2710, 20547.00
828.4080, 20385.00
829.5450, 20475.00
830.6820, 20485.40
831.8190, 20444.00
832.9560, 20583.00
834.0920, 20642.00
835.2280, 20728.00
836.3650, 20541.00
837.5010, 20669.00
838.6360, 20615.00
839.7720, 20836.00
840.9080, 20709.00
842.0430, 20640.00
843.1780, 20911.00
844.3130, 20691.00
845.4480, 20876.00
846.5830, 20863.00
847.7170, 21003.00
848.8520, 20874.00
849.9860, 21173.00
851.1200, 20763.00
852.2540, 20832.00
853.3870, 21122.00
854.5210, 21180.00
855.6540, 21090.00
856.7880, 21232.00
857.9210, 21355.00
859.0540, 21206.00
860.1860, 21471.00
861.3190, 21278.00
862.4510, 21439.00
863.5840, 21571.00
864.7160, 21519.00
865.8480, 21233.00
866.9790, 21641.00
868.1110, 21675.00
869.2420, 21423.00
870.3740, 21571.00
871.5050, 21632.00
872.6360, 21606.00
873.7660, 21595.00
874.8970, 21747.00
876.0280, 21674.00
877.1580, 21681.00
878.2880, 21636.00
879.4180, 21602.00
880.5480, 21712.00
881.6770, 21514.00
882.8070, 21786.00
883.9360, 21618.00
885.0650, 21830.00
886.1940, 21827.00
887.3230, 21866.00
888.4520, 21830.00
889.5800, 22085.00
890.7090, 22013.15
891.8370, 22108.00
892.9650, 22045.00
894.0930, 22109.00
895.2200, 22171.00
896.3480, 22422.00
897.4750, 22384.00
898.6020, 22764.00
899.7290, 22748.00
900.8560, 22650.00
901.9830, 23005.00
903.1090, 23109.00
904.2360, 23248.00
905.3620, 23582.00
906.4880, 23711.00
907.6140, 23894.48
908.7400, 23926.00
909.8650, 24265.00
910.9900, 24289.00
912.1160, 24599.00
913.2410, 24719.00
914.3660, 24842.00
915.4900, 25119.00
916.6150, 25135.00
917.7390, 25148.00
918.8640, 25474.00
919.9880, 25543.00
921.1120, 26011.00
922.2350, 26176.00
923.3590, 26119.00
924.4820, 26784.00
925.6060, 27106.00
926.7290, 27082.00
927.8520, 26997.00
928.9740, 27282.00
930.0970, 27136.00
931.2190, 26930.00
932.3420, 26941.00
933.4640, 26529.00
934.5860, 26188.00
935.7080, 26001.00
936.8290, 25600.00
937.9510, 25492.00
939.0720, 25293.00
940.1930, 25116.00
941.3140, 25014.00
942.4350, 24763.00
943.5560, 24833.00
944.6760, 24961.00
945.7960, 24718.00
946.9170, 24700.00
948.0370, 24477.00
949.1560, 24417.00
950.2760, 24611.00
951.3960, 24578.00
952.5150, 24562.00
953.6340, 24571.00
954.7530, 24692.00
955.8720, 24533.00
956.9910, 24400.00
958.1090, 24589.00
959.2280, 24419.00
960.3460, 24431.00
961.4640, 24545.00
962.5820, 24205.00
963.6990, 24311.00
964.8170, 24415.00
965.9340, 24343.00
967.0510, 24220.00
968.1690, 24250.00
969.2850, 24262.00
970.4020, 24457.00
971.5190, 24580.00
972.6350, 24354.00
973.7510, 24646.00
974.8670, 24513.00
975.9830, 24423.00
977.0990, 24638.00
978.2150, 24644.00
979.3300, 24405.00
980.4450, 24455.00
981.5600, 24399.00
982.6750, 24192.00
983.7900, 24254.00
984.9050, 24235.00
986.0190, 24241.00
987.1340, 24229.00
988.2480, 24186.31
989.3620, 24222.00
990.4750, 24106.00
991.5890, 24084.00
992.7020, 24076.00
993.8160, 24028.63
994.9290, 24066.92
996.0420, 24019.00
997.1550, 24138.00
998.2670, 24184.00
999.3800, 24226.00
1000.492, 24396.00
1001.604, 24397.52
1002.716, 24449.38
1003.828, 24455.00
1004.940, 24497.00
1006.051, 24467.00
1007.163, 24515.00
1008.274, 24496.00
1009.385, 24515.57
1010.496, 24614.00
1011.606, 24580.00
1012.717, 24555.00
1013.827, 24648.00
1014.937, 24765.00
1016.047, 24615.00
1017.157, 24560.00
1018.267, 24658.00
1019.377, 24643.00
1020.486, 24615.00
1021.595, 24524.00
1022.704, 24606.00
1023.813, 24573.00
1024.922, 24532.00
1026.030, 24618.00
1027.139, 24608.00
1028.247, 24539.00
1029.355, 24735.00
1030.463, 24592.00
1031.571, 24649.00
1032.678, 24721.00
1033.786, 24808.00
1034.893, 24889.00
1036.000, 24743.00
1037.107, 24849.00
1038.214, 24826.00
1039.321, 24868.00
1040.427, 24932.00
1041.533, 25196.00
1042.639, 25237.00
1043.745, 25164.00
1044.851, 25039.00
1045.957, 25360.00
1047.062, 25383.00
1048.168, 25677.00
1049.273, 25673.00
1050.378, 25875.00
1051.482, 25865.00
1052.587, 26062.00
1053.692, 26077.00
1054.796, 26263.00
1055.900, 26564.00
1057.004, 26441.00
1058.108, 26587.00
1059.212, 26663.00
1060.315, 26617.00
1061.418, 26912.00
1062.522, 27014.00
1063.625, 27078.00
1064.728, 26926.00
1065.830, 26977.00
1066.933, 26733.00
1068.035, 26741.00
1069.137, 26966.00
1070.239, 26597.00
1071.341, 26760.00
1072.443, 26550.00
1073.545, 26189.00
1074.646, 26626.00
1075.747, 26501.00
1076.848, 26355.00
1077.949, 26335.00
1079.050, 26218.00
1080.150, 26262.00
1081.251, 26294.00
1082.351, 26295.00
1083.451, 26033.00
1084.551, 26285.00
1085.651, 26030.00
1086.750, 26141.00
1087.850, 26078.00
1088.949, 26011.00
1090.048, 25979.00
1091.147, 26073.00
1092.246, 26285.00
1093.345, 25930.00
1094.443, 26144.00
1095.541, 25924.00
1096.639, 25838.00
1097.737, 26022.00
1098.835, 26108.00
1099.933, 25975.00
1101.030, 26019.00
1102.128, 25959.00
1103.225, 26029.00
1104.322, 26261.00
1105.419, 25940.00
1106.515, 25944.00
1107.612, 25810.00
1108.708, 26049.00
1109.804, 26036.00
1110.900, 26107.00
1111.996, 26154.00
1113.092, 26229.00
1114.187, 26293.00
1115.283, 26177.00
1116.378, 26247.00
1117.473, 26255.00
1118.568, 26090.00
1119.662, 26192.00
1120.757, 26467.00
1121.851, 26223.00
1122.946, 26360.00
1124.040, 26551.00
1125.134, 26322.00
1126.227, 26354.00
1127.321, 26473.00
1128.414, 26248.00
1129.508, 26233.00
1130.601, 26473.00
1131.693, 26493.00
1132.786, 26382.00
1133.879, 26602.00
1134.971, 26227.00
1136.064, 26333.00
1137.156, 26650.00
1138.248, 26226.00
1139.339, 26634.00
1140.431, 26647.00
1141.522, 26434.00
1142.614, 26611.00
1143.705, 26749.00
1144.796, 26510.00
1145.887, 26589.00
1146.977, 26683.00
1148.068, 26647.00
1149.158, 26598.00
1150.248, 26748.00
1151.338, 26529.00
1152.428, 26660.00
1153.518, 26897.00
1154.607, 26766.00
1155.696, 26989.00
1156.785, 26769.00
1157.874, 26858.00
1158.963, 26835.00
1160.052, 26976.00
1161.141, 26771.00
1162.229, 26771.00
1163.317, 27037.00
1164.405, 27202.00
1165.493, 27004.00
1166.581, 27231.00
1167.668, 27019.00
1168.756, 27130.00
1169.843, 27238.00
1170.930, 27099.00
1172.017, 27317.00
1173.103, 27079.00
1174.190, 27184.00
1175.276, 27468.00
1176.363, 27405.00
1177.449, 27289.00
1178.535, 27401.00
1179.620, 27461.00
1180.706, 27282.00
1181.791, 27457.00
1182.877, 27658.00
1183.962, 27477.00
1185.047, 27510.00
1186.131, 27632.00
1187.216, 27684.00
1188.300, 27856.00
1189.385, 27836.00
1190.469, 27591.00
1191.553, 27979.00
1192.637, 27819.00
1193.720, 27727.00
1194.804, 27924.00
1195.887, 28043.00
1196.970, 27972.00
1198.053, 28121.00
1199.136, 27950.00
1200.219, 27847.00
1201.301, 28266.00
1202.383, 28455.00
1203.465, 28022.00
1204.547, 28637.00
1205.629, 28126.00
1206.711, 28453.00
1207.792, 28261.00
1208.874, 28340.00
1209.955, 28221.00
1211.036, 28242.00
1212.117, 28380.00
1213.198, 28374.00
1214.278, 28493.00
1215.359, 28429.00
1216.439, 28545.00
1217.519, 28582.00
1218.599, 28585.00
1219.678, 28230.00
1220.758, 28792.00
1221.837, 28235.00
1222.917, 28334.00
1223.996, 28438.00
1225.075, 28309.00
1226.153, 28373.00
1227.232, 28388.80
1228.310, 28589.00
1229.389, 28472.00
1230.467, 28591.00
1231.545, 28699.00
1232.622, 28319.00
1233.700, 28629.00
1234.777, 28824.00
1235.855, 28603.00
1236.932, 28533.00
1238.009, 29135.00
1239.086, 28762.00
1240.162, 29070.00
1241.239, 29188.00
1242.315, 28862.00
1243.391, 29279.00
1244.467, 29419.00
1245.543, 29191.00
1246.619, 29312.00
1247.694, 29400.00
1248.769, 29410.00
1249.844, 29458.00
1250.919, 29527.00
1251.994, 29536.00
1253.069, 29518.00
1254.144, 29592.80
1255.218, 29743.00
1256.292, 29647.00
1257.366, 29682.00
1258.440, 29596.00
1259.514, 29647.00
1260.587, 29658.12
1261.661, 29587.00
1262.734, 29660.00
1263.807, 29762.00
1264.880, 29628.00
1265.952, 29449.00
1267.025, 29726.00
1268.097, 29563.00
1269.170, 29244.00
1270.242, 29656.00
1271.314, 29549.00
1272.385, 29204.00
1273.457, 29453.00
1274.528, 29583.00
1275.600, 29665.00
1276.671, 29456.00
1277.742, 29467.00
1278.812, 29350.00
1279.883, 29404.00
1280.954, 29522.00
1282.024, 29314.00
1283.094, 29492.00
