##NAMES=Inyoite
##RRUFFID=R040161
##IDEAL CHEMISTRY=CaB_3_O_3_(OH)_5_&#183;4H_2_O
##LOCALITY=Kramer deposit, Boron, Kern County, California, USA
##OWNER=RRUFF
##SOURCE=University of Arizona Mineral Museum
##DESCRIPTION=Group of colorless indistinct rounded crystals
##STATUS=The identification of this mineral has been confirmed by X-ray diffraction and chemical analysis
##URL=rruff.info/R040161
##MEASURED CHEMISTRY=Ca_1.00_B_3.00_O_3_(OH)_5_Â·4H_2_O
##PIN_ID=L00113
##ORIENTATION=Laser parallel to b* (0 1 0). Fiducial mark perpendicular to laser is parallel to c [0 0 1]
99.34400, 12697.00
100.5810, 13095.00
101.8190, 13360.00
103.0560, 13515.00
104.2930, 14014.00
105.5290, 14104.00
106.7660, 14491.00
108.0020, 14810.00
109.2390, 14795.00
110.4750, 15116.00
111.7110, 15207.00
112.9460, 15492.00
114.1820, 15646.00
115.4170, 15978.00
116.6530, 16167.00
117.8880, 16313.00
119.1230, 16556.00
120.3580, 16716.00
121.5920, 17103.00
122.8270, 17151.00
124.0610, 17602.00
125.2950, 17628.00
126.5290, 17585.00
127.7630, 17374.00
128.9970, 17448.00
130.2300, 17167.00
131.4640, 17109.00
132.6970, 17141.00
133.9300, 17371.00
135.1630, 17365.00
136.3950, 17439.00
137.6280, 17554.00
138.8600, 17890.00
140.0920, 18364.00
141.3240, 18700.00
142.5560, 19211.00
143.7880, 19581.00
145.0190, 20303.00
146.2510, 21024.00
147.4820, 22023.00
148.7130, 22684.00
149.9440, 23510.00
151.1750, 23685.00
152.4050, 23364.00
153.6360, 22475.00
154.8660, 21768.00
156.0960, 21698.00
157.3260, 21209.00
158.5560, 20858.00
159.7850, 20636.00
161.0150, 20626.00
162.2440, 20443.00
163.4730, 20564.00
164.7020, 20953.00
165.9310, 21438.00
167.1590, 22066.00
168.3880, 22612.00
169.6160, 23721.00
170.8440, 24603.00
172.0720, 25488.00
173.3000, 26362.74
174.5280, 27127.00
175.7550, 27901.00
176.9820, 28522.00
178.2100, 29147.00
179.4370, 29458.00
180.6630, 29332.00
181.8900, 28682.00
183.1170, 27707.00
184.3430, 26515.00
185.5690, 25354.00
186.7950, 24422.00
188.0210, 23556.00
189.2470, 23196.00
190.4720, 22921.00
191.6970, 22383.00
192.9230, 22383.00
194.1480, 22107.00
195.3730, 21845.00
196.5970, 21372.00
197.8220, 21203.00
199.0460, 20753.00
200.2700, 20518.00
201.4940, 20311.00
202.7180, 20126.00
203.9420, 19989.00
205.1660, 19848.00
206.3890, 19781.00
207.6120, 19640.00
208.8350, 19784.00
210.0580, 19652.00
211.2810, 19592.00
212.5040, 19380.00
213.7260, 19617.00
214.9480, 19355.00
216.1700, 19394.00
217.3920, 19444.00
218.6140, 19261.00
219.8360, 19316.00
221.0570, 19537.00
222.2790, 19480.00
223.5000, 19443.00
224.7210, 19386.00
225.9410, 19444.00
227.1620, 19418.00
228.3820, 19466.00
229.6030, 19394.00
230.8230, 19456.00
232.0430, 19503.47
233.2630, 19618.00
234.4820, 19643.00
235.7020, 19687.00
236.9210, 19744.00
238.1400, 19971.00
239.3590, 19920.00
240.5780, 19960.00
241.7970, 19829.00
243.0150, 19715.00
244.2340, 20009.00
245.4520, 20094.00
246.6700, 20010.00
247.8880, 20082.00
249.1060, 20101.00
250.3230, 20591.00
251.5400, 20459.00
252.7580, 20743.00
253.9750, 20854.00
255.1920, 20987.00
256.4080, 21123.00
257.6250, 21194.00
258.8410, 21181.00
260.0580, 21258.51
261.2740, 21278.59
262.4900, 21307.00
263.7050, 21291.00
264.9210, 21306.00
266.1360, 21210.00
267.3520, 20882.00
268.5670, 21118.00
269.7820, 21102.00
270.9960, 20837.00
272.2110, 20983.00
273.4250, 20891.00
274.6400, 21045.00
275.8540, 20800.00
277.0680, 20843.00
278.2810, 20778.00
279.4950, 20881.00
280.7090, 20876.00
281.9220, 20680.00
283.1350, 20755.00
284.3480, 20692.00
285.5610, 20743.00
286.7730, 20836.00
287.9860, 20771.00
289.1980, 20698.00
290.4100, 20715.00
291.6220, 20872.00
292.8340, 20785.00
294.0460, 20951.00
295.2570, 20935.00
296.4690, 20822.00
297.6800, 20902.00
298.8910, 21070.00
300.1020, 21098.00
301.3120, 21204.00
302.5230, 21349.00
303.7330, 21335.00
304.9440, 21509.00
306.1540, 21552.00
307.3630, 21721.00
308.5730, 21641.00
309.7830, 21815.00
310.9920, 22009.00
312.2010, 22073.00
313.4100, 22324.00
314.6190, 22419.00
315.8280, 22555.00
317.0370, 22800.00
318.2450, 22799.00
319.4530, 23022.00
320.6610, 23452.00
321.8690, 23575.00
323.0770, 23763.00
324.2850, 24060.00
325.4920, 24000.00
326.6990, 24208.00
327.9060, 24137.00
329.1130, 24022.00
330.3200, 23973.00
331.5270, 23775.00
332.7330, 23520.00
333.9390, 23386.00
335.1450, 23239.90
336.3510, 22886.00
337.5570, 23099.00
338.7630, 23051.00
339.9680, 23140.00
341.1740, 22865.00
342.3790, 23277.00
343.5840, 23084.00
344.7890, 23255.00
345.9930, 23318.00
347.1980, 23304.00
348.4020, 23620.00
349.6060, 23843.00
350.8100, 23878.00
352.0140, 23864.00
353.2180, 23605.00
354.4210, 23715.00
355.6250, 23680.00
356.8280, 23661.00
358.0310, 23588.00
359.2340, 23242.00
360.4360, 23103.00
361.6390, 23284.00
362.8410, 23163.00
364.0430, 23281.00
365.2450, 23011.00
366.4470, 23196.00
367.6490, 23250.00
368.8510, 23244.00
370.0520, 23362.98
371.2530, 23117.00
372.4540, 23451.00
373.6550, 23361.00
374.8560, 23318.00
376.0560, 23486.00
377.2570, 23377.00
378.4570, 23539.00
379.6570, 23719.00
380.8570, 23817.00
382.0570, 23954.00
383.2560, 24087.00
384.4560, 24123.00
385.6550, 24276.00
386.8540, 24380.00
388.0530, 24305.00
389.2520, 24462.00
390.4510, 24509.00
391.6490, 24500.00
392.8470, 24601.00
394.0450, 24475.00
395.2430, 24345.00
396.4410, 24369.00
397.6390, 24182.00
398.8360, 24276.00
400.0340, 24207.00
401.2310, 24318.00
402.4280, 24265.00
403.6250, 24470.00
404.8210, 24604.00
406.0180, 24557.00
407.2140, 24606.00
408.4100, 24639.00
409.6060, 24527.00
410.8020, 24542.00
411.9980, 24467.00
413.1930, 24431.79
414.3890, 24280.00
415.5840, 24340.00
416.7790, 24132.00
417.9740, 24014.00
419.1680, 24021.00
420.3630, 24064.00
421.5570, 24036.00
422.7510, 23949.00
423.9450, 23992.00
425.1390, 23901.00
426.3330, 23870.00
427.5270, 24062.00
428.7200, 24075.00
429.9130, 24143.00
431.1060, 24283.00
432.2990, 24115.00
433.4920, 24279.00
434.6840, 24256.00
435.8770, 24285.00
437.0690, 24289.00
438.2610, 24395.00
439.4530, 24461.00
440.6450, 24382.00
441.8360, 24470.00
443.0280, 24639.00
444.2190, 24538.00
445.4100, 24639.00
446.6010, 24833.00
447.7920, 24606.00
448.9820, 24551.00
450.1730, 24769.00
451.3630, 24912.00
452.5530, 25177.00
453.7430, 25294.00
454.9330, 25396.00
456.1230, 25523.00
457.3120, 25584.00
458.5010, 25844.00
459.6910, 26141.00
460.8800, 26125.00
462.0680, 26575.00
463.2570, 26595.00
464.4460, 26955.00
465.6340, 26653.00
466.8220, 26874.00
468.0100, 26463.00
469.1980, 26447.00
470.3860, 26044.00
471.5730, 25944.00
472.7600, 26020.00
473.9480, 25903.00
475.1350, 25633.00
476.3210, 25759.00
477.5080, 25744.00
478.6950, 25634.00
479.8810, 25762.00
481.0670, 25823.00
482.2530, 25392.00
483.4390, 25518.00
484.6250, 25580.00
485.8100, 25514.00
486.9960, 25651.00
488.1810, 25545.00
489.3660, 25462.00
490.5510, 25780.00
491.7360, 25841.00
492.9200, 25841.00
494.1050, 26104.00
495.2890, 25880.00
496.4730, 25882.00
497.6570, 26020.00
498.8400, 26214.00
500.0240, 26414.00
501.2070, 26463.48
502.3910, 26318.00
503.5740, 26554.00
504.7570, 26487.00
505.9400, 26493.00
507.1220, 26552.00
508.3050, 26582.00
509.4870, 26606.03
510.6690, 26621.00
511.8510, 26702.00
513.0330, 26648.00
514.2140, 26781.00
515.3960, 26645.00
516.5770, 26879.00
517.7580, 26838.00
518.9390, 26927.00
520.1200, 26791.00
521.3010, 26894.00
522.4810, 27177.00
523.6610, 27185.00
524.8420, 27081.00
526.0220, 27064.00
527.2010, 27102.00
528.3810, 27224.00
529.5610, 27224.00
530.7400, 27230.00
531.9190, 27178.00
533.0980, 27390.00
534.2770, 27357.00
535.4560, 27401.00
536.6340, 27116.00
537.8120, 27230.00
538.9910, 27213.00
540.1690, 27045.00
541.3460, 27200.00
542.5240, 27075.00
543.7020, 27070.00
544.8790, 27068.00
546.0560, 27140.00
547.2330, 27052.00
548.4100, 27202.00
549.5870, 27049.00
550.7630, 27175.00
551.9400, 27397.00
553.1160, 27239.00
554.2920, 27231.00
555.4680, 27407.00
556.6440, 27536.00
557.8190, 27744.00
558.9950, 27752.06
560.1700, 27815.56
561.3450, 27735.00
562.5200, 27791.00
563.6950, 27723.00
564.8690, 27663.00
566.0440, 27855.00
567.2180, 27901.00
568.3920, 27894.00
569.5660, 28009.00
570.7400, 27984.00
571.9130, 27910.00
573.0870, 28025.00
574.2600, 28063.00
575.4330, 28183.00
576.6060, 28082.00
577.7790, 28146.00
578.9520, 28272.00
580.1240, 28143.00
581.2960, 28281.00
582.4690, 28509.00
583.6410, 28574.00
584.8120, 28706.07
585.9840, 28577.00
587.1560, 28879.00
588.3270, 28910.00
589.4980, 28978.00
590.6690, 29153.00
591.8400, 29272.00
593.0110, 29433.00
594.1810, 29406.00
595.3510, 29543.00
596.5220, 29792.00
597.6920, 30037.17
598.8610, 30392.19
600.0310, 30802.00
601.2010, 31289.00
602.3700, 31800.00
603.5390, 32446.00
604.7080, 33294.00
605.8770, 34124.00
607.0460, 35307.00
608.2140, 36463.00
609.3830, 37819.00
610.5510, 39094.00
611.7190, 40863.00
612.8870, 42262.00
614.0550, 43622.00
615.2220, 43733.00
616.3900, 43655.00
617.5570, 43030.00
618.7240, 41111.00
619.8910, 39098.00
621.0580, 37419.00
622.2240, 35682.00
623.3910, 34638.00
624.5570, 33582.00
625.7230, 32711.00
626.8890, 32327.00
628.0550, 31774.00
629.2200, 31392.00
630.3860, 31022.00
631.5510, 30895.00
632.7160, 30576.00
633.8810, 30623.00
635.0460, 30374.00
636.2100, 30312.00
637.3750, 30214.00
638.5390, 30197.00
639.7030, 30027.00
640.8670, 30243.00
642.0310, 30183.00
643.1950, 30092.00
644.3580, 30463.00
645.5210, 30073.00
646.6850, 30466.00
647.8480, 30310.00
649.0100, 30248.00
650.1730, 30550.00
651.3350, 30546.00
652.4980, 30525.00
653.6600, 30303.00
654.8220, 30245.00
655.9840, 30510.00
657.1450, 30275.00
658.3070, 30434.00
659.4680, 30395.00
660.6300, 30417.00
661.7910, 30323.00
662.9510, 30478.00
664.1120, 30360.00
665.2730, 30468.00
666.4330, 30501.90
667.5930, 30540.00
668.7530, 30584.00
669.9130, 30608.00
671.0730, 30627.00
672.2320, 30974.00
673.3920, 30818.00
674.5510, 30892.00
675.7100, 30687.00
676.8690, 30965.00
678.0280, 30996.00
679.1860, 31060.00
680.3450, 31337.00
681.5030, 31128.00
682.6610, 31277.00
683.8190, 31205.00
684.9770, 31272.00
686.1340, 31094.00
687.2920, 31405.00
688.4490, 31228.00
689.6060, 31163.00
690.7630, 31391.00
691.9200, 31165.00
693.0760, 31353.00
694.2330, 31448.00
695.3890, 31433.00
696.5450, 31345.00
697.7010, 31466.00
698.8570, 31411.33
700.0130, 31426.73
701.1680, 31433.00
702.3230, 31516.00
703.4780, 31569.00
704.6330, 31780.00
705.7880, 31500.00
706.9430, 31529.00
708.0970, 31357.00
709.2520, 31562.00
710.4060, 31714.00
711.5600, 31682.00
712.7140, 31917.00
713.8670, 32018.00
715.0210, 31884.00
716.1740, 31888.00
717.3270, 31914.00
718.4800, 32031.21
719.6330, 32164.00
720.7860, 32419.00
721.9380, 32498.00
723.0910, 32718.00
724.2430, 32724.00
725.3950, 33278.00
726.5470, 33114.00
727.6980, 33478.00
728.8500, 33590.00
730.0010, 33774.00
731.1530, 33917.00
732.3040, 33746.00
733.4550, 33631.00
734.6050, 33468.00
735.7560, 33314.00
736.9060, 33029.00
738.0560, 32846.00
739.2060, 32732.00
740.3560, 32558.00
741.5060, 32588.00
742.6560, 32439.00
743.8050, 32440.00
744.9540, 32499.00
746.1030, 32470.00
747.2520, 32497.00
748.4010, 32274.00
749.5500, 32523.00
750.6980, 32381.00
751.8460, 32450.00
752.9950, 32229.00
754.1420, 32545.00
755.2900, 32436.00
756.4380, 32500.00
757.5850, 32398.00
758.7330, 32545.00
759.8800, 32631.00
761.0270, 32708.00
762.1730, 32825.00
763.3200, 32852.74
764.4670, 32942.00
765.6130, 32920.00
766.7590, 32871.00
767.9050, 32899.00
769.0510, 32883.00
770.1960, 32918.00
771.3420, 33043.00
772.4870, 33085.00
773.6320, 32895.00
774.7770, 33275.00
775.9220, 33352.00
777.0670, 33148.00
778.2110, 33023.00
779.3560, 33246.00
780.5000, 33013.00
781.6440, 33087.00
782.7880, 33195.00
783.9320, 33191.00
785.0750, 33265.00
786.2180, 33336.00
787.3620, 33337.00
788.5050, 33445.00
789.6480, 33469.00
790.7900, 33669.00
791.9330, 33570.00
793.0750, 33680.00
794.2170, 33607.00
795.3590, 33356.00
796.5010, 33832.00
797.6430, 33569.00
798.7850, 33866.00
799.9260, 33926.00
801.0670, 33920.00
802.2080, 33922.00
803.3490, 33966.00
804.4900, 34030.01
805.6310, 34330.00
806.7710, 34177.00
807.9110, 34416.00
809.0510, 34431.00
810.1910, 34352.00
811.3310, 34237.00
812.4710, 34229.00
813.6100, 34426.00
814.7490, 34131.00
815.8880, 34466.00
817.0270, 34553.00
818.1660, 34506.00
819.3050, 34336.00
820.4430, 34392.00
821.5820, 34485.00
822.7200, 34165.00
823.8580, 34544.00
824.9950, 34347.00
826.1330, 34533.00
827.2710, 34721.00
828.4080, 34639.00
829.5450, 34703.00
830.6820, 34682.00
831.8190, 34666.00
832.9560, 34724.00
834.0920, 34672.53
835.2280, 34905.00
836.3650, 34688.00
837.5010, 34803.00
838.6360, 34971.00
839.7720, 35151.00
840.9080, 34862.00
842.0430, 35026.00
843.1780, 35414.00
844.3130, 35106.00
845.4480, 34984.00
846.5830, 35360.00
847.7170, 35111.00
848.8520, 35435.00
849.9860, 35626.00
851.1200, 35344.00
852.2540, 35656.00
853.3870, 35610.00
854.5210, 35576.00
855.6540, 35617.00
856.7880, 35627.45
857.9210, 35595.00
859.0540, 35738.00
860.1860, 35998.00
861.3190, 36103.00
862.4510, 36089.00
863.5840, 36001.00
864.7160, 35983.00
865.8480, 36294.00
866.9790, 35923.00
868.1110, 36121.00
869.2420, 36236.00
870.3740, 36138.00
871.5050, 36213.00
872.6360, 36218.59
873.7660, 36079.00
874.8970, 36224.00
876.0280, 36105.00
877.1580, 36058.00
878.2880, 36143.00
879.4180, 36055.13
880.5480, 36200.00
881.6770, 36056.00
882.8070, 36158.00
883.9360, 36257.00
885.0650, 36289.00
886.1940, 36495.00
887.3230, 36581.00
888.4520, 36451.00
889.5800, 36435.00
890.7090, 36688.00
891.8370, 36709.00
892.9650, 36945.00
894.0930, 36602.00
895.2200, 36898.00
896.3480, 36731.00
897.4750, 36880.00
898.6020, 37108.00
899.7290, 36984.00
900.8560, 37119.00
901.9830, 37354.00
903.1090, 37048.00
904.2360, 37239.00
905.3620, 37344.00
906.4880, 37434.00
907.6140, 37538.04
908.7400, 37726.00
909.8650, 37728.00
910.9900, 37796.00
912.1160, 37999.00
913.2410, 38014.00
914.3660, 38030.00
915.4900, 38039.00
916.6150, 38253.00
917.7390, 38222.16
918.8640, 38468.00
919.9880, 38341.00
921.1120, 38324.00
922.2350, 38472.00
923.3590, 38686.00
924.4820, 38965.00
925.6060, 39253.00
926.7290, 39484.00
927.8520, 39361.00
928.9740, 39426.00
930.0970, 39442.00
931.2190, 39352.00
932.3420, 39199.00
933.4640, 39135.00
934.5860, 38983.00
935.7080, 38921.00
936.8290, 38867.00
937.9510, 38985.00
939.0720, 38731.00
940.1930, 38843.00
941.3140, 38852.00
942.4350, 38811.00
943.5560, 38802.00
944.6760, 38767.00
945.7960, 38900.00
946.9170, 39003.00
948.0370, 38866.00
949.1560, 38817.00
950.2760, 38961.00
951.3960, 38802.00
952.5150, 39137.00
953.6340, 39018.00
954.7530, 39096.00
955.8720, 39099.00
956.9910, 39147.00
958.1090, 39054.00
959.2280, 39119.45
960.3460, 39071.00
961.4640, 39105.00
962.5820, 39086.00
963.6990, 39124.90
964.8170, 39170.82
965.9340, 39230.00
967.0510, 39248.00
968.1690, 39320.00
969.2850, 39277.00
970.4020, 39190.00
971.5190, 39385.00
972.6350, 39338.00
973.7510, 39205.00
974.8670, 39501.00
975.9830, 39513.00
977.0990, 39414.00
978.2150, 39531.00
979.3300, 39633.00
980.4450, 39469.00
981.5600, 39538.00
982.6750, 39554.00
983.7900, 39646.00
984.9050, 39507.00
986.0190, 39565.00
987.1340, 39402.00
988.2480, 39582.00
989.3620, 39459.00
990.4750, 39640.00
991.5890, 39822.00
992.7020, 39763.29
993.8160, 39590.00
994.9290, 39799.00
996.0420, 39787.00
997.1550, 39825.00
998.2670, 39825.00
999.3800, 39942.00
1000.492, 40129.00
1001.604, 40147.73
1002.716, 40251.72
1003.828, 40261.00
1004.940, 40330.00
1006.051, 40324.00
1007.163, 40292.00
1008.274, 40354.00
1009.385, 40153.00
1010.496, 40533.00
1011.606, 40509.00
1012.717, 40572.00
1013.827, 40273.00
1014.937, 40510.00
1016.047, 40341.00
1017.157, 40784.00
1018.267, 40467.00
1019.377, 40883.00
1020.486, 40627.00
1021.595, 41034.00
1022.704, 40936.00
1023.813, 40781.00
1024.922, 40712.00
1026.030, 40879.00
1027.139, 40614.00
1028.247, 40768.00
1029.355, 40898.00
1030.463, 40916.00
1031.571, 40885.00
1032.678, 40856.00
1033.786, 40887.03
1034.893, 40802.00
1036.000, 40975.00
1037.107, 40826.00
1038.214, 40944.00
1039.321, 41077.00
1040.427, 41346.00
1041.533, 41338.00
1042.639, 41323.00
1043.745, 41302.00
1044.851, 41353.00
1045.957, 41437.00
1047.062, 41427.00
1048.168, 41935.00
1049.273, 41741.00
1050.378, 41588.00
1051.482, 41985.00
1052.587, 41767.00
1053.692, 42000.00
1054.796, 42047.00
1055.900, 41996.00
1057.004, 42109.00
1058.108, 42158.73
1059.212, 42155.00
1060.315, 42314.00
1061.418, 42399.00
1062.522, 42421.00
1063.625, 42659.00
1064.728, 42360.00
1065.830, 42610.00
1066.933, 42419.00
1068.035, 42471.00
1069.137, 42621.00
1070.239, 42439.00
1071.341, 42611.00
1072.443, 42445.00
1073.545, 42805.00
1074.646, 42879.00
1075.747, 42974.00
1076.848, 42668.00
1077.949, 42834.00
1079.050, 42569.00
1080.150, 43042.00
1081.251, 42921.00
1082.351, 43008.00
1083.451, 43079.00
1084.551, 43076.00
1085.651, 43199.00
1086.750, 43255.00
1087.850, 43066.00
1088.949, 42933.00
1090.048, 43162.00
1091.147, 43257.00
1092.246, 43359.00
1093.345, 43408.00
1094.443, 43238.00
1095.541, 43113.00
1096.639, 43356.00
1097.737, 43589.00
1098.835, 43357.00
1099.933, 43335.00
1101.030, 43354.00
1102.128, 43666.00
1103.225, 43329.00
1104.322, 43597.00
1105.419, 43647.00
1106.515, 43712.00
1107.612, 43771.00
1108.708, 43427.00
1109.804, 43534.00
1110.900, 43495.00
1111.996, 43691.00
1113.092, 43901.00
1114.187, 43848.00
1115.283, 44078.00
1116.378, 44291.00
1117.473, 43850.00
1118.568, 44182.00
1119.662, 44019.00
1120.757, 44216.00
1121.851, 44035.00
1122.946, 44354.00
1124.040, 43962.00
1125.134, 44370.00
1126.227, 44402.00
1127.321, 44213.00
1128.414, 44210.00
1129.508, 44203.26
1130.601, 44263.00
1131.693, 44271.00
1132.786, 44429.00
1133.879, 44571.00
1134.971, 44741.00
1136.064, 44761.36
1137.156, 44439.00
1138.248, 44726.00
1139.339, 44562.00
1140.431, 44411.00
1141.522, 44543.00
1142.614, 44609.00
1143.705, 44836.00
1144.796, 44699.00
1145.887, 44754.00
1146.977, 44698.00
1148.068, 44595.00
1149.158, 44651.00
1150.248, 44890.00
1151.338, 44891.00
1152.428, 44864.00
1153.518, 44722.00
1154.607, 45049.00
1155.696, 45082.00
1156.785, 45131.00
1157.874, 45152.00
1158.963, 45156.71
1160.052, 45250.00
1161.141, 45175.00
1162.229, 45233.00
1163.317, 45312.00
1164.405, 45225.00
1165.493, 45375.00
1166.581, 45807.00
1167.668, 45844.00
1168.756, 45783.00
1169.843, 45616.00
1170.930, 45754.00
1172.017, 45855.00
1173.103, 45674.00
1174.190, 45711.00
1175.276, 45913.00
1176.363, 45915.00
1177.449, 45975.00
1178.535, 45891.00
1179.620, 45770.00
1180.706, 45987.00
1181.791, 45799.00
1182.877, 46106.00
1183.962, 45899.00
1185.047, 46068.00
1186.131, 46417.00
1187.216, 46113.00
1188.300, 46153.00
1189.385, 46100.00
1190.469, 46312.00
1191.553, 46184.00
1192.637, 46321.00
1193.720, 46479.00
1194.804, 46606.00
1195.887, 46666.96
1196.970, 46754.60
1198.053, 46796.00
1199.136, 46823.00
1200.219, 46973.00
1201.301, 46957.00
1202.383, 46533.00
1203.465, 46893.00
1204.547, 46672.00
1205.629, 46793.00
1206.711, 47128.00
1207.792, 46859.00
1208.874, 46771.00
1209.955, 47148.00
1211.036, 46940.00
1212.117, 47001.00
1213.198, 47271.00
1214.278, 46792.00
1215.359, 47127.00
1216.439, 47384.00
1217.519, 47197.00
1218.599, 47167.00
1219.678, 47210.00
1220.758, 47526.00
1221.837, 47353.00
1222.917, 47672.00
1223.996, 47788.00
1225.075, 47065.00
1226.153, 47384.00
1227.232, 47695.00
1228.310, 47437.00
1229.389, 47820.00
1230.467, 47730.00
1231.545, 47624.00
1232.622, 47566.00
1233.700, 47791.00
1234.777, 47889.00
1235.855, 48094.00
1236.932, 48033.00
1238.009, 48006.00
1239.086, 48263.00
1240.162, 48213.00
1241.239, 48407.00
1242.315, 48435.00
1243.391, 48119.00
1244.467, 48340.00
1245.543, 48477.00
1246.619, 48436.00
1247.694, 48668.00
1248.769, 48461.00
1249.844, 48463.00
1250.919, 48550.00
1251.994, 48935.00
1253.069, 48789.00
1254.144, 48431.00
1255.218, 48818.00
1256.292, 48633.00
1257.366, 48595.00
1258.440, 48805.00
1259.514, 48593.00
1260.587, 48536.00
1261.661, 48850.00
1262.734, 49036.00
1263.807, 48877.00
1264.880, 49153.00
1265.952, 49077.00
1267.025, 49385.00
1268.097, 49004.00
1269.170, 48854.00
1270.242, 48941.00
1271.314, 49142.00
1272.385, 49356.00
1273.457, 49101.00
1274.528, 49140.00
1275.600, 49171.00
1276.671, 49032.00
1277.742, 49292.00
