##NAMES=Inyoite
##RRUFFID=R040161
##IDEAL CHEMISTRY=CaB_3_O_3_(OH)_5_&#183;4H_2_O
##LOCALITY=Kramer deposit, Boron, Kern County, California, USA
##OWNER=RRUFF
##SOURCE=University of Arizona Mineral Museum
##DESCRIPTION=Group of colorless indistinct rounded crystals
##STATUS=The identification of this mineral has been confirmed by X-ray diffraction and chemical analysis
##URL=rruff.info/R040161
##MEASURED CHEMISTRY=Ca_1.00_B_3.00_O_3_(OH)_5_Â·4H_2_O
##PIN_ID=L00339
##ORIENTATION=Laser parallel to a* (1 0 0). Fiducial mark perpendicular to laser is parallel to b [0 1 0]
94.39300, 6776.000
95.63100, 6922.000
96.86900, 7067.000
98.10600, 7392.000
99.34400, 7875.000
100.5810, 8083.000
101.8190, 8408.000
103.0560, 8769.000
104.2930, 8864.000
105.5290, 8974.000
106.7660, 8899.000
108.0020, 9035.000
109.2390, 8757.000
110.4750, 8889.000
111.7110, 8823.000
112.9460, 9027.000
114.1820, 9232.000
115.4170, 9366.000
116.6530, 9516.254
117.8880, 9607.998
119.1230, 9736.000
120.3580, 9786.000
121.5920, 9858.000
122.8270, 10034.00
124.0610, 10180.00
125.2950, 10333.00
126.5290, 10527.00
127.7630, 10799.84
128.9970, 11075.00
130.2300, 11449.00
131.4640, 11906.00
132.6970, 12325.00
133.9300, 12390.00
135.1630, 12049.00
136.3950, 11662.00
137.6280, 11612.00
138.8600, 11735.00
140.0920, 12029.00
141.3240, 12439.00
142.5560, 12918.00
143.7880, 13423.00
145.0190, 14015.00
146.2510, 15223.00
147.4820, 16354.00
148.7130, 17628.00
149.9440, 18659.00
151.1750, 18999.00
152.4050, 18287.00
153.6360, 16930.00
154.8660, 15709.00
156.0960, 14400.00
157.3260, 13796.00
158.5560, 13240.00
159.7850, 12838.00
161.0150, 13040.00
162.2440, 12895.00
163.4730, 13269.00
164.7020, 13573.00
165.9310, 14199.00
167.1590, 14892.00
168.3880, 15994.00
169.6160, 17110.00
170.8440, 18296.00
172.0720, 19548.00
173.3000, 20721.00
174.5280, 21899.00
175.7550, 22606.00
176.9820, 23469.00
178.2100, 24051.00
179.4370, 24510.00
180.6630, 24677.00
181.8900, 24491.00
183.1170, 23776.00
184.3430, 23051.00
185.5690, 22371.00
186.7950, 22002.00
188.0210, 22105.00
189.2470, 22370.00
190.4720, 22959.00
191.6970, 23248.00
192.9230, 23598.00
194.1480, 23275.00
195.3730, 22736.00
196.5970, 21227.00
197.8220, 19728.00
199.0460, 18102.00
200.2700, 16946.00
201.4940, 15982.00
202.7180, 14998.00
203.9420, 14325.00
205.1660, 13717.00
206.3890, 13352.00
207.6120, 12921.00
208.8350, 12662.00
210.0580, 12468.00
211.2810, 12091.00
212.5040, 11947.00
213.7260, 11642.00
214.9480, 11445.00
216.1700, 11266.00
217.3920, 11188.00
218.6140, 11067.00
219.8360, 11097.00
221.0570, 11117.00
222.2790, 11074.00
223.5000, 10881.00
224.7210, 10866.00
225.9410, 10817.00
227.1620, 10767.80
228.3820, 10835.00
229.6030, 10754.00
230.8230, 10788.00
232.0430, 10784.00
233.2630, 10892.00
234.4820, 10774.00
235.7020, 10803.00
236.9210, 10879.00
238.1400, 10773.00
239.3590, 10915.00
240.5780, 10982.00
241.7970, 11062.00
243.0150, 11023.00
244.2340, 11182.00
245.4520, 11284.00
246.6700, 11213.00
247.8880, 11555.00
249.1060, 11594.00
250.3230, 11657.00
251.5400, 11893.00
252.7580, 12150.00
253.9750, 12325.00
255.1920, 12678.00
256.4080, 12919.00
257.6250, 13151.00
258.8410, 13140.00
260.0580, 13170.00
261.2740, 13181.00
262.4900, 13234.00
263.7050, 13259.00
264.9210, 13136.00
266.1360, 13228.00
267.3520, 13042.00
268.5670, 12852.00
269.7820, 12964.00
270.9960, 12851.00
272.2110, 12778.00
273.4250, 12755.00
274.6400, 12602.00
275.8540, 12514.00
277.0680, 12451.00
278.2810, 12320.00
279.4950, 12286.00
280.7090, 12182.00
281.9220, 12077.00
283.1350, 12025.00
284.3480, 11898.00
285.5610, 11877.00
286.7730, 11711.00
287.9860, 11702.00
289.1980, 11767.00
290.4100, 11468.00
291.6220, 11636.00
292.8340, 11528.00
294.0460, 11561.00
295.2570, 11660.00
296.4690, 11553.00
297.6800, 11553.00
298.8910, 11692.00
300.1020, 11769.00
301.3120, 11686.00
302.5230, 11808.00
303.7330, 11889.00
304.9440, 12102.00
306.1540, 12092.00
307.3630, 12176.00
308.5730, 12214.00
309.7830, 12405.00
310.9920, 12557.00
312.2010, 12789.00
313.4100, 12979.98
314.6190, 13109.00
315.8280, 13416.00
317.0370, 13634.00
318.2450, 13876.00
319.4530, 14210.00
320.6610, 14441.20
321.8690, 14944.00
323.0770, 15004.00
324.2850, 15357.00
325.4920, 15686.00
326.6990, 15749.00
327.9060, 15835.00
329.1130, 15700.00
330.3200, 15514.00
331.5270, 15335.00
332.7330, 14967.00
333.9390, 14572.00
335.1450, 14254.00
336.3510, 13949.39
337.5570, 13764.00
338.7630, 13475.00
339.9680, 13355.00
341.1740, 13287.00
342.3790, 13087.00
343.5840, 13077.00
344.7890, 13035.00
345.9930, 13186.00
347.1980, 13091.00
348.4020, 13129.00
349.6060, 13002.00
350.8100, 13014.00
352.0140, 13162.00
353.2180, 13054.00
354.4210, 13142.00
355.6250, 13288.00
356.8280, 13287.00
358.0310, 13221.00
359.2340, 13381.00
360.4360, 13507.00
361.6390, 13737.00
362.8410, 13852.00
364.0430, 14098.00
365.2450, 14314.00
366.4470, 14650.00
367.6490, 14835.00
368.8510, 15268.00
370.0520, 15632.00
371.2530, 15884.00
372.4540, 16157.00
373.6550, 16521.00
374.8560, 16763.00
376.0560, 16970.00
377.2570, 16905.00
378.4570, 16889.00
379.6570, 17001.00
380.8570, 17135.00
382.0570, 17415.00
383.2560, 17703.00
384.4560, 17884.00
385.6550, 18427.00
386.8540, 18753.00
388.0530, 19165.00
389.2520, 19303.00
390.4510, 19149.00
391.6490, 18917.00
392.8470, 18825.00
394.0450, 18330.00
395.2430, 17874.00
396.4410, 17803.00
397.6390, 17620.00
398.8360, 17379.00
400.0340, 17425.00
401.2310, 17634.00
402.4280, 17612.00
403.6250, 17909.00
404.8210, 18097.00
406.0180, 18283.00
407.2140, 18109.00
408.4100, 18035.00
409.6060, 17701.00
410.8020, 17246.00
411.9980, 16889.00
413.1930, 16351.00
414.3890, 15762.00
415.5840, 15406.00
416.7790, 15201.00
417.9740, 14888.00
419.1680, 14699.00
420.3630, 14519.00
421.5570, 14322.00
422.7510, 14098.00
423.9450, 14146.00
425.1390, 13992.00
426.3330, 13879.00
427.5270, 14008.00
428.7200, 14019.00
429.9130, 14064.00
431.1060, 13957.00
432.2990, 14028.00
433.4920, 13934.00
434.6840, 13901.00
435.8770, 13793.00
437.0690, 13961.00
438.2610, 13928.00
439.4530, 13962.00
440.6450, 14047.00
441.8360, 14058.00
443.0280, 13975.00
444.2190, 14151.00
445.4100, 14260.00
446.6010, 14202.00
447.7920, 14380.00
448.9820, 14444.00
450.1730, 14582.00
451.3630, 14761.00
452.5530, 14979.00
453.7430, 15186.81
454.9330, 15333.00
456.1230, 15687.00
457.3120, 16034.71
458.5010, 16339.00
459.6910, 16968.00
460.8800, 17390.00
462.0680, 17954.00
463.2570, 18449.00
464.4460, 18659.00
465.6340, 18448.00
466.8220, 18110.00
468.0100, 17714.00
469.1980, 17184.00
470.3860, 16600.00
471.5730, 16065.00
472.7600, 15858.00
473.9480, 15628.00
475.1350, 15317.00
476.3210, 15093.00
477.5080, 15019.00
478.6950, 15068.00
479.8810, 14999.00
481.0670, 14895.00
482.2530, 14731.00
483.4390, 14785.39
484.6250, 14859.00
485.8100, 14953.00
486.9960, 14982.00
488.1810, 15035.24
489.3660, 15120.00
490.5510, 15149.00
491.7360, 15139.00
492.9200, 15304.00
494.1050, 15349.00
495.2890, 15471.00
496.4730, 15633.00
497.6570, 15633.00
498.8400, 15739.00
500.0240, 15984.00
501.2070, 16204.00
502.3910, 16292.00
503.5740, 16070.00
504.7570, 16228.00
505.9400, 16114.00
507.1220, 16063.00
508.3050, 16075.00
509.4870, 15995.54
510.6690, 15975.11
511.8510, 15934.00
513.0330, 15926.00
514.2140, 15932.00
515.3960, 15966.00
516.5770, 15893.00
517.7580, 15956.99
518.9390, 16100.00
520.1200, 16051.00
521.3010, 16129.00
522.4810, 16220.00
523.6610, 16260.00
524.8420, 16216.00
526.0220, 16213.00
527.2010, 16380.00
528.3810, 16130.00
529.5610, 16079.00
530.7400, 16229.00
531.9190, 16185.00
533.0980, 16166.00
534.2770, 16170.00
535.4560, 16066.00
536.6340, 16121.00
537.8120, 16010.00
538.9910, 15965.00
540.1690, 15710.00
541.3460, 15918.00
542.5240, 15731.00
543.7020, 15601.00
544.8790, 15774.00
546.0560, 15732.00
547.2330, 15702.00
548.4100, 15678.00
549.5870, 15791.00
550.7630, 15551.00
551.9400, 15734.00
553.1160, 15642.00
554.2920, 15726.00
555.4680, 15844.00
556.6440, 15836.00
557.8190, 16040.00
558.9950, 15983.00
560.1700, 15992.00
561.3450, 16036.00
562.5200, 16218.00
563.6950, 16215.00
564.8690, 16365.00
566.0440, 16433.00
567.2180, 16508.00
568.3920, 16406.00
569.5660, 16568.00
570.7400, 16959.00
571.9130, 16787.00
573.0870, 17007.00
574.2600, 17183.00
575.4330, 17245.00
576.6060, 17175.00
577.7790, 17614.00
578.9520, 17536.00
580.1240, 17701.00
581.2960, 18018.00
582.4690, 17976.00
583.6410, 18147.00
584.8120, 18403.00
585.9840, 18349.00
587.1560, 18658.00
588.3270, 18874.00
589.4980, 19057.00
590.6690, 19323.00
591.8400, 19755.00
593.0110, 19817.00
594.1810, 20344.00
595.3510, 20891.00
596.5220, 21405.00
597.6920, 22102.00
598.8610, 22897.00
600.0310, 23713.00
601.2010, 25122.00
602.3700, 26484.00
603.5390, 28103.00
604.7080, 30163.00
605.8770, 32718.00
607.0460, 35729.00
608.2140, 39153.00
609.3830, 42761.00
610.5510, 46950.00
611.7190, 50965.00
612.8870, 54867.00
614.0550, 57703.00
615.2220, 59003.00
616.3900, 58175.00
617.5570, 55114.00
618.7240, 50407.00
619.8910, 44575.00
621.0580, 39930.00
622.2240, 35031.00
623.3910, 31233.00
624.5570, 27994.00
625.7230, 25882.00
626.8890, 23918.00
628.0550, 22423.00
629.2200, 21433.00
630.3860, 20562.00
631.5510, 19937.00
632.7160, 19338.56
633.8810, 18946.00
635.0460, 18562.00
636.2100, 18256.00
637.3750, 18071.00
638.5390, 17835.00
639.7030, 17760.00
640.8670, 17641.00
642.0310, 17664.00
643.1950, 17458.00
644.3580, 17282.00
645.5210, 17112.00
646.6850, 17211.00
647.8480, 17153.00
649.0100, 16954.00
650.1730, 17147.00
651.3350, 16943.00
652.4980, 16829.00
653.6600, 16816.00
654.8220, 16860.00
655.9840, 16971.00
657.1450, 16893.00
658.3070, 16932.00
659.4680, 16772.00
660.6300, 16733.00
661.7910, 16778.00
662.9510, 16722.00
664.1120, 16804.00
665.2730, 16758.00
666.4330, 16802.00
667.5930, 16645.00
668.7530, 16691.00
669.9130, 16772.00
671.0730, 16863.00
672.2320, 16700.00
673.3920, 16677.00
674.5510, 16739.00
675.7100, 16742.00
676.8690, 16856.00
678.0280, 16826.00
679.1860, 16946.00
680.3450, 16957.00
681.5030, 16898.00
682.6610, 16897.00
683.8190, 16717.00
684.9770, 16845.00
686.1340, 16959.00
687.2920, 16662.00
688.4490, 16838.00
689.6060, 16949.00
690.7630, 16998.00
691.9200, 17083.00
693.0760, 17017.00
694.2330, 17065.00
695.3890, 17156.00
696.5450, 17159.00
697.7010, 17234.00
698.8570, 17190.00
700.0130, 17345.00
701.1680, 17491.00
702.3230, 17301.00
703.4780, 17400.00
704.6330, 17431.00
705.7880, 17408.00
706.9430, 17438.00
708.0970, 17630.00
709.2520, 17921.00
710.4060, 17876.00
711.5600, 18006.00
712.7140, 18176.00
713.8670, 18215.00
715.0210, 18514.00
716.1740, 18684.57
717.3270, 18876.00
718.4800, 19208.00
719.6330, 19535.00
720.7860, 20002.49
721.9380, 20517.42
723.0910, 21146.00
724.2430, 21782.00
725.3950, 22543.00
726.5470, 23375.00
727.6980, 24454.00
728.8500, 25345.00
730.0010, 25597.00
731.1530, 25752.00
732.3040, 25456.00
733.4550, 24700.00
734.6050, 23719.00
735.7560, 22624.00
736.9060, 21504.00
738.0560, 20919.00
739.2060, 20165.00
740.3560, 19640.00
741.5060, 19202.00
742.6560, 18978.00
743.8050, 18811.00
744.9540, 18666.00
746.1030, 18529.83
747.2520, 18467.35
748.4010, 18341.00
749.5500, 18349.00
750.6980, 18310.00
751.8460, 18175.00
752.9950, 18118.00
754.1420, 18016.00
755.2900, 18166.00
756.4380, 18023.00
757.5850, 18230.00
758.7330, 18074.00
759.8800, 18073.00
761.0270, 18021.00
762.1730, 18137.00
763.3200, 17922.00
764.4670, 18170.00
765.6130, 18227.00
766.7590, 18203.00
767.9050, 18085.00
769.0510, 18201.00
770.1960, 18307.00
771.3420, 18105.00
772.4870, 18059.00
773.6320, 17985.00
774.7770, 18215.00
775.9220, 18194.00
777.0670, 18265.00
778.2110, 18169.00
779.3560, 18034.00
780.5000, 18034.00
781.6440, 17974.00
782.7880, 18177.00
783.9320, 18094.00
785.0750, 17991.00
786.2180, 18210.00
787.3620, 18012.00
788.5050, 18212.00
789.6480, 17970.00
790.7900, 18071.00
791.9330, 18044.00
793.0750, 18156.00
794.2170, 18192.00
795.3590, 18083.00
796.5010, 18170.00
797.6430, 18128.00
798.7850, 18177.00
799.9260, 18148.00
801.0670, 18358.00
802.2080, 18331.00
803.3490, 18259.00
804.4900, 18510.00
805.6310, 18440.00
806.7710, 18470.00
807.9110, 18737.00
809.0510, 18716.00
810.1910, 18530.00
811.3310, 18520.00
812.4710, 18532.00
813.6100, 18593.00
814.7490, 18561.00
815.8880, 18536.00
817.0270, 18583.00
818.1660, 18399.00
819.3050, 18461.00
820.4430, 18374.00
821.5820, 18500.00
822.7200, 18548.00
823.8580, 18508.00
824.9950, 18534.00
826.1330, 18493.00
827.2710, 18410.00
828.4080, 18522.00
829.5450, 18504.14
830.6820, 18462.00
831.8190, 18587.00
832.9560, 18625.00
834.0920, 18635.00
835.2280, 18736.00
836.3650, 18763.00
837.5010, 18634.00
838.6360, 18702.00
839.7720, 18839.00
840.9080, 19040.00
842.0430, 18759.00
843.1780, 18715.00
844.3130, 18900.00
845.4480, 19045.00
846.5830, 18891.00
847.7170, 18978.00
848.8520, 19117.00
849.9860, 19075.24
851.1200, 19176.00
852.2540, 19177.00
853.3870, 19160.00
854.5210, 19246.00
855.6540, 19372.00
856.7880, 19237.00
857.9210, 19571.00
859.0540, 19658.00
860.1860, 19653.00
861.3190, 19715.00
862.4510, 19760.00
863.5840, 19809.00
864.7160, 19865.00
865.8480, 19942.00
866.9790, 19892.00
868.1110, 19945.98
869.2420, 19917.75
870.3740, 19951.00
871.5050, 19905.00
872.6360, 19866.00
873.7660, 19957.00
874.8970, 20018.00
876.0280, 19887.00
877.1580, 19936.00
878.2880, 19894.00
879.4180, 19805.00
880.5480, 19855.00
881.6770, 19931.00
882.8070, 19962.00
883.9360, 20030.43
885.0650, 19978.00
886.1940, 20149.00
887.3230, 20074.00
888.4520, 20121.00
889.5800, 20194.00
890.7090, 19998.00
891.8370, 20050.00
892.9650, 20166.00
894.0930, 19991.00
895.2200, 20259.00
896.3480, 20211.00
897.4750, 20350.00
898.6020, 20238.00
899.7290, 20166.00
900.8560, 20209.00
901.9830, 20343.00
903.1090, 20261.00
904.2360, 20474.00
905.3620, 20538.00
906.4880, 20440.00
907.6140, 20736.00
908.7400, 20532.00
909.8650, 20283.00
910.9900, 20542.00
912.1160, 20578.00
913.2410, 20693.00
914.3660, 20659.00
915.4900, 20594.00
916.6150, 20870.00
917.7390, 20782.00
918.8640, 20780.00
919.9880, 20873.00
921.1120, 20926.00
922.2350, 21178.00
923.3590, 21182.00
924.4820, 21223.00
925.6060, 21552.00
926.7290, 21442.00
927.8520, 21858.00
928.9740, 21503.00
930.0970, 21741.00
931.2190, 21646.00
932.3420, 21917.00
933.4640, 21719.00
934.5860, 21493.00
935.7080, 21598.00
936.8290, 21359.00
937.9510, 21360.00
939.0720, 21275.00
940.1930, 21473.00
941.3140, 21263.00
942.4350, 21448.00
943.5560, 21346.00
944.6760, 21216.00
945.7960, 21538.00
946.9170, 21396.00
948.0370, 21284.00
949.1560, 21560.00
950.2760, 21370.00
951.3960, 21529.00
952.5150, 21694.00
953.6340, 21522.00
954.7530, 21500.00
955.8720, 21584.00
956.9910, 21675.00
958.1090, 21645.88
959.2280, 21690.87
960.3460, 21620.00
961.4640, 21652.00
962.5820, 21610.34
963.6990, 21517.00
964.8170, 21476.00
965.9340, 21422.00
967.0510, 21378.00
968.1690, 21198.00
969.2850, 21349.00
970.4020, 21316.00
971.5190, 21364.00
972.6350, 21206.00
973.7510, 21301.00
974.8670, 21421.00
975.9830, 21291.00
977.0990, 21607.00
978.2150, 21349.00
979.3300, 21363.00
980.4450, 21433.00
981.5600, 21179.00
982.6750, 21394.00
983.7900, 21456.00
984.9050, 21399.00
986.0190, 21710.00
987.1340, 21537.00
988.2480, 21611.00
989.3620, 21668.00
990.4750, 21623.00
991.5890, 21661.00
992.7020, 21860.00
993.8160, 21648.00
994.9290, 21569.00
996.0420, 21823.00
997.1550, 21447.00
998.2670, 21751.00
999.3800, 21736.00
1000.492, 21810.00
1001.604, 21796.00
1002.716, 21875.00
1003.828, 21818.00
1004.940, 22023.00
1006.051, 21824.00
1007.163, 21790.00
1008.274, 22104.00
1009.385, 21957.00
1010.496, 22079.00
1011.606, 21951.00
1012.717, 21958.00
1013.827, 22024.00
1014.937, 22044.00
1016.047, 22007.00
1017.157, 21962.00
1018.267, 22092.00
1019.377, 22140.00
1020.486, 22167.00
1021.595, 22028.00
1022.704, 22068.00
1023.813, 22074.00
1024.922, 22068.00
1026.030, 22027.00
1027.139, 21938.00
1028.247, 21900.00
1029.355, 21918.00
1030.463, 22109.00
1031.571, 22039.00
1032.678, 22184.00
1033.786, 21903.00
1034.893, 22267.00
1036.000, 22081.00
1037.107, 22324.00
1038.214, 22236.00
1039.321, 22338.00
1040.427, 22409.00
1041.533, 22435.00
1042.639, 22472.00
1043.745, 22409.00
1044.851, 22564.00
1045.957, 22392.00
1047.062, 22274.00
1048.168, 22651.00
1049.273, 22397.00
1050.378, 22667.00
1051.482, 22595.00
1052.587, 22930.00
1053.692, 22645.00
1054.796, 22678.00
1055.900, 22862.00
1057.004, 22854.00
1058.108, 22931.00
1059.212, 22910.00
1060.315, 23120.00
1061.418, 23144.00
1062.522, 22988.00
1063.625, 23102.00
1064.728, 22968.00
1065.830, 23147.00
1066.933, 23282.00
1068.035, 23223.00
1069.137, 23085.00
1070.239, 22917.00
1071.341, 23116.00
1072.443, 23176.00
1073.545, 23140.00
1074.646, 23204.00
1075.747, 23114.00
1076.848, 23068.00
1077.949, 23159.00
1079.050, 23091.84
1080.150, 23099.00
1081.251, 23103.00
1082.351, 23127.00
1083.451, 23178.00
1084.551, 23182.25
1085.651, 23124.00
1086.750, 23236.00
1087.850, 23348.00
1088.949, 23419.00
1090.048, 23334.00
1091.147, 23347.00
1092.246, 23409.00
1093.345, 23563.00
1094.443, 23425.00
1095.541, 23400.00
1096.639, 23262.00
1097.737, 23708.00
1098.835, 23399.00
1099.933, 23709.00
1101.030, 23608.00
1102.128, 23276.00
1103.225, 23531.00
1104.322, 23527.00
1105.419, 23665.00
1106.515, 23712.00
1107.612, 23841.00
1108.708, 23711.00
1109.804, 23575.00
1110.900, 23504.00
1111.996, 23657.00
1113.092, 23801.00
1114.187, 23756.00
1115.283, 23762.00
1116.378, 23737.00
1117.473, 23799.00
1118.568, 23808.00
1119.662, 23906.00
1120.757, 24061.00
1121.851, 23844.00
1122.946, 23803.00
1124.040, 23909.00
1125.134, 23684.00
1126.227, 23917.00
1127.321, 23871.00
1128.414, 23854.00
1129.508, 23826.00
1130.601, 23777.00
1131.693, 23750.84
1132.786, 23836.00
1133.879, 23767.00
1134.971, 23757.00
1136.064, 23962.00
1137.156, 23915.00
1138.248, 23908.00
1139.339, 23784.00
1140.431, 23940.00
1141.522, 23876.00
1142.614, 23815.00
1143.705, 23936.00
1144.796, 24165.00
1145.887, 23980.00
1146.977, 24025.00
1148.068, 23916.00
1149.158, 24039.00
1150.248, 24015.00
1151.338, 23970.00
1152.428, 24122.00
1153.518, 24137.00
1154.607, 24212.00
1155.696, 24096.00
1156.785, 24023.00
1157.874, 24303.00
1158.963, 24176.00
1160.052, 24225.00
1161.141, 24191.00
1162.229, 24227.00
1163.317, 24323.00
1164.405, 24334.00
1165.493, 24393.88
1166.581, 24305.00
1167.668, 24508.00
1168.756, 24581.00
1169.843, 24697.00
1170.930, 24556.00
1172.017, 24555.00
1173.103, 24565.00
1174.190, 24286.00
1175.276, 24650.00
1176.363, 24708.00
1177.449, 24439.00
1178.535, 24739.00
1179.620, 24817.00
1180.706, 24611.00
1181.791, 24821.00
1182.877, 24739.00
1183.962, 24796.00
1185.047, 24832.00
1186.131, 24951.00
1187.216, 24812.00
1188.300, 24873.00
1189.385, 24954.00
1190.469, 24967.00
1191.553, 25068.00
1192.637, 24950.00
1193.720, 24963.00
1194.804, 24989.00
1195.887, 25042.00
1196.970, 25253.00
1198.053, 25094.00
1199.136, 25275.00
1200.219, 25239.00
1201.301, 25471.00
1202.383, 25335.00
1203.465, 25351.00
1204.547, 25379.00
1205.629, 25454.00
1206.711, 25439.00
1207.792, 25557.00
1208.874, 25560.88
1209.955, 25589.00
1211.036, 25618.00
1212.117, 25671.00
1213.198, 25715.02
1214.278, 25664.00
1215.359, 25685.00
1216.439, 25651.00
1217.519, 25510.00
1218.599, 25578.00
1219.678, 25722.00
1220.758, 25625.00
1221.837, 25960.00
1222.917, 25885.00
1223.996, 25782.00
1225.075, 26080.00
1226.153, 25891.00
1227.232, 25916.00
1228.310, 25904.00
1229.389, 25824.00
1230.467, 25950.00
1231.545, 25926.00
1232.622, 25853.00
1233.700, 25969.00
1234.777, 25871.00
1235.855, 26023.00
1236.932, 25953.00
1238.009, 25878.00
1239.086, 25981.00
1240.162, 25968.00
1241.239, 26094.00
1242.315, 26025.00
1243.391, 26110.00
1244.467, 26255.00
1245.543, 26097.00
1246.619, 26168.00
1247.694, 26194.00
1248.769, 26282.00
1249.844, 26231.00
1250.919, 26344.14
1251.994, 26344.00
1253.069, 26512.00
1254.144, 26504.00
1255.218, 26573.00
1256.292, 26318.00
1257.366, 26640.00
1258.440, 26529.00
1259.514, 26371.00
1260.587, 26596.00
1261.661, 26615.00
1262.734, 26371.00
1263.807, 26591.00
1264.880, 26497.00
1265.952, 26391.00
1267.025, 26582.00
1268.097, 26429.00
1269.170, 26280.00
1270.242, 26431.00
1271.314, 26383.00
1272.385, 26271.00
1273.457, 26471.00
