##NAMES=Inyoite
##RRUFFID=R040161
##IDEAL CHEMISTRY=CaB_3_O_3_(OH)_5_&#183;4H_2_O
##LOCALITY=Kramer deposit, Boron, Kern County, California, USA
##OWNER=RRUFF
##SOURCE=University of Arizona Mineral Museum
##DESCRIPTION=Group of colorless indistinct rounded crystals
##STATUS=The identification of this mineral has been confirmed by X-ray diffraction and chemical analysis
##URL=rruff.info/R040161
##MEASURED CHEMISTRY=Ca_1.00_B_3.00_O_3_(OH)_5_Â·4H_2_O
##PIN_ID=L00078
##ORIENTATION=Laser parallel to -c* (0 0 -1). Fiducial mark perpendicular to laser is parallel to a [1 0 0]
100.5810, 10660.00
101.8190, 11233.00
103.0560, 11920.00
104.2930, 12650.00
105.5290, 13404.00
106.7660, 14107.00
108.0020, 14195.00
109.2390, 13791.00
110.4750, 12982.00
111.7110, 12474.00
112.9460, 12076.00
114.1820, 11865.00
115.4170, 11946.00
116.6530, 11943.00
117.8880, 11818.00
119.1230, 12233.00
120.3580, 12427.00
121.5920, 12610.00
122.8270, 13185.00
124.0610, 13382.00
125.2950, 13860.00
126.5290, 14063.00
127.7630, 14181.00
128.9970, 14042.00
130.2300, 14218.00
131.4640, 14221.00
132.6970, 14252.00
133.9300, 14305.00
135.1630, 14064.00
136.3950, 13929.00
137.6280, 13979.01
138.8600, 14167.00
140.0920, 14231.00
141.3240, 14575.00
142.5560, 15147.00
143.7880, 15300.00
145.0190, 16190.00
146.2510, 16970.00
147.4820, 17934.00
148.7130, 18833.00
149.9440, 19478.00
151.1750, 19718.00
152.4050, 19286.00
153.6360, 18699.00
154.8660, 18000.00
156.0960, 17720.00
157.3260, 17627.00
158.5560, 17710.00
159.7850, 17898.00
161.0150, 17946.00
162.2440, 18048.00
163.4730, 17893.00
164.7020, 17978.00
165.9310, 18379.00
167.1590, 18903.00
168.3880, 19407.00
169.6160, 20343.00
170.8440, 21539.00
172.0720, 22337.00
173.3000, 22933.00
174.5280, 23840.00
175.7550, 24209.00
176.9820, 24366.00
178.2100, 24611.00
179.4370, 24891.00
180.6630, 24625.00
181.8900, 24286.00
183.1170, 23919.00
184.3430, 23223.00
185.5690, 22627.00
186.7950, 22064.00
188.0210, 22198.00
189.2470, 21928.00
190.4720, 21910.00
191.6970, 22105.00
192.9230, 21856.00
194.1480, 21456.00
195.3730, 21191.00
196.5970, 20129.00
197.8220, 19557.00
199.0460, 18755.00
200.2700, 18126.00
201.4940, 17629.00
202.7180, 17270.00
203.9420, 17082.00
205.1660, 16842.00
206.3890, 16529.00
207.6120, 16380.00
208.8350, 16092.11
210.0580, 15819.00
211.2810, 15643.00
212.5040, 15402.00
213.7260, 15280.00
214.9480, 14850.00
216.1700, 14588.00
217.3920, 14498.00
218.6140, 14359.00
219.8360, 14270.73
221.0570, 14311.00
222.2790, 14246.00
223.5000, 14187.00
224.7210, 14330.00
225.9410, 14141.00
227.1620, 14175.00
228.3820, 14303.00
229.6030, 14241.00
230.8230, 14268.00
232.0430, 14265.00
233.2630, 14284.34
234.4820, 14406.00
235.7020, 14397.00
236.9210, 14394.00
238.1400, 14530.00
239.3590, 14490.00
240.5780, 14386.00
241.7970, 14420.00
243.0150, 14413.00
244.2340, 14450.00
245.4520, 14356.00
246.6700, 14424.00
247.8880, 14501.00
249.1060, 14258.00
250.3230, 14591.00
251.5400, 14594.00
252.7580, 14588.00
253.9750, 14778.00
255.1920, 14873.00
256.4080, 14794.00
257.6250, 15134.00
258.8410, 15187.00
260.0580, 15207.00
261.2740, 15285.00
262.4900, 15415.00
263.7050, 15284.00
264.9210, 15454.00
266.1360, 15507.00
267.3520, 15409.00
268.5670, 15445.00
269.7820, 15485.00
270.9960, 15556.00
272.2110, 15574.00
273.4250, 15508.00
274.6400, 15653.00
275.8540, 15580.00
277.0680, 15863.00
278.2810, 15760.00
279.4950, 15714.00
280.7090, 15560.00
281.9220, 15824.00
283.1350, 15596.00
284.3480, 15661.00
285.5610, 15589.00
286.7730, 15571.00
287.9860, 15613.00
289.1980, 15548.00
290.4100, 15608.00
291.6220, 15545.00
292.8340, 15482.00
294.0460, 15591.00
295.2570, 15344.00
296.4690, 15391.00
297.6800, 15492.00
298.8910, 15510.00
300.1020, 15397.00
301.3120, 15525.00
302.5230, 15446.00
303.7330, 15390.00
304.9440, 15579.00
306.1540, 15501.00
307.3630, 15731.00
308.5730, 15621.00
309.7830, 15850.00
310.9920, 15881.00
312.2010, 15907.00
313.4100, 16116.00
314.6190, 16123.00
315.8280, 16228.00
317.0370, 16441.00
318.2450, 16477.00
319.4530, 16626.00
320.6610, 16958.00
321.8690, 16977.00
323.0770, 17328.00
324.2850, 17415.00
325.4920, 17541.00
326.6990, 17717.00
327.9060, 17777.00
329.1130, 17763.90
330.3200, 17655.00
331.5270, 17595.00
332.7330, 17379.00
333.9390, 17191.00
335.1450, 17317.00
336.3510, 17346.00
337.5570, 17424.00
338.7630, 17358.00
339.9680, 17625.00
341.1740, 17636.00
342.3790, 17928.00
343.5840, 18260.00
344.7890, 18642.00
345.9930, 18953.00
347.1980, 19491.00
348.4020, 19842.00
349.6060, 20079.00
350.8100, 20480.00
352.0140, 20669.00
353.2180, 20662.00
354.4210, 20643.00
355.6250, 20640.00
356.8280, 20435.00
358.0310, 20277.00
359.2340, 19952.00
360.4360, 19648.00
361.6390, 19570.00
362.8410, 19570.00
364.0430, 19544.00
365.2450, 19577.25
366.4470, 19643.30
367.6490, 19752.00
368.8510, 19806.00
370.0520, 20037.00
371.2530, 20089.00
372.4540, 20242.00
373.6550, 20318.00
374.8560, 20511.00
376.0560, 20505.00
377.2570, 20380.00
378.4570, 20384.00
379.6570, 20547.00
380.8570, 20676.00
382.0570, 20778.00
383.2560, 20876.00
384.4560, 20985.00
385.6550, 21331.00
386.8540, 21361.00
388.0530, 21591.00
389.2520, 21526.00
390.4510, 21402.00
391.6490, 21015.00
392.8470, 20770.00
394.0450, 20544.00
395.2430, 20072.00
396.4410, 20002.00
397.6390, 19550.00
398.8360, 19368.00
400.0340, 19459.00
401.2310, 19514.00
402.4280, 19413.00
403.6250, 19644.00
404.8210, 19709.00
406.0180, 20025.00
407.2140, 19918.00
408.4100, 19943.00
409.6060, 20293.00
410.8020, 20221.00
411.9980, 20247.00
413.1930, 20375.00
414.3890, 20135.00
415.5840, 20189.00
416.7790, 20130.00
417.9740, 19932.00
419.1680, 19763.00
420.3630, 19626.00
421.5570, 19417.00
422.7510, 19222.00
423.9450, 19062.00
425.1390, 18838.00
426.3330, 18738.00
427.5270, 18748.00
428.7200, 18564.00
429.9130, 18602.00
431.1060, 18612.00
432.2990, 18750.00
433.4920, 18720.00
434.6840, 18535.00
435.8770, 18541.00
437.0690, 18513.00
438.2610, 18525.00
439.4530, 18588.00
440.6450, 18624.00
441.8360, 18607.00
443.0280, 18588.00
444.2190, 18616.00
445.4100, 18579.00
446.6010, 18516.00
447.7920, 18803.00
448.9820, 18628.00
450.1730, 18776.00
451.3630, 18694.00
452.5530, 18815.00
453.7430, 18746.00
454.9330, 18848.00
456.1230, 19030.00
457.3120, 18932.00
458.5010, 19010.00
459.6910, 19015.00
460.8800, 19278.00
462.0680, 19471.00
463.2570, 19568.00
464.4460, 19738.00
465.6340, 19643.00
466.8220, 19965.00
468.0100, 19831.00
469.1980, 20064.00
470.3860, 19858.00
471.5730, 19840.00
472.7600, 19771.00
473.9480, 19693.00
475.1350, 19683.92
476.3210, 19576.00
477.5080, 19658.00
478.6950, 19542.00
479.8810, 19559.00
481.0670, 19692.00
482.2530, 19624.00
483.4390, 19570.00
484.6250, 19643.00
485.8100, 19674.00
486.9960, 19651.06
488.1810, 19511.00
489.3660, 19632.00
490.5510, 19539.00
491.7360, 19517.00
492.9200, 19685.00
494.1050, 19547.00
495.2890, 19867.00
496.4730, 19616.00
497.6570, 19891.00
498.8400, 20019.00
500.0240, 20213.00
501.2070, 20068.00
502.3910, 20233.00
503.5740, 20263.00
504.7570, 20415.00
505.9400, 20477.92
507.1220, 20633.00
508.3050, 20555.00
509.4870, 20722.00
510.6690, 20646.00
511.8510, 20793.00
513.0330, 20869.00
514.2140, 20770.00
515.3960, 20723.00
516.5770, 20849.00
517.7580, 20876.00
518.9390, 20947.00
520.1200, 20964.00
521.3010, 21026.00
522.4810, 21060.89
523.6610, 21036.00
524.8420, 21139.00
526.0220, 21188.00
527.2010, 21242.00
528.3810, 21466.00
529.5610, 21451.00
530.7400, 21494.00
531.9190, 21469.00
533.0980, 21682.00
534.2770, 21615.00
535.4560, 21505.00
536.6340, 21328.00
537.8120, 21242.00
538.9910, 21299.00
540.1690, 21345.00
541.3460, 21150.00
542.5240, 21084.00
543.7020, 21085.00
544.8790, 20910.00
546.0560, 21127.00
547.2330, 21061.00
548.4100, 20973.00
549.5870, 20980.00
550.7630, 20985.00
551.9400, 21007.00
553.1160, 21167.00
554.2920, 21148.00
555.4680, 21103.00
556.6440, 21238.00
557.8190, 21467.00
558.9950, 21728.00
560.1700, 21695.00
561.3450, 21714.00
562.5200, 21931.00
563.6950, 21762.00
564.8690, 21887.00
566.0440, 21896.00
567.2180, 22060.00
568.3920, 22017.00
569.5660, 22058.00
570.7400, 22196.00
571.9130, 22126.00
573.0870, 22465.00
574.2600, 22575.00
575.4330, 22457.00
576.6060, 22538.00
577.7790, 22846.00
578.9520, 22733.00
580.1240, 23153.00
581.2960, 23103.00
582.4690, 23218.00
583.6410, 23425.00
584.8120, 23569.00
585.9840, 23614.00
587.1560, 23961.00
588.3270, 24126.00
589.4980, 24103.00
590.6690, 24323.00
591.8400, 24728.00
593.0110, 24919.00
594.1810, 25172.00
595.3510, 25717.00
596.5220, 26142.00
597.6920, 26765.00
598.8610, 27546.00
600.0310, 28331.00
601.2010, 29191.00
602.3700, 30629.00
603.5390, 31982.00
604.7080, 34131.00
605.8770, 36176.00
607.0460, 38992.00
608.2140, 41998.00
609.3830, 45772.00
610.5510, 49923.00
611.7190, 53953.00
612.8870, 57527.00
614.0550, 60962.00
615.2220, 62455.00
616.3900, 62577.00
617.5570, 60549.00
618.7240, 56822.00
619.8910, 52018.00
621.0580, 47010.00
622.2240, 42488.00
623.3910, 38542.00
624.5570, 35052.00
625.7230, 32792.00
626.8890, 30859.00
628.0550, 29541.00
629.2200, 28035.00
630.3860, 27214.00
631.5510, 26357.00
632.7160, 25827.00
633.8810, 25286.00
635.0460, 24927.00
636.2100, 24701.00
637.3750, 24382.00
638.5390, 24191.00
639.7030, 23968.34
640.8670, 23757.00
642.0310, 23659.00
643.1950, 23546.00
644.3580, 23567.00
645.5210, 23520.00
646.6850, 23460.00
647.8480, 23306.00
649.0100, 23406.00
650.1730, 23423.00
651.3350, 23172.00
652.4980, 23474.00
653.6600, 23266.00
654.8220, 23023.00
655.9840, 23055.00
657.1450, 23178.00
658.3070, 23146.00
659.4680, 23096.00
660.6300, 23336.00
661.7910, 22956.00
662.9510, 23187.00
664.1120, 23285.00
665.2730, 23159.00
666.4330, 23053.00
667.5930, 23081.00
668.7530, 23030.51
669.9130, 23090.00
671.0730, 23083.00
672.2320, 23133.00
673.3920, 23220.00
674.5510, 23141.00
675.7100, 23341.00
676.8690, 23310.18
678.0280, 23198.00
679.1860, 23330.00
680.3450, 23282.00
681.5030, 23229.00
682.6610, 23477.00
683.8190, 23343.00
684.9770, 23472.00
686.1340, 23466.00
687.2920, 23431.00
688.4490, 23439.00
689.6060, 23394.00
690.7630, 23585.00
691.9200, 23494.00
693.0760, 23458.00
694.2330, 23416.00
695.3890, 23266.00
696.5450, 23603.00
697.7010, 23525.00
698.8570, 23462.00
700.0130, 23760.00
701.1680, 23474.00
702.3230, 23526.00
703.4780, 23589.00
704.6330, 23573.00
705.7880, 23621.00
706.9430, 23483.00
708.0970, 23742.00
709.2520, 23948.00
710.4060, 24041.00
711.5600, 23968.00
712.7140, 23944.00
713.8670, 24031.00
715.0210, 24236.00
716.1740, 24365.00
717.3270, 24626.00
718.4800, 24672.00
719.6330, 24927.00
720.7860, 25250.00
721.9380, 25439.00
723.0910, 25887.00
724.2430, 26584.00
725.3950, 27096.00
726.5470, 27564.00
727.6980, 28088.00
728.8500, 28647.00
730.0010, 29124.00
731.1530, 29247.00
732.3040, 29081.00
733.4550, 28785.00
734.6050, 28388.00
735.7560, 27506.00
736.9060, 27006.00
738.0560, 26453.00
739.2060, 25926.00
740.3560, 25517.00
741.5060, 25163.00
742.6560, 24864.00
743.8050, 24808.00
744.9540, 24592.00
746.1030, 24505.00
747.2520, 24630.00
748.4010, 24557.00
749.5500, 24246.00
750.6980, 24385.00
751.8460, 24131.00
752.9950, 24398.00
754.1420, 23982.00
755.2900, 24220.00
756.4380, 24101.00
757.5850, 24480.00
758.7330, 24235.00
759.8800, 24137.00
761.0270, 24083.00
762.1730, 24316.00
763.3200, 24203.00
764.4670, 24437.00
765.6130, 24300.00
766.7590, 24301.00
767.9050, 24427.00
769.0510, 24314.00
770.1960, 24357.00
771.3420, 24408.00
772.4870, 24328.00
773.6320, 24438.00
774.7770, 24372.00
775.9220, 24244.00
777.0670, 24480.00
778.2110, 24390.00
779.3560, 24527.00
780.5000, 24506.00
781.6440, 24516.00
782.7880, 24441.00
783.9320, 24309.00
785.0750, 24376.51
786.2180, 24614.00
787.3620, 24448.00
788.5050, 24578.00
789.6480, 24620.00
790.7900, 24616.00
791.9330, 24816.00
793.0750, 24545.00
794.2170, 24821.00
795.3590, 24600.00
796.5010, 24664.00
797.6430, 24918.00
798.7850, 25075.00
799.9260, 24951.00
801.0670, 25042.00
802.2080, 25090.00
803.3490, 25189.00
804.4900, 25366.00
805.6310, 25191.00
806.7710, 25564.00
807.9110, 25468.00
809.0510, 25680.00
810.1910, 25445.00
811.3310, 25351.00
812.4710, 25439.00
813.6100, 25286.00
814.7490, 25316.36
815.8880, 25366.00
817.0270, 25264.00
818.1660, 25330.00
819.3050, 25221.00
820.4430, 25278.00
821.5820, 25261.00
822.7200, 25248.00
823.8580, 25346.00
824.9950, 25414.00
826.1330, 25474.00
827.2710, 25334.00
828.4080, 25468.00
829.5450, 25285.00
830.6820, 25355.00
831.8190, 25233.00
832.9560, 25296.29
834.0920, 25426.00
835.2280, 25431.00
836.3650, 25620.00
837.5010, 25661.00
838.6360, 25671.00
839.7720, 25924.00
840.9080, 25669.00
842.0430, 25881.00
843.1780, 25616.00
844.3130, 25553.00
845.4480, 25777.00
846.5830, 25877.00
847.7170, 26031.00
848.8520, 26221.00
849.9860, 25851.00
851.1200, 26077.00
852.2540, 26047.00
853.3870, 26217.00
854.5210, 26193.00
855.6540, 26165.00
856.7880, 26538.00
857.9210, 26506.00
859.0540, 26569.00
860.1860, 26473.00
861.3190, 26314.00
862.4510, 26591.00
863.5840, 26890.00
864.7160, 26824.00
865.8480, 26746.00
866.9790, 26896.00
868.1110, 26991.00
869.2420, 26856.00
870.3740, 26903.00
871.5050, 27020.00
872.6360, 27030.00
873.7660, 27165.00
874.8970, 27061.00
876.0280, 26848.00
877.1580, 27116.00
878.2880, 26850.00
879.4180, 26843.00
880.5480, 27033.00
881.6770, 26852.00
882.8070, 27205.00
883.9360, 27086.00
885.0650, 26940.00
886.1940, 27076.00
887.3230, 27145.00
888.4520, 27173.00
889.5800, 27509.00
890.7090, 27143.00
891.8370, 27399.00
892.9650, 27239.00
894.0930, 27314.00
895.2200, 27362.00
896.3480, 27536.00
897.4750, 27606.00
898.6020, 27509.00
899.7290, 27525.00
900.8560, 27715.00
901.9830, 27948.00
903.1090, 27855.00
904.2360, 28369.00
905.3620, 28284.00
906.4880, 28474.00
907.6140, 28603.00
908.7400, 28611.00
909.8650, 28898.00
910.9900, 28991.00
912.1160, 29156.00
913.2410, 29190.00
914.3660, 29210.00
915.4900, 29254.00
916.6150, 29667.00
917.7390, 29404.00
918.8640, 29624.00
919.9880, 29568.00
921.1120, 30023.00
922.2350, 30010.00
923.3590, 30112.00
924.4820, 30511.00
925.6060, 30439.00
926.7290, 30803.00
927.8520, 30690.00
928.9740, 31005.00
930.0970, 31014.00
931.2190, 30882.00
932.3420, 30563.00
933.4640, 30584.00
934.5860, 30314.00
935.7080, 30403.00
936.8290, 30339.00
937.9510, 30303.00
939.0720, 29963.00
940.1930, 29835.00
941.3140, 30068.00
942.4350, 29787.00
943.5560, 29829.00
944.6760, 29697.00
945.7960, 29627.00
946.9170, 29627.34
948.0370, 29634.00
949.1560, 29594.00
950.2760, 29732.00
951.3960, 29734.00
952.5150, 29792.00
953.6340, 29649.00
954.7530, 29927.00
955.8720, 29838.00
956.9910, 29913.00
958.1090, 30086.00
959.2280, 29651.00
960.3460, 29824.00
961.4640, 29972.00
962.5820, 29860.00
963.6990, 29936.47
964.8170, 29585.00
965.9340, 29776.00
967.0510, 29726.00
968.1690, 29460.00
969.2850, 29601.00
970.4020, 29684.00
971.5190, 29857.00
972.6350, 29766.00
973.7510, 29823.00
974.8670, 29588.00
975.9830, 29801.00
977.0990, 29656.00
978.2150, 29669.00
979.3300, 29899.00
980.4450, 29682.00
981.5600, 29742.00
982.6750, 29480.00
983.7900, 29585.00
984.9050, 29512.00
986.0190, 29774.00
987.1340, 29422.00
988.2480, 29384.00
989.3620, 29795.00
990.4750, 29596.00
991.5890, 29446.00
992.7020, 29651.00
993.8160, 29518.00
994.9290, 29447.00
996.0420, 29457.00
997.1550, 29617.00
998.2670, 29762.00
999.3800, 29588.00
1000.492, 29416.00
1001.604, 30012.00
1002.716, 29941.00
1003.828, 30013.00
1004.940, 29852.00
1006.051, 30056.00
1007.163, 30053.00
1008.274, 30319.00
1009.385, 30021.00
1010.496, 30090.00
1011.606, 30260.00
1012.717, 30355.00
1013.827, 30155.00
1014.937, 30431.00
1016.047, 30265.00
1017.157, 30366.00
1018.267, 30425.00
1019.377, 30491.00
1020.486, 30176.00
1021.595, 30377.00
1022.704, 30268.00
1023.813, 30448.00
1024.922, 30324.00
1026.030, 30280.00
1027.139, 30507.00
1028.247, 30420.00
1029.355, 30413.00
1030.463, 30510.00
1031.571, 30487.20
1032.678, 30585.81
1033.786, 30569.00
1034.893, 30761.00
1036.000, 30817.00
1037.107, 30895.00
1038.214, 30798.00
1039.321, 30660.00
1040.427, 30772.00
1041.533, 31131.00
1042.639, 31080.00
1043.745, 30914.00
1044.851, 31251.00
1045.957, 31125.00
1047.062, 31407.00
1048.168, 31562.00
1049.273, 31514.00
1050.378, 31727.00
1051.482, 31548.00
1052.587, 31700.00
1053.692, 31846.00
1054.796, 32072.00
1055.900, 32113.00
1057.004, 32169.00
1058.108, 32247.00
1059.212, 32520.00
1060.315, 32364.00
1061.418, 32551.00
1062.522, 32621.00
1063.625, 32389.00
1064.728, 32540.00
1065.830, 32443.00
1066.933, 32707.00
1068.035, 32488.00
1069.137, 32599.00
1070.239, 32561.00
1071.341, 32532.00
1072.443, 32438.00
1073.545, 32299.00
1074.646, 32284.10
1075.747, 32231.35
1076.848, 32209.00
1077.949, 32265.00
1079.050, 32260.00
1080.150, 32267.09
1081.251, 32253.00
1082.351, 32272.00
1083.451, 32302.00
1084.551, 32298.00
1085.651, 32312.57
1086.750, 32408.00
1087.850, 32342.00
1088.949, 32241.00
1090.048, 32294.00
1091.147, 32389.00
1092.246, 32294.00
1093.345, 32175.00
1094.443, 32079.00
1095.541, 32207.00
1096.639, 32221.00
1097.737, 32422.00
1098.835, 32432.00
1099.933, 32358.00
1101.030, 32180.00
1102.128, 32067.00
1103.225, 32493.00
1104.322, 32454.00
1105.419, 32204.00
1106.515, 32471.00
1107.612, 32285.00
1108.708, 32375.00
1109.804, 32545.00
1110.900, 32488.00
1111.996, 32569.00
1113.092, 32745.00
1114.187, 32498.00
1115.283, 32559.00
1116.378, 32484.00
1117.473, 32608.00
1118.568, 32569.00
1119.662, 32621.00
1120.757, 32697.00
1121.851, 32866.00
1122.946, 32955.00
1124.040, 33102.00
1125.134, 32809.00
1126.227, 32568.00
1127.321, 32829.00
1128.414, 32738.00
1129.508, 32788.00
1130.601, 33118.00
1131.693, 32849.00
1132.786, 32982.00
1133.879, 32938.00
1134.971, 33236.00
1136.064, 32877.00
1137.156, 33165.00
1138.248, 33087.00
1139.339, 33137.00
1140.431, 33011.00
1141.522, 33190.00
1142.614, 33136.00
1143.705, 33162.00
1144.796, 33063.00
1145.887, 33356.00
1146.977, 33145.00
1148.068, 33267.00
1149.158, 33146.00
1150.248, 33036.00
1151.338, 33366.00
1152.428, 33499.00
1153.518, 33404.00
1154.607, 33518.00
1155.696, 33289.00
1156.785, 33389.00
1157.874, 33506.00
1158.963, 33643.00
1160.052, 33665.00
1161.141, 33681.00
1162.229, 33541.00
1163.317, 33697.00
1164.405, 33615.00
1165.493, 33675.00
1166.581, 33883.00
1167.668, 33943.00
1168.756, 33683.00
1169.843, 33987.00
1170.930, 33976.00
1172.017, 33902.00
1173.103, 34127.00
1174.190, 33989.00
1175.276, 34033.00
1176.363, 33924.00
1177.449, 34237.00
1178.535, 34068.00
1179.620, 34305.00
1180.706, 34124.00
1181.791, 34170.00
1182.877, 34421.00
1183.962, 34276.00
1185.047, 34313.00
1186.131, 34574.00
1187.216, 34546.00
1188.300, 34597.00
1189.385, 34655.00
1190.469, 34586.00
1191.553, 34675.00
1192.637, 34554.00
1193.720, 34846.00
1194.804, 34788.00
1195.887, 34748.00
1196.970, 35134.00
1198.053, 34959.00
1199.136, 34945.00
1200.219, 35027.00
1201.301, 35303.00
1202.383, 35113.00
1203.465, 35248.00
1204.547, 35143.00
1205.629, 35290.00
1206.711, 35335.00
1207.792, 35292.00
1208.874, 35573.00
1209.955, 35486.00
1211.036, 35528.00
1212.117, 35436.00
1213.198, 35406.00
1214.278, 35281.00
1215.359, 35486.00
1216.439, 35611.00
1217.519, 35439.00
1218.599, 35442.00
1219.678, 35382.00
1220.758, 35621.00
1221.837, 35670.00
1222.917, 35742.00
1223.996, 35819.13
1225.075, 35561.00
1226.153, 35748.00
1227.232, 35735.00
1228.310, 35433.00
1229.389, 35828.00
1230.467, 36032.00
1231.545, 35773.00
1232.622, 35849.00
1233.700, 35775.00
1234.777, 35963.00
1235.855, 35824.00
1236.932, 35924.00
1238.009, 36071.00
1239.086, 36042.00
1240.162, 36168.00
1241.239, 36188.00
1242.315, 36143.00
1243.391, 36443.00
1244.467, 36398.34
1245.543, 36423.00
1246.619, 36483.00
1247.694, 36643.00
1248.769, 36612.00
1249.844, 36566.00
1250.919, 36865.00
1251.994, 36618.00
1253.069, 36860.00
1254.144, 36704.00
1255.218, 36740.00
1256.292, 37101.00
1257.366, 36593.00
1258.440, 36852.00
1259.514, 36735.00
1260.587, 37138.00
1261.661, 36803.00
1262.734, 36889.00
1263.807, 36886.00
1264.880, 36893.00
1265.952, 36977.00
1267.025, 36936.00
1268.097, 36915.86
1269.170, 36748.00
1270.242, 36797.00
1271.314, 36828.00
1272.385, 36752.00
1273.457, 36894.00
1274.528, 36768.00
1275.600, 36714.00
1276.671, 36726.00
1277.742, 36666.00
1278.812, 36708.30
