##NAMES=Inyoite
##RRUFFID=R040161
##IDEAL CHEMISTRY=CaB_3_O_3_(OH)_5_&#183;4H_2_O
##LOCALITY=Kramer deposit, Boron, Kern County, California, USA
##OWNER=RRUFF
##SOURCE=University of Arizona Mineral Museum
##DESCRIPTION=Group of colorless indistinct rounded crystals
##STATUS=The identification of this mineral has been confirmed by X-ray diffraction and chemical analysis
##URL=rruff.info/R040161
##MEASURED CHEMISTRY=Ca_1.00_B_3.00_O_3_(OH)_5_Â·4H_2_O
##PIN_ID=L00113
##ORIENTATION=Laser parallel to b* (0 1 0). Fiducial mark perpendicular to laser is parallel to c [0 0 1]
99.34400, 12594.00
100.5810, 13009.00
101.8190, 13223.00
103.0560, 13679.00
104.2930, 13855.00
105.5290, 14093.00
106.7660, 14538.00
108.0020, 14799.00
109.2390, 14926.00
110.4750, 14856.00
111.7110, 15040.00
112.9460, 15189.00
114.1820, 15511.00
115.4170, 15796.00
116.6530, 16154.00
117.8880, 16521.00
119.1230, 16825.00
120.3580, 16945.00
121.5920, 17104.00
122.8270, 17825.00
124.0610, 17790.00
125.2950, 18203.00
126.5290, 18055.00
127.7630, 17786.00
128.9970, 17339.00
130.2300, 17233.00
131.4640, 16830.00
132.6970, 16485.00
133.9300, 16457.00
135.1630, 16401.00
136.3950, 16356.00
137.6280, 16522.00
138.8600, 16813.00
140.0920, 16906.00
141.3240, 17286.00
142.5560, 17587.00
143.7880, 17953.00
145.0190, 18493.00
146.2510, 19196.00
147.4820, 19781.00
148.7130, 20676.00
149.9440, 21434.00
151.1750, 21951.00
152.4050, 22375.00
153.6360, 22193.00
154.8660, 22254.00
156.0960, 22180.00
157.3260, 22257.00
158.5560, 22239.00
159.7850, 21658.00
161.0150, 20853.00
162.2440, 20499.00
163.4730, 20307.00
164.7020, 20078.00
165.9310, 20283.00
167.1590, 20632.00
168.3880, 21330.00
169.6160, 21977.00
170.8440, 23050.00
172.0720, 24070.00
173.3000, 24832.00
174.5280, 25749.00
175.7550, 25859.00
176.9820, 26165.00
178.2100, 26281.00
179.4370, 26596.00
180.6630, 26161.00
181.8900, 26225.00
183.1170, 25682.00
184.3430, 25021.00
185.5690, 24673.00
186.7950, 23929.00
188.0210, 23437.00
189.2470, 23042.00
190.4720, 22631.00
191.6970, 22005.00
192.9230, 21821.00
194.1480, 21440.00
195.3730, 21192.00
196.5970, 20592.00
197.8220, 20158.00
199.0460, 19722.00
200.2700, 19362.00
201.4940, 19108.00
202.7180, 18665.00
203.9420, 18278.00
205.1660, 18289.00
206.3890, 18112.00
207.6120, 17943.00
208.8350, 17969.00
210.0580, 17965.00
211.2810, 17925.00
212.5040, 17905.81
213.7260, 17857.00
214.9480, 17809.00
216.1700, 17687.00
217.3920, 17615.00
218.6140, 17668.00
219.8360, 17565.00
221.0570, 17689.00
222.2790, 17613.00
223.5000, 17700.00
224.7210, 17681.00
225.9410, 17626.00
227.1620, 17833.00
228.3820, 17967.00
229.6030, 17944.00
230.8230, 17889.00
232.0430, 17786.00
233.2630, 17876.00
234.4820, 17973.00
235.7020, 17994.00
236.9210, 17980.00
238.1400, 18040.00
239.3590, 18226.00
240.5780, 18180.00
241.7970, 18256.00
243.0150, 18265.00
244.2340, 18256.00
245.4520, 18203.00
246.6700, 18351.00
247.8880, 18291.00
249.1060, 18516.00
250.3230, 18672.00
251.5400, 18679.00
252.7580, 18898.00
253.9750, 18784.00
255.1920, 18945.00
256.4080, 19281.00
257.6250, 19305.00
258.8410, 19329.00
260.0580, 19565.00
261.2740, 19457.00
262.4900, 19379.00
263.7050, 19494.00
264.9210, 19499.00
266.1360, 19378.00
267.3520, 19266.00
268.5670, 19245.00
269.7820, 19514.00
270.9960, 19266.00
272.2110, 19519.00
273.4250, 19289.00
274.6400, 19255.00
275.8540, 19152.00
277.0680, 19307.00
278.2810, 19329.00
279.4950, 19378.00
280.7090, 19276.00
281.9220, 19139.00
283.1350, 19127.00
284.3480, 19091.00
285.5610, 19047.00
286.7730, 19033.00
287.9860, 19009.00
289.1980, 19042.88
290.4100, 19190.00
291.6220, 19145.00
292.8340, 19219.00
294.0460, 19293.00
295.2570, 19286.00
296.4690, 19251.00
297.6800, 19362.00
298.8910, 19490.00
300.1020, 19445.00
301.3120, 19465.00
302.5230, 19579.00
303.7330, 19500.00
304.9440, 19883.00
306.1540, 19682.00
307.3630, 20027.00
308.5730, 19908.00
309.7830, 20103.00
310.9920, 20070.00
312.2010, 20269.00
313.4100, 20250.00
314.6190, 20558.00
315.8280, 20580.00
317.0370, 20765.00
318.2450, 20819.00
319.4530, 20894.00
320.6610, 20956.00
321.8690, 21205.00
323.0770, 21240.00
324.2850, 21274.00
325.4920, 21787.00
326.6990, 21798.00
327.9060, 22931.00
329.1130, 22908.71
330.3200, 23037.00
331.5270, 23064.00
332.7330, 22277.00
333.9390, 21654.00
335.1450, 21866.00
336.3510, 21709.00
337.5570, 21937.00
338.7630, 22048.00
339.9680, 22298.00
341.1740, 22504.00
342.3790, 22598.00
343.5840, 22954.00
344.7890, 23277.00
345.9930, 23443.00
347.1980, 24072.00
348.4020, 24138.00
349.6060, 24548.00
350.8100, 24642.00
352.0140, 25175.00
353.2180, 24788.00
354.4210, 24562.00
355.6250, 24684.00
356.8280, 24020.00
358.0310, 23950.00
359.2340, 23624.00
360.4360, 23335.00
361.6390, 23068.00
362.8410, 22807.00
364.0430, 22581.00
365.2450, 22440.00
366.4470, 22603.00
367.6490, 22564.00
368.8510, 22614.00
370.0520, 22513.00
371.2530, 22795.00
372.4540, 22495.00
373.6550, 22821.00
374.8560, 22659.00
376.0560, 22931.00
377.2570, 22986.00
378.4570, 23064.00
379.6570, 23482.00
380.8570, 23598.00
382.0570, 23749.00
383.2560, 24046.00
384.4560, 24358.00
385.6550, 24651.00
386.8540, 24945.00
388.0530, 25146.00
389.2520, 25053.00
390.4510, 25090.00
391.6490, 24872.00
392.8470, 24601.00
394.0450, 24487.00
395.2430, 24174.00
396.4410, 24138.00
397.6390, 23858.00
398.8360, 23811.00
400.0340, 23755.00
401.2310, 23784.00
402.4280, 23855.00
403.6250, 23843.00
404.8210, 23843.00
406.0180, 24060.00
407.2140, 23929.00
408.4100, 23724.00
409.6060, 23841.00
410.8020, 23677.00
411.9980, 23489.00
413.1930, 23392.00
414.3890, 23172.00
415.5840, 23093.36
416.7790, 22888.00
417.9740, 22959.00
419.1680, 22738.00
420.3630, 22764.00
421.5570, 22737.00
422.7510, 22693.00
423.9450, 22704.00
425.1390, 22671.00
426.3330, 22715.00
427.5270, 22789.00
428.7200, 22881.00
429.9130, 22789.00
431.1060, 22944.00
432.2990, 22909.00
433.4920, 22920.00
434.6840, 22690.00
435.8770, 22909.00
437.0690, 23015.00
438.2610, 23264.00
439.4530, 23142.00
440.6450, 23022.00
441.8360, 23307.00
443.0280, 23284.00
444.2190, 23593.00
445.4100, 23534.00
446.6010, 23541.00
447.7920, 23770.00
448.9820, 23858.00
450.1730, 24041.00
451.3630, 24385.00
452.5530, 24530.00
453.7430, 24762.00
454.9330, 25450.00
456.1230, 25761.00
457.3120, 26496.00
458.5010, 27192.00
459.6910, 27953.00
460.8800, 28998.00
462.0680, 30173.00
463.2570, 30994.00
464.4460, 31861.00
465.6340, 32336.00
466.8220, 31799.00
468.0100, 31006.00
469.1980, 29968.00
470.3860, 28901.00
471.5730, 27884.00
472.7600, 27318.00
473.9480, 26660.00
475.1350, 25975.00
476.3210, 26071.00
477.5080, 25635.00
478.6950, 25310.00
479.8810, 25153.00
481.0670, 25191.00
482.2530, 24919.00
483.4390, 24860.00
484.6250, 24764.00
485.8100, 24831.00
486.9960, 24560.00
488.1810, 24680.00
489.3660, 24429.00
490.5510, 24779.00
491.7360, 24556.00
492.9200, 24626.00
494.1050, 24684.00
495.2890, 24571.00
496.4730, 24797.00
497.6570, 24839.00
498.8400, 24954.00
500.0240, 25164.00
501.2070, 25162.00
502.3910, 25196.00
503.5740, 25295.00
504.7570, 25306.78
505.9400, 25439.00
507.1220, 25372.00
508.3050, 25353.00
509.4870, 25327.00
510.6690, 25395.00
511.8510, 25390.00
513.0330, 25308.00
514.2140, 25327.00
515.3960, 25466.00
516.5770, 25515.00
517.7580, 25372.00
518.9390, 25632.00
520.1200, 25348.00
521.3010, 25779.00
522.4810, 25791.00
523.6610, 25863.00
524.8420, 25859.00
526.0220, 25927.00
527.2010, 26214.00
528.3810, 26261.00
529.5610, 26347.00
530.7400, 26475.98
531.9190, 26579.00
533.0980, 26580.00
534.2770, 26468.00
535.4560, 26411.00
536.6340, 26408.00
537.8120, 26324.00
538.9910, 26400.00
540.1690, 26176.00
541.3460, 26091.00
542.5240, 25679.00
543.7020, 25745.00
544.8790, 25719.00
546.0560, 25461.00
547.2330, 25640.00
548.4100, 25542.00
549.5870, 25537.00
550.7630, 25514.00
551.9400, 25392.00
553.1160, 25449.00
554.2920, 25316.00
555.4680, 25605.00
556.6440, 25685.00
557.8190, 25532.00
558.9950, 25498.00
560.1700, 25627.00
561.3450, 25719.00
562.5200, 25944.00
563.6950, 25949.42
564.8690, 26148.00
566.0440, 26029.00
567.2180, 26097.00
568.3920, 26176.00
569.5660, 26174.00
570.7400, 26331.00
571.9130, 26605.00
573.0870, 26534.00
574.2600, 26678.00
575.4330, 26651.00
576.6060, 26923.00
577.7790, 26939.00
578.9520, 27050.00
580.1240, 27161.00
581.2960, 27239.00
582.4690, 27457.00
583.6410, 27625.00
584.8120, 27673.00
585.9840, 27949.00
587.1560, 27869.00
588.3270, 28231.00
589.4980, 28234.00
590.6690, 28390.00
591.8400, 28501.00
593.0110, 28664.00
594.1810, 29022.00
595.3510, 29223.00
596.5220, 29401.00
597.6920, 29939.00
598.8610, 30250.00
600.0310, 30964.00
601.2010, 31467.00
602.3700, 32239.00
603.5390, 33151.00
604.7080, 34426.00
605.8770, 35975.00
607.0460, 37693.00
608.2140, 39712.00
609.3830, 42037.00
610.5510, 44672.00
611.7190, 47702.00
612.8870, 50023.00
614.0550, 52890.00
615.2220, 54390.00
616.3900, 54562.00
617.5570, 53404.00
618.7240, 50896.00
619.8910, 47467.00
621.0580, 44162.00
622.2240, 40969.00
623.3910, 38643.00
624.5570, 36602.00
625.7230, 34741.00
626.8890, 33638.00
628.0550, 32675.00
629.2200, 31682.00
630.3860, 31045.00
631.5510, 30817.00
632.7160, 29984.00
633.8810, 29761.00
635.0460, 29570.00
636.2100, 29221.00
637.3750, 29393.00
638.5390, 29011.00
639.7030, 28985.00
640.8670, 29042.00
642.0310, 29089.00
643.1950, 29064.00
644.3580, 29175.00
645.5210, 29032.00
646.6850, 29041.00
647.8480, 29007.00
649.0100, 29230.00
650.1730, 29017.00
651.3350, 28772.00
652.4980, 29005.00
653.6600, 28961.00
654.8220, 29022.00
655.9840, 29094.00
657.1450, 28899.00
658.3070, 28918.00
659.4680, 29038.00
660.6300, 28830.00
661.7910, 28777.00
662.9510, 28973.00
664.1120, 28848.00
665.2730, 28993.00
666.4330, 28953.00
667.5930, 29242.00
668.7530, 28895.00
669.9130, 29183.00
671.0730, 28984.00
672.2320, 29096.00
673.3920, 29305.00
674.5510, 29470.00
675.7100, 29306.00
676.8690, 29434.00
678.0280, 29048.00
679.1860, 29393.00
680.3450, 29267.00
681.5030, 29206.00
682.6610, 29406.00
683.8190, 29376.00
684.9770, 29544.00
686.1340, 29652.00
687.2920, 29538.00
688.4490, 29638.83
689.6060, 29799.00
690.7630, 29611.00
691.9200, 29716.00
693.0760, 29661.00
694.2330, 29752.00
695.3890, 29893.00
696.5450, 29827.00
697.7010, 29767.00
698.8570, 29846.00
700.0130, 29851.15
701.1680, 30036.00
702.3230, 29959.00
703.4780, 29936.00
704.6330, 29927.00
705.7880, 30106.00
706.9430, 30192.00
708.0970, 30398.00
709.2520, 30386.00
710.4060, 30351.00
711.5600, 30299.00
712.7140, 30368.00
713.8670, 30698.00
715.0210, 30547.00
716.1740, 30900.00
717.3270, 30751.00
718.4800, 30985.00
719.6330, 31378.00
720.7860, 31271.00
721.9380, 31881.00
723.0910, 32066.00
724.2430, 32664.00
725.3950, 33225.00
726.5470, 33658.00
727.6980, 34351.00
728.8500, 35225.00
730.0010, 35728.00
731.1530, 35794.00
732.3040, 35569.00
733.4550, 35259.00
734.6050, 34711.00
735.7560, 34137.00
736.9060, 33467.00
738.0560, 32896.00
739.2060, 32499.00
740.3560, 31961.00
741.5060, 31660.00
742.6560, 31559.00
743.8050, 31384.00
744.9540, 31368.00
746.1030, 30947.00
747.2520, 31313.00
748.4010, 30999.00
749.5500, 30918.00
750.6980, 31085.00
751.8460, 30852.00
752.9950, 31040.00
754.1420, 30981.00
755.2900, 30834.00
756.4380, 30880.00
757.5850, 30878.00
758.7330, 31014.00
759.8800, 31244.00
761.0270, 31294.00
762.1730, 31241.00
763.3200, 31301.00
764.4670, 31194.00
765.6130, 31180.00
766.7590, 31292.00
767.9050, 31425.00
769.0510, 31413.00
770.1960, 31387.00
771.3420, 31382.00
772.4870, 31235.00
773.6320, 31316.00
774.7770, 31149.00
775.9220, 31440.00
777.0670, 31529.00
778.2110, 31373.00
779.3560, 31451.00
780.5000, 31437.00
781.6440, 31374.00
782.7880, 31471.00
783.9320, 31694.00
785.0750, 31694.00
786.2180, 31721.00
787.3620, 31723.00
788.5050, 31780.00
789.6480, 31745.00
790.7900, 31760.00
791.9330, 31969.00
793.0750, 31872.00
794.2170, 31702.00
795.3590, 31990.00
796.5010, 32036.00
797.6430, 31984.00
798.7850, 32133.00
799.9260, 32207.00
801.0670, 32163.00
802.2080, 32670.00
803.3490, 32489.00
804.4900, 32956.00
805.6310, 32791.00
806.7710, 32811.00
807.9110, 32680.00
809.0510, 32648.34
810.1910, 32850.00
811.3310, 32608.00
812.4710, 32787.00
813.6100, 32837.00
814.7490, 32531.00
815.8880, 32506.00
817.0270, 32627.00
818.1660, 32566.00
819.3050, 32410.00
820.4430, 32654.00
821.5820, 32368.00
822.7200, 32617.00
823.8580, 32630.00
824.9950, 32515.00
826.1330, 32602.00
827.2710, 32474.00
828.4080, 32622.00
829.5450, 32784.00
830.6820, 32756.00
831.8190, 32659.00
832.9560, 32732.00
834.0920, 32646.00
835.2280, 32896.00
836.3650, 33005.00
837.5010, 32639.00
838.6360, 32951.00
839.7720, 32774.00
840.9080, 32888.00
842.0430, 33151.00
843.1780, 32975.00
844.3130, 33038.00
845.4480, 33024.00
846.5830, 33144.00
847.7170, 33298.00
848.8520, 33374.00
849.9860, 33419.00
851.1200, 33127.00
852.2540, 33305.00
853.3870, 33328.00
854.5210, 33579.00
855.6540, 33624.00
856.7880, 33532.00
857.9210, 33829.00
859.0540, 33682.00
860.1860, 33735.00
861.3190, 33830.00
862.4510, 33607.00
863.5840, 34018.00
864.7160, 33928.00
865.8480, 33695.00
866.9790, 34021.00
868.1110, 33723.00
869.2420, 33796.00
870.3740, 33983.00
871.5050, 34082.00
872.6360, 34307.00
873.7660, 33766.00
874.8970, 33522.00
876.0280, 33914.00
877.1580, 33991.00
878.2880, 34103.00
879.4180, 34162.00
880.5480, 34094.96
881.6770, 34314.00
882.8070, 33957.00
883.9360, 34088.00
885.0650, 34161.00
886.1940, 33972.00
887.3230, 34221.00
888.4520, 34425.00
889.5800, 34318.00
890.7090, 34519.00
891.8370, 34780.00
892.9650, 34490.00
894.0930, 34709.00
895.2200, 34923.00
896.3480, 34882.00
897.4750, 34698.00
898.6020, 35369.00
899.7290, 35226.00
900.8560, 35716.00
901.9830, 35812.00
903.1090, 35825.00
904.2360, 35859.00
905.3620, 36181.00
906.4880, 36147.00
907.6140, 36470.00
908.7400, 36627.00
909.8650, 36538.00
910.9900, 36818.00
912.1160, 36915.00
913.2410, 36747.00
914.3660, 36942.00
915.4900, 36928.00
916.6150, 36886.00
917.7390, 36660.00
918.8640, 36786.00
919.9880, 36900.00
921.1120, 36970.00
922.2350, 36999.00
923.3590, 37019.00
924.4820, 37204.00
925.6060, 37042.00
926.7290, 37158.00
927.8520, 37363.00
928.9740, 37319.00
930.0970, 37432.00
931.2190, 37117.00
932.3420, 37205.00
933.4640, 37155.00
934.5860, 37291.00
935.7080, 36957.00
936.8290, 37013.00
937.9510, 36903.00
939.0720, 37053.00
940.1930, 37199.00
941.3140, 36950.00
942.4350, 36890.00
943.5560, 36958.00
944.6760, 36961.00
945.7960, 37012.00
946.9170, 37115.00
948.0370, 37494.00
949.1560, 37364.00
950.2760, 37654.00
951.3960, 37626.00
952.5150, 37458.00
953.6340, 37835.00
954.7530, 37780.00
955.8720, 37752.00
956.9910, 37700.00
958.1090, 37727.00
959.2280, 37731.45
960.3460, 37679.00
961.4640, 37787.00
962.5820, 37748.00
963.6990, 37748.00
964.8170, 37487.00
965.9340, 37637.00
967.0510, 37504.00
968.1690, 37436.00
969.2850, 37691.00
970.4020, 37650.00
971.5190, 37565.00
972.6350, 37622.00
973.7510, 37570.77
974.8670, 37566.00
975.9830, 37600.00
977.0990, 37698.00
978.2150, 37823.00
979.3300, 37684.00
980.4450, 37584.00
981.5600, 37570.00
982.6750, 37637.00
983.7900, 37675.00
984.9050, 37728.50
986.0190, 37677.00
987.1340, 37827.00
988.2480, 37962.00
989.3620, 37936.25
990.4750, 37508.00
991.5890, 37811.00
992.7020, 37808.00
993.8160, 37782.00
994.9290, 37962.00
996.0420, 37876.00
997.1550, 38151.00
998.2670, 38155.00
999.3800, 38336.00
1000.492, 38764.00
1001.604, 38721.00
1002.716, 38890.00
1003.828, 38729.00
1004.940, 38797.00
1006.051, 38564.00
1007.163, 38575.00
1008.274, 38763.00
1009.385, 38659.00
1010.496, 38547.00
1011.606, 38647.00
1012.717, 38744.00
1013.827, 38703.00
1014.937, 38926.00
1016.047, 39130.00
1017.157, 39060.00
1018.267, 38904.00
1019.377, 39310.00
1020.486, 39188.00
1021.595, 39387.00
1022.704, 39275.00
1023.813, 39422.00
1024.922, 39089.00
1026.030, 39008.00
1027.139, 39117.00
1028.247, 39505.00
1029.355, 39279.00
1030.463, 39441.00
1031.571, 39297.00
1032.678, 39483.00
1033.786, 39306.00
1034.893, 39383.00
1036.000, 39462.00
1037.107, 39334.00
1038.214, 39513.00
1039.321, 39413.00
1040.427, 39431.00
1041.533, 39721.00
1042.639, 39510.00
1043.745, 39632.00
1044.851, 39643.00
1045.957, 39675.00
1047.062, 39750.00
1048.168, 40155.00
1049.273, 40037.00
1050.378, 40194.00
1051.482, 40130.00
1052.587, 40221.00
1053.692, 40051.00
1054.796, 40506.00
1055.900, 40527.00
1057.004, 40444.00
1058.108, 40373.00
1059.212, 40158.00
1060.315, 40393.00
1061.418, 40734.00
1062.522, 40649.00
1063.625, 40930.00
1064.728, 40904.00
1065.830, 40804.00
1066.933, 40767.00
1068.035, 40883.00
1069.137, 40881.00
1070.239, 40646.00
1071.341, 40969.00
1072.443, 40865.00
1073.545, 40965.00
1074.646, 41149.00
1075.747, 41000.00
1076.848, 40968.00
1077.949, 41128.00
1079.050, 41093.00
1080.150, 41216.00
1081.251, 41442.00
1082.351, 41296.00
1083.451, 41426.00
1084.551, 41385.00
1085.651, 41564.00
1086.750, 41622.00
1087.850, 41619.00
1088.949, 41614.70
1090.048, 41523.00
1091.147, 41389.00
1092.246, 41547.00
1093.345, 41292.00
1094.443, 41271.00
1095.541, 41483.00
1096.639, 41747.00
1097.737, 41487.00
1098.835, 41456.00
1099.933, 41418.00
1101.030, 41264.00
1102.128, 41753.00
1103.225, 41673.00
1104.322, 41824.00
1105.419, 41549.00
1106.515, 41824.00
1107.612, 41790.00
1108.708, 41811.00
1109.804, 41731.00
1110.900, 41746.00
1111.996, 42094.00
1113.092, 41864.00
1114.187, 42142.00
1115.283, 41870.00
1116.378, 42136.00
1117.473, 42248.00
1118.568, 42074.00
1119.662, 42397.00
1120.757, 42374.00
1121.851, 42524.00
1122.946, 42380.00
1124.040, 42279.00
1125.134, 42456.00
1126.227, 42368.00
1127.321, 42242.00
1128.414, 42209.00
1129.508, 42402.00
1130.601, 42377.75
1131.693, 42379.00
1132.786, 42541.00
1133.879, 42558.00
1134.971, 42591.00
1136.064, 42389.00
1137.156, 42462.00
1138.248, 42577.00
1139.339, 42482.00
1140.431, 42621.00
1141.522, 42673.00
1142.614, 42462.00
1143.705, 42567.00
1144.796, 42626.00
1145.887, 42690.00
1146.977, 42665.00
1148.068, 42783.00
1149.158, 42877.00
1150.248, 42884.00
1151.338, 42426.00
1152.428, 42783.00
1153.518, 42861.00
1154.607, 42799.00
1155.696, 43161.00
1156.785, 42773.00
1157.874, 42922.00
1158.963, 43337.00
1160.052, 42930.00
1161.141, 43250.00
1162.229, 43307.00
1163.317, 43117.00
1164.405, 43184.00
1165.493, 43317.00
1166.581, 43316.00
1167.668, 43570.00
1168.756, 43210.00
1169.843, 43622.00
1170.930, 43695.00
1172.017, 43754.00
1173.103, 43446.00
1174.190, 43707.00
1175.276, 43780.00
1176.363, 43845.00
1177.449, 43828.00
1178.535, 43501.00
1179.620, 43505.00
1180.706, 43710.00
1181.791, 43578.84
1182.877, 43884.00
1183.962, 43695.00
1185.047, 43996.00
1186.131, 44169.00
1187.216, 43906.00
1188.300, 44010.00
1189.385, 44062.00
1190.469, 44057.00
1191.553, 44135.32
1192.637, 44282.00
1193.720, 44238.00
1194.804, 44340.00
1195.887, 44431.00
1196.970, 44614.00
1198.053, 44432.00
1199.136, 44232.00
1200.219, 44407.00
1201.301, 44730.00
1202.383, 44581.00
1203.465, 44591.00
1204.547, 44538.00
1205.629, 44532.00
1206.711, 44404.00
1207.792, 44685.00
1208.874, 44699.00
1209.955, 44597.00
1211.036, 44730.00
1212.117, 44754.07
1213.198, 44733.00
1214.278, 44845.00
1215.359, 44817.00
1216.439, 44669.00
1217.519, 44817.00
1218.599, 44583.00
1219.678, 44594.00
1220.758, 44795.00
1221.837, 44615.00
1222.917, 44903.00
1223.996, 44710.00
1225.075, 44695.00
1226.153, 44644.00
1227.232, 44815.00
1228.310, 44763.00
1229.389, 45161.00
1230.467, 44961.00
1231.545, 45332.00
1232.622, 45099.00
1233.700, 45214.00
1234.777, 45267.00
1235.855, 45259.00
1236.932, 45383.00
1238.009, 45308.00
1239.086, 45450.00
1240.162, 45525.00
1241.239, 45654.00
1242.315, 45668.00
1243.391, 45760.12
1244.467, 45602.00
1245.543, 45884.00
1246.619, 45879.00
1247.694, 45931.00
1248.769, 45729.00
1249.844, 45722.00
1250.919, 46285.00
1251.994, 45950.00
1253.069, 46407.00
1254.144, 45964.00
1255.218, 46330.00
1256.292, 46213.00
1257.366, 46291.00
1258.440, 46197.00
1259.514, 46140.00
1260.587, 46182.00
1261.661, 46162.00
1262.734, 46409.00
1263.807, 46310.00
1264.880, 46479.00
1265.952, 46544.00
1267.025, 46603.00
1268.097, 46467.00
1269.170, 46305.00
1270.242, 46570.00
1271.314, 46235.00
1272.385, 46472.00
1273.457, 46838.00
1274.528, 46633.00
1275.600, 46783.00
1276.671, 46551.00
1277.742, 46706.00
