##NAMES=Inyoite
##RRUFFID=R040161
##IDEAL CHEMISTRY=CaB_3_O_3_(OH)_5_&#183;4H_2_O
##LOCALITY=Kramer deposit, Boron, Kern County, California, USA
##OWNER=RRUFF
##SOURCE=University of Arizona Mineral Museum
##DESCRIPTION=Group of colorless indistinct rounded crystals
##STATUS=The identification of this mineral has been confirmed by X-ray diffraction and chemical analysis
##URL=rruff.info/R040161
##MEASURED CHEMISTRY=Ca_1.00_B_3.00_O_3_(OH)_5_Â·4H_2_O
##PIN_ID=L00113
##ORIENTATION=Laser parallel to b* (0 1 0). Fiducial mark perpendicular to laser is parallel to c [0 0 1]
99.34400, 14625.00
100.5810, 15011.00
101.8190, 15173.00
103.0560, 15678.00
104.2930, 16077.00
105.5290, 16333.00
106.7660, 16817.00
108.0020, 16954.00
109.2390, 17138.00
110.4750, 17315.00
111.7110, 17492.00
112.9460, 17718.00
114.1820, 18060.00
115.4170, 18326.00
116.6530, 18610.00
117.8880, 18854.00
119.1230, 18928.00
120.3580, 19106.00
121.5920, 19093.00
122.8270, 19448.00
124.0610, 19668.00
125.2950, 19703.00
126.5290, 19763.00
127.7630, 19755.00
128.9970, 19661.00
130.2300, 19724.00
131.4640, 19687.12
132.6970, 19637.00
133.9300, 19662.00
135.1630, 19750.00
136.3950, 19692.00
137.6280, 20029.00
138.8600, 20031.00
140.0920, 20449.00
141.3240, 20732.00
142.5560, 21047.00
143.7880, 21216.00
145.0190, 22018.00
146.2510, 22576.00
147.4820, 23174.00
148.7130, 24215.00
149.9440, 25004.00
151.1750, 25194.00
152.4050, 25342.00
153.6360, 24657.00
154.8660, 24346.00
156.0960, 23850.00
157.3260, 23562.00
158.5560, 23451.00
159.7850, 23023.00
161.0150, 22892.00
162.2440, 22583.00
163.4730, 22831.00
164.7020, 22779.00
165.9310, 23209.00
167.1590, 23415.00
168.3880, 24157.00
169.6160, 24743.00
170.8440, 25440.00
172.0720, 26290.00
173.3000, 27155.00
174.5280, 27811.00
175.7550, 28635.00
176.9820, 29360.00
178.2100, 30035.00
179.4370, 30442.00
180.6630, 30462.87
181.8900, 30650.00
183.1170, 29854.00
184.3430, 29048.00
185.5690, 28148.00
186.7950, 27387.00
188.0210, 26670.00
189.2470, 26243.00
190.4720, 25722.00
191.6970, 25302.00
192.9230, 25380.00
194.1480, 25070.00
195.3730, 24664.00
196.5970, 24313.00
197.8220, 23952.00
199.0460, 23709.00
200.2700, 23425.00
201.4940, 23062.00
202.7180, 22958.00
203.9420, 22536.00
205.1660, 22498.00
206.3890, 22321.00
207.6120, 22405.00
208.8350, 22553.00
210.0580, 22391.00
211.2810, 22423.00
212.5040, 22275.00
213.7260, 22035.00
214.9480, 22161.00
216.1700, 22070.00
217.3920, 22092.00
218.6140, 22233.00
219.8360, 21914.00
221.0570, 22258.00
222.2790, 21982.00
223.5000, 22153.00
224.7210, 22193.00
225.9410, 22378.00
227.1620, 22292.00
228.3820, 22257.00
229.6030, 22203.00
230.8230, 22391.00
232.0430, 22485.00
233.2630, 22471.00
234.4820, 22442.00
235.7020, 22442.00
236.9210, 22558.00
238.1400, 22366.00
239.3590, 22610.00
240.5780, 22392.00
241.7970, 22740.00
243.0150, 22656.00
244.2340, 22700.00
245.4520, 22824.00
246.6700, 22805.00
247.8880, 23003.00
249.1060, 23053.00
250.3230, 23252.00
251.5400, 23286.00
252.7580, 23404.00
253.9750, 23569.00
255.1920, 23722.00
256.4080, 23710.00
257.6250, 23952.00
258.8410, 24184.00
260.0580, 24165.00
261.2740, 24358.00
262.4900, 24389.00
263.7050, 24187.00
264.9210, 24263.00
266.1360, 24056.00
267.3520, 24021.00
268.5670, 23901.00
269.7820, 23923.04
270.9960, 23977.00
272.2110, 24030.00
273.4250, 24046.00
274.6400, 24089.00
275.8540, 24044.00
277.0680, 24126.00
278.2810, 24188.00
279.4950, 23963.00
280.7090, 24107.00
281.9220, 24086.00
283.1350, 23987.00
284.3480, 24108.00
285.5610, 23990.00
286.7730, 23940.00
287.9860, 23936.00
289.1980, 23949.50
290.4100, 24270.00
291.6220, 24109.00
292.8340, 24146.00
294.0460, 24303.00
295.2570, 24177.00
296.4690, 24305.00
297.6800, 24406.00
298.8910, 24389.00
300.1020, 24411.00
301.3120, 24515.69
302.5230, 24714.00
303.7330, 24665.00
304.9440, 24930.00
306.1540, 24931.00
307.3630, 25000.00
308.5730, 25008.00
309.7830, 24986.00
310.9920, 25268.00
312.2010, 25534.00
313.4100, 25427.00
314.6190, 25686.00
315.8280, 25753.00
317.0370, 26085.00
318.2450, 25853.00
319.4530, 26448.00
320.6610, 26395.00
321.8690, 26678.00
323.0770, 26831.00
324.2850, 26973.00
325.4920, 27214.00
326.6990, 27415.00
327.9060, 27495.00
329.1130, 27500.45
330.3200, 27345.00
331.5270, 27306.00
332.7330, 27088.00
333.9390, 26894.00
335.1450, 26971.00
336.3510, 26593.00
337.5570, 26738.00
338.7630, 26781.00
339.9680, 26842.00
341.1740, 26954.00
342.3790, 26910.00
343.5840, 26973.00
344.7890, 27387.00
345.9930, 27398.00
347.1980, 27562.00
348.4020, 27785.00
349.6060, 27899.00
350.8100, 28158.00
352.0140, 28015.00
353.2180, 28085.00
354.4210, 28093.00
355.6250, 27908.00
356.8280, 27793.00
358.0310, 27642.00
359.2340, 27461.00
360.4360, 27367.58
361.6390, 27228.00
362.8410, 27144.00
364.0430, 27186.00
365.2450, 27076.00
366.4470, 27084.00
367.6490, 26853.00
368.8510, 27001.00
370.0520, 26995.00
371.2530, 27109.00
372.4540, 27168.00
373.6550, 27418.00
374.8560, 27493.00
376.0560, 27533.00
377.2570, 27680.00
378.4570, 27754.39
379.6570, 27849.73
380.8570, 27968.00
382.0570, 28083.00
383.2560, 28191.00
384.4560, 28390.00
385.6550, 28529.00
386.8540, 28850.00
388.0530, 28725.00
389.2520, 28789.00
390.4510, 28671.00
391.6490, 28596.37
392.8470, 28551.00
394.0450, 28392.00
395.2430, 28301.00
396.4410, 28175.00
397.6390, 28102.00
398.8360, 28301.00
400.0340, 28071.00
401.2310, 28068.00
402.4280, 28333.00
403.6250, 28528.00
404.8210, 28322.00
406.0180, 28472.00
407.2140, 28613.00
408.4100, 28386.00
409.6060, 28489.00
410.8020, 28478.00
411.9980, 28185.00
413.1930, 28073.00
414.3890, 27941.00
415.5840, 27868.00
416.7790, 27836.00
417.9740, 27761.31
419.1680, 28030.00
420.3630, 27765.00
421.5570, 27757.00
422.7510, 27941.00
423.9450, 27823.00
425.1390, 27796.00
426.3330, 27830.00
427.5270, 28024.00
428.7200, 27977.00
429.9130, 27971.00
431.1060, 27711.00
432.2990, 28153.00
433.4920, 27919.00
434.6840, 27923.00
435.8770, 28204.00
437.0690, 28295.00
438.2610, 28373.00
439.4530, 28331.00
440.6450, 28517.00
441.8360, 28493.00
443.0280, 28417.00
444.2190, 28582.00
445.4100, 28442.00
446.6010, 28623.00
447.7920, 28814.00
448.9820, 28554.00
450.1730, 28912.00
451.3630, 29049.00
452.5530, 29271.00
453.7430, 29299.00
454.9330, 29854.00
456.1230, 29997.00
457.3120, 30291.00
458.5010, 30939.00
459.6910, 31265.00
460.8800, 31852.00
462.0680, 32583.00
463.2570, 32886.00
464.4460, 33174.00
465.6340, 33247.69
466.8220, 33277.00
468.0100, 32873.00
469.1980, 32441.00
470.3860, 31867.00
471.5730, 31297.00
472.7600, 30917.00
473.9480, 30615.00
475.1350, 30567.00
476.3210, 30357.00
477.5080, 30233.00
478.6950, 30231.00
479.8810, 30149.00
481.0670, 30071.00
482.2530, 29930.00
483.4390, 29938.00
484.6250, 29915.00
485.8100, 30046.00
486.9960, 29957.00
488.1810, 29935.00
489.3660, 29958.00
490.5510, 29873.00
491.7360, 29917.00
492.9200, 29955.84
494.1050, 30084.00
495.2890, 30085.00
496.4730, 30171.00
497.6570, 30230.00
498.8400, 30484.00
500.0240, 30504.00
501.2070, 30676.00
502.3910, 30753.13
503.5740, 30759.22
504.7570, 30845.00
505.9400, 30831.00
507.1220, 30799.00
508.3050, 30983.00
509.4870, 30963.00
510.6690, 30930.00
511.8510, 31019.00
513.0330, 30948.00
514.2140, 31027.00
515.3960, 31091.00
516.5770, 31247.00
517.7580, 31167.00
518.9390, 31143.00
520.1200, 31545.00
521.3010, 31244.00
522.4810, 31366.00
523.6610, 31257.00
524.8420, 31308.00
526.0220, 31494.00
527.2010, 31651.00
528.3810, 31883.00
529.5610, 31678.00
530.7400, 31656.00
531.9190, 31897.00
533.0980, 31853.00
534.2770, 32004.00
535.4560, 31864.00
536.6340, 31799.00
537.8120, 31612.00
538.9910, 31651.00
540.1690, 31619.00
541.3460, 31627.00
542.5240, 31621.00
543.7020, 31697.00
544.8790, 31674.00
546.0560, 31532.00
547.2330, 31208.00
548.4100, 31495.00
549.5870, 31339.00
550.7630, 31397.00
551.9400, 31402.00
553.1160, 31410.00
554.2920, 31502.00
555.4680, 31770.00
556.6440, 31798.00
557.8190, 32005.00
558.9950, 31775.00
560.1700, 32049.00
561.3450, 31785.00
562.5200, 32018.00
563.6950, 32150.00
564.8690, 32330.00
566.0440, 32355.34
567.2180, 32188.00
568.3920, 32287.00
569.5660, 32415.00
570.7400, 32263.00
571.9130, 32522.00
573.0870, 32763.00
574.2600, 32664.00
575.4330, 32579.00
576.6060, 32595.00
577.7790, 32554.00
578.9520, 32845.00
580.1240, 33024.00
581.2960, 32989.00
582.4690, 33162.00
583.6410, 33290.00
584.8120, 33387.00
585.9840, 33403.00
587.1560, 33567.00
588.3270, 33695.00
589.4980, 33830.00
590.6690, 34165.00
591.8400, 34237.00
593.0110, 34497.90
594.1810, 34597.00
595.3510, 34888.00
596.5220, 35258.00
597.6920, 35355.00
598.8610, 35762.00
600.0310, 36056.00
601.2010, 36608.00
602.3700, 37226.00
603.5390, 38112.00
604.7080, 39125.00
605.8770, 40120.00
607.0460, 41449.00
608.2140, 43335.00
609.3830, 44990.00
610.5510, 47077.00
611.7190, 49088.00
612.8870, 51161.00
614.0550, 52868.00
615.2220, 53898.00
616.3900, 53982.00
617.5570, 52783.00
618.7240, 50796.00
619.8910, 48223.00
621.0580, 45902.00
622.2240, 43747.00
623.3910, 41710.00
624.5570, 40511.00
625.7230, 39162.00
626.8890, 38211.00
628.0550, 37652.00
629.2200, 37120.00
630.3860, 36851.00
631.5510, 36370.00
632.7160, 35892.00
633.8810, 35741.00
635.0460, 35485.00
636.2100, 35410.00
637.3750, 35310.00
638.5390, 35255.00
639.7030, 35230.73
640.8670, 35238.00
642.0310, 35249.00
643.1950, 35285.00
644.3580, 35364.00
645.5210, 35164.00
646.6850, 35399.00
647.8480, 35124.00
649.0100, 35134.00
650.1730, 35437.00
651.3350, 35034.00
652.4980, 35281.00
653.6600, 35225.00
654.8220, 35197.00
655.9840, 35381.00
657.1450, 35385.00
658.3070, 35431.00
659.4680, 35480.00
660.6300, 35435.00
661.7910, 35589.00
662.9510, 35489.00
664.1120, 35402.00
665.2730, 35501.00
666.4330, 35522.00
667.5930, 35343.00
668.7530, 35494.00
669.9130, 35784.00
671.0730, 35596.00
672.2320, 35587.00
673.3920, 35728.00
674.5510, 35700.00
675.7100, 35801.00
676.8690, 35638.00
678.0280, 35693.00
679.1860, 35806.00
680.3450, 36066.00
681.5030, 35723.00
682.6610, 35971.00
683.8190, 36104.00
684.9770, 35999.00
686.1340, 36082.00
687.2920, 36062.00
688.4490, 36147.00
689.6060, 36128.00
690.7630, 36229.00
691.9200, 36180.00
693.0760, 36397.00
694.2330, 36317.00
695.3890, 36305.00
696.5450, 36409.00
697.7010, 36339.00
698.8570, 36710.00
700.0130, 36453.00
701.1680, 36396.00
702.3230, 36913.00
703.4780, 36524.00
704.6330, 36617.00
705.7880, 36827.00
706.9430, 36825.00
708.0970, 36818.00
709.2520, 36484.00
710.4060, 36941.00
711.5600, 36781.00
712.7140, 37102.00
713.8670, 36807.00
715.0210, 36970.00
716.1740, 37060.00
717.3270, 37300.00
718.4800, 37205.00
719.6330, 37694.00
720.7860, 37436.00
721.9380, 38164.00
723.0910, 37931.00
724.2430, 38276.00
725.3950, 38660.00
726.5470, 39184.00
727.6980, 39091.00
728.8500, 39729.00
730.0010, 39976.00
731.1530, 40439.00
732.3040, 40412.00
733.4550, 39766.00
734.6050, 39458.00
735.7560, 39261.00
736.9060, 39013.00
738.0560, 38631.00
739.2060, 38299.00
740.3560, 37733.00
741.5060, 37981.00
742.6560, 37857.00
743.8050, 37970.00
744.9540, 37583.00
746.1030, 37651.00
747.2520, 37573.00
748.4010, 37659.00
749.5500, 37558.00
750.6980, 37646.00
751.8460, 37654.00
752.9950, 37625.00
754.1420, 37637.98
755.2900, 37623.09
756.4380, 37594.00
757.5850, 37635.00
758.7330, 37639.00
759.8800, 37714.00
761.0270, 37614.00
762.1730, 38113.00
763.3200, 37695.00
764.4670, 37989.00
765.6130, 37790.00
766.7590, 37964.00
767.9050, 37981.00
769.0510, 38122.00
770.1960, 37933.00
771.3420, 38019.00
772.4870, 38309.00
773.6320, 38085.00
774.7770, 38253.00
775.9220, 38085.00
777.0670, 38392.00
778.2110, 38120.00
779.3560, 38379.00
780.5000, 38024.00
781.6440, 38032.00
782.7880, 38324.00
783.9320, 38465.00
785.0750, 38380.00
786.2180, 38644.00
787.3620, 38335.00
788.5050, 38529.00
789.6480, 38494.00
790.7900, 38435.00
791.9330, 38853.00
793.0750, 38620.00
794.2170, 38711.00
795.3590, 38877.00
796.5010, 38986.00
797.6430, 38928.00
798.7850, 38820.00
799.9260, 39019.00
801.0670, 39068.00
802.2080, 39046.00
803.3490, 39161.00
804.4900, 39079.00
805.6310, 39407.00
806.7710, 39262.00
807.9110, 39618.00
809.0510, 39388.00
810.1910, 39556.00
811.3310, 39304.00
812.4710, 39444.00
813.6100, 39304.00
814.7490, 39464.00
815.8880, 39385.00
817.0270, 39368.00
818.1660, 39494.00
819.3050, 39426.00
820.4430, 39481.00
821.5820, 39394.00
822.7200, 39426.00
823.8580, 39627.00
824.9950, 39467.00
826.1330, 39577.00
827.2710, 39803.00
828.4080, 39621.00
829.5450, 39623.00
830.6820, 39643.00
831.8190, 39738.00
832.9560, 39802.00
834.0920, 39777.00
835.2280, 39980.00
836.3650, 40027.00
837.5010, 39887.00
838.6360, 40000.31
839.7720, 40152.00
840.9080, 40043.00
842.0430, 40073.00
843.1780, 40186.00
844.3130, 40201.00
845.4480, 40121.00
846.5830, 40223.00
847.7170, 40381.00
848.8520, 40312.00
849.9860, 40745.00
851.1200, 40560.00
852.2540, 40741.00
853.3870, 40658.00
854.5210, 40895.00
855.6540, 40592.00
856.7880, 40687.00
857.9210, 40909.00
859.0540, 40847.00
860.1860, 41186.00
861.3190, 41089.00
862.4510, 41034.00
863.5840, 41062.00
864.7160, 40975.00
865.8480, 41146.00
866.9790, 41076.00
868.1110, 41224.00
869.2420, 41080.00
870.3740, 40917.00
871.5050, 41309.00
872.6360, 41136.00
873.7660, 41365.00
874.8970, 41144.00
876.0280, 41332.00
877.1580, 41323.00
878.2880, 41421.00
879.4180, 41211.00
880.5480, 41581.00
881.6770, 41581.00
882.8070, 41382.00
883.9360, 41539.00
885.0650, 41544.00
886.1940, 41520.00
887.3230, 41766.00
888.4520, 41751.00
889.5800, 41721.00
890.7090, 41646.00
891.8370, 41623.00
892.9650, 41818.00
894.0930, 41948.00
895.2200, 41800.00
896.3480, 42300.00
897.4750, 42170.00
898.6020, 42207.00
899.7290, 42311.00
900.8560, 42349.22
901.9830, 42569.00
903.1090, 42553.00
904.2360, 42930.00
905.3620, 42981.00
906.4880, 43177.00
907.6140, 43223.00
908.7400, 43247.00
909.8650, 43370.00
910.9900, 43422.93
912.1160, 43470.39
913.2410, 43558.00
914.3660, 43599.00
915.4900, 43584.00
916.6150, 43726.00
917.7390, 43738.94
918.8640, 44000.00
919.9880, 43814.00
921.1120, 44110.00
922.2350, 44089.00
923.3590, 44257.00
924.4820, 44610.00
925.6060, 44536.00
926.7290, 44537.00
927.8520, 44626.00
928.9740, 44841.00
930.0970, 44717.00
931.2190, 44654.00
932.3420, 44864.00
933.4640, 44595.00
934.5860, 44599.00
935.7080, 44284.00
936.8290, 44499.00
937.9510, 44579.00
939.0720, 44201.00
940.1930, 44277.00
941.3140, 44428.00
942.4350, 44327.00
943.5560, 44227.00
944.6760, 44547.00
945.7960, 44339.00
946.9170, 44379.00
948.0370, 44444.00
949.1560, 44207.00
950.2760, 44776.00
951.3960, 44458.00
952.5150, 44701.00
953.6340, 44639.00
954.7530, 44808.00
955.8720, 44987.00
956.9910, 44913.00
958.1090, 45055.00
959.2280, 45076.00
960.3460, 44629.00
961.4640, 44686.00
962.5820, 44505.00
963.6990, 44730.00
964.8170, 44880.00
965.9340, 44879.00
967.0510, 44872.00
968.1690, 44788.00
969.2850, 45141.00
970.4020, 45089.00
971.5190, 45217.00
972.6350, 45115.00
973.7510, 45103.00
974.8670, 45067.00
975.9830, 45197.00
977.0990, 45142.00
978.2150, 45270.00
979.3300, 45132.00
980.4450, 45116.00
981.5600, 45413.00
982.6750, 45234.00
983.7900, 45151.00
984.9050, 45196.00
986.0190, 44928.00
987.1340, 45251.00
988.2480, 45253.00
989.3620, 45451.00
990.4750, 45452.00
991.5890, 45420.00
992.7020, 45495.00
993.8160, 45587.00
994.9290, 45550.00
996.0420, 45777.00
997.1550, 45537.00
998.2670, 46098.00
999.3800, 45629.00
1000.492, 45887.00
1001.604, 46245.00
1002.716, 46360.00
1003.828, 45930.00
1004.940, 46142.00
1006.051, 45972.00
1007.163, 45849.00
1008.274, 46271.00
1009.385, 46193.00
1010.496, 46140.00
1011.606, 46296.00
1012.717, 46106.00
1013.827, 46199.00
1014.937, 46004.00
1016.047, 46319.00
1017.157, 46390.00
1018.267, 46662.00
1019.377, 46387.00
1020.486, 46394.00
1021.595, 46569.00
1022.704, 46556.00
1023.813, 46625.00
1024.922, 46731.00
1026.030, 46580.00
1027.139, 46819.00
1028.247, 46672.00
1029.355, 46915.00
1030.463, 46790.00
1031.571, 46948.00
1032.678, 46870.00
1033.786, 46990.00
1034.893, 47056.00
1036.000, 46804.00
1037.107, 47012.00
1038.214, 47155.00
1039.321, 46889.00
1040.427, 47091.00
1041.533, 47267.00
1042.639, 47232.00
1043.745, 47453.00
1044.851, 47318.00
1045.957, 47498.00
1047.062, 47241.00
1048.168, 47355.09
1049.273, 47422.00
1050.378, 47522.00
1051.482, 47574.00
1052.587, 47650.37
1053.692, 47917.00
1054.796, 47758.00
1055.900, 47902.00
1057.004, 47907.29
1058.108, 48230.00
1059.212, 47960.00
1060.315, 48208.00
1061.418, 48159.00
1062.522, 48193.00
1063.625, 48457.00
1064.728, 48253.00
1065.830, 48262.00
1066.933, 48410.00
1068.035, 48483.00
1069.137, 48471.00
1070.239, 48454.00
1071.341, 48381.00
1072.443, 48406.00
1073.545, 48410.70
1074.646, 48431.00
1075.747, 48504.00
1076.848, 48622.00
1077.949, 48738.00
1079.050, 48793.62
1080.150, 48880.04
1081.251, 48896.00
1082.351, 48960.00
1083.451, 48965.00
1084.551, 48916.00
1085.651, 48850.00
1086.750, 48970.00
1087.850, 48849.00
1088.949, 48875.07
1090.048, 49126.00
1091.147, 48876.00
1092.246, 48934.00
1093.345, 48998.00
1094.443, 49164.00
1095.541, 48888.00
1096.639, 48915.00
1097.737, 49065.00
1098.835, 49068.00
1099.933, 49424.00
1101.030, 49234.00
1102.128, 49442.00
1103.225, 49493.00
1104.322, 49200.00
1105.419, 49369.00
1106.515, 49423.00
1107.612, 49484.00
1108.708, 49566.00
1109.804, 49674.00
1110.900, 49624.00
1111.996, 49688.00
1113.092, 49690.00
1114.187, 49628.00
1115.283, 49808.00
1116.378, 49858.00
1117.473, 49858.00
1118.568, 49789.00
1119.662, 50009.00
1120.757, 49998.00
1121.851, 49929.00
1122.946, 50078.27
1124.040, 50136.00
1125.134, 50177.00
1126.227, 50056.00
1127.321, 49996.00
1128.414, 49960.00
1129.508, 50377.00
1130.601, 50055.00
1131.693, 50420.00
1132.786, 50190.00
1133.879, 50515.00
1134.971, 50033.00
1136.064, 50558.00
1137.156, 50357.00
1138.248, 50154.00
1139.339, 50552.00
1140.431, 50159.00
1141.522, 50441.00
1142.614, 50610.00
1143.705, 50388.00
1144.796, 50654.00
1145.887, 50407.00
1146.977, 50759.00
1148.068, 50426.00
1149.158, 50404.00
1150.248, 50791.00
1151.338, 50618.00
1152.428, 50955.00
1153.518, 50801.00
1154.607, 50721.00
1155.696, 50658.00
1156.785, 50778.00
1157.874, 50894.00
1158.963, 51133.00
1160.052, 51059.00
1161.141, 51389.00
1162.229, 50976.00
1163.317, 51258.00
1164.405, 51348.00
1165.493, 51141.00
1166.581, 51510.00
1167.668, 51440.00
1168.756, 51432.00
1169.843, 51320.00
1170.930, 51351.92
1172.017, 51725.00
1173.103, 51460.00
1174.190, 51712.00
1175.276, 51935.00
1176.363, 51640.00
1177.449, 51572.00
1178.535, 51793.00
1179.620, 51783.00
1180.706, 51867.00
1181.791, 52200.00
1182.877, 51787.00
1183.962, 51720.00
1185.047, 51927.00
1186.131, 51947.00
1187.216, 52123.00
1188.300, 52302.00
1189.385, 51926.00
1190.469, 51944.00
1191.553, 51966.00
1192.637, 52158.00
1193.720, 52179.00
1194.804, 52320.00
1195.887, 52306.00
1196.970, 52605.00
1198.053, 52632.00
1199.136, 52680.00
1200.219, 52744.00
1201.301, 52569.00
1202.383, 52637.00
1203.465, 52812.00
1204.547, 52528.00
1205.629, 52727.00
1206.711, 52917.00
1207.792, 52771.00
1208.874, 52693.00
1209.955, 52780.00
1211.036, 52547.00
1212.117, 52876.00
1213.198, 53008.00
1214.278, 53153.00
1215.359, 53094.00
1216.439, 53194.00
1217.519, 53228.52
1218.599, 53000.00
1219.678, 53209.00
1220.758, 53258.00
1221.837, 53048.00
1222.917, 53302.00
1223.996, 53281.00
1225.075, 53063.00
1226.153, 53282.00
1227.232, 53551.00
1228.310, 53333.00
1229.389, 53543.00
1230.467, 53617.00
1231.545, 53344.00
1232.622, 53440.00
1233.700, 53994.00
1234.777, 53668.00
1235.855, 53998.00
1236.932, 53650.00
1238.009, 53741.00
1239.086, 53738.00
1240.162, 53879.00
1241.239, 53929.00
1242.315, 54178.00
1243.391, 54127.00
1244.467, 54428.00
1245.543, 54663.00
1246.619, 54329.00
1247.694, 54235.00
1248.769, 54350.00
1249.844, 54573.00
1250.919, 54507.00
1251.994, 54351.00
1253.069, 54772.00
1254.144, 54656.00
1255.218, 54327.00
1256.292, 54742.00
1257.366, 54586.00
1258.440, 54723.00
1259.514, 54918.00
1260.587, 54793.00
1261.661, 54899.00
1262.734, 54641.00
1263.807, 55121.00
1264.880, 55013.00
1265.952, 54661.00
1267.025, 55164.00
1268.097, 54948.00
1269.170, 55323.00
1270.242, 55002.00
1271.314, 55202.00
1272.385, 55118.00
1273.457, 55185.00
1274.528, 55246.00
1275.600, 54986.00
1276.671, 55507.00
1277.742, 55281.00
