##NAMES=Inyoite
##RRUFFID=R040161
##IDEAL CHEMISTRY=CaB_3_O_3_(OH)_5_&#183;4H_2_O
##LOCALITY=Kramer deposit, Boron, Kern County, California, USA
##OWNER=RRUFF
##SOURCE=University of Arizona Mineral Museum
##DESCRIPTION=Group of colorless indistinct rounded crystals
##STATUS=The identification of this mineral has been confirmed by X-ray diffraction and chemical analysis
##URL=rruff.info/R040161
##MEASURED CHEMISTRY=Ca_1.00_B_3.00_O_3_(OH)_5_Â·4H_2_O
##PIN_ID=L00339
##ORIENTATION=Laser parallel to a* (1 0 0). Fiducial mark perpendicular to laser is parallel to b [0 1 0]
94.39300, 7249.000
95.63100, 7470.000
96.86900, 7728.000
98.10600, 7957.000
99.34400, 8323.000
100.5810, 8734.000
101.8190, 8995.946
103.0560, 9471.000
104.2930, 9615.000
105.5290, 9893.000
106.7660, 10193.00
108.0020, 10265.00
109.2390, 10192.00
110.4750, 10099.00
111.7110, 10190.00
112.9460, 10634.00
114.1820, 10749.00
115.4170, 11054.00
116.6530, 11327.00
117.8880, 11369.00
119.1230, 11298.00
120.3580, 11350.00
121.5920, 11403.00
122.8270, 11580.00
124.0610, 11718.00
125.2950, 11739.00
126.5290, 11823.00
127.7630, 11989.00
128.9970, 12236.00
130.2300, 12475.00
131.4640, 12815.00
132.6970, 13172.00
133.9300, 13279.00
135.1630, 13294.00
136.3950, 12970.00
137.6280, 13221.00
138.8600, 13174.00
140.0920, 13778.00
141.3240, 13963.00
142.5560, 14587.00
143.7880, 14987.00
145.0190, 15647.00
146.2510, 16687.00
147.4820, 17819.00
148.7130, 19023.00
149.9440, 20115.00
151.1750, 20515.00
152.4050, 20027.00
153.6360, 18945.00
154.8660, 17748.00
156.0960, 16593.00
157.3260, 15861.00
158.5560, 15431.00
159.7850, 15246.00
161.0150, 15113.00
162.2440, 15211.00
163.4730, 15468.00
164.7020, 15971.00
165.9310, 16480.00
167.1590, 17244.00
168.3880, 18300.00
169.6160, 19433.00
170.8440, 20767.00
172.0720, 22478.00
173.3000, 23541.00
174.5280, 24453.00
175.7550, 25490.00
176.9820, 26318.00
178.2100, 26945.00
179.4370, 27431.00
180.6630, 27441.00
181.8900, 26888.00
183.1170, 26001.00
184.3430, 24837.00
185.5690, 23969.00
186.7950, 22960.00
188.0210, 22627.00
189.2470, 22509.00
190.4720, 22928.00
191.6970, 23195.00
192.9230, 23247.00
194.1480, 23069.00
195.3730, 22363.00
196.5970, 21665.00
197.8220, 20332.00
199.0460, 19247.00
200.2700, 18143.00
201.4940, 17282.00
202.7180, 16532.00
203.9420, 15964.00
205.1660, 15503.00
206.3890, 15245.00
207.6120, 14940.00
208.8350, 14563.00
210.0580, 14454.00
211.2810, 14273.00
212.5040, 13998.00
213.7260, 13773.00
214.9480, 13657.00
216.1700, 13478.46
217.3920, 13382.00
218.6140, 13277.00
219.8360, 13266.00
221.0570, 13238.00
222.2790, 13143.00
223.5000, 13092.00
224.7210, 13042.00
225.9410, 13005.36
227.1620, 12941.00
228.3820, 12958.00
229.6030, 12978.00
230.8230, 12941.00
232.0430, 12969.54
233.2630, 12983.00
234.4820, 12999.00
235.7020, 13044.00
236.9210, 13084.00
238.1400, 13008.00
239.3590, 13094.00
240.5780, 13075.00
241.7970, 13039.00
243.0150, 13386.00
244.2340, 13325.00
245.4520, 13442.00
246.6700, 13461.00
247.8880, 13959.00
249.1060, 14016.00
250.3230, 14213.00
251.5400, 14346.00
252.7580, 14572.00
253.9750, 14836.00
255.1920, 15092.00
256.4080, 15198.00
257.6250, 15521.00
258.8410, 15571.00
260.0580, 15879.00
261.2740, 15709.00
262.4900, 15621.00
263.7050, 15665.00
264.9210, 15516.00
266.1360, 15653.00
267.3520, 15487.00
268.5670, 15585.00
269.7820, 15328.00
270.9960, 15446.00
272.2110, 15161.00
273.4250, 15083.00
274.6400, 15106.00
275.8540, 14869.00
277.0680, 14813.00
278.2810, 14653.00
279.4950, 14647.00
280.7090, 14473.00
281.9220, 14508.00
283.1350, 14310.00
284.3480, 14344.00
285.5610, 14190.00
286.7730, 14221.00
287.9860, 13951.00
289.1980, 14201.00
290.4100, 14019.00
291.6220, 14162.00
292.8340, 14147.00
294.0460, 14171.00
295.2570, 14293.00
296.4690, 14141.00
297.6800, 14202.00
298.8910, 14217.00
300.1020, 14445.00
301.3120, 14283.00
302.5230, 14523.00
303.7330, 14455.00
304.9440, 14712.00
306.1540, 14927.00
307.3630, 15063.00
308.5730, 15119.00
309.7830, 15596.00
310.9920, 15501.00
312.2010, 15715.00
313.4100, 16149.00
314.6190, 16197.00
315.8280, 16666.00
317.0370, 16976.00
318.2450, 17243.00
319.4530, 17671.00
320.6610, 18187.00
321.8690, 18713.00
323.0770, 19130.00
324.2850, 19444.13
325.4920, 19694.00
326.6990, 19821.00
327.9060, 19889.00
329.1130, 19797.00
330.3200, 19426.00
331.5270, 19285.00
332.7330, 18787.00
333.9390, 18182.00
335.1450, 17815.00
336.3510, 17403.00
337.5570, 17175.00
338.7630, 16920.00
339.9680, 16472.00
341.1740, 16437.00
342.3790, 16176.00
343.5840, 15948.00
344.7890, 15906.00
345.9930, 15691.00
347.1980, 15845.00
348.4020, 15983.00
349.6060, 15865.00
350.8100, 15980.00
352.0140, 15798.00
353.2180, 15866.00
354.4210, 15864.00
355.6250, 15978.00
356.8280, 16039.00
358.0310, 16053.00
359.2340, 16141.07
360.4360, 16234.00
361.6390, 16302.00
362.8410, 16331.00
364.0430, 16512.00
365.2450, 16698.34
366.4470, 17047.00
367.6490, 17255.00
368.8510, 17602.00
370.0520, 18012.00
371.2530, 18158.00
372.4540, 18550.00
373.6550, 18770.00
374.8560, 18911.00
376.0560, 19024.00
377.2570, 19212.00
378.4570, 19111.00
379.6570, 19246.00
380.8570, 19479.00
382.0570, 19883.00
383.2560, 19921.00
384.4560, 20354.00
385.6550, 20650.00
386.8540, 20947.00
388.0530, 21144.13
389.2520, 21413.00
390.4510, 21370.00
391.6490, 21357.00
392.8470, 21344.00
394.0450, 21018.00
395.2430, 20513.00
396.4410, 20226.00
397.6390, 19978.00
398.8360, 20058.00
400.0340, 20017.00
401.2310, 20034.00
402.4280, 20110.00
403.6250, 20286.00
404.8210, 20353.00
406.0180, 20459.00
407.2140, 20488.00
408.4100, 20260.00
409.6060, 20013.00
410.8020, 19590.00
411.9980, 19125.00
413.1930, 18826.00
414.3890, 18437.40
415.5840, 17993.00
416.7790, 17783.00
417.9740, 17509.00
419.1680, 17205.00
420.3630, 17103.00
421.5570, 17092.00
422.7510, 16990.00
423.9450, 16836.00
425.1390, 16733.00
426.3330, 16772.00
427.5270, 16772.00
428.7200, 16672.00
429.9130, 16595.00
431.1060, 16615.00
432.2990, 16597.28
433.4920, 16656.00
434.6840, 16691.00
435.8770, 16704.00
437.0690, 16807.00
438.2610, 16967.00
439.4530, 16743.00
440.6450, 16927.00
441.8360, 17024.00
443.0280, 17196.00
444.2190, 17019.00
445.4100, 17052.00
446.6010, 17306.00
447.7920, 17153.00
448.9820, 17390.00
450.1730, 17377.00
451.3630, 17617.00
452.5530, 18069.00
453.7430, 18272.00
454.9330, 18503.00
456.1230, 18917.00
457.3120, 19467.00
458.5010, 19729.00
459.6910, 20351.00
460.8800, 20859.00
462.0680, 21311.00
463.2570, 21679.00
464.4460, 21740.88
465.6340, 21710.36
466.8220, 21498.00
468.0100, 21141.00
469.1980, 20632.00
470.3860, 20055.65
471.5730, 19478.00
472.7600, 18981.00
473.9480, 18745.00
475.1350, 18322.00
476.3210, 18377.00
477.5080, 18318.00
478.6950, 18001.00
479.8810, 18134.00
481.0670, 18138.00
482.2530, 18124.00
483.4390, 18157.00
484.6250, 18090.00
485.8100, 18055.00
486.9960, 18152.00
488.1810, 18261.00
489.3660, 18387.00
490.5510, 18501.00
491.7360, 18537.00
492.9200, 18536.00
494.1050, 18601.00
495.2890, 18735.00
496.4730, 19091.00
497.6570, 19082.00
498.8400, 19449.00
500.0240, 19524.00
501.2070, 19536.00
502.3910, 19701.00
503.5740, 19625.00
504.7570, 19933.00
505.9400, 19921.00
507.1220, 19926.00
508.3050, 19730.00
509.4870, 19837.00
510.6690, 19786.00
511.8510, 19651.00
513.0330, 19578.00
514.2140, 19594.39
515.3960, 19549.47
516.5770, 19693.00
517.7580, 19678.00
518.9390, 19804.00
520.1200, 19817.98
521.3010, 19726.00
522.4810, 19867.00
523.6610, 19959.00
524.8420, 20022.00
526.0220, 19941.00
527.2010, 20003.00
528.3810, 19741.00
529.5610, 19847.00
530.7400, 19709.00
531.9190, 19806.00
533.0980, 19717.00
534.2770, 19729.00
535.4560, 19542.00
536.6340, 19346.00
537.8120, 19159.00
538.9910, 19272.00
540.1690, 19331.00
541.3460, 19131.00
542.5240, 19135.00
543.7020, 18993.00
544.8790, 19096.00
546.0560, 18901.00
547.2330, 19011.00
548.4100, 18995.00
549.5870, 19090.00
550.7630, 18959.00
551.9400, 19063.00
553.1160, 18989.00
554.2920, 19197.00
555.4680, 19045.00
556.6440, 19262.00
557.8190, 19346.00
558.9950, 19276.00
560.1700, 19399.00
561.3450, 19462.00
562.5200, 19545.00
563.6950, 19604.00
564.8690, 19539.00
566.0440, 19615.00
567.2180, 19753.00
568.3920, 19779.00
569.5660, 19991.00
570.7400, 20002.00
571.9130, 20140.00
573.0870, 20310.00
574.2600, 20337.00
575.4330, 20601.00
576.6060, 20427.00
577.7790, 20613.00
578.9520, 20823.00
580.1240, 20848.00
581.2960, 21043.00
582.4690, 21158.00
583.6410, 21282.60
584.8120, 21460.91
585.9840, 21584.00
587.1560, 21813.00
588.3270, 22005.00
589.4980, 22238.41
590.6690, 22323.00
591.8400, 22715.00
593.0110, 22923.00
594.1810, 23284.00
595.3510, 23759.00
596.5220, 24307.00
597.6920, 24784.00
598.8610, 25388.00
600.0310, 26311.00
601.2010, 27296.00
602.3700, 28462.00
603.5390, 29860.00
604.7080, 31824.00
605.8770, 33719.00
607.0460, 36048.00
608.2140, 38992.00
609.3830, 41861.00
610.5510, 45613.00
611.7190, 48634.00
612.8870, 51769.00
614.0550, 54635.00
615.2220, 55644.00
616.3900, 54808.00
617.5570, 52809.00
618.7240, 49026.00
619.8910, 44633.00
621.0580, 40311.00
622.2240, 36116.00
623.3910, 32908.00
624.5570, 30435.00
625.7230, 28427.00
626.8890, 26826.00
628.0550, 25616.00
629.2200, 24547.00
630.3860, 23893.00
631.5510, 23474.00
632.7160, 22811.00
633.8810, 22436.00
635.0460, 22162.00
636.2100, 22011.00
637.3750, 21784.00
638.5390, 21614.00
639.7030, 21499.00
640.8670, 21427.00
642.0310, 21300.47
643.1950, 21237.63
644.3580, 21117.00
645.5210, 21108.00
646.6850, 21032.00
647.8480, 20978.00
649.0100, 21056.00
650.1730, 21032.00
651.3350, 20977.00
652.4980, 20901.00
653.6600, 20853.64
654.8220, 20815.87
655.9840, 20753.00
657.1450, 20791.00
658.3070, 20810.00
659.4680, 20874.00
660.6300, 20869.69
661.7910, 20863.00
662.9510, 20878.00
664.1120, 20871.00
665.2730, 20879.00
666.4330, 20881.21
667.5930, 20821.00
668.7530, 20879.00
669.9130, 20999.00
671.0730, 20996.34
672.2320, 20986.02
673.3920, 20947.00
674.5510, 20828.00
675.7100, 20832.00
676.8690, 20640.00
678.0280, 20911.00
679.1860, 21040.00
680.3450, 20950.00
681.5030, 21106.00
682.6610, 20952.00
683.8190, 21006.00
684.9770, 21089.00
686.1340, 21113.00
687.2920, 21097.00
688.4490, 21128.00
689.6060, 21184.00
690.7630, 21029.00
691.9200, 21100.00
693.0760, 21304.00
694.2330, 21283.00
695.3890, 21494.00
696.5450, 21312.00
697.7010, 21435.00
698.8570, 21594.00
700.0130, 21371.00
701.1680, 21610.00
702.3230, 21676.00
703.4780, 21598.00
704.6330, 21695.00
705.7880, 21815.00
706.9430, 21887.00
708.0970, 21732.00
709.2520, 21977.00
710.4060, 22022.00
711.5600, 22263.00
712.7140, 22273.00
713.8670, 22528.00
715.0210, 22420.00
716.1740, 22834.00
717.3270, 22930.00
718.4800, 23286.00
719.6330, 23605.00
720.7860, 24180.00
721.9380, 24439.00
723.0910, 24885.00
724.2430, 25643.00
725.3950, 26558.00
726.5470, 27100.00
727.6980, 27817.00
728.8500, 28764.00
730.0010, 29198.00
731.1530, 29318.00
732.3040, 29143.00
733.4550, 28441.00
734.6050, 27724.00
735.7560, 27028.00
736.9060, 25948.00
738.0560, 25163.00
739.2060, 24716.00
740.3560, 24256.00
741.5060, 23786.00
742.6560, 23442.00
743.8050, 23226.00
744.9540, 23108.00
746.1030, 22961.00
747.2520, 22946.00
748.4010, 22795.00
749.5500, 22551.00
750.6980, 22708.00
751.8460, 22712.00
752.9950, 22521.00
754.1420, 22785.00
755.2900, 22682.00
756.4380, 22603.00
757.5850, 22906.00
758.7330, 22680.00
759.8800, 22790.00
761.0270, 22971.00
762.1730, 22814.00
763.3200, 22911.00
764.4670, 22920.00
765.6130, 22810.00
766.7590, 22901.67
767.9050, 22800.00
769.0510, 23002.00
770.1960, 22986.00
771.3420, 23124.00
772.4870, 22809.00
773.6320, 23015.00
774.7770, 22897.00
775.9220, 23029.00
777.0670, 22752.00
778.2110, 22743.00
779.3560, 22816.00
780.5000, 22666.00
781.6440, 22803.00
782.7880, 22763.00
783.9320, 22986.00
785.0750, 22855.00
786.2180, 22715.00
787.3620, 22904.00
788.5050, 22783.00
789.6480, 22933.00
790.7900, 23112.00
791.9330, 22753.00
793.0750, 22833.00
794.2170, 22901.00
795.3590, 22982.00
796.5010, 22976.00
797.6430, 23013.00
798.7850, 23227.00
799.9260, 23255.00
801.0670, 23153.00
802.2080, 23175.00
803.3490, 23419.00
804.4900, 23519.00
805.6310, 23428.00
806.7710, 23529.00
807.9110, 23376.00
809.0510, 23606.00
810.1910, 23724.00
811.3310, 23557.00
812.4710, 23552.00
813.6100, 23521.00
814.7490, 23348.00
815.8880, 23252.00
817.0270, 23526.00
818.1660, 23443.00
819.3050, 23476.00
820.4430, 23578.00
821.5820, 23441.00
822.7200, 23476.00
823.8580, 23471.00
824.9950, 23580.00
826.1330, 23523.00
827.2710, 23544.50
828.4080, 23355.00
829.5450, 23506.00
830.6820, 23600.00
831.8190, 23563.00
832.9560, 23745.00
834.0920, 23670.00
835.2280, 23867.00
836.3650, 23788.00
837.5010, 23933.00
838.6360, 23824.00
839.7720, 23872.00
840.9080, 24050.00
842.0430, 23802.00
843.1780, 23951.00
844.3130, 24042.00
845.4480, 23956.00
846.5830, 24134.00
847.7170, 24227.00
848.8520, 24345.00
849.9860, 24388.34
851.1200, 24417.00
852.2540, 24452.00
853.3870, 24480.00
854.5210, 24572.00
855.6540, 24788.00
856.7880, 24621.00
857.9210, 24633.00
859.0540, 25033.00
860.1860, 24873.00
861.3190, 25141.00
862.4510, 25117.00
863.5840, 25025.00
864.7160, 25399.00
865.8480, 25361.00
866.9790, 25478.00
868.1110, 25419.00
869.2420, 25271.00
870.3740, 25704.00
871.5050, 25607.00
872.6360, 25547.00
873.7660, 25434.00
874.8970, 25645.00
876.0280, 25529.00
877.1580, 25595.00
878.2880, 25458.00
879.4180, 25583.00
880.5480, 25471.00
881.6770, 25404.00
882.8070, 25369.00
883.9360, 25349.43
885.0650, 25549.00
886.1940, 25428.00
887.3230, 25410.00
888.4520, 25558.00
889.5800, 25373.00
890.7090, 25522.00
891.8370, 25485.00
892.9650, 25536.00
894.0930, 25628.00
895.2200, 25613.00
896.3480, 25797.00
897.4750, 25669.00
898.6020, 25503.00
899.7290, 25836.00
900.8560, 25889.00
901.9830, 25881.00
903.1090, 25795.00
904.2360, 25855.00
905.3620, 25777.00
906.4880, 25931.00
907.6140, 26027.00
908.7400, 26033.00
909.8650, 25966.00
910.9900, 26106.00
912.1160, 26341.00
913.2410, 26094.00
914.3660, 26322.00
915.4900, 26310.00
916.6150, 26439.00
917.7390, 26448.00
918.8640, 26545.66
919.9880, 26631.00
921.1120, 26740.00
922.2350, 26944.00
923.3590, 27054.00
924.4820, 27181.00
925.6060, 27317.51
926.7290, 27341.00
927.8520, 27491.00
928.9740, 27506.00
930.0970, 27464.00
931.2190, 27515.00
932.3420, 27580.00
933.4640, 27422.00
934.5860, 27473.00
935.7080, 27299.00
936.8290, 27175.00
937.9510, 26997.00
939.0720, 27013.00
940.1930, 26981.00
941.3140, 27146.00
942.4350, 27043.00
943.5560, 27100.00
944.6760, 27254.00
945.7960, 27130.00
946.9170, 26930.00
948.0370, 27177.00
949.1560, 27162.00
950.2760, 27226.00
951.3960, 27320.00
952.5150, 27321.23
953.6340, 27470.00
954.7530, 27342.00
955.8720, 27299.00
956.9910, 27216.00
958.1090, 27534.00
959.2280, 27365.00
960.3460, 27303.00
961.4640, 27497.00
962.5820, 27285.00
963.6990, 27453.00
964.8170, 27397.00
965.9340, 27297.00
967.0510, 27348.00
968.1690, 27407.00
969.2850, 27256.00
970.4020, 27218.00
971.5190, 27238.00
972.6350, 27351.00
973.7510, 27268.00
974.8670, 27368.00
975.9830, 27350.00
977.0990, 27354.00
978.2150, 27347.00
979.3300, 27364.19
980.4450, 27567.00
981.5600, 27440.00
982.6750, 27540.00
983.7900, 27652.00
984.9050, 27573.00
986.0190, 27691.00
987.1340, 27780.61
988.2480, 27764.00
989.3620, 27925.00
990.4750, 28038.00
991.5890, 27904.00
992.7020, 27859.00
993.8160, 27921.00
994.9290, 27936.00
996.0420, 27936.00
997.1550, 27521.00
998.2670, 28043.00
999.3800, 27803.00
1000.492, 27789.00
1001.604, 28153.00
1002.716, 27985.00
1003.828, 28116.00
1004.940, 28026.00
1006.051, 27901.00
1007.163, 27908.00
1008.274, 27912.30
1009.385, 28069.00
1010.496, 28022.00
1011.606, 28140.00
1012.717, 28187.00
1013.827, 28227.00
1014.937, 28333.00
1016.047, 28250.00
1017.157, 28194.00
1018.267, 28232.00
1019.377, 28271.00
1020.486, 28340.00
1021.595, 28336.00
1022.704, 28287.00
1023.813, 28393.00
1024.922, 28239.00
1026.030, 28470.00
1027.139, 28174.00
1028.247, 28303.00
1029.355, 28064.00
1030.463, 28381.00
1031.571, 28381.00
1032.678, 28379.00
1033.786, 28263.00
1034.893, 28450.00
1036.000, 28362.00
1037.107, 28604.00
1038.214, 28596.00
1039.321, 28481.00
1040.427, 28629.00
1041.533, 28590.00
1042.639, 28656.00
1043.745, 28664.00
1044.851, 28731.00
1045.957, 28840.00
1047.062, 28824.29
1048.168, 28877.34
1049.273, 28800.00
1050.378, 28938.00
1051.482, 28846.00
1052.587, 28938.00
1053.692, 29107.00
1054.796, 29208.00
1055.900, 29061.00
1057.004, 28971.00
1058.108, 29255.00
1059.212, 29342.00
1060.315, 29486.00
1061.418, 29203.00
1062.522, 29516.00
1063.625, 29458.00
1064.728, 29646.00
1065.830, 29622.00
1066.933, 29478.00
1068.035, 29691.00
1069.137, 29476.00
1070.239, 29729.00
1071.341, 29791.00
1072.443, 29579.00
1073.545, 29776.00
1074.646, 29691.00
1075.747, 29558.00
1076.848, 29636.00
1077.949, 29658.00
1079.050, 29803.00
1080.150, 29650.00
1081.251, 29792.00
1082.351, 29935.00
1083.451, 29834.00
1084.551, 29849.00
1085.651, 29719.00
1086.750, 29807.00
1087.850, 29899.00
1088.949, 30094.00
1090.048, 29894.00
1091.147, 30005.00
1092.246, 29973.00
1093.345, 30079.00
1094.443, 29895.00
1095.541, 30277.00
1096.639, 30222.00
1097.737, 30126.00
1098.835, 30495.00
1099.933, 30175.00
1101.030, 30413.00
1102.128, 30304.00
1103.225, 30414.00
1104.322, 30279.00
1105.419, 30478.00
1106.515, 30222.00
1107.612, 30479.00
1108.708, 30311.00
1109.804, 30303.00
1110.900, 30421.00
1111.996, 30512.00
1113.092, 30671.00
1114.187, 30699.87
1115.283, 30577.00
1116.378, 30692.00
1117.473, 30694.00
1118.568, 30511.00
1119.662, 30737.00
1120.757, 30961.00
1121.851, 30770.00
1122.946, 30937.00
1124.040, 30935.00
1125.134, 30999.00
1126.227, 30874.00
1127.321, 30845.00
1128.414, 30898.00
1129.508, 30667.00
1130.601, 30660.00
1131.693, 30743.00
1132.786, 30791.00
1133.879, 30711.00
1134.971, 30790.00
1136.064, 30839.00
1137.156, 30897.00
1138.248, 30886.00
1139.339, 30650.00
1140.431, 30758.00
1141.522, 30702.00
1142.614, 30922.00
1143.705, 30789.00
1144.796, 31107.00
1145.887, 31043.00
1146.977, 30790.00
1148.068, 30944.00
1149.158, 31044.00
1150.248, 31088.00
1151.338, 30943.00
1152.428, 31049.00
1153.518, 31168.00
1154.607, 31144.00
1155.696, 31330.00
1156.785, 31178.00
1157.874, 31078.00
1158.963, 31283.00
1160.052, 31193.00
1161.141, 31460.00
1162.229, 31484.00
1163.317, 31415.00
1164.405, 31457.00
1165.493, 31501.18
1166.581, 31520.21
1167.668, 31591.00
1168.756, 31654.00
1169.843, 31597.00
1170.930, 31710.00
1172.017, 31580.00
1173.103, 31804.00
1174.190, 31905.00
1175.276, 31816.00
1176.363, 32026.00
1177.449, 31967.00
1178.535, 31814.00
1179.620, 31841.00
1180.706, 32048.00
1181.791, 31823.00
1182.877, 31955.00
1183.962, 32101.00
1185.047, 31957.00
1186.131, 31969.00
1187.216, 32107.00
1188.300, 32072.00
1189.385, 32231.00
1190.469, 32455.00
1191.553, 32233.00
1192.637, 32091.00
1193.720, 32098.00
1194.804, 32216.00
1195.887, 32321.00
1196.970, 32323.10
1198.053, 32462.00
1199.136, 32320.00
1200.219, 32461.00
1201.301, 32379.00
1202.383, 32756.00
1203.465, 32690.00
1204.547, 32818.00
1205.629, 32634.00
1206.711, 32620.00
1207.792, 33023.00
1208.874, 32946.00
1209.955, 32917.00
1211.036, 32918.00
1212.117, 32890.00
1213.198, 32948.00
1214.278, 33066.00
1215.359, 33035.00
1216.439, 33105.00
1217.519, 33314.00
1218.599, 33361.00
1219.678, 33289.00
1220.758, 33423.00
1221.837, 33217.00
1222.917, 33212.00
1223.996, 33289.00
1225.075, 33308.00
1226.153, 33408.00
1227.232, 33409.00
1228.310, 33450.00
1229.389, 33403.00
1230.467, 33327.00
1231.545, 33556.00
1232.622, 33385.00
1233.700, 33602.00
1234.777, 33482.00
1235.855, 33546.00
1236.932, 33527.00
1238.009, 33654.00
1239.086, 33626.00
1240.162, 33658.00
1241.239, 33600.00
1242.315, 33838.00
1243.391, 33841.00
1244.467, 33954.00
1245.543, 34032.41
1246.619, 33858.00
1247.694, 34019.00
1248.769, 34117.00
1249.844, 33870.00
1250.919, 33998.00
1251.994, 34044.00
1253.069, 33970.00
1254.144, 34139.00
1255.218, 34349.00
1256.292, 33879.00
1257.366, 34054.00
1258.440, 34050.00
1259.514, 34261.00
1260.587, 34278.00
1261.661, 34299.00
1262.734, 34342.98
1263.807, 34322.87
1264.880, 34234.00
1265.952, 34269.00
1267.025, 34053.00
1268.097, 33960.00
1269.170, 34125.00
1270.242, 34017.00
1271.314, 34207.00
1272.385, 33991.00
1273.457, 34166.00
