##NAMES=Jacobsite
##RRUFFID=R060780
##IDEAL CHEMISTRY=Mn^2+^Fe^3+^_2_O_4_
##LOCALITY=Jakobsberg, Sweden
##OWNER=RRUFF
##SOURCE=Michael Scott
##DESCRIPTION=Black grains
##STATUS=The identification of this mineral is confirmed by single-crystal X-ray diffraction and chemical analysis.
##URL=rruff.info/R060780
##MEASURED CHEMISTRY=(Mn^2+^_0.75_Mg_0.25_)_Σ=1_(Fe^3+^_1.92_Mn^3+^_0.08_)_Σ=2_O_4_
##PIN_ID=M01488
##ORIENTATION=Laser parallel to a* (1 0 0). Fiducial mark perpendicular to laser is parallel to c [0 0 1]
200.2690, 94953.43
201.4910, 94822.21
202.7140, 94882.88
203.9360, 94527.89
205.1580, 94301.32
206.3800, 94490.67
207.6020, 94471.00
208.8240, 94640.00
210.0450, 94284.00
211.2670, 93514.00
212.4880, 93207.00
213.7090, 93521.00
214.9300, 93869.00
216.1510, 93532.00
217.3710, 93707.00
218.5920, 93515.00
219.8120, 93192.00
221.0320, 93126.00
222.2520, 93165.00
223.4720, 93478.00
224.6910, 92738.00
225.9110, 92648.00
227.1300, 92874.00
228.3490, 92068.99
229.5680, 92542.64
230.7870, 92797.16
232.0050, 92844.34
233.2240, 92063.08
234.4420, 92351.56
235.6600, 92211.36
236.8780, 92053.57
238.0960, 92492.61
239.3140, 91831.87
240.5310, 92261.47
241.7490, 92255.81
242.9660, 92449.37
244.1830, 92211.59
245.4000, 92107.02
246.6160, 92433.98
247.8330, 92139.39
249.0490, 92575.87
250.2660, 92809.30
251.4820, 92851.09
252.6980, 92102.58
253.9130, 92393.39
255.1290, 92279.16
256.3440, 92156.20
257.5600, 92616.71
258.7750, 92025.32
259.9900, 92493.09
261.2040, 92549.48
262.4190, 92806.11
263.6330, 92655.09
264.8480, 92640.73
266.0620, 93050.41
267.2760, 93237.96
268.4900, 93071.80
269.7030, 93193.42
270.9170, 93325.63
272.1300, 92629.39
273.3430, 93002.88
274.5560, 92947.66
275.7690, 92874.88
276.9820, 93398.91
278.1940, 92823.12
279.4070, 93337.70
280.6190, 93417.01
281.8310, 93695.50
283.0430, 93542.66
284.2550, 93418.00
285.4660, 93853.00
286.6770, 94388.00
287.8890, 94163.00
289.1000, 94758.00
290.3110, 94589.00
291.5210, 94389.00
292.7320, 94609.00
293.9420, 94946.00
295.1530, 95211.00
296.3630, 94982.00
297.5730, 95671.00
298.7830, 95239.00
299.9920, 95712.00
301.2020, 96761.00
302.4110, 96153.00
303.6200, 96092.00
304.8290, 96532.00
306.0380, 97656.00
307.2470, 97470.00
308.4550, 97462.00
309.6630, 96835.00
310.8720, 97255.00
312.0800, 97432.00
313.2880, 97398.00
314.4950, 98200.00
315.7030, 98299.00
316.9100, 98083.00
318.1170, 98636.00
319.3240, 98369.00
320.5310, 98486.00
321.7380, 98374.00
322.9450, 98178.00
324.1510, 99274.00
325.3570, 99260.00
326.5630, 99219.00
327.7690, 99259.00
328.9750, 99248.60
330.1810, 99241.00
331.3860, 99297.32
332.5910, 99393.56
333.7960, 99467.00
335.0010, 99574.00
336.2060, 99582.70
337.4110, 99399.99
338.6150, 99520.02
339.8200, 99401.00
341.0240, 99566.00
342.2280, 99603.00
343.4320, 99594.00
344.6350, 99634.55
345.8390, 99485.84
347.0420, 99453.00
348.2450, 99217.00
349.4480, 98799.00
350.6510, 98767.00
351.8540, 98388.00
353.0560, 98090.00
354.2590, 98170.00
355.4610, 98239.00
356.6630, 97601.00
357.8650, 97893.00
359.0670, 97741.00
360.2680, 97446.00
361.4700, 97386.00
362.6710, 97191.68
363.8720, 97092.88
365.0730, 97118.00
366.2740, 96839.00
367.4740, 97242.00
368.6750, 96933.00
369.8750, 96916.00
371.0750, 96853.00
372.2750, 97088.00
373.4750, 96896.00
374.6740, 96128.00
375.8740, 96233.00
377.0730, 95963.00
378.2720, 96031.60
379.4710, 96418.46
380.6700, 96601.08
381.8690, 96591.23
383.0670, 95767.90
384.2660, 96029.10
385.4640, 95876.52
386.6620, 95721.23
387.8600, 96177.62
389.0570, 95549.08
390.2550, 96025.71
391.4520, 96081.93
392.6490, 96352.18
393.8460, 96205.93
395.0430, 96207.73
396.2400, 96655.85
397.4370, 96879.89
398.6330, 96743.20
399.8290, 97380.00
401.0250, 96788.00
402.2210, 97107.00
403.4170, 96727.00
404.6130, 96617.00
405.8080, 96901.00
407.0030, 96670.00
408.1980, 97020.00
409.3930, 97535.00
410.5880, 97273.00
411.7830, 97498.00
412.9770, 97628.00
414.1720, 97565.00
415.3660, 98047.00
416.5600, 97838.00
417.7530, 97826.00
418.9470, 98041.00
420.1410, 98283.00
421.3340, 98389.52
422.5270, 98722.00
423.7200, 98798.00
424.9130, 98817.00
426.1060, 99118.00
427.2980, 99252.00
428.4900, 99323.16
429.6830, 99646.00
430.8750, 99492.00
432.0670, 99973.00
433.2580, 100135.0
434.4500, 100151.0
435.6410, 100671.0
436.8320, 100835.0
438.0240, 100703.0
439.2140, 100883.0
440.4050, 100747.0
441.5960, 101220.0
442.7860, 101821.0
443.9760, 101243.0
445.1670, 101645.0
446.3560, 101766.0
447.5460, 102921.0
448.7360, 101962.0
449.9250, 102344.0
451.1150, 103129.0
452.3040, 101714.0
453.4930, 101849.0
454.6810, 102864.0
455.8700, 101907.0
457.0590, 102253.0
458.2470, 102354.0
459.4350, 102376.0
460.6230, 102368.0
461.8110, 102580.0
462.9980, 102166.0
464.1860, 102456.0
465.3730, 103041.0
466.5600, 102560.0
467.7470, 102405.0
468.9340, 102719.0
470.1210, 103220.0
471.3080, 102579.0
472.4940, 102455.0
473.6800, 102669.2
474.8660, 102563.9
476.0520, 103055.0
477.2380, 102916.0
478.4230, 103342.0
479.6090, 103458.0
480.7940, 103644.0
481.9790, 103657.0
483.1640, 104430.0
484.3490, 103274.0
485.5330, 103915.0
486.7180, 104748.0
487.9020, 104126.0
489.0860, 104268.0
490.2700, 104594.0
491.4540, 104888.0
492.6370, 105242.4
493.8210, 105083.4
495.0040, 105153.5
496.1870, 104759.0
497.3700, 105001.0
498.5530, 105058.0
499.7360, 105252.0
500.9180, 105732.0
502.1000, 106208.0
503.2830, 105930.6
504.4650, 105859.0
505.6460, 105685.0
506.8280, 105163.0
508.0100, 105690.0
509.1910, 105800.0
510.3720, 106402.0
511.5530, 106393.0
512.7340, 106049.0
513.9150, 106678.0
515.0950, 106698.0
516.2760, 106653.0
517.4560, 106861.0
518.6360, 107232.0
519.8160, 107152.0
520.9950, 107867.0
522.1750, 107838.0
523.3540, 108524.0
524.5340, 108415.0
525.7130, 108532.0
526.8920, 108655.0
528.0700, 108917.0
529.2490, 109197.0
530.4270, 109320.0
531.6060, 109504.0
532.7840, 109206.6
533.9620, 109832.5
535.1390, 110239.2
536.3170, 110438.7
537.4940, 109809.7
538.6720, 110250.4
539.8490, 110262.4
541.0260, 110256.7
542.2030, 110928.0
543.3790, 111249.0
544.5560, 111822.0
545.7320, 112403.0
546.9080, 112038.0
548.0840, 113049.0
549.2600, 113342.0
550.4360, 113296.0
551.6110, 114514.0
552.7860, 114446.0
553.9620, 114910.0
555.1370, 115101.0
556.3110, 115549.8
557.4860, 115713.0
558.6610, 116594.0
559.8350, 116791.0
561.0090, 117281.0
562.1830, 117350.0
563.3570, 118601.0
564.5310, 119168.0
565.7040, 119518.0
566.8780, 119707.0
568.0510, 120734.0
569.2240, 120859.8
570.3970, 121895.1
571.5700, 122754.4
572.7420, 123446.6
573.9150, 123473.9
575.0870, 124359.9
576.2590, 124901.6
577.4310, 125429.1
578.6030, 126364.0
579.7740, 127441.0
580.9460, 128108.3
582.1170, 128716.0
583.2880, 129607.0
584.4590, 130580.0
585.6300, 131377.0
586.8010, 132179.0
587.9710, 133071.0
589.1410, 134361.0
590.3110, 135725.0
591.4810, 137460.0
592.6510, 139395.0
593.8210, 140551.0
594.9900, 142431.0
596.1600, 143763.0
597.3290, 144908.0
598.4980, 146729.0
599.6670, 148535.0
600.8350, 150233.0
602.0040, 151649.0
603.1720, 153116.0
604.3400, 154355.0
605.5080, 155992.0
606.6760, 157354.0
607.8440, 158427.0
609.0120, 159729.0
610.1790, 160097.0
611.3460, 161084.0
612.5130, 163277.0
613.6800, 163204.0
614.8470, 163672.0
616.0130, 163858.0
617.1800, 163744.0
618.3460, 164192.0
619.5120, 164108.2
620.6780, 163996.5
621.8440, 164040.0
623.0090, 163413.0
624.1750, 163057.0
625.3400, 162324.0
626.5050, 161221.0
627.6700, 160708.0
628.8350, 158902.0
629.9990, 158026.0
631.1640, 156585.0
632.3280, 155829.0
633.4920, 154416.0
634.6560, 152557.0
635.8200, 152077.0
636.9840, 151371.0
638.1470, 149285.0
639.3100, 146783.0
640.4730, 145234.0
641.6360, 143970.0
642.7990, 143282.0
643.9620, 141477.0
645.1240, 139580.0
646.2870, 139593.0
647.4490, 137307.0
648.6110, 136827.0
649.7730, 134912.0
650.9340, 134377.0
652.0960, 133794.0
653.2570, 132129.0
654.4180, 131406.0
655.5790, 130810.0
656.7400, 129531.0
657.9010, 129040.0
659.0620, 128070.0
660.2220, 127702.0
661.3820, 126755.0
662.5420, 125675.0
663.7020, 125574.0
664.8620, 125379.0
666.0210, 124301.0
667.1810, 124071.0
668.3400, 123467.0
669.4990, 122689.0
670.6580, 122664.0
671.8170, 122024.0
672.9750, 121482.0
674.1340, 120716.0
675.2920, 119897.0
676.4500, 119553.0
677.6080, 118985.5
678.7660, 118132.4
679.9230, 118009.6
681.0810, 117710.3
682.2380, 117244.9
683.3950, 116114.0
684.5520, 115842.5
685.7090, 115226.6
686.8660, 115189.0
688.0220, 114943.0
689.1780, 114304.0
690.3340, 113730.0
691.4900, 113226.5
692.6460, 112351.0
693.8020, 111958.0
694.9570, 111319.0
696.1130, 110505.0
697.2680, 110026.0
698.4230, 109204.0
699.5780, 108824.0
700.7320, 108415.0
701.8870, 107983.7
703.0410, 107212.0
704.1950, 107250.0
705.3490, 106393.0
706.5030, 105698.0
707.6570, 105759.0
708.8110, 105346.0
709.9640, 104375.0
711.1170, 104214.0
712.2700, 104243.0
713.4230, 103976.0
714.5760, 103592.0
715.7280, 103185.0
716.8810, 102855.2
718.0330, 102790.0
719.1850, 102167.0
720.3370, 102189.0
721.4890, 101991.0
722.6400, 101372.7
723.7920, 101630.0
724.9430, 101711.3
726.0940, 101626.1
727.2450, 100875.5
728.3960, 100984.2
729.5460, 100748.6
730.6970, 100498.8
731.8470, 100728.5
732.9970, 100158.0
734.1470, 99911.00
735.2970, 100151.0
736.4460, 99886.00
737.5960, 99760.00
738.7450, 99418.00
739.8940, 99798.00
741.0430, 99763.00
742.1920, 99020.00
743.3410, 99393.00
744.4890, 99259.00
745.6370, 98823.00
746.7850, 99734.00
747.9330, 98772.00
749.0810, 98774.00
750.2290, 98749.00
751.3760, 98659.00
752.5240, 98783.00
753.6710, 98778.44
754.8180, 98616.00
755.9650, 98783.00
757.1110, 99040.00
758.2580, 98795.00
759.4040, 98534.00
760.5510, 98175.00
761.6970, 98304.00
762.8420, 98525.00
763.9880, 98453.00
765.1340, 98695.00
766.2790, 98297.00
767.4240, 98335.00
768.5690, 98441.00
769.7140, 98169.00
770.8590, 98369.00
772.0030, 98075.00
773.1480, 98068.00
774.2920, 98021.00
775.4360, 97844.00
776.5800, 97632.00
777.7240, 98602.00
778.8670, 98185.00
780.0110, 98231.00
781.1540, 98126.00
782.2970, 97977.65
783.4400, 97872.00
784.5830, 97847.00
785.7250, 97633.00
786.8680, 97595.00
788.0100, 97987.00
789.1520, 97770.00
790.2940, 97904.00
791.4360, 97768.00
792.5780, 97816.00
793.7190, 97913.00
794.8600, 97706.00
796.0010, 97316.00
797.1420, 97580.00
798.2830, 97182.00
799.4240, 97346.00
800.5640, 97446.00
801.7050, 97559.00
802.8450, 97584.00
803.9850, 97569.00
805.1250, 97823.00
806.2640, 97791.00
807.4040, 97245.00
808.5430, 97865.00
809.6820, 97413.00
810.8210, 97621.00
811.9600, 97570.00
813.0990, 97132.00
814.2370, 97601.00
815.3760, 97802.00
816.5140, 97795.00
817.6520, 97514.00
818.7900, 97595.00
819.9270, 97799.00
821.0650, 97737.00
822.2020, 97134.00
823.3390, 97732.00
824.4760, 97065.00
825.6130, 97671.00
826.7500, 97437.00
827.8870, 96932.00
829.0230, 97409.00
830.1590, 97130.00
831.2950, 96796.00
832.4310, 97380.00
833.5670, 97693.00
834.7030, 97072.00
835.8380, 97768.00
836.9730, 97348.00
838.1080, 97147.00
839.2430, 97376.00
840.3780, 98022.00
841.5130, 98506.00
842.6470, 97467.00
843.7810, 97440.00
844.9150, 97280.00
846.0490, 97572.00
847.1830, 97567.00
848.3170, 97781.00
849.4500, 97564.00
850.5830, 97805.00
851.7160, 97185.00
852.8490, 97506.00
853.9820, 97573.00
855.1150, 97291.00
856.2470, 97632.00
857.3800, 97959.00
858.5120, 98537.00
859.6440, 97407.00
860.7760, 97442.00
861.9070, 97521.00
863.0390, 98072.00
864.1700, 97945.00
865.3010, 97614.00
866.4320, 97499.00
867.5630, 98025.00
868.6940, 97720.00
869.8240, 97963.00
870.9540, 98038.00
872.0850, 97679.00
873.2150, 97895.00
874.3450, 98647.00
875.4740, 98896.00
876.6040, 97653.00
877.7330, 98697.00
878.8620, 98266.76
879.9910, 98095.00
881.1200, 98634.00
882.2490, 98213.00
883.3770, 99053.00
884.5060, 98057.35
885.6340, 98802.91
886.7620, 99231.62
887.8900, 99360.53
889.0180, 98291.67
890.1450, 98769.46
891.2730, 98627.44
892.4000, 98459.98
893.5270, 99155.45
894.6540, 98260.79
895.7810, 98942.59
896.9070, 98474.36
898.0340, 99200.10
899.1600, 99609.01
900.2860, 99718.11
901.4120, 98629.44
902.5380, 99087.44
903.6630, 98925.60
904.7890, 98738.35
905.9140, 99414.04
907.0390, 98499.58
908.1640, 99161.58
909.2890, 99194.29
910.4130, 99515.00
911.5380, 99212.06
912.6620, 99101.74
913.7860, 99615.29
914.9100, 99783.40
916.0340, 99408.66
917.1580, 99747.69
918.2810, 98811.44
919.4040, 98994.26
920.5280, 99659.91
921.6510, 99114.00
922.7730, 98712.00
923.8960, 99155.00
925.0180, 99394.00
926.1410, 99207.00
927.2630, 98950.00
928.3850, 99121.00
929.5070, 99032.03
930.6280, 99484.00
931.7500, 99184.00
932.8710, 99349.00
933.9920, 99470.00
935.1130, 99029.00
936.2340, 99367.00
937.3550, 100033.0
938.4760, 99611.00
939.5960, 99021.71
940.7160, 99819.22
941.8360, 100299.9
942.9560, 100480.8
944.0760, 99463.84
945.1950, 99993.54
946.3150, 99903.46
947.4340, 99787.91
948.5530, 100535.3
949.6720, 99692.52
950.7900, 100426.2
951.9090, 100295.0
953.0270, 99993.00
954.1460, 100432.0
955.2640, 100204.0
956.3820, 100621.0
957.4990, 100358.0
958.6170, 100386.0
959.7340, 100211.0
960.8520, 99768.67
961.9690, 100303.6
963.0860, 100627.3
964.2020, 100751.1
965.3190, 100076.5
966.4350, 100432.9
967.5520, 100376.1
968.6680, 100302.3
969.7840, 100803.9
970.8990, 100245.2
972.0150, 100737.6
973.1310, 100810.5
974.2460, 101075.4
975.3610, 100924.4
976.4760, 100138.2
977.5910, 100835.5
978.7050, 100903.4
979.8200, 100718.0
980.9340, 100322.0
982.0480, 100629.0
983.1620, 100586.0
984.2760, 101186.0
985.3900, 100547.0
986.5030, 100078.4
987.6160, 100586.8
988.7300, 100884.1
989.8430, 100981.4
990.9550, 100280.2
992.0680, 100610.2
993.1810, 100526.9
994.2930, 100426.7
995.4050, 100901.8
996.5170, 100316.7
997.6290, 100782.6
998.7410, 100829.0
999.8520, 101067.4
1000.964, 100890.1
1002.075, 100841.1
1003.186, 101208.1
1004.297, 101344.7
1005.407, 101119.4
1006.518, 101370.0
1007.628, 101771.0
1008.738, 101594.0
1009.848, 101766.0
1010.958, 101583.0
1012.068, 101693.0
1013.178, 101364.0
1014.287, 101664.0
1015.396, 101625.0
1016.505, 101618.0
1017.614, 101722.0
1018.723, 101591.0
1019.831, 101776.0
1020.940, 101881.0
1022.048, 101921.0
1023.156, 101634.0
1024.264, 101988.0
1025.372, 101795.0
1026.479, 102127.0
1027.587, 101404.0
1028.694, 102129.0
1029.801, 101886.0
1030.908, 101680.0
1032.015, 102078.0
1033.121, 101828.0
1034.228, 102230.0
1035.334, 102241.0
1036.440, 102092.0
1037.546, 102780.0
1038.652, 102333.0
1039.758, 103125.0
1040.863, 102328.0
1041.968, 102140.0
1043.074, 102223.0
1044.178, 102726.0
1045.283, 102480.0
1046.388, 103016.0
1047.492, 102874.0
1048.597, 103162.0
1049.701, 102848.0
1050.805, 102740.0
1051.909, 102923.1
1053.012, 103410.0
1054.116, 103026.0
1055.219, 103076.0
1056.322, 102821.0
1057.425, 102726.0
1058.528, 103100.0
1059.631, 102911.0
1060.733, 102986.0
1061.836, 103338.0
1062.938, 103117.0
1064.040, 103183.0
1065.142, 103494.0
1066.243, 103261.4
1067.345, 103541.0
1068.446, 103403.0
1069.547, 103388.0
1070.648, 103400.1
1071.749, 103356.6
1072.850, 103461.0
1073.951, 103390.0
1075.051, 103818.0
1076.151, 103925.0
1077.251, 103368.0
1078.351, 103969.0
1079.451, 103450.0
1080.550, 103590.0
1081.650, 103787.0
1082.749, 103711.0
1083.848, 104200.0
1084.947, 103764.0
1086.046, 104115.0
1087.144, 103411.0
1088.243, 104114.0
1089.341, 104040.0
1090.439, 104085.0
1091.537, 103654.0
1092.635, 104080.0
1093.732, 103818.0
1094.830, 103846.0
1095.927, 103576.0
1097.024, 103682.0
1098.121, 103956.0
1099.218, 104546.0
1100.314, 104399.0
1101.411, 104181.0
1102.507, 104072.0
1103.603, 103589.2
1104.699, 104065.3
1105.795, 104330.2
1106.890, 104395.1
1107.986, 103661.6
1109.081, 103959.2
1110.176, 103843.5
1111.271, 103711.0
1112.366, 104153.7
1113.461, 103536.3
1114.555, 103969.9
1115.649, 103983.9
1116.744, 104190.0
1117.838, 103980.3
1118.931, 103899.0
1120.025, 104233.6
1121.119, 104338.0
1122.212, 104080.4
1123.305, 104298.7
1124.398, 103666.8
1125.491, 103780.9
1126.584, 104217.0
1127.676, 103980.3
1128.768, 104206.2
1129.861, 103749.0
1130.953, 103645.0
1132.044, 103635.0
1133.136, 103630.6
1134.228, 103554.0
1135.319, 103544.0
1136.410, 103419.0
1137.501, 103121.0
1138.592, 103390.0
1139.683, 103935.0
1140.773, 103240.0
1141.864, 103633.0
1142.954, 103450.0
1144.044, 103503.0
1145.134, 103358.0
1146.224, 103712.0
1147.313, 103985.0
1148.402, 103919.0
1149.492, 104157.0
1150.581, 103472.3
1151.670, 103942.1
1152.758, 104200.6
1153.847, 104259.3
1154.935, 103519.4
1156.024, 103810.7
1157.112, 103688.8
1158.200, 103549.9
1159.287, 103986.3
1160.375, 103362.6
1161.462, 103789.8
1162.550, 103797.6
1163.637, 103997.4
1164.724, 103781.3
1165.810, 103693.8
1166.897, 104022.1
1167.983, 104120.1
1169.070, 103856.2
1170.156, 104068.2
1171.242, 103430.0
1172.327, 103537.8
1173.413, 103967.6
1174.499, 103621.0
1175.584, 103743.0
1176.669, 103607.0
1177.754, 103791.0
1178.839, 104194.0
1179.923, 104010.0
1181.008, 104202.0
1182.092, 104106.0
1183.176, 103801.0
1184.260, 104040.0
1185.344, 104012.0
1186.428, 103462.1
1187.511, 103952.6
1188.595, 104232.0
1189.678, 104311.5
1190.761, 103592.4
1191.843, 103904.5
1192.926, 103803.3
1194.009, 103685.2
1195.091, 104142.4
1196.173, 103539.5
1197.255, 103987.6
1198.337, 104016.1
1199.419, 104236.6
1200.500, 103930.0
1201.582, 104298.0
1202.663, 103755.0
1203.744, 103880.0
1204.825, 104235.0
1205.905, 103736.0
1206.986, 103728.1
1208.066, 104190.8
1209.146, 104442.2
1210.226, 104493.7
1211.306, 103746.7
1212.386, 104030.9
1213.466, 103901.8
1214.545, 103755.8
1215.624, 104185.1
1216.703, 103554.3
1217.782, 103974.4
1218.861, 103975.0
1219.939, 104167.7
1221.018, 103944.6
1222.096, 103897.0
1223.174, 103557.4
1224.252, 104041.3
1225.330, 104314.0
1226.407, 104386.8
1227.485, 103661.1
1228.562, 103966.5
1229.639, 103858.6
1230.716, 103733.8
1231.793, 104184.4
1232.869, 103574.8
1233.946, 104016.2
1235.022, 104038.0
1236.098, 104251.9
1237.174, 104050.0
1238.250, 103976.5
1239.325, 103780.0
1240.401, 103818.0
1241.476, 103891.6
1242.551, 104053.0
1243.626, 103884.0
1244.701, 103748.0
1245.776, 103680.0
1246.850, 103847.0
1247.924, 103740.0
1248.999, 103545.5
1250.073, 103387.0
1251.146, 103631.0
1252.220, 103508.4
1253.293, 103439.5
1254.367, 103659.0
1255.440, 103325.0
1256.513, 103507.0
1257.586, 103700.0
1258.658, 103622.4
1259.731, 103500.0
1260.803, 103248.7
1261.875, 103707.2
1262.947, 103954.4
1264.019, 104001.8
1265.091, 103250.6
1266.162, 103530.6
1267.234, 103397.4
1268.305, 103247.2
1269.376, 103672.3
1270.447, 103037.3
1271.517, 103453.3
1272.588, 103449.8
1273.658, 103638.3
1274.729, 103411.0
1275.799, 103312.1
1276.868, 103629.2
1277.938, 103715.9
1279.008, 103440.8
1280.077, 103641.5
1281.146, 102992.1
1282.215, 103088.6
1283.284, 103507.1
1284.353, 103252.9
1285.421, 103461.2
1286.490, 103493.4
1287.558, 102725.0
1288.626, 103348.9
1289.694, 103370.7
1290.762, 102774.2
1291.829, 103350.4
1292.897, 102839.2
1293.964, 102716.1
1295.031, 102885.1
1296.098, 102749.7
1297.165, 103094.3
1298.231, 102976.4
1299.298, 102817.2
1300.364, 102838.3
1301.430, 102348.5
1302.496, 102806.6
1303.562, 102617.2
1304.627, 102749.7
1305.693, 102955.1
1306.758, 102601.9
1307.823, 102840.2
1308.888, 102161.2
1309.953, 102927.0
1311.018, 103031.0
1312.082, 102740.0
1313.146, 102795.5
1314.210, 102920.0
1315.274, 102345.1
1316.338, 102612.0
1317.402, 102230.0
1318.465, 102522.0
1319.529, 102139.0
1320.592, 102281.0
1321.655, 102385.0
1322.718, 102344.0
1323.780, 102389.0
1324.843, 102414.0
1325.905, 101916.0
1326.967, 101989.0
1328.029, 101980.0
1329.091, 102281.0
1330.153, 102089.0
1331.214, 102490.0
1332.275, 102091.0
1333.337, 102170.0
1334.398, 102375.0
1335.458, 102248.0
1336.519, 102025.0
1337.580, 102223.0
1338.640, 102155.0
1339.700, 102620.0
1340.760, 102407.1
1341.820, 102462.5
1342.880, 102377.0
1343.939, 102213.0
1344.999, 102220.1
1346.058, 102337.0
1347.117, 102032.0
1348.176, 102188.0
1349.235, 101954.0
1350.293, 101672.0
1351.351, 102022.0
1352.410, 102223.0
1353.468, 101960.0
1354.526, 101593.0
1355.583, 102288.0
1356.641, 101838.0
1357.698, 102453.0
1358.756, 102198.0
1359.813, 101643.0
1360.869, 102628.0
1361.926, 102375.0
1362.983, 102201.0
1364.039, 101383.0
1365.095, 102252.0
1366.152, 102022.0
1367.207, 101893.0
