##NAMES=Jadeite
##RRUFFID=R050220
##IDEAL CHEMISTRY=NaAlSi_2_O_6_
##LOCALITY=Clear Creek, San Benito County, California, USA
##OWNER=RRUFF
##SOURCE=Hatt Yoder
##DESCRIPTION=Aggregate of colorless bladed crystals
##STATUS=The identification of this mineral has been confirmed by X-ray diffraction and chemical analysis
##URL=rruff.info/R050220
##MEASURED CHEMISTRY=Na_1.00_Al_1.00_(Si_0.99_Al_0.01_)_2_O_6_
##PIN_ID=L01047
##ORIENTATION=Laser parallel to b* (0 1 0). Fiducial mark perpendicular to laser is parallel to c [0 0 1]
105.5290, 9329.000
106.7660, 9966.000
108.0020, 10452.00
109.2390, 10200.00
110.4750, 10018.00
111.7110, 10047.00
112.9460, 10135.00
114.1820, 10614.00
115.4170, 10718.00
116.6530, 10498.00
117.8880, 10533.00
119.1230, 10427.00
120.3580, 10365.00
121.5920, 10406.00
122.8270, 10550.00
124.0610, 10699.00
125.2950, 10713.00
126.5290, 10849.17
127.7630, 10790.00
128.9970, 11049.00
130.2300, 11024.00
131.4640, 11173.00
132.6970, 11153.00
133.9300, 11219.00
135.1630, 11380.00
136.3950, 11613.00
137.6280, 11646.00
138.8600, 11982.00
140.0920, 12455.00
141.3240, 12616.00
142.5560, 13348.00
143.7880, 14301.00
145.0190, 14916.00
146.2510, 14665.00
147.4820, 13847.00
148.7130, 12838.00
149.9440, 12383.00
151.1750, 12115.00
152.4050, 12017.00
153.6360, 11757.00
154.8660, 11690.00
156.0960, 11733.00
157.3260, 11806.00
158.5560, 11799.00
159.7850, 11675.00
161.0150, 11927.00
162.2440, 12030.00
163.4730, 11943.00
164.7020, 12074.00
165.9310, 12040.00
167.1590, 12234.00
168.3880, 12149.00
169.6160, 12143.00
170.8440, 12224.00
172.0720, 12323.00
173.3000, 12263.00
174.5280, 12334.00
175.7550, 12206.00
176.9820, 12176.00
178.2100, 12424.00
179.4370, 12279.00
180.6630, 12340.00
181.8900, 12509.00
183.1170, 12361.00
184.3430, 12594.00
185.5690, 12740.00
186.7950, 12906.00
188.0210, 12934.00
189.2470, 13053.00
190.4720, 13537.00
191.6970, 13693.00
192.9230, 14587.00
194.1480, 15177.00
195.3730, 15476.00
196.5970, 15853.00
197.8220, 17045.00
199.0460, 18573.00
200.2700, 21185.00
201.4940, 24886.00
202.7180, 30267.00
203.9420, 34138.00
205.1660, 32175.00
206.3890, 27794.00
207.6120, 23584.00
208.8350, 19591.00
210.0580, 16576.00
211.2810, 14996.00
212.5040, 14270.00
213.7260, 13847.00
214.9480, 13544.00
216.1700, 13453.00
217.3920, 13405.00
218.6140, 13656.00
219.8360, 13910.00
221.0570, 14144.00
222.2790, 14472.00
223.5000, 14724.00
224.7210, 14584.00
225.9410, 14011.00
227.1620, 13693.00
228.3820, 13380.00
229.6030, 13143.00
230.8230, 12989.00
232.0430, 12898.00
233.2630, 13015.00
234.4820, 12932.00
235.7020, 12966.00
236.9210, 13057.00
238.1400, 12960.00
239.3590, 12973.00
240.5780, 13004.00
241.7970, 13052.00
243.0150, 12931.00
244.2340, 13245.00
245.4520, 13428.00
246.6700, 13535.00
247.8880, 13419.00
249.1060, 13562.00
250.3230, 13776.00
251.5400, 14011.00
252.7580, 14383.00
253.9750, 14907.00
255.1920, 15253.00
256.4080, 15645.00
257.6250, 15267.00
258.8410, 14767.00
260.0580, 14312.00
261.2740, 13902.00
262.4900, 13560.00
263.7050, 13559.00
264.9210, 13647.00
266.1360, 13600.00
267.3520, 13485.00
268.5670, 13559.00
269.7820, 13492.00
270.9960, 13641.00
272.2110, 13775.00
273.4250, 13665.00
274.6400, 13761.00
275.8540, 13880.00
277.0680, 13786.00
278.2810, 14044.00
279.4950, 14120.00
280.7090, 14195.00
281.9220, 14507.00
283.1350, 14537.00
284.3480, 14831.00
285.5610, 15165.00
286.7730, 15383.00
287.9860, 15925.00
289.1980, 16390.00
290.4100, 17000.00
291.6220, 17559.00
292.8340, 17744.00
294.0460, 17888.00
295.2570, 17567.00
296.4690, 16982.00
297.6800, 16498.00
298.8910, 16161.00
300.1020, 15856.92
301.3120, 15649.00
302.5230, 15586.00
303.7330, 15701.00
304.9440, 15839.00
306.1540, 16016.00
307.3630, 16555.00
308.5730, 16788.00
309.7830, 17175.00
310.9920, 17118.00
312.2010, 16857.00
313.4100, 16390.00
314.6190, 16119.00
315.8280, 15617.00
317.0370, 15432.00
318.2450, 15532.00
319.4530, 15289.00
320.6610, 15401.00
321.8690, 15466.00
323.0770, 15691.00
324.2850, 15691.00
325.4920, 16182.00
326.6990, 16722.00
327.9060, 17253.00
329.1130, 17452.00
330.3200, 17405.00
331.5270, 16885.00
332.7330, 16191.00
333.9390, 15544.00
335.1450, 15370.00
336.3510, 15187.00
337.5570, 15040.00
338.7630, 14941.00
339.9680, 14813.00
341.1740, 14843.00
342.3790, 14980.00
343.5840, 14975.00
344.7890, 14926.00
345.9930, 14912.00
347.1980, 14975.00
348.4020, 15008.00
349.6060, 15127.00
350.8100, 15043.00
352.0140, 15099.97
353.2180, 15256.00
354.4210, 15240.00
355.6250, 15167.00
356.8280, 15519.00
358.0310, 15721.00
359.2340, 15790.00
360.4360, 16261.00
361.6390, 16781.00
362.8410, 17428.00
364.0430, 18234.00
365.2450, 18841.00
366.4470, 19963.00
367.6490, 21234.00
368.8510, 22498.00
370.0520, 24456.00
371.2530, 26867.00
372.4540, 29900.00
373.6550, 32912.00
374.8560, 34955.00
376.0560, 34426.00
377.2570, 32515.00
378.4570, 29888.00
379.6570, 26986.00
380.8570, 24955.00
382.0570, 23778.00
383.2560, 23023.00
384.4560, 22582.00
385.6550, 22351.00
386.8540, 21848.00
388.0530, 20832.00
389.2520, 20118.00
390.4510, 19023.00
391.6490, 18256.00
392.8470, 17622.04
394.0450, 16916.00
395.2430, 16552.00
396.4410, 16423.00
397.6390, 16124.00
398.8360, 16134.00
400.0340, 16048.00
401.2310, 15915.00
402.4280, 16031.00
403.6250, 15975.00
404.8210, 16010.00
406.0180, 15938.00
407.2140, 15973.00
408.4100, 15972.00
409.6060, 16013.75
410.8020, 16194.00
411.9980, 16245.00
413.1930, 16409.00
414.3890, 16750.00
415.5840, 16873.00
416.7790, 16883.00
417.9740, 17167.00
419.1680, 17283.00
420.3630, 17287.00
421.5570, 17445.00
422.7510, 17618.00
423.9450, 17767.00
425.1390, 18140.00
426.3330, 18482.00
427.5270, 18759.00
428.7200, 19309.00
429.9130, 19926.00
431.1060, 20495.00
432.2990, 21121.00
433.4920, 21427.00
434.6840, 21532.00
435.8770, 21222.00
437.0690, 20735.00
438.2610, 19965.00
439.4530, 19185.00
440.6450, 18587.00
441.8360, 18254.00
443.0280, 17641.00
444.2190, 17499.00
445.4100, 17017.00
446.6010, 16732.00
447.7920, 16715.00
448.9820, 16786.00
450.1730, 16542.00
451.3630, 16469.00
452.5530, 16436.00
453.7430, 16491.00
454.9330, 16425.00
456.1230, 16168.00
457.3120, 16434.00
458.5010, 16178.00
459.6910, 16285.00
460.8800, 16331.00
462.0680, 16323.00
463.2570, 16512.00
464.4460, 16363.00
465.6340, 16257.00
466.8220, 16398.00
468.0100, 16336.00
469.1980, 16294.00
470.3860, 16520.00
471.5730, 16400.00
472.7600, 16345.00
473.9480, 16346.00
475.1350, 16352.15
476.3210, 16674.00
477.5080, 16530.00
478.6950, 16566.00
479.8810, 16793.00
481.0670, 16638.00
482.2530, 16742.00
483.4390, 16617.00
484.6250, 16821.00
485.8100, 16694.00
486.9960, 16793.00
488.1810, 16969.00
489.3660, 16719.00
490.5510, 16639.00
491.7360, 16778.00
492.9200, 16753.00
494.1050, 16732.00
495.2890, 16630.00
496.4730, 16687.24
497.6570, 16688.16
498.8400, 16747.00
500.0240, 16810.00
501.2070, 16805.00
502.3910, 16926.00
503.5740, 16855.00
504.7570, 17125.00
505.9400, 16973.00
507.1220, 16937.00
508.3050, 17170.00
509.4870, 17262.00
510.6690, 17504.00
511.8510, 17433.00
513.0330, 17661.00
514.2140, 18070.00
515.3960, 18172.00
516.5770, 18505.00
517.7580, 19034.00
518.9390, 19820.00
520.1200, 20399.00
521.3010, 21320.00
522.4810, 22047.00
523.6610, 23209.00
524.8420, 23661.00
526.0220, 23139.00
527.2010, 22254.00
528.3810, 21199.00
529.5610, 20106.00
530.7400, 19291.00
531.9190, 18553.00
533.0980, 18176.00
534.2770, 17883.00
535.4560, 17732.00
536.6340, 17543.00
537.8120, 17444.00
538.9910, 17296.00
540.1690, 17258.20
541.3460, 17386.00
542.5240, 17307.00
543.7020, 17351.00
544.8790, 17363.26
546.0560, 17454.00
547.2330, 17362.00
548.4100, 17375.00
549.5870, 17371.00
550.7630, 17446.00
551.9400, 17473.00
553.1160, 17500.90
554.2920, 17644.00
555.4680, 17591.00
556.6440, 17737.00
557.8190, 17854.00
558.9950, 17891.00
560.1700, 17968.00
561.3450, 17910.00
562.5200, 18078.00
563.6950, 18186.00
564.8690, 18198.00
566.0440, 18618.00
567.2180, 18794.00
568.3920, 18852.00
569.5660, 19648.00
570.7400, 20089.00
571.9130, 20694.00
573.0870, 21481.00
574.2600, 22399.00
575.4330, 22964.00
576.6060, 22779.00
577.7790, 22210.00
578.9520, 21342.00
580.1240, 20394.00
581.2960, 19877.00
582.4690, 19344.00
583.6410, 19037.00
584.8120, 18895.00
585.9840, 18823.00
587.1560, 18750.00
588.3270, 18629.00
589.4980, 18562.96
590.6690, 18492.06
591.8400, 18398.00
593.0110, 18365.00
594.1810, 18290.00
595.3510, 18211.00
596.5220, 18176.00
597.6920, 18080.00
598.8610, 18171.00
600.0310, 17986.00
601.2010, 18120.00
602.3700, 18293.00
603.5390, 18074.00
604.7080, 18038.00
605.8770, 18127.00
607.0460, 18315.00
608.2140, 18242.00
609.3830, 18231.00
610.5510, 18030.00
611.7190, 18092.00
612.8870, 18270.00
614.0550, 18186.00
615.2220, 18214.00
616.3900, 18299.00
617.5570, 18307.00
618.7240, 18196.00
619.8910, 18102.00
621.0580, 18367.00
622.2240, 18270.00
623.3910, 18438.00
624.5570, 18327.00
625.7230, 18261.00
626.8890, 18307.00
628.0550, 18257.00
629.2200, 18385.00
630.3860, 18370.00
631.5510, 18477.00
632.7160, 18428.00
633.8810, 18511.00
635.0460, 18348.00
636.2100, 18344.00
637.3750, 18589.00
638.5390, 18524.00
639.7030, 18678.00
640.8670, 18696.00
642.0310, 18783.00
643.1950, 18753.00
644.3580, 18650.00
645.5210, 18777.00
646.6850, 18735.00
647.8480, 18784.00
649.0100, 18798.00
650.1730, 18774.00
651.3350, 18744.00
652.4980, 18822.00
653.6600, 18987.00
654.8220, 18942.00
655.9840, 19144.00
657.1450, 19101.00
658.3070, 19119.00
659.4680, 19155.00
660.6300, 19257.00
661.7910, 19084.00
662.9510, 19249.00
664.1120, 19314.00
665.2730, 19562.00
666.4330, 19592.44
667.5930, 19502.00
668.7530, 19635.00
669.9130, 19737.00
671.0730, 19594.00
672.2320, 19907.00
673.3920, 20045.00
674.5510, 20140.00
675.7100, 20389.00
676.8690, 20471.00
678.0280, 20564.00
679.1860, 20782.00
680.3450, 20823.00
681.5030, 21249.00
682.6610, 21686.00
683.8190, 21870.00
684.9770, 22651.00
686.1340, 23319.00
687.2920, 24068.00
688.4490, 25074.00
689.6060, 26630.00
690.7630, 28376.00
691.9200, 30815.00
693.0760, 33796.00
694.2330, 37390.00
695.3890, 42193.00
696.5450, 47346.00
697.7010, 53402.00
698.8570, 58380.00
700.0130, 61814.00
701.1680, 62140.00
702.3230, 58129.00
703.4780, 51839.00
704.6330, 45330.00
705.7880, 39453.00
706.9430, 35003.00
708.0970, 31429.00
709.2520, 28888.00
710.4060, 26994.00
711.5600, 25658.00
712.7140, 24555.00
713.8670, 23804.00
715.0210, 23249.00
716.1740, 22863.00
717.3270, 22475.00
718.4800, 22037.00
719.6330, 21875.00
720.7860, 21550.00
721.9380, 21217.00
723.0910, 21316.00
724.2430, 21010.00
725.3950, 21160.00
726.5470, 20872.00
727.6980, 20788.00
728.8500, 20824.00
730.0010, 20715.00
731.1530, 20829.00
732.3040, 20779.00
733.4550, 20863.00
734.6050, 20694.00
735.7560, 20737.00
736.9060, 20750.00
738.0560, 20853.00
739.2060, 20743.00
740.3560, 20703.00
741.5060, 20786.00
742.6560, 20496.00
743.8050, 20527.00
744.9540, 20577.00
746.1030, 20537.00
747.2520, 20789.00
748.4010, 20915.00
749.5500, 20754.00
750.6980, 20651.00
751.8460, 20722.00
752.9950, 20841.00
754.1420, 20645.00
755.2900, 20686.00
756.4380, 20896.00
757.5850, 20819.00
758.7330, 20928.04
759.8800, 20818.00
761.0270, 20990.00
762.1730, 20978.00
763.3200, 20938.00
764.4670, 21030.00
765.6130, 20930.00
766.7590, 20943.00
767.9050, 20993.00
769.0510, 21250.00
770.1960, 21134.00
771.3420, 21248.00
772.4870, 21320.00
773.6320, 21374.00
774.7770, 21384.00
775.9220, 21538.00
777.0670, 21805.00
778.2110, 21896.00
779.3560, 22261.00
780.5000, 21859.00
781.6440, 21995.00
782.7880, 21679.00
783.9320, 21451.00
785.0750, 21189.00
786.2180, 21275.00
787.3620, 21230.00
788.5050, 21183.00
789.6480, 21198.00
790.7900, 21243.00
791.9330, 21175.74
793.0750, 21026.00
794.2170, 21091.00
795.3590, 21096.00
796.5010, 21073.00
797.6430, 21162.00
798.7850, 21289.00
799.9260, 21130.00
801.0670, 21275.00
802.2080, 21173.00
803.3490, 21281.00
804.4900, 21133.00
805.6310, 21278.00
806.7710, 21320.00
807.9110, 21320.00
809.0510, 21133.00
810.1910, 21340.00
811.3310, 21184.00
812.4710, 21101.00
813.6100, 21493.00
814.7490, 21616.00
815.8880, 21466.00
817.0270, 21474.00
818.1660, 21348.00
819.3050, 21698.00
820.4430, 21373.00
821.5820, 21391.00
822.7200, 21667.00
823.8580, 21288.00
824.9950, 21518.00
826.1330, 21667.00
827.2710, 21708.00
828.4080, 21736.66
829.5450, 21745.20
830.6820, 21617.00
831.8190, 21680.00
832.9560, 21603.00
834.0920, 21582.00
835.2280, 21597.00
836.3650, 21556.00
837.5010, 21701.00
838.6360, 21789.00
839.7720, 21844.00
840.9080, 21862.00
842.0430, 21741.00
843.1780, 21780.00
844.3130, 21834.00
845.4480, 22023.00
846.5830, 21750.00
847.7170, 21849.00
848.8520, 22229.00
849.9860, 21973.00
851.1200, 22147.00
852.2540, 22088.00
853.3870, 22046.00
854.5210, 22194.00
855.6540, 22037.00
856.7880, 22094.76
857.9210, 22351.00
859.0540, 22128.00
860.1860, 22203.00
861.3190, 22311.00
862.4510, 22213.00
863.5840, 22426.00
864.7160, 22299.00
865.8480, 22381.00
866.9790, 22463.00
868.1110, 22586.00
869.2420, 22492.00
870.3740, 22613.00
871.5050, 22437.00
872.6360, 22515.00
873.7660, 22493.00
874.8970, 22506.00
876.0280, 22795.00
877.1580, 22577.00
878.2880, 22877.00
879.4180, 22893.00
880.5480, 22827.00
881.6770, 22830.00
882.8070, 22935.00
883.9360, 22944.00
885.0650, 23021.00
886.1940, 23121.00
887.3230, 23021.00
888.4520, 23181.00
889.5800, 22866.00
890.7090, 23110.00
891.8370, 23193.00
892.9650, 23028.00
894.0930, 22797.00
895.2200, 22858.00
896.3480, 22817.00
897.4750, 22772.00
898.6020, 22846.00
899.7290, 22645.00
900.8560, 22956.00
901.9830, 22884.00
903.1090, 22698.00
904.2360, 22825.00
905.3620, 22787.00
906.4880, 22674.00
907.6140, 22949.00
908.7400, 23027.00
909.8650, 23041.00
910.9900, 22920.00
912.1160, 22846.00
913.2410, 22915.18
914.3660, 23105.00
915.4900, 23048.00
916.6150, 23094.00
917.7390, 23162.00
918.8640, 23012.00
919.9880, 22975.00
921.1120, 22941.00
922.2350, 23044.00
923.3590, 22999.00
924.4820, 22912.00
925.6060, 23042.00
926.7290, 23009.49
927.8520, 23173.00
928.9740, 23132.00
930.0970, 23240.00
931.2190, 23395.00
932.3420, 23158.00
933.4640, 23376.00
934.5860, 23180.00
935.7080, 23434.00
936.8290, 23187.00
937.9510, 23407.00
939.0720, 23324.00
940.1930, 23341.00
941.3140, 23186.00
942.4350, 23295.26
943.5560, 23492.00
944.6760, 23462.00
945.7960, 23561.00
946.9170, 23614.00
948.0370, 23563.00
949.1560, 23595.00
950.2760, 23621.00
951.3960, 23643.00
952.5150, 23853.00
953.6340, 23716.00
954.7530, 23678.00
955.8720, 23896.00
956.9910, 23722.00
958.1090, 23730.00
959.2280, 23974.00
960.3460, 24015.00
961.4640, 24099.00
962.5820, 24067.00
963.6990, 24075.00
964.8170, 24093.00
965.9340, 24206.00
967.0510, 24548.00
968.1690, 24404.00
969.2850, 24470.00
970.4020, 24807.00
971.5190, 24744.00
972.6350, 24901.00
973.7510, 25250.00
974.8670, 25542.00
975.9830, 25683.00
977.0990, 26102.00
978.2150, 26341.00
979.3300, 27059.00
980.4450, 27763.00
981.5600, 28539.00
982.6750, 29734.00
983.7900, 31184.00
984.9050, 32220.00
986.0190, 33751.00
987.1340, 34599.00
988.2480, 35389.00
989.3620, 35804.00
990.4750, 36297.00
991.5890, 36443.00
992.7020, 35975.00
993.8160, 35359.00
994.9290, 33711.00
996.0420, 32209.00
997.1550, 30700.00
998.2670, 29390.00
999.3800, 28281.00
1000.492, 27443.00
1001.604, 26707.00
1002.716, 26243.00
1003.828, 26001.00
1004.940, 25845.00
1006.051, 25544.00
1007.163, 25541.00
1008.274, 25406.00
1009.385, 25601.00
1010.496, 25119.00
1011.606, 25288.00
1012.717, 25172.00
1013.827, 25107.00
1014.937, 25275.00
1016.047, 25103.00
1017.157, 25193.00
1018.267, 25296.00
1019.377, 25444.00
1020.486, 25505.77
1021.595, 25618.65
1022.704, 25658.00
1023.813, 25819.00
1024.922, 25896.00
1026.030, 26032.00
1027.139, 26465.00
1028.247, 26414.00
1029.355, 27006.00
1030.463, 27492.00
1031.571, 28232.00
1032.678, 28798.00
1033.786, 29735.00
1034.893, 31092.00
1036.000, 32571.00
1037.107, 34164.00
1038.214, 35872.00
1039.321, 37185.00
1040.427, 37766.00
1041.533, 36848.00
1042.639, 35439.00
1043.745, 33450.00
1044.851, 31668.00
1045.957, 30134.00
1047.062, 28918.00
1048.168, 28252.00
1049.273, 27541.00
1050.378, 27095.00
1051.482, 26771.00
1052.587, 26385.00
1053.692, 26192.15
1054.796, 26327.00
1055.900, 25985.00
1057.004, 25854.00
1058.108, 25988.00
1059.212, 25795.00
1060.315, 25718.00
1061.418, 25697.00
1062.522, 25815.00
1063.625, 25740.00
1064.728, 25629.00
1065.830, 25863.00
1066.933, 26024.00
1068.035, 25568.00
1069.137, 25743.00
1070.239, 25920.00
1071.341, 25743.00
1072.443, 25666.00
1073.545, 25644.00
1074.646, 25748.00
1075.747, 25784.00
1076.848, 25811.00
1077.949, 26019.00
1079.050, 26041.00
1080.150, 26169.00
1081.251, 26142.00
1082.351, 26266.00
1083.451, 26076.00
1084.551, 26026.00
1085.651, 26044.08
1086.750, 25934.00
1087.850, 26048.00
1088.949, 26034.00
1090.048, 26080.00
1091.147, 25908.00
1092.246, 25930.00
1093.345, 25922.00
1094.443, 25933.00
1095.541, 25936.00
1096.639, 26002.00
1097.737, 26062.00
1098.835, 26164.00
1099.933, 26109.00
1101.030, 26126.43
1102.128, 26082.00
1103.225, 26029.00
1104.322, 26079.00
1105.419, 25989.00
1106.515, 26080.00
1107.612, 26143.00
1108.708, 26068.00
1109.804, 25925.00
1110.900, 26201.00
1111.996, 26070.00
1113.092, 26187.00
1114.187, 26416.00
1115.283, 26228.00
1116.378, 26348.00
1117.473, 26570.00
1118.568, 26375.00
1119.662, 26274.00
1120.757, 26421.00
1121.851, 26323.00
1122.946, 26537.00
1124.040, 26696.00
1125.134, 26580.00
1126.227, 26332.00
1127.321, 26410.00
1128.414, 26501.00
1129.508, 26430.00
1130.601, 26660.00
1131.693, 26531.00
1132.786, 26542.00
1133.879, 26422.00
1134.971, 26625.00
1136.064, 26565.00
1137.156, 26654.00
1138.248, 26482.00
1139.339, 26518.00
1140.431, 26658.00
1141.522, 26648.00
1142.614, 26628.00
1143.705, 26688.00
1144.796, 26552.00
1145.887, 26594.00
1146.977, 26603.00
1148.068, 26788.00
1149.158, 26808.00
1150.248, 26883.00
1151.338, 26890.03
1152.428, 26709.00
1153.518, 26772.00
1154.607, 26855.00
1155.696, 26678.00
1156.785, 26993.00
1157.874, 26914.00
1158.963, 27026.00
1160.052, 26990.00
1161.141, 26996.00
1162.229, 26889.00
1163.317, 26967.00
1164.405, 26962.30
1165.493, 27089.00
1166.581, 27058.00
1167.668, 27209.00
1168.756, 27304.00
1169.843, 27288.00
1170.930, 27141.00
1172.017, 27218.00
1173.103, 27244.00
1174.190, 27083.00
1175.276, 27281.00
1176.363, 27207.00
1177.449, 27240.00
1178.535, 27264.00
1179.620, 27181.00
1180.706, 27457.00
1181.791, 27338.00
1182.877, 27223.00
1183.962, 27477.00
1185.047, 27397.00
1186.131, 27365.00
1187.216, 27486.00
1188.300, 27454.00
1189.385, 27452.00
1190.469, 27596.00
1191.553, 27339.00
1192.637, 27461.00
1193.720, 27643.00
1194.804, 27557.00
1195.887, 27670.00
1196.970, 27545.00
1198.053, 27558.00
1199.136, 27684.00
1200.219, 27681.00
1201.301, 27639.00
1202.383, 27673.00
1203.465, 27635.00
1204.547, 27745.00
1205.629, 27902.00
1206.711, 27666.00
1207.792, 27801.00
1208.874, 27766.38
1209.955, 28127.00
1211.036, 27873.00
1212.117, 27743.00
1213.198, 28026.00
1214.278, 27954.00
1215.359, 28007.00
1216.439, 28034.00
1217.519, 27919.00
1218.599, 27965.00
1219.678, 28071.00
1220.758, 28076.00
1221.837, 27987.00
1222.917, 28087.00
1223.996, 28111.00
1225.075, 27975.00
1226.153, 28119.00
1227.232, 28047.00
1228.310, 28111.00
1229.389, 28056.00
1230.467, 28072.00
1231.545, 28118.00
1232.622, 28127.00
1233.700, 28202.00
1234.777, 28212.65
1235.855, 28155.00
1236.932, 28244.00
1238.009, 28250.00
1239.086, 28233.00
1240.162, 28443.00
1241.239, 28120.00
1242.315, 28472.00
1243.391, 28548.00
1244.467, 28408.00
1245.543, 28342.00
1246.619, 28531.00
1247.694, 28282.00
1248.769, 28375.00
1249.844, 28520.00
1250.919, 28475.00
1251.994, 28542.00
1253.069, 28387.00
1254.144, 28731.00
1255.218, 28324.00
1256.292, 28576.00
1257.366, 28409.00
1258.440, 28534.00
1259.514, 28611.00
1260.587, 28596.00
1261.661, 28726.00
1262.734, 28783.00
1263.807, 28689.00
1264.880, 28770.00
1265.952, 28860.00
1267.025, 28808.48
1268.097, 28758.00
1269.170, 28858.00
1270.242, 28791.00
1271.314, 28945.00
1272.385, 28807.00
1273.457, 28812.00
1274.528, 28817.00
1275.600, 29052.00
1276.671, 28783.00
1277.742, 29091.00
1278.812, 28826.00
1279.883, 29000.00
1280.954, 29184.00
1282.024, 28998.00
1283.094, 29239.00
1284.164, 29028.00
1285.234, 28942.00
