##NAMES=Jadeite
##RRUFFID=R050220
##IDEAL CHEMISTRY=NaAlSi_2_O_6_
##LOCALITY=Clear Creek, San Benito County, California, USA
##OWNER=RRUFF
##SOURCE=Hatt Yoder
##DESCRIPTION=Aggregate of colorless bladed crystals
##STATUS=The identification of this mineral has been confirmed by X-ray diffraction and chemical analysis
##URL=rruff.info/R050220
##MEASURED CHEMISTRY=Na_1.00_Al_1.00_(Si_0.99_Al_0.01_)_2_O_6_
##PIN_ID=L00896
##ORIENTATION=Laser parallel to a* (1 0 0). Fiducial mark perpendicular to laser is parallel to b [0 1 0]
112.9460, 5934.000
114.1820, 6006.000
115.4170, 6105.000
116.6530, 6158.916
117.8880, 6125.000
119.1230, 6166.000
120.3580, 6169.000
121.5920, 6095.000
122.8270, 6295.000
124.0610, 6348.000
125.2950, 6406.000
126.5290, 6613.000
127.7630, 6543.000
128.9970, 6600.000
130.2300, 6595.000
131.4640, 6554.000
132.6970, 6544.000
133.9300, 6519.000
135.1630, 6565.000
136.3950, 6547.000
137.6280, 6610.000
138.8600, 6759.000
140.0920, 6779.000
141.3240, 7030.000
142.5560, 7032.000
143.7880, 7283.000
145.0190, 7393.000
146.2510, 7122.000
147.4820, 7067.000
148.7130, 6903.000
149.9440, 6918.000
151.1750, 6740.000
152.4050, 6782.000
153.6360, 6724.000
154.8660, 6729.000
156.0960, 6774.000
157.3260, 6709.000
158.5560, 6758.000
159.7850, 6669.000
161.0150, 6686.000
162.2440, 6776.000
163.4730, 6846.000
164.7020, 6796.000
165.9310, 6857.000
167.1590, 6887.000
168.3880, 6812.000
169.6160, 6899.000
170.8440, 6929.000
172.0720, 6904.000
173.3000, 6895.000
174.5280, 6896.000
175.7550, 7018.000
176.9820, 6935.000
178.2100, 6955.000
179.4370, 6909.000
180.6630, 7026.000
181.8900, 7115.000
183.1170, 7038.000
184.3430, 7326.000
185.5690, 7200.000
186.7950, 7354.000
188.0210, 7640.000
189.2470, 7750.000
190.4720, 8142.000
191.6970, 8614.000
192.9230, 8928.000
194.1480, 9410.000
195.3730, 9699.000
196.5970, 10048.00
197.8220, 10655.00
199.0460, 11476.00
200.2700, 12765.00
201.4940, 14470.00
202.7180, 16182.00
203.9420, 17108.00
205.1660, 17140.00
206.3890, 16191.00
207.6120, 14446.00
208.8350, 12282.00
210.0580, 10622.00
211.2810, 9164.000
212.5040, 8379.000
213.7260, 7960.000
214.9480, 7808.000
216.1700, 7668.000
217.3920, 7694.000
218.6140, 7734.000
219.8360, 7824.000
221.0570, 8072.000
222.2790, 8133.000
223.5000, 8092.000
224.7210, 7967.000
225.9410, 7980.000
227.1620, 7745.000
228.3820, 7589.000
229.6030, 7393.000
230.8230, 7469.000
232.0430, 7427.000
233.2630, 7348.000
234.4820, 7465.000
235.7020, 7345.000
236.9210, 7446.000
238.1400, 7399.000
239.3590, 7437.000
240.5780, 7451.000
241.7970, 7412.000
243.0150, 7628.000
244.2340, 7736.000
245.4520, 7897.000
246.6700, 8234.000
247.8880, 8357.000
249.1060, 8559.000
250.3230, 8971.000
251.5400, 9566.000
252.7580, 10036.00
253.9750, 10738.00
255.1920, 11159.00
256.4080, 11260.00
257.6250, 10780.00
258.8410, 10221.00
260.0580, 9180.000
261.2740, 8482.000
262.4900, 8188.000
263.7050, 7828.000
264.9210, 7811.000
266.1360, 7647.000
267.3520, 7621.000
268.5670, 7698.000
269.7820, 7710.000
270.9960, 7689.000
272.2110, 7805.000
273.4250, 7647.000
274.6400, 7799.000
275.8540, 7826.000
277.0680, 7919.000
278.2810, 7954.000
279.4950, 8130.000
280.7090, 8164.000
281.9220, 8336.604
283.1350, 8546.156
284.3480, 8727.000
285.5610, 9065.000
286.7730, 9397.000
287.9860, 9766.000
289.1980, 10191.00
290.4100, 10589.00
291.6220, 10907.00
292.8340, 11070.00
294.0460, 11220.00
295.2570, 11145.00
296.4690, 11000.00
297.6800, 10976.00
298.8910, 10797.00
300.1020, 10700.00
301.3120, 10754.00
302.5230, 10947.00
303.7330, 11233.00
304.9440, 11717.00
306.1540, 12137.00
307.3630, 12916.00
308.5730, 13468.00
309.7830, 13806.00
310.9920, 13935.00
312.2010, 13659.00
313.4100, 13092.00
314.6190, 12924.00
315.8280, 12490.00
317.0370, 12515.00
318.2450, 12953.00
319.4530, 13793.00
320.6610, 14872.00
321.8690, 16115.00
323.0770, 17279.00
324.2850, 19484.00
325.4920, 22145.00
326.6990, 24249.00
327.9060, 26221.00
329.1130, 26014.00
330.3200, 24591.00
331.5270, 21747.00
332.7330, 18514.00
333.9390, 15486.00
335.1450, 13319.00
336.3510, 11746.00
337.5570, 10831.00
338.7630, 10199.00
339.9680, 9825.000
341.1740, 9494.000
342.3790, 9496.000
343.5840, 9239.000
344.7890, 9172.000
345.9930, 9159.000
347.1980, 9110.000
348.4020, 9137.000
349.6060, 9192.000
350.8100, 9294.000
352.0140, 9521.000
353.2180, 9540.000
354.4210, 9718.000
355.6250, 10073.00
356.8280, 10361.00
358.0310, 10870.00
359.2340, 11716.00
360.4360, 12556.00
361.6390, 14046.00
362.8410, 15880.00
364.0430, 18116.00
365.2450, 21050.00
366.4470, 24500.00
367.6490, 27946.00
368.8510, 32616.00
370.0520, 37693.00
371.2530, 44018.00
372.4540, 50388.00
373.6550, 54707.00
374.8560, 56270.00
376.0560, 55151.00
377.2570, 51313.00
378.4570, 46446.00
379.6570, 41835.00
380.8570, 38372.00
382.0570, 36524.00
383.2560, 35317.00
384.4560, 34309.00
385.6550, 32945.00
386.8540, 30619.00
388.0530, 27055.00
389.2520, 23690.00
390.4510, 20399.00
391.6490, 17516.00
392.8470, 15632.00
394.0450, 13711.00
395.2430, 12626.00
396.4410, 11980.00
397.6390, 11387.00
398.8360, 11000.00
400.0340, 10716.00
401.2310, 10471.00
402.4280, 10285.00
403.6250, 10134.97
404.8210, 10020.40
406.0180, 9973.000
407.2140, 9929.000
408.4100, 9948.000
409.6060, 10025.00
410.8020, 10063.00
411.9980, 10133.00
413.1930, 10238.00
414.3890, 10299.00
415.5840, 10334.00
416.7790, 10527.00
417.9740, 10558.00
419.1680, 10722.00
420.3630, 10987.00
421.5570, 11139.00
422.7510, 11474.32
423.9450, 11850.58
425.1390, 12195.00
426.3330, 12706.00
427.5270, 13185.00
428.7200, 13586.00
429.9130, 14333.00
431.1060, 14695.00
432.2990, 15042.00
433.4920, 15029.82
434.6840, 14914.00
435.8770, 14450.00
437.0690, 13844.00
438.2610, 13106.00
439.4530, 12386.00
440.6450, 11715.00
441.8360, 11257.00
443.0280, 10719.00
444.2190, 10491.00
445.4100, 10050.00
446.6010, 9900.000
447.7920, 9784.000
448.9820, 9709.000
450.1730, 9563.000
451.3630, 9329.000
452.5530, 9400.000
453.7430, 9213.000
454.9330, 9243.000
456.1230, 9259.000
457.3120, 9329.000
458.5010, 9208.000
459.6910, 9230.000
460.8800, 9192.000
462.0680, 9195.000
463.2570, 9147.000
464.4460, 9107.000
465.6340, 9089.000
466.8220, 9044.000
468.0100, 9124.000
469.1980, 9163.000
470.3860, 9167.000
471.5730, 9136.000
472.7600, 9279.000
473.9480, 9092.000
475.1350, 9072.000
476.3210, 9195.000
477.5080, 9296.000
478.6950, 9199.000
479.8810, 9224.000
481.0670, 9232.000
482.2530, 9297.000
483.4390, 9287.000
484.6250, 9356.000
485.8100, 9308.000
486.9960, 9337.000
488.1810, 9280.000
489.3660, 9288.000
490.5510, 9259.000
491.7360, 9352.000
492.9200, 9361.000
494.1050, 9183.000
495.2890, 9322.000
496.4730, 9306.000
497.6570, 9418.000
498.8400, 9392.000
500.0240, 9391.000
501.2070, 9303.000
502.3910, 9440.000
503.5740, 9426.000
504.7570, 9497.000
505.9400, 9558.000
507.1220, 9579.000
508.3050, 9677.000
509.4870, 9790.429
510.6690, 9934.000
511.8510, 10094.00
513.0330, 10329.00
514.2140, 10538.00
515.3960, 10892.00
516.5770, 11340.00
517.7580, 11836.00
518.9390, 12469.00
520.1200, 12805.00
521.3010, 13571.00
522.4810, 14091.00
523.6610, 14545.00
524.8420, 14516.00
526.0220, 14027.00
527.2010, 13471.00
528.3810, 12640.00
529.5610, 11871.00
530.7400, 11165.00
531.9190, 10695.00
533.0980, 10419.00
534.2770, 10148.00
535.4560, 9881.000
536.6340, 10026.00
537.8120, 9944.000
538.9910, 9864.000
540.1690, 9673.000
541.3460, 9653.000
542.5240, 9706.000
543.7020, 9712.000
544.8790, 9774.000
546.0560, 9710.000
547.2330, 9653.000
548.4100, 9797.000
549.5870, 9659.000
550.7630, 9824.000
551.9400, 9820.000
553.1160, 9958.000
554.2920, 9942.000
555.4680, 10005.00
556.6440, 10085.00
557.8190, 10213.00
558.9950, 10212.00
560.1700, 10200.00
561.3450, 10164.00
562.5200, 10135.00
563.6950, 10146.00
564.8690, 10144.00
566.0440, 10244.00
567.2180, 10160.00
568.3920, 10030.00
569.5660, 10121.00
570.7400, 10182.00
571.9130, 10300.00
573.0870, 10415.00
574.2600, 10485.00
575.4330, 10486.00
576.6060, 10527.00
577.7790, 10375.00
578.9520, 10438.00
580.1240, 10251.00
581.2960, 10139.00
582.4690, 10187.00
583.6410, 10229.00
584.8120, 10197.00
585.9840, 10197.00
587.1560, 10188.00
588.3270, 10312.00
589.4980, 10248.00
590.6690, 10258.00
591.8400, 10264.00
593.0110, 10207.00
594.1810, 10196.85
595.3510, 10140.00
596.5220, 10099.00
597.6920, 10082.00
598.8610, 9983.000
600.0310, 10027.00
601.2010, 9918.000
602.3700, 10050.00
603.5390, 10109.00
604.7080, 10050.00
605.8770, 10096.00
607.0460, 10011.00
608.2140, 10174.00
609.3830, 10107.00
610.5510, 10097.00
611.7190, 10111.00
612.8870, 10125.00
614.0550, 10084.00
615.2220, 10226.00
616.3900, 10191.00
617.5570, 10294.00
618.7240, 10308.00
619.8910, 10307.00
621.0580, 10206.00
622.2240, 10466.00
623.3910, 10334.00
624.5570, 10557.00
625.7230, 10409.00
626.8890, 10544.00
628.0550, 10454.00
629.2200, 10378.00
630.3860, 10406.00
631.5510, 10467.00
632.7160, 10455.61
633.8810, 10464.74
635.0460, 10495.00
636.2100, 10450.00
637.3750, 10417.00
638.5390, 10433.00
639.7030, 10493.00
640.8670, 10422.00
642.0310, 10589.00
643.1950, 10455.00
644.3580, 10532.00
645.5210, 10703.00
646.6850, 10685.00
647.8480, 10608.00
649.0100, 10612.00
650.1730, 10599.00
651.3350, 10647.00
652.4980, 10640.00
653.6600, 10606.00
654.8220, 10678.00
655.9840, 10760.00
657.1450, 10837.00
658.3070, 10743.00
659.4680, 10831.00
660.6300, 10739.00
661.7910, 10786.00
662.9510, 10815.00
664.1120, 10757.00
665.2730, 10866.00
666.4330, 10875.00
667.5930, 11016.00
668.7530, 10997.00
669.9130, 10986.00
671.0730, 11218.00
672.2320, 11157.00
673.3920, 11269.00
674.5510, 11410.00
675.7100, 11524.00
676.8690, 11554.00
678.0280, 11618.00
679.1860, 11874.00
680.3450, 12027.00
681.5030, 12247.00
682.6610, 12586.00
683.8190, 12822.00
684.9770, 13124.00
686.1340, 13765.00
687.2920, 14639.00
688.4490, 15508.00
689.6060, 16763.00
690.7630, 18486.00
691.9200, 20427.00
693.0760, 22727.00
694.2330, 25843.00
695.3890, 28981.00
696.5450, 32546.00
697.7010, 36042.00
698.8570, 38307.00
700.0130, 39043.00
701.1680, 37419.00
702.3230, 34532.00
703.4780, 30412.00
704.6330, 26630.00
705.7880, 22883.00
706.9430, 20350.00
708.0970, 18116.00
709.2520, 16600.00
710.4060, 15478.00
711.5600, 14568.00
712.7140, 13960.00
713.8670, 13411.00
715.0210, 13120.00
716.1740, 12925.00
717.3270, 12510.00
718.4800, 12289.00
719.6330, 12282.00
720.7860, 12170.00
721.9380, 11965.00
723.0910, 11827.00
724.2430, 11831.00
725.3950, 11786.00
726.5470, 11720.00
727.6980, 11759.00
728.8500, 11809.00
730.0010, 11709.62
731.1530, 11603.00
732.3040, 11577.00
733.4550, 11464.00
734.6050, 11444.00
735.7560, 11522.00
736.9060, 11570.00
738.0560, 11458.00
739.2060, 11486.00
740.3560, 11527.00
741.5060, 11577.00
742.6560, 11577.00
743.8050, 11516.00
744.9540, 11600.00
746.1030, 11544.00
747.2520, 11563.00
748.4010, 11467.00
749.5500, 11506.00
750.6980, 11501.00
751.8460, 11515.00
752.9950, 11517.00
754.1420, 11524.04
755.2900, 11524.00
756.4380, 11539.61
757.5850, 11540.00
758.7330, 11546.00
759.8800, 11576.79
761.0270, 11550.00
762.1730, 11649.00
763.3200, 11683.00
764.4670, 11738.41
765.6130, 11751.00
766.7590, 11867.00
767.9050, 11898.00
769.0510, 11992.00
770.1960, 12017.00
771.3420, 12192.00
772.4870, 12227.00
773.6320, 12295.00
774.7770, 12739.00
775.9220, 12992.00
777.0670, 13166.00
778.2110, 13449.00
779.3560, 13609.00
780.5000, 13585.00
781.6440, 13305.00
782.7880, 13087.00
783.9320, 12648.00
785.0750, 12579.00
786.2180, 12247.00
787.3620, 12084.00
788.5050, 12082.00
789.6480, 11887.00
790.7900, 11943.00
791.9330, 11804.00
793.0750, 11785.00
794.2170, 11895.00
795.3590, 11897.00
796.5010, 11768.00
797.6430, 11985.00
798.7850, 11842.00
799.9260, 11810.00
801.0670, 11801.00
802.2080, 11771.00
803.3490, 11879.00
804.4900, 11848.00
805.6310, 11819.00
806.7710, 11952.00
807.9110, 11823.00
809.0510, 11811.00
810.1910, 11903.00
811.3310, 11903.00
812.4710, 11827.00
813.6100, 11965.00
814.7490, 11984.00
815.8880, 11980.00
817.0270, 12124.00
818.1660, 11989.00
819.3050, 12039.00
820.4430, 11985.00
821.5820, 12004.00
822.7200, 12050.00
823.8580, 12002.00
824.9950, 11997.00
826.1330, 12131.00
827.2710, 12112.00
828.4080, 12088.00
829.5450, 12057.00
830.6820, 12209.00
831.8190, 12163.00
832.9560, 12123.00
834.0920, 12113.00
835.2280, 11997.00
836.3650, 12239.00
837.5010, 12244.00
838.6360, 12108.00
839.7720, 12331.00
840.9080, 12312.00
842.0430, 12240.00
843.1780, 12274.00
844.3130, 12272.13
845.4480, 12330.00
846.5830, 12330.00
847.7170, 12376.00
848.8520, 12408.00
849.9860, 12499.00
851.1200, 12460.00
852.2540, 12390.00
853.3870, 12615.00
854.5210, 12468.00
855.6540, 12479.00
856.7880, 12596.00
857.9210, 12596.00
859.0540, 12572.00
860.1860, 12759.00
861.3190, 12699.00
862.4510, 12635.00
863.5840, 12548.00
864.7160, 12774.00
865.8480, 12733.00
866.9790, 12654.00
868.1110, 12854.00
869.2420, 12626.00
870.3740, 12752.00
871.5050, 12687.00
872.6360, 12687.00
873.7660, 12696.00
874.8970, 12683.64
876.0280, 12722.00
877.1580, 12727.00
878.2880, 12737.00
879.4180, 12804.00
880.5480, 12854.00
881.6770, 12872.00
882.8070, 13046.00
883.9360, 12936.00
885.0650, 12982.00
886.1940, 12886.00
887.3230, 13065.00
888.4520, 12955.00
889.5800, 13076.00
890.7090, 13041.00
891.8370, 12933.00
892.9650, 12952.00
894.0930, 12881.00
895.2200, 12814.00
896.3480, 12789.00
897.4750, 12867.00
898.6020, 12844.00
899.7290, 12907.00
900.8560, 12954.00
901.9830, 13026.00
903.1090, 12852.00
904.2360, 12916.00
905.3620, 12906.00
906.4880, 12874.00
907.6140, 12994.00
908.7400, 12803.00
909.8650, 12838.00
910.9900, 12962.00
912.1160, 12935.00
913.2410, 12829.00
914.3660, 12816.00
915.4900, 12815.00
916.6150, 12803.20
917.7390, 12803.82
918.8640, 12879.00
919.9880, 12828.00
921.1120, 12920.00
922.2350, 12988.00
923.3590, 12971.00
924.4820, 13039.00
925.6060, 13054.00
926.7290, 13043.65
927.8520, 13122.00
928.9740, 13029.00
930.0970, 13127.00
931.2190, 13147.00
932.3420, 13113.00
933.4640, 13172.00
934.5860, 13196.00
935.7080, 13118.00
936.8290, 13240.00
937.9510, 13323.00
939.0720, 13179.00
940.1930, 13271.00
941.3140, 13266.00
942.4350, 13220.00
943.5560, 13372.00
944.6760, 13355.00
945.7960, 13241.00
946.9170, 13395.00
948.0370, 13349.00
949.1560, 13499.00
950.2760, 13409.00
951.3960, 13360.00
952.5150, 13452.00
953.6340, 13539.00
954.7530, 13473.00
955.8720, 13585.00
956.9910, 13581.00
958.1090, 13630.00
959.2280, 13615.00
960.3460, 13658.98
961.4640, 13873.00
962.5820, 13765.00
963.6990, 13824.00
964.8170, 13946.00
965.9340, 13864.00
967.0510, 14064.00
968.1690, 14056.00
969.2850, 14266.00
970.4020, 14367.00
971.5190, 14557.00
972.6350, 14338.00
973.7510, 14722.00
974.8670, 14749.00
975.9830, 15058.00
977.0990, 15343.00
978.2150, 15993.00
979.3300, 16636.00
980.4450, 17491.00
981.5600, 18149.00
982.6750, 19118.00
983.7900, 20566.00
984.9050, 21135.00
986.0190, 21204.00
987.1340, 20576.00
988.2480, 19430.00
989.3620, 18331.00
990.4750, 17417.00
991.5890, 16758.63
992.7020, 16048.00
993.8160, 15880.00
994.9290, 15484.00
996.0420, 15394.00
997.1550, 15255.00
998.2670, 15183.00
999.3800, 15082.87
1000.492, 15139.00
1001.604, 14968.00
1002.716, 15011.00
1003.828, 15090.00
1004.940, 14813.00
1006.051, 15009.00
1007.163, 14992.00
1008.274, 15088.00
1009.385, 15165.00
1010.496, 15263.00
1011.606, 15340.00
1012.717, 15514.00
1013.827, 15582.00
1014.937, 15714.00
1016.047, 16037.00
1017.157, 16202.00
1018.267, 16378.00
1019.377, 16634.00
1020.486, 16914.00
1021.595, 17433.00
1022.704, 17868.00
1023.813, 18352.00
1024.922, 19000.00
1026.030, 19917.00
1027.139, 20996.00
1028.247, 22408.00
1029.355, 24143.00
1030.463, 26329.00
1031.571, 29172.00
1032.678, 32966.00
1033.786, 37710.00
1034.893, 43412.00
1036.000, 49187.00
1037.107, 54985.00
1038.214, 59355.00
1039.321, 61849.00
1040.427, 61018.00
1041.533, 57243.00
1042.639, 51130.00
1043.745, 44200.00
1044.851, 38049.00
1045.957, 32537.00
1047.062, 28524.00
1048.168, 25445.00
1049.273, 23242.00
1050.378, 21487.00
1051.482, 20342.00
1052.587, 19191.00
1053.692, 18419.00
1054.796, 17893.00
1055.900, 17436.00
1057.004, 17252.00
1058.108, 16783.00
1059.212, 16589.00
1060.315, 16395.00
1061.418, 16235.00
1062.522, 15960.00
1063.625, 15879.00
1064.728, 16091.00
1065.830, 15765.00
1066.933, 15659.00
1068.035, 15581.00
1069.137, 15363.00
1070.239, 15344.00
1071.341, 15218.00
1072.443, 15261.00
1073.545, 15191.00
1074.646, 15401.00
1075.747, 15103.00
1076.848, 15290.00
1077.949, 15480.00
1079.050, 15378.00
1080.150, 15580.00
1081.251, 15549.00
1082.351, 15477.00
1083.451, 15342.00
1084.551, 15394.00
1085.651, 15197.00
1086.750, 14950.00
1087.850, 14866.00
1088.949, 14899.00
1090.048, 14753.00
1091.147, 14867.00
1092.246, 14785.00
1093.345, 14802.00
1094.443, 14753.00
1095.541, 14714.00
1096.639, 14728.00
1097.737, 14655.00
1098.835, 14779.00
1099.933, 14752.00
1101.030, 14741.00
1102.128, 14699.00
1103.225, 14644.00
1104.322, 14761.00
1105.419, 14837.00
1106.515, 14733.00
1107.612, 14731.00
1108.708, 14769.00
1109.804, 14821.00
1110.900, 14753.00
1111.996, 14819.97
1113.092, 14887.00
1114.187, 14833.00
1115.283, 14890.00
1116.378, 14929.91
1117.473, 14791.00
1118.568, 15055.00
1119.662, 15103.00
1120.757, 15208.00
1121.851, 15155.00
1122.946, 15156.00
1124.040, 14966.00
1125.134, 15125.00
1126.227, 15112.00
1127.321, 14943.00
1128.414, 15025.00
1129.508, 15025.00
1130.601, 15102.00
1131.693, 15034.00
1132.786, 15042.85
1133.879, 14935.00
1134.971, 14994.00
1136.064, 15039.00
1137.156, 15035.00
1138.248, 14784.00
1139.339, 14862.00
1140.431, 14896.00
1141.522, 14881.00
1142.614, 15002.00
1143.705, 15092.00
1144.796, 15009.00
1145.887, 15050.00
1146.977, 14943.00
1148.068, 14894.00
1149.158, 14963.00
1150.248, 15069.00
1151.338, 15013.00
1152.428, 15072.00
1153.518, 15093.00
1154.607, 15202.00
1155.696, 15134.00
1156.785, 15210.00
1157.874, 15103.00
1158.963, 15084.00
1160.052, 15122.00
1161.141, 15201.00
1162.229, 15177.00
1163.317, 15220.56
1164.405, 15325.00
1165.493, 15221.00
1166.581, 15206.00
1167.668, 15142.00
1168.756, 15228.00
1169.843, 15278.00
1170.930, 15229.00
1172.017, 15327.06
1173.103, 15390.00
1174.190, 15356.00
1175.276, 15356.00
1176.363, 15190.00
1177.449, 15278.00
1178.535, 15161.00
1179.620, 15283.00
1180.706, 15202.00
1181.791, 15461.00
1182.877, 15233.00
1183.962, 15224.00
1185.047, 15309.00
1186.131, 15209.00
1187.216, 15187.00
1188.300, 15254.00
1189.385, 15318.00
1190.469, 15301.00
1191.553, 15474.00
1192.637, 15332.00
1193.720, 15262.00
1194.804, 15369.00
1195.887, 15428.00
1196.970, 15285.00
1198.053, 15460.00
1199.136, 15373.00
1200.219, 15347.00
1201.301, 15382.00
1202.383, 15389.00
1203.465, 15425.00
1204.547, 15529.00
1205.629, 15439.00
1206.711, 15574.00
1207.792, 15610.00
1208.874, 15593.27
1209.955, 15542.00
1211.036, 15627.00
1212.117, 15551.00
1213.198, 15623.00
1214.278, 15556.00
1215.359, 15620.00
1216.439, 15594.00
1217.519, 15708.00
1218.599, 15519.00
1219.678, 15524.00
1220.758, 15584.00
1221.837, 15568.00
1222.917, 15765.00
1223.996, 15598.00
1225.075, 15743.00
1226.153, 15547.00
1227.232, 15754.00
1228.310, 15719.00
1229.389, 15746.00
1230.467, 15687.00
1231.545, 15709.51
1232.622, 15677.00
1233.700, 15731.00
1234.777, 15759.00
1235.855, 15771.00
1236.932, 15839.00
1238.009, 15736.00
1239.086, 15931.00
1240.162, 15971.00
1241.239, 15743.00
1242.315, 15789.00
1243.391, 15854.00
1244.467, 15769.00
1245.543, 15869.00
1246.619, 15816.00
1247.694, 15784.00
1248.769, 15827.00
1249.844, 15991.00
1250.919, 15913.00
1251.994, 15879.00
1253.069, 15721.00
1254.144, 15909.00
1255.218, 15893.00
1256.292, 15861.00
1257.366, 16010.00
1258.440, 15965.00
1259.514, 15980.00
1260.587, 16146.00
1261.661, 15934.00
1262.734, 16044.00
1263.807, 16017.00
1264.880, 16226.00
1265.952, 16035.00
1267.025, 16140.00
1268.097, 16063.00
1269.170, 16077.00
1270.242, 16154.00
1271.314, 16290.00
1272.385, 16194.00
1273.457, 16241.00
1274.528, 15980.00
1275.600, 16183.00
1276.671, 16211.00
1277.742, 16112.00
1278.812, 16221.00
1279.883, 16149.00
1280.954, 15963.00
1282.024, 16127.00
1283.094, 16173.00
1284.164, 16175.00
1285.234, 16312.00
1286.303, 16179.00
1287.373, 16241.00
1288.442, 16380.00
1289.511, 16199.00
1290.580, 16225.00
1291.649, 16163.00
