##NAMES=Jadeite
##RRUFFID=R050220
##IDEAL CHEMISTRY=NaAlSi_2_O_6_
##LOCALITY=Clear Creek, San Benito County, California, USA
##OWNER=RRUFF
##SOURCE=Hatt Yoder
##DESCRIPTION=Aggregate of colorless bladed crystals
##STATUS=The identification of this mineral has been confirmed by X-ray diffraction and chemical analysis
##URL=rruff.info/R050220
##MEASURED CHEMISTRY=Na_1.00_Al_1.00_(Si_0.99_Al_0.01_)_2_O_6_
##PIN_ID=L00896
##ORIENTATION=Laser parallel to a* (1 0 0). Fiducial mark perpendicular to laser is parallel to b [0 1 0]
112.9460, 8443.000
114.1820, 8534.000
115.4170, 8723.000
116.6530, 8748.000
117.8880, 8801.000
119.1230, 8789.000
120.3580, 8869.606
121.5920, 8875.000
122.8270, 9047.000
124.0610, 9159.000
125.2950, 9334.000
126.5290, 9442.003
127.7630, 9510.000
128.9970, 9638.000
130.2300, 9546.000
131.4640, 9572.000
132.6970, 9451.000
133.9300, 9524.000
135.1630, 9587.000
136.3950, 9492.000
137.6280, 9630.000
138.8600, 9994.000
140.0920, 10120.00
141.3240, 10453.00
142.5560, 10784.00
143.7880, 11098.00
145.0190, 11048.00
146.2510, 10900.00
147.4820, 10702.00
148.7130, 10219.00
149.9440, 10054.00
151.1750, 9706.000
152.4050, 9686.000
153.6360, 9691.000
154.8660, 9685.000
156.0960, 9550.000
157.3260, 9673.000
158.5560, 9576.000
159.7850, 9475.000
161.0150, 9590.000
162.2440, 9635.000
163.4730, 9822.000
164.7020, 9797.000
165.9310, 9720.000
167.1590, 9779.000
168.3880, 9661.000
169.6160, 9754.000
170.8440, 9857.000
172.0720, 9880.000
173.3000, 9817.000
174.5280, 9738.000
175.7550, 9912.000
176.9820, 9973.000
178.2100, 9869.000
179.4370, 10046.00
180.6630, 9966.000
181.8900, 10083.00
183.1170, 10198.00
184.3430, 10325.00
185.5690, 10440.00
186.7950, 10602.00
188.0210, 10742.00
189.2470, 11300.00
190.4720, 11750.00
191.6970, 12663.00
192.9230, 13292.00
194.1480, 13926.00
195.3730, 13841.00
196.5970, 14154.00
197.8220, 14998.00
199.0460, 16232.00
200.2700, 18332.00
201.4940, 20517.00
202.7180, 22829.00
203.9420, 24163.00
205.1660, 23768.00
206.3890, 21854.00
207.6120, 19663.00
208.8350, 16701.00
210.0580, 14286.00
211.2810, 12844.00
212.5040, 11781.00
213.7260, 11292.00
214.9480, 11003.00
216.1700, 10906.00
217.3920, 10962.00
218.6140, 10899.00
219.8360, 10868.00
221.0570, 11136.00
222.2790, 11040.00
223.5000, 11122.00
224.7210, 11082.00
225.9410, 11088.00
227.1620, 10763.00
228.3820, 10677.00
229.6030, 10619.00
230.8230, 10580.00
232.0430, 10529.00
233.2630, 10450.00
234.4820, 10471.00
235.7020, 10442.80
236.9210, 10684.00
238.1400, 10478.00
239.3590, 10571.00
240.5780, 10646.00
241.7970, 10582.00
243.0150, 10779.00
244.2340, 10970.00
245.4520, 11159.00
246.6700, 11484.00
247.8880, 11697.00
249.1060, 12171.99
250.3230, 12403.00
251.5400, 13182.00
252.7580, 13768.00
253.9750, 14311.00
255.1920, 14880.00
256.4080, 14985.00
257.6250, 14303.00
258.8410, 13607.00
260.0580, 12679.00
261.2740, 11987.00
262.4900, 11477.00
263.7050, 11090.00
264.9210, 10895.00
266.1360, 10929.00
267.3520, 11007.00
268.5670, 10851.00
269.7820, 10917.00
270.9960, 11016.00
272.2110, 10947.00
273.4250, 10976.00
274.6400, 10946.00
275.8540, 10948.00
277.0680, 11119.00
278.2810, 11201.00
279.4950, 11376.00
280.7090, 11375.00
281.9220, 11517.00
283.1350, 11796.00
284.3480, 12110.00
285.5610, 12236.00
286.7730, 12795.00
287.9860, 13024.00
289.1980, 13333.00
290.4100, 13840.00
291.6220, 14293.00
292.8340, 14492.00
294.0460, 14719.00
295.2570, 14399.00
296.4690, 14548.00
297.6800, 14648.00
298.8910, 14670.00
300.1020, 14813.00
301.3120, 15149.00
302.5230, 15807.00
303.7330, 16409.00
304.9440, 17347.00
306.1540, 18560.00
307.3630, 19688.00
308.5730, 20815.00
309.7830, 21724.00
310.9920, 21802.00
312.2010, 21205.00
313.4100, 19875.00
314.6190, 18579.00
315.8280, 17416.00
317.0370, 16758.00
318.2450, 16413.00
319.4530, 16812.00
320.6610, 17290.00
321.8690, 18138.00
323.0770, 19051.00
324.2850, 20612.00
325.4920, 22480.00
326.6990, 24264.00
327.9060, 25781.00
329.1130, 26054.00
330.3200, 25056.00
331.5270, 23004.00
332.7330, 20229.00
333.9390, 17656.00
335.1450, 16147.00
336.3510, 14905.00
337.5570, 13840.00
338.7630, 13356.00
339.9680, 13125.00
341.1740, 12941.00
342.3790, 12824.00
343.5840, 12768.00
344.7890, 12642.00
345.9930, 12596.00
347.1980, 12669.00
348.4020, 12529.00
349.6060, 12645.00
350.8100, 12810.00
352.0140, 12900.00
353.2180, 13106.00
354.4210, 13218.00
355.6250, 13527.00
356.8280, 14020.00
358.0310, 14523.00
359.2340, 15458.00
360.4360, 16217.00
361.6390, 17937.00
362.8410, 19813.00
364.0430, 22206.00
365.2450, 25027.00
366.4470, 27822.00
367.6490, 31384.00
368.8510, 35489.00
370.0520, 40553.00
371.2530, 46589.00
372.4540, 52178.00
373.6550, 56482.00
374.8560, 58310.00
376.0560, 57269.00
377.2570, 54056.00
378.4570, 48981.00
379.6570, 43790.00
380.8570, 39722.00
382.0570, 37096.00
383.2560, 35911.00
384.4560, 34726.00
385.6550, 33622.00
386.8540, 32208.00
388.0530, 29540.00
389.2520, 26843.00
390.4510, 24158.00
391.6490, 21237.00
392.8470, 19366.00
394.0450, 17787.00
395.2430, 16406.00
396.4410, 15392.00
397.6390, 14815.00
398.8360, 14423.00
400.0340, 14143.00
401.2310, 13899.00
402.4280, 13821.00
403.6250, 13804.00
404.8210, 13637.00
406.0180, 13693.00
407.2140, 13632.00
408.4100, 13579.00
409.6060, 13616.10
410.8020, 13554.00
411.9980, 13662.00
413.1930, 13646.00
414.3890, 13707.00
415.5840, 13835.00
416.7790, 14120.00
417.9740, 14188.00
419.1680, 14541.00
420.3630, 14585.00
421.5570, 14941.00
422.7510, 15358.00
423.9450, 15745.00
425.1390, 16261.00
426.3330, 16772.00
427.5270, 17696.00
428.7200, 18317.00
429.9130, 19026.00
431.1060, 19842.00
432.2990, 20340.00
433.4920, 20517.00
434.6840, 20249.00
435.8770, 19929.00
437.0690, 19034.00
438.2610, 18241.00
439.4530, 17104.00
440.6450, 16523.00
441.8360, 15589.00
443.0280, 15048.00
444.2190, 14596.00
445.4100, 14205.00
446.6010, 13882.00
447.7920, 13700.00
448.9820, 13553.00
450.1730, 13428.00
451.3630, 13336.00
452.5530, 13193.00
453.7430, 13189.00
454.9330, 13115.50
456.1230, 13169.00
457.3120, 13087.00
458.5010, 13041.00
459.6910, 13094.00
460.8800, 13089.00
462.0680, 12949.00
463.2570, 13021.00
464.4460, 12926.00
465.6340, 13034.00
466.8220, 13016.00
468.0100, 13040.00
469.1980, 13059.72
470.3860, 12953.00
471.5730, 13022.00
472.7600, 13082.00
473.9480, 12996.00
475.1350, 13050.00
476.3210, 13092.00
477.5080, 13066.00
478.6950, 13029.00
479.8810, 13007.00
481.0670, 13108.00
482.2530, 13219.00
483.4390, 13202.00
484.6250, 13113.00
485.8100, 13016.00
486.9960, 13279.00
488.1810, 13176.00
489.3660, 13243.00
490.5510, 13332.00
491.7360, 13158.00
492.9200, 13208.00
494.1050, 13280.00
495.2890, 13344.00
496.4730, 13338.00
497.6570, 13327.00
498.8400, 13452.00
500.0240, 13508.00
501.2070, 13312.00
502.3910, 13500.00
503.5740, 13566.00
504.7570, 13584.00
505.9400, 13876.00
507.1220, 13746.00
508.3050, 14049.00
509.4870, 13834.00
510.6690, 14280.00
511.8510, 14435.00
513.0330, 14825.00
514.2140, 15219.00
515.3960, 15719.00
516.5770, 16512.00
517.7580, 17051.00
518.9390, 17742.00
520.1200, 18555.00
521.3010, 19943.00
522.4810, 20922.00
523.6610, 21445.00
524.8420, 21602.00
526.0220, 20830.00
527.2010, 19851.00
528.3810, 18472.00
529.5610, 17334.00
530.7400, 16247.00
531.9190, 15646.00
533.0980, 14972.00
534.2770, 14763.00
535.4560, 14405.00
536.6340, 14228.00
537.8120, 14345.00
538.9910, 14050.00
540.1690, 14030.00
541.3460, 14015.00
542.5240, 13900.00
543.7020, 13920.00
544.8790, 13889.00
546.0560, 13940.00
547.2330, 14014.00
548.4100, 14010.79
549.5870, 13919.00
550.7630, 14064.00
551.9400, 14147.00
553.1160, 14182.00
554.2920, 14364.00
555.4680, 14575.00
556.6440, 14560.00
557.8190, 14747.00
558.9950, 14695.00
560.1700, 14770.00
561.3450, 14964.00
562.5200, 14617.00
563.6950, 14737.00
564.8690, 14702.00
566.0440, 14825.00
567.2180, 14913.00
568.3920, 14977.00
569.5660, 15078.00
570.7400, 15252.00
571.9130, 15561.00
573.0870, 15871.00
574.2600, 15972.00
575.4330, 16103.00
576.6060, 16085.00
577.7790, 15798.00
578.9520, 15660.00
580.1240, 15215.00
581.2960, 14985.00
582.4690, 14817.00
583.6410, 14922.00
584.8120, 14738.00
585.9840, 14827.00
587.1560, 15043.00
588.3270, 14891.00
589.4980, 15186.00
590.6690, 15028.00
591.8400, 14818.00
593.0110, 14649.00
594.1810, 14551.83
595.3510, 14458.26
596.5220, 14417.00
597.6920, 14367.00
598.8610, 14378.00
600.0310, 14329.00
601.2010, 14416.00
602.3700, 14316.00
603.5390, 14362.00
604.7080, 14310.00
605.8770, 14440.00
607.0460, 14407.00
608.2140, 14349.00
609.3830, 14397.00
610.5510, 14397.00
611.7190, 14403.70
612.8870, 14287.00
614.0550, 14470.00
615.2220, 14542.00
616.3900, 14640.00
617.5570, 14529.00
618.7240, 14731.00
619.8910, 14616.00
621.0580, 14827.00
622.2240, 14686.00
623.3910, 15017.00
624.5570, 14748.00
625.7230, 14723.00
626.8890, 14738.00
628.0550, 14892.00
629.2200, 14691.00
630.3860, 14758.00
631.5510, 14699.00
632.7160, 14740.00
633.8810, 14728.00
635.0460, 14799.00
636.2100, 14735.00
637.3750, 14803.00
638.5390, 14800.00
639.7030, 14821.00
640.8670, 14910.00
642.0310, 14916.00
643.1950, 14955.78
644.3580, 15005.00
645.5210, 15012.00
646.6850, 15011.00
647.8480, 15048.02
649.0100, 15091.00
650.1730, 15123.00
651.3350, 15231.00
652.4980, 15200.00
653.6600, 15098.00
654.8220, 15121.00
655.9840, 15189.00
657.1450, 15300.00
658.3070, 15181.00
659.4680, 15218.00
660.6300, 15308.00
661.7910, 15307.00
662.9510, 15276.00
664.1120, 15383.00
665.2730, 15427.00
666.4330, 15430.00
667.5930, 15561.00
668.7530, 15568.00
669.9130, 15673.00
671.0730, 15742.00
672.2320, 15905.00
673.3920, 15936.00
674.5510, 16096.00
675.7100, 16187.00
676.8690, 16387.00
678.0280, 16361.00
679.1860, 16721.00
680.3450, 16813.00
681.5030, 17152.00
682.6610, 17807.00
683.8190, 18285.00
684.9770, 18606.00
686.1340, 19430.00
687.2920, 20307.00
688.4490, 21460.00
689.6060, 23209.00
690.7630, 25303.00
691.9200, 28112.00
693.0760, 31145.00
694.2330, 34942.00
695.3890, 39628.00
696.5450, 44027.00
697.7010, 48687.00
698.8570, 52229.00
700.0130, 53514.00
701.1680, 52354.00
702.3230, 48567.00
703.4780, 43314.00
704.6330, 37811.00
705.7880, 32758.00
706.9430, 28697.00
708.0970, 25769.00
709.2520, 23436.00
710.4060, 22150.00
711.5600, 20772.00
712.7140, 19889.00
713.8670, 19193.00
715.0210, 18646.00
716.1740, 17957.00
717.3270, 17897.00
718.4800, 17510.00
719.6330, 17419.00
720.7860, 17095.00
721.9380, 17010.00
723.0910, 17001.00
724.2430, 16709.00
725.3950, 16678.00
726.5470, 16648.00
727.6980, 16591.00
728.8500, 16497.00
730.0010, 16524.00
731.1530, 16369.00
732.3040, 16477.00
733.4550, 16480.00
734.6050, 16276.00
735.7560, 16287.00
736.9060, 16375.00
738.0560, 16372.00
739.2060, 16354.00
740.3560, 16302.00
741.5060, 16288.00
742.6560, 16265.00
743.8050, 16261.00
744.9540, 16395.00
746.1030, 16228.00
747.2520, 16426.00
748.4010, 16242.00
749.5500, 16369.00
750.6980, 16423.00
751.8460, 16455.00
752.9950, 16459.00
754.1420, 16190.00
755.2900, 16372.00
756.4380, 16410.00
757.5850, 16316.00
758.7330, 16618.00
759.8800, 16420.00
761.0270, 16553.00
762.1730, 16666.00
763.3200, 16424.00
764.4670, 16681.00
765.6130, 16782.00
766.7590, 16811.00
767.9050, 16940.00
769.0510, 17078.39
770.1960, 17196.00
771.3420, 17448.00
772.4870, 17690.00
773.6320, 17965.00
774.7770, 18405.00
775.9220, 18900.00
777.0670, 19441.00
778.2110, 19873.00
779.3560, 20193.00
780.5000, 20322.00
781.6440, 19796.00
782.7880, 19066.00
783.9320, 18529.00
785.0750, 17882.00
786.2180, 17686.00
787.3620, 17209.00
788.5050, 16953.00
789.6480, 16847.00
790.7900, 16879.00
791.9330, 16774.00
793.0750, 16707.00
794.2170, 16671.00
795.3590, 16653.12
796.5010, 16561.00
797.6430, 16676.00
798.7850, 16713.00
799.9260, 16722.00
801.0670, 16768.52
802.2080, 16790.39
803.3490, 16792.00
804.4900, 16826.00
805.6310, 16841.20
806.7710, 16814.00
807.9110, 16799.00
809.0510, 16860.00
810.1910, 16818.00
811.3310, 16772.00
812.4710, 16811.34
813.6100, 16870.00
814.7490, 16835.00
815.8880, 16846.00
817.0270, 16849.00
818.1660, 16897.00
819.3050, 16812.00
820.4430, 16909.00
821.5820, 16935.00
822.7200, 16968.00
823.8580, 17101.00
824.9950, 16972.00
826.1330, 17109.00
827.2710, 17034.00
828.4080, 16973.00
829.5450, 17084.00
830.6820, 17181.00
831.8190, 17225.00
832.9560, 17051.00
834.0920, 17216.00
835.2280, 17091.00
836.3650, 17082.00
837.5010, 17247.00
838.6360, 17172.00
839.7720, 17175.00
840.9080, 17247.04
842.0430, 17136.00
843.1780, 17319.00
844.3130, 17266.00
845.4480, 17279.00
846.5830, 17367.86
847.7170, 17613.00
848.8520, 17412.00
849.9860, 17531.00
851.1200, 17428.00
852.2540, 17510.00
853.3870, 17690.00
854.5210, 17420.00
855.6540, 17648.00
856.7880, 17689.00
857.9210, 17663.00
859.0540, 17872.00
860.1860, 17675.00
861.3190, 17804.00
862.4510, 17721.00
863.5840, 17727.00
864.7160, 17721.00
865.8480, 17776.00
866.9790, 17749.01
868.1110, 17759.85
869.2420, 17730.00
870.3740, 17752.00
871.5050, 17752.00
872.6360, 17752.00
873.7660, 17761.00
874.8970, 17639.00
876.0280, 17703.00
877.1580, 17794.00
878.2880, 17662.00
879.4180, 17917.00
880.5480, 17899.00
881.6770, 17851.00
882.8070, 17780.00
883.9360, 17885.00
885.0650, 17937.00
886.1940, 18117.00
887.3230, 17894.00
888.4520, 18159.00
889.5800, 17999.00
890.7090, 18086.00
891.8370, 18033.00
892.9650, 17899.00
894.0930, 17944.00
895.2200, 17991.00
896.3480, 18084.00
897.4750, 17966.00
898.6020, 17962.00
899.7290, 17947.00
900.8560, 18072.00
901.9830, 18065.00
903.1090, 18010.00
904.2360, 18054.00
905.3620, 17975.00
906.4880, 18085.00
907.6140, 17971.00
908.7400, 18013.00
909.8650, 18027.00
910.9900, 18093.00
912.1160, 18086.00
913.2410, 17871.00
914.3660, 18116.00
915.4900, 17959.00
916.6150, 18115.00
917.7390, 18162.00
918.8640, 18169.00
919.9880, 18087.00
921.1120, 18196.00
922.2350, 18275.00
923.3590, 18109.00
924.4820, 18303.00
925.6060, 18169.00
926.7290, 17989.00
927.8520, 18320.00
928.9740, 18289.00
930.0970, 18403.00
931.2190, 18358.00
932.3420, 18335.00
933.4640, 18314.00
934.5860, 18393.00
935.7080, 18538.00
936.8290, 18447.00
937.9510, 18352.00
939.0720, 18505.00
940.1930, 18562.00
941.3140, 18334.00
942.4350, 18503.00
943.5560, 18611.00
944.6760, 18574.00
945.7960, 18577.00
946.9170, 18585.00
948.0370, 18695.00
949.1560, 18541.00
950.2760, 18822.00
951.3960, 18697.00
952.5150, 18846.00
953.6340, 18932.00
954.7530, 18872.00
955.8720, 18693.00
956.9910, 18892.00
958.1090, 18859.00
959.2280, 19029.00
960.3460, 18974.00
961.4640, 19109.00
962.5820, 19175.00
963.6990, 18977.00
964.8170, 19042.00
965.9340, 19139.00
967.0510, 19213.00
968.1690, 19294.00
969.2850, 19314.00
970.4020, 19315.00
971.5190, 19499.00
972.6350, 19619.00
973.7510, 19563.00
974.8670, 19917.00
975.9830, 20271.00
977.0990, 20459.00
978.2150, 20971.00
979.3300, 21570.00
980.4450, 22092.00
981.5600, 23021.00
982.6750, 24063.00
983.7900, 24876.00
984.9050, 25543.00
986.0190, 25820.00
987.1340, 25151.00
988.2480, 24338.00
989.3620, 23345.00
990.4750, 22413.00
991.5890, 21693.00
992.7020, 21389.00
993.8160, 20942.00
994.9290, 20734.00
996.0420, 20637.00
997.1550, 20473.00
998.2670, 20441.00
999.3800, 20429.00
1000.492, 20296.00
1001.604, 20380.00
1002.716, 20275.00
1003.828, 20275.00
1004.940, 20347.00
1006.051, 20283.00
1007.163, 20199.00
1008.274, 20257.00
1009.385, 20104.00
1010.496, 20342.00
1011.606, 20233.00
1012.717, 20533.00
1013.827, 20474.00
1014.937, 20800.00
1016.047, 20975.00
1017.157, 21049.00
1018.267, 21272.00
1019.377, 21257.00
1020.486, 21546.00
1021.595, 21924.00
1022.704, 22294.00
1023.813, 22699.00
1024.922, 23247.00
1026.030, 23928.00
1027.139, 24684.00
1028.247, 25421.00
1029.355, 26870.00
1030.463, 28353.00
1031.571, 30485.00
1032.678, 33007.00
1033.786, 36183.00
1034.893, 40067.00
1036.000, 44191.00
1037.107, 48718.00
1038.214, 52170.00
1039.321, 54225.00
1040.427, 54124.00
1041.533, 51467.00
1042.639, 47119.00
1043.745, 42336.00
1044.851, 37311.00
1045.957, 33816.00
1047.062, 30460.00
1048.168, 28311.00
1049.273, 26476.00
1050.378, 25458.00
1051.482, 24444.00
1052.587, 23694.00
1053.692, 23236.00
1054.796, 22567.00
1055.900, 22339.00
1057.004, 21920.00
1058.108, 21753.00
1059.212, 21592.00
1060.315, 21494.00
1061.418, 21538.00
1062.522, 21435.00
1063.625, 21296.00
1064.728, 21191.00
1065.830, 20938.00
1066.933, 20974.00
1068.035, 21142.00
1069.137, 20879.00
1070.239, 21003.00
1071.341, 21007.00
1072.443, 20740.00
1073.545, 20866.00
1074.646, 20798.00
1075.747, 20847.00
1076.848, 20868.00
1077.949, 21049.00
1079.050, 20975.00
1080.150, 21097.00
1081.251, 21186.00
1082.351, 21072.00
1083.451, 20887.00
1084.551, 21017.00
1085.651, 20811.00
1086.750, 20852.00
1087.850, 20747.00
1088.949, 20628.00
1090.048, 20550.00
1091.147, 20556.00
1092.246, 20530.00
1093.345, 20536.00
1094.443, 20570.00
1095.541, 20645.00
1096.639, 20609.00
1097.737, 20615.07
1098.835, 20572.00
1099.933, 20542.00
1101.030, 20598.00
1102.128, 20541.00
1103.225, 20514.00
1104.322, 20393.00
1105.419, 20616.00
1106.515, 20623.00
1107.612, 20679.00
1108.708, 20588.00
1109.804, 20655.00
1110.900, 20819.00
1111.996, 20683.00
1113.092, 20661.00
1114.187, 20810.00
1115.283, 20799.00
1116.378, 20979.00
1117.473, 20902.00
1118.568, 21098.00
1119.662, 21154.00
1120.757, 21177.00
1121.851, 21209.76
1122.946, 21171.56
1124.040, 21146.00
1125.134, 21117.00
1126.227, 21073.00
1127.321, 21158.00
1128.414, 20968.00
1129.508, 21005.00
1130.601, 20894.00
1131.693, 20962.00
1132.786, 20944.37
1133.879, 20913.00
1134.971, 20937.00
1136.064, 20936.00
1137.156, 20868.00
1138.248, 20846.00
1139.339, 20870.00
1140.431, 20851.00
1141.522, 20930.00
1142.614, 20855.00
1143.705, 20815.00
1144.796, 21018.00
1145.887, 20869.00
1146.977, 20874.00
1148.068, 21028.00
1149.158, 21138.00
1150.248, 21090.00
1151.338, 21115.00
1152.428, 21142.00
1153.518, 20962.00
1154.607, 21158.00
1155.696, 20978.00
1156.785, 21095.00
1157.874, 21156.00
1158.963, 21243.00
1160.052, 21163.00
1161.141, 21176.00
1162.229, 21133.00
1163.317, 21221.00
1164.405, 21243.18
1165.493, 21280.95
1166.581, 21368.00
1167.668, 21385.00
1168.756, 21453.00
1169.843, 21512.00
1170.930, 21397.00
1172.017, 21487.00
1173.103, 21533.00
1174.190, 21429.00
1175.276, 21255.00
1176.363, 21504.00
1177.449, 21356.00
1178.535, 21502.00
1179.620, 21303.00
1180.706, 21484.00
1181.791, 21574.00
1182.877, 21465.00
1183.962, 21510.00
1185.047, 21479.00
1186.131, 21459.00
1187.216, 21551.00
1188.300, 21619.00
1189.385, 21539.00
1190.469, 21482.00
1191.553, 21602.00
1192.637, 21463.00
1193.720, 21448.00
1194.804, 21454.00
1195.887, 21738.00
1196.970, 21577.00
1198.053, 21643.00
1199.136, 21556.00
1200.219, 21426.00
1201.301, 21642.00
1202.383, 21714.00
1203.465, 21781.00
1204.547, 21710.00
1205.629, 21776.00
1206.711, 21599.00
1207.792, 21703.00
1208.874, 21778.00
1209.955, 21920.00
1211.036, 21785.00
1212.117, 21955.00
1213.198, 21925.00
1214.278, 21773.00
1215.359, 21837.00
1216.439, 21917.00
1217.519, 21921.00
1218.599, 21715.00
1219.678, 21625.00
1220.758, 22078.00
1221.837, 21909.00
1222.917, 22145.00
1223.996, 22135.00
1225.075, 22083.00
1226.153, 21795.00
1227.232, 22003.00
1228.310, 21965.00
1229.389, 22150.00
1230.467, 22114.00
1231.545, 22037.00
1232.622, 22268.00
1233.700, 22274.00
1234.777, 22287.00
1235.855, 22186.00
1236.932, 22275.00
1238.009, 22151.00
1239.086, 22410.00
1240.162, 22348.00
1241.239, 22349.00
1242.315, 22211.00
1243.391, 22589.00
1244.467, 22412.00
1245.543, 22347.00
1246.619, 22408.00
1247.694, 22262.00
1248.769, 22353.00
1249.844, 22482.00
1250.919, 22125.00
1251.994, 22391.00
1253.069, 22355.00
1254.144, 22466.00
1255.218, 22457.00
1256.292, 22572.00
1257.366, 22559.94
1258.440, 22409.00
1259.514, 22575.00
1260.587, 22511.00
1261.661, 22574.00
1262.734, 22504.00
1263.807, 22506.00
1264.880, 22552.00
1265.952, 22630.00
1267.025, 22648.00
1268.097, 22882.00
1269.170, 22517.00
1270.242, 22660.00
1271.314, 22649.00
1272.385, 22830.00
1273.457, 22858.78
1274.528, 22805.00
1275.600, 22936.00
1276.671, 22733.00
1277.742, 22686.00
1278.812, 22746.00
1279.883, 22848.00
1280.954, 22727.00
1282.024, 22816.00
1283.094, 22800.00
1284.164, 22764.00
1285.234, 22733.00
1286.303, 22797.00
1287.373, 22724.00
1288.442, 22884.00
1289.511, 22968.00
1290.580, 22830.00
1291.649, 22848.00
