##NAMES=Jadeite
##RRUFFID=R050220
##IDEAL CHEMISTRY=NaAlSi_2_O_6_
##LOCALITY=Clear Creek, San Benito County, California, USA
##OWNER=RRUFF
##SOURCE=Hatt Yoder
##DESCRIPTION=Aggregate of colorless bladed crystals
##STATUS=The identification of this mineral has been confirmed by X-ray diffraction and chemical analysis
##URL=rruff.info/R050220
##MEASURED CHEMISTRY=Na_1.00_Al_1.00_(Si_0.99_Al_0.01_)_2_O_6_
##PIN_ID=L01047
##ORIENTATION=Laser parallel to b* (0 1 0). Fiducial mark perpendicular to laser is parallel to c [0 0 1]
105.5290, 10417.00
106.7660, 10617.68
108.0020, 11533.00
109.2390, 11431.00
110.4750, 11815.00
111.7110, 12400.00
112.9460, 12517.00
114.1820, 12340.00
115.4170, 12270.00
116.6530, 12055.00
117.8880, 11701.00
119.1230, 11530.00
120.3580, 11522.00
121.5920, 11315.00
122.8270, 11276.00
124.0610, 11334.00
125.2950, 11302.00
126.5290, 11373.00
127.7630, 11755.00
128.9970, 11844.00
130.2300, 11665.00
131.4640, 11794.00
132.6970, 11587.00
133.9300, 11845.00
135.1630, 12084.00
136.3950, 11967.00
137.6280, 12119.00
138.8600, 12276.00
140.0920, 12534.00
141.3240, 12677.00
142.5560, 13043.00
143.7880, 13418.00
145.0190, 13670.00
146.2510, 13490.00
147.4820, 12925.00
148.7130, 12765.00
149.9440, 12861.00
151.1750, 12606.00
152.4050, 12603.00
153.6360, 12471.00
154.8660, 12558.00
156.0960, 12536.00
157.3260, 12640.00
158.5560, 12619.00
159.7850, 12701.00
161.0150, 12574.00
162.2440, 12789.00
163.4730, 12886.00
164.7020, 12966.00
165.9310, 12852.00
167.1590, 12954.00
168.3880, 13043.00
169.6160, 12916.00
170.8440, 13029.00
172.0720, 13061.00
173.3000, 13084.00
174.5280, 13197.00
175.7550, 13091.00
176.9820, 13178.00
178.2100, 13200.00
179.4370, 13166.00
180.6630, 13258.00
181.8900, 13452.00
183.1170, 13367.00
184.3430, 13513.00
185.5690, 13474.00
186.7950, 13696.00
188.0210, 13839.00
189.2470, 14012.00
190.4720, 14442.00
191.6970, 14729.00
192.9230, 15102.83
194.1480, 15737.00
195.3730, 15991.00
196.5970, 16330.00
197.8220, 16960.00
199.0460, 18392.00
200.2700, 20688.00
201.4940, 23512.00
202.7180, 27881.00
203.9420, 30137.00
205.1660, 28736.00
206.3890, 26572.00
207.6120, 23999.00
208.8350, 19849.00
210.0580, 17022.00
211.2810, 15445.00
212.5040, 14924.00
213.7260, 14611.00
214.9480, 14618.00
216.1700, 14387.00
217.3920, 14433.00
218.6140, 14558.00
219.8360, 14802.00
221.0570, 15428.00
222.2790, 15847.00
223.5000, 16268.00
224.7210, 16112.00
225.9410, 15269.00
227.1620, 14445.00
228.3820, 14366.00
229.6030, 14203.00
230.8230, 14097.00
232.0430, 14071.62
233.2630, 13892.00
234.4820, 14032.00
235.7020, 13970.00
236.9210, 13925.00
238.1400, 14030.00
239.3590, 13894.00
240.5780, 13845.00
241.7970, 14015.00
243.0150, 14134.00
244.2340, 14105.00
245.4520, 14159.00
246.6700, 14254.00
247.8880, 14422.00
249.1060, 14450.00
250.3230, 14673.00
251.5400, 14790.00
252.7580, 15109.00
253.9750, 15506.00
255.1920, 15726.00
256.4080, 15939.00
257.6250, 15779.00
258.8410, 15314.00
260.0580, 14781.00
261.2740, 14810.00
262.4900, 14515.00
263.7050, 14518.00
264.9210, 14547.00
266.1360, 14652.00
267.3520, 14443.00
268.5670, 14633.00
269.7820, 14519.00
270.9960, 14621.00
272.2110, 14782.00
273.4250, 14700.00
274.6400, 14755.00
275.8540, 14845.00
277.0680, 14943.00
278.2810, 15047.00
279.4950, 15085.00
280.7090, 15275.00
281.9220, 15516.00
283.1350, 15640.00
284.3480, 15952.00
285.5610, 16264.00
286.7730, 16715.00
287.9860, 17056.00
289.1980, 17934.00
290.4100, 18428.00
291.6220, 18831.00
292.8340, 19314.00
294.0460, 18959.00
295.2570, 18738.00
296.4690, 18203.00
297.6800, 17809.00
298.8910, 17581.00
300.1020, 17408.00
301.3120, 17171.00
302.5230, 17226.00
303.7330, 17157.00
304.9440, 17715.00
306.1540, 17994.00
307.3630, 18592.00
308.5730, 19303.00
309.7830, 19982.00
310.9920, 19970.00
312.2010, 20416.00
313.4100, 18938.00
314.6190, 17991.00
315.8280, 17408.00
317.0370, 17076.00
318.2450, 17001.00
319.4530, 16970.00
320.6610, 16883.00
321.8690, 17063.00
323.0770, 17377.00
324.2850, 17643.00
325.4920, 18150.00
326.6990, 19074.00
327.9060, 19777.00
329.1130, 20234.00
330.3200, 19824.00
331.5270, 18776.00
332.7330, 17889.00
333.9390, 17221.00
335.1450, 16667.00
336.3510, 16321.00
337.5570, 16091.00
338.7630, 16072.00
339.9680, 16196.00
341.1740, 15992.00
342.3790, 15990.00
343.5840, 16044.00
344.7890, 16108.00
345.9930, 15959.00
347.1980, 16174.00
348.4020, 16246.00
349.6060, 16205.00
350.8100, 16085.00
352.0140, 16111.00
353.2180, 16290.00
354.4210, 16299.00
355.6250, 16418.00
356.8280, 16520.00
358.0310, 16729.00
359.2340, 16927.00
360.4360, 17472.00
361.6390, 17722.00
362.8410, 18502.00
364.0430, 19117.00
365.2450, 20134.00
366.4470, 20961.00
367.6490, 21595.00
368.8510, 22769.00
370.0520, 24395.00
371.2530, 26739.00
372.4540, 29116.00
373.6550, 31233.00
374.8560, 32880.00
376.0560, 32250.00
377.2570, 30513.00
378.4570, 28416.00
379.6570, 26549.00
380.8570, 25402.00
382.0570, 24586.00
383.2560, 24770.00
384.4560, 24885.00
385.6550, 25095.00
386.8540, 24575.00
388.0530, 23399.00
389.2520, 21872.00
390.4510, 20733.00
391.6490, 19623.00
392.8470, 18709.00
394.0450, 17970.00
395.2430, 17649.00
396.4410, 17534.00
397.6390, 17164.00
398.8360, 17119.00
400.0340, 17087.00
401.2310, 17016.00
402.4280, 16995.00
403.6250, 17092.00
404.8210, 17017.00
406.0180, 17141.00
407.2140, 17098.00
408.4100, 16977.00
409.6060, 17328.00
410.8020, 17237.00
411.9980, 17362.00
413.1930, 17676.00
414.3890, 17567.00
415.5840, 17772.00
416.7790, 17895.00
417.9740, 18129.00
419.1680, 18281.00
420.3630, 18223.00
421.5570, 18515.00
422.7510, 18490.00
423.9450, 18806.00
425.1390, 18970.00
426.3330, 19231.00
427.5270, 19675.00
428.7200, 19976.00
429.9130, 20731.00
431.1060, 21043.00
432.2990, 21638.00
433.4920, 22016.00
434.6840, 21872.00
435.8770, 21814.00
437.0690, 21283.00
438.2610, 20664.00
439.4530, 19658.00
440.6450, 19363.00
441.8360, 19116.00
443.0280, 18292.00
444.2190, 18161.00
445.4100, 18120.00
446.6010, 17828.00
447.7920, 17573.00
448.9820, 17563.00
450.1730, 17535.00
451.3630, 17474.00
452.5530, 17507.00
453.7430, 17381.00
454.9330, 17350.00
456.1230, 17538.00
457.3120, 17400.00
458.5010, 17355.00
459.6910, 17556.00
460.8800, 17547.00
462.0680, 17289.00
463.2570, 17460.00
464.4460, 17349.00
465.6340, 17505.00
466.8220, 17434.00
468.0100, 17248.00
469.1980, 17506.00
470.3860, 17522.00
471.5730, 17418.00
472.7600, 17626.00
473.9480, 17523.00
475.1350, 17592.00
476.3210, 17613.00
477.5080, 17812.00
478.6950, 17802.00
479.8810, 17785.00
481.0670, 17909.00
482.2530, 17707.00
483.4390, 17838.00
484.6250, 17950.00
485.8100, 17760.00
486.9960, 17924.00
488.1810, 17921.00
489.3660, 17888.00
490.5510, 17923.00
491.7360, 17927.00
492.9200, 18098.00
494.1050, 17975.00
495.2890, 17822.00
496.4730, 17922.00
497.6570, 18065.00
498.8400, 17973.00
500.0240, 17984.00
501.2070, 17823.00
502.3910, 18119.00
503.5740, 18033.00
504.7570, 18240.00
505.9400, 18352.00
507.1220, 18461.00
508.3050, 18535.00
509.4870, 18621.00
510.6690, 18731.00
511.8510, 18853.00
513.0330, 19133.00
514.2140, 19456.00
515.3960, 19831.00
516.5770, 20306.00
517.7580, 20852.00
518.9390, 21646.00
520.1200, 22484.00
521.3010, 23620.00
522.4810, 24909.00
523.6610, 26138.00
524.8420, 26707.00
526.0220, 25818.00
527.2010, 24732.00
528.3810, 22892.00
529.5610, 21786.00
530.7400, 20650.00
531.9190, 19984.00
533.0980, 19559.00
534.2770, 19040.00
535.4560, 18987.00
536.6340, 18801.00
537.8120, 18871.00
538.9910, 18489.00
540.1690, 18572.00
541.3460, 18441.00
542.5240, 18561.00
543.7020, 18580.00
544.8790, 18556.00
546.0560, 18511.00
547.2330, 18427.00
548.4100, 18564.00
549.5870, 18557.00
550.7630, 18437.00
551.9400, 18600.00
553.1160, 18564.00
554.2920, 18816.00
555.4680, 18832.00
556.6440, 18762.00
557.8190, 19095.00
558.9950, 18829.00
560.1700, 19171.00
561.3450, 19004.00
562.5200, 19089.00
563.6950, 19088.00
564.8690, 19113.00
566.0440, 19160.00
567.2180, 19368.00
568.3920, 19516.00
569.5660, 19726.28
570.7400, 20007.11
571.9130, 20206.00
573.0870, 20584.00
574.2600, 20826.00
575.4330, 21057.00
576.6060, 20842.00
577.7790, 20495.00
578.9520, 20207.00
580.1240, 19962.00
581.2960, 19881.00
582.4690, 19537.00
583.6410, 19591.00
584.8120, 19690.00
585.9840, 19533.00
587.1560, 19766.00
588.3270, 19821.00
589.4980, 19887.00
590.6690, 19779.00
591.8400, 19785.00
593.0110, 19513.00
594.1810, 19430.00
595.3510, 19408.00
596.5220, 19240.00
597.6920, 19175.00
598.8610, 19258.00
600.0310, 19201.00
601.2010, 19177.00
602.3700, 19356.00
603.5390, 19205.00
604.7080, 19313.00
605.8770, 19026.00
607.0460, 19279.00
608.2140, 19245.00
609.3830, 19202.00
610.5510, 19311.00
611.7190, 19206.00
612.8870, 19175.00
614.0550, 19326.00
615.2220, 19231.00
616.3900, 19326.00
617.5570, 19385.00
618.7240, 19403.00
619.8910, 19330.00
621.0580, 19453.00
622.2240, 19451.00
623.3910, 19262.00
624.5570, 19404.00
625.7230, 19591.00
626.8890, 19416.00
628.0550, 19513.00
629.2200, 19519.00
630.3860, 19522.00
631.5510, 19762.00
632.7160, 19519.00
633.8810, 19674.00
635.0460, 19594.00
636.2100, 19752.00
637.3750, 19798.00
638.5390, 19751.00
639.7030, 19936.00
640.8670, 19970.00
642.0310, 19925.40
643.1950, 19710.00
644.3580, 19896.00
645.5210, 19893.00
646.6850, 20043.00
647.8480, 19870.00
649.0100, 20068.00
650.1730, 20174.00
651.3350, 20018.00
652.4980, 20053.00
653.6600, 20064.00
654.8220, 20096.00
655.9840, 20187.00
657.1450, 20230.00
658.3070, 20463.00
659.4680, 20104.00
660.6300, 20472.00
661.7910, 20590.00
662.9510, 20330.00
664.1120, 20420.00
665.2730, 20698.00
666.4330, 20726.00
667.5930, 20902.00
668.7530, 20822.00
669.9130, 20804.00
671.0730, 20837.00
672.2320, 21036.00
673.3920, 21299.00
674.5510, 21390.00
675.7100, 21548.00
676.8690, 21705.00
678.0280, 21859.00
679.1860, 21889.00
680.3450, 22301.00
681.5030, 22543.00
682.6610, 22988.00
683.8190, 23227.00
684.9770, 24011.00
686.1340, 24777.00
687.2920, 25584.00
688.4490, 26769.00
689.6060, 28398.00
690.7630, 30033.00
691.9200, 32739.00
693.0760, 35832.00
694.2330, 39696.00
695.3890, 44835.00
696.5450, 50121.00
697.7010, 56644.00
698.8570, 61942.00
700.0130, 64780.00
701.1680, 63913.00
702.3230, 59387.00
703.4780, 52559.00
704.6330, 45922.00
705.7880, 39791.00
706.9430, 35399.00
708.0970, 32029.00
709.2520, 29691.00
710.4060, 28189.00
711.5600, 26885.00
712.7140, 25688.00
713.8670, 25066.00
715.0210, 24120.00
716.1740, 23844.00
717.3270, 23601.00
718.4800, 23182.00
719.6330, 22819.00
720.7860, 22674.00
721.9380, 22509.00
723.0910, 22535.00
724.2430, 22273.00
725.3950, 22400.00
726.5470, 21992.00
727.6980, 22185.00
728.8500, 22028.00
730.0010, 21910.00
731.1530, 21929.00
732.3040, 21882.00
733.4550, 21957.00
734.6050, 21986.00
735.7560, 21858.00
736.9060, 21982.00
738.0560, 21760.00
739.2060, 21755.00
740.3560, 21788.00
741.5060, 21779.27
742.6560, 21818.12
743.8050, 21973.00
744.9540, 21848.00
746.1030, 22012.00
747.2520, 21944.00
748.4010, 22020.00
749.5500, 21949.00
750.6980, 22078.00
751.8460, 21783.00
752.9950, 21874.00
754.1420, 21991.00
755.2900, 21813.00
756.4380, 22102.00
757.5850, 22077.00
758.7330, 22190.00
759.8800, 22258.00
761.0270, 22035.00
762.1730, 22102.00
763.3200, 22105.00
764.4670, 22057.00
765.6130, 22265.00
766.7590, 22298.00
767.9050, 22383.00
769.0510, 22257.00
770.1960, 22674.00
771.3420, 22585.00
772.4870, 22746.00
773.6320, 23096.00
774.7770, 22910.00
775.9220, 23336.00
777.0670, 23557.00
778.2110, 23731.00
779.3560, 23801.00
780.5000, 23919.00
781.6440, 23745.00
782.7880, 23497.00
783.9320, 23066.00
785.0750, 22730.00
786.2180, 22549.00
787.3620, 22635.00
788.5050, 22435.00
789.6480, 22335.00
790.7900, 22324.00
791.9330, 22267.00
793.0750, 22343.00
794.2170, 22334.00
795.3590, 22387.00
796.5010, 22081.00
797.6430, 22256.00
798.7850, 22267.00
799.9260, 22243.00
801.0670, 22399.00
802.2080, 22222.00
803.3490, 22401.00
804.4900, 22353.00
805.6310, 22394.00
806.7710, 22322.00
807.9110, 22420.00
809.0510, 22404.65
810.1910, 22567.00
811.3310, 22458.00
812.4710, 22560.00
813.6100, 22635.00
814.7490, 22569.00
815.8880, 22577.00
817.0270, 22517.00
818.1660, 22671.00
819.3050, 22672.00
820.4430, 22719.00
821.5820, 22724.00
822.7200, 22771.30
823.8580, 22788.10
824.9950, 22832.00
826.1330, 22815.00
827.2710, 22768.00
828.4080, 22748.00
829.5450, 22694.00
830.6820, 22711.00
831.8190, 22934.00
832.9560, 23040.00
834.0920, 22890.00
835.2280, 22697.00
836.3650, 23015.00
837.5010, 23072.00
838.6360, 22873.00
839.7720, 22884.00
840.9080, 23068.00
842.0430, 23210.00
843.1780, 23042.00
844.3130, 23224.00
845.4480, 23065.00
846.5830, 23045.00
847.7170, 23259.00
848.8520, 23197.00
849.9860, 23160.00
851.1200, 23258.00
852.2540, 23224.47
853.3870, 23469.00
854.5210, 23271.00
855.6540, 23273.00
856.7880, 23286.00
857.9210, 23538.00
859.0540, 23398.00
860.1860, 23419.00
861.3190, 23478.00
862.4510, 23273.00
863.5840, 23611.00
864.7160, 23631.00
865.8480, 23719.00
866.9790, 23556.00
868.1110, 23772.00
869.2420, 23840.00
870.3740, 23661.00
871.5050, 23760.00
872.6360, 23867.00
873.7660, 23998.00
874.8970, 23714.00
876.0280, 23645.00
877.1580, 23591.00
878.2880, 23904.00
879.4180, 24074.00
880.5480, 23957.00
881.6770, 24075.00
882.8070, 24178.00
883.9360, 24135.00
885.0650, 24417.00
886.1940, 24394.00
887.3230, 24349.00
888.4520, 24297.00
889.5800, 24315.00
890.7090, 24309.00
891.8370, 24076.00
892.9650, 24005.00
894.0930, 23989.33
895.2200, 24001.00
896.3480, 23993.00
897.4750, 24093.00
898.6020, 24128.00
899.7290, 24006.00
900.8560, 23851.00
901.9830, 24038.00
903.1090, 23808.00
904.2360, 23933.00
905.3620, 24055.00
906.4880, 23942.00
907.6140, 23998.00
908.7400, 23967.00
909.8650, 23942.00
910.9900, 23930.27
912.1160, 23992.00
913.2410, 23909.00
914.3660, 23929.00
915.4900, 24032.00
916.6150, 24076.00
917.7390, 24067.00
918.8640, 24101.00
919.9880, 24125.00
921.1120, 24020.00
922.2350, 23984.00
923.3590, 24044.82
924.4820, 24110.00
925.6060, 24182.00
926.7290, 24143.00
927.8520, 24221.00
928.9740, 24280.00
930.0970, 24202.00
931.2190, 24282.00
932.3420, 24344.00
933.4640, 24245.00
934.5860, 24448.00
935.7080, 24421.00
936.8290, 24390.00
937.9510, 24479.00
939.0720, 24533.00
940.1930, 24488.00
941.3140, 24372.00
942.4350, 24457.00
943.5560, 24661.00
944.6760, 24855.00
945.7960, 24756.00
946.9170, 24751.00
948.0370, 24773.00
949.1560, 24834.00
950.2760, 24820.00
951.3960, 24867.00
952.5150, 24877.00
953.6340, 24877.00
954.7530, 24996.00
955.8720, 25026.00
956.9910, 24929.00
958.1090, 25016.00
959.2280, 25037.00
960.3460, 25004.00
961.4640, 25366.00
962.5820, 25322.00
963.6990, 25417.00
964.8170, 25308.00
965.9340, 25385.00
967.0510, 25458.00
968.1690, 25512.00
969.2850, 25605.00
970.4020, 25746.00
971.5190, 25907.00
972.6350, 25910.00
973.7510, 26169.00
974.8670, 26722.00
975.9830, 26657.00
977.0990, 27044.00
978.2150, 27261.00
979.3300, 27990.00
980.4450, 28311.00
981.5600, 29255.00
982.6750, 30158.00
983.7900, 31096.00
984.9050, 32326.00
986.0190, 33800.00
987.1340, 35005.00
988.2480, 35793.00
989.3620, 36918.00
990.4750, 37559.00
991.5890, 37946.00
992.7020, 37407.00
993.8160, 36585.00
994.9290, 35114.00
996.0420, 33181.00
997.1550, 31599.00
998.2670, 30236.00
999.3800, 29167.00
1000.492, 28511.00
1001.604, 27821.00
1002.716, 27422.00
1003.828, 27049.98
1004.940, 27023.00
1006.051, 26659.00
1007.163, 26489.00
1008.274, 26470.00
1009.385, 26370.00
1010.496, 26249.00
1011.606, 26300.00
1012.717, 26271.00
1013.827, 26274.00
1014.937, 26175.00
1016.047, 26376.00
1017.157, 26267.00
1018.267, 26518.00
1019.377, 26484.00
1020.486, 26614.00
1021.595, 26847.00
1022.704, 26959.00
1023.813, 26981.00
1024.922, 27381.00
1026.030, 27604.00
1027.139, 27938.29
1028.247, 28308.00
1029.355, 28856.00
1030.463, 29364.00
1031.571, 30143.00
1032.678, 30967.00
1033.786, 32082.00
1034.893, 33797.00
1036.000, 35687.00
1037.107, 37306.00
1038.214, 39078.00
1039.321, 40601.00
1040.427, 41095.00
1041.533, 39964.00
1042.639, 38251.00
1043.745, 36110.00
1044.851, 33493.00
1045.957, 31807.00
1047.062, 30508.00
1048.168, 29485.00
1049.273, 29077.00
1050.378, 28480.00
1051.482, 27904.00
1052.587, 27747.00
1053.692, 27365.00
1054.796, 27195.00
1055.900, 27074.00
1057.004, 26921.70
1058.108, 26968.00
1059.212, 26835.00
1060.315, 26865.00
1061.418, 26906.00
1062.522, 26656.00
1063.625, 26830.00
1064.728, 26822.00
1065.830, 26643.00
1066.933, 26712.00
1068.035, 26796.00
1069.137, 26704.00
1070.239, 26839.00
1071.341, 26687.00
1072.443, 26709.00
1073.545, 26846.00
1074.646, 26900.00
1075.747, 27115.00
1076.848, 26917.00
1077.949, 27089.00
1079.050, 27108.00
1080.150, 27038.00
1081.251, 27270.00
1082.351, 27239.00
1083.451, 27295.00
1084.551, 27198.00
1085.651, 26913.00
1086.750, 26987.00
1087.850, 26829.00
1088.949, 26873.00
1090.048, 26860.00
1091.147, 26894.00
1092.246, 26837.00
1093.345, 26895.00
1094.443, 27032.00
1095.541, 26962.00
1096.639, 26978.00
1097.737, 27075.00
1098.835, 27394.00
1099.933, 27590.00
1101.030, 27418.32
1102.128, 27391.00
1103.225, 27077.00
1104.322, 26935.00
1105.419, 26918.00
1106.515, 27149.00
1107.612, 27069.00
1108.708, 27047.00
1109.804, 27020.00
1110.900, 27167.00
1111.996, 26962.00
1113.092, 27128.00
1114.187, 27124.00
1115.283, 26974.00
1116.378, 27489.00
1117.473, 27139.00
1118.568, 27494.00
1119.662, 27116.00
1120.757, 27522.00
1121.851, 27431.00
1122.946, 27419.00
1124.040, 27387.00
1125.134, 27381.00
1126.227, 27345.00
1127.321, 27362.00
1128.414, 27448.00
1129.508, 27455.00
1130.601, 27338.00
1131.693, 27551.00
1132.786, 27385.00
1133.879, 27289.00
1134.971, 27611.00
1136.064, 27571.00
1137.156, 27424.00
1138.248, 27695.00
1139.339, 27604.00
1140.431, 27457.00
1141.522, 27540.00
1142.614, 27707.00
1143.705, 27519.00
1144.796, 27673.00
1145.887, 27463.00
1146.977, 27677.00
1148.068, 27872.00
1149.158, 27854.00
1150.248, 27791.00
1151.338, 27906.00
1152.428, 27745.00
1153.518, 27974.00
1154.607, 27794.00
1155.696, 28041.00
1156.785, 27949.00
1157.874, 27952.00
1158.963, 27796.00
1160.052, 27967.00
1161.141, 27983.00
1162.229, 27890.00
1163.317, 28228.00
1164.405, 28125.00
1165.493, 28252.00
1166.581, 27823.00
1167.668, 28179.00
1168.756, 28035.00
1169.843, 28080.00
1170.930, 28509.00
1172.017, 28308.00
1173.103, 28222.00
1174.190, 28189.00
1175.276, 28115.00
1176.363, 28192.00
1177.449, 28115.23
1178.535, 28124.47
1179.620, 28085.00
1180.706, 28138.00
1181.791, 28215.00
1182.877, 28283.00
1183.962, 28515.00
1185.047, 28411.00
1186.131, 28302.00
1187.216, 28562.00
1188.300, 28400.00
1189.385, 28395.00
1190.469, 28541.00
1191.553, 28493.00
1192.637, 28553.00
1193.720, 28468.00
1194.804, 28284.00
1195.887, 28574.00
1196.970, 28583.00
1198.053, 28447.00
1199.136, 28591.00
1200.219, 28697.00
1201.301, 28593.00
1202.383, 28590.00
1203.465, 28684.00
1204.547, 28810.00
1205.629, 28663.00
1206.711, 28711.00
1207.792, 28568.00
1208.874, 28794.00
1209.955, 28555.00
1211.036, 28752.00
1212.117, 28593.00
1213.198, 28805.00
1214.278, 28754.00
1215.359, 28813.00
1216.439, 28929.00
1217.519, 28807.00
1218.599, 28897.48
1219.678, 28985.00
1220.758, 28949.00
1221.837, 28930.00
1222.917, 28985.00
1223.996, 29191.00
1225.075, 29046.00
1226.153, 29294.00
1227.232, 29079.00
1228.310, 29152.64
1229.389, 29092.00
1230.467, 29121.00
1231.545, 29177.00
1232.622, 29049.00
1233.700, 29237.00
1234.777, 29130.00
1235.855, 29323.00
1236.932, 29165.00
1238.009, 29240.00
1239.086, 29394.00
1240.162, 29036.00
1241.239, 29174.00
1242.315, 29264.00
1243.391, 29079.00
1244.467, 29570.00
1245.543, 29363.00
1246.619, 29220.00
1247.694, 28956.00
1248.769, 29029.37
1249.844, 29404.00
1250.919, 29239.00
1251.994, 29251.00
1253.069, 29468.00
1254.144, 29024.00
1255.218, 29466.00
1256.292, 29421.00
1257.366, 29449.00
1258.440, 29470.00
1259.514, 29591.00
1260.587, 29540.00
1261.661, 29880.00
1262.734, 29606.00
1263.807, 29632.00
1264.880, 29858.00
1265.952, 29641.00
1267.025, 29591.00
1268.097, 29657.00
1269.170, 29628.00
1270.242, 29701.83
1271.314, 29560.00
1272.385, 29855.00
1273.457, 29826.00
1274.528, 29886.00
1275.600, 29761.00
1276.671, 29701.00
1277.742, 29878.00
1278.812, 29801.00
1279.883, 29758.00
1280.954, 29798.00
1282.024, 29850.00
1283.094, 29939.00
1284.164, 30004.00
1285.234, 29970.00
