##NAMES=Kanoite
##RRUFFID=R061134
##IDEAL CHEMISTRY=Mn^2+^MgSi_2_O_6_
##LOCALITY=Balmat, St. Lawrence County, New York, USA
##OWNER=RRUFF
##SOURCE=Michael Scott
##DESCRIPTION=Yellowish brown granular aggregate
##STATUS=The identification of this mineral has been confirmed by X-ray diffraction and chemical analysis
##URL=rruff.info/R061134
##MEASURED CHEMISTRY=(Mn^2+^_0.88_Ca_0.12_)_Σ=1_(Mg_0.98_Fe^3+^_0.02_)_Σ=1_(Si_0.98_Al_0.02_)_2_O_6_
##PIN_ID=M00160
##ORIENTATION=Laser parallel to c* (0 0 1). Fiducial mark perpendicular to laser is parallel to a [1 0 0]
109.0250, 15133.00
110.2640, 15141.00
111.5030, 15162.00
112.7420, 15214.00
113.9810, 15624.00
115.2200, 15669.00
116.4580, 15796.00
117.6970, 15970.00
118.9350, 16038.00
120.1730, 16018.00
121.4100, 16043.00
122.6480, 16293.00
123.8850, 16553.00
125.1230, 16692.00
126.3600, 17027.00
127.5960, 17382.00
128.8330, 17788.00
130.0700, 17907.00
131.3060, 17877.00
132.5420, 18068.00
133.7780, 18108.00
135.0140, 18039.00
136.2500, 18280.00
137.4850, 18385.00
138.7200, 18627.00
139.9550, 18500.00
141.1900, 18478.00
142.4250, 18322.00
143.6600, 18257.00
144.8940, 18132.00
146.1280, 18233.00
147.3620, 18245.00
148.5960, 18085.00
149.8300, 18114.00
151.0630, 17814.00
152.2960, 17859.00
153.5300, 17709.00
154.7620, 17528.00
155.9950, 17613.00
157.2280, 17417.00
158.4600, 17447.00
159.6920, 17419.00
160.9250, 17321.00
162.1560, 17591.00
163.3880, 17634.00
164.6200, 17607.00
165.8510, 17616.00
167.0820, 17688.00
168.3130, 17672.00
169.5440, 17743.00
170.7750, 17805.00
172.0050, 17899.00
173.2350, 17973.81
174.4650, 18023.88
175.6950, 18112.00
176.9250, 18141.00
178.1550, 18136.00
179.3840, 18235.00
180.6130, 18273.00
181.8420, 18219.00
183.0710, 18394.00
184.3000, 18512.00
185.5280, 18458.00
186.7570, 18714.00
187.9850, 18676.00
189.2130, 18718.00
190.4400, 19077.00
191.6680, 19320.00
192.8960, 19340.00
194.1230, 19424.00
195.3500, 19526.00
196.5770, 19605.26
197.8030, 19708.22
199.0300, 19826.00
200.2560, 19918.00
201.4830, 20043.00
202.7090, 20168.00
203.9340, 20061.00
205.1600, 20107.00
206.3860, 20358.00
207.6110, 20304.00
208.8360, 20497.00
210.0610, 20732.00
211.2860, 20743.00
212.5100, 20971.00
213.7350, 21311.00
214.9590, 21749.00
216.1830, 21559.00
217.4070, 21621.00
218.6310, 21554.00
219.8540, 21406.00
221.0780, 21212.00
222.3010, 20986.00
223.5240, 20790.00
224.7470, 20693.00
225.9690, 20595.00
227.1920, 20484.19
228.4140, 20426.00
229.6360, 20348.00
230.8580, 20368.00
232.0800, 20359.00
233.3020, 20353.00
234.5230, 20228.00
235.7440, 20108.00
236.9650, 20216.00
238.1860, 20391.00
239.4070, 20085.00
240.6280, 20188.00
241.8480, 19944.00
243.0680, 20084.00
244.2880, 19987.00
245.5080, 20104.00
246.7280, 19978.00
247.9470, 20096.00
249.1660, 20246.00
250.3860, 20011.00
251.6040, 20274.00
252.8230, 20138.00
254.0420, 20060.00
255.2600, 20021.00
256.4790, 19938.00
257.6970, 19960.00
258.9150, 19960.46
260.1320, 19960.42
261.3500, 20029.00
262.5670, 19995.00
263.7840, 20019.30
265.0010, 20006.98
266.2180, 20116.00
267.4350, 20064.00
268.6510, 20070.00
269.8680, 20061.00
271.0840, 20037.00
272.3000, 20066.00
273.5160, 20218.00
274.7310, 20193.00
275.9470, 20354.00
277.1620, 20398.00
278.3770, 20614.00
279.5920, 20587.00
280.8070, 20402.00
282.0210, 20542.00
283.2360, 20669.00
284.4500, 20491.00
285.6640, 20734.00
286.8780, 20946.00
288.0920, 20545.00
289.3050, 20687.00
290.5180, 20751.00
291.7320, 20993.00
292.9450, 20922.00
294.1570, 20998.00
295.3700, 21093.00
296.5830, 21321.00
297.7950, 21377.00
299.0070, 21538.00
300.2190, 21725.00
301.4310, 21931.00
302.6420, 22190.00
303.8540, 22263.00
305.0650, 22452.00
306.2760, 22822.00
307.4870, 23120.00
308.6980, 22940.00
309.9080, 23465.00
311.1190, 23744.00
312.3290, 24315.00
313.5390, 24823.00
314.7490, 25234.00
315.9580, 25850.00
317.1680, 26569.00
318.3770, 27173.00
319.5860, 28018.00
320.7950, 28358.00
322.0040, 28878.00
323.2130, 29049.00
324.4210, 29052.00
325.6290, 28878.00
326.8380, 28397.00
328.0460, 27988.00
329.2530, 27475.00
330.4610, 27028.83
331.6680, 26595.00
332.8760, 26120.00
334.0830, 25650.00
335.2890, 25242.00
336.4960, 24905.12
337.7030, 24578.63
338.9090, 24338.00
340.1150, 24123.00
341.3210, 23897.00
342.5270, 23850.00
343.7330, 23653.00
344.9380, 23696.00
346.1440, 23532.00
347.3490, 23641.00
348.5540, 23769.00
349.7590, 23923.00
350.9630, 24024.00
352.1680, 24099.50
353.3720, 24196.00
354.5760, 24192.00
355.7800, 24302.00
356.9840, 24317.00
358.1870, 24268.00
359.3910, 24318.00
360.5940, 24123.00
361.7970, 23875.00
363.0000, 23985.00
364.2030, 23792.00
365.4050, 23966.00
366.6080, 24150.00
367.8100, 24029.00
369.0120, 24311.00
370.2140, 24376.00
371.4150, 24495.00
372.6170, 25101.00
373.8180, 24647.00
375.0190, 24559.00
376.2200, 25058.00
377.4210, 24421.00
378.6220, 24326.00
379.8220, 23918.00
381.0230, 24071.00
382.2230, 24288.00
383.4230, 24398.00
384.6220, 24507.00
385.8220, 25015.00
387.0220, 25274.00
388.2210, 25452.00
389.4200, 25817.00
390.6190, 26197.00
391.8180, 26405.00
393.0160, 26198.00
394.2150, 25797.00
395.4130, 25534.00
396.6110, 25045.00
397.8090, 24523.00
399.0060, 24263.00
400.2040, 23796.00
401.4010, 23496.00
402.5980, 23104.00
403.7950, 23092.00
404.9920, 22937.00
406.1890, 22780.00
407.3860, 22821.00
408.5820, 22840.00
409.7780, 22836.00
410.9740, 22757.00
412.1700, 22790.00
413.3650, 22695.00
414.5610, 22838.00
415.7560, 22842.00
416.9510, 22912.00
418.1460, 22681.00
419.3410, 22678.00
420.5360, 22723.00
421.7300, 22788.00
422.9240, 22711.00
424.1180, 22634.00
425.3120, 22483.00
426.5060, 22668.00
427.7000, 22538.00
428.8930, 22610.00
430.0860, 22694.00
431.2790, 22656.00
432.4720, 22525.00
433.6650, 22443.00
434.8580, 22430.00
436.0500, 22447.02
437.2420, 22612.00
438.4340, 22650.00
439.6260, 22588.00
440.8180, 22807.00
442.0090, 22570.00
443.2010, 22573.00
444.3920, 22870.00
445.5830, 22784.00
446.7740, 22784.00
447.9640, 22893.00
449.1550, 23077.00
450.3450, 23137.00
451.5350, 23232.00
452.7250, 23298.00
453.9150, 23358.00
455.1050, 23601.00
456.2940, 23592.00
457.4830, 23889.00
458.6720, 24054.00
459.8610, 24638.00
461.0500, 24874.00
462.2390, 25863.00
463.4270, 26277.00
464.6150, 27095.00
465.8040, 27089.00
466.9910, 26878.00
468.1790, 26334.00
469.3670, 25726.00
470.5540, 25269.00
471.7410, 24809.00
472.9280, 24408.00
474.1150, 24180.00
475.3020, 24100.00
476.4890, 24104.00
477.6750, 24008.00
478.8610, 23853.00
480.0470, 23830.00
481.2330, 23805.00
482.4190, 23725.00
483.6040, 23541.00
484.7900, 23785.00
485.9750, 23562.00
487.1600, 23671.00
488.3450, 23817.00
489.5290, 23820.00
490.7140, 23775.00
491.8980, 23700.00
493.0820, 23646.00
494.2660, 23850.00
495.4500, 23861.00
496.6340, 23865.00
497.8170, 24077.00
499.0010, 24071.00
500.1840, 24256.00
501.3670, 24222.00
502.5500, 24219.00
503.7320, 24312.00
504.9150, 24366.00
506.0970, 24392.00
507.2790, 24488.00
508.4610, 24556.00
509.6430, 24579.00
510.8250, 24652.00
512.0060, 24850.00
513.1870, 24772.00
514.3680, 24797.00
515.5490, 25048.00
516.7300, 25276.00
517.9110, 25224.00
519.0910, 25502.00
520.2710, 25338.00
521.4510, 25100.00
522.6310, 25226.00
523.8110, 25185.00
524.9910, 25250.00
526.1700, 25145.00
527.3490, 24811.00
528.5280, 24951.00
529.7070, 24995.00
530.8860, 24830.00
532.0650, 25227.00
533.2430, 25176.00
534.4210, 25319.00
535.5990, 25379.00
536.7770, 25601.00
537.9550, 25844.00
539.1320, 25604.00
540.3100, 25702.00
541.4870, 25510.00
542.6640, 25717.00
543.8410, 25631.00
545.0170, 25551.00
546.1940, 25771.00
547.3700, 25846.00
548.5470, 25869.00
549.7230, 25950.00
550.8980, 26053.00
552.0740, 26072.00
553.2500, 26291.00
554.4250, 26175.00
555.6000, 26267.00
556.7750, 26269.00
557.9500, 26147.00
559.1250, 26077.00
560.2990, 25730.00
561.4730, 25441.00
562.6480, 25269.00
563.8220, 25147.10
564.9950, 25278.00
566.1690, 25094.00
567.3430, 25270.00
568.5160, 25311.00
569.6890, 25095.00
570.8620, 25126.00
572.0350, 24937.00
573.2070, 25135.00
574.3800, 24986.00
575.5520, 24979.00
576.7240, 25102.00
577.8960, 25085.00
579.0680, 25035.00
580.2400, 25183.00
581.4110, 25129.00
582.5830, 24935.00
583.7540, 25066.00
584.9250, 25122.00
586.0950, 25272.00
587.2660, 25045.00
588.4370, 25036.00
589.6070, 25061.00
590.7770, 25007.00
591.9470, 25125.00
593.1170, 25135.00
594.2860, 25143.00
595.4560, 25072.00
596.6250, 25199.00
597.7940, 25216.00
598.9630, 25236.00
600.1320, 25328.00
601.3000, 25313.00
602.4690, 25262.00
603.6370, 25434.00
604.8050, 25171.00
605.9730, 25321.00
607.1410, 25300.00
608.3090, 25553.00
609.4760, 25343.00
610.6430, 25492.00
611.8100, 25553.00
612.9770, 25494.00
614.1440, 25357.00
615.3110, 25715.00
616.4770, 25480.00
617.6430, 25650.00
618.8090, 25870.00
619.9750, 25785.00
621.1410, 25769.00
622.3070, 25647.00
623.4720, 25752.00
624.6370, 25979.00
625.8020, 25874.00
626.9670, 26043.00
628.1320, 26205.00
629.2970, 26163.00
630.4610, 26254.00
631.6250, 26309.00
632.7890, 26268.00
633.9530, 26435.00
635.1170, 26410.00
636.2810, 26536.00
637.4440, 26651.00
638.6070, 26833.00
639.7700, 26873.00
640.9330, 27086.00
642.0960, 27444.00
643.2590, 27506.00
644.4210, 27796.00
645.5830, 28164.00
646.7450, 28550.00
647.9070, 28686.00
649.0690, 29473.00
650.2310, 29954.00
651.3920, 30718.00
652.5530, 31493.37
653.7140, 32184.00
654.8750, 33092.00
656.0360, 33936.00
657.1970, 34669.00
658.3570, 35611.00
659.5170, 36342.00
660.6770, 36807.00
661.8370, 37541.00
662.9970, 38327.00
664.1570, 39096.00
665.3160, 39927.00
666.4750, 40642.00
667.6340, 40944.00
668.7930, 40364.00
669.9520, 39593.00
671.1110, 38694.00
672.2690, 37381.00
673.4270, 35830.00
674.5850, 34751.00
675.7430, 33652.00
676.9010, 32913.00
678.0590, 31813.00
679.2160, 31248.00
680.3730, 30608.00
681.5300, 30270.00
682.6870, 29987.00
683.8440, 29687.00
685.0010, 29326.00
686.1570, 29266.00
687.3130, 28939.00
688.4690, 28782.00
689.6250, 28834.00
690.7810, 28457.00
691.9370, 28252.00
693.0920, 28318.00
694.2470, 28037.00
695.4020, 28211.00
696.5570, 27980.00
697.7120, 27863.00
698.8670, 27918.00
700.0210, 27899.00
701.1750, 27757.00
702.3290, 27678.00
703.4830, 27703.00
704.6370, 27772.00
705.7910, 27704.00
706.9440, 27856.00
708.0970, 27457.00
709.2510, 27581.00
710.4030, 27359.00
711.5560, 27735.00
712.7090, 27606.00
713.8610, 27686.00
715.0140, 27762.00
716.1660, 27703.00
717.3180, 27655.00
718.4690, 27615.00
719.6210, 27743.00
720.7730, 27786.00
721.9240, 27630.00
723.0750, 27756.00
724.2260, 27943.00
725.3770, 27876.00
726.5270, 27812.00
727.6780, 27969.00
728.8280, 27973.00
729.9780, 28037.00
731.1280, 28015.55
732.2780, 28040.00
733.4280, 27938.00
734.5770, 27694.00
735.7260, 27702.00
736.8760, 27715.00
738.0250, 27799.00
739.1730, 28063.00
740.3220, 27851.00
741.4700, 27778.00
742.6190, 27594.00
743.7670, 27891.00
744.9150, 27861.00
746.0630, 28070.00
747.2100, 27907.00
748.3580, 27772.00
749.5050, 27913.00
750.6520, 27909.00
751.7990, 27853.00
752.9460, 27833.00
754.0930, 28080.00
755.2390, 28057.00
756.3860, 27884.00
757.5320, 28143.00
758.6780, 27810.00
759.8240, 28034.00
760.9690, 27953.00
762.1150, 28304.00
763.2600, 28228.00
764.4060, 28017.00
765.5510, 28155.00
766.6950, 28186.00
767.8400, 28273.00
768.9850, 28243.00
770.1290, 28263.00
771.2730, 28294.52
772.4170, 28309.62
773.5610, 28366.00
774.7050, 28388.00
775.8480, 28421.27
776.9920, 28558.00
778.1350, 28484.00
779.2780, 28569.00
780.4210, 28604.74
781.5640, 28585.65
782.7060, 28696.00
783.8490, 28595.00
784.9910, 28551.00
786.1330, 28561.00
787.2750, 28475.00
788.4170, 28467.00
789.5580, 28513.21
790.7000, 28611.00
791.8410, 28675.00
792.9820, 28709.00
794.1230, 28878.00
795.2640, 28728.00
796.4040, 28681.00
797.5450, 28894.00
798.6850, 28959.00
799.8250, 28996.00
800.9650, 28828.00
802.1050, 28856.00
803.2450, 28966.00
804.3840, 28839.00
805.5230, 28983.00
806.6630, 28966.00
807.8020, 28957.00
808.9400, 28993.00
810.0790, 29058.00
811.2170, 29161.00
812.3560, 29204.00
813.4940, 29311.00
814.6320, 29254.00
815.7700, 29310.21
816.9070, 29242.00
818.0450, 29336.00
819.1820, 29140.00
820.3190, 29146.00
821.4560, 29412.00
822.5930, 29273.00
823.7300, 29368.00
824.8670, 29455.00
826.0030, 29162.00
827.1390, 29420.00
828.2750, 29293.00
829.4110, 29356.00
830.5470, 29466.00
831.6820, 29395.00
832.8180, 29569.00
833.9530, 29727.00
835.0880, 29607.00
836.2230, 29648.00
837.3580, 29555.00
838.4920, 29479.00
839.6270, 29686.00
840.7610, 29771.00
841.8950, 29615.00
843.0290, 29579.00
844.1630, 29835.00
845.2960, 29457.00
846.4300, 29899.00
847.5630, 29837.00
848.6960, 30013.00
849.8290, 29958.00
850.9620, 29940.00
852.0940, 29948.00
853.2270, 29939.00
854.3590, 30099.00
855.4910, 29987.00
856.6230, 30079.00
857.7550, 30084.00
858.8870, 30029.00
860.0180, 30163.00
861.1500, 30077.00
862.2810, 30310.00
863.4120, 30388.00
864.5430, 30272.00
865.6730, 30288.00
866.8040, 30352.00
867.9340, 30308.08
869.0640, 30378.00
870.1940, 30363.00
871.3240, 30538.00
872.4540, 30653.00
873.5830, 30549.00
874.7130, 30455.00
875.8420, 30821.00
876.9710, 30702.00
878.1000, 30669.00
879.2290, 30714.00
880.3570, 30890.00
881.4860, 30901.00
882.6140, 30800.00
883.7420, 30752.00
884.8700, 31034.00
885.9980, 31216.00
887.1250, 30986.00
888.2530, 31023.00
889.3800, 30931.00
890.5070, 30910.69
891.6340, 31159.00
892.7610, 31032.00
893.8880, 31085.00
895.0140, 31350.00
896.1400, 31400.00
897.2670, 31339.00
898.3930, 31344.00
899.5180, 31218.00
900.6440, 31332.00
901.7700, 31249.00
902.8950, 31212.00
904.0200, 31362.00
905.1450, 31484.00
906.2700, 31220.00
907.3950, 31374.00
908.5190, 31354.00
909.6440, 31343.00
910.7680, 31593.00
911.8920, 31540.00
913.0160, 31652.00
914.1400, 31821.00
915.2630, 31830.00
916.3870, 31870.00
917.5100, 31946.00
918.6330, 31792.00
919.7560, 32154.00
920.8790, 32040.00
922.0010, 32228.00
923.1240, 32321.00
924.2460, 32451.00
925.3680, 32474.00
926.4900, 32567.00
927.6120, 32744.00
928.7340, 32776.00
929.8550, 32659.00
930.9760, 32858.00
932.0980, 32835.00
933.2190, 32703.00
934.3390, 32766.00
935.4600, 32819.00
936.5810, 32799.17
937.7010, 32808.69
938.8210, 32859.00
939.9410, 32792.00
941.0610, 32809.00
942.1810, 32881.00
943.3010, 32953.00
944.4200, 32818.00
945.5390, 32967.00
946.6580, 32674.00
947.7770, 32564.00
948.8960, 32669.00
950.0150, 32623.00
951.1330, 32583.00
952.2510, 32467.00
953.3690, 32521.00
954.4870, 32512.96
955.6050, 32641.00
956.7230, 32674.00
957.8400, 32738.00
958.9580, 32980.00
960.0750, 32913.00
961.1920, 33024.00
962.3090, 32996.00
963.4250, 33232.00
964.5420, 33190.00
965.6580, 33419.00
966.7740, 33384.00
967.8900, 33476.00
969.0060, 33627.00
970.1220, 33780.00
971.2380, 33826.00
972.3530, 33830.00
973.4680, 33983.00
974.5830, 34005.00
975.6980, 34178.00
976.8130, 34096.00
977.9280, 34242.00
979.0420, 34756.00
980.1560, 34758.00
981.2710, 34756.00
982.3850, 35337.00
983.4980, 35534.00
984.6120, 35874.00
985.7260, 36697.00
986.8390, 37168.00
987.9520, 37781.00
989.0650, 38876.00
990.1780, 39989.00
991.2910, 41579.00
992.4030, 43255.00
993.5160, 45102.00
994.6280, 47246.00
995.7400, 49578.00
996.8520, 52053.00
997.9640, 54122.00
999.0750, 56791.00
1000.187, 57960.00
1001.298, 59077.00
1002.409, 59721.00
1003.520, 59076.00
1004.631, 57976.00
1005.741, 56747.00
1006.852, 54990.00
1007.962, 53033.00
1009.072, 51151.00
1010.182, 49280.00
1011.292, 47653.00
1012.402, 46073.00
1013.511, 44699.03
1014.621, 43393.00
1015.730, 42375.36
1016.839, 41448.66
1017.948, 40662.00
1019.056, 40011.00
1020.165, 39503.00
1021.273, 39010.00
1022.382, 38251.00
1023.490, 38288.00
1024.598, 37360.00
1025.706, 37262.00
1026.813, 37086.00
1027.921, 36802.00
1029.028, 36602.26
1030.135, 36298.00
1031.242, 36052.00
1032.349, 35851.00
1033.456, 35654.44
1034.562, 35518.00
1035.668, 35416.00
1036.775, 35349.00
1037.881, 35387.00
1038.987, 35344.00
1040.092, 35392.00
1041.198, 35537.00
1042.303, 35354.00
1043.408, 35236.00
1044.514, 35388.00
1045.618, 35275.00
1046.723, 35088.00
1047.828, 35317.00
1048.932, 35446.00
1050.037, 34811.00
1051.141, 35210.00
1052.245, 35138.00
1053.349, 34952.00
1054.452, 35064.00
1055.556, 34941.00
1056.659, 34909.00
1057.762, 35165.00
1058.865, 34932.00
1059.968, 34743.00
1061.071, 34859.00
1062.174, 34895.00
1063.276, 34963.00
1064.378, 34962.00
1065.480, 35074.00
1066.582, 35069.00
1067.684, 35040.00
1068.786, 34956.00
1069.887, 35114.00
1070.988, 35018.00
1072.090, 35013.00
1073.191, 35003.00
1074.291, 34950.00
1075.392, 35011.00
1076.493, 35251.00
1077.593, 35048.00
1078.693, 35246.00
1079.793, 34995.00
1080.893, 34962.00
1081.993, 35354.00
1083.092, 35381.00
1084.192, 35191.00
1085.291, 35236.00
1086.390, 35298.00
1087.489, 35595.00
1088.588, 35646.00
1089.686, 35634.00
1090.785, 35434.00
1091.883, 35208.00
1092.981, 35620.00
1094.079, 35503.00
1095.177, 35458.00
1096.275, 35738.00
1097.373, 35577.00
1098.470, 35500.00
1099.567, 35623.00
1100.664, 35481.00
1101.761, 35486.00
1102.858, 35553.00
1103.954, 35193.00
1105.051, 35472.00
1106.147, 35304.00
1107.243, 35249.00
1108.339, 35533.00
1109.435, 35397.00
1110.531, 35814.00
1111.626, 35726.00
1112.722, 35780.00
1113.817, 35618.00
1114.912, 35898.00
1116.007, 35793.00
1117.101, 36098.00
1118.196, 35911.00
1119.290, 36153.00
1120.385, 36145.00
1121.479, 36236.00
1122.573, 36391.00
1123.666, 36084.00
1124.760, 36124.00
1125.853, 36285.00
1126.947, 36021.00
1128.040, 35745.00
1129.133, 36001.00
1130.226, 35896.00
1131.318, 36091.00
1132.411, 35922.00
1133.503, 35829.00
1134.596, 35995.00
1135.688, 36133.00
1136.780, 36036.00
1137.871, 36060.00
1138.963, 35921.00
1140.054, 35850.00
1141.146, 36186.00
1142.237, 36019.00
1143.328, 35785.00
1144.419, 36177.00
1145.509, 36218.00
1146.600, 36175.00
1147.690, 35947.00
1148.780, 36142.00
1149.870, 36134.00
1150.960, 36081.00
1152.050, 36292.00
1153.139, 35908.00
1154.229, 36182.00
1155.318, 36516.00
1156.407, 36336.00
1157.496, 36194.00
1158.585, 36330.00
1159.674, 36474.00
1160.762, 36591.00
1161.850, 36642.32
1162.939, 36451.00
1164.027, 36597.00
1165.114, 36818.00
1166.202, 36576.00
1167.290, 36719.00
1168.377, 36464.00
1169.464, 36525.00
1170.551, 36502.00
1171.638, 36723.00
1172.725, 36576.00
1173.812, 36396.00
1174.898, 36660.00
1175.984, 36579.00
1177.071, 36628.00
1178.157, 36829.00
1179.242, 36790.00
1180.328, 36839.00
1181.414, 36775.00
1182.499, 36740.00
1183.584, 36722.00
1184.669, 36972.00
1185.754, 37130.00
1186.839, 36894.00
1187.924, 37056.00
1189.008, 36901.00
1190.092, 36903.00
1191.177, 36979.00
1192.260, 37031.00
1193.344, 36908.00
1194.428, 36898.00
1195.512, 36952.82
1196.595, 36932.51
1197.678, 37134.00
1198.761, 37052.00
1199.844, 37258.00
1200.927, 37416.00
1202.009, 37301.00
1203.092, 37377.00
1204.174, 37403.44
1205.256, 37534.00
1206.338, 37410.00
1207.420, 37453.00
1208.502, 37369.00
1209.583, 37457.00
1210.665, 37418.00
1211.746, 37472.80
1212.827, 37468.00
1213.908, 37581.00
1214.988, 37609.00
1216.069, 37631.00
1217.149, 37604.00
1218.230, 37634.00
1219.310, 37655.02
1220.390, 37701.09
1221.470, 37728.00
1222.549, 37816.00
1223.629, 37877.00
1224.708, 37907.00
1225.787, 37910.00
1226.866, 37918.65
1227.945, 37974.00
1229.024, 37886.00
1230.103, 37940.00
1231.181, 37921.00
1232.259, 37714.00
1233.337, 37813.27
1234.415, 37721.00
1235.493, 37931.00
1236.571, 38013.00
1237.648, 38242.00
1238.726, 37809.00
1239.803, 38081.00
1240.880, 38399.00
1241.957, 37815.00
1243.034, 37956.00
1244.110, 38384.00
1245.187, 38124.00
1246.263, 37991.00
1247.339, 38186.00
1248.415, 38214.00
1249.491, 38372.00
1250.566, 38385.00
1251.642, 38635.00
1252.717, 38593.47
1253.793, 38339.00
1254.868, 38509.00
1255.943, 38398.00
1257.017, 38205.00
1258.092, 38239.00
1259.166, 38384.00
1260.241, 38502.00
1261.315, 38476.00
1262.389, 38759.00
1263.462, 39110.00
1264.536, 38769.00
1265.610, 38623.00
1266.683, 38857.00
1267.756, 38627.00
1268.829, 38613.00
1269.902, 38882.00
1270.975, 38892.00
1272.048, 38678.00
1273.120, 38921.00
1274.192, 39267.00
1275.264, 38927.00
1276.336, 38822.00
1277.408, 39339.00
1278.480, 39130.00
1279.551, 39261.00
1280.623, 39034.00
1281.694, 38867.00
1282.765, 39020.00
1283.836, 39072.00
1284.907, 39208.00
1285.977, 39175.76
