##NAMES=Kanoite
##RRUFFID=R061134
##IDEAL CHEMISTRY=Mn^2+^MgSi_2_O_6_
##LOCALITY=Balmat, St. Lawrence County, New York, USA
##OWNER=RRUFF
##SOURCE=Michael Scott
##DESCRIPTION=Yellowish brown granular aggregate
##STATUS=The identification of this mineral has been confirmed by X-ray diffraction and chemical analysis
##URL=rruff.info/R061134
##MEASURED CHEMISTRY=(Mn^2+^_0.88_Ca_0.12_)_Σ=1_(Mg_0.98_Fe^3+^_0.02_)_Σ=1_(Si_0.98_Al_0.02_)_2_O_6_
##PIN_ID=L00480
##ORIENTATION=Laser parallel to -c* (0 0 -1). Fiducial mark perpendicular to laser is parallel to a [1 0 0]
111.5030, 16214.00
112.7420, 16560.00
113.9810, 16689.00
115.2200, 16957.00
116.4580, 16759.00
117.6970, 16995.00
118.9350, 17057.00
120.1730, 16994.00
121.4100, 17017.00
122.6480, 17107.00
123.8850, 17284.00
125.1230, 17282.00
126.3600, 17351.00
127.5960, 17706.00
128.8330, 17649.00
130.0700, 18066.00
131.3060, 18243.00
132.5420, 18353.00
133.7780, 18447.00
135.0140, 18660.00
136.2500, 18878.00
137.4850, 18918.00
138.7200, 19079.00
139.9550, 19116.00
141.1900, 19050.00
142.4250, 19095.00
143.6600, 19031.00
144.8940, 18961.00
146.1280, 19045.00
147.3620, 19016.00
148.5960, 18715.00
149.8300, 18768.00
151.0630, 18740.00
152.2960, 18618.00
153.5300, 18714.00
154.7620, 18381.00
155.9950, 18177.00
157.2280, 18171.00
158.4600, 18205.00
159.6920, 18290.00
160.9250, 18316.00
162.1560, 18275.00
163.3880, 18368.00
164.6200, 18355.00
165.8510, 18416.00
167.0820, 18510.00
168.3130, 18400.00
169.5440, 18548.00
170.7750, 18660.00
172.0050, 18626.00
173.2350, 18619.00
174.4650, 18586.00
175.6950, 18598.00
176.9250, 18694.00
178.1550, 18583.00
179.3840, 18727.00
180.6130, 18699.00
181.8420, 19019.00
183.0710, 18992.00
184.3000, 18816.00
185.5280, 19078.00
186.7570, 19050.00
187.9850, 19125.00
189.2130, 19247.00
190.4400, 19330.00
191.6680, 19377.00
192.8960, 19341.00
194.1230, 19231.00
195.3500, 19485.00
196.5770, 19359.00
197.8030, 19290.00
199.0300, 19362.00
200.2560, 19287.00
201.4830, 19503.00
202.7090, 19474.00
203.9340, 19193.00
205.1600, 19433.00
206.3860, 19442.00
207.6110, 19481.00
208.8360, 19585.00
210.0610, 19775.00
211.2860, 19923.00
212.5100, 20123.00
213.7350, 20148.00
214.9590, 20577.00
216.1830, 20449.00
217.4070, 20687.00
218.6310, 20581.00
219.8540, 20528.00
221.0780, 20862.00
222.3010, 20637.00
223.5240, 20724.00
224.7470, 20572.00
225.9690, 20667.00
227.1920, 20677.00
228.4140, 20877.00
229.6360, 20529.00
230.8580, 20672.00
232.0800, 20695.00
233.3020, 20439.00
234.5230, 20461.00
235.7440, 20457.00
236.9650, 20428.00
238.1860, 20215.00
239.4070, 20162.00
240.6280, 20103.00
241.8480, 20196.00
243.0680, 20036.00
244.2880, 20140.00
245.5080, 20274.00
246.7280, 20193.00
247.9470, 20201.00
249.1660, 20186.00
250.3860, 20126.64
251.6040, 19946.00
252.8230, 20009.00
254.0420, 19994.00
255.2600, 19886.00
256.4790, 19919.00
257.6970, 19890.00
258.9150, 19984.00
260.1320, 19858.00
261.3500, 19945.00
262.5670, 19873.00
263.7840, 19929.00
265.0010, 19793.00
266.2180, 19709.00
267.4350, 19774.00
268.6510, 19876.00
269.8680, 19643.00
271.0840, 19739.00
272.3000, 19889.00
273.5160, 20050.00
274.7310, 19997.00
275.9470, 19980.00
277.1620, 20006.00
278.3770, 20155.00
279.5920, 20181.00
280.8070, 20169.00
282.0210, 20090.00
283.2360, 20212.00
284.4500, 20304.00
285.6640, 20277.00
286.8780, 20352.00
288.0920, 20494.00
289.3050, 20766.00
290.5180, 20656.00
291.7320, 20891.00
292.9450, 20918.00
294.1570, 20776.00
295.3700, 20961.00
296.5830, 21132.00
297.7950, 21243.00
299.0070, 21713.00
300.2190, 21711.00
301.4310, 22017.00
302.6420, 22095.00
303.8540, 22474.00
305.0650, 22655.00
306.2760, 22761.00
307.4870, 22811.00
308.6980, 23339.00
309.9080, 23541.00
311.1190, 24238.00
312.3290, 24476.00
313.5390, 25132.00
314.7490, 25705.00
315.9580, 26379.00
317.1680, 26877.00
318.3770, 27437.00
319.5860, 27881.00
320.7950, 27983.00
322.0040, 28287.00
323.2130, 28376.00
324.4210, 28293.00
325.6290, 28071.00
326.8380, 27660.00
328.0460, 27020.00
329.2530, 26449.00
330.4610, 25704.00
331.6680, 25351.00
332.8760, 24679.00
334.0830, 24408.00
335.2890, 23856.00
336.4960, 23568.00
337.7030, 23230.00
338.9090, 22885.00
340.1150, 22711.00
341.3210, 22261.00
342.5270, 22219.00
343.7330, 22124.00
344.9380, 22123.00
346.1440, 22175.00
347.3490, 22164.00
348.5540, 21973.00
349.7590, 21795.00
350.9630, 21934.00
352.1680, 22161.00
353.3720, 22440.00
354.5760, 21976.00
355.7800, 21891.00
356.9840, 21787.00
358.1870, 21854.00
359.3910, 21968.00
360.5940, 21699.00
361.7970, 21684.00
363.0000, 21805.00
364.2030, 21795.00
365.4050, 21748.00
366.6080, 21710.00
367.8100, 21713.00
369.0120, 21699.68
370.2140, 21898.00
371.4150, 21756.00
372.6170, 21911.00
373.8180, 22038.00
375.0190, 21761.00
376.2200, 21626.00
377.4210, 21873.00
378.6220, 21697.00
379.8220, 21632.00
381.0230, 21807.00
382.2230, 21922.00
383.4230, 21992.00
384.6220, 22101.14
385.8220, 22140.64
387.0220, 22162.00
388.2210, 22205.00
389.4200, 22206.10
390.6190, 22060.00
391.8180, 22201.00
393.0160, 22150.00
394.2150, 22130.00
395.4130, 21853.00
396.6110, 21796.00
397.8090, 21661.00
399.0060, 21727.00
400.2040, 21557.00
401.4010, 21667.00
402.5980, 21748.00
403.7950, 21557.00
404.9920, 21581.00
406.1890, 21895.00
407.3860, 21888.00
408.5820, 21863.00
409.7780, 21923.00
410.9740, 21787.00
412.1700, 22051.00
413.3650, 21955.00
414.5610, 21952.00
415.7560, 21820.00
416.9510, 21870.00
418.1460, 21585.00
419.3410, 21591.00
420.5360, 21624.00
421.7300, 21562.00
422.9240, 21569.00
424.1180, 21231.00
425.3120, 21262.00
426.5060, 21308.00
427.7000, 21280.00
428.8930, 21458.00
430.0860, 21404.00
431.2790, 21283.00
432.4720, 21087.00
433.6650, 21389.00
434.8580, 21304.00
436.0500, 21272.00
437.2420, 21271.00
438.4340, 21153.00
439.6260, 21151.00
440.8180, 21198.00
442.0090, 21169.00
443.2010, 21058.00
444.3920, 21286.00
445.5830, 21255.00
446.7740, 21313.00
447.9640, 21456.00
449.1550, 21326.00
450.3450, 21367.00
451.5350, 21329.00
452.7250, 21289.00
453.9150, 21337.00
455.1050, 21356.00
456.2940, 21350.00
457.4830, 21449.03
458.6720, 21498.00
459.8610, 21632.00
461.0500, 21701.00
462.2390, 21796.00
463.4270, 21861.00
464.6150, 21869.00
465.8040, 21884.41
466.9910, 21887.00
468.1790, 21867.00
469.3670, 21809.00
470.5540, 21854.00
471.7410, 21921.00
472.9280, 21714.00
474.1150, 21797.00
475.3020, 21669.00
476.4890, 21683.00
477.6750, 21511.00
478.8610, 21841.00
480.0470, 21656.00
481.2330, 21775.00
482.4190, 21676.00
483.6040, 21684.00
484.7900, 21763.00
485.9750, 21645.00
487.1600, 21752.00
488.3450, 21879.00
489.5290, 21894.00
490.7140, 21899.00
491.8980, 21774.00
493.0820, 21877.00
494.2660, 21904.00
495.4500, 22124.00
496.6340, 22306.00
497.8170, 22190.00
499.0010, 22812.00
500.1840, 22599.00
501.3670, 22857.00
502.5500, 22977.00
503.7320, 22893.00
504.9150, 23168.00
506.0970, 22922.00
507.2790, 23131.00
508.4610, 22705.00
509.6430, 23103.00
510.8250, 23254.00
512.0060, 22946.00
513.1870, 23198.00
514.3680, 22984.00
515.5490, 23008.00
516.7300, 22974.00
517.9110, 23244.00
519.0910, 23011.00
520.2710, 23338.00
521.4510, 23137.00
522.6310, 23048.00
523.8110, 23015.00
524.9910, 22921.00
526.1700, 22812.00
527.3490, 22825.00
528.5280, 22704.00
529.7070, 22683.00
530.8860, 22616.00
532.0650, 22817.00
533.2430, 22787.00
534.4210, 22770.00
535.5990, 22719.00
536.7770, 22928.00
537.9550, 22880.00
539.1320, 22860.00
540.3100, 22987.00
541.4870, 22922.00
542.6640, 23079.00
543.8410, 23233.00
545.0170, 23264.00
546.1940, 23388.00
547.3700, 23397.00
548.5470, 23397.00
549.7230, 23727.00
550.8980, 23904.00
552.0740, 23985.00
553.2500, 23862.00
554.4250, 23852.00
555.6000, 24073.00
556.7750, 23692.00
557.9500, 23711.00
559.1250, 23645.00
560.2990, 23375.00
561.4730, 23198.00
562.6480, 23291.00
563.8220, 23007.00
564.9950, 22825.00
566.1690, 22891.00
567.3430, 22830.00
568.5160, 22814.00
569.6890, 23016.00
570.8620, 22741.00
572.0350, 22616.00
573.2070, 23001.00
574.3800, 22458.00
575.5520, 22645.00
576.7240, 22855.00
577.8960, 22700.00
579.0680, 22895.00
580.2400, 22633.00
581.4110, 22885.00
582.5830, 22723.00
583.7540, 22778.00
584.9250, 22594.00
586.0950, 22860.00
587.2660, 22627.00
588.4370, 22872.00
589.6070, 22725.00
590.7770, 22782.00
591.9470, 22973.00
593.1170, 22561.00
594.2860, 22840.00
595.4560, 22746.00
596.6250, 22721.00
597.7940, 23026.00
598.9630, 23019.00
600.1320, 22918.00
601.3000, 22881.00
602.4690, 23182.00
603.6370, 22862.00
604.8050, 23067.00
605.9730, 22994.00
607.1410, 22812.00
608.3090, 23051.00
609.4760, 22937.00
610.6430, 23162.00
611.8100, 23239.00
612.9770, 23287.00
614.1440, 23158.00
615.3110, 23253.00
616.4770, 23140.00
617.6430, 23278.00
618.8090, 23431.00
619.9750, 23175.00
621.1410, 23593.00
622.3070, 23588.00
623.4720, 23417.00
624.6370, 23761.00
625.8020, 23714.00
626.9670, 23880.00
628.1320, 23553.00
629.2970, 23780.00
630.4610, 23986.00
631.6250, 23971.00
632.7890, 24164.00
633.9530, 24305.00
635.1170, 24430.00
636.2810, 24495.00
637.4440, 24544.00
638.6070, 24794.00
639.7700, 25004.00
640.9330, 25324.00
642.0960, 25567.00
643.2590, 25754.00
644.4210, 26232.00
645.5830, 26738.00
646.7450, 27181.00
647.9070, 27993.00
649.0690, 28769.00
650.2310, 29705.00
651.3920, 30673.42
652.5530, 31678.00
653.7140, 32822.00
654.8750, 34121.00
656.0360, 35364.00
657.1970, 36734.00
658.3570, 37921.00
659.5170, 39162.00
660.6770, 40970.00
661.8370, 41881.00
662.9970, 43040.00
664.1570, 43787.00
665.3160, 44760.00
666.4750, 45043.00
667.6340, 44586.00
668.7930, 43164.00
669.9520, 41926.00
671.1110, 39911.00
672.2690, 38052.00
673.4270, 36106.00
674.5850, 34404.00
675.7430, 32808.00
676.9010, 31603.00
678.0590, 30211.00
679.2160, 28970.00
680.3730, 28601.00
681.5300, 27930.00
682.6870, 27401.00
683.8440, 26899.00
685.0010, 26578.00
686.1570, 26238.00
687.3130, 26128.00
688.4690, 25729.00
689.6250, 25762.00
690.7810, 25414.00
691.9370, 25346.00
693.0920, 25224.00
694.2470, 24940.00
695.4020, 25192.00
696.5570, 25135.00
697.7120, 24809.00
698.8670, 24875.00
700.0210, 24970.00
701.1750, 24943.00
702.3290, 24929.31
703.4830, 24821.00
704.6370, 24814.00
705.7910, 24769.81
706.9440, 24710.57
708.0970, 24712.00
709.2510, 24667.00
710.4030, 24642.00
711.5560, 24725.00
712.7090, 24640.00
713.8610, 24581.00
715.0140, 24616.00
716.1660, 24692.00
717.3180, 24539.00
718.4690, 24558.00
719.6210, 24537.11
720.7730, 24517.50
721.9240, 24568.00
723.0750, 24578.00
724.2260, 24554.99
725.3770, 24828.00
726.5270, 24564.00
727.6780, 24550.00
728.8280, 24677.00
729.9780, 24891.00
731.1280, 24608.00
732.2780, 24645.00
733.4280, 24646.00
734.5770, 24566.00
735.7260, 24697.00
736.8760, 24756.00
738.0250, 24733.00
739.1730, 24610.00
740.3220, 24714.71
741.4700, 24756.00
742.6190, 24826.00
743.7670, 24790.00
744.9150, 24834.00
746.0630, 24711.00
747.2100, 24807.00
748.3580, 24598.00
749.5050, 24802.00
750.6520, 24570.00
751.7990, 24958.00
752.9460, 24812.00
754.0930, 24870.00
755.2390, 24751.00
756.3860, 24952.00
757.5320, 24997.00
758.6780, 24843.00
759.8240, 24883.00
760.9690, 24850.00
762.1150, 24714.00
763.2600, 24932.00
764.4060, 25071.00
765.5510, 24844.00
766.6950, 24932.00
767.8400, 24890.00
768.9850, 25093.00
770.1290, 25087.00
771.2730, 25196.00
772.4170, 25034.00
773.5610, 25274.00
774.7050, 25091.00
775.8480, 25106.00
776.9920, 25060.00
778.1350, 25160.00
779.2780, 25037.00
780.4210, 25324.00
781.5640, 25261.00
782.7060, 25170.00
783.8490, 25280.00
784.9910, 25196.00
786.1330, 25142.00
787.2750, 25311.00
788.4170, 25366.00
789.5580, 25181.00
790.7000, 25393.00
791.8410, 25564.00
792.9820, 25337.00
794.1230, 25372.00
795.2640, 25355.00
796.4040, 25338.00
797.5450, 25512.00
798.6850, 25524.00
799.8250, 25522.00
800.9650, 25625.00
802.1050, 25401.00
803.2450, 25420.00
804.3840, 25475.00
805.5230, 25623.00
806.6630, 25647.00
807.8020, 25483.00
808.9400, 25506.00
810.0790, 25727.00
811.2170, 25619.00
812.3560, 25704.00
813.4940, 25550.00
814.6320, 25606.00
815.7700, 25583.00
816.9070, 25598.00
818.0450, 25833.00
819.1820, 25623.00
820.3190, 25885.00
821.4560, 25784.00
822.5930, 25982.00
823.7300, 25909.00
824.8670, 25889.00
826.0030, 26024.00
827.1390, 25892.00
828.2750, 25880.00
829.4110, 25969.00
830.5470, 25960.00
831.6820, 25787.00
832.8180, 25887.00
833.9530, 25926.00
835.0880, 25905.14
836.2230, 26064.00
837.3580, 25984.00
838.4920, 25980.00
839.6270, 26047.00
840.7610, 26024.00
841.8950, 26168.00
843.0290, 26294.00
844.1630, 26266.00
845.2960, 26257.00
846.4300, 26180.00
847.5630, 26209.00
848.6960, 26133.00
849.8290, 26330.00
850.9620, 26339.00
852.0940, 26574.00
853.2270, 26553.00
854.3590, 26454.00
855.4910, 26357.00
856.6230, 26571.00
857.7550, 26381.00
858.8870, 26716.00
860.0180, 26550.00
861.1500, 26737.00
862.2810, 26656.00
863.4120, 26496.00
864.5430, 26481.00
865.6730, 26681.00
866.8040, 26713.00
867.9340, 26851.00
869.0640, 26813.00
870.1940, 26527.00
871.3240, 26839.00
872.4540, 26643.00
873.5830, 27001.00
874.7130, 26888.00
875.8420, 26933.00
876.9710, 26982.00
878.1000, 27021.00
879.2290, 27075.00
880.3570, 27067.00
881.4860, 26911.00
882.6140, 27019.00
883.7420, 27074.00
884.8700, 27003.00
885.9980, 27185.00
887.1250, 26875.00
888.2530, 27179.00
889.3800, 27342.00
890.5070, 27005.00
891.6340, 27147.00
892.7610, 27152.00
893.8880, 27240.00
895.0140, 27209.00
896.1400, 27356.00
897.2670, 27414.00
898.3930, 27253.00
899.5180, 27288.00
900.6440, 27459.00
901.7700, 27264.00
902.8950, 27511.00
904.0200, 27476.00
905.1450, 27400.00
906.2700, 27485.00
907.3950, 27503.00
908.5190, 27446.00
909.6440, 27580.00
910.7680, 27562.00
911.8920, 27577.00
913.0160, 27775.00
914.1400, 27978.00
915.2630, 27763.00
916.3870, 27763.00
917.5100, 28051.00
918.6330, 27879.00
919.7560, 28076.00
920.8790, 27967.00
922.0010, 28186.00
923.1240, 28056.00
924.2460, 28035.00
925.3680, 28046.00
926.4900, 27933.00
927.6120, 28158.00
928.7340, 28400.00
929.8550, 28444.00
930.9760, 28537.00
932.0980, 28468.00
933.2190, 28612.01
934.3390, 28671.00
935.4600, 28839.00
936.5810, 28959.00
937.7010, 29102.00
938.8210, 28850.00
939.9410, 29005.00
941.0610, 28865.00
942.1810, 28965.00
943.3010, 29004.00
944.4200, 29037.00
945.5390, 28834.00
946.6580, 28789.00
947.7770, 28662.00
948.8960, 28874.00
950.0150, 28810.00
951.1330, 28809.00
952.2510, 28678.00
953.3690, 28739.00
954.4870, 28635.00
955.6050, 28751.00
956.7230, 28699.00
957.8400, 28802.00
958.9580, 28734.00
960.0750, 29187.00
961.1920, 29000.00
962.3090, 29156.00
963.4250, 29067.00
964.5420, 29089.00
965.6580, 29133.00
966.7740, 29299.00
967.8900, 29617.00
969.0060, 29492.00
970.1220, 29707.00
971.2380, 29559.00
972.3530, 30007.00
973.4680, 30069.00
974.5830, 30313.00
975.6980, 30219.00
976.8130, 30579.00
977.9280, 30881.00
979.0420, 31068.00
980.1560, 31427.00
981.2710, 31698.00
982.3850, 32065.00
983.4980, 32747.00
984.6120, 33258.00
985.7260, 34040.00
986.8390, 34841.00
987.9520, 36041.00
989.0650, 37574.00
990.1780, 39013.00
991.2910, 40803.00
992.4030, 43334.00
993.5160, 46468.00
994.6280, 49139.00
995.7400, 52166.00
996.8520, 55105.00
997.9640, 57770.00
999.0750, 60140.00
1000.187, 61409.00
1001.298, 62166.00
1002.409, 62386.00
1003.520, 61368.00
1004.631, 60027.00
1005.741, 57803.00
1006.852, 55477.00
1007.962, 53169.00
1009.072, 50224.00
1010.182, 48225.00
1011.292, 46000.00
1012.402, 43962.00
1013.511, 42346.00
1014.621, 40811.00
1015.730, 39398.00
1016.839, 38274.00
1017.948, 37274.00
1019.056, 36638.00
1020.165, 35406.00
1021.273, 35256.00
1022.382, 34294.00
1023.490, 33893.00
1024.598, 33386.00
1025.706, 33159.00
1026.813, 32765.70
1027.921, 32347.00
1029.028, 32140.00
1030.135, 31811.00
1031.242, 31487.00
1032.349, 31302.00
1033.456, 31543.00
1034.562, 31312.00
1035.668, 31175.00
1036.775, 30957.00
1037.881, 30870.00
1038.987, 30810.00
1040.092, 30783.00
1041.198, 30743.00
1042.303, 30615.00
1043.408, 30558.00
1044.514, 30591.00
1045.618, 30461.00
1046.723, 30576.00
1047.828, 30717.00
1048.932, 30600.00
1050.037, 30513.00
1051.141, 30569.00
1052.245, 30532.00
1053.349, 30430.00
1054.452, 30333.00
1055.556, 30574.00
1056.659, 30403.00
1057.762, 30478.00
1058.865, 30351.00
1059.968, 30446.00
1061.071, 30343.00
1062.174, 30434.00
1063.276, 30539.00
1064.378, 30605.00
1065.480, 30228.00
1066.582, 30506.00
1067.684, 30347.00
1068.786, 30355.00
1069.887, 30359.00
1070.988, 30409.00
1072.090, 30402.64
1073.191, 30519.00
1074.291, 30401.00
1075.392, 30560.00
1076.493, 30534.00
1077.593, 30509.00
1078.693, 30460.00
1079.793, 30933.00
1080.893, 30720.00
1081.993, 30802.00
1083.092, 30922.00
1084.192, 30746.00
1085.291, 30715.00
1086.390, 30906.00
1087.489, 30713.00
1088.588, 30826.00
1089.686, 30941.00
1090.785, 30812.00
1091.883, 30630.00
1092.981, 30811.00
1094.079, 30829.00
1095.177, 30560.00
1096.275, 30659.00
1097.373, 30662.00
1098.470, 30628.00
1099.567, 30837.00
1100.664, 30756.00
1101.761, 30778.00
1102.858, 31033.00
1103.954, 30575.00
1105.051, 30875.00
1106.147, 30791.00
1107.243, 30800.00
1108.339, 30882.00
1109.435, 30569.00
1110.531, 30965.00
1111.626, 30756.00
1112.722, 30805.00
1113.817, 30926.00
1114.912, 31068.00
1116.007, 31099.00
1117.101, 31188.12
1118.196, 31216.85
1119.290, 31255.00
1120.385, 31250.00
1121.479, 31215.00
1122.573, 31243.00
1123.666, 31123.00
1124.760, 31394.00
1125.853, 31059.00
1126.947, 30906.00
1128.040, 31100.00
1129.133, 31226.00
1130.226, 31197.00
1131.318, 31023.00
1132.411, 30833.00
1133.503, 31045.00
1134.596, 30946.00
1135.688, 31049.00
1136.780, 31054.00
1137.871, 31033.00
1138.963, 31142.00
1140.054, 30908.00
1141.146, 31085.00
1142.237, 31126.00
1143.328, 31035.00
1144.419, 31226.00
1145.509, 31031.00
1146.600, 31200.00
1147.690, 30976.00
1148.780, 31135.00
1149.870, 31076.00
1150.960, 30849.00
1152.050, 31423.00
1153.139, 31126.00
1154.229, 31349.00
1155.318, 31520.00
1156.407, 31295.00
1157.496, 31198.00
1158.585, 31024.00
1159.674, 31177.00
1160.762, 31070.21
1161.850, 31307.00
1162.939, 31067.00
1164.027, 31324.00
1165.114, 31350.00
1166.202, 31221.00
1167.290, 31582.00
1168.377, 31603.00
1169.464, 31262.00
1170.551, 31324.00
1171.638, 31492.00
1172.725, 31486.00
1173.812, 31444.00
1174.898, 31464.00
1175.984, 31586.00
1177.071, 31559.00
1178.157, 31446.00
1179.242, 31551.00
1180.328, 31390.00
1181.414, 31353.00
1182.499, 31732.00
1183.584, 31592.00
1184.669, 31704.00
1185.754, 31661.00
1186.839, 31951.00
1187.924, 31781.00
1189.008, 31434.00
1190.092, 31634.00
1191.177, 31757.00
1192.260, 31911.00
1193.344, 31894.96
1194.428, 31829.00
1195.512, 31761.00
1196.595, 31785.00
1197.678, 31775.97
1198.761, 31883.00
1199.844, 31821.00
1200.927, 31915.00
1202.009, 31903.00
1203.092, 31958.00
1204.174, 31971.00
1205.256, 31821.00
1206.338, 31868.00
1207.420, 32161.00
1208.502, 32038.00
1209.583, 31955.00
1210.665, 32403.00
1211.746, 31936.00
1212.827, 32150.00
1213.908, 32186.00
1214.988, 31866.00
1216.069, 32216.00
1217.149, 32277.00
1218.230, 32424.00
1219.310, 32103.00
1220.390, 32238.00
1221.470, 32271.00
1222.549, 32090.00
1223.629, 32426.00
1224.708, 32163.00
1225.787, 32269.00
1226.866, 32179.00
1227.945, 32297.00
1229.024, 32197.00
1230.103, 32310.00
1231.181, 32341.00
1232.259, 32243.00
1233.337, 32397.00
1234.415, 32398.00
1235.493, 32480.00
1236.571, 32432.00
1237.648, 32499.74
1238.726, 32606.00
1239.803, 32573.00
1240.880, 32624.00
1241.957, 32626.00
1243.034, 32644.30
1244.110, 32704.88
1245.187, 32692.00
1246.263, 32751.00
1247.339, 32777.00
1248.415, 32649.00
1249.491, 32598.00
1250.566, 32564.11
1251.642, 32556.00
1252.717, 32495.00
1253.793, 32417.00
1254.868, 32423.56
1255.943, 32443.23
1257.017, 32545.00
1258.092, 32609.00
1259.166, 32751.00
1260.241, 32949.00
1261.315, 33015.00
1262.389, 32930.00
1263.462, 32828.00
1264.536, 32907.59
1265.610, 32908.00
1266.683, 32952.00
1267.756, 32893.00
1268.829, 32814.00
1269.902, 32948.00
1270.975, 32887.00
1272.048, 33092.00
1273.120, 33089.00
1274.192, 32945.00
1275.264, 33051.00
1276.336, 33047.00
1277.408, 33099.00
1278.480, 33198.00
1279.551, 33091.00
1280.623, 33186.00
1281.694, 33153.00
1282.765, 33031.00
1283.836, 32969.00
1284.907, 33238.00
1285.977, 33402.00
1287.048, 33331.00
1288.118, 33465.00
