##NAMES=Kanoite
##RRUFFID=R061134
##IDEAL CHEMISTRY=Mn^2+^MgSi_2_O_6_
##LOCALITY=Balmat, St. Lawrence County, New York, USA
##OWNER=RRUFF
##SOURCE=Michael Scott
##DESCRIPTION=Yellowish brown granular aggregate
##STATUS=The identification of this mineral has been confirmed by X-ray diffraction and chemical analysis
##URL=rruff.info/R061134
##MEASURED CHEMISTRY=(Mn^2+^_0.88_Ca_0.12_)_Σ=1_(Mg_0.98_Fe^3+^_0.02_)_Σ=1_(Si_0.98_Al_0.02_)_2_O_6_
##PIN_ID=M00160
##ORIENTATION=Laser parallel to c* (0 0 1). Fiducial mark perpendicular to laser is parallel to a [1 0 0]
109.0250, 15719.00
110.2640, 15636.00
111.5030, 15752.00
112.7420, 16026.00
113.9810, 16075.00
115.2200, 16238.00
116.4580, 16363.00
117.6970, 16388.00
118.9350, 16411.00
120.1730, 16620.00
121.4100, 16744.00
122.6480, 16716.00
123.8850, 17030.00
125.1230, 17099.00
126.3600, 17299.00
127.5960, 17580.00
128.8330, 17644.00
130.0700, 17915.00
131.3060, 17895.00
132.5420, 18118.00
133.7780, 18314.00
135.0140, 18514.00
136.2500, 18666.00
137.4850, 18680.00
138.7200, 18808.16
139.9550, 18775.39
141.1900, 18844.00
142.4250, 18702.00
143.6600, 18700.57
144.8940, 18508.00
146.1280, 18567.00
147.3620, 18509.00
148.5960, 18389.00
149.8300, 18379.00
151.0630, 18255.30
152.2960, 18157.30
153.5300, 18083.00
154.7620, 18016.62
155.9950, 17959.00
157.2280, 17961.00
158.4600, 17976.00
159.6920, 18027.00
160.9250, 17996.86
162.1560, 17917.00
163.3880, 17988.00
164.6200, 17999.00
165.8510, 18056.00
167.0820, 18186.00
168.3130, 18143.00
169.5440, 18393.00
170.7750, 18335.00
172.0050, 18364.00
173.2350, 18443.00
174.4650, 18403.00
175.6950, 18339.00
176.9250, 18530.00
178.1550, 18615.00
179.3840, 18663.00
180.6130, 18816.00
181.8420, 18680.00
183.0710, 18708.00
184.3000, 18832.00
185.5280, 18884.00
186.7570, 19051.00
187.9850, 18977.00
189.2130, 19379.00
190.4400, 19245.00
191.6680, 19588.00
192.8960, 19518.00
194.1230, 19570.00
195.3500, 19734.00
196.5770, 19796.00
197.8030, 19901.24
199.0300, 20103.00
200.2560, 20130.00
201.4830, 20238.00
202.7090, 20426.00
203.9340, 20362.00
205.1600, 20438.00
206.3860, 20602.00
207.6110, 20732.00
208.8360, 20868.00
210.0610, 21021.31
211.2860, 21196.00
212.5100, 21378.00
213.7350, 21597.00
214.9590, 21915.00
216.1830, 21987.00
217.4070, 22141.00
218.6310, 22000.00
219.8540, 21807.00
221.0780, 21722.00
222.3010, 21474.00
223.5240, 21044.00
224.7470, 21115.00
225.9690, 20927.00
227.1920, 21129.00
228.4140, 20970.00
229.6360, 20849.00
230.8580, 20757.00
232.0800, 20765.00
233.3020, 20604.00
234.5230, 20717.00
235.7440, 20440.00
236.9650, 20454.00
238.1860, 20319.00
239.4070, 20379.00
240.6280, 20515.00
241.8480, 20409.00
243.0680, 20485.84
244.2880, 20382.00
245.5080, 20506.00
246.7280, 20461.00
247.9470, 20488.00
249.1660, 20468.00
250.3860, 20578.00
251.6040, 20613.00
252.8230, 20469.00
254.0420, 20363.00
255.2600, 20479.00
256.4790, 20472.00
257.6970, 20612.00
258.9150, 20539.00
260.1320, 20641.00
261.3500, 20604.00
262.5670, 20462.00
263.7840, 20405.00
265.0010, 20499.00
266.2180, 20618.00
267.4350, 20561.00
268.6510, 20489.00
269.8680, 20652.00
271.0840, 20465.00
272.3000, 20749.00
273.5160, 20413.00
274.7310, 20655.00
275.9470, 20588.00
277.1620, 20814.00
278.3770, 21013.00
279.5920, 21016.00
280.8070, 21115.00
282.0210, 21155.39
283.2360, 21073.00
284.4500, 21167.00
285.6640, 21241.00
286.8780, 21211.00
288.0920, 21265.63
289.3050, 21220.00
290.5180, 21277.00
291.7320, 21416.00
292.9450, 21427.00
294.1570, 21516.00
295.3700, 21697.00
296.5830, 21822.00
297.7950, 21770.00
299.0070, 21836.00
300.2190, 22073.00
301.4310, 22214.00
302.6420, 22465.00
303.8540, 22628.00
305.0650, 22856.00
306.2760, 23158.00
307.4870, 23249.00
308.6980, 23512.00
309.9080, 23817.00
311.1190, 24066.00
312.3290, 24699.00
313.5390, 25003.00
314.7490, 25633.00
315.9580, 26068.00
317.1680, 26822.00
318.3770, 27284.00
319.5860, 27872.00
320.7950, 28604.00
322.0040, 28903.00
323.2130, 28943.00
324.4210, 28974.00
325.6290, 28880.00
326.8380, 28494.00
328.0460, 27963.00
329.2530, 27640.00
330.4610, 27149.00
331.6680, 26845.00
332.8760, 26266.00
334.0830, 25950.06
335.2890, 25546.00
336.4960, 25261.00
337.7030, 24865.00
338.9090, 24570.00
340.1150, 24342.00
341.3210, 24097.00
342.5270, 24019.95
343.7330, 23928.00
344.9380, 23982.00
346.1440, 24151.00
347.3490, 24248.00
348.5540, 24342.00
349.7590, 24465.25
350.9630, 24483.00
352.1680, 24656.00
353.3720, 24612.00
354.5760, 24669.00
355.7800, 24902.00
356.9840, 24948.00
358.1870, 24941.00
359.3910, 24860.00
360.5940, 24939.00
361.7970, 24457.00
363.0000, 24608.00
364.2030, 24449.00
365.4050, 24773.00
366.6080, 24731.00
367.8100, 24325.00
369.0120, 24723.00
370.2140, 24880.00
371.4150, 25472.00
372.6170, 25216.00
373.8180, 25197.00
375.0190, 25236.00
376.2200, 24825.00
377.4210, 24958.00
378.6220, 24652.00
379.8220, 24743.00
381.0230, 24707.00
382.2230, 24734.00
383.4230, 24867.00
384.6220, 25214.00
385.8220, 25161.00
387.0220, 25562.00
388.2210, 25901.00
389.4200, 26117.00
390.6190, 26449.00
391.8180, 26445.00
393.0160, 26390.00
394.2150, 26170.00
395.4130, 26034.00
396.6110, 25493.00
397.8090, 25033.00
399.0060, 24501.00
400.2040, 24173.37
401.4010, 24013.00
402.5980, 23670.00
403.7950, 23546.00
404.9920, 23562.00
406.1890, 23577.00
407.3860, 23377.00
408.5820, 23322.00
409.7780, 23238.00
410.9740, 23344.00
412.1700, 23538.00
413.3650, 23631.00
414.5610, 23453.00
415.7560, 23397.00
416.9510, 23487.00
418.1460, 23263.00
419.3410, 23469.00
420.5360, 23033.00
421.7300, 23183.00
422.9240, 23379.00
424.1180, 23257.00
425.3120, 23155.00
426.5060, 23148.00
427.7000, 23216.00
428.8930, 23262.00
430.0860, 23100.00
431.2790, 23216.00
432.4720, 23128.00
433.6650, 23144.00
434.8580, 23123.00
436.0500, 23231.00
437.2420, 23250.00
438.4340, 23318.00
439.6260, 23232.00
440.8180, 23137.00
442.0090, 23274.00
443.2010, 23194.00
444.3920, 23270.00
445.5830, 23481.00
446.7740, 23439.00
447.9640, 23446.00
449.1550, 23437.00
450.3450, 23512.03
451.5350, 23596.81
452.7250, 23756.00
453.9150, 23843.00
455.1050, 24084.00
456.2940, 24220.00
457.4830, 24474.00
458.6720, 24904.00
459.8610, 25104.00
461.0500, 25682.00
462.2390, 26216.00
463.4270, 26868.00
464.6150, 27199.00
465.8040, 27304.00
466.9910, 26725.00
468.1790, 26283.00
469.3670, 25696.00
470.5540, 25421.00
471.7410, 24994.00
472.9280, 24829.00
474.1150, 24768.00
475.3020, 24417.00
476.4890, 24450.00
477.6750, 24309.00
478.8610, 24146.00
480.0470, 24272.00
481.2330, 24243.00
482.4190, 24172.00
483.6040, 24099.00
484.7900, 24092.00
485.9750, 24194.00
487.1600, 24207.00
488.3450, 24194.00
489.5290, 24403.00
490.7140, 24203.00
491.8980, 24040.00
493.0820, 24335.00
494.2660, 24304.00
495.4500, 24414.00
496.6340, 24493.00
497.8170, 24502.00
499.0010, 24514.00
500.1840, 24974.00
501.3670, 24909.00
502.5500, 25274.00
503.7320, 25255.00
504.9150, 25109.00
506.0970, 25080.00
507.2790, 24934.00
508.4610, 25294.00
509.6430, 25455.00
510.8250, 25376.00
512.0060, 25403.00
513.1870, 25576.00
514.3680, 25700.00
515.5490, 25630.00
516.7300, 25984.00
517.9110, 25874.00
519.0910, 26044.00
520.2710, 26051.00
521.4510, 26026.00
522.6310, 25955.00
523.8110, 26010.00
524.9910, 25956.00
526.1700, 25652.00
527.3490, 25888.00
528.5280, 25702.00
529.7070, 25596.00
530.8860, 25789.00
532.0650, 25555.00
533.2430, 25881.00
534.4210, 25932.00
535.5990, 26101.00
536.7770, 26085.00
537.9550, 26302.00
539.1320, 26523.00
540.3100, 26329.00
541.4870, 26475.00
542.6640, 26443.00
543.8410, 26475.00
545.0170, 26428.00
546.1940, 26512.00
547.3700, 26408.00
548.5470, 26547.00
549.7230, 26630.00
550.8980, 26872.00
552.0740, 27036.00
553.2500, 27383.00
554.4250, 27183.00
555.6000, 27256.00
556.7750, 27111.00
557.9500, 27013.00
559.1250, 26694.00
560.2990, 26646.00
561.4730, 26311.00
562.6480, 26279.00
563.8220, 25884.00
564.9950, 25958.00
566.1690, 25873.00
567.3430, 25634.00
568.5160, 25701.00
569.6890, 25604.00
570.8620, 25601.00
572.0350, 25559.00
573.2070, 25595.00
574.3800, 25763.00
575.5520, 25743.00
576.7240, 25802.00
577.8960, 25695.00
579.0680, 25621.00
580.2400, 25564.00
581.4110, 25477.63
582.5830, 25463.00
583.7540, 25414.00
584.9250, 25587.00
586.0950, 25742.00
587.2660, 25600.00
588.4370, 25522.00
589.6070, 25767.00
590.7770, 25661.00
591.9470, 25718.00
593.1170, 25621.00
594.2860, 25616.71
595.4560, 25685.00
596.6250, 25636.00
597.7940, 25718.00
598.9630, 25840.00
600.1320, 26049.00
601.3000, 25839.00
602.4690, 25954.00
603.6370, 25781.00
604.8050, 26031.00
605.9730, 25833.00
607.1410, 25854.00
608.3090, 26086.00
609.4760, 26010.00
610.6430, 25987.00
611.8100, 26057.00
612.9770, 26067.18
614.1440, 26168.00
615.3110, 26214.00
616.4770, 26172.00
617.6430, 26266.00
618.8090, 26439.00
619.9750, 26344.00
621.1410, 26425.39
622.3070, 26291.00
623.4720, 26417.00
624.6370, 26452.00
625.8020, 26446.00
626.9670, 26652.00
628.1320, 26520.00
629.2970, 26510.00
630.4610, 26826.00
631.6250, 26834.00
632.7890, 26841.00
633.9530, 27026.00
635.1170, 27157.00
636.2810, 27026.00
637.4440, 27249.00
638.6070, 27204.00
639.7700, 27399.00
640.9330, 27589.00
642.0960, 27947.00
643.2590, 27915.00
644.4210, 28119.00
645.5830, 28351.00
646.7450, 28858.00
647.9070, 29331.00
649.0690, 29656.00
650.2310, 30393.00
651.3920, 30923.00
652.5530, 31565.00
653.7140, 32272.02
654.8750, 32905.00
656.0360, 33680.00
657.1970, 34386.00
658.3570, 35099.38
659.5170, 35805.00
660.6770, 36433.00
661.8370, 37029.00
662.9970, 37779.00
664.1570, 38718.00
665.3160, 39181.00
666.4750, 39572.00
667.6340, 39491.00
668.7930, 39005.00
669.9520, 38362.00
671.1110, 37471.00
672.2690, 36067.00
673.4270, 34884.00
674.5850, 33765.00
675.7430, 32787.00
676.9010, 31885.00
678.0590, 31119.00
679.2160, 31046.00
680.3730, 30472.00
681.5300, 29756.00
682.6870, 29535.00
683.8440, 29024.00
685.0010, 29126.00
686.1570, 28927.00
687.3130, 28674.00
688.4690, 28355.00
689.6250, 28451.00
690.7810, 28312.00
691.9370, 28287.00
693.0920, 28127.00
694.2470, 28154.00
695.4020, 28252.00
696.5570, 28033.00
697.7120, 28156.00
698.8670, 28190.00
700.0210, 28086.00
701.1750, 28106.00
702.3290, 27868.00
703.4830, 27898.00
704.6370, 27875.00
705.7910, 27939.00
706.9440, 27908.00
708.0970, 27987.00
709.2510, 28072.00
710.4030, 28205.00
711.5560, 27978.00
712.7090, 27868.00
713.8610, 27926.00
715.0140, 28118.00
716.1660, 27885.00
717.3180, 28198.00
718.4690, 28184.00
719.6210, 28179.00
720.7730, 28331.00
721.9240, 28390.00
723.0750, 28404.00
724.2260, 28365.00
725.3770, 28407.17
726.5270, 28477.00
727.6780, 28435.00
728.8280, 28425.00
729.9780, 28449.00
731.1280, 28428.00
732.2780, 28506.00
733.4280, 28471.00
734.5770, 28322.00
735.7260, 28462.00
736.8760, 28341.00
738.0250, 28247.00
739.1730, 28516.00
740.3220, 28555.00
741.4700, 28338.00
742.6190, 28243.00
743.7670, 28289.00
744.9150, 28419.00
746.0630, 28249.00
747.2100, 28383.00
748.3580, 28549.00
749.5050, 28391.00
750.6520, 28455.00
751.7990, 28373.00
752.9460, 28521.00
754.0930, 28476.35
755.2390, 28633.00
756.3860, 28458.00
757.5320, 28509.00
758.6780, 28480.00
759.8240, 28761.00
760.9690, 28653.00
762.1150, 28701.00
763.2600, 28538.00
764.4060, 28796.00
765.5510, 28695.00
766.6950, 28911.00
767.8400, 28870.00
768.9850, 28812.00
770.1290, 28838.00
771.2730, 28793.00
772.4170, 29088.00
773.5610, 28881.00
774.7050, 28960.00
775.8480, 29158.00
776.9920, 28666.00
778.1350, 29070.00
779.2780, 29119.00
780.4210, 28954.00
781.5640, 28968.00
782.7060, 29013.00
783.8490, 28977.00
784.9910, 29023.00
786.1330, 29074.00
787.2750, 29112.00
788.4170, 29072.00
789.5580, 29188.00
790.7000, 29022.00
791.8410, 29204.00
792.9820, 29507.00
794.1230, 29167.00
795.2640, 29110.00
796.4040, 29373.00
797.5450, 29368.00
798.6850, 29330.00
799.8250, 29171.00
800.9650, 29513.00
802.1050, 29217.00
803.2450, 29545.00
804.3840, 29372.00
805.5230, 29601.00
806.6630, 29636.00
807.8020, 29762.00
808.9400, 29651.00
810.0790, 29701.00
811.2170, 29570.00
812.3560, 29480.00
813.4940, 29740.00
814.6320, 29735.00
815.7700, 29561.00
816.9070, 29716.00
818.0450, 29705.00
819.1820, 29803.00
820.3190, 29853.00
821.4560, 29929.00
822.5930, 29928.46
823.7300, 29842.00
824.8670, 29867.00
826.0030, 29870.00
827.1390, 29766.00
828.2750, 30164.00
829.4110, 30129.00
830.5470, 30191.00
831.6820, 29941.00
832.8180, 30279.00
833.9530, 30094.00
835.0880, 30121.00
836.2230, 30115.00
837.3580, 30258.00
838.4920, 30263.00
839.6270, 30290.00
840.7610, 30411.00
841.8950, 30261.00
843.0290, 30289.00
844.1630, 30387.00
845.2960, 30384.00
846.4300, 30469.00
847.5630, 30447.00
848.6960, 30487.00
849.8290, 30323.00
850.9620, 30650.00
852.0940, 30395.00
853.2270, 30921.00
854.3590, 30775.00
855.4910, 30769.00
856.6230, 30519.00
857.7550, 30599.00
858.8870, 30667.00
860.0180, 30817.00
861.1500, 30931.00
862.2810, 30968.35
863.4120, 30819.00
864.5430, 31040.00
865.6730, 30825.00
866.8040, 30834.00
867.9340, 31085.00
869.0640, 31024.00
870.1940, 31002.00
871.3240, 30878.00
872.4540, 31058.00
873.5830, 31177.00
874.7130, 31156.00
875.8420, 31143.00
876.9710, 31261.00
878.1000, 31116.00
879.2290, 31225.00
880.3570, 31423.00
881.4860, 31412.00
882.6140, 31406.00
883.7420, 31306.00
884.8700, 31566.00
885.9980, 31610.00
887.1250, 31531.00
888.2530, 31417.00
889.3800, 31727.00
890.5070, 31823.00
891.6340, 31785.00
892.7610, 31798.00
893.8880, 31768.00
895.0140, 31746.00
896.1400, 31951.00
897.2670, 32001.00
898.3930, 31820.00
899.5180, 32008.00
900.6440, 31852.00
901.7700, 31780.00
902.8950, 31790.00
904.0200, 31796.00
905.1450, 31989.00
906.2700, 32100.00
907.3950, 31930.00
908.5190, 32166.00
909.6440, 32152.00
910.7680, 32065.00
911.8920, 32459.00
913.0160, 32394.00
914.1400, 32252.00
915.2630, 32338.00
916.3870, 32369.00
917.5100, 32486.00
918.6330, 32483.18
919.7560, 32526.00
920.8790, 32571.00
922.0010, 32678.00
923.1240, 32891.00
924.2460, 32719.00
925.3680, 33078.00
926.4900, 32959.00
927.6120, 33195.00
928.7340, 33090.00
929.8550, 33348.00
930.9760, 33386.00
932.0980, 33564.00
933.2190, 33421.00
934.3390, 33245.00
935.4600, 33486.00
936.5810, 33395.00
937.7010, 33577.00
938.8210, 33412.00
939.9410, 33583.00
941.0610, 33576.00
942.1810, 33481.00
943.3010, 33493.00
944.4200, 33343.00
945.5390, 33298.00
946.6580, 33178.00
947.7770, 33220.00
948.8960, 33204.00
950.0150, 33162.00
951.1330, 33290.00
952.2510, 33202.00
953.3690, 33180.00
954.4870, 33369.00
955.6050, 33271.00
956.7230, 33371.00
957.8400, 33418.00
958.9580, 33525.00
960.0750, 33623.79
961.1920, 33691.70
962.3090, 33833.00
963.4250, 33754.00
964.5420, 33820.00
965.6580, 33641.00
966.7740, 33996.00
967.8900, 33906.00
969.0060, 34072.00
970.1220, 34236.00
971.2380, 34166.00
972.3530, 34237.00
973.4680, 34607.00
974.5830, 34696.00
975.6980, 34890.00
976.8130, 34883.00
977.9280, 35033.00
979.0420, 35190.00
980.1560, 35410.00
981.2710, 35410.00
982.3850, 35930.00
983.4980, 36166.00
984.6120, 36530.00
985.7260, 37197.00
986.8390, 37629.00
987.9520, 38519.00
989.0650, 39213.00
990.1780, 40262.00
991.2910, 41709.00
992.4030, 43055.00
993.5160, 45507.00
994.6280, 47210.00
995.7400, 49769.00
996.8520, 51875.00
997.9640, 53896.00
999.0750, 56014.00
1000.187, 57421.00
1001.298, 58506.00
1002.409, 58768.00
1003.520, 58365.00
1004.631, 57488.00
1005.741, 56138.00
1006.852, 54471.00
1007.962, 52643.00
1009.072, 51040.00
1010.182, 49140.00
1011.292, 47282.00
1012.402, 46258.00
1013.511, 44739.00
1014.621, 44000.00
1015.730, 42829.00
1016.839, 41958.00
1017.948, 40946.00
1019.056, 40414.00
1020.165, 39923.00
1021.273, 39199.00
1022.382, 38793.00
1023.490, 38313.00
1024.598, 38123.00
1025.706, 37773.00
1026.813, 37292.00
1027.921, 37269.00
1029.028, 37054.00
1030.135, 36530.00
1031.242, 36478.00
1032.349, 36359.00
1033.456, 35987.00
1034.562, 35865.00
1035.668, 36140.00
1036.775, 35748.00
1037.881, 35908.00
1038.987, 35823.00
1040.092, 35813.00
1041.198, 35679.00
1042.303, 35687.95
1043.408, 35725.00
1044.514, 35655.00
1045.618, 35767.00
1046.723, 35731.00
1047.828, 35601.00
1048.932, 35661.00
1050.037, 35375.00
1051.141, 35815.00
1052.245, 35618.00
1053.349, 35652.00
1054.452, 35422.00
1055.556, 35636.00
1056.659, 35426.00
1057.762, 35619.00
1058.865, 35473.00
1059.968, 35361.00
1061.071, 35364.00
1062.174, 35291.00
1063.276, 35505.00
1064.378, 35372.00
1065.480, 35560.00
1066.582, 35456.00
1067.684, 35755.00
1068.786, 35510.00
1069.887, 35414.00
1070.988, 35519.00
1072.090, 35670.00
1073.191, 35571.00
1074.291, 35893.00
1075.392, 35579.00
1076.493, 35773.00
1077.593, 35651.00
1078.693, 35508.00
1079.793, 35577.00
1080.893, 35824.00
1081.993, 35661.00
1083.092, 35951.00
1084.192, 35904.00
1085.291, 35877.00
1086.390, 35977.52
1087.489, 35943.00
1088.588, 35946.00
1089.686, 35917.00
1090.785, 35769.00
1091.883, 35847.00
1092.981, 36059.00
1094.079, 36257.00
1095.177, 35906.00
1096.275, 35754.00
1097.373, 36008.00
1098.470, 35866.00
1099.567, 36032.00
1100.664, 36078.00
1101.761, 35866.00
1102.858, 35891.00
1103.954, 36041.00
1105.051, 36001.00
1106.147, 36027.00
1107.243, 36185.00
1108.339, 35837.00
1109.435, 36076.00
1110.531, 36046.00
1111.626, 36200.00
1112.722, 36213.00
1113.817, 36309.00
1114.912, 36655.00
1116.007, 36523.00
1117.101, 36816.00
1118.196, 36520.00
1119.290, 36736.00
1120.385, 36990.00
1121.479, 36701.00
1122.573, 36781.00
1123.666, 36845.00
1124.760, 36889.00
1125.853, 36735.00
1126.947, 36816.00
1128.040, 36640.00
1129.133, 36597.00
1130.226, 36537.00
1131.318, 36538.43
1132.411, 36615.00
1133.503, 36681.00
1134.596, 36580.00
1135.688, 36751.00
1136.780, 36430.00
1137.871, 36367.00
1138.963, 37062.00
1140.054, 36760.00
1141.146, 36710.00
1142.237, 36799.00
1143.328, 36774.00
1144.419, 36821.00
1145.509, 36608.00
1146.600, 36888.00
1147.690, 36655.00
1148.780, 36973.00
1149.870, 36749.00
1150.960, 36939.00
1152.050, 36820.00
1153.139, 36688.00
1154.229, 37089.00
1155.318, 36883.00
1156.407, 36976.00
1157.496, 36759.00
1158.585, 36942.00
1159.674, 36935.00
1160.762, 37155.00
1161.850, 36989.00
1162.939, 37025.00
1164.027, 37170.00
1165.114, 37397.00
1166.202, 37081.00
1167.290, 37447.00
1168.377, 37206.00
1169.464, 37296.00
1170.551, 37273.00
1171.638, 37143.00
1172.725, 37401.00
1173.812, 37328.00
1174.898, 37206.00
1175.984, 37475.00
1177.071, 37347.00
1178.157, 37127.00
1179.242, 37301.00
1180.328, 37316.00
1181.414, 37219.00
1182.499, 37382.00
1183.584, 37185.00
1184.669, 37621.00
1185.754, 37455.00
1186.839, 37450.00
1187.924, 37694.00
1189.008, 37436.00
1190.092, 37368.00
1191.177, 37859.00
1192.260, 37931.00
1193.344, 37570.00
1194.428, 37905.00
1195.512, 37525.00
1196.595, 37806.00
1197.678, 37816.00
1198.761, 37771.00
1199.844, 37764.00
1200.927, 37837.00
1202.009, 37795.00
1203.092, 37847.00
1204.174, 37866.00
1205.256, 37760.00
1206.338, 37941.00
1207.420, 38150.00
1208.502, 38309.00
1209.583, 38033.00
1210.665, 38107.00
1211.746, 38011.00
1212.827, 38154.00
1213.908, 38425.00
1214.988, 38158.00
1216.069, 38345.00
1217.149, 38398.00
1218.230, 38190.00
1219.310, 38059.00
1220.390, 38305.00
1221.470, 38337.00
1222.549, 38276.00
1223.629, 38191.00
1224.708, 38474.00
1225.787, 38690.00
1226.866, 38398.00
1227.945, 38532.00
1229.024, 38575.00
1230.103, 38677.00
1231.181, 38646.00
1232.259, 38395.00
1233.337, 38444.00
1234.415, 38586.00
1235.493, 38688.00
1236.571, 38744.00
1237.648, 38738.00
1238.726, 39098.00
1239.803, 38564.00
1240.880, 38925.00
1241.957, 38717.00
1243.034, 38960.00
1244.110, 38909.00
1245.187, 38692.00
1246.263, 38951.00
1247.339, 39048.00
1248.415, 39042.00
1249.491, 39017.00
1250.566, 38715.00
1251.642, 38831.00
1252.717, 38799.00
1253.793, 38898.00
1254.868, 38926.00
1255.943, 38997.00
1257.017, 38916.00
1258.092, 39082.00
1259.166, 39156.00
1260.241, 39251.00
1261.315, 39112.00
1262.389, 39269.00
1263.462, 39483.00
1264.536, 39592.00
1265.610, 39215.00
1266.683, 39096.00
1267.756, 39172.00
1268.829, 39292.00
1269.902, 39432.00
1270.975, 39251.00
1272.048, 39546.00
1273.120, 39235.00
1274.192, 39202.00
1275.264, 39450.00
1276.336, 39400.00
1277.408, 39364.00
1278.480, 39701.00
1279.551, 39436.00
1280.623, 39438.00
1281.694, 39613.00
1282.765, 39532.00
1283.836, 39826.00
1284.907, 39517.00
1285.977, 39775.00
