##NAMES=Kanoite
##RRUFFID=R061134
##IDEAL CHEMISTRY=Mn^2+^MgSi_2_O_6_
##LOCALITY=Balmat, St. Lawrence County, New York, USA
##OWNER=RRUFF
##SOURCE=Michael Scott
##DESCRIPTION=Yellowish brown granular aggregate
##STATUS=The identification of this mineral has been confirmed by X-ray diffraction and chemical analysis
##URL=rruff.info/R061134
##MEASURED CHEMISTRY=(Mn^2+^_0.88_Ca_0.12_)_Σ=1_(Mg_0.98_Fe^3+^_0.02_)_Σ=1_(Si_0.98_Al_0.02_)_2_O_6_
##PIN_ID=M00204
##ORIENTATION=Laser parallel to (-1 0 -1). Fiducial mark perpendicular to laser is parallel to -b [0 -1 0]
111.5030, 15424.00
112.7420, 15693.00
113.9810, 15767.00
115.2200, 16009.00
116.4580, 16049.00
117.6970, 16225.00
118.9350, 16091.00
120.1730, 16398.00
121.4100, 16577.00
122.6480, 16557.00
123.8850, 16849.00
125.1230, 16943.00
126.3600, 17203.00
127.5960, 17443.00
128.8330, 17605.00
130.0700, 18023.00
131.3060, 18261.00
132.5420, 18380.00
133.7780, 18308.00
135.0140, 18612.00
136.2500, 19103.00
137.4850, 19087.00
138.7200, 19416.00
139.9550, 19316.00
141.1900, 19086.00
142.4250, 19089.00
143.6600, 18763.00
144.8940, 18772.00
146.1280, 18853.00
147.3620, 18881.00
148.5960, 18730.00
149.8300, 18606.00
151.0630, 18524.00
152.2960, 18491.00
153.5300, 18251.00
154.7620, 18169.00
155.9950, 18010.00
157.2280, 17829.00
158.4600, 17836.00
159.6920, 17817.00
160.9250, 17807.00
162.1560, 17916.00
163.3880, 18005.00
164.6200, 18062.23
165.8510, 18234.00
167.0820, 18181.00
168.3130, 18259.00
169.5440, 18217.00
170.7750, 18254.00
172.0050, 18505.00
173.2350, 18423.00
174.4650, 18421.00
175.6950, 18642.00
176.9250, 18390.00
178.1550, 18639.00
179.3840, 18573.00
180.6130, 18373.00
181.8420, 18472.00
183.0710, 18425.00
184.3000, 18570.00
185.5280, 18573.00
186.7570, 18748.00
187.9850, 18663.00
189.2130, 18856.00
190.4400, 19107.00
191.6680, 19102.00
192.8960, 18900.00
194.1230, 18970.00
195.3500, 18812.00
196.5770, 18853.34
197.8030, 19085.00
199.0300, 18982.00
200.2560, 19093.00
201.4830, 19250.00
202.7090, 19245.00
203.9340, 19423.00
205.1600, 19317.00
206.3860, 19563.00
207.6110, 19631.00
208.8360, 19892.00
210.0610, 20050.37
211.2860, 20237.00
212.5100, 20426.00
213.7350, 20618.00
214.9590, 20832.00
216.1830, 20757.00
217.4070, 20800.87
218.6310, 20874.00
219.8540, 20653.00
221.0780, 20785.00
222.3010, 20743.00
223.5240, 20645.00
224.7470, 20587.00
225.9690, 20620.00
227.1920, 20587.00
228.4140, 20773.00
229.6360, 20665.00
230.8580, 20576.00
232.0800, 20358.00
233.3020, 20433.00
234.5230, 20394.00
235.7440, 20203.00
236.9650, 20111.00
238.1860, 20155.00
239.4070, 20011.00
240.6280, 19999.00
241.8480, 19943.00
243.0680, 19963.00
244.2880, 19964.68
245.5080, 20045.00
246.7280, 20041.00
247.9470, 19987.01
249.1660, 20086.00
250.3860, 19850.00
251.6040, 19963.00
252.8230, 19832.00
254.0420, 19821.00
255.2600, 19772.00
256.4790, 19775.00
257.6970, 19816.00
258.9150, 19947.00
260.1320, 19763.00
261.3500, 19809.36
262.5670, 19792.00
263.7840, 19690.00
265.0010, 19713.00
266.2180, 19622.00
267.4350, 19552.00
268.6510, 19699.00
269.8680, 19778.00
271.0840, 19644.00
272.3000, 19727.00
273.5160, 19814.00
274.7310, 19821.00
275.9470, 20042.00
277.1620, 20015.00
278.3770, 20051.00
279.5920, 20196.00
280.8070, 20163.00
282.0210, 20126.00
283.2360, 20195.00
284.4500, 20230.00
285.6640, 20264.00
286.8780, 20355.00
288.0920, 20533.00
289.3050, 20464.00
290.5180, 20435.00
291.7320, 20770.00
292.9450, 20684.00
294.1570, 20720.00
295.3700, 21074.00
296.5830, 21053.00
297.7950, 21129.00
299.0070, 21472.00
300.2190, 21706.00
301.4310, 21853.00
302.6420, 22177.00
303.8540, 22300.00
305.0650, 22542.00
306.2760, 22760.00
307.4870, 23086.00
308.6980, 23561.00
309.9080, 23931.00
311.1190, 24506.00
312.3290, 25057.00
313.5390, 25763.00
314.7490, 26473.00
315.9580, 27307.00
317.1680, 28126.00
318.3770, 28633.00
319.5860, 29196.00
320.7950, 29781.00
322.0040, 30026.00
323.2130, 29987.00
324.4210, 29822.00
325.6290, 29467.00
326.8380, 28764.00
328.0460, 28333.00
329.2530, 27721.00
330.4610, 26692.00
331.6680, 26390.00
332.8760, 25752.00
334.0830, 25360.00
335.2890, 24588.00
336.4960, 24092.00
337.7030, 23850.00
338.9090, 23642.00
340.1150, 23424.00
341.3210, 23333.00
342.5270, 23208.00
343.7330, 22972.00
344.9380, 22738.00
346.1440, 22689.00
347.3490, 22838.00
348.5540, 22979.00
349.7590, 22798.00
350.9630, 22919.00
352.1680, 22878.00
353.3720, 23008.00
354.5760, 23034.00
355.7800, 23044.00
356.9840, 22769.00
358.1870, 22897.00
359.3910, 22652.00
360.5940, 22546.00
361.7970, 22468.00
363.0000, 22597.00
364.2030, 22880.00
365.4050, 22607.00
366.6080, 22941.00
367.8100, 22841.00
369.0120, 22832.00
370.2140, 23129.00
371.4150, 23145.00
372.6170, 23251.00
373.8180, 23255.00
375.0190, 22971.00
376.2200, 22969.00
377.4210, 22871.00
378.6220, 22858.00
379.8220, 23015.00
381.0230, 23117.00
382.2230, 23162.00
383.4230, 23602.00
384.6220, 23638.00
385.8220, 23910.00
387.0220, 24251.00
388.2210, 24495.00
389.4200, 24626.00
390.6190, 24774.00
391.8180, 24672.00
393.0160, 24490.00
394.2150, 24148.00
395.4130, 23827.00
396.6110, 23399.00
397.8090, 22956.00
399.0060, 22562.00
400.2040, 22156.00
401.4010, 22039.00
402.5980, 21938.00
403.7950, 22033.00
404.9920, 21969.00
406.1890, 21932.00
407.3860, 21818.00
408.5820, 21994.00
409.7780, 21934.00
410.9740, 21998.00
412.1700, 22174.00
413.3650, 22157.00
414.5610, 22117.00
415.7560, 21832.00
416.9510, 21814.00
418.1460, 21949.00
419.3410, 21670.00
420.5360, 21668.00
421.7300, 21522.00
422.9240, 21314.00
424.1180, 21254.00
425.3120, 21120.89
426.5060, 21081.00
427.7000, 21005.00
428.8930, 20983.00
430.0860, 21066.00
431.2790, 20987.05
432.4720, 21016.00
433.6650, 20946.00
434.8580, 20933.00
436.0500, 20951.45
437.2420, 20873.00
438.4340, 20881.00
439.6260, 20814.00
440.8180, 20817.00
442.0090, 20836.79
443.2010, 20840.00
444.3920, 20854.00
445.5830, 20901.00
446.7740, 20812.00
447.9640, 20865.00
449.1550, 20773.00
450.3450, 20905.00
451.5350, 20939.00
452.7250, 20906.00
453.9150, 21019.00
455.1050, 20920.00
456.2940, 21089.00
457.4830, 21259.00
458.6720, 21184.00
459.8610, 21172.00
461.0500, 21269.09
462.2390, 21177.31
463.4270, 21382.00
464.6150, 21241.00
465.8040, 21263.00
466.9910, 21610.00
468.1790, 21370.00
469.3670, 21462.00
470.5540, 21395.00
471.7410, 21390.00
472.9280, 21387.00
474.1150, 21154.00
475.3020, 21234.00
476.4890, 21140.00
477.6750, 21210.00
478.8610, 21123.00
480.0470, 21151.00
481.2330, 21043.00
482.4190, 21062.00
483.6040, 21196.00
484.7900, 21152.00
485.9750, 21031.00
487.1600, 20967.00
488.3450, 21214.00
489.5290, 21177.00
490.7140, 21360.00
491.8980, 21333.00
493.0820, 21558.00
494.2660, 21533.00
495.4500, 21723.00
496.6340, 21802.00
497.8170, 21923.00
499.0010, 21976.00
500.1840, 22062.00
501.3670, 22408.00
502.5500, 22517.00
503.7320, 22499.00
504.9150, 22540.00
506.0970, 22423.00
507.2790, 22684.00
508.4610, 22862.00
509.6430, 22604.00
510.8250, 22892.00
512.0060, 22790.00
513.1870, 22918.00
514.3680, 23038.00
515.5490, 22919.00
516.7300, 23015.00
517.9110, 23231.00
519.0910, 23143.00
520.2710, 23341.00
521.4510, 23094.00
522.6310, 22887.00
523.8110, 22952.00
524.9910, 22529.00
526.1700, 22578.00
527.3490, 22470.00
528.5280, 22607.00
529.7070, 22432.00
530.8860, 22482.00
532.0650, 22395.00
533.2430, 22645.00
534.4210, 22657.00
535.5990, 22986.00
536.7770, 22915.00
537.9550, 22874.00
539.1320, 23024.00
540.3100, 23067.00
541.4870, 23109.00
542.6640, 23072.00
543.8410, 22904.00
545.0170, 23095.00
546.1940, 23019.00
547.3700, 23329.00
548.5470, 23541.00
549.7230, 23664.00
550.8980, 23979.00
552.0740, 24067.00
553.2500, 24230.00
554.4250, 24331.00
555.6000, 24072.00
556.7750, 23975.00
557.9500, 23984.00
559.1250, 23454.00
560.2990, 23085.00
561.4730, 22895.00
562.6480, 22683.00
563.8220, 22513.00
564.9950, 22380.00
566.1690, 22159.00
567.3430, 22240.00
568.5160, 22258.00
569.6890, 22012.00
570.8620, 22002.00
572.0350, 22149.00
573.2070, 22053.00
574.3800, 21844.00
575.5520, 22136.00
576.7240, 21636.00
577.8960, 21807.00
579.0680, 21829.00
580.2400, 21853.00
581.4110, 21960.00
582.5830, 21844.00
583.7540, 21776.00
584.9250, 21854.00
586.0950, 21827.00
587.2660, 21847.62
588.4370, 21760.00
589.6070, 21859.00
590.7770, 21731.00
591.9470, 21649.00
593.1170, 21894.00
594.2860, 21760.00
595.4560, 21821.00
596.6250, 21701.00
597.7940, 21876.00
598.9630, 22052.00
600.1320, 21868.00
601.3000, 21844.00
602.4690, 21870.00
603.6370, 21881.00
604.8050, 21894.34
605.9730, 21855.00
607.1410, 21933.00
608.3090, 22001.00
609.4760, 22009.00
610.6430, 21970.00
611.8100, 21988.00
612.9770, 22367.00
614.1440, 21981.00
615.3110, 22283.00
616.4770, 21926.00
617.6430, 22086.00
618.8090, 22137.00
619.9750, 22280.00
621.1410, 22378.00
622.3070, 22348.00
623.4720, 22526.00
624.6370, 22369.00
625.8020, 22408.00
626.9670, 22561.00
628.1320, 22510.00
629.2970, 22421.00
630.4610, 22639.00
631.6250, 22761.00
632.7890, 22939.00
633.9530, 23024.00
635.1170, 23107.00
636.2810, 23257.00
637.4440, 23298.00
638.6070, 23382.00
639.7700, 23644.00
640.9330, 23833.00
642.0960, 24185.00
643.2590, 24467.00
644.4210, 24883.00
645.5830, 25222.00
646.7450, 26022.00
647.9070, 26547.00
649.0690, 27352.00
650.2310, 27961.00
651.3920, 28812.00
652.5530, 29681.00
653.7140, 30895.00
654.8750, 32021.00
656.0360, 33249.00
657.1970, 34537.00
658.3570, 35371.00
659.5170, 36780.00
660.6770, 37896.00
661.8370, 38959.00
662.9970, 40197.00
664.1570, 41062.00
665.3160, 41856.00
666.4750, 41925.00
667.6340, 41499.00
668.7930, 40457.00
669.9520, 38888.00
671.1110, 37173.00
672.2690, 35300.00
673.4270, 33641.00
674.5850, 32132.00
675.7430, 30716.00
676.9010, 29477.00
678.0590, 28289.00
679.2160, 27634.00
680.3730, 26979.00
681.5300, 26136.00
682.6870, 25834.00
683.8440, 25543.00
685.0010, 25238.00
686.1570, 25018.31
687.3130, 24733.00
688.4690, 24584.00
689.6250, 24414.00
690.7810, 24179.00
691.9370, 24060.00
693.0920, 23866.00
694.2470, 23607.00
695.4020, 23790.00
696.5570, 23623.00
697.7120, 23450.00
698.8670, 23652.00
700.0210, 23498.00
701.1750, 23464.00
702.3290, 23269.00
703.4830, 23250.50
704.6370, 23217.00
705.7910, 23189.00
706.9440, 23151.00
708.0970, 23143.00
709.2510, 23144.70
710.4030, 23118.00
711.5560, 23197.00
712.7090, 23282.00
713.8610, 23364.00
715.0140, 23148.00
716.1660, 23294.00
717.3180, 23230.00
718.4690, 23351.00
719.6210, 23306.00
720.7730, 23162.00
721.9240, 23237.00
723.0750, 23286.00
724.2260, 23395.00
725.3770, 23192.00
726.5270, 23405.00
727.6780, 23302.00
728.8280, 23595.00
729.9780, 24025.00
731.1280, 23527.00
732.2780, 23373.00
733.4280, 22961.00
734.5770, 23128.00
735.7260, 23150.00
736.8760, 23066.00
738.0250, 23053.00
739.1730, 23337.00
740.3220, 23110.00
741.4700, 23243.00
742.6190, 23375.00
743.7670, 22989.00
744.9150, 23289.00
746.0630, 23109.00
747.2100, 22956.00
748.3580, 23440.00
749.5050, 23257.00
750.6520, 22992.00
751.7990, 23214.00
752.9460, 23279.00
754.0930, 23074.00
755.2390, 23084.00
756.3860, 23094.00
757.5320, 23230.00
758.6780, 23248.00
759.8240, 23341.00
760.9690, 23289.00
762.1150, 23436.00
763.2600, 23278.00
764.4060, 23268.00
765.5510, 23354.00
766.6950, 23285.00
767.8400, 23365.00
768.9850, 23408.00
770.1290, 23319.00
771.2730, 23440.00
772.4170, 23224.00
773.5610, 23374.00
774.7050, 23563.00
775.8480, 23277.00
776.9920, 23336.00
778.1350, 23489.00
779.2780, 23735.00
780.4210, 23571.00
781.5640, 23536.00
782.7060, 23604.00
783.8490, 23546.00
784.9910, 23620.00
786.1330, 23558.00
787.2750, 23575.00
788.4170, 23646.00
789.5580, 23501.00
790.7000, 23586.00
791.8410, 23701.00
792.9820, 23699.00
794.1230, 23647.00
795.2640, 23589.00
796.4040, 23762.00
797.5450, 23829.00
798.6850, 23639.00
799.8250, 23816.00
800.9650, 23798.00
802.1050, 23660.00
803.2450, 23797.00
804.3840, 23888.00
805.5230, 23693.00
806.6630, 23972.00
807.8020, 23844.00
808.9400, 23852.00
810.0790, 23823.00
811.2170, 23701.00
812.3560, 23798.00
813.4940, 23768.00
814.6320, 23957.00
815.7700, 23909.00
816.9070, 24074.00
818.0450, 23882.00
819.1820, 24158.00
820.3190, 23798.00
821.4560, 24039.00
822.5930, 23890.00
823.7300, 23905.00
824.8670, 24019.00
826.0030, 24304.00
827.1390, 23958.00
828.2750, 24113.00
829.4110, 24002.00
830.5470, 24134.00
831.6820, 24177.00
832.8180, 24200.00
833.9530, 24160.00
835.0880, 24205.00
836.2230, 24261.00
837.3580, 24099.00
838.4920, 24311.00
839.6270, 24223.00
840.7610, 24129.00
841.8950, 24321.00
843.0290, 24203.00
844.1630, 24429.00
845.2960, 24283.00
846.4300, 24427.00
847.5630, 24189.00
848.6960, 24429.00
849.8290, 24457.00
850.9620, 24521.00
852.0940, 24549.00
853.2270, 24548.00
854.3590, 24626.00
855.4910, 24600.84
856.6230, 24769.00
857.7550, 24628.00
858.8870, 24658.00
860.0180, 24770.00
861.1500, 24852.00
862.2810, 24729.00
863.4120, 24773.00
864.5430, 24584.00
865.6730, 24839.00
866.8040, 24849.00
867.9340, 24836.00
869.0640, 24762.00
870.1940, 25011.00
871.3240, 24761.00
872.4540, 24604.00
873.5830, 24795.00
874.7130, 25022.00
875.8420, 25094.00
876.9710, 25126.00
878.1000, 25090.00
879.2290, 25126.42
880.3570, 25138.11
881.4860, 25105.00
882.6140, 25164.00
883.7420, 25119.00
884.8700, 25088.00
885.9980, 25297.00
887.1250, 25221.00
888.2530, 25427.00
889.3800, 25422.00
890.5070, 25354.00
891.6340, 25364.00
892.7610, 25508.00
893.8880, 25282.00
895.0140, 25541.00
896.1400, 25609.00
897.2670, 25432.00
898.3930, 25417.00
899.5180, 25530.00
900.6440, 25558.00
901.7700, 25620.00
902.8950, 25473.00
904.0200, 25520.00
905.1450, 25579.00
906.2700, 25516.00
907.3950, 25627.00
908.5190, 25691.00
909.6440, 25674.00
910.7680, 25613.00
911.8920, 25683.24
913.0160, 25771.00
914.1400, 25730.00
915.2630, 25914.00
916.3870, 25887.00
917.5100, 26042.00
918.6330, 26000.00
919.7560, 26051.00
920.8790, 26204.00
922.0010, 26276.00
923.1240, 26282.00
924.2460, 26408.00
925.3680, 26700.00
926.4900, 26692.00
927.6120, 26797.00
928.7340, 26829.00
929.8550, 26861.00
930.9760, 26941.00
932.0980, 26938.00
933.2190, 27021.00
934.3390, 27053.00
935.4600, 27095.10
936.5810, 27179.00
937.7010, 27144.00
938.8210, 27190.00
939.9410, 27119.00
941.0610, 27099.00
942.1810, 27018.00
943.3010, 26873.00
944.4200, 26899.00
945.5390, 26688.00
946.6580, 26752.00
947.7770, 26592.00
948.8960, 26709.00
950.0150, 26657.00
951.1330, 26589.00
952.2510, 26389.00
953.3690, 26618.00
954.4870, 26547.00
955.6050, 26915.00
956.7230, 26882.00
957.8400, 26830.00
958.9580, 26726.00
960.0750, 26914.00
961.1920, 26931.00
962.3090, 27186.00
963.4250, 27265.00
964.5420, 27063.00
965.6580, 27285.00
966.7740, 27289.00
967.8900, 27418.00
969.0060, 27848.00
970.1220, 28058.00
971.2380, 27834.00
972.3530, 27794.00
973.4680, 28273.00
974.5830, 28265.00
975.6980, 28352.00
976.8130, 28535.00
977.9280, 28835.89
979.0420, 29168.00
980.1560, 29654.00
981.2710, 30019.00
982.3850, 30485.00
983.4980, 30964.00
984.6120, 31618.00
985.7260, 32670.00
986.8390, 33541.00
987.9520, 34630.00
989.0650, 35963.00
990.1780, 38125.00
991.2910, 40324.00
992.4030, 43161.00
993.5160, 45688.00
994.6280, 49052.00
995.7400, 52591.00
996.8520, 55632.00
997.9640, 59070.00
999.0750, 60700.00
1000.187, 62310.00
1001.298, 63077.00
1002.409, 63154.00
1003.520, 61877.00
1004.631, 60292.00
1005.741, 57825.00
1006.852, 55646.00
1007.962, 52861.00
1009.072, 50159.00
1010.182, 47891.00
1011.292, 45713.00
1012.402, 43559.00
1013.511, 41826.62
1014.621, 40063.00
1015.730, 38691.00
1016.839, 37376.00
1017.948, 36132.00
1019.056, 35157.00
1020.165, 34509.00
1021.273, 33700.00
1022.382, 32927.00
1023.490, 32270.00
1024.598, 31892.00
1025.706, 31273.00
1026.813, 31138.00
1027.921, 30619.00
1029.028, 30519.00
1030.135, 30190.00
1031.242, 29842.00
1032.349, 29657.00
1033.456, 29031.00
1034.562, 29181.00
1035.668, 28886.00
1036.775, 28909.00
1037.881, 29064.00
1038.987, 28677.00
1040.092, 28827.00
1041.198, 28508.00
1042.303, 28481.00
1043.408, 28421.00
1044.514, 28338.00
1045.618, 28325.00
1046.723, 28361.00
1047.828, 28234.00
1048.932, 28326.00
1050.037, 28304.00
1051.141, 28261.00
1052.245, 28144.00
1053.349, 28145.00
1054.452, 28056.00
1055.556, 28056.81
1056.659, 27887.00
1057.762, 28120.00
1058.865, 28036.00
1059.968, 28166.00
1061.071, 27967.00
1062.174, 28000.00
1063.276, 28024.00
1064.378, 27804.00
1065.480, 27849.00
1066.582, 28086.00
1067.684, 27943.00
1068.786, 28279.00
1069.887, 27863.00
1070.988, 28018.00
1072.090, 27811.00
1073.191, 27948.00
1074.291, 28133.00
1075.392, 28216.00
1076.493, 28132.00
1077.593, 28175.00
1078.693, 28107.00
1079.793, 28167.00
1080.893, 28200.00
1081.993, 28269.00
1083.092, 28230.00
1084.192, 28288.58
1085.291, 28324.00
1086.390, 28348.00
1087.489, 28230.00
1088.588, 28249.00
1089.686, 28166.00
1090.785, 28152.96
1091.883, 28317.00
1092.981, 28190.00
1094.079, 28263.00
1095.177, 28407.00
1096.275, 28131.00
1097.373, 28302.00
1098.470, 28272.00
1099.567, 28018.00
1100.664, 28154.00
1101.761, 28176.00
1102.858, 28263.00
1103.954, 28246.00
1105.051, 28281.00
1106.147, 28299.00
1107.243, 28306.85
1108.339, 28299.01
1109.435, 28346.00
1110.531, 28277.00
1111.626, 28307.00
1112.722, 28341.00
1113.817, 28258.00
1114.912, 28468.00
1116.007, 28426.00
1117.101, 28650.00
1118.196, 28853.00
1119.290, 28824.00
1120.385, 28929.25
1121.479, 28923.95
1122.573, 28895.00
1123.666, 28820.00
1124.760, 28723.00
1125.853, 28571.00
1126.947, 28471.00
1128.040, 28393.00
1129.133, 28500.00
1130.226, 28444.04
1131.318, 28539.00
1132.411, 28542.00
1133.503, 28472.00
1134.596, 28626.00
1135.688, 28508.00
1136.780, 28402.00
1137.871, 28194.00
1138.963, 28328.00
1140.054, 28355.00
1141.146, 28280.00
1142.237, 28351.00
1143.328, 28489.00
1144.419, 28566.00
1145.509, 28308.00
1146.600, 28221.00
1147.690, 28106.00
1148.780, 28109.47
1149.870, 28134.06
1150.960, 28213.00
1152.050, 28337.00
1153.139, 28352.00
1154.229, 28554.00
1155.318, 28457.00
1156.407, 28361.00
1157.496, 28625.00
1158.585, 28473.00
1159.674, 28431.00
1160.762, 28607.00
1161.850, 28398.00
1162.939, 28562.00
1164.027, 28503.00
1165.114, 28588.00
1166.202, 28788.00
1167.290, 28761.00
1168.377, 28676.00
1169.464, 28672.00
1170.551, 28774.00
1171.638, 28863.00
1172.725, 28558.00
1173.812, 28726.00
1174.898, 28591.00
1175.984, 28561.00
1177.071, 28675.00
1178.157, 28766.00
1179.242, 28750.00
1180.328, 28770.00
1181.414, 28779.00
1182.499, 28799.26
1183.584, 28857.00
1184.669, 28833.00
1185.754, 28859.00
1186.839, 28827.00
1187.924, 28902.00
1189.008, 28796.00
1190.092, 28851.00
1191.177, 28947.00
1192.260, 28983.00
1193.344, 28933.00
1194.428, 28986.00
1195.512, 29072.00
1196.595, 29047.00
1197.678, 29112.00
1198.761, 28889.00
1199.844, 28956.00
1200.927, 28995.00
1202.009, 28815.00
1203.092, 29219.00
1204.174, 29174.00
1205.256, 29110.00
1206.338, 29141.00
1207.420, 29248.00
1208.502, 29133.00
1209.583, 29279.00
1210.665, 29141.00
1211.746, 29146.00
1212.827, 29102.00
1213.908, 29430.00
1214.988, 29363.00
1216.069, 29432.00
1217.149, 29401.00
1218.230, 29555.00
1219.310, 29431.00
1220.390, 29035.00
1221.470, 29359.00
1222.549, 29166.00
1223.629, 29547.00
1224.708, 29284.00
1225.787, 29333.00
1226.866, 29543.00
1227.945, 29378.00
1229.024, 29263.00
1230.103, 29568.00
1231.181, 29319.00
1232.259, 29298.00
1233.337, 29389.00
1234.415, 29462.00
1235.493, 29569.00
1236.571, 29693.00
1237.648, 29659.00
1238.726, 29697.00
1239.803, 29691.00
1240.880, 29346.00
1241.957, 29618.00
1243.034, 29580.00
1244.110, 29414.00
1245.187, 29695.00
1246.263, 29779.00
1247.339, 29623.00
1248.415, 29682.00
1249.491, 29829.00
1250.566, 29679.00
1251.642, 29719.00
1252.717, 29695.00
1253.793, 29827.00
1254.868, 29546.00
1255.943, 29473.00
1257.017, 29944.00
1258.092, 29540.00
1259.166, 29688.00
1260.241, 29953.00
1261.315, 29888.00
1262.389, 30074.00
1263.462, 30063.00
1264.536, 29819.00
1265.610, 30034.00
1266.683, 30006.00
1267.756, 30064.00
1268.829, 29964.00
1269.902, 30006.00
1270.975, 29987.00
1272.048, 29988.27
1273.120, 30032.35
1274.192, 30049.00
1275.264, 30130.00
1276.336, 30206.00
1277.408, 30299.00
1278.480, 30215.00
1279.551, 30291.85
1280.623, 30032.00
1281.694, 30240.00
1282.765, 30257.00
1283.836, 30056.00
1284.907, 30305.00
1285.977, 30194.00
1287.048, 30284.00
1288.118, 30381.00
