##NAMES=Kanoite
##RRUFFID=R061134
##IDEAL CHEMISTRY=Mn^2+^MgSi_2_O_6_
##LOCALITY=Balmat, St. Lawrence County, New York, USA
##OWNER=RRUFF
##SOURCE=Michael Scott
##DESCRIPTION=Yellowish brown granular aggregate
##STATUS=The identification of this mineral has been confirmed by X-ray diffraction and chemical analysis
##URL=rruff.info/R061134
##MEASURED CHEMISTRY=(Mn^2+^_0.88_Ca_0.12_)_Σ=1_(Mg_0.98_Fe^3+^_0.02_)_Σ=1_(Si_0.98_Al_0.02_)_2_O_6_
##PIN_ID=M00188
##ORIENTATION=Laser parallel to b* (0 1 0). Fiducial mark perpendicular to laser is parallel to c [0 0 1]
109.0250, 9288.000
110.2640, 9410.000
111.5030, 9459.000
112.7420, 9570.000
113.9810, 9504.000
115.2200, 9684.000
116.4580, 9719.000
117.6970, 9635.000
118.9350, 9651.000
120.1730, 9612.000
121.4100, 9688.000
122.6480, 9781.000
123.8850, 9908.000
125.1230, 9786.000
126.3600, 10081.00
127.5960, 9920.000
128.8330, 10139.00
130.0700, 10157.00
131.3060, 10167.00
132.5420, 10316.00
133.7780, 10258.00
135.0140, 10188.00
136.2500, 10315.00
137.4850, 10242.00
138.7200, 10294.00
139.9550, 10352.00
141.1900, 10309.00
142.4250, 10373.22
143.6600, 10411.00
144.8940, 10426.00
146.1280, 10438.00
147.3620, 10449.00
148.5960, 10516.00
149.8300, 10572.00
151.0630, 10399.00
152.2960, 10443.00
153.5300, 10477.00
154.7620, 10263.00
155.9950, 10312.00
157.2280, 10359.00
158.4600, 10352.00
159.6920, 10260.00
160.9250, 10304.00
162.1560, 10188.00
163.3880, 10340.00
164.6200, 10245.00
165.8510, 10240.00
167.0820, 10325.00
168.3130, 10298.00
169.5440, 10352.00
170.7750, 10314.00
172.0050, 10458.00
173.2350, 10378.00
174.4650, 10282.00
175.6950, 10386.00
176.9250, 10501.00
178.1550, 10444.00
179.3840, 10428.00
180.6130, 10622.00
181.8420, 10597.00
183.0710, 10454.00
184.3000, 10551.00
185.5280, 10610.00
186.7570, 10669.00
187.9850, 10740.64
189.2130, 10753.51
190.4400, 10841.00
191.6680, 10787.00
192.8960, 10783.00
194.1230, 10820.00
195.3500, 10626.00
196.5770, 10770.00
197.8030, 10700.00
199.0300, 10742.00
200.2560, 10742.00
201.4830, 10825.00
202.7090, 10848.00
203.9340, 10930.00
205.1600, 11010.00
206.3860, 10941.00
207.6110, 11179.00
208.8360, 10978.00
210.0610, 11128.00
211.2860, 11188.00
212.5100, 11280.00
213.7350, 11362.00
214.9590, 11310.00
216.1830, 11387.00
217.4070, 11304.00
218.6310, 11279.00
219.8540, 11399.00
221.0780, 11375.00
222.3010, 11394.00
223.5240, 11351.00
224.7470, 11425.00
225.9690, 11405.42
227.1920, 11415.46
228.4140, 11395.00
229.6360, 11369.00
230.8580, 11313.00
232.0800, 11158.00
233.3020, 11262.00
234.5230, 11257.00
235.7440, 11336.00
236.9650, 11122.00
238.1860, 11273.00
239.4070, 11240.00
240.6280, 11377.00
241.8480, 11178.00
243.0680, 11389.00
244.2880, 11308.00
245.5080, 11346.00
246.7280, 11327.00
247.9470, 11506.00
249.1660, 11457.00
250.3860, 11368.00
251.6040, 11253.00
252.8230, 11338.00
254.0420, 11286.00
255.2600, 11340.00
256.4790, 11390.00
257.6970, 11312.00
258.9150, 11436.00
260.1320, 11420.00
261.3500, 11360.00
262.5670, 11298.00
263.7840, 11432.00
265.0010, 11284.00
266.2180, 11442.00
267.4350, 11310.00
268.6510, 11313.00
269.8680, 11353.00
271.0840, 11426.00
272.3000, 11413.00
273.5160, 11459.00
274.7310, 11575.00
275.9470, 11603.00
277.1620, 11761.00
278.3770, 11720.00
279.5920, 11629.00
280.8070, 11539.00
282.0210, 11652.00
283.2360, 11780.00
284.4500, 11715.00
285.6640, 11700.00
286.8780, 11668.00
288.0920, 11758.00
289.3050, 11719.00
290.5180, 11827.00
291.7320, 11749.00
292.9450, 11909.00
294.1570, 12006.00
295.3700, 11998.00
296.5830, 11933.00
297.7950, 12038.00
299.0070, 12082.00
300.2190, 12068.00
301.4310, 12135.00
302.6420, 12285.00
303.8540, 12245.00
305.0650, 12471.00
306.2760, 12369.00
307.4870, 12543.00
308.6980, 12666.00
309.9080, 12749.00
311.1190, 13022.00
312.3290, 13011.00
313.5390, 13173.00
314.7490, 13307.00
315.9580, 13335.00
317.1680, 13611.00
318.3770, 13808.00
319.5860, 13649.00
320.7950, 13769.00
322.0040, 13970.00
323.2130, 13826.00
324.4210, 13796.00
325.6290, 13672.00
326.8380, 13657.00
328.0460, 13638.00
329.2530, 13550.00
330.4610, 13306.00
331.6680, 13180.00
332.8760, 13186.00
334.0830, 13008.00
335.2890, 12950.00
336.4960, 12947.00
337.7030, 12624.00
338.9090, 12733.00
340.1150, 12889.00
341.3210, 12576.00
342.5270, 12734.00
343.7330, 12632.00
344.9380, 12694.00
346.1440, 12624.00
347.3490, 12609.00
348.5540, 12713.00
349.7590, 12716.00
350.9630, 12703.00
352.1680, 12671.00
353.3720, 12751.00
354.5760, 12741.00
355.7800, 12707.00
356.9840, 12664.00
358.1870, 12631.00
359.3910, 12716.00
360.5940, 12823.00
361.7970, 12716.00
363.0000, 12817.00
364.2030, 12666.00
365.4050, 12764.00
366.6080, 12858.00
367.8100, 12823.00
369.0120, 12725.00
370.2140, 12784.00
371.4150, 12871.00
372.6170, 12857.00
373.8180, 12903.00
375.0190, 12968.00
376.2200, 12816.00
377.4210, 13032.00
378.6220, 12886.00
379.8220, 13057.00
381.0230, 13051.00
382.2230, 13022.00
383.4230, 13103.00
384.6220, 13022.00
385.8220, 13156.00
387.0220, 13335.00
388.2210, 13450.00
389.4200, 13409.00
390.6190, 13403.00
391.8180, 13444.00
393.0160, 13497.00
394.2150, 13258.00
395.4130, 13303.00
396.6110, 13287.00
397.8090, 13033.00
399.0060, 13043.00
400.2040, 13085.00
401.4010, 13181.00
402.5980, 13088.00
403.7950, 13096.47
404.9920, 12957.00
406.1890, 12982.00
407.3860, 13091.00
408.5820, 13036.00
409.7780, 13075.48
410.9740, 13048.00
412.1700, 13038.00
413.3650, 13100.00
414.5610, 13015.00
415.7560, 13114.00
416.9510, 13021.00
418.1460, 13017.00
419.3410, 13137.00
420.5360, 12904.00
421.7300, 13146.00
422.9240, 13132.00
424.1180, 13143.00
425.3120, 13234.00
426.5060, 13291.00
427.7000, 13147.00
428.8930, 13332.00
430.0860, 13294.00
431.2790, 13208.00
432.4720, 13239.00
433.6650, 13325.00
434.8580, 13287.00
436.0500, 13314.00
437.2420, 13434.00
438.4340, 13471.00
439.6260, 13525.00
440.8180, 13669.95
442.0090, 13825.20
443.2010, 13995.00
444.3920, 14253.00
445.5830, 14534.00
446.7740, 14782.00
447.9640, 15182.00
449.1550, 15558.00
450.3450, 16013.00
451.5350, 16463.00
452.7250, 16691.00
453.9150, 16939.00
455.1050, 17109.00
456.2940, 17243.00
457.4830, 17467.00
458.6720, 17774.00
459.8610, 18025.00
461.0500, 18076.00
462.2390, 17796.00
463.4270, 17403.00
464.6150, 16658.00
465.8040, 15781.00
466.9910, 15177.00
468.1790, 14647.00
469.3670, 14387.00
470.5540, 14222.00
471.7410, 14182.00
472.9280, 13906.00
474.1150, 13957.00
475.3020, 13841.00
476.4890, 13696.00
477.6750, 13820.00
478.8610, 13774.00
480.0470, 13694.00
481.2330, 13737.00
482.4190, 13764.00
483.6040, 13785.00
484.7900, 13756.00
485.9750, 13711.00
487.1600, 13765.00
488.3450, 13795.00
489.5290, 13821.00
490.7140, 13850.00
491.8980, 13840.00
493.0820, 13881.00
494.2660, 13941.00
495.4500, 13962.00
496.6340, 13850.00
497.8170, 13987.00
499.0010, 13928.00
500.1840, 14008.00
501.3670, 14122.00
502.5500, 13954.00
503.7320, 13992.00
504.9150, 13996.00
506.0970, 14177.00
507.2790, 14055.00
508.4610, 14082.00
509.6430, 14133.00
510.8250, 14129.00
512.0060, 14162.98
513.1870, 14039.00
514.3680, 14177.00
515.5490, 14189.00
516.7300, 14142.00
517.9110, 14279.00
519.0910, 14145.00
520.2710, 14379.00
521.4510, 14307.00
522.6310, 14320.00
523.8110, 14412.00
524.9910, 14291.00
526.1700, 14329.00
527.3490, 14345.00
528.5280, 14266.00
529.7070, 14348.00
530.8860, 14457.00
532.0650, 14331.00
533.2430, 14291.00
534.4210, 14410.00
535.5990, 14323.00
536.7770, 14435.00
537.9550, 14229.00
539.1320, 14540.00
540.3100, 14456.00
541.4870, 14461.00
542.6640, 14624.00
543.8410, 14488.00
545.0170, 14591.00
546.1940, 14535.00
547.3700, 14312.00
548.5470, 14348.00
549.7230, 14399.30
550.8980, 14516.00
552.0740, 14622.00
553.2500, 14692.00
554.4250, 14735.00
555.6000, 14787.00
556.7750, 14747.98
557.9500, 14773.00
559.1250, 14650.00
560.2990, 14559.00
561.4730, 14533.00
562.6480, 14735.00
563.8220, 14616.00
564.9950, 14625.00
566.1690, 14685.00
567.3430, 14636.00
568.5160, 14575.00
569.6890, 14648.00
570.8620, 14580.00
572.0350, 14761.00
573.2070, 14782.00
574.3800, 14802.00
575.5520, 14649.00
576.7240, 14782.00
577.8960, 14729.00
579.0680, 14744.00
580.2400, 14723.00
581.4110, 14760.00
582.5830, 14752.00
583.7540, 14765.53
584.9250, 14779.97
586.0950, 14780.00
587.2660, 14799.00
588.4370, 14781.00
589.6070, 14785.00
590.7770, 14821.00
591.9470, 14852.00
593.1170, 14901.00
594.2860, 15015.00
595.4560, 14899.00
596.6250, 14913.00
597.7940, 15137.00
598.9630, 14969.00
600.1320, 15185.00
601.3000, 15064.00
602.4690, 15050.00
603.6370, 15174.00
604.8050, 15294.00
605.9730, 15381.00
607.1410, 15652.00
608.3090, 15682.00
609.4760, 16006.00
610.6430, 16070.00
611.8100, 16337.00
612.9770, 16642.00
614.1440, 17000.00
615.3110, 17234.00
616.4770, 17599.00
617.6430, 17544.00
618.8090, 17360.00
619.9750, 17182.00
621.1410, 16782.00
622.3070, 16557.00
623.4720, 16429.00
624.6370, 16244.00
625.8020, 16146.00
626.9670, 16174.00
628.1320, 16070.00
629.2970, 16054.83
630.4610, 16149.00
631.6250, 16030.00
632.7890, 15942.00
633.9530, 15989.00
635.1170, 15930.11
636.2810, 15979.00
637.4440, 15956.00
638.6070, 16085.00
639.7700, 16142.00
640.9330, 16297.00
642.0960, 16393.00
643.2590, 16480.00
644.4210, 16760.00
645.5830, 16842.00
646.7450, 17106.00
647.9070, 17223.00
649.0690, 17351.00
650.2310, 17573.89
651.3920, 17896.00
652.5530, 18052.00
653.7140, 18323.00
654.8750, 18773.00
656.0360, 18877.00
657.1970, 19270.00
658.3570, 19605.00
659.5170, 19952.00
660.6770, 20218.00
661.8370, 20657.00
662.9970, 20536.00
664.1570, 20867.00
665.3160, 20804.00
666.4750, 20683.00
667.6340, 20563.00
668.7930, 20264.00
669.9520, 20144.00
671.1110, 19544.00
672.2690, 18880.00
673.4270, 18724.00
674.5850, 18137.00
675.7430, 18019.00
676.9010, 17538.00
678.0590, 17237.00
679.2160, 17117.00
680.3730, 16818.00
681.5300, 16866.00
682.6870, 16672.00
683.8440, 16575.00
685.0010, 16572.00
686.1570, 16331.00
687.3130, 16486.00
688.4690, 16240.00
689.6250, 16482.00
690.7810, 16321.00
691.9370, 16358.00
693.0920, 16153.00
694.2470, 16273.00
695.4020, 16258.00
696.5570, 16114.00
697.7120, 16234.00
698.8670, 16236.00
700.0210, 16324.00
701.1750, 16205.00
702.3290, 16301.00
703.4830, 16221.00
704.6370, 16319.00
705.7910, 16113.00
706.9440, 16285.00
708.0970, 16462.00
709.2510, 16233.00
710.4030, 16445.00
711.5560, 16283.00
712.7090, 16224.00
713.8610, 16305.00
715.0140, 16350.00
716.1660, 16390.00
717.3180, 16298.00
718.4690, 16225.00
719.6210, 16353.00
720.7730, 16408.00
721.9240, 16509.00
723.0750, 16488.96
724.2260, 16389.00
725.3770, 16419.00
726.5270, 16370.00
727.6780, 16342.00
728.8280, 16506.00
729.9780, 16460.00
731.1280, 16617.00
732.2780, 16491.00
733.4280, 16586.00
734.5770, 16613.00
735.7260, 16439.00
736.8760, 16653.00
738.0250, 16384.00
739.1730, 16521.00
740.3220, 16621.00
741.4700, 16717.00
742.6190, 16714.00
743.7670, 16527.00
744.9150, 16588.00
746.0630, 16576.00
747.2100, 16596.00
748.3580, 16723.00
749.5050, 16693.00
750.6520, 16557.00
751.7990, 16768.00
752.9460, 16924.00
754.0930, 16663.00
755.2390, 16687.00
756.3860, 16764.00
757.5320, 17019.00
758.6780, 16863.00
759.8240, 16677.00
760.9690, 16924.00
762.1150, 16800.00
763.2600, 16915.00
764.4060, 17045.00
765.5510, 16850.00
766.6950, 16934.00
767.8400, 16863.00
768.9850, 16795.00
770.1290, 16887.00
771.2730, 16994.00
772.4170, 16959.00
773.5610, 16939.00
774.7050, 16967.00
775.8480, 17014.00
776.9920, 16952.00
778.1350, 17071.00
779.2780, 17037.00
780.4210, 17074.00
781.5640, 17141.00
782.7060, 16968.00
783.8490, 17035.00
784.9910, 17304.00
786.1330, 16972.00
787.2750, 17188.00
788.4170, 17175.00
789.5580, 17072.00
790.7000, 17284.00
791.8410, 17165.00
792.9820, 17278.00
794.1230, 17162.00
795.2640, 17168.87
796.4040, 17336.00
797.5450, 17170.00
798.6850, 17135.00
799.8250, 17196.00
800.9650, 17270.00
802.1050, 17415.00
803.2450, 17464.00
804.3840, 17260.00
805.5230, 17401.00
806.6630, 17359.00
807.8020, 17471.00
808.9400, 17377.00
810.0790, 17343.00
811.2170, 17458.00
812.3560, 17393.00
813.4940, 17498.00
814.6320, 17513.00
815.7700, 17631.00
816.9070, 17490.00
818.0450, 17552.00
819.1820, 17452.00
820.3190, 17469.61
821.4560, 17509.00
822.5930, 17524.00
823.7300, 17600.00
824.8670, 17664.00
826.0030, 17668.25
827.1390, 17700.00
828.2750, 17699.00
829.4110, 17724.58
830.5470, 17708.00
831.6820, 17782.00
832.8180, 17804.00
833.9530, 17862.11
835.0880, 17872.02
836.2230, 17936.00
837.3580, 17917.00
838.4920, 17887.00
839.6270, 17984.00
840.7610, 17914.00
841.8950, 17940.95
843.0290, 17974.66
844.1630, 17958.00
845.2960, 17981.00
846.4300, 18034.00
847.5630, 17937.00
848.6960, 18040.00
849.8290, 17922.00
850.9620, 18076.00
852.0940, 18215.00
853.2270, 18167.00
854.3590, 18235.00
855.4910, 18325.00
856.6230, 18366.00
857.7550, 18356.20
858.8870, 18373.12
860.0180, 18291.00
861.1500, 18304.00
862.2810, 18278.00
863.4120, 18186.00
864.5430, 18449.00
865.6730, 18384.00
866.8040, 18523.00
867.9340, 18284.00
869.0640, 18169.00
870.1940, 18430.00
871.3240, 18396.00
872.4540, 18470.00
873.5830, 18529.00
874.7130, 18340.00
875.8420, 18313.00
876.9710, 18605.00
878.1000, 18458.00
879.2290, 18505.00
880.3570, 18669.00
881.4860, 18660.00
882.6140, 18651.00
883.7420, 18495.00
884.8700, 18662.00
885.9980, 18681.00
887.1250, 18694.00
888.2530, 18753.00
889.3800, 18847.00
890.5070, 18732.00
891.6340, 18709.00
892.7610, 18788.00
893.8880, 18989.00
895.0140, 18764.00
896.1400, 18750.00
897.2670, 18817.00
898.3930, 18652.00
899.5180, 18948.00
900.6440, 18840.00
901.7700, 18830.00
902.8950, 18746.00
904.0200, 19110.00
905.1450, 18927.00
906.2700, 18980.00
907.3950, 18949.00
908.5190, 18860.00
909.6440, 18788.00
910.7680, 19038.00
911.8920, 18977.00
913.0160, 19033.00
914.1400, 18950.00
915.2630, 18974.00
916.3870, 19010.70
917.5100, 19053.00
918.6330, 19113.00
919.7560, 19064.00
920.8790, 19133.00
922.0010, 19173.86
923.1240, 19341.00
924.2460, 19269.00
925.3680, 19303.00
926.4900, 19297.00
927.6120, 19321.00
928.7340, 19434.00
929.8550, 19379.00
930.9760, 19448.00
932.0980, 19418.00
933.2190, 19615.00
934.3390, 19453.00
935.4600, 19611.00
936.5810, 19471.00
937.7010, 19642.00
938.8210, 19368.00
939.9410, 19355.00
941.0610, 19482.00
942.1810, 19565.00
943.3010, 19423.00
944.4200, 19515.00
945.5390, 19579.00
946.6580, 19706.00
947.7770, 19741.00
948.8960, 19556.00
950.0150, 19611.00
951.1330, 19622.00
952.2510, 19613.00
953.3690, 19922.00
954.4870, 19797.00
955.6050, 19557.00
956.7230, 19789.00
957.8400, 19640.00
958.9580, 19730.00
960.0750, 20024.00
961.1920, 19895.00
962.3090, 20030.00
963.4250, 19783.00
964.5420, 20037.00
965.6580, 20035.00
966.7740, 20104.00
967.8900, 20192.00
969.0060, 20210.00
970.1220, 20368.00
971.2380, 20395.00
972.3530, 20503.00
973.4680, 20726.64
974.5830, 21007.00
975.6980, 21263.00
976.8130, 21759.00
977.9280, 22192.00
979.0420, 23276.00
980.1560, 24838.00
981.2710, 27537.00
982.3850, 30884.00
983.4980, 35182.00
984.6120, 40452.00
985.7260, 47280.00
986.8390, 53066.00
987.9520, 55948.00
989.0650, 54406.00
990.1780, 46603.00
991.2910, 37885.00
992.4030, 31686.00
993.5160, 28803.00
994.6280, 27546.00
995.7400, 27247.00
996.8520, 27623.00
997.9640, 27784.00
999.0750, 27860.00
1000.187, 27987.00
1001.298, 28091.00
1002.409, 27974.00
1003.520, 27542.00
1004.631, 27075.00
1005.741, 26744.00
1006.852, 26126.00
1007.962, 25403.00
1009.072, 24955.00
1010.182, 24555.00
1011.292, 24013.00
1012.402, 23947.00
1013.511, 23499.00
1014.621, 23148.00
1015.730, 22734.00
1016.839, 22344.00
1017.948, 22282.00
1019.056, 22084.00
1020.165, 22027.00
1021.273, 21853.00
1022.382, 21677.00
1023.490, 21617.00
1024.598, 21594.00
1025.706, 21443.00
1026.813, 21321.00
1027.921, 21162.00
1029.028, 21241.00
1030.135, 21193.00
1031.242, 21199.00
1032.349, 21297.00
1033.456, 21023.00
1034.562, 21180.00
1035.668, 21137.00
1036.775, 21084.00
1037.881, 21180.00
1038.987, 21217.00
1040.092, 20944.00
1041.198, 21136.00
1042.303, 21091.00
1043.408, 21323.00
1044.514, 21142.00
1045.618, 21229.00
1046.723, 21107.00
1047.828, 21096.00
1048.932, 21056.00
1050.037, 21109.00
1051.141, 21148.00
1052.245, 21194.00
1053.349, 21203.54
1054.452, 21169.00
1055.556, 21240.00
1056.659, 21252.00
1057.762, 21333.00
1058.865, 21315.56
1059.968, 21204.00
1061.071, 21253.00
1062.174, 21282.00
1063.276, 21186.00
1064.378, 21339.00
1065.480, 21285.00
1066.582, 21193.00
1067.684, 21267.00
1068.786, 21364.00
1069.887, 21248.00
1070.988, 21273.00
1072.090, 21298.00
1073.191, 21582.00
1074.291, 21621.00
1075.392, 21661.00
1076.493, 21714.00
1077.593, 21756.00
1078.693, 21807.22
1079.793, 21829.00
1080.893, 21936.00
1081.993, 21957.00
1083.092, 22075.00
1084.192, 21936.00
1085.291, 21939.00
1086.390, 22021.00
1087.489, 22007.00
1088.588, 21821.00
1089.686, 21610.00
1090.785, 21549.00
1091.883, 21741.00
1092.981, 21877.00
1094.079, 21687.00
1095.177, 21862.00
1096.275, 21664.00
1097.373, 21876.00
1098.470, 21809.00
1099.567, 21562.00
1100.664, 21953.00
1101.761, 21950.00
1102.858, 22156.00
1103.954, 21920.00
1105.051, 21848.00
1106.147, 21765.00
1107.243, 21833.00
1108.339, 21835.00
1109.435, 21980.00
1110.531, 21768.00
1111.626, 21984.00
1112.722, 21877.00
1113.817, 21905.00
1114.912, 21867.00
1116.007, 22016.00
1117.101, 22107.00
1118.196, 22055.00
1119.290, 22327.00
1120.385, 22167.00
1121.479, 22093.00
1122.573, 22094.00
1123.666, 22169.00
1124.760, 22235.00
1125.853, 22275.00
1126.947, 22286.00
1128.040, 22420.00
1129.133, 22423.88
1130.226, 22492.88
1131.318, 22522.00
1132.411, 22610.00
1133.503, 22706.94
1134.596, 22790.32
1135.688, 22828.00
1136.780, 22841.00
1137.871, 22797.00
1138.963, 22749.00
1140.054, 22915.00
1141.146, 22746.00
1142.237, 22950.00
1143.328, 22827.00
1144.419, 22745.00
1145.509, 22785.00
1146.600, 22722.00
1147.690, 22758.00
1148.780, 22638.00
1149.870, 22530.00
1150.960, 22736.00
1152.050, 22533.00
1153.139, 22603.00
1154.229, 22608.00
1155.318, 22773.00
1156.407, 22614.00
1157.496, 22706.00
1158.585, 22621.00
1159.674, 22564.00
1160.762, 22635.97
1161.850, 22933.00
1162.939, 22768.00
1164.027, 22898.00
1165.114, 23069.00
1166.202, 22861.00
1167.290, 22907.00
1168.377, 22891.00
1169.464, 22830.97
1170.551, 22748.00
1171.638, 22836.00
1172.725, 22854.00
1173.812, 22920.00
1174.898, 22969.00
1175.984, 22830.00
1177.071, 22860.00
1178.157, 22961.00
1179.242, 22748.00
1180.328, 22748.00
1181.414, 22833.00
1182.499, 22902.00
1183.584, 22851.00
1184.669, 22989.00
1185.754, 22918.00
1186.839, 22925.00
1187.924, 22854.00
1189.008, 23039.00
1190.092, 22895.00
1191.177, 23041.00
1192.260, 22870.00
1193.344, 22936.00
1194.428, 23213.00
1195.512, 23031.00
1196.595, 23019.00
1197.678, 23117.00
1198.761, 23139.00
1199.844, 23017.00
1200.927, 23283.00
1202.009, 23205.00
1203.092, 23041.00
1204.174, 23227.00
1205.256, 23279.00
1206.338, 23286.00
1207.420, 23282.00
1208.502, 23312.00
1209.583, 23460.00
1210.665, 23295.00
1211.746, 23235.00
1212.827, 23402.00
1213.908, 23486.00
1214.988, 23479.41
1216.069, 23384.00
1217.149, 23516.00
1218.230, 23528.00
1219.310, 23554.00
1220.390, 23584.10
1221.470, 23654.00
1222.549, 23607.00
1223.629, 23547.00
1224.708, 23613.00
1225.787, 23569.00
1226.866, 23664.00
1227.945, 23692.00
1229.024, 23585.00
1230.103, 23736.00
1231.181, 23728.00
1232.259, 23747.92
1233.337, 23936.00
1234.415, 23811.00
1235.493, 23652.00
1236.571, 23672.00
1237.648, 23902.00
1238.726, 23891.00
1239.803, 23790.00
1240.880, 24114.00
1241.957, 23884.00
1243.034, 23879.00
1244.110, 23952.00
1245.187, 23770.00
1246.263, 24177.00
1247.339, 23828.00
1248.415, 24039.00
1249.491, 24249.00
1250.566, 24015.00
1251.642, 24023.00
1252.717, 23798.00
1253.793, 23960.00
1254.868, 24022.00
1255.943, 23959.00
1257.017, 24047.00
1258.092, 24063.00
1259.166, 24027.00
1260.241, 24312.00
1261.315, 24218.00
1262.389, 24262.00
1263.462, 24415.00
1264.536, 24247.00
1265.610, 24297.00
1266.683, 24283.00
1267.756, 24367.00
1268.829, 24255.00
1269.902, 24265.00
1270.975, 24159.00
1272.048, 24235.00
1273.120, 24411.00
1274.192, 24433.00
1275.264, 24313.00
1276.336, 24407.00
1277.408, 24375.00
1278.480, 24375.00
1279.551, 24509.00
1280.623, 24473.00
1281.694, 24567.00
1282.765, 24540.00
1283.836, 24685.00
1284.907, 24455.00
1285.977, 24552.00
