##NAMES=Kanoite
##RRUFFID=R061134
##IDEAL CHEMISTRY=Mn^2+^MgSi_2_O_6_
##LOCALITY=Balmat, St. Lawrence County, New York, USA
##OWNER=RRUFF
##SOURCE=Michael Scott
##DESCRIPTION=Yellowish brown granular aggregate
##STATUS=The identification of this mineral has been confirmed by X-ray diffraction and chemical analysis
##URL=rruff.info/R061134
##MEASURED CHEMISTRY=(Mn^2+^_0.88_Ca_0.12_)_Σ=1_(Mg_0.98_Fe^3+^_0.02_)_Σ=1_(Si_0.98_Al_0.02_)_2_O_6_
##PIN_ID=M00160
##ORIENTATION=Laser parallel to c* (0 0 1). Fiducial mark perpendicular to laser is parallel to a [1 0 0]
109.0250, 13523.00
110.2640, 13426.00
111.5030, 13347.00
112.7420, 13594.00
113.9810, 13842.00
115.2200, 13826.00
116.4580, 14102.00
117.6970, 13746.00
118.9350, 13833.00
120.1730, 13882.00
121.4100, 13762.00
122.6480, 14156.00
123.8850, 14220.00
125.1230, 14547.00
126.3600, 14746.00
127.5960, 14902.00
128.8330, 14965.00
130.0700, 15168.00
131.3060, 15151.00
132.5420, 15203.00
133.7780, 15072.00
135.0140, 15204.00
136.2500, 15292.00
137.4850, 15233.00
138.7200, 15397.00
139.9550, 15361.00
141.1900, 15105.00
142.4250, 15071.00
143.6600, 15221.00
144.8940, 15291.00
146.1280, 15108.00
147.3620, 15203.00
148.5960, 15179.00
149.8300, 14937.00
151.0630, 15144.00
152.2960, 15026.00
153.5300, 15017.00
154.7620, 14744.00
155.9950, 14687.00
157.2280, 14791.00
158.4600, 14613.00
159.6920, 14890.00
160.9250, 14874.00
162.1560, 14700.00
163.3880, 14999.00
164.6200, 15141.00
165.8510, 15221.00
167.0820, 15030.00
168.3130, 15339.00
169.5440, 15276.00
170.7750, 15426.00
172.0050, 15317.00
173.2350, 15460.00
174.4650, 15341.00
175.6950, 15492.00
176.9250, 15439.00
178.1550, 15563.00
179.3840, 15592.00
180.6130, 15733.00
181.8420, 15773.00
183.0710, 15925.00
184.3000, 16183.00
185.5280, 16357.00
186.7570, 16594.00
187.9850, 16685.00
189.2130, 17146.00
190.4400, 17144.00
191.6680, 17701.00
192.8960, 17894.00
194.1230, 18198.00
195.3500, 18158.00
196.5770, 18253.00
197.8030, 18391.00
199.0300, 18585.00
200.2560, 18319.00
201.4830, 18256.00
202.7090, 18135.00
203.9340, 17955.00
205.1600, 17960.00
206.3860, 17987.00
207.6110, 18108.00
208.8360, 18042.00
210.0610, 17922.00
211.2860, 18183.00
212.5100, 18289.00
213.7350, 18600.00
214.9590, 18590.00
216.1830, 18837.00
217.4070, 18640.00
218.6310, 18572.00
219.8540, 18553.00
221.0780, 18502.00
222.3010, 18079.00
223.5240, 17984.00
224.7470, 17911.00
225.9690, 17726.00
227.1920, 17834.00
228.4140, 17803.00
229.6360, 17669.00
230.8580, 17589.00
232.0800, 17581.00
233.3020, 17412.00
234.5230, 17306.00
235.7440, 17255.00
236.9650, 17248.00
238.1860, 17266.00
239.4070, 17170.00
240.6280, 17276.00
241.8480, 17215.00
243.0680, 17310.00
244.2880, 17273.00
245.5080, 17431.00
246.7280, 17413.00
247.9470, 17503.00
249.1660, 17535.00
250.3860, 17292.00
251.6040, 17498.00
252.8230, 17251.00
254.0420, 17207.00
255.2600, 17093.00
256.4790, 17105.00
257.6970, 17131.00
258.9150, 17134.00
260.1320, 17188.00
261.3500, 17081.00
262.5670, 16997.68
263.7840, 17157.00
265.0010, 16856.00
266.2180, 16803.00
267.4350, 17050.00
268.6510, 16992.00
269.8680, 16999.00
271.0840, 16852.00
272.3000, 16987.00
273.5160, 16988.00
274.7310, 16880.00
275.9470, 17059.00
277.1620, 17164.00
278.3770, 17296.00
279.5920, 17300.00
280.8070, 17349.00
282.0210, 17441.00
283.2360, 17422.04
284.4500, 17468.00
285.6640, 17455.00
286.8780, 17438.00
288.0920, 17509.00
289.3050, 17607.00
290.5180, 17672.63
291.7320, 17787.32
292.9450, 17874.00
294.1570, 18034.00
295.3700, 18124.00
296.5830, 18286.00
297.7950, 18452.00
299.0070, 18848.00
300.2190, 18846.00
301.4310, 19045.00
302.6420, 18942.00
303.8540, 19179.00
305.0650, 19534.00
306.2760, 19440.00
307.4870, 19787.00
308.6980, 19794.00
309.9080, 19922.00
311.1190, 20248.00
312.3290, 20723.00
313.5390, 21119.00
314.7490, 21673.00
315.9580, 22083.00
317.1680, 22650.00
318.3770, 23242.00
319.5860, 23567.00
320.7950, 23936.00
322.0040, 24155.00
323.2130, 24247.00
324.4210, 24275.00
325.6290, 23834.00
326.8380, 23652.00
328.0460, 23025.00
329.2530, 22865.00
330.4610, 22292.00
331.6680, 21935.00
332.8760, 21494.00
334.0830, 21039.00
335.2890, 20784.00
336.4960, 20464.00
337.7030, 20101.00
338.9090, 19884.00
340.1150, 19669.00
341.3210, 19765.00
342.5270, 19625.00
343.7330, 19790.00
344.9380, 19455.00
346.1440, 19632.00
347.3490, 19835.00
348.5540, 19816.00
349.7590, 20047.00
350.9630, 20051.00
352.1680, 20213.00
353.3720, 20417.00
354.5760, 20537.00
355.7800, 20613.00
356.9840, 20462.00
358.1870, 20412.00
359.3910, 20264.00
360.5940, 20220.00
361.7970, 20268.00
363.0000, 20268.00
364.2030, 20089.00
365.4050, 20108.00
366.6080, 20218.00
367.8100, 20359.00
369.0120, 20479.00
370.2140, 20474.00
371.4150, 20623.00
372.6170, 20721.00
373.8180, 20523.00
375.0190, 20282.00
376.2200, 20007.00
377.4210, 20132.00
378.6220, 19881.00
379.8220, 20145.00
381.0230, 20175.00
382.2230, 20093.00
383.4230, 20171.00
384.6220, 20562.00
385.8220, 20534.00
387.0220, 20678.00
388.2210, 20874.00
389.4200, 20886.00
390.6190, 20902.00
391.8180, 20933.14
393.0160, 20845.13
394.2150, 20789.00
395.4130, 20575.00
396.6110, 20291.00
397.8090, 19965.00
399.0060, 19697.00
400.2040, 19631.00
401.4010, 19573.00
402.5980, 19136.00
403.7950, 19100.00
404.9920, 18888.00
406.1890, 18973.00
407.3860, 19008.00
408.5820, 19025.00
409.7780, 19147.00
410.9740, 19100.00
412.1700, 19167.00
413.3650, 19396.00
414.5610, 19272.00
415.7560, 19269.00
416.9510, 19277.00
418.1460, 19022.00
419.3410, 19040.00
420.5360, 18981.00
421.7300, 19063.00
422.9240, 19126.00
424.1180, 19009.00
425.3120, 18809.00
426.5060, 19077.00
427.7000, 19090.00
428.8930, 18944.00
430.0860, 19090.00
431.2790, 18909.00
432.4720, 18816.00
433.6650, 19167.00
434.8580, 19022.00
436.0500, 18965.00
437.2420, 19042.00
438.4340, 18945.00
439.6260, 19004.00
440.8180, 19013.00
442.0090, 19315.00
443.2010, 19212.00
444.3920, 19280.00
445.5830, 19261.00
446.7740, 19333.00
447.9640, 19322.00
449.1550, 19360.00
450.3450, 19350.00
451.5350, 19531.00
452.7250, 19553.00
453.9150, 19803.00
455.1050, 19933.00
456.2940, 20144.00
457.4830, 20368.00
458.6720, 20782.00
459.8610, 21271.00
461.0500, 22063.00
462.2390, 22612.00
463.4270, 23235.00
464.6150, 23445.00
465.8040, 23380.00
466.9910, 22848.00
468.1790, 22315.00
469.3670, 21621.00
470.5540, 21168.00
471.7410, 20703.00
472.9280, 20618.00
474.1150, 20474.00
475.3020, 20270.00
476.4890, 20054.00
477.6750, 20084.00
478.8610, 19987.00
480.0470, 19832.00
481.2330, 19759.00
482.4190, 20059.00
483.6040, 19981.00
484.7900, 19910.00
485.9750, 19985.00
487.1600, 19797.00
488.3450, 19850.00
489.5290, 19830.00
490.7140, 19870.00
491.8980, 19976.00
493.0820, 20029.00
494.2660, 20036.00
495.4500, 20190.00
496.6340, 20213.00
497.8170, 20343.00
499.0010, 20269.00
500.1840, 20237.00
501.3670, 20457.00
502.5500, 20574.00
503.7320, 20392.00
504.9150, 20496.00
506.0970, 20326.00
507.2790, 20555.00
508.4610, 20858.00
509.6430, 20865.00
510.8250, 20776.00
512.0060, 20925.00
513.1870, 21040.00
514.3680, 20986.00
515.5490, 21213.00
516.7300, 21284.00
517.9110, 21251.00
519.0910, 21230.00
520.2710, 21479.00
521.4510, 21288.00
522.6310, 21348.00
523.8110, 21187.00
524.9910, 21153.00
526.1700, 21025.00
527.3490, 21039.17
528.5280, 21026.94
529.7070, 21101.00
530.8860, 21080.00
532.0650, 21120.00
533.2430, 21160.00
534.4210, 21141.00
535.5990, 21168.00
536.7770, 21371.00
537.9550, 21212.00
539.1320, 21369.00
540.3100, 21353.00
541.4870, 21546.00
542.6640, 21540.00
543.8410, 21682.00
545.0170, 21651.00
546.1940, 21763.00
547.3700, 21589.00
548.5470, 21854.00
549.7230, 22032.00
550.8980, 22001.00
552.0740, 22363.00
553.2500, 22258.00
554.4250, 22419.00
555.6000, 22474.00
556.7750, 22173.00
557.9500, 22203.00
559.1250, 22091.00
560.2990, 21784.00
561.4730, 21690.00
562.6480, 21412.00
563.8220, 21389.00
564.9950, 21298.00
566.1690, 21283.00
567.3430, 21327.00
568.5160, 21087.00
569.6890, 21175.00
570.8620, 21096.00
572.0350, 21102.00
573.2070, 21002.00
574.3800, 21044.85
575.5520, 21038.64
576.7240, 21106.00
577.8960, 21088.00
579.0680, 21088.00
580.2400, 21117.00
581.4110, 21108.00
582.5830, 20994.00
583.7540, 21153.00
584.9250, 20986.00
586.0950, 21069.00
587.2660, 21055.00
588.4370, 21108.00
589.6070, 21120.00
590.7770, 21040.00
591.9470, 21132.00
593.1170, 20966.00
594.2860, 21083.00
595.4560, 21355.00
596.6250, 21170.00
597.7940, 21256.00
598.9630, 21364.00
600.1320, 21185.00
601.3000, 21274.00
602.4690, 21251.00
603.6370, 21318.00
604.8050, 21463.00
605.9730, 21457.00
607.1410, 21373.00
608.3090, 21506.00
609.4760, 21607.00
610.6430, 21365.00
611.8100, 21622.00
612.9770, 21711.00
614.1440, 21402.00
615.3110, 21584.00
616.4770, 21635.00
617.6430, 21742.00
618.8090, 21802.00
619.9750, 21747.00
621.1410, 21783.00
622.3070, 21889.00
623.4720, 21825.00
624.6370, 22012.00
625.8020, 22175.00
626.9670, 22201.00
628.1320, 22358.00
629.2970, 22253.00
630.4610, 22112.00
631.6250, 22537.00
632.7890, 22316.00
633.9530, 22546.00
635.1170, 22564.00
636.2810, 22864.00
637.4440, 22918.00
638.6070, 22980.00
639.7700, 23373.00
640.9330, 23735.00
642.0960, 23754.00
643.2590, 24067.00
644.4210, 24408.00
645.5830, 24822.00
646.7450, 25182.00
647.9070, 25661.00
649.0690, 26532.00
650.2310, 27279.00
651.3920, 28242.00
652.5530, 29102.00
653.7140, 30204.00
654.8750, 31153.00
656.0360, 32223.00
657.1970, 33016.00
658.3570, 34504.00
659.5170, 35267.00
660.6770, 36405.00
661.8370, 37560.00
662.9970, 38455.00
664.1570, 39468.00
665.3160, 40374.00
666.4750, 41149.00
667.6340, 41084.00
668.7930, 40663.00
669.9520, 39569.00
671.1110, 38362.00
672.2690, 37018.00
673.4270, 35507.00
674.5850, 33415.00
675.7430, 32015.00
676.9010, 30379.00
678.0590, 28998.00
679.2160, 28046.00
680.3730, 27026.00
681.5300, 26462.00
682.6870, 25975.00
683.8440, 25347.00
685.0010, 25154.00
686.1570, 24907.00
687.3130, 24478.00
688.4690, 24289.00
689.6250, 24151.00
690.7810, 24142.00
691.9370, 23928.00
693.0920, 23713.00
694.2470, 23721.00
695.4020, 23596.00
696.5570, 23581.00
697.7120, 23522.00
698.8670, 23286.00
700.0210, 23444.00
701.1750, 23555.00
702.3290, 23250.00
703.4830, 23307.00
704.6370, 23172.00
705.7910, 23275.00
706.9440, 23215.00
708.0970, 22971.00
709.2510, 23187.00
710.4030, 23378.00
711.5560, 22976.00
712.7090, 23385.00
713.8610, 23293.00
715.0140, 23370.00
716.1660, 23257.00
717.3180, 23342.00
718.4690, 23350.00
719.6210, 23418.00
720.7730, 23440.12
721.9240, 23317.00
723.0750, 23485.00
724.2260, 23376.00
725.3770, 23396.00
726.5270, 23380.00
727.6780, 23427.00
728.8280, 23576.00
729.9780, 23647.00
731.1280, 23610.00
732.2780, 23522.00
733.4280, 23491.00
734.5770, 23488.91
735.7260, 23414.76
736.8760, 23463.00
738.0250, 23377.00
739.1730, 23245.00
740.3220, 23352.00
741.4700, 23450.00
742.6190, 23414.00
743.7670, 23329.00
744.9150, 23489.00
746.0630, 23533.00
747.2100, 23356.00
748.3580, 23537.00
749.5050, 23487.00
750.6520, 23423.00
751.7990, 23645.00
752.9460, 23527.00
754.0930, 23499.00
755.2390, 23513.00
756.3860, 23481.01
757.5320, 23517.03
758.6780, 23491.00
759.8240, 23570.00
760.9690, 23546.00
762.1150, 23527.63
763.2600, 23809.00
764.4060, 23604.00
765.5510, 23708.00
766.6950, 23855.00
767.8400, 23727.00
768.9850, 23760.00
770.1290, 23651.00
771.2730, 23738.95
772.4170, 23799.00
773.5610, 23922.00
774.7050, 24051.00
775.8480, 24126.00
776.9920, 23814.00
778.1350, 23905.00
779.2780, 23979.00
780.4210, 23927.00
781.5640, 24140.00
782.7060, 24169.00
783.8490, 24017.00
784.9910, 24032.00
786.1330, 24089.00
787.2750, 23854.00
788.4170, 24233.00
789.5580, 23905.00
790.7000, 24096.00
791.8410, 24171.00
792.9820, 24218.00
794.1230, 24306.00
795.2640, 24280.00
796.4040, 24220.00
797.5450, 24236.00
798.6850, 24337.00
799.8250, 24431.00
800.9650, 24442.22
802.1050, 24481.30
803.2450, 24496.00
804.3840, 24508.00
805.5230, 24539.24
806.6630, 24616.00
807.8020, 24554.00
808.9400, 24493.00
810.0790, 24585.00
811.2170, 24626.00
812.3560, 24660.00
813.4940, 24577.00
814.6320, 24677.00
815.7700, 24607.00
816.9070, 24768.00
818.0450, 24655.00
819.1820, 24735.00
820.3190, 24552.00
821.4560, 24666.00
822.5930, 24754.00
823.7300, 24711.00
824.8670, 24795.00
826.0030, 24942.00
827.1390, 24708.00
828.2750, 24894.00
829.4110, 25075.00
830.5470, 24793.00
831.6820, 24898.00
832.8180, 24916.00
833.9530, 24894.00
835.0880, 25087.00
836.2230, 24949.00
837.3580, 25133.00
838.4920, 24996.00
839.6270, 25292.00
840.7610, 25076.00
841.8950, 25234.00
843.0290, 25017.00
844.1630, 25207.00
845.2960, 25042.00
846.4300, 25312.00
847.5630, 25245.00
848.6960, 25137.00
849.8290, 25422.00
850.9620, 25211.00
852.0940, 25265.00
853.2270, 25291.00
854.3590, 25480.00
855.4910, 25348.00
856.6230, 25406.00
857.7550, 25505.00
858.8870, 25623.00
860.0180, 25553.00
861.1500, 25633.39
862.2810, 25673.00
863.4120, 25612.00
864.5430, 25656.00
865.6730, 25549.00
866.8040, 25471.00
867.9340, 25863.00
869.0640, 25692.00
870.1940, 25964.00
871.3240, 25815.00
872.4540, 25847.00
873.5830, 25758.00
874.7130, 25957.00
875.8420, 26061.00
876.9710, 25977.00
878.1000, 26069.00
879.2290, 25913.00
880.3570, 26138.00
881.4860, 26147.00
882.6140, 26153.00
883.7420, 26104.00
884.8700, 26227.00
885.9980, 26369.00
887.1250, 26334.00
888.2530, 26363.00
889.3800, 26412.00
890.5070, 26429.00
891.6340, 26448.23
892.7610, 26594.00
893.8880, 26454.00
895.0140, 26593.00
896.1400, 26575.00
897.2670, 26527.00
898.3930, 26628.00
899.5180, 26699.00
900.6440, 26732.00
901.7700, 26745.38
902.8950, 26768.12
904.0200, 26719.00
905.1450, 26757.00
906.2700, 26769.00
907.3950, 26734.00
908.5190, 26878.00
909.6440, 26813.00
910.7680, 26932.00
911.8920, 27032.00
913.0160, 27017.00
914.1400, 27109.00
915.2630, 27167.61
916.3870, 27211.00
917.5100, 27304.00
918.6330, 27434.00
919.7560, 27503.00
920.8790, 27467.00
922.0010, 27717.00
923.1240, 27520.00
924.2460, 27808.00
925.3680, 27943.00
926.4900, 28127.00
927.6120, 27948.00
928.7340, 27893.00
929.8550, 28080.00
930.9760, 27974.00
932.0980, 28135.00
933.2190, 28129.00
934.3390, 28071.00
935.4600, 28161.00
936.5810, 28151.00
937.7010, 28186.00
938.8210, 28395.00
939.9410, 28262.00
941.0610, 28249.00
942.1810, 28352.00
943.3010, 28122.00
944.4200, 28332.00
945.5390, 27893.00
946.6580, 28324.00
947.7770, 28082.00
948.8960, 27806.00
950.0150, 27801.00
951.1330, 27875.00
952.2510, 27972.00
953.3690, 27779.00
954.4870, 27971.00
955.6050, 28014.00
956.7230, 27980.00
957.8400, 28095.00
958.9580, 28070.00
960.0750, 28322.00
961.1920, 28330.00
962.3090, 28353.00
963.4250, 28265.00
964.5420, 28380.00
965.6580, 28525.00
966.7740, 28672.00
967.8900, 28640.00
969.0060, 28737.00
970.1220, 28908.00
971.2380, 28962.00
972.3530, 29254.00
973.4680, 29232.00
974.5830, 29221.00
975.6980, 29540.00
976.8130, 29727.00
977.9280, 29959.00
979.0420, 30090.00
980.1560, 30368.23
981.2710, 30428.00
982.3850, 30968.00
983.4980, 31404.00
984.6120, 31882.00
985.7260, 32611.00
986.8390, 33564.00
987.9520, 34278.00
989.0650, 35562.00
990.1780, 36967.00
991.2910, 38766.00
992.4030, 40878.00
993.5160, 43077.00
994.6280, 45857.00
995.7400, 48505.00
996.8520, 51354.00
997.9640, 53982.00
999.0750, 56237.00
1000.187, 57221.00
1001.298, 57933.00
1002.409, 57792.00
1003.520, 56708.00
1004.631, 55287.00
1005.741, 52881.00
1006.852, 50925.00
1007.962, 48422.00
1009.072, 46600.00
1010.182, 44420.00
1011.292, 42393.00
1012.402, 40979.00
1013.511, 39524.00
1014.621, 38489.00
1015.730, 37318.00
1016.839, 36514.00
1017.948, 35735.00
1019.056, 34857.00
1020.165, 34503.00
1021.273, 33807.00
1022.382, 33281.00
1023.490, 32943.00
1024.598, 32710.00
1025.706, 32251.00
1026.813, 31987.00
1027.921, 31740.00
1029.028, 31534.00
1030.135, 31346.96
1031.242, 31124.00
1032.349, 31025.00
1033.456, 30940.00
1034.562, 30775.00
1035.668, 31005.00
1036.775, 30390.00
1037.881, 30978.00
1038.987, 31020.00
1040.092, 30835.00
1041.198, 31295.00
1042.303, 31500.00
1043.408, 31296.00
1044.514, 31188.00
1045.618, 30962.00
1046.723, 30871.50
1047.828, 30910.00
1048.932, 30686.00
1050.037, 30621.00
1051.141, 30562.00
1052.245, 30463.00
1053.349, 30365.00
1054.452, 30308.30
1055.556, 30220.84
1056.659, 30153.00
1057.762, 30158.00
1058.865, 30029.00
1059.968, 30160.00
1061.071, 29950.00
1062.174, 30063.00
1063.276, 30010.00
1064.378, 30048.00
1065.480, 30168.00
1066.582, 30005.00
1067.684, 30061.00
1068.786, 29970.00
1069.887, 29809.00
1070.988, 30040.00
1072.090, 30057.00
1073.191, 30062.00
1074.291, 29807.00
1075.392, 30022.00
1076.493, 29835.00
1077.593, 30283.00
1078.693, 30019.00
1079.793, 30173.00
1080.893, 30091.00
1081.993, 30344.00
1083.092, 30153.00
1084.192, 30242.04
1085.291, 30189.54
1086.390, 30278.00
1087.489, 30094.00
1088.588, 30105.00
1089.686, 30200.00
1090.785, 30332.00
1091.883, 30156.00
1092.981, 30266.00
1094.079, 30279.00
1095.177, 30062.00
1096.275, 30319.00
1097.373, 30454.00
1098.470, 30228.00
1099.567, 30380.00
1100.664, 30362.00
1101.761, 30584.00
1102.858, 30532.00
1103.954, 30477.00
1105.051, 30312.00
1106.147, 30449.00
1107.243, 30424.00
1108.339, 30328.00
1109.435, 30573.00
1110.531, 30412.00
1111.626, 30655.00
1112.722, 30416.00
1113.817, 30671.00
1114.912, 30714.00
1116.007, 30849.00
1117.101, 30890.00
1118.196, 31051.00
1119.290, 31047.00
1120.385, 31021.00
1121.479, 31005.00
1122.573, 30977.24
1123.666, 31033.00
1124.760, 30938.00
1125.853, 31029.00
1126.947, 31071.00
1128.040, 30813.00
1129.133, 30681.00
1130.226, 31048.00
1131.318, 30725.00
1132.411, 30716.00
1133.503, 30860.00
1134.596, 30835.00
1135.688, 30855.61
1136.780, 30920.00
1137.871, 30815.00
1138.963, 30871.00
1140.054, 30797.00
1141.146, 30871.00
1142.237, 31014.00
1143.328, 30810.00
1144.419, 30891.00
1145.509, 30891.00
1146.600, 30843.00
1147.690, 30882.00
1148.780, 30843.00
1149.870, 30937.00
1150.960, 30963.00
1152.050, 31082.00
1153.139, 31182.00
1154.229, 31184.00
1155.318, 31086.00
1156.407, 31097.00
1157.496, 31118.00
1158.585, 31119.00
1159.674, 31357.00
1160.762, 31107.00
1161.850, 31079.00
1162.939, 31292.00
1164.027, 31360.00
1165.114, 31393.00
1166.202, 31467.69
1167.290, 31347.00
1168.377, 31453.00
1169.464, 31419.00
1170.551, 31315.00
1171.638, 31409.00
1172.725, 31400.00
1173.812, 31352.00
1174.898, 31342.00
1175.984, 31353.09
1177.071, 31317.00
1178.157, 31429.98
1179.242, 31403.00
1180.328, 31518.00
1181.414, 31555.00
1182.499, 31582.00
1183.584, 31610.00
1184.669, 31649.00
1185.754, 31554.00
1186.839, 31608.00
1187.924, 31719.00
1189.008, 31546.00
1190.092, 31716.00
1191.177, 31650.00
1192.260, 31671.00
1193.344, 31599.00
1194.428, 31859.00
1195.512, 31800.00
1196.595, 31751.00
1197.678, 31895.00
1198.761, 31854.00
1199.844, 32075.00
1200.927, 31906.00
1202.009, 32007.00
1203.092, 31825.00
1204.174, 31936.00
1205.256, 31944.00
1206.338, 31996.00
1207.420, 32070.00
1208.502, 31931.00
1209.583, 32077.00
1210.665, 32249.00
1211.746, 32285.00
1212.827, 32018.00
1213.908, 32440.00
1214.988, 32251.00
1216.069, 32216.00
1217.149, 32312.00
1218.230, 32389.00
1219.310, 32527.00
1220.390, 32244.00
1221.470, 32410.00
1222.549, 32218.00
1223.629, 32360.00
1224.708, 32352.00
1225.787, 32580.00
1226.866, 32624.00
1227.945, 32523.00
1229.024, 32616.00
1230.103, 32715.00
1231.181, 32586.00
1232.259, 32489.00
1233.337, 32278.00
1234.415, 32496.00
1235.493, 32616.00
1236.571, 32853.00
1237.648, 32902.00
1238.726, 32948.27
1239.803, 32832.00
1240.880, 32886.00
1241.957, 32882.00
1243.034, 32754.00
1244.110, 32912.00
1245.187, 32976.00
1246.263, 32908.00
1247.339, 32845.00
1248.415, 33053.00
1249.491, 32958.00
1250.566, 32912.00
1251.642, 32864.00
1252.717, 33111.00
1253.793, 32852.00
1254.868, 32929.00
1255.943, 33100.00
1257.017, 32957.57
1258.092, 33295.00
1259.166, 32956.00
1260.241, 33121.00
1261.315, 33233.00
1262.389, 33297.00
1263.462, 33201.00
1264.536, 33358.00
1265.610, 33371.00
1266.683, 33607.00
1267.756, 33314.00
1268.829, 33224.00
1269.902, 33227.00
1270.975, 33443.00
1272.048, 33320.00
1273.120, 33422.00
1274.192, 33256.00
1275.264, 33502.00
1276.336, 33495.00
1277.408, 33450.00
1278.480, 33473.00
1279.551, 33581.00
1280.623, 33490.00
1281.694, 33607.00
1282.765, 33697.00
1283.836, 33747.00
1284.907, 33728.00
1285.977, 33891.00
