##NAMES=Kanoite
##RRUFFID=R061134
##IDEAL CHEMISTRY=Mn^2+^MgSi_2_O_6_
##LOCALITY=Balmat, St. Lawrence County, New York, USA
##OWNER=RRUFF
##SOURCE=Michael Scott
##DESCRIPTION=Yellowish brown granular aggregate
##STATUS=The identification of this mineral has been confirmed by X-ray diffraction and chemical analysis
##URL=rruff.info/R061134
##MEASURED CHEMISTRY=(Mn^2+^_0.88_Ca_0.12_)_Σ=1_(Mg_0.98_Fe^3+^_0.02_)_Σ=1_(Si_0.98_Al_0.02_)_2_O_6_
##PIN_ID=L00480
##ORIENTATION=Laser parallel to -c* (0 0 -1). Fiducial mark perpendicular to laser is parallel to a [1 0 0]
111.5030, 10831.00
112.7420, 10801.00
113.9810, 11072.00
115.2200, 11119.00
116.4580, 11161.00
117.6970, 11097.00
118.9350, 10966.00
120.1730, 10879.00
121.4100, 10922.00
122.6480, 10927.00
123.8850, 10980.92
125.1230, 11105.00
126.3600, 11242.00
127.5960, 11571.00
128.8330, 11919.00
130.0700, 11907.00
131.3060, 12034.00
132.5420, 12337.00
133.7780, 12672.00
135.0140, 12811.00
136.2500, 12687.00
137.4850, 13090.00
138.7200, 12924.00
139.9550, 13075.00
141.1900, 12947.00
142.4250, 12879.00
143.6600, 12876.00
144.8940, 12793.00
146.1280, 12818.00
147.3620, 12661.00
148.5960, 12590.00
149.8300, 12501.00
151.0630, 12260.00
152.2960, 12143.00
153.5300, 11910.00
154.7620, 11723.00
155.9950, 11745.00
157.2280, 11634.00
158.4600, 11619.00
159.6920, 11485.00
160.9250, 11336.00
162.1560, 11507.00
163.3880, 11530.00
164.6200, 11611.00
165.8510, 11527.00
167.0820, 11577.00
168.3130, 11683.00
169.5440, 11763.00
170.7750, 11709.00
172.0050, 11860.00
173.2350, 11947.00
174.4650, 11856.00
175.6950, 11985.00
176.9250, 11712.00
178.1550, 11960.00
179.3840, 11849.00
180.6130, 12112.00
181.8420, 11992.00
183.0710, 12255.00
184.3000, 12278.00
185.5280, 12449.00
186.7570, 12311.00
187.9850, 12571.00
189.2130, 12623.00
190.4400, 12811.00
191.6680, 12739.00
192.8960, 12812.00
194.1230, 12775.00
195.3500, 12653.00
196.5770, 12596.00
197.8030, 12549.00
199.0300, 12536.00
200.2560, 12511.00
201.4830, 12505.00
202.7090, 12599.00
203.9340, 12630.00
205.1600, 12665.00
206.3860, 12809.00
207.6110, 12954.00
208.8360, 13023.00
210.0610, 13295.00
211.2860, 13278.00
212.5100, 13524.00
213.7350, 13616.00
214.9590, 13974.00
216.1830, 14023.00
217.4070, 14210.00
218.6310, 14205.00
219.8540, 14047.00
221.0780, 14287.00
222.3010, 14035.00
223.5240, 13977.00
224.7470, 14031.00
225.9690, 13989.00
227.1920, 13987.00
228.4140, 13900.00
229.6360, 13780.00
230.8580, 13767.00
232.0800, 13549.00
233.3020, 13517.77
234.5230, 13466.00
235.7440, 13377.00
236.9650, 13292.00
238.1860, 13235.00
239.4070, 13161.00
240.6280, 13245.00
241.8480, 13246.00
243.0680, 13162.00
244.2880, 13269.00
245.5080, 13223.00
246.7280, 13297.00
247.9470, 13185.00
249.1660, 13187.00
250.3860, 13200.00
251.6040, 13129.00
252.8230, 13130.00
254.0420, 13036.00
255.2600, 12926.00
256.4790, 12942.36
257.6970, 12818.00
258.9150, 12892.00
260.1320, 12801.00
261.3500, 12692.00
262.5670, 12549.00
263.7840, 12507.00
265.0010, 12458.10
266.2180, 12579.00
267.4350, 12522.00
268.6510, 12515.00
269.8680, 12731.00
271.0840, 12671.00
272.3000, 12724.00
273.5160, 12856.00
274.7310, 12886.00
275.9470, 12901.00
277.1620, 12954.00
278.3770, 13131.00
279.5920, 13220.00
280.8070, 13217.00
282.0210, 13378.00
283.2360, 13416.65
284.4500, 13444.00
285.6640, 13566.00
286.8780, 13607.00
288.0920, 13682.00
289.3050, 13776.00
290.5180, 13865.00
291.7320, 13840.00
292.9450, 13920.00
294.1570, 13995.00
295.3700, 14195.00
296.5830, 14289.00
297.7950, 14730.00
299.0070, 14777.00
300.2190, 15106.00
301.4310, 15339.00
302.6420, 15402.00
303.8540, 15696.00
305.0650, 15851.00
306.2760, 16203.00
307.4870, 16557.00
308.6980, 16912.00
309.9080, 17590.00
311.1190, 18199.00
312.3290, 18778.00
313.5390, 19262.00
314.7490, 20162.00
315.9580, 20775.00
317.1680, 21602.00
318.3770, 22367.00
319.5860, 22977.00
320.7950, 23411.00
322.0040, 23692.00
323.2130, 23508.00
324.4210, 23420.00
325.6290, 23015.00
326.8380, 22555.00
328.0460, 21798.00
329.2530, 20920.00
330.4610, 20216.00
331.6680, 19544.00
332.8760, 18866.36
334.0830, 18295.86
335.2890, 17725.00
336.4960, 17228.00
337.7030, 16811.00
338.9090, 16486.70
340.1150, 16153.00
341.3210, 16039.00
342.5270, 15899.00
343.7330, 15788.65
344.9380, 15739.00
346.1440, 15524.00
347.3490, 15587.00
348.5540, 15290.00
349.7590, 15615.00
350.9630, 15611.00
352.1680, 15499.00
353.3720, 15500.00
354.5760, 15452.00
355.7800, 15320.00
356.9840, 15306.00
358.1870, 15283.00
359.3910, 15192.00
360.5940, 15268.00
361.7970, 15198.00
363.0000, 15096.00
364.2030, 15185.00
365.4050, 15023.00
366.6080, 15049.00
367.8100, 15294.00
369.0120, 15273.00
370.2140, 15285.00
371.4150, 15314.00
372.6170, 15221.00
373.8180, 15133.00
375.0190, 15248.00
376.2200, 15041.00
377.4210, 14938.00
378.6220, 14971.00
379.8220, 15048.00
381.0230, 14957.00
382.2230, 15226.00
383.4230, 15311.00
384.6220, 15411.00
385.8220, 15449.00
387.0220, 15684.00
388.2210, 15755.00
389.4200, 15865.00
390.6190, 15792.00
391.8180, 15967.00
393.0160, 15695.00
394.2150, 15566.00
395.4130, 15283.00
396.6110, 15219.00
397.8090, 15010.00
399.0060, 14770.00
400.2040, 14658.00
401.4010, 14585.00
402.5980, 14478.00
403.7950, 14589.00
404.9920, 14643.00
406.1890, 14677.00
407.3860, 14682.00
408.5820, 14681.00
409.7780, 14902.00
410.9740, 14972.00
412.1700, 14793.00
413.3650, 14958.00
414.5610, 14777.00
415.7560, 14683.00
416.9510, 14750.00
418.1460, 14631.00
419.3410, 14362.00
420.5360, 14298.00
421.7300, 14139.00
422.9240, 14135.00
424.1180, 14142.00
425.3120, 14039.00
426.5060, 14045.00
427.7000, 13786.00
428.8930, 13773.00
430.0860, 13826.00
431.2790, 13557.00
432.4720, 13672.00
433.6650, 13724.00
434.8580, 13386.00
436.0500, 13677.00
437.2420, 13497.00
438.4340, 13660.00
439.6260, 13606.00
440.8180, 13552.00
442.0090, 13643.00
443.2010, 13682.00
444.3920, 13631.00
445.5830, 13607.00
446.7740, 13704.00
447.9640, 13673.00
449.1550, 13702.00
450.3450, 13705.00
451.5350, 13755.00
452.7250, 13724.00
453.9150, 13681.00
455.1050, 13665.00
456.2940, 13797.00
457.4830, 13894.00
458.6720, 13881.00
459.8610, 14020.00
461.0500, 14126.00
462.2390, 14051.00
463.4270, 14061.00
464.6150, 14206.00
465.8040, 14109.00
466.9910, 14335.00
468.1790, 14212.00
469.3670, 14266.00
470.5540, 14122.00
471.7410, 14124.00
472.9280, 14019.00
474.1150, 13988.00
475.3020, 13930.00
476.4890, 13942.25
477.6750, 14028.00
478.8610, 14012.00
480.0470, 14031.64
481.2330, 14076.00
482.4190, 13990.00
483.6040, 13895.00
484.7900, 13863.00
485.9750, 13918.00
487.1600, 13905.28
488.3450, 14034.00
489.5290, 14017.00
490.7140, 14092.00
491.8980, 14206.00
493.0820, 14362.00
494.2660, 14410.00
495.4500, 14501.00
496.6340, 14700.00
497.8170, 14762.00
499.0010, 15104.00
500.1840, 15172.00
501.3670, 15374.00
502.5500, 15260.00
503.7320, 15485.00
504.9150, 15603.00
506.0970, 15488.00
507.2790, 15575.00
508.4610, 15382.00
509.6430, 15356.00
510.8250, 15401.00
512.0060, 15392.00
513.1870, 15553.00
514.3680, 15677.00
515.5490, 15712.00
516.7300, 15559.00
517.9110, 15626.00
519.0910, 15578.00
520.2710, 15558.00
521.4510, 15669.00
522.6310, 15565.14
523.8110, 15344.00
524.9910, 15412.00
526.1700, 15247.00
527.3490, 15076.00
528.5280, 15105.00
529.7070, 15103.00
530.8860, 15113.00
532.0650, 15111.00
533.2430, 15130.00
534.4210, 15300.00
535.5990, 15217.00
536.7770, 15317.00
537.9550, 15285.00
539.1320, 15463.00
540.3100, 15316.00
541.4870, 15460.00
542.6640, 15524.00
543.8410, 15579.00
545.0170, 15469.00
546.1940, 15717.00
547.3700, 15747.00
548.5470, 16053.00
549.7230, 16158.00
550.8980, 16186.00
552.0740, 16285.00
553.2500, 16495.00
554.4250, 16477.00
555.6000, 16454.00
556.7750, 16451.00
557.9500, 16140.00
559.1250, 15932.00
560.2990, 15708.00
561.4730, 15525.00
562.6480, 15358.58
563.8220, 15176.00
564.9950, 15089.00
566.1690, 14972.00
567.3430, 14902.00
568.5160, 14887.00
569.6890, 14729.00
570.8620, 14848.00
572.0350, 14873.00
573.2070, 14771.00
574.3800, 14736.00
575.5520, 14823.00
576.7240, 14693.00
577.8960, 14709.00
579.0680, 14697.00
580.2400, 14765.00
581.4110, 14628.00
582.5830, 14708.00
583.7540, 14524.00
584.9250, 14668.00
586.0950, 14682.00
587.2660, 14642.00
588.4370, 14706.00
589.6070, 14697.00
590.7770, 14566.00
591.9470, 14679.00
593.1170, 14553.00
594.2860, 14569.00
595.4560, 14662.00
596.6250, 14718.00
597.7940, 14699.00
598.9630, 14821.00
600.1320, 14733.00
601.3000, 14891.00
602.4690, 14808.00
603.6370, 14973.00
604.8050, 14851.00
605.9730, 14718.00
607.1410, 14855.00
608.3090, 14903.00
609.4760, 14748.00
610.6430, 14837.00
611.8100, 14972.00
612.9770, 14983.00
614.1440, 14958.00
615.3110, 14973.00
616.4770, 15025.00
617.6430, 15125.00
618.8090, 15153.00
619.9750, 15256.28
621.1410, 15222.00
622.3070, 15417.00
623.4720, 15368.00
624.6370, 15382.00
625.8020, 15592.00
626.9670, 15564.00
628.1320, 15513.00
629.2970, 15778.00
630.4610, 15854.00
631.6250, 15949.00
632.7890, 15955.00
633.9530, 16135.00
635.1170, 16145.00
636.2810, 16295.00
637.4440, 16668.00
638.6070, 16764.00
639.7700, 17170.00
640.9330, 17512.00
642.0960, 17507.00
643.2590, 18004.00
644.4210, 18548.00
645.5830, 19270.00
646.7450, 19865.00
647.9070, 20631.00
649.0690, 21740.00
650.2310, 22632.00
651.3920, 23733.00
652.5530, 25080.00
653.7140, 26374.00
654.8750, 27841.00
656.0360, 29366.18
657.1970, 31027.00
658.3570, 32532.00
659.5170, 34177.00
660.6770, 35687.00
661.8370, 37187.00
662.9970, 38572.00
664.1570, 39458.00
665.3160, 40296.00
666.4750, 40423.00
667.6340, 39926.00
668.7930, 38461.00
669.9520, 36658.00
671.1110, 34687.00
672.2690, 32268.00
673.4270, 30133.00
674.5850, 28081.00
675.7430, 26462.00
676.9010, 24696.00
678.0590, 23174.00
679.2160, 22030.00
680.3730, 21129.00
681.5300, 20150.00
682.6870, 19639.00
683.8440, 19094.00
685.0010, 18614.00
686.1570, 18150.00
687.3130, 17895.00
688.4690, 17623.00
689.6250, 17477.00
690.7810, 17282.00
691.9370, 17099.00
693.0920, 16930.00
694.2470, 16793.66
695.4020, 16674.00
696.5570, 16573.29
697.7120, 16503.53
698.8670, 16445.00
700.0210, 16421.00
701.1750, 16345.00
702.3290, 16317.00
703.4830, 16322.00
704.6370, 16259.00
705.7910, 16305.00
706.9440, 16256.00
708.0970, 16209.00
709.2510, 16146.00
710.4030, 16231.00
711.5560, 16171.40
712.7090, 16199.29
713.8610, 16174.00
715.0140, 16229.00
716.1660, 16283.00
717.3180, 16294.00
718.4690, 16328.95
719.6210, 16307.00
720.7730, 16289.00
721.9240, 16333.00
723.0750, 16323.21
724.2260, 16165.00
725.3770, 16315.00
726.5270, 16403.00
727.6780, 16321.00
728.8280, 16201.00
729.9780, 16217.00
731.1280, 16261.00
732.2780, 16290.00
733.4280, 16115.00
734.5770, 15991.00
735.7260, 16074.00
736.8760, 16214.00
738.0250, 16075.00
739.1730, 16304.00
740.3220, 16243.00
741.4700, 16058.00
742.6190, 15827.00
743.7670, 15959.00
744.9150, 16132.00
746.0630, 15993.00
747.2100, 16199.00
748.3580, 16077.00
749.5050, 16131.00
750.6520, 16119.00
751.7990, 16039.00
752.9460, 16116.00
754.0930, 16121.00
755.2390, 16316.00
756.3860, 16074.00
757.5320, 16035.00
758.6780, 16369.00
759.8240, 16090.00
760.9690, 16149.00
762.1150, 16279.00
763.2600, 16040.00
764.4060, 16144.00
765.5510, 16011.00
766.6950, 16355.00
767.8400, 16181.00
768.9850, 16264.00
770.1290, 16238.00
771.2730, 16317.00
772.4170, 16130.00
773.5610, 16317.00
774.7050, 16191.00
775.8480, 16244.00
776.9920, 16349.00
778.1350, 16439.00
779.2780, 16519.00
780.4210, 16284.00
781.5640, 16353.00
782.7060, 16262.00
783.8490, 16706.00
784.9910, 16543.00
786.1330, 16668.00
787.2750, 16554.00
788.4170, 16535.00
789.5580, 16428.00
790.7000, 16471.00
791.8410, 16517.00
792.9820, 16604.00
794.1230, 16542.00
795.2640, 16610.00
796.4040, 16536.00
797.5450, 16593.00
798.6850, 16561.00
799.8250, 16430.00
800.9650, 16594.00
802.1050, 16517.00
803.2450, 16742.00
804.3840, 16786.00
805.5230, 16786.00
806.6630, 16560.00
807.8020, 16676.00
808.9400, 16724.00
810.0790, 16722.00
811.2170, 16858.00
812.3560, 16950.00
813.4940, 16871.00
814.6320, 16863.00
815.7700, 16811.00
816.9070, 16804.00
818.0450, 16855.00
819.1820, 16724.00
820.3190, 16993.00
821.4560, 16923.00
822.5930, 16861.00
823.7300, 16953.00
824.8670, 16805.00
826.0030, 16919.00
827.1390, 16900.00
828.2750, 16941.00
829.4110, 17024.00
830.5470, 17139.00
831.6820, 17011.00
832.8180, 17033.00
833.9530, 16897.00
835.0880, 17137.00
836.2230, 17110.00
837.3580, 17070.00
838.4920, 17210.00
839.6270, 17170.00
840.7610, 17256.80
841.8950, 17156.00
843.0290, 17301.00
844.1630, 17278.00
845.2960, 17072.00
846.4300, 17268.00
847.5630, 17469.00
848.6960, 17293.00
849.8290, 17263.00
850.9620, 17335.00
852.0940, 17355.00
853.2270, 17459.00
854.3590, 17172.00
855.4910, 17490.00
856.6230, 17385.00
857.7550, 17563.00
858.8870, 17537.00
860.0180, 17584.00
861.1500, 17475.00
862.2810, 17511.00
863.4120, 17419.00
864.5430, 17553.00
865.6730, 17605.00
866.8040, 17627.00
867.9340, 17700.00
869.0640, 17709.23
870.1940, 17650.00
871.3240, 17756.00
872.4540, 17768.00
873.5830, 17820.52
874.7130, 17758.00
875.8420, 17877.00
876.9710, 17987.00
878.1000, 18032.00
879.2290, 17957.00
880.3570, 17943.00
881.4860, 18029.00
882.6140, 18102.00
883.7420, 18052.00
884.8700, 18024.00
885.9980, 18154.00
887.1250, 18116.00
888.2530, 18287.00
889.3800, 18279.00
890.5070, 18254.00
891.6340, 18264.00
892.7610, 18348.00
893.8880, 18326.00
895.0140, 18244.00
896.1400, 18154.00
897.2670, 18217.00
898.3930, 18238.00
899.5180, 18356.00
900.6440, 18401.00
901.7700, 18314.00
902.8950, 18263.00
904.0200, 18402.00
905.1450, 18340.00
906.2700, 18431.00
907.3950, 18437.00
908.5190, 18502.00
909.6440, 18528.00
910.7680, 18575.00
911.8920, 18626.00
913.0160, 18529.00
914.1400, 18711.00
915.2630, 18610.00
916.3870, 18647.00
917.5100, 18993.00
918.6330, 18799.00
919.7560, 18957.00
920.8790, 18943.00
922.0010, 18927.00
923.1240, 19022.00
924.2460, 19115.00
925.3680, 19009.00
926.4900, 19422.00
927.6120, 19128.00
928.7340, 19379.00
929.8550, 19415.00
930.9760, 19497.00
932.0980, 19509.00
933.2190, 19717.00
934.3390, 19834.00
935.4600, 19811.00
936.5810, 19764.00
937.7010, 19912.00
938.8210, 19791.00
939.9410, 19826.00
941.0610, 19974.00
942.1810, 19887.00
943.3010, 19928.00
944.4200, 19785.00
945.5390, 19598.00
946.6580, 19757.00
947.7770, 19588.00
948.8960, 19392.00
950.0150, 19440.00
951.1330, 19369.00
952.2510, 19352.00
953.3690, 19554.00
954.4870, 19716.00
955.6050, 19621.00
956.7230, 19497.00
957.8400, 19422.00
958.9580, 19686.00
960.0750, 19672.00
961.1920, 19965.00
962.3090, 19820.00
963.4250, 19978.00
964.5420, 20025.00
965.6580, 20293.00
966.7740, 20345.00
967.8900, 20330.00
969.0060, 20387.00
970.1220, 20576.00
971.2380, 20724.00
972.3530, 20807.00
973.4680, 20818.00
974.5830, 21133.00
975.6980, 21246.00
976.8130, 21442.00
977.9280, 21772.00
979.0420, 22212.00
980.1560, 22591.00
981.2710, 23116.00
982.3850, 23465.00
983.4980, 24428.00
984.6120, 24979.00
985.7260, 26081.00
986.8390, 27147.00
987.9520, 28768.00
989.0650, 30361.00
990.1780, 32538.00
991.2910, 35243.00
992.4030, 38400.00
993.5160, 41696.00
994.6280, 44915.00
995.7400, 48691.00
996.8520, 52541.00
997.9640, 55656.00
999.0750, 57932.00
1000.187, 59421.00
1001.298, 60015.37
1002.409, 60270.00
1003.520, 58816.00
1004.631, 56992.00
1005.741, 54497.00
1006.852, 51697.00
1007.962, 48943.00
1009.072, 45665.00
1010.182, 42972.00
1011.292, 40640.00
1012.402, 38192.00
1013.511, 36244.15
1014.621, 34363.96
1015.730, 32755.00
1016.839, 31263.00
1017.948, 29877.00
1019.056, 28827.00
1020.165, 27748.00
1021.273, 27074.00
1022.382, 26174.00
1023.490, 25491.00
1024.598, 24850.00
1025.706, 24417.00
1026.813, 23884.00
1027.921, 23370.00
1029.028, 23282.00
1030.135, 22665.00
1031.242, 22617.00
1032.349, 22338.00
1033.456, 22149.00
1034.562, 22146.00
1035.668, 21731.00
1036.775, 21722.00
1037.881, 21404.00
1038.987, 21523.00
1040.092, 21531.00
1041.198, 21482.00
1042.303, 21366.00
1043.408, 21258.00
1044.514, 21222.00
1045.618, 21247.00
1046.723, 21040.00
1047.828, 21160.00
1048.932, 21170.00
1050.037, 21118.00
1051.141, 21045.00
1052.245, 21005.00
1053.349, 20990.00
1054.452, 20862.00
1055.556, 20904.00
1056.659, 20806.00
1057.762, 20923.00
1058.865, 20841.00
1059.968, 20934.00
1061.071, 20701.00
1062.174, 20774.00
1063.276, 20693.00
1064.378, 20896.00
1065.480, 20687.00
1066.582, 20715.00
1067.684, 20790.00
1068.786, 20780.00
1069.887, 20696.00
1070.988, 20815.00
1072.090, 20601.00
1073.191, 20892.00
1074.291, 20875.00
1075.392, 20897.00
1076.493, 21195.00
1077.593, 21306.00
1078.693, 21337.00
1079.793, 21658.00
1080.893, 21984.00
1081.993, 22373.00
1083.092, 22696.00
1084.192, 22870.00
1085.291, 23024.00
1086.390, 22884.00
1087.489, 22674.00
1088.588, 22182.00
1089.686, 22147.00
1090.785, 21891.00
1091.883, 21624.00
1092.981, 21410.00
1094.079, 21244.00
1095.177, 21216.00
1096.275, 21115.00
1097.373, 21118.00
1098.470, 21098.00
1099.567, 20912.00
1100.664, 20898.00
1101.761, 20882.00
1102.858, 20921.00
1103.954, 20811.00
1105.051, 21009.00
1106.147, 20807.00
1107.243, 20967.00
1108.339, 20979.00
1109.435, 20738.00
1110.531, 21024.00
1111.626, 20792.00
1112.722, 20857.00
1113.817, 20888.00
1114.912, 20960.00
1116.007, 21213.00
1117.101, 21126.00
1118.196, 21185.00
1119.290, 21105.00
1120.385, 21148.00
1121.479, 21072.00
1122.573, 20884.00
1123.666, 21010.00
1124.760, 21089.00
1125.853, 20918.00
1126.947, 20950.00
1128.040, 21054.00
1129.133, 20816.00
1130.226, 20997.00
1131.318, 20978.00
1132.411, 20978.00
1133.503, 20901.00
1134.596, 20907.68
1135.688, 20935.00
1136.780, 20880.00
1137.871, 20834.00
1138.963, 20820.84
1140.054, 20899.00
1141.146, 20854.00
1142.237, 20943.00
1143.328, 21020.00
1144.419, 20989.00
1145.509, 20879.00
1146.600, 21123.00
1147.690, 21091.00
1148.780, 20941.00
1149.870, 21125.00
1150.960, 21100.00
1152.050, 21037.00
1153.139, 21117.00
1154.229, 21171.00
1155.318, 21063.00
1156.407, 21105.00
1157.496, 21019.00
1158.585, 21061.00
1159.674, 21042.55
1160.762, 21141.00
1161.850, 21085.00
1162.939, 21123.00
1164.027, 21261.00
1165.114, 21294.00
1166.202, 21311.04
1167.290, 21133.00
1168.377, 21331.00
1169.464, 21222.00
1170.551, 21282.00
1171.638, 21222.00
1172.725, 21400.00
1173.812, 21341.00
1174.898, 21417.00
1175.984, 21488.00
1177.071, 21503.00
1178.157, 21341.00
1179.242, 21370.00
1180.328, 21351.60
1181.414, 21201.00
1182.499, 21362.00
1183.584, 21428.00
1184.669, 21411.00
1185.754, 21502.00
1186.839, 21475.00
1187.924, 21410.00
1189.008, 21626.00
1190.092, 21554.00
1191.177, 21552.00
1192.260, 21553.00
1193.344, 21387.00
1194.428, 21595.00
1195.512, 21508.00
1196.595, 21563.00
1197.678, 21434.00
1198.761, 21565.00
1199.844, 21542.00
1200.927, 21482.00
1202.009, 21675.00
1203.092, 21552.00
1204.174, 21732.00
1205.256, 21643.00
1206.338, 21684.00
1207.420, 21877.00
1208.502, 21770.00
1209.583, 21716.00
1210.665, 21776.00
1211.746, 21613.00
1212.827, 21698.00
1213.908, 21852.00
1214.988, 21908.00
1216.069, 21810.00
1217.149, 21856.00
1218.230, 21714.00
1219.310, 21708.00
1220.390, 21975.00
1221.470, 22022.00
1222.549, 21901.00
1223.629, 22002.00
1224.708, 21988.00
1225.787, 22134.00
1226.866, 22059.00
1227.945, 21975.00
1229.024, 22085.00
1230.103, 21928.00
1231.181, 21962.00
1232.259, 22008.00
1233.337, 22197.00
1234.415, 22025.00
1235.493, 22016.00
1236.571, 22098.00
1237.648, 22034.00
1238.726, 22182.00
1239.803, 22123.00
1240.880, 22157.00
1241.957, 22179.61
1243.034, 22256.00
1244.110, 22207.00
1245.187, 22213.00
1246.263, 22293.00
1247.339, 22275.00
1248.415, 22366.00
1249.491, 22218.00
1250.566, 22228.00
1251.642, 22223.00
1252.717, 22233.84
1253.793, 22292.00
1254.868, 22329.00
1255.943, 22344.00
1257.017, 22343.00
1258.092, 22266.00
1259.166, 22376.00
1260.241, 22304.00
1261.315, 22284.00
1262.389, 22376.11
1263.462, 22325.00
1264.536, 22523.00
1265.610, 22536.00
1266.683, 22613.00
1267.756, 22494.00
1268.829, 22430.00
1269.902, 22676.00
1270.975, 22679.00
1272.048, 22745.00
1273.120, 22752.00
1274.192, 22729.31
1275.264, 22755.24
1276.336, 22743.19
1277.408, 22771.00
1278.480, 22726.00
1279.551, 22774.00
1280.623, 22744.00
1281.694, 22768.44
1282.765, 22856.00
1283.836, 22829.00
1284.907, 22759.00
1285.977, 22810.00
1287.048, 22731.00
1288.118, 23092.00
