##NAMES=Kanoite
##RRUFFID=R061134
##IDEAL CHEMISTRY=Mn^2+^MgSi_2_O_6_
##LOCALITY=Balmat, St. Lawrence County, New York, USA
##OWNER=RRUFF
##SOURCE=Michael Scott
##DESCRIPTION=Yellowish brown granular aggregate
##STATUS=The identification of this mineral has been confirmed by X-ray diffraction and chemical analysis
##URL=rruff.info/R061134
##MEASURED CHEMISTRY=(Mn^2+^_0.88_Ca_0.12_)_Σ=1_(Mg_0.98_Fe^3+^_0.02_)_Σ=1_(Si_0.98_Al_0.02_)_2_O_6_
##PIN_ID=L00480
##ORIENTATION=Laser parallel to -c* (0 0 -1). Fiducial mark perpendicular to laser is parallel to a [1 0 0]
127.5960, 28011.00
128.8330, 28383.00
130.0700, 28601.00
131.3060, 28751.00
132.5420, 28625.00
133.7780, 28928.00
135.0140, 29122.00
136.2500, 29164.00
137.4850, 29536.00
138.7200, 29224.00
139.9550, 29672.00
141.1900, 29409.00
142.4250, 29332.00
143.6600, 29552.00
144.8940, 29424.00
146.1280, 29178.00
147.3620, 29445.00
148.5960, 29339.00
149.8300, 29247.00
151.0630, 29456.00
152.2960, 29179.00
153.5300, 29120.00
154.7620, 29281.00
155.9950, 29273.00
157.2280, 29200.00
158.4600, 29375.00
159.6920, 29133.00
160.9250, 29222.00
162.1560, 28835.00
163.3880, 29416.00
164.6200, 29185.00
165.8510, 29215.00
167.0820, 29460.00
168.3130, 29396.00
169.5440, 29309.00
170.7750, 29568.00
172.0050, 29570.00
173.2350, 29588.00
174.4650, 29795.00
175.6950, 29775.00
176.9250, 29633.00
178.1550, 29656.00
179.3840, 29634.70
180.6130, 29874.00
181.8420, 29716.00
183.0710, 29859.00
184.3000, 30023.00
185.5280, 29732.00
186.7570, 30207.00
187.9850, 30140.00
189.2130, 30027.00
190.4400, 30103.00
191.6680, 29909.00
192.8960, 30315.00
194.1230, 30087.00
195.3500, 30158.00
196.5770, 30215.00
197.8030, 30186.00
199.0300, 30255.40
200.2560, 30261.00
201.4830, 30349.00
202.7090, 30425.00
203.9340, 30528.00
205.1600, 30546.00
206.3860, 30453.00
207.6110, 30345.00
208.8360, 30597.00
210.0610, 30874.00
211.2860, 30851.00
212.5100, 30968.00
213.7350, 31107.00
214.9590, 31199.00
216.1830, 31060.00
217.4070, 30975.00
218.6310, 31257.00
219.8540, 31109.00
221.0780, 31247.00
222.3010, 31080.00
223.5240, 31222.00
224.7470, 31098.00
225.9690, 31295.00
227.1920, 31043.00
228.4140, 31099.00
229.6360, 31476.00
230.8580, 31256.00
232.0800, 31132.00
233.3020, 30941.00
234.5230, 31053.00
235.7440, 30974.00
236.9650, 31113.00
238.1860, 31114.00
239.4070, 31052.00
240.6280, 31084.00
241.8480, 31089.00
243.0680, 31023.00
244.2880, 31154.00
245.5080, 30930.00
246.7280, 31188.00
247.9470, 31102.00
249.1660, 31155.00
250.3860, 31248.00
251.6040, 31156.61
252.8230, 31273.00
254.0420, 31135.00
255.2600, 31114.00
256.4790, 31267.00
257.6970, 31148.46
258.9150, 31247.00
260.1320, 31045.00
261.3500, 31072.00
262.5670, 30921.00
263.7840, 31062.00
265.0010, 31215.00
266.2180, 31103.00
267.4350, 31229.00
268.6510, 31137.00
269.8680, 31232.00
271.0840, 31195.00
272.3000, 31441.00
273.5160, 31368.00
274.7310, 31491.00
275.9470, 31325.00
277.1620, 31379.00
278.3770, 31359.00
279.5920, 31337.47
280.8070, 31267.00
282.0210, 31433.00
283.2360, 31595.00
284.4500, 31796.00
285.6640, 31710.00
286.8780, 31837.41
288.0920, 31660.00
289.3050, 31877.00
290.5180, 31725.00
291.7320, 31708.00
292.9450, 31834.00
294.1570, 31964.00
295.3700, 31873.00
296.5830, 32130.00
297.7950, 32093.00
299.0070, 32206.00
300.2190, 32386.00
301.4310, 32179.00
302.6420, 32565.00
303.8540, 32601.00
305.0650, 32771.00
306.2760, 32955.00
307.4870, 32911.00
308.6980, 33300.00
309.9080, 33253.00
311.1190, 33665.00
312.3290, 34128.00
313.5390, 34206.00
314.7490, 34757.00
315.9580, 35178.00
317.1680, 35450.00
318.3770, 35989.00
319.5860, 36017.00
320.7950, 36512.00
322.0040, 36529.00
323.2130, 36416.00
324.4210, 36441.00
325.6290, 36179.00
326.8380, 36032.00
328.0460, 35635.00
329.2530, 35535.00
330.4610, 35077.00
331.6680, 34934.00
332.8760, 34541.00
334.0830, 34378.00
335.2890, 33977.00
336.4960, 33742.00
337.7030, 33910.00
338.9090, 33320.00
340.1150, 33432.00
341.3210, 33220.00
342.5270, 33396.00
343.7330, 33303.00
344.9380, 33003.00
346.1440, 33090.00
347.3490, 33301.00
348.5540, 33318.00
349.7590, 33406.00
350.9630, 33446.00
352.1680, 33401.13
353.3720, 33312.00
354.5760, 33295.00
355.7800, 33229.36
356.9840, 33187.00
358.1870, 33190.00
359.3910, 33115.00
360.5940, 33111.00
361.7970, 33134.91
363.0000, 33224.00
364.2030, 33230.00
365.4050, 33320.00
366.6080, 33418.44
367.8100, 33319.00
369.0120, 33505.00
370.2140, 33454.00
371.4150, 33440.00
372.6170, 33285.00
373.8180, 33356.00
375.0190, 33330.49
376.2200, 33531.00
377.4210, 33361.00
378.6220, 33451.00
379.8220, 33419.00
381.0230, 33580.00
382.2230, 33720.00
383.4230, 33732.00
384.6220, 33816.00
385.8220, 34114.00
387.0220, 34538.00
388.2210, 34416.00
389.4200, 34633.00
390.6190, 34794.00
391.8180, 34735.00
393.0160, 34740.00
394.2150, 34371.00
395.4130, 34029.00
396.6110, 33899.00
397.8090, 33739.00
399.0060, 33600.00
400.2040, 33477.95
401.4010, 33128.00
402.5980, 33278.00
403.7950, 32999.00
404.9920, 32969.00
406.1890, 33070.00
407.3860, 33003.00
408.5820, 33051.00
409.7780, 32829.00
410.9740, 33050.00
412.1700, 33004.00
413.3650, 33324.00
414.5610, 33110.00
415.7560, 32880.00
416.9510, 32835.00
418.1460, 32928.00
419.3410, 33043.00
420.5360, 32779.00
421.7300, 32779.00
422.9240, 32808.00
424.1180, 32777.00
425.3120, 32773.00
426.5060, 32724.00
427.7000, 32919.00
428.8930, 32918.00
430.0860, 32997.00
431.2790, 32682.00
432.4720, 33020.00
433.6650, 32729.00
434.8580, 32788.00
436.0500, 32877.00
437.2420, 32819.00
438.4340, 32696.00
439.6260, 32724.00
440.8180, 32764.00
442.0090, 32871.00
443.2010, 32660.00
444.3920, 32799.00
445.5830, 33027.00
446.7740, 32788.00
447.9640, 32669.00
449.1550, 32962.00
450.3450, 32669.00
451.5350, 32914.00
452.7250, 32846.00
453.9150, 32853.00
455.1050, 33034.00
456.2940, 33157.00
457.4830, 33130.18
458.6720, 33186.81
459.8610, 33069.00
461.0500, 33166.00
462.2390, 33085.00
463.4270, 33139.00
464.6150, 33074.00
465.8040, 32978.00
466.9910, 33244.00
468.1790, 33253.00
469.3670, 33363.00
470.5540, 33376.00
471.7410, 33298.00
472.9280, 33217.00
474.1150, 33355.00
475.3020, 33084.00
476.4890, 33186.00
477.6750, 33303.00
478.8610, 33393.00
480.0470, 33397.00
481.2330, 33350.00
482.4190, 33344.00
483.6040, 33220.00
484.7900, 33166.00
485.9750, 33339.00
487.1600, 33217.00
488.3450, 33318.00
489.5290, 33446.00
490.7140, 33280.00
491.8980, 33339.00
493.0820, 33543.00
494.2660, 33628.00
495.4500, 33435.00
496.6340, 33718.00
497.8170, 33576.00
499.0010, 33873.00
500.1840, 33953.00
501.3670, 34073.00
502.5500, 33850.00
503.7320, 33953.00
504.9150, 33974.00
506.0970, 33924.00
507.2790, 34086.00
508.4610, 34137.00
509.6430, 34047.00
510.8250, 34031.00
512.0060, 33953.00
513.1870, 34225.00
514.3680, 34223.00
515.5490, 34160.00
516.7300, 34512.00
517.9110, 34411.00
519.0910, 34433.00
520.2710, 34065.00
521.4510, 34267.00
522.6310, 34457.00
523.8110, 34519.00
524.9910, 34001.00
526.1700, 34196.00
527.3490, 34282.00
528.5280, 34186.00
529.7070, 34527.00
530.8860, 34384.00
532.0650, 34200.00
533.2430, 34253.00
534.4210, 34256.00
535.5990, 34444.00
536.7770, 34731.00
537.9550, 34679.00
539.1320, 34767.00
540.3100, 34724.00
541.4870, 34604.00
542.6640, 34626.00
543.8410, 34566.00
545.0170, 34621.00
546.1940, 34499.00
547.3700, 34631.00
548.5470, 34771.00
549.7230, 34888.00
550.8980, 34864.00
552.0740, 34844.00
553.2500, 34851.12
554.4250, 34858.00
555.6000, 34825.00
556.7750, 34796.00
557.9500, 34875.00
559.1250, 34705.00
560.2990, 34588.00
561.4730, 34514.00
562.6480, 34532.00
563.8220, 34624.00
564.9950, 34322.00
566.1690, 34599.00
567.3430, 34642.00
568.5160, 34405.00
569.6890, 34504.00
570.8620, 34353.00
572.0350, 34504.00
573.2070, 34564.00
574.3800, 34706.00
575.5520, 34545.00
576.7240, 34368.00
577.8960, 34405.00
579.0680, 34360.00
580.2400, 34367.00
581.4110, 34357.46
582.5830, 34423.00
583.7540, 34352.00
584.9250, 34389.00
586.0950, 34435.00
587.2660, 34320.00
588.4370, 34543.00
589.6070, 34447.00
590.7770, 34247.00
591.9470, 34358.00
593.1170, 34442.00
594.2860, 34616.00
595.4560, 34345.00
596.6250, 34584.00
597.7940, 34454.00
598.9630, 34704.00
600.1320, 34723.43
601.3000, 34788.00
602.4690, 34791.00
603.6370, 34803.00
604.8050, 34738.00
605.9730, 34663.00
607.1410, 34644.00
608.3090, 34862.00
609.4760, 34687.00
610.6430, 34729.00
611.8100, 34943.00
612.9770, 34898.00
614.1440, 34916.00
615.3110, 35051.00
616.4770, 34884.00
617.6430, 34902.00
618.8090, 35039.00
619.9750, 34773.00
621.1410, 34980.00
622.3070, 35076.00
623.4720, 35132.00
624.6370, 35031.00
625.8020, 35278.00
626.9670, 35043.00
628.1320, 35164.00
629.2970, 35167.00
630.4610, 35433.00
631.6250, 35172.00
632.7890, 35083.00
633.9530, 35411.00
635.1170, 35431.00
636.2810, 35414.00
637.4440, 35802.00
638.6070, 35877.00
639.7700, 35934.00
640.9330, 35905.00
642.0960, 35994.00
643.2590, 36271.00
644.4210, 36469.00
645.5830, 36606.00
646.7450, 36764.00
647.9070, 36982.00
649.0690, 37693.00
650.2310, 37769.00
651.3920, 38151.00
652.5530, 38774.00
653.7140, 39009.00
654.8750, 39570.00
656.0360, 40047.00
657.1970, 40379.00
658.3570, 40637.00
659.5170, 41342.00
660.6770, 42137.00
661.8370, 42140.00
662.9970, 42878.00
664.1570, 43173.00
665.3160, 43314.00
666.4750, 43467.00
667.6340, 43148.00
668.7930, 42535.00
669.9520, 42217.00
671.1110, 41476.00
672.2690, 40700.00
673.4270, 40487.00
674.5850, 39241.00
675.7430, 38806.00
676.9010, 38683.00
678.0590, 38071.00
679.2160, 38036.00
680.3730, 37337.00
681.5300, 37319.00
682.6870, 37303.00
683.8440, 37048.00
685.0010, 36682.00
686.1570, 36861.00
687.3130, 36591.00
688.4690, 36411.00
689.6250, 36445.00
690.7810, 36408.00
691.9370, 36444.00
693.0920, 36449.00
694.2470, 36312.00
695.4020, 36336.00
696.5570, 36231.00
697.7120, 36127.00
698.8670, 36266.00
700.0210, 36500.00
701.1750, 36175.00
702.3290, 36251.00
703.4830, 36108.00
704.6370, 36124.00
705.7910, 36596.00
706.9440, 36490.00
708.0970, 36428.00
709.2510, 36155.00
710.4030, 36424.00
711.5560, 36235.00
712.7090, 36210.00
713.8610, 36378.00
715.0140, 36221.00
716.1660, 36481.00
717.3180, 36445.00
718.4690, 36359.00
719.6210, 36588.00
720.7730, 36515.00
721.9240, 36449.00
723.0750, 36436.00
724.2260, 36530.00
725.3770, 36507.09
726.5270, 36714.00
727.6780, 36634.00
728.8280, 36580.00
729.9780, 36766.00
731.1280, 36594.00
732.2780, 36643.00
733.4280, 36463.00
734.5770, 36632.00
735.7260, 36696.00
736.8760, 36643.00
738.0250, 36752.00
739.1730, 36763.00
740.3220, 36756.00
741.4700, 36528.00
742.6190, 36816.00
743.7670, 36764.00
744.9150, 36727.00
746.0630, 37007.00
747.2100, 36825.00
748.3580, 36833.00
749.5050, 36566.00
750.6520, 36768.00
751.7990, 36772.00
752.9460, 36814.00
754.0930, 37038.00
755.2390, 36657.00
756.3860, 36931.00
757.5320, 36863.00
758.6780, 37158.00
759.8240, 37130.00
760.9690, 37213.00
762.1150, 37012.00
763.2600, 36990.00
764.4060, 37135.00
765.5510, 36789.00
766.6950, 37040.00
767.8400, 37164.00
768.9850, 37178.00
770.1290, 37082.00
771.2730, 37062.00
772.4170, 36970.00
773.5610, 37145.00
774.7050, 37331.00
775.8480, 37015.00
776.9920, 37342.00
778.1350, 37188.00
779.2780, 37555.00
780.4210, 37381.00
781.5640, 37290.00
782.7060, 37508.00
783.8490, 37451.00
784.9910, 37409.00
786.1330, 37607.00
787.2750, 37351.00
788.4170, 37393.00
789.5580, 37354.00
790.7000, 37369.00
791.8410, 37556.00
792.9820, 37387.00
794.1230, 37410.00
795.2640, 37657.00
796.4040, 37495.00
797.5450, 37493.00
798.6850, 37683.00
799.8250, 37733.00
800.9650, 37595.00
802.1050, 37852.00
803.2450, 37976.00
804.3840, 37668.00
805.5230, 37845.00
806.6630, 37895.00
807.8020, 37731.00
808.9400, 38036.00
810.0790, 37836.00
811.2170, 37877.00
812.3560, 37849.00
813.4940, 37939.00
814.6320, 37724.00
815.7700, 37806.00
816.9070, 38041.00
818.0450, 37882.00
819.1820, 38090.00
820.3190, 37978.00
821.4560, 37966.00
822.5930, 37979.00
823.7300, 38160.00
824.8670, 38133.00
826.0030, 38155.00
827.1390, 38412.00
828.2750, 38282.00
829.4110, 38122.00
830.5470, 37983.00
831.6820, 38240.00
832.8180, 38344.00
833.9530, 38237.00
835.0880, 38354.00
836.2230, 38180.00
837.3580, 38481.00
838.4920, 38366.00
839.6270, 38544.00
840.7610, 38472.00
841.8950, 38255.00
843.0290, 38548.00
844.1630, 38394.00
845.2960, 38434.00
846.4300, 38517.00
847.5630, 38735.00
848.6960, 38744.00
849.8290, 38708.00
850.9620, 38837.00
852.0940, 38529.00
853.2270, 38630.00
854.3590, 38547.00
855.4910, 38812.00
856.6230, 38744.00
857.7550, 38632.00
858.8870, 38827.00
860.0180, 38732.00
861.1500, 38966.00
862.2810, 39035.00
863.4120, 38851.00
864.5430, 39143.00
865.6730, 38805.00
866.8040, 38939.00
867.9340, 38901.00
869.0640, 39352.00
870.1940, 38920.00
871.3240, 39113.00
872.4540, 39098.00
873.5830, 39059.00
874.7130, 39177.00
875.8420, 39122.00
876.9710, 39028.00
878.1000, 39126.00
879.2290, 39063.00
880.3570, 39102.00
881.4860, 39326.00
882.6140, 39358.00
883.7420, 39230.00
884.8700, 39217.00
885.9980, 39024.00
887.1250, 39217.00
888.2530, 39366.00
889.3800, 39561.00
890.5070, 39568.80
891.6340, 39461.00
892.7610, 39530.00
893.8880, 39422.00
895.0140, 39344.00
896.1400, 39493.00
897.2670, 39444.00
898.3930, 39416.00
899.5180, 39620.00
900.6440, 39628.00
901.7700, 39585.00
902.8950, 39413.00
904.0200, 39603.00
905.1450, 39653.00
906.2700, 39675.00
907.3950, 39933.00
908.5190, 39955.00
909.6440, 39749.00
910.7680, 39679.00
911.8920, 39934.00
913.0160, 39763.00
914.1400, 39800.00
915.2630, 39878.00
916.3870, 39937.00
917.5100, 39920.00
918.6330, 39893.00
919.7560, 40164.00
920.8790, 40048.00
922.0010, 40261.00
923.1240, 40444.00
924.2460, 40527.00
925.3680, 40372.00
926.4900, 40348.00
927.6120, 40808.00
928.7340, 40499.00
929.8550, 40663.00
930.9760, 40530.00
932.0980, 40579.00
933.2190, 40361.00
934.3390, 40613.00
935.4600, 40595.00
936.5810, 40922.00
937.7010, 40810.00
938.8210, 40909.00
939.9410, 40833.00
941.0610, 40783.00
942.1810, 40739.16
943.3010, 40873.00
944.4200, 40647.00
945.5390, 40530.00
946.6580, 40663.00
947.7770, 40720.00
948.8960, 40521.00
950.0150, 40799.00
951.1330, 40759.00
952.2510, 40676.00
953.3690, 40937.00
954.4870, 40904.00
955.6050, 40888.00
956.7230, 41096.00
957.8400, 40855.00
958.9580, 40863.00
960.0750, 40873.00
961.1920, 41219.00
962.3090, 41161.00
963.4250, 41254.00
964.5420, 41058.00
965.6580, 41138.00
966.7740, 41116.00
967.8900, 41385.00
969.0060, 41177.00
970.1220, 41418.00
971.2380, 41246.00
972.3530, 41616.00
973.4680, 41536.00
974.5830, 41698.00
975.6980, 41771.00
976.8130, 41851.45
977.9280, 41998.00
979.0420, 42064.00
980.1560, 42293.00
981.2710, 42359.00
982.3850, 42725.00
983.4980, 42903.00
984.6120, 43162.00
985.7260, 43603.00
986.8390, 43823.00
987.9520, 44291.00
989.0650, 44864.00
990.1780, 45790.00
991.2910, 46684.00
992.4030, 47774.00
993.5160, 48832.00
994.6280, 49894.00
995.7400, 51487.00
996.8520, 52743.00
997.9640, 53947.00
999.0750, 54956.00
1000.187, 55522.00
1001.298, 56133.00
1002.409, 55813.00
1003.520, 55884.00
1004.631, 54915.00
1005.741, 53943.00
1006.852, 52728.00
1007.962, 51965.00
1009.072, 51109.00
1010.182, 50037.00
1011.292, 48795.00
1012.402, 48143.00
1013.511, 47625.00
1014.621, 47402.00
1015.730, 46505.00
1016.839, 45860.00
1017.948, 45363.00
1019.056, 45272.00
1020.165, 44699.00
1021.273, 44456.00
1022.382, 43991.00
1023.490, 43967.00
1024.598, 43741.00
1025.706, 43757.00
1026.813, 43392.00
1027.921, 43296.00
1029.028, 43195.00
1030.135, 43045.09
1031.242, 43072.00
1032.349, 42937.00
1033.456, 42814.00
1034.562, 42819.00
1035.668, 42688.00
1036.775, 42688.00
1037.881, 42661.11
1038.987, 42685.00
1040.092, 42627.00
1041.198, 42852.00
1042.303, 42827.00
1043.408, 42781.00
1044.514, 42875.00
1045.618, 42606.00
1046.723, 42681.00
1047.828, 42712.00
1048.932, 42994.00
1050.037, 42737.00
1051.141, 42717.00
1052.245, 42854.00
1053.349, 42584.00
1054.452, 42890.00
1055.556, 42526.00
1056.659, 42527.00
1057.762, 42655.00
1058.865, 42481.00
1059.968, 42542.11
1061.071, 42620.00
1062.174, 42568.00
1063.276, 42763.00
1064.378, 42921.00
1065.480, 42700.00
1066.582, 42860.00
1067.684, 42796.00
1068.786, 42952.00
1069.887, 42882.00
1070.988, 43024.00
1072.090, 42708.00
1073.191, 42816.00
1074.291, 42860.00
1075.392, 42857.00
1076.493, 42869.00
1077.593, 43067.00
1078.693, 43038.00
1079.793, 43127.00
1080.893, 43096.00
1081.993, 43386.00
1083.092, 43184.00
1084.192, 43071.00
1085.291, 43253.00
1086.390, 43486.00
1087.489, 43242.00
1088.588, 43338.00
1089.686, 42965.00
1090.785, 43304.00
1091.883, 43374.00
1092.981, 43385.00
1094.079, 43414.00
1095.177, 43354.82
1096.275, 43241.00
1097.373, 43185.00
1098.470, 43251.00
1099.567, 43162.00
1100.664, 43337.00
1101.761, 43196.00
1102.858, 43256.00
1103.954, 43578.00
1105.051, 43357.00
1106.147, 43592.00
1107.243, 43387.00
1108.339, 43575.00
1109.435, 43304.00
1110.531, 43409.00
1111.626, 43655.00
1112.722, 43599.00
1113.817, 43540.00
1114.912, 43418.00
1116.007, 43783.00
1117.101, 43769.00
1118.196, 43745.00
1119.290, 43962.00
1120.385, 43974.00
1121.479, 43997.00
1122.573, 44083.00
1123.666, 43914.00
1124.760, 44010.00
1125.853, 43903.00
1126.947, 43684.00
1128.040, 43693.00
1129.133, 43887.00
1130.226, 43934.00
1131.318, 43911.00
1132.411, 43734.00
1133.503, 43878.00
1134.596, 43607.00
1135.688, 44082.00
1136.780, 44036.00
1137.871, 44008.00
1138.963, 43967.00
1140.054, 44218.00
1141.146, 43685.00
1142.237, 43909.00
1143.328, 43763.00
1144.419, 44010.00
1145.509, 44161.00
1146.600, 44079.00
1147.690, 43776.00
1148.780, 44022.00
1149.870, 43930.00
1150.960, 44037.00
1152.050, 44247.00
1153.139, 44314.00
1154.229, 44217.00
1155.318, 44386.00
1156.407, 44353.00
1157.496, 44495.00
1158.585, 44456.00
1159.674, 44320.00
1160.762, 44285.00
1161.850, 44312.00
1162.939, 44314.00
1164.027, 44429.00
1165.114, 44266.00
1166.202, 44430.00
1167.290, 44596.00
1168.377, 44446.00
1169.464, 44495.00
1170.551, 44576.00
1171.638, 44739.00
1172.725, 44592.00
1173.812, 44417.00
1174.898, 44719.00
1175.984, 44579.00
1177.071, 44664.00
1178.157, 44752.00
1179.242, 44481.00
1180.328, 44580.00
1181.414, 44913.00
1182.499, 44669.00
1183.584, 44980.00
1184.669, 44815.00
1185.754, 44895.00
1186.839, 44643.00
1187.924, 44813.00
1189.008, 44784.00
1190.092, 44910.00
1191.177, 44927.35
1192.260, 44945.41
1193.344, 44938.00
1194.428, 44999.00
1195.512, 44970.00
1196.595, 45039.67
1197.678, 44957.00
1198.761, 45039.00
1199.844, 45024.00
1200.927, 45013.00
1202.009, 45254.00
1203.092, 45039.00
1204.174, 45278.00
1205.256, 45036.00
1206.338, 45113.00
1207.420, 44700.00
1208.502, 45011.00
1209.583, 45020.00
1210.665, 45217.00
1211.746, 45325.00
1212.827, 45451.00
1213.908, 45270.00
1214.988, 45470.00
1216.069, 45115.00
1217.149, 45659.00
1218.230, 45331.00
1219.310, 45281.00
1220.390, 45242.00
1221.470, 45178.00
1222.549, 45275.00
1223.629, 45368.00
1224.708, 45494.00
1225.787, 45301.00
1226.866, 45550.00
1227.945, 45390.00
1229.024, 45632.00
1230.103, 45559.00
1231.181, 45538.00
1232.259, 45677.00
1233.337, 45568.00
1234.415, 45749.00
1235.493, 45523.00
1236.571, 45665.00
1237.648, 45489.00
1238.726, 45518.93
1239.803, 45835.00
1240.880, 45649.00
1241.957, 45472.00
1243.034, 45710.00
1244.110, 45673.00
1245.187, 45643.00
1246.263, 45708.00
1247.339, 45748.00
1248.415, 46021.00
1249.491, 45839.00
1250.566, 45452.00
1251.642, 45758.00
1252.717, 45753.00
1253.793, 45923.00
1254.868, 45744.00
1255.943, 45741.00
1257.017, 45761.00
1258.092, 45828.00
1259.166, 45840.00
1260.241, 45968.00
1261.315, 46198.00
1262.389, 46147.16
1263.462, 46036.00
1264.536, 46142.00
1265.610, 45971.00
1266.683, 45930.00
1267.756, 45944.00
1268.829, 45967.00
1269.902, 46008.00
1270.975, 45863.00
1272.048, 46244.00
1273.120, 46114.00
1274.192, 45843.00
1275.264, 46127.00
1276.336, 46274.00
1277.408, 46087.00
1278.480, 46170.00
1279.551, 46076.00
1280.623, 46011.00
1281.694, 46069.00
1282.765, 46376.00
1283.836, 46026.00
1284.907, 46286.00
1285.977, 46360.00
1287.048, 46289.00
1288.118, 46312.00
1289.188, 46182.00
1290.258, 46252.00
1291.328, 46282.00
1292.398, 46124.00
1293.467, 46244.00
1294.537, 46321.00
1295.606, 46369.00
1296.675, 46201.00
1297.744, 46342.00
1298.813, 46320.00
1299.882, 46381.00
1300.950, 46550.00
1302.018, 46693.00
