##NAMES=Kanoite
##RRUFFID=R061134
##IDEAL CHEMISTRY=Mn^2+^MgSi_2_O_6_
##LOCALITY=Balmat, St. Lawrence County, New York, USA
##OWNER=RRUFF
##SOURCE=Michael Scott
##DESCRIPTION=Yellowish brown granular aggregate
##STATUS=The identification of this mineral has been confirmed by X-ray diffraction and chemical analysis
##URL=rruff.info/R061134
##MEASURED CHEMISTRY=(Mn^2+^_0.88_Ca_0.12_)_Σ=1_(Mg_0.98_Fe^3+^_0.02_)_Σ=1_(Si_0.98_Al_0.02_)_2_O_6_
##PIN_ID=M00160
##ORIENTATION=Laser parallel to c* (0 0 1). Fiducial mark perpendicular to laser is parallel to a [1 0 0]
109.0250, 16616.00
110.2640, 16640.00
111.5030, 16633.00
112.7420, 17029.00
113.9810, 17117.00
115.2200, 17328.00
116.4580, 17326.00
117.6970, 17608.00
118.9350, 17709.00
120.1730, 17613.00
121.4100, 17860.00
122.6480, 18021.00
123.8850, 18257.00
125.1230, 18455.00
126.3600, 18602.00
127.5960, 19187.00
128.8330, 19223.00
130.0700, 19622.00
131.3060, 19649.00
132.5420, 19807.00
133.7780, 20014.00
135.0140, 20235.00
136.2500, 20650.00
137.4850, 20784.00
138.7200, 21153.00
139.9550, 21166.00
141.1900, 20873.00
142.4250, 20782.00
143.6600, 20455.00
144.8940, 20356.00
146.1280, 20402.00
147.3620, 20327.00
148.5960, 20305.45
149.8300, 20273.00
151.0630, 20213.00
152.2960, 19873.00
153.5300, 19716.00
154.7620, 19376.00
155.9950, 19620.00
157.2280, 19627.00
158.4600, 19541.00
159.6920, 19455.00
160.9250, 19514.00
162.1560, 19552.00
163.3880, 19524.00
164.6200, 19722.00
165.8510, 19727.00
167.0820, 19879.00
168.3130, 19593.00
169.5440, 19878.00
170.7750, 19809.00
172.0050, 19876.00
173.2350, 20000.00
174.4650, 19917.00
175.6950, 19957.00
176.9250, 20061.00
178.1550, 19928.00
179.3840, 19910.00
180.6130, 20053.00
181.8420, 20246.00
183.0710, 20152.00
184.3000, 20337.00
185.5280, 20483.00
186.7570, 20531.00
187.9850, 20658.01
189.2130, 20655.00
190.4400, 20744.00
191.6680, 20862.00
192.8960, 20770.00
194.1230, 20933.00
195.3500, 20980.00
196.5770, 20988.00
197.8030, 21295.00
199.0300, 21151.00
200.2560, 21429.00
201.4830, 21537.00
202.7090, 21650.00
203.9340, 21528.00
205.1600, 21576.00
206.3860, 21711.00
207.6110, 21769.00
208.8360, 21766.00
210.0610, 22056.00
211.2860, 22214.00
212.5100, 22543.00
213.7350, 22566.00
214.9590, 22833.00
216.1830, 23110.00
217.4070, 23209.00
218.6310, 22988.00
219.8540, 23236.00
221.0780, 22751.00
222.3010, 22620.00
223.5240, 22351.00
224.7470, 22395.00
225.9690, 22175.00
227.1920, 22444.00
228.4140, 22365.00
229.6360, 22208.00
230.8580, 21949.00
232.0800, 22100.00
233.3020, 22221.00
234.5230, 22078.00
235.7440, 22025.00
236.9650, 22034.00
238.1860, 21849.00
239.4070, 21896.00
240.6280, 22018.00
241.8480, 22019.00
243.0680, 22002.00
244.2880, 22088.08
245.5080, 22047.00
246.7280, 22106.00
247.9470, 22111.00
249.1660, 21941.00
250.3860, 22001.00
251.6040, 22030.00
252.8230, 22136.00
254.0420, 22219.00
255.2600, 22020.00
256.4790, 22063.00
257.6970, 22236.00
258.9150, 22447.00
260.1320, 22283.00
261.3500, 22408.00
262.5670, 22275.00
263.7840, 22292.00
265.0010, 22250.00
266.2180, 22385.00
267.4350, 22139.00
268.6510, 22200.00
269.8680, 22365.00
271.0840, 22504.00
272.3000, 22289.00
273.5160, 22464.00
274.7310, 22402.00
275.9470, 22621.00
277.1620, 22935.00
278.3770, 22882.00
279.5920, 22660.00
280.8070, 22960.00
282.0210, 22919.00
283.2360, 22869.00
284.4500, 22882.00
285.6640, 22729.00
286.8780, 22819.00
288.0920, 22835.00
289.3050, 22960.00
290.5180, 23011.00
291.7320, 23183.00
292.9450, 23348.00
294.1570, 23419.00
295.3700, 23363.00
296.5830, 23464.00
297.7950, 23548.00
299.0070, 23907.00
300.2190, 23969.00
301.4310, 24015.00
302.6420, 24490.00
303.8540, 24363.00
305.0650, 24699.00
306.2760, 24955.00
307.4870, 25016.00
308.6980, 25395.00
309.9080, 25818.00
311.1190, 26170.00
312.3290, 26892.00
313.5390, 27257.00
314.7490, 27987.00
315.9580, 28748.00
317.1680, 29361.00
318.3770, 30097.00
319.5860, 31039.00
320.7950, 31764.00
322.0040, 32213.00
323.2130, 32394.00
324.4210, 32695.00
325.6290, 32346.00
326.8380, 31992.00
328.0460, 31527.00
329.2530, 31058.00
330.4610, 30323.00
331.6680, 30024.00
332.8760, 29425.00
334.0830, 28893.00
335.2890, 28668.00
336.4960, 28071.00
337.7030, 27584.00
338.9090, 27221.00
340.1150, 26934.00
341.3210, 26777.00
342.5270, 26828.00
343.7330, 26655.00
344.9380, 26343.00
346.1440, 26518.00
347.3490, 26758.00
348.5540, 26465.00
349.7590, 26735.00
350.9630, 26731.00
352.1680, 27003.00
353.3720, 27004.00
354.5760, 26958.00
355.7800, 26817.00
356.9840, 26858.00
358.1870, 26683.00
359.3910, 26501.00
360.5940, 26315.00
361.7970, 26264.00
363.0000, 26458.00
364.2030, 26397.00
365.4050, 26499.11
366.6080, 26470.00
367.8100, 26630.00
369.0120, 26772.00
370.2140, 26790.00
371.4150, 27128.00
372.6170, 27384.00
373.8180, 27260.00
375.0190, 27332.00
376.2200, 27490.00
377.4210, 27111.00
378.6220, 27111.00
379.8220, 27264.00
381.0230, 27092.00
382.2230, 27339.00
383.4230, 27599.00
384.6220, 27897.00
385.8220, 28416.00
387.0220, 28704.00
388.2210, 29067.00
389.4200, 29579.00
390.6190, 29897.00
391.8180, 30286.00
393.0160, 30192.00
394.2150, 30141.00
395.4130, 29616.00
396.6110, 29171.00
397.8090, 28256.00
399.0060, 27548.00
400.2040, 27031.00
401.4010, 26607.00
402.5980, 26200.00
403.7950, 26016.00
404.9920, 25566.00
406.1890, 25589.00
407.3860, 25793.00
408.5820, 25549.00
409.7780, 25388.00
410.9740, 25322.00
412.1700, 25218.00
413.3650, 25386.00
414.5610, 25236.00
415.7560, 25148.00
416.9510, 25336.00
418.1460, 25112.00
419.3410, 25532.00
420.5360, 25250.00
421.7300, 25244.00
422.9240, 25444.00
424.1180, 25495.00
425.3120, 25322.00
426.5060, 25343.00
427.7000, 25127.00
428.8930, 25363.00
430.0860, 25290.00
431.2790, 25373.00
432.4720, 25328.00
433.6650, 25175.00
434.8580, 25180.00
436.0500, 25114.00
437.2420, 25121.86
438.4340, 25089.00
439.6260, 25226.00
440.8180, 25275.00
442.0090, 25403.00
443.2010, 25264.00
444.3920, 25492.00
445.5830, 25356.00
446.7740, 25191.00
447.9640, 25537.00
449.1550, 25422.00
450.3450, 25523.00
451.5350, 25652.00
452.7250, 25666.00
453.9150, 25781.00
455.1050, 25916.00
456.2940, 26104.00
457.4830, 26129.00
458.6720, 26256.00
459.8610, 26434.00
461.0500, 26652.00
462.2390, 27078.00
463.4270, 27338.00
464.6150, 27694.00
465.8040, 27648.00
466.9910, 27547.00
468.1790, 27460.00
469.3670, 27124.00
470.5540, 26788.00
471.7410, 26716.00
472.9280, 26560.00
474.1150, 26207.00
475.3020, 26205.00
476.4890, 26217.00
477.6750, 26278.00
478.8610, 26079.00
480.0470, 25973.00
481.2330, 26268.00
482.4190, 25937.00
483.6040, 26279.00
484.7900, 26071.00
485.9750, 26171.00
487.1600, 26091.00
488.3450, 26114.17
489.5290, 26266.00
490.7140, 26298.00
491.8980, 26306.00
493.0820, 26576.00
494.2660, 26448.00
495.4500, 26467.00
496.6340, 26755.00
497.8170, 26775.00
499.0010, 26957.00
500.1840, 27037.00
501.3670, 27084.00
502.5500, 27215.00
503.7320, 27217.00
504.9150, 27197.00
506.0970, 27114.00
507.2790, 27197.00
508.4610, 27198.00
509.6430, 27123.00
510.8250, 27145.00
512.0060, 27115.00
513.1870, 27326.00
514.3680, 27558.00
515.5490, 27620.00
516.7300, 27769.97
517.9110, 27964.00
519.0910, 27873.00
520.2710, 27794.00
521.4510, 27694.00
522.6310, 27776.00
523.8110, 27835.00
524.9910, 27865.00
526.1700, 27988.00
527.3490, 27887.00
528.5280, 27823.00
529.7070, 27903.00
530.8860, 27771.00
532.0650, 27910.00
533.2430, 28246.00
534.4210, 28221.00
535.5990, 28480.00
536.7770, 28585.00
537.9550, 28670.43
539.1320, 28857.00
540.3100, 28840.00
541.4870, 28838.00
542.6640, 28844.00
543.8410, 28718.00
545.0170, 28748.00
546.1940, 28687.00
547.3700, 28457.00
548.5470, 28317.00
549.7230, 28465.00
550.8980, 28610.00
552.0740, 28694.00
553.2500, 28741.00
554.4250, 28638.00
555.6000, 28928.00
556.7750, 28807.00
557.9500, 28781.00
559.1250, 28507.00
560.2990, 28496.00
561.4730, 28402.00
562.6480, 28068.00
563.8220, 27913.00
564.9950, 27728.00
566.1690, 27978.00
567.3430, 27594.00
568.5160, 27753.00
569.6890, 27800.00
570.8620, 27736.00
572.0350, 27756.00
573.2070, 27744.80
574.3800, 27862.00
575.5520, 27721.00
576.7240, 27725.00
577.8960, 27708.00
579.0680, 27908.00
580.2400, 27658.00
581.4110, 27862.00
582.5830, 27712.00
583.7540, 27805.00
584.9250, 27812.00
586.0950, 27703.00
587.2660, 27753.00
588.4370, 27838.00
589.6070, 27956.00
590.7770, 28001.00
591.9470, 27733.00
593.1170, 27901.00
594.2860, 27825.00
595.4560, 27998.00
596.6250, 27933.00
597.7940, 27937.00
598.9630, 27926.00
600.1320, 28031.00
601.3000, 28000.00
602.4690, 28026.00
603.6370, 28039.00
604.8050, 27851.00
605.9730, 28189.00
607.1410, 28060.00
608.3090, 28321.00
609.4760, 28088.00
610.6430, 28075.00
611.8100, 28313.00
612.9770, 28319.00
614.1440, 28190.00
615.3110, 28440.00
616.4770, 28392.00
617.6430, 28459.00
618.8090, 28574.00
619.9750, 28100.00
621.1410, 28373.00
622.3070, 28351.00
623.4720, 28451.00
624.6370, 28527.00
625.8020, 28689.00
626.9670, 28730.00
628.1320, 28601.00
629.2970, 28652.00
630.4610, 28727.80
631.6250, 28793.00
632.7890, 28975.50
633.9530, 28960.72
635.1170, 29126.00
636.2810, 28982.00
637.4440, 29131.00
638.6070, 29338.00
639.7700, 29423.00
640.9330, 29701.00
642.0960, 29452.00
643.2590, 29808.00
644.4210, 29799.00
645.5830, 30164.00
646.7450, 30468.00
647.9070, 30497.00
649.0690, 30897.00
650.2310, 31300.00
651.3920, 32231.00
652.5530, 32371.00
653.7140, 33114.00
654.8750, 33341.00
656.0360, 34175.00
657.1970, 34662.00
658.3570, 35058.00
659.5170, 35701.00
660.6770, 36161.00
661.8370, 36558.75
662.9970, 37112.00
664.1570, 37286.00
665.3160, 37765.00
666.4750, 38061.00
667.6340, 38305.00
668.7930, 38047.00
669.9520, 37625.00
671.1110, 36864.00
672.2690, 35795.00
673.4270, 35295.00
674.5850, 34594.00
675.7430, 33776.00
676.9010, 33123.00
678.0590, 32511.00
679.2160, 32094.00
680.3730, 31616.00
681.5300, 31456.00
682.6870, 30874.00
683.8440, 31226.00
685.0010, 30941.00
686.1570, 30786.00
687.3130, 30586.00
688.4690, 30973.00
689.6250, 30442.00
690.7810, 30641.00
691.9370, 30274.00
693.0920, 30230.00
694.2470, 30409.00
695.4020, 30226.00
696.5570, 30197.00
697.7120, 30112.00
698.8670, 30007.00
700.0210, 30296.00
701.1750, 30061.00
702.3290, 30208.00
703.4830, 30206.00
704.6370, 30130.00
705.7910, 30195.00
706.9440, 30367.00
708.0970, 30276.00
709.2510, 30171.00
710.4030, 30373.00
711.5560, 30103.00
712.7090, 30308.00
713.8610, 30314.00
715.0140, 30364.00
716.1660, 30191.00
717.3180, 30160.00
718.4690, 30191.84
719.6210, 30306.00
720.7730, 30317.00
721.9240, 30490.00
723.0750, 30678.00
724.2260, 30524.00
725.3770, 30817.00
726.5270, 30609.00
727.6780, 30730.00
728.8280, 30518.00
729.9780, 30386.00
731.1280, 30442.00
732.2780, 30328.04
733.4280, 30579.00
734.5770, 30299.00
735.7260, 30623.00
736.8760, 30641.00
738.0250, 30618.00
739.1730, 30762.00
740.3220, 30560.00
741.4700, 31021.00
742.6190, 30823.84
743.7670, 30356.00
744.9150, 30763.00
746.0630, 30528.00
747.2100, 30638.00
748.3580, 30737.00
749.5050, 30483.00
750.6520, 30709.00
751.7990, 30775.00
752.9460, 30844.00
754.0930, 30789.00
755.2390, 30789.00
756.3860, 30827.00
757.5320, 30801.00
758.6780, 30857.01
759.8240, 30967.00
760.9690, 30889.00
762.1150, 30889.00
763.2600, 30767.00
764.4060, 30849.00
765.5510, 30864.00
766.6950, 30972.00
767.8400, 30983.00
768.9850, 31064.00
770.1290, 31057.00
771.2730, 31057.92
772.4170, 31105.00
773.5610, 31090.00
774.7050, 31052.00
775.8480, 31214.00
776.9920, 31194.00
778.1350, 31304.00
779.2780, 31195.00
780.4210, 31314.00
781.5640, 31324.00
782.7060, 31132.00
783.8490, 31307.00
784.9910, 31396.00
786.1330, 31336.00
787.2750, 31164.00
788.4170, 31285.00
789.5580, 31438.00
790.7000, 31440.00
791.8410, 31593.00
792.9820, 31626.00
794.1230, 31399.00
795.2640, 31574.00
796.4040, 31718.00
797.5450, 31511.00
798.6850, 31549.00
799.8250, 31750.00
800.9650, 31660.00
802.1050, 31664.00
803.2450, 31666.00
804.3840, 31790.00
805.5230, 32004.00
806.6630, 31844.00
807.8020, 31905.00
808.9400, 31778.00
810.0790, 31767.00
811.2170, 32041.00
812.3560, 31724.00
813.4940, 31933.00
814.6320, 31985.00
815.7700, 31828.00
816.9070, 31872.00
818.0450, 31948.00
819.1820, 31908.07
820.3190, 32093.00
821.4560, 31984.00
822.5930, 32079.00
823.7300, 32164.00
824.8670, 32265.00
826.0030, 32264.00
827.1390, 32324.39
828.2750, 32497.00
829.4110, 32406.00
830.5470, 32279.00
831.6820, 32384.00
832.8180, 32250.00
833.9530, 32440.00
835.0880, 32348.00
836.2230, 32124.00
837.3580, 32457.00
838.4920, 32273.00
839.6270, 32558.00
840.7610, 32394.00
841.8950, 32518.00
843.0290, 32445.00
844.1630, 32586.00
845.2960, 32735.00
846.4300, 32808.00
847.5630, 32866.50
848.6960, 32784.00
849.8290, 32915.00
850.9620, 32788.00
852.0940, 32811.00
853.2270, 32809.00
854.3590, 32832.00
855.4910, 32941.00
856.6230, 33098.00
857.7550, 33073.00
858.8870, 32972.00
860.0180, 32869.00
861.1500, 33073.00
862.2810, 33215.00
863.4120, 32875.00
864.5430, 33005.00
865.6730, 33222.00
866.8040, 32994.00
867.9340, 33314.00
869.0640, 33379.00
870.1940, 33297.00
871.3240, 33530.00
872.4540, 33414.00
873.5830, 33426.00
874.7130, 33265.00
875.8420, 33354.00
876.9710, 33497.00
878.1000, 33436.00
879.2290, 33275.00
880.3570, 33541.00
881.4860, 33746.00
882.6140, 33503.00
883.7420, 33669.00
884.8700, 33661.00
885.9980, 33705.00
887.1250, 33598.00
888.2530, 33850.00
889.3800, 33741.00
890.5070, 33542.00
891.6340, 34067.00
892.7610, 33921.00
893.8880, 33993.00
895.0140, 33821.00
896.1400, 33834.00
897.2670, 33956.00
898.3930, 34110.00
899.5180, 33990.00
900.6440, 34199.00
901.7700, 33970.00
902.8950, 34229.00
904.0200, 34196.00
905.1450, 34397.00
906.2700, 34053.00
907.3950, 34309.00
908.5190, 34036.00
909.6440, 34484.00
910.7680, 34499.00
911.8920, 34336.00
913.0160, 34390.00
914.1400, 34436.00
915.2630, 34377.00
916.3870, 34609.00
917.5100, 34718.00
918.6330, 34690.00
919.7560, 34669.00
920.8790, 35071.00
922.0010, 35036.00
923.1240, 35146.00
924.2460, 35208.00
925.3680, 35328.00
926.4900, 35339.00
927.6120, 35504.00
928.7340, 35488.00
929.8550, 35403.00
930.9760, 35685.00
932.0980, 35448.00
933.2190, 35417.00
934.3390, 35322.00
935.4600, 35445.00
936.5810, 35423.00
937.7010, 35458.94
938.8210, 35506.00
939.9410, 35535.00
941.0610, 35618.00
942.1810, 35634.00
943.3010, 35677.00
944.4200, 35500.00
945.5390, 35624.00
946.6580, 35500.00
947.7770, 35200.00
948.8960, 35189.00
950.0150, 35228.00
951.1330, 35456.00
952.2510, 35623.00
953.3690, 35576.00
954.4870, 35410.00
955.6050, 35224.00
956.7230, 35446.00
957.8400, 35586.00
958.9580, 35433.00
960.0750, 35368.00
961.1920, 35627.00
962.3090, 35544.00
963.4250, 35858.00
964.5420, 35894.00
965.6580, 35898.00
966.7740, 35844.00
967.8900, 35900.97
969.0060, 35921.00
970.1220, 35985.00
971.2380, 36055.00
972.3530, 36145.00
973.4680, 36231.40
974.5830, 36275.00
975.6980, 36430.00
976.8130, 36548.00
977.9280, 36655.00
979.0420, 36880.20
980.1560, 36905.00
981.2710, 37293.00
982.3850, 37587.00
983.4980, 37731.00
984.6120, 37991.00
985.7260, 38467.00
986.8390, 38858.98
987.9520, 39508.00
989.0650, 40061.00
990.1780, 41042.00
991.2910, 41997.00
992.4030, 43558.00
993.5160, 44864.00
994.6280, 46726.00
995.7400, 48518.00
996.8520, 50299.00
997.9640, 52247.00
999.0750, 54246.00
1000.187, 55719.00
1001.298, 56694.00
1002.409, 57511.00
1003.520, 57760.00
1004.631, 57539.00
1005.741, 56306.00
1006.852, 55508.00
1007.962, 53615.00
1009.072, 52243.00
1010.182, 50720.00
1011.292, 49574.00
1012.402, 48005.00
1013.511, 46877.00
1014.621, 45930.00
1015.730, 45127.00
1016.839, 43987.00
1017.948, 43574.00
1019.056, 42763.00
1020.165, 41765.00
1021.273, 41589.00
1022.382, 41193.00
1023.490, 40400.00
1024.598, 40036.00
1025.706, 39791.00
1026.813, 39806.00
1027.921, 39162.00
1029.028, 39072.00
1030.135, 38761.00
1031.242, 38469.00
1032.349, 38572.00
1033.456, 38155.00
1034.562, 38210.00
1035.668, 38103.00
1036.775, 38215.00
1037.881, 38173.00
1038.987, 38116.00
1040.092, 37981.00
1041.198, 37921.00
1042.303, 37836.59
1043.408, 37779.13
1044.514, 37713.00
1045.618, 37705.00
1046.723, 37710.77
1047.828, 37695.22
1048.932, 37778.00
1050.037, 37681.00
1051.141, 37851.00
1052.245, 37946.00
1053.349, 37853.00
1054.452, 37795.00
1055.556, 37541.00
1056.659, 37478.00
1057.762, 37599.00
1058.865, 37530.00
1059.968, 37630.00
1061.071, 37485.00
1062.174, 37736.00
1063.276, 37580.00
1064.378, 37564.00
1065.480, 37675.00
1066.582, 37721.00
1067.684, 37602.00
1068.786, 37577.00
1069.887, 37745.00
1070.988, 37825.00
1072.090, 37583.00
1073.191, 37761.00
1074.291, 37623.00
1075.392, 37829.00
1076.493, 37836.00
1077.593, 37720.00
1078.693, 37758.00
1079.793, 37918.00
1080.893, 37895.00
1081.993, 38022.00
1083.092, 38208.00
1084.192, 38227.00
1085.291, 38149.00
1086.390, 38136.00
1087.489, 38201.00
1088.588, 38206.00
1089.686, 38189.00
1090.785, 38625.00
1091.883, 38474.00
1092.981, 38813.00
1094.079, 38774.00
1095.177, 38668.00
1096.275, 38389.00
1097.373, 38305.00
1098.470, 38236.00
1099.567, 38294.00
1100.664, 38243.86
1101.761, 38258.24
1102.858, 38237.00
1103.954, 38305.00
1105.051, 38274.00
1106.147, 38346.00
1107.243, 38227.00
1108.339, 38216.00
1109.435, 38366.00
1110.531, 38394.00
1111.626, 38221.00
1112.722, 38386.00
1113.817, 38403.00
1114.912, 38406.00
1116.007, 38489.00
1117.101, 38603.16
1118.196, 38734.00
1119.290, 38862.00
1120.385, 39019.00
1121.479, 39047.00
1122.573, 39175.00
1123.666, 39022.00
1124.760, 38966.00
1125.853, 38863.00
1126.947, 38889.00
1128.040, 38840.00
1129.133, 38575.00
1130.226, 38711.00
1131.318, 38684.00
1132.411, 38739.00
1133.503, 38825.00
1134.596, 38767.00
1135.688, 38727.00
1136.780, 38480.00
1137.871, 39034.00
1138.963, 38455.00
1140.054, 38908.00
1141.146, 38629.00
1142.237, 38549.00
1143.328, 38895.00
1144.419, 38653.00
1145.509, 38831.00
1146.600, 38874.00
1147.690, 38982.00
1148.780, 38842.00
1149.870, 38920.00
1150.960, 38859.00
1152.050, 38983.00
1153.139, 39046.00
1154.229, 39112.00
1155.318, 38915.00
1156.407, 39076.00
1157.496, 38817.00
1158.585, 39162.00
1159.674, 39204.00
1160.762, 38945.00
1161.850, 38964.00
1162.939, 39209.00
1164.027, 39014.00
1165.114, 39126.00
1166.202, 39614.00
1167.290, 39322.00
1168.377, 39315.00
1169.464, 39560.00
1170.551, 39194.00
1171.638, 39492.00
1172.725, 39641.00
1173.812, 39317.00
1174.898, 39572.00
1175.984, 39468.00
1177.071, 39556.00
1178.157, 39450.00
1179.242, 39538.00
1180.328, 39480.00
1181.414, 39654.00
1182.499, 39453.00
1183.584, 39638.00
1184.669, 39513.00
1185.754, 39872.00
1186.839, 39529.00
1187.924, 39618.00
1189.008, 39565.00
1190.092, 39703.00
1191.177, 39801.00
1192.260, 39877.00
1193.344, 39761.00
1194.428, 39819.00
1195.512, 39708.00
1196.595, 39862.00
1197.678, 39782.00
1198.761, 40002.00
1199.844, 39998.00
1200.927, 39942.00
1202.009, 39836.00
1203.092, 39931.00
1204.174, 39907.00
1205.256, 39895.00
1206.338, 40069.00
1207.420, 40037.01
1208.502, 40176.00
1209.583, 40125.00
1210.665, 40196.00
1211.746, 40267.00
1212.827, 40178.00
1213.908, 39941.00
1214.988, 40049.00
1216.069, 40070.00
1217.149, 40149.00
1218.230, 40165.00
1219.310, 40272.00
1220.390, 40481.00
1221.470, 40307.00
1222.549, 40281.00
1223.629, 40599.00
1224.708, 40528.00
1225.787, 40546.00
1226.866, 40584.00
1227.945, 40442.00
1229.024, 40544.00
1230.103, 40675.00
1231.181, 40545.00
1232.259, 40645.00
1233.337, 40736.00
1234.415, 40470.00
1235.493, 40713.00
1236.571, 40839.00
1237.648, 40757.00
1238.726, 40566.00
1239.803, 40968.00
1240.880, 40888.00
1241.957, 40834.00
1243.034, 40915.00
1244.110, 40762.50
1245.187, 40655.00
1246.263, 40626.00
1247.339, 40723.00
1248.415, 40835.00
1249.491, 40877.00
1250.566, 41075.00
1251.642, 41021.00
1252.717, 41052.00
1253.793, 40876.00
1254.868, 40751.00
1255.943, 40984.00
1257.017, 41113.00
1258.092, 40770.00
1259.166, 41017.00
1260.241, 41136.00
1261.315, 41190.00
1262.389, 41277.00
1263.462, 41449.00
1264.536, 41404.83
1265.610, 41440.00
1266.683, 41329.00
1267.756, 41298.00
1268.829, 41175.00
1269.902, 41401.00
1270.975, 41464.00
1272.048, 41486.00
1273.120, 41393.00
1274.192, 41681.00
1275.264, 41358.00
1276.336, 41308.00
1277.408, 41577.00
1278.480, 41552.00
1279.551, 41562.00
1280.623, 41652.00
1281.694, 41516.00
1282.765, 41591.00
1283.836, 41646.00
1284.907, 41810.00
1285.977, 41810.00
