##NAMES=Kutnohorite
##RRUFFID=R060473
##IDEAL CHEMISTRY=CaMn^2+^(CO_3_)_2_
##LOCALITY=N'Chwaning II mine, Kalahari manganese field, northern Cape Province, Republic of South Africa
##OWNER=RRUFF
##SOURCE=Michael Scott
##DESCRIPTION=Aggregate of parallel pink colored acicular crystals
##STATUS=The identification of this mineral has been confirmed by X-ray diffraction and chemical analysis
##URL=rruff.info/R060473
##MEASURED CHEMISTRY=Ca_1.00_(Mn^2+^_0.63_Ca_0.35_Mg_0.02_)(CO_3_)_2_
##PIN_ID=L00843
##ORIENTATION=Laser parallel to c* (0 0 1). Fiducial mark perpendicular to laser is parallel to -a [-1 0 0]
102.2900, 23341.00
103.5200, 23357.00
104.7500, 24177.00
105.9810, 24654.00
107.2110, 25164.00
108.4410, 25268.00
109.6700, 24356.00
110.9000, 23583.00
112.1300, 22956.00
113.3590, 23014.00
114.5880, 22767.00
115.8170, 22648.00
117.0460, 22342.00
118.2750, 21726.00
119.5040, 21306.00
120.7320, 21121.00
121.9610, 20914.00
123.1890, 20803.00
124.4170, 20722.00
125.6450, 20349.00
126.8730, 20155.00
128.1010, 19988.00
129.3280, 20385.00
130.5560, 20732.00
131.7830, 20376.00
133.0100, 20188.00
134.2380, 20021.00
135.4640, 19740.00
136.6910, 19936.00
137.9180, 19892.00
139.1440, 20273.00
140.3710, 20232.00
141.5970, 20189.00
142.8230, 20050.00
144.0490, 19953.00
145.2750, 19982.00
146.5000, 20277.00
147.7260, 20412.00
148.9510, 20763.00
150.1770, 21051.00
151.4020, 21168.00
152.6270, 21396.00
153.8520, 21494.00
155.0760, 21929.00
156.3010, 22045.00
157.5250, 21985.00
158.7500, 22169.00
159.9740, 21706.00
161.1980, 21606.00
162.4220, 21359.00
163.6450, 21098.00
164.8690, 20691.00
166.0920, 20715.00
167.3160, 20675.00
168.5390, 20164.00
169.7620, 19905.00
170.9850, 19659.00
172.2080, 19377.16
173.4300, 19248.96
174.6530, 19078.11
175.8750, 18867.27
177.0970, 18495.92
178.3190, 18331.83
179.5410, 18084.68
180.7630, 17926.00
181.9850, 17633.00
183.2060, 17277.00
184.4270, 17272.00
185.6490, 17173.00
186.8700, 17022.00
188.0910, 16693.00
189.3110, 16648.00
190.5320, 16590.00
191.7530, 16426.00
192.9730, 16227.00
194.1930, 16211.00
195.4130, 16504.00
196.6330, 16358.00
197.8530, 16147.00
199.0730, 16154.00
200.2920, 16477.00
201.5120, 16291.00
202.7310, 15718.00
203.9500, 15580.00
205.1690, 15594.00
206.3880, 15655.00
207.6070, 15652.00
208.8250, 15352.00
210.0440, 15221.00
211.2620, 15263.00
212.4800, 15091.00
213.6980, 15091.00
214.9160, 15099.00
216.1340, 15136.00
217.3510, 14993.00
218.5690, 14789.00
219.7860, 14896.00
221.0030, 15208.00
222.2200, 15093.00
223.4370, 14579.00
224.6540, 14665.00
225.8700, 14595.00
227.0870, 14586.00
228.3030, 14682.00
229.5190, 14461.00
230.7350, 14582.00
231.9510, 14645.00
233.1670, 14321.00
234.3820, 14646.00
235.5980, 14475.00
236.8130, 14548.00
238.0280, 14784.00
239.2430, 14816.00
240.4580, 14484.00
241.6730, 14506.00
242.8880, 14438.00
244.1020, 14285.00
245.3160, 14557.00
246.5300, 14583.00
247.7450, 14591.00
248.9580, 14437.00
250.1720, 14610.00
251.3860, 15005.00
252.5990, 14884.00
253.8130, 14942.00
255.0260, 15066.00
256.2390, 15260.00
257.4520, 15553.00
258.6640, 15444.00
259.8770, 15967.00
261.0890, 16075.00
262.3020, 16319.00
263.5140, 16853.00
264.7260, 17248.00
265.9380, 17638.00
267.1500, 18144.00
268.3610, 18793.00
269.5730, 19193.00
270.7840, 19852.00
271.9950, 20323.00
273.2060, 21081.00
274.4170, 21703.00
275.6280, 22800.00
276.8390, 23284.00
278.0490, 23806.00
279.2590, 24520.00
280.4690, 24737.00
281.6800, 25135.00
282.8890, 24971.00
284.0990, 25366.00
285.3090, 25043.00
286.5180, 24405.00
287.7280, 23749.00
288.9370, 23090.00
290.1460, 22400.00
291.3550, 21368.00
292.5630, 20637.00
293.7720, 19850.00
294.9800, 19076.00
296.1890, 18087.00
297.3970, 17335.00
298.6050, 16716.00
299.8130, 16256.00
301.0200, 15640.00
302.2280, 15157.00
303.4360, 14779.00
304.6430, 14430.00
305.8500, 14129.00
307.0570, 13883.00
308.2640, 13345.00
309.4710, 13123.00
310.6770, 12868.00
311.8840, 12870.00
313.0900, 12602.00
314.2960, 12413.00
315.5020, 12361.00
316.7080, 12189.00
317.9140, 12025.00
319.1190, 12007.00
320.3250, 11956.00
321.5300, 11741.00
322.7350, 11700.00
323.9400, 11680.00
325.1450, 11569.00
326.3500, 11595.00
327.5540, 11389.00
328.7580, 11371.00
329.9630, 11116.00
331.1670, 11175.00
332.3710, 11292.00
333.5750, 11127.00
334.7780, 11101.00
335.9820, 10876.00
337.1850, 11034.00
338.3880, 11060.00
339.5920, 10889.00
340.7950, 10799.00
341.9970, 10844.00
343.2000, 10745.00
344.4030, 10704.00
345.6050, 10748.00
346.8070, 10782.00
348.0090, 10781.00
349.2110, 10521.00
350.4130, 10504.00
351.6150, 10459.00
352.8160, 10470.00
354.0170, 10534.00
355.2190, 10598.00
356.4200, 10437.00
357.6210, 10401.00
358.8210, 10373.00
360.0220, 10217.00
361.2220, 10319.00
362.4230, 10182.00
363.6230, 10202.00
364.8230, 10271.00
366.0230, 10219.00
367.2230, 10130.00
368.4220, 10251.00
369.6220, 10150.00
370.8210, 10119.00
372.0200, 10098.00
373.2190, 10138.00
374.4180, 10096.00
375.6170, 10076.00
376.8150, 10176.00
378.0140, 9996.000
379.2120, 9991.000
380.4100, 9917.000
381.6080, 9790.000
382.8060, 10025.00
384.0040, 9848.000
385.2010, 9896.000
386.3980, 9924.000
387.5960, 9904.000
388.7930, 9796.000
389.9900, 9812.000
391.1870, 9763.000
392.3830, 9876.000
393.5800, 9787.000
394.7760, 9750.000
395.9720, 9771.000
397.1680, 9723.000
398.3640, 9750.000
399.5600, 9796.000
400.7560, 9797.000
401.9510, 9612.000
403.1460, 9740.000
404.3420, 9721.000
405.5370, 9628.000
406.7320, 9632.000
407.9260, 9684.000
409.1210, 9769.000
410.3150, 9745.000
411.5100, 9736.000
412.7040, 9753.000
413.8980, 9699.000
415.0920, 9815.000
416.2850, 9741.000
417.4790, 9801.000
418.6720, 9860.000
419.8650, 9599.000
421.0590, 9659.000
422.2510, 9783.000
423.4440, 9618.000
424.6370, 9555.000
425.8290, 9634.000
427.0220, 9654.000
428.2140, 9717.000
429.4060, 9693.000
430.5980, 9579.000
431.7900, 9569.000
432.9810, 9738.000
434.1730, 9610.000
435.3640, 9666.000
436.5550, 9471.000
437.7460, 9578.000
438.9370, 9460.000
440.1280, 9440.000
441.3190, 9447.000
442.5090, 9392.000
443.6990, 9410.000
444.8890, 9378.000
446.0790, 9494.000
447.2690, 9448.000
448.4590, 9421.000
449.6480, 9518.000
450.8380, 9544.000
452.0270, 9597.000
453.2160, 9392.000
454.4050, 9496.000
455.5940, 9517.000
456.7820, 9412.000
457.9710, 9388.000
459.1590, 9423.000
460.3470, 9400.000
461.5350, 9375.000
462.7230, 9458.000
463.9110, 9329.000
465.0990, 9302.000
466.2860, 9299.000
467.4730, 9425.000
468.6600, 9433.000
469.8470, 9391.000
471.0340, 9354.000
472.2210, 9291.000
473.4070, 9309.000
474.5940, 9304.000
475.7800, 9245.000
476.9660, 9265.000
478.1520, 9277.000
479.3380, 9214.000
480.5230, 9222.000
481.7090, 9139.000
482.8940, 9141.000
484.0790, 9107.000
485.2650, 9113.000
486.4490, 9268.000
487.6340, 9284.000
488.8190, 9251.000
490.0030, 9237.000
491.1870, 9289.000
492.3720, 9372.000
493.5550, 9374.000
494.7390, 9217.000
495.9230, 9297.000
497.1060, 9283.000
498.2900, 9240.000
499.4730, 9282.000
500.6560, 9427.000
501.8390, 9322.000
503.0220, 9286.000
504.2040, 9167.000
505.3870, 9084.000
506.5690, 9396.000
507.7510, 9238.000
508.9330, 9226.000
510.1150, 9268.000
511.2970, 9081.000
512.4780, 9308.000
513.6600, 9345.000
514.8410, 9269.000
516.0220, 9344.000
517.2030, 9366.000
518.3840, 9276.000
519.5650, 9317.000
520.7450, 9333.000
521.9250, 9253.000
523.1060, 9350.000
524.2860, 9355.000
525.4660, 9318.000
526.6450, 9220.000
527.8250, 9339.000
529.0040, 9345.000
530.1840, 9314.000
531.3630, 9241.000
532.5420, 9338.000
533.7200, 9361.000
534.8990, 9405.000
536.0780, 9445.000
537.2560, 9270.000
538.4340, 9441.000
539.6120, 9347.000
540.7900, 9244.000
541.9680, 9483.000
543.1460, 9329.000
544.3230, 9149.000
545.5000, 9301.000
546.6770, 9300.000
547.8540, 9263.000
549.0310, 9440.000
550.2080, 9444.000
551.3840, 9475.000
552.5610, 9482.000
553.7370, 9540.000
554.9130, 9428.000
556.0890, 9442.000
557.2650, 9296.000
558.4400, 9512.000
559.6160, 9447.000
560.7910, 9376.000
561.9660, 9515.000
563.1410, 9511.000
564.3160, 9504.000
565.4910, 9440.000
566.6650, 9540.000
567.8400, 9533.000
569.0140, 9363.000
570.1880, 9520.000
571.3620, 9476.000
572.5360, 9336.000
573.7090, 9535.000
574.8830, 9315.000
576.0560, 9442.000
577.2290, 9445.000
578.4020, 9477.000
579.5750, 9461.000
580.7480, 9363.000
581.9200, 9396.000
583.0930, 9418.000
584.2650, 9384.000
585.4370, 9344.000
586.6090, 9382.000
587.7810, 9374.000
588.9520, 9290.000
590.1240, 9233.000
591.2950, 9290.000
592.4660, 9360.000
593.6370, 9412.000
594.8080, 9413.000
595.9790, 9282.000
597.1500, 9344.000
598.3200, 9232.000
599.4900, 9556.000
600.6600, 9429.000
601.8300, 9448.000
603.0000, 9377.000
604.1700, 9295.000
605.3390, 9454.000
606.5080, 9393.000
607.6770, 9393.000
608.8460, 9405.000
610.0150, 9477.000
611.1840, 9435.000
612.3520, 9524.000
613.5210, 9390.000
614.6890, 9499.000
615.8570, 9402.000
617.0250, 9505.000
618.1930, 9359.000
619.3600, 9536.000
620.5280, 9493.000
621.6950, 9410.000
622.8620, 9533.000
624.0290, 9599.000
625.1960, 9563.000
626.3630, 9569.000
627.5290, 9637.000
628.6960, 9531.000
629.8620, 9583.000
631.0280, 9570.000
632.1940, 9463.000
633.3600, 9642.000
634.5250, 9474.000
635.6910, 9454.000
636.8560, 9528.000
638.0210, 9622.000
639.1860, 9684.000
640.3510, 9736.000
641.5150, 9580.000
642.6800, 9616.000
643.8440, 9670.000
645.0080, 9579.000
646.1720, 9675.000
647.3360, 9652.000
648.5000, 9716.000
649.6640, 9725.000
650.8270, 9717.000
651.9900, 9674.000
653.1530, 9637.000
654.3160, 9814.000
655.4790, 9693.000
656.6420, 9601.000
657.8040, 9598.000
658.9660, 9549.000
660.1290, 9699.000
661.2910, 9709.000
662.4520, 9652.000
663.6140, 9641.000
664.7760, 9672.000
665.9370, 9691.000
667.0980, 9757.000
668.2590, 9689.000
669.4200, 9772.000
670.5810, 9638.000
671.7420, 9702.000
672.9020, 9759.000
674.0620, 9684.000
675.2220, 9690.000
676.3820, 9621.000
677.5420, 9753.000
678.7020, 9892.000
679.8610, 9831.000
681.0210, 9824.000
682.1800, 9752.000
683.3390, 9829.000
684.4980, 9798.000
685.6560, 9824.000
686.8150, 9870.000
687.9730, 9846.000
689.1320, 10036.00
690.2900, 9869.000
691.4480, 9900.000
692.6050, 10061.00
693.7630, 10049.00
694.9200, 10034.00
696.0780, 10053.00
697.2350, 10250.00
698.3920, 10292.00
699.5490, 10458.00
700.7050, 10606.00
701.8620, 10733.00
703.0180, 11243.00
704.1740, 11474.00
705.3300, 12075.00
706.4860, 12442.00
707.6420, 12815.00
708.7970, 13485.00
709.9530, 13863.00
711.1080, 14496.00
712.2630, 14846.00
713.4180, 14987.00
714.5730, 15094.00
715.7280, 14625.00
716.8820, 14338.00
718.0360, 13833.00
719.1900, 13102.00
720.3440, 12624.00
721.4980, 12086.00
722.6520, 11826.00
723.8050, 11399.00
724.9590, 11094.00
726.1120, 10809.00
727.2650, 10702.00
728.4180, 10484.00
729.5700, 10425.00
730.7230, 10453.00
731.8750, 10322.00
733.0280, 10491.00
734.1800, 10389.00
735.3320, 10357.00
736.4830, 10461.00
737.6350, 10375.00
738.7860, 10442.00
739.9380, 10348.00
741.0890, 10404.00
742.2400, 10517.00
743.3910, 10485.00
744.5410, 10322.00
745.6920, 10463.00
746.8420, 10392.00
747.9920, 10523.00
749.1420, 10486.00
750.2920, 10513.00
751.4420, 10430.00
752.5910, 10629.00
753.7410, 10368.00
754.8900, 10547.00
756.0390, 10537.00
757.1880, 10562.00
758.3370, 10718.00
759.4850, 10514.00
760.6340, 10596.00
761.7820, 10512.00
762.9300, 10514.00
764.0780, 10646.00
765.2260, 10644.00
766.3730, 10621.00
767.5210, 10647.00
768.6680, 10671.00
769.8150, 10647.00
770.9620, 10717.00
772.1090, 10668.00
773.2560, 10773.00
774.4020, 10853.00
775.5490, 10761.00
776.6950, 10818.00
777.8410, 10772.00
778.9870, 10598.00
780.1330, 10662.00
781.2780, 10713.00
782.4230, 10926.00
783.5690, 10789.00
784.7140, 10743.00
785.8590, 10867.00
787.0030, 10736.00
788.1480, 10766.00
789.2920, 10964.00
790.4370, 10892.00
791.5810, 10930.00
792.7250, 10949.00
793.8690, 10948.00
795.0120, 10963.00
796.1560, 11122.00
797.2990, 10983.00
798.4420, 11040.00
799.5850, 10993.00
800.7280, 11219.00
801.8710, 10985.00
803.0130, 11092.00
804.1550, 11103.00
805.2980, 11157.00
806.4400, 11169.00
807.5810, 11364.00
808.7230, 11190.00
809.8650, 11107.00
811.0060, 11099.00
812.1470, 11253.00
813.2880, 11221.00
814.4290, 11167.00
815.5700, 11191.00
816.7110, 11271.00
817.8510, 11313.00
818.9910, 11337.00
820.1310, 11330.00
821.2710, 11423.00
822.4110, 11484.00
823.5510, 11370.00
824.6900, 11413.00
825.8290, 11438.00
826.9680, 11463.00
828.1070, 11560.00
829.2460, 11474.00
830.3850, 11437.00
831.5230, 11511.00
832.6620, 11530.00
833.8000, 11583.00
834.9380, 11552.00
836.0760, 11583.00
837.2130, 11606.00
838.3510, 11549.00
839.4880, 11732.00
840.6250, 11636.00
841.7620, 11690.00
842.8990, 11776.00
844.0360, 11651.00
845.1720, 11823.00
846.3090, 11753.00
847.4450, 11883.00
848.5810, 11717.00
849.7170, 11905.00
850.8530, 11783.00
851.9880, 11912.00
853.1240, 11994.00
854.2590, 11901.00
855.3940, 11868.00
856.5290, 12027.00
857.6640, 12097.00
858.7980, 12026.00
859.9330, 12112.00
861.0670, 12017.00
862.2010, 12221.00
863.3350, 12050.00
864.4690, 12147.00
865.6030, 12177.00
866.7360, 12364.00
867.8690, 12246.00
869.0020, 12272.00
870.1350, 12334.00
871.2680, 12285.00
872.4010, 12281.00
873.5330, 12340.00
874.6660, 12374.00
875.7980, 12335.00
876.9300, 12283.00
878.0620, 12249.00
879.1930, 12336.00
880.3250, 12432.00
881.4560, 12291.00
882.5870, 12349.00
883.7180, 12422.00
884.8490, 12367.00
885.9800, 12432.00
887.1100, 12303.00
888.2410, 12282.00
889.3710, 12477.00
890.5010, 12508.00
891.6310, 12553.00
892.7610, 12516.00
893.8900, 12557.00
895.0200, 12647.00
896.1490, 12619.00
897.2780, 12713.00
898.4070, 12588.00
899.5360, 12634.00
900.6640, 12814.00
901.7920, 12674.00
902.9210, 12776.00
904.0490, 12702.00
905.1770, 12754.00
906.3040, 12837.00
907.4320, 12839.00
908.5600, 12858.00
909.6870, 12802.00
910.8140, 12874.00
911.9410, 13019.00
913.0680, 13029.00
914.1940, 12915.00
915.3210, 12814.00
916.4470, 13104.00
917.5730, 12927.00
918.6990, 13146.00
919.8250, 12949.00
920.9500, 13042.00
922.0760, 13122.00
923.2010, 13205.00
924.3260, 13088.00
925.4510, 13027.00
926.5760, 13177.00
927.7010, 13225.00
928.8250, 13200.00
929.9500, 13183.00
931.0740, 13322.00
932.1980, 13371.00
933.3220, 13307.00
934.4450, 13282.00
935.5690, 13277.00
936.6920, 13383.00
937.8150, 13466.00
938.9380, 13480.00
940.0610, 13405.00
941.1840, 13325.00
942.3060, 13319.00
943.4290, 13411.00
944.5510, 13475.00
945.6730, 13723.00
946.7950, 13590.00
947.9160, 13692.00
949.0380, 13535.00
950.1590, 13583.00
951.2800, 13682.00
952.4010, 13679.00
953.5220, 13660.00
954.6430, 13773.00
955.7630, 13906.00
956.8840, 13775.00
958.0040, 13890.00
959.1240, 13898.00
960.2440, 13881.00
961.3640, 13886.00
962.4830, 14011.00
963.6030, 13930.00
964.7220, 14008.00
965.8410, 13933.00
966.9600, 14005.00
968.0780, 14080.00
969.1970, 14105.00
970.3150, 14048.00
971.4340, 13995.00
972.5520, 13986.00
973.6700, 14106.00
974.7870, 14096.00
975.9050, 14072.00
977.0220, 14186.00
978.1390, 14121.00
979.2560, 14234.00
980.3730, 14233.00
981.4900, 14392.00
982.6070, 14290.00
983.7230, 14444.00
984.8390, 14385.00
985.9550, 14521.00
987.0710, 14470.00
988.1870, 14589.00
989.3030, 14518.00
990.4180, 14631.00
991.5330, 14709.00
992.6480, 14699.00
993.7630, 14519.00
994.8780, 14719.00
995.9930, 14749.00
997.1070, 14950.00
998.2210, 14976.00
999.3350, 14759.00
1000.449, 15039.00
1001.563, 15089.00
1002.677, 15006.00
1003.790, 14910.00
1004.903, 15074.00
1006.016, 15086.00
1007.129, 14959.00
1008.242, 15080.00
1009.355, 15072.00
1010.467, 15231.00
1011.579, 15106.00
1012.691, 15377.00
1013.803, 15383.00
1014.915, 15313.00
1016.027, 15351.00
1017.138, 15401.00
1018.249, 15377.00
1019.360, 15459.00
1020.471, 15460.00
1021.582, 15546.00
1022.693, 15578.00
1023.803, 15699.00
1024.913, 15594.00
1026.023, 15649.00
1027.133, 15612.00
1028.243, 15635.00
1029.353, 15820.00
1030.462, 15950.00
1031.571, 15742.00
1032.680, 15938.00
1033.789, 15863.00
1034.898, 15938.00
1036.007, 15936.00
1037.115, 16053.00
1038.223, 16198.00
1039.331, 16160.00
1040.439, 16093.00
1041.547, 16241.00
1042.655, 16328.00
1043.762, 16351.00
1044.869, 16389.00
1045.976, 16555.00
1047.083, 16418.00
1048.190, 16476.00
1049.297, 16497.00
1050.403, 16773.00
1051.509, 16696.00
1052.615, 16937.00
1053.721, 16754.00
1054.827, 16951.00
1055.933, 17076.00
1057.038, 16959.00
1058.143, 17358.00
1059.248, 17233.00
1060.353, 17434.00
1061.458, 17456.00
1062.563, 17633.00
1063.667, 17815.00
1064.771, 18098.00
1065.875, 18357.00
1066.979, 18702.00
1068.083, 19287.00
1069.186, 20144.00
1070.290, 21222.00
1071.393, 22753.00
1072.496, 24806.00
1073.599, 27715.00
1074.702, 31481.00
1075.804, 35473.00
1076.907, 40133.00
1078.009, 45142.00
1079.111, 49383.00
1080.213, 52695.00
1081.315, 55592.00
1082.416, 58035.00
1083.517, 60001.00
1084.619, 61671.00
1085.720, 62352.00
1086.821, 61980.00
1087.921, 60333.00
1089.022, 57670.00
1090.122, 53773.00
1091.222, 49029.00
1092.322, 44046.00
1093.422, 39706.00
1094.522, 35355.00
1095.622, 31512.00
1096.721, 28449.00
1097.820, 25646.00
1098.919, 23979.00
1100.018, 22206.00
1101.117, 21108.00
1102.215, 20162.00
1103.314, 19753.00
1104.412, 19216.00
1105.510, 19130.00
1106.608, 18749.00
1107.705, 18793.00
1108.803, 18573.00
1109.900, 18366.00
1110.997, 18450.32
1112.094, 18560.77
1113.191, 18628.77
1114.288, 18656.58
1115.384, 18523.87
1116.481, 18598.44
1117.577, 18589.94
1118.673, 18678.00
1119.769, 18845.00
1120.864, 18562.00
1121.960, 18715.00
1123.055, 18804.00
1124.150, 18722.00
1125.245, 18892.00
1126.340, 18810.00
1127.434, 18749.00
1128.529, 18787.00
1129.623, 18875.00
1130.717, 18690.00
1131.811, 18884.00
1132.905, 19022.00
1133.999, 18892.00
1135.092, 19079.00
1136.185, 18846.00
1137.279, 19092.00
1138.371, 19177.00
1139.464, 19021.00
1140.557, 19140.00
1141.649, 19257.00
1142.742, 19098.00
1143.834, 19192.00
1144.926, 19273.00
1146.017, 19463.00
1147.109, 19200.00
1148.200, 19191.00
1149.292, 19462.00
1150.383, 19563.00
1151.474, 19539.00
1152.564, 19330.00
1153.655, 19634.00
1154.745, 19474.00
1155.835, 19605.00
1156.925, 19586.00
1158.015, 19692.00
1159.105, 19900.00
1160.195, 19739.00
1161.284, 19993.00
1162.373, 19940.00
1163.462, 20044.00
1164.551, 19956.00
1165.640, 20158.00
1166.728, 20043.00
1167.817, 19955.00
1168.905, 20150.00
1169.993, 20372.00
1171.081, 20277.00
1172.168, 20311.00
1173.256, 20432.00
1174.343, 20146.00
1175.430, 20501.00
1176.517, 20458.00
1177.604, 20485.00
1178.691, 20600.00
1179.777, 20507.00
1180.864, 20670.00
1181.950, 20705.00
1183.036, 20702.00
1184.121, 20687.00
1185.207, 20786.00
1186.293, 20754.00
1187.378, 20863.00
1188.463, 21002.00
1189.548, 20947.00
1190.633, 20992.00
1191.717, 20949.00
1192.802, 21119.00
1193.886, 21123.00
1194.970, 21049.00
1196.054, 21166.00
1197.138, 21288.00
1198.221, 21243.00
1199.305, 21478.00
1200.388, 21301.00
1201.471, 21373.00
1202.554, 21488.00
1203.637, 21599.00
1204.719, 21663.00
1205.801, 21403.00
1206.884, 21565.00
1207.966, 21652.00
1209.048, 22057.00
1210.129, 21727.00
1211.211, 21817.00
1212.292, 21980.00
1213.373, 22006.00
1214.454, 22034.00
1215.535, 22132.00
1216.616, 21927.00
1217.696, 22301.00
1218.777, 22298.00
1219.857, 22302.00
1220.937, 22434.00
1222.017, 22536.00
1223.096, 22561.00
1224.176, 22573.00
1225.255, 22527.00
1226.334, 22707.00
1227.413, 22520.00
1228.492, 22661.00
1229.570, 22834.00
1230.649, 22924.00
1231.727, 23073.00
1232.805, 22909.00
1233.883, 22953.00
1234.961, 23040.00
1236.038, 23078.00
1237.116, 23202.00
1238.193, 23151.00
1239.270, 23152.00
1240.347, 23411.00
1241.424, 23374.00
1242.500, 23311.00
1243.577, 23478.00
1244.653, 23554.00
1245.729, 23485.00
1246.805, 23620.00
1247.880, 23724.00
1248.956, 23854.00
1250.031, 23756.00
1251.106, 23780.00
1252.181, 23879.34
1253.256, 24015.76
1254.331, 24109.72
1255.405, 24163.46
1256.480, 24056.73
1257.554, 24157.22
1258.628, 24174.66
1259.701, 24188.65
1260.775, 24318.32
1261.849, 24234.90
1262.922, 24441.00
1263.995, 24584.00
1265.068, 24462.00
1266.141, 24756.00
1267.213, 24883.00
1268.286, 24618.00
1269.358, 24594.00
1270.430, 24848.00
1271.502, 24916.00
1272.573, 25150.00
1273.645, 25188.00
1274.716, 25424.00
1275.788, 25185.00
1276.859, 25211.00
1277.929, 25248.00
