##NAMES=Kyanite
##RRUFFID=R050450
##IDEAL CHEMISTRY=Al_2_OSiO_4_
##LOCALITY=Switzerland
##OWNER=RRUFF
##SOURCE=Marcus Origlieri
##DESCRIPTION=Blue bladed crystals
##STATUS=The identification of this mineral has been confirmed by X-ray diffraction and chemical analysis
##URL=rruff.info/R050450
##MEASURED CHEMISTRY=Al_2.00_OSi_1.00_O_4_
##PIN_ID=M00770
##ORIENTATION=Laser parallel to (0 1 -1). Fiducial mark perpendicular to laser is parallel to -a [-1 0 0]
148.7160, 7575.000
149.9470, 7581.000
151.1780, 7544.000
152.4080, 7554.499
153.6380, 7564.000
154.8690, 7579.000
156.0980, 7650.000
157.3280, 7704.000
158.5580, 7528.000
159.7870, 7464.000
161.0170, 7519.000
162.2460, 7452.000
163.4750, 7580.000
164.7030, 7590.000
165.9320, 7619.000
167.1600, 7626.000
168.3890, 7621.000
169.6170, 7703.000
170.8450, 7721.000
172.0730, 7650.000
173.3000, 7779.000
174.5280, 7843.000
175.7550, 7766.000
176.9820, 7911.000
178.2090, 7850.000
179.4350, 7839.000
180.6620, 7801.000
181.8880, 7750.000
183.1150, 7719.000
184.3410, 7675.000
185.5670, 7612.000
186.7920, 7690.000
188.0180, 7598.000
189.2430, 7599.000
190.4690, 7475.000
191.6940, 7669.000
192.9180, 7680.000
194.1430, 7760.000
195.3680, 7737.000
196.5920, 7842.000
197.8160, 7855.000
199.0400, 7974.000
200.2640, 7979.000
201.4880, 8065.000
202.7110, 8184.000
203.9350, 8249.000
205.1580, 8379.000
206.3810, 8442.000
207.6040, 8534.000
208.8270, 8531.000
210.0490, 8327.000
211.2710, 8285.000
212.4940, 8216.000
213.7160, 8143.322
214.9370, 8027.000
216.1590, 8115.000
217.3810, 8194.000
218.6020, 8268.000
219.8230, 8526.000
221.0440, 8609.000
222.2650, 8773.253
223.4860, 8843.000
224.7060, 9087.000
225.9260, 9322.000
227.1470, 9520.000
228.3670, 9423.000
229.5860, 9264.000
230.8060, 9129.000
232.0260, 8688.000
233.2450, 8484.000
234.4640, 8279.000
235.6830, 8134.000
236.9020, 8206.000
238.1200, 8186.000
239.3390, 8187.000
240.5570, 8212.000
241.7750, 8175.000
242.9930, 8312.000
244.2110, 8328.000
245.4290, 8363.000
246.6460, 8329.000
247.8630, 8340.000
249.0810, 8194.000
250.2980, 8333.000
251.5140, 8253.000
252.7310, 8330.000
253.9470, 8249.000
255.1640, 8072.000
256.3800, 8169.000
257.5960, 8096.000
258.8120, 8010.000
260.0270, 8396.000
261.2430, 8541.000
262.4580, 8380.000
263.6730, 8263.000
264.8880, 8268.000
266.1030, 8202.000
267.3170, 8391.000
268.5320, 8397.000
269.7460, 8822.000
270.9600, 8911.000
272.1740, 9003.000
273.3880, 9046.000
274.6010, 9379.000
275.8150, 9675.000
277.0280, 10097.00
278.2410, 10240.00
279.4540, 10188.00
280.6670, 10122.00
281.8790, 9914.000
283.0920, 9928.000
284.3040, 9830.000
285.5160, 9887.000
286.7280, 10312.00
287.9400, 10468.00
289.1510, 11261.00
290.3630, 12237.00
291.5740, 13431.00
292.7850, 15106.00
293.9960, 16777.00
295.2070, 17437.00
296.4170, 17197.00
297.6280, 18068.00
298.8380, 20761.00
300.0480, 23910.00
301.2580, 25527.00
302.4680, 26145.00
303.6770, 25180.00
304.8870, 22617.00
306.0960, 18962.00
307.3050, 15316.00
308.5140, 12466.00
309.7230, 10893.00
310.9310, 10132.00
312.1400, 9846.000
313.3480, 9688.000
314.5560, 9941.000
315.7640, 10428.00
316.9720, 11295.00
318.1790, 11821.84
319.3870, 13316.00
320.5940, 13613.00
321.8010, 14626.00
323.0080, 16165.00
324.2150, 18023.00
325.4210, 18996.00
326.6280, 19538.00
327.8340, 19032.00
329.0400, 17371.00
330.2460, 15076.00
331.4510, 13141.00
332.6570, 11400.00
333.8620, 10481.00
335.0680, 10291.00
336.2730, 9696.598
337.4780, 9681.439
338.6820, 9787.000
339.8870, 9805.000
341.0910, 9854.819
342.2950, 9999.000
343.5000, 9939.000
344.7030, 9911.000
345.9070, 9910.000
347.1110, 9715.000
348.3140, 9692.000
349.5170, 9803.000
350.7200, 10100.00
351.9230, 10542.00
353.1260, 11265.00
354.3290, 11643.00
355.5310, 12398.30
356.7330, 12485.00
357.9350, 13847.00
359.1370, 14882.00
360.3390, 15628.00
361.5400, 15926.00
362.7420, 15551.00
363.9430, 14805.00
365.1440, 14060.00
366.3450, 13054.00
367.5460, 12635.00
368.7460, 12682.00
369.9470, 13451.00
371.1470, 14140.00
372.3470, 14727.00
373.5470, 15214.00
374.7460, 15762.14
375.9460, 16022.00
377.1450, 16707.00
378.3450, 17199.00
379.5440, 17674.00
380.7430, 17783.00
381.9410, 18748.00
383.1400, 20710.00
384.3380, 22863.00
385.5370, 24504.00
386.7350, 24486.00
387.9320, 23713.00
389.1300, 22940.00
390.3280, 22788.00
391.5250, 22923.00
392.7220, 22535.00
393.9190, 22408.00
395.1160, 21755.00
396.3130, 20777.00
397.5100, 19842.00
398.7060, 18590.00
399.9020, 17897.00
401.0980, 19153.00
402.2940, 21166.00
403.4900, 22996.00
404.6860, 23989.00
405.8810, 23271.00
407.0760, 21889.00
408.2710, 19071.00
409.4660, 16530.00
410.6610, 14532.00
411.8550, 13193.00
413.0500, 12630.00
414.2440, 12173.00
415.4380, 12292.00
416.6320, 12511.00
417.8260, 12967.00
419.0190, 13364.00
420.2130, 13566.00
421.4060, 13412.00
422.5990, 13021.00
423.7920, 12375.00
424.9850, 11901.00
426.1770, 11676.00
427.3700, 12028.00
428.5620, 12452.00
429.7540, 13219.00
430.9460, 14077.00
432.1380, 15422.00
433.3290, 16955.00
434.5210, 17985.00
435.7120, 19491.00
436.9030, 20604.00
438.0940, 21504.00
439.2850, 21323.00
440.4750, 20704.00
441.6660, 19018.00
442.8560, 17261.00
444.0460, 15509.00
445.2360, 14228.00
446.4260, 13685.00
447.6160, 13280.00
448.8050, 13374.00
449.9940, 13164.00
451.1830, 12732.00
452.3720, 12047.00
453.5610, 11398.00
454.7500, 10960.00
455.9380, 10707.00
457.1260, 10590.00
458.3150, 10646.00
459.5020, 10806.00
460.6900, 10833.00
461.8780, 11105.00
463.0650, 11227.00
464.2530, 11550.00
465.4400, 11659.00
466.6270, 11831.00
467.8130, 11855.00
469.0000, 11844.00
470.1870, 11771.00
471.3730, 11919.00
472.5590, 11966.00
473.7450, 12525.00
474.9310, 13204.00
476.1160, 14575.00
477.3020, 16589.00
478.4870, 20022.00
479.6720, 24171.00
480.8570, 27807.00
482.0420, 31498.00
483.2270, 35815.00
484.4110, 41917.00
485.5960, 48167.00
486.7800, 51378.00
487.9640, 51777.00
489.1480, 49155.00
490.3310, 43796.00
491.5150, 37564.00
492.6980, 31604.00
493.8810, 26723.00
495.0640, 23257.00
496.2470, 20727.00
497.4300, 18559.00
498.6120, 16682.00
499.7950, 15263.00
500.9770, 14417.00
502.1590, 13619.00
503.3410, 13332.00
504.5220, 13224.00
505.7040, 13100.00
506.8850, 13201.00
508.0660, 13084.00
509.2470, 13275.00
510.4280, 13299.00
511.6090, 13509.00
512.7890, 13485.00
513.9700, 13240.00
515.1500, 13151.00
516.3300, 12547.00
517.5100, 12106.00
518.6900, 11764.00
519.8690, 11439.00
521.0490, 11143.00
522.2280, 11001.00
523.4070, 10855.00
524.5860, 10729.00
525.7640, 10721.00
526.9430, 10710.00
528.1210, 10678.00
529.3000, 10492.00
530.4780, 10463.00
531.6560, 10432.00
532.8330, 10613.00
534.0110, 10533.00
535.1880, 10645.00
536.3650, 10750.00
537.5430, 10773.00
538.7190, 10804.00
539.8960, 11098.00
541.0730, 11256.00
542.2490, 11368.00
543.4250, 11533.00
544.6020, 11681.00
545.7780, 11689.00
546.9530, 11718.00
548.1290, 11853.00
549.3040, 11676.00
550.4800, 11590.00
551.6550, 11446.00
552.8300, 11563.00
554.0040, 11730.00
555.1790, 12031.00
556.3540, 12512.00
557.5280, 13118.00
558.7020, 13593.00
559.8760, 14295.00
561.0500, 15050.00
562.2230, 15881.00
563.3970, 16580.00
564.5700, 16488.00
565.7430, 16447.00
566.9160, 15850.00
568.0890, 15265.00
569.2620, 14861.00
570.4340, 14759.00
571.6070, 14899.00
572.7790, 15017.00
573.9510, 14961.00
575.1230, 14474.00
576.2940, 13889.00
577.4660, 13316.00
578.6370, 12771.00
579.8080, 12381.00
580.9790, 12232.00
582.1500, 12043.00
583.3210, 12194.00
584.4910, 12067.00
585.6620, 12165.00
586.8320, 12217.00
588.0020, 12132.00
589.1720, 12084.00
590.3410, 11959.94
591.5110, 11721.00
592.6800, 11641.00
593.8500, 11540.00
595.0190, 11392.00
596.1880, 11434.00
597.3560, 11507.00
598.5250, 11424.00
599.6930, 11720.00
600.8620, 11952.00
602.0300, 12146.00
603.1970, 12193.00
604.3650, 12467.00
605.5330, 12610.00
606.7000, 12710.00
607.8680, 12890.00
609.0350, 12547.00
610.2020, 12642.00
611.3680, 12391.00
612.5350, 12338.00
613.7010, 12166.00
614.8680, 12150.00
616.0340, 12303.00
617.2000, 12333.00
618.3660, 12297.00
619.5310, 12270.00
620.6970, 12409.00
621.8620, 12381.00
623.0270, 12194.00
624.1920, 12330.00
625.3570, 12340.00
626.5220, 12528.00
627.6860, 12512.00
628.8500, 12949.00
630.0140, 13178.00
631.1780, 13696.00
632.3420, 14160.00
633.5060, 14467.00
634.6700, 14966.00
635.8330, 15502.00
636.9960, 15856.00
638.1590, 16059.00
639.3220, 15892.00
640.4850, 15728.00
641.6470, 15009.00
642.8100, 14340.00
643.9720, 13726.00
645.1340, 13336.00
646.2960, 13085.00
647.4570, 12985.00
648.6190, 13005.00
649.7800, 12924.00
650.9420, 13295.00
652.1030, 13491.00
653.2640, 13531.00
654.4240, 13877.00
655.5850, 13997.00
656.7450, 14222.00
657.9060, 14266.00
659.0660, 14055.00
660.2260, 13807.00
661.3850, 13560.00
662.5450, 13409.00
663.7040, 13362.00
664.8640, 13107.00
666.0230, 13038.00
667.1820, 13067.00
668.3410, 13212.00
669.4990, 13444.00
670.6580, 13372.00
671.8160, 13350.00
672.9740, 13120.00
674.1320, 13035.00
675.2900, 12841.00
676.4480, 12678.00
677.6050, 12488.00
678.7630, 12257.00
679.9200, 12331.00
681.0770, 12225.00
682.2340, 12038.00
683.3900, 11974.00
684.5470, 11915.95
685.7030, 12020.00
686.8590, 11927.00
688.0150, 11944.00
689.1710, 12076.00
690.3270, 11962.00
691.4830, 11854.00
692.6380, 11893.00
693.7930, 11879.00
694.9480, 11890.00
696.1030, 11861.00
697.2580, 11966.00
698.4130, 12066.00
699.5670, 12027.00
700.7210, 12074.00
701.8750, 12086.00
703.0290, 12032.00
704.1830, 12014.00
705.3370, 12090.00
706.4900, 12052.00
707.6430, 12020.00
708.7970, 12002.00
709.9490, 11964.00
711.1020, 11942.00
712.2550, 11958.00
713.4070, 11957.00
714.5600, 11992.62
715.7120, 12066.00
716.8640, 12106.00
718.0160, 12234.00
719.1670, 12350.00
720.3190, 12446.00
721.4700, 12623.00
722.6210, 12514.00
723.7720, 12722.00
724.9230, 12882.00
726.0740, 12606.00
727.2250, 12677.00
728.3750, 12569.00
729.5250, 12456.00
730.6750, 12382.00
731.8250, 12322.00
732.9750, 12307.00
734.1240, 12251.42
735.2740, 12182.00
736.4230, 12176.00
737.5720, 12248.00
738.7210, 12202.00
739.8700, 12237.00
741.0190, 12162.00
742.1670, 12183.00
743.3150, 12082.00
744.4630, 12124.00
745.6110, 12239.00
746.7590, 12132.00
747.9070, 12195.00
749.0540, 12298.00
750.2020, 12168.00
751.3490, 12263.00
752.4960, 12165.00
753.6430, 12321.00
754.7890, 12194.00
755.9360, 12259.00
757.0820, 12254.00
758.2280, 12340.00
759.3740, 12271.00
760.5200, 12374.00
761.6660, 12452.00
762.8120, 12350.00
763.9570, 12395.00
765.1020, 12399.00
766.2470, 12396.00
767.3920, 12481.00
768.5370, 12458.00
769.6810, 12412.00
770.8260, 12444.00
771.9700, 12498.00
773.1140, 12545.00
774.2580, 12491.00
775.4020, 12298.00
776.5460, 12335.00
777.6890, 12371.00
778.8320, 12461.00
779.9750, 12522.00
781.1180, 12457.00
782.2610, 12334.00
783.4040, 12458.00
784.5460, 12341.00
785.6890, 12432.00
786.8310, 12538.00
787.9730, 12560.00
789.1150, 12509.00
790.2560, 12622.00
791.3980, 12553.00
792.5390, 12729.00
793.6810, 12698.00
794.8220, 12838.00
795.9630, 12827.00
797.1030, 12840.00
798.2440, 12842.00
799.3840, 12979.00
800.5240, 13144.00
801.6650, 13123.00
802.8040, 13161.00
803.9440, 13216.00
805.0840, 13241.00
806.2230, 13230.00
807.3630, 13293.00
808.5020, 13265.00
809.6410, 13266.00
810.7790, 13477.00
811.9180, 13303.00
813.0570, 13406.00
814.1950, 13557.00
815.3330, 13473.00
816.4710, 13466.00
817.6090, 13424.00
818.7470, 13440.00
819.8840, 13518.84
821.0220, 13717.00
822.1590, 13693.00
823.2960, 13846.00
824.4330, 13865.00
825.5690, 13562.00
826.7060, 13792.00
827.8420, 13833.00
828.9790, 13652.00
830.1150, 13892.00
831.2510, 13911.00
832.3860, 13889.00
833.5220, 13952.00
834.6570, 13930.15
835.7930, 13964.14
836.9280, 13916.00
838.0630, 13996.00
839.1980, 13983.00
840.3320, 13947.00
841.4670, 14028.00
842.6010, 14063.00
843.7350, 13964.00
844.8690, 14028.00
846.0030, 14005.00
847.1370, 14043.00
848.2700, 14031.00
849.4040, 14024.00
850.5370, 14076.00
851.6700, 14053.00
852.8030, 14138.00
853.9360, 14166.99
855.0680, 14217.81
856.2000, 14286.00
857.3330, 14338.00
858.4650, 14436.00
859.5970, 14492.00
860.7290, 14603.00
861.8600, 14508.00
862.9920, 14862.00
864.1230, 14873.00
865.2540, 14892.00
866.3850, 15105.00
867.5160, 15173.00
868.6460, 15106.00
869.7770, 15375.00
870.9070, 15447.00
872.0370, 15648.00
873.1670, 15988.00
874.2970, 15976.00
875.4270, 16354.00
876.5570, 16629.00
877.6860, 16974.00
878.8150, 17623.00
879.9440, 18348.00
881.0730, 19025.00
882.2020, 19942.00
883.3300, 21149.00
884.4590, 22303.00
885.5870, 23840.00
886.7150, 24936.00
887.8430, 26825.00
888.9710, 27890.00
890.0990, 29051.00
891.2260, 29757.00
892.3530, 29890.00
893.4810, 29845.00
894.6080, 29907.00
895.7340, 30339.00
896.8610, 30530.00
897.9880, 31086.00
899.1140, 32062.00
900.2400, 32774.00
901.3660, 32788.00
902.4920, 32228.20
903.6180, 31543.00
904.7430, 29727.00
905.8690, 27720.00
906.9940, 25604.00
908.1190, 23767.00
909.2440, 22090.00
910.3690, 20730.00
911.4930, 19770.00
912.6180, 19181.00
913.7420, 18513.00
914.8660, 18098.00
915.9900, 17867.00
917.1140, 17665.00
918.2380, 17462.00
919.3610, 17478.00
920.4850, 17226.00
921.6080, 17161.00
922.7310, 17179.00
923.8540, 17426.00
924.9760, 17199.00
926.0990, 17528.00
927.2210, 17635.00
928.3440, 17851.00
929.4660, 18217.00
930.5880, 18452.00
931.7090, 18906.00
932.8310, 19269.00
933.9520, 19764.00
935.0740, 20347.00
936.1950, 20852.00
937.3160, 21412.99
938.4360, 22036.00
939.5570, 22562.00
940.6780, 23205.56
941.7980, 23855.00
942.9180, 24465.00
944.0380, 24930.00
945.1580, 25637.00
946.2780, 26063.00
947.3970, 26639.00
948.5170, 26882.00
949.6360, 26997.00
950.7550, 27417.00
951.8740, 27488.00
952.9930, 28009.00
954.1110, 28126.00
955.2300, 28476.00
956.3480, 28695.00
957.4660, 29270.00
958.5840, 29303.00
959.7020, 29595.00
960.8190, 30108.00
961.9370, 30055.00
963.0540, 29462.00
964.1710, 28965.00
965.2880, 27928.00
966.4050, 26517.00
967.5220, 25346.00
968.6380, 24129.00
969.7550, 22784.00
970.8710, 21767.00
971.9870, 20910.00
973.1030, 19944.00
974.2190, 19593.00
975.3340, 18972.00
976.4500, 18533.00
977.5650, 17990.00
978.6800, 17811.00
979.7950, 17431.00
980.9100, 17220.00
982.0250, 17057.00
983.1390, 16753.00
984.2530, 16689.00
985.3680, 16625.00
986.4820, 16458.00
987.5950, 16627.00
988.7090, 16415.00
989.8230, 16387.00
990.9360, 16528.00
992.0490, 16432.00
993.1620, 16536.00
994.2750, 16698.00
995.3880, 16855.00
996.5010, 16973.00
997.6130, 17230.00
998.7250, 17676.00
999.8370, 17894.00
1000.949, 18056.00
1002.061, 17940.00
1003.173, 18003.00
1004.284, 17621.00
1005.396, 17463.00
1006.507, 17122.00
1007.618, 16725.00
1008.729, 16667.00
1009.839, 16285.00
1010.950, 16276.00
1012.060, 16254.00
1013.171, 16003.00
1014.281, 16016.00
1015.391, 16009.00
1016.500, 15901.00
1017.610, 15897.00
1018.719, 15814.00
1019.829, 15892.00
1020.938, 15867.00
1022.047, 15861.00
1023.156, 15862.00
1024.264, 15760.00
1025.373, 15886.00
1026.481, 15829.00
1027.589, 15707.00
1028.697, 15824.00
1029.805, 15599.00
1030.913, 15712.00
1032.020, 15788.00
1033.128, 15758.00
1034.235, 15706.00
1035.342, 15704.00
1036.449, 15752.00
1037.556, 15715.00
1038.663, 15775.00
1039.769, 15772.48
1040.875, 15856.00
1041.981, 15799.00
1043.087, 15835.00
1044.193, 15867.00
1045.299, 15816.00
1046.404, 15810.00
1047.510, 15837.00
1048.615, 15875.00
1049.720, 15912.00
1050.825, 15935.00
1051.930, 15829.00
1053.034, 15939.00
1054.139, 15894.00
1055.243, 15929.00
1056.347, 15997.00
1057.451, 15841.00
1058.555, 16025.00
1059.658, 15861.00
1060.762, 15889.00
1061.865, 16020.00
1062.968, 16026.00
1064.071, 16151.00
1065.174, 16166.00
1066.277, 15997.00
1067.380, 16042.00
1068.482, 15966.00
1069.584, 16133.00
1070.686, 16001.00
1071.788, 16253.00
1072.890, 16154.00
1073.992, 16093.00
1075.093, 16207.00
1076.194, 16215.00
1077.295, 16394.00
1078.396, 16359.00
1079.497, 16433.29
1080.598, 16220.00
1081.698, 16498.00
1082.799, 16424.00
1083.899, 16419.00
1084.999, 16513.00
1086.099, 16505.00
1087.199, 16524.00
1088.298, 16504.00
1089.398, 16555.00
1090.497, 16357.00
1091.596, 16508.00
1092.695, 16535.00
1093.794, 16377.00
1094.892, 16497.00
1095.991, 16435.00
1097.089, 16506.00
1098.187, 16497.00
1099.285, 16614.00
1100.383, 16568.00
1101.481, 16585.00
1102.579, 16587.00
1103.676, 16690.00
1104.773, 16769.00
1105.870, 16844.00
1106.967, 16874.00
1108.064, 17141.00
1109.161, 17261.00
1110.257, 17317.00
1111.353, 17505.00
1112.449, 17565.00
1113.545, 17648.00
1114.641, 17670.00
1115.737, 17546.00
1116.832, 17414.00
1117.928, 17457.00
1119.023, 17351.00
1120.118, 17056.00
1121.213, 17210.00
1122.308, 17172.00
1123.402, 17077.00
1124.497, 17163.00
1125.591, 17113.00
1126.685, 17142.00
1127.779, 17093.00
1128.873, 16933.00
1129.967, 16847.00
1131.060, 17199.00
1132.153, 17262.00
1133.247, 16927.00
1134.340, 17284.00
1135.433, 17230.00
1136.525, 17026.00
1137.618, 17050.00
1138.710, 17142.00
1139.802, 17181.00
1140.895, 17179.00
1141.987, 17282.00
1143.078, 17096.00
1144.170, 17221.00
1145.261, 17179.00
1146.353, 17286.00
1147.444, 17301.00
1148.535, 17278.00
1149.626, 17243.00
1150.716, 17271.43
1151.807, 17206.00
1152.897, 17304.00
1153.988, 17421.00
1155.078, 17439.00
1156.168, 17562.00
1157.257, 17456.00
1158.347, 17591.00
1159.436, 17651.00
1160.526, 17592.00
1161.615, 17652.00
1162.704, 17707.00
1163.793, 17459.00
1164.881, 17495.00
1165.970, 17436.00
1167.058, 17459.00
1168.147, 17417.00
1169.235, 17553.00
1170.323, 17513.00
1171.410, 17645.00
1172.498, 17628.00
1173.585, 17561.00
1174.673, 17838.00
1175.760, 17755.00
1176.847, 17751.65
1177.934, 17843.64
1179.020, 17900.57
1180.107, 17924.34
1181.193, 17815.58
1182.279, 17877.93
1183.365, 17871.71
1184.451, 17862.68
1185.537, 17949.12
1186.623, 17859.64
1187.708, 17944.56
1188.793, 17959.85
1189.878, 18007.01
1190.963, 17985.17
1192.048, 17984.64
1193.133, 18053.13
1194.217, 18083.40
1195.302, 18053.62
1196.386, 18102.79
1197.470, 18010.87
1198.554, 18042.76
1199.638, 18035.18
1200.721, 18097.00
1201.805, 18062.00
1202.888, 18124.00
1203.971, 18125.00
1205.054, 18170.00
1206.137, 18223.00
1207.219, 18056.00
1208.302, 18001.00
1209.384, 18172.00
1210.466, 18090.00
1211.548, 18217.00
1212.630, 18222.00
1213.712, 18231.00
1214.794, 18505.00
1215.875, 18631.00
1216.956, 18626.00
1218.037, 18561.00
1219.118, 18708.00
1220.199, 18600.00
1221.280, 18900.00
1222.360, 18979.00
1223.441, 18739.00
1224.521, 18974.00
1225.601, 18973.00
1226.681, 18879.00
1227.760, 19046.00
1228.840, 19097.00
1229.919, 19052.00
1230.999, 19330.00
1232.078, 19246.00
1233.157, 19113.00
1234.236, 19320.00
1235.314, 19010.00
1236.393, 19185.00
1237.471, 19088.00
1238.549, 19081.00
1239.627, 19200.00
1240.705, 19105.00
1241.783, 19039.00
1242.860, 19211.00
1243.938, 19210.00
1245.015, 19249.00
1246.092, 19271.00
1247.169, 19359.00
1248.246, 19422.00
1249.323, 19396.00
1250.399, 19524.00
1251.475, 19672.00
1252.552, 19461.00
1253.628, 19638.00
1254.703, 19444.00
1255.779, 19413.00
1256.855, 19535.00
1257.930, 19607.00
1259.005, 19688.00
1260.080, 19627.00
1261.155, 19682.00
1262.230, 19492.00
1263.305, 19559.00
1264.379, 19474.00
1265.454, 19580.00
1266.528, 19220.00
1267.602, 19321.00
1268.676, 19317.00
1269.750, 19348.00
1270.823, 19510.00
1271.897, 19482.00
1272.970, 19396.00
1274.043, 19316.00
1275.116, 19194.00
1276.189, 19451.00
1277.261, 19306.00
1278.334, 19441.00
1279.406, 19445.00
1280.478, 19417.00
1281.550, 19355.00
1282.622, 19447.00
1283.694, 19394.00
1284.766, 19545.00
1285.837, 19504.00
1286.908, 19728.00
1287.979, 19698.00
1289.050, 19786.00
1290.121, 19696.00
1291.192, 19645.00
1292.262, 19821.00
1293.333, 19944.00
1294.403, 19764.00
1295.473, 19916.00
1296.543, 20005.00
1297.613, 19960.00
1298.682, 19970.00
1299.752, 20046.00
1300.821, 19969.00
1301.890, 20065.00
1302.959, 19992.00
1304.028, 20116.00
1305.096, 19966.00
1306.165, 20220.00
1307.233, 19977.00
1308.301, 19973.00
1309.370, 19765.00
1310.437, 20114.00
1311.505, 20065.00
1312.573, 20191.00
1313.640, 20105.00
1314.708, 20150.00
1315.775, 20049.00
1316.842, 20110.00
1317.908, 20063.00
1318.975, 20031.00
1320.042, 20145.00
1321.108, 19951.00
1322.174, 20205.00
1323.240, 20083.00
1324.306, 20237.00
1325.372, 20007.00
1326.438, 20222.00
