##NAMES=Kyanite
##RRUFFID=R040119
##IDEAL CHEMISTRY=Al_2_OSiO_4_
##LOCALITY=Rutherford County, North Carolina, USA
##OWNER=RRUFF
##SOURCE=University of Arizona Mineral Museum
##DESCRIPTION=Blue bladed crystal
##STATUS=The identification of this mineral has been confirmed by X-ray diffraction and chemical analysis
##URL=rruff.info/R040119
##MEASURED CHEMISTRY=(Al_0.99_Fe^3+^_0.01_)_2_OSi_1.00_O_4_
##PIN_ID=L00051
##ORIENTATION=Laser parallel to b* (0 1 0). Fiducial mark perpendicular to laser is parallel to -c [0 0 -1]
67.28100, 52862.00
68.52100, 52707.00
69.76100, 52945.00
71.00100, 53987.00
72.24000, 54795.00
73.47900, 55853.00
74.71800, 56091.00
75.95700, 55858.00
77.19600, 55281.00
78.43500, 55377.00
79.67300, 55145.00
80.91200, 55026.00
82.15000, 54814.00
83.38800, 54459.00
84.62600, 54174.11
85.86300, 53842.14
87.10100, 53550.00
88.33800, 53298.00
89.57500, 53279.00
90.81200, 53372.00
92.04900, 53613.00
93.28600, 53101.00
94.52300, 53586.00
95.75900, 52934.00
96.99500, 52860.00
98.23100, 52945.00
99.46700, 53533.00
100.7030, 54134.00
101.9390, 54293.00
103.1740, 54973.00
104.4090, 55407.00
105.6440, 56073.00
106.8790, 55680.00
108.1140, 54758.00
109.3490, 54867.00
110.5830, 54581.00
111.8180, 55054.00
113.0520, 55128.00
114.2860, 55426.00
115.5200, 55746.00
116.7530, 55383.00
117.9870, 55567.00
119.2200, 55381.00
120.4530, 55084.00
121.6860, 54984.12
122.9190, 54605.19
124.1520, 54487.00
125.3850, 54056.00
126.6170, 53813.00
127.8490, 53885.00
129.0810, 54685.00
130.3130, 54374.00
131.5450, 54358.00
132.7770, 54239.00
134.0080, 54190.00
135.2390, 54149.00
136.4710, 54455.00
137.7020, 54759.00
138.9320, 54499.00
140.1630, 54791.00
141.3930, 54827.30
142.6240, 55009.00
143.8540, 54960.00
145.0840, 55256.00
146.3140, 55238.00
147.5440, 55000.00
148.7730, 55357.00
150.0020, 55527.00
151.2320, 55532.00
152.4610, 55345.00
153.6900, 55545.00
154.9180, 55329.00
156.1470, 56382.00
157.3750, 55880.00
158.6040, 55938.00
159.8320, 56161.00
161.0600, 55932.00
162.2870, 55518.00
163.5150, 56041.00
164.7420, 55788.21
165.9700, 56092.00
167.1970, 55964.00
168.4240, 55903.00
169.6510, 56132.00
170.8770, 56529.00
172.1040, 56354.00
173.3300, 56532.00
174.5560, 56369.00
175.7820, 56393.00
177.0080, 56312.00
178.2340, 56626.00
179.4590, 57101.00
180.6850, 56721.00
181.9100, 57198.00
183.1350, 56343.00
184.3600, 56811.00
185.5850, 56889.00
186.8090, 56428.00
188.0340, 56914.00
189.2580, 56975.00
190.4820, 56949.00
191.7060, 57317.00
192.9300, 56958.00
194.1530, 57068.00
195.3770, 57099.00
196.6000, 57048.00
197.8230, 57541.00
199.0460, 57412.00
200.2690, 57540.00
201.4910, 57761.00
202.7140, 57588.00
203.9360, 57555.00
205.1580, 57319.00
206.3800, 57703.00
207.6020, 57997.00
208.8240, 58141.00
210.0450, 57943.00
211.2670, 57844.00
212.4880, 57952.00
213.7090, 57952.00
214.9300, 58140.48
216.1510, 57992.00
217.3710, 58553.00
218.5920, 59073.00
219.8120, 59212.00
221.0320, 59196.00
222.2520, 59502.00
223.4720, 59800.00
224.6910, 60234.00
225.9110, 60410.00
227.1300, 60384.00
228.3490, 59906.00
229.5680, 59762.00
230.7870, 59111.00
232.0050, 59339.00
233.2240, 59126.00
234.4420, 58950.00
235.6600, 58917.00
236.8780, 59064.00
238.0960, 59617.00
239.3140, 59355.00
240.5310, 59489.00
241.7490, 59391.00
242.9660, 59476.00
244.1830, 59652.00
245.4000, 59822.00
246.6160, 59895.00
247.8330, 59745.00
249.0490, 59730.00
250.2660, 59794.62
251.4820, 59851.00
252.6980, 59934.00
253.9130, 60199.00
255.1290, 60295.00
256.3440, 60651.00
257.5600, 60201.00
258.7750, 60182.00
259.9900, 59547.00
261.2040, 59835.00
262.4190, 59912.00
263.6330, 60193.00
264.8480, 60458.00
266.0620, 60501.00
267.2760, 60898.00
268.4900, 60927.00
269.7030, 61506.00
270.9170, 62261.00
272.1300, 62805.00
273.3430, 63874.00
274.5560, 64655.00
275.7690, 65707.00
276.9820, 66759.00
278.1940, 67522.00
279.4070, 67003.00
280.6190, 65772.00
281.8310, 64943.00
283.0430, 64476.00
284.2550, 64431.00
285.4660, 65211.00
286.6770, 66259.00
287.8890, 67760.00
289.1000, 69432.00
290.3110, 71432.00
291.5210, 73549.00
292.7320, 74800.00
293.9420, 76103.00
295.1530, 77833.00
296.3630, 80581.00
297.5730, 83516.00
298.7830, 88009.00
299.9920, 93759.00
301.2020, 96510.00
302.4110, 94054.00
303.6200, 86924.00
304.8290, 79248.00
306.0380, 72517.00
307.2470, 68369.00
308.4550, 66253.00
309.6630, 65162.00
310.8720, 64560.00
312.0800, 64429.00
313.2880, 65292.00
314.4950, 65607.00
315.7030, 66718.00
316.9100, 67215.00
318.1170, 68620.00
319.3240, 70290.00
320.5310, 72599.00
321.7380, 74226.00
322.9450, 77211.00
324.1510, 80535.00
325.3570, 82408.00
326.5630, 81095.00
327.7690, 77550.00
328.9750, 73002.00
330.1810, 69254.00
331.3860, 66896.00
332.5910, 65600.00
333.7960, 64981.00
335.0010, 64541.00
336.2060, 64531.00
337.4110, 64802.00
338.6150, 65267.00
339.8200, 65183.00
341.0240, 65780.00
342.2280, 66033.00
343.4320, 65484.00
344.6350, 65130.00
345.8390, 65073.00
347.0420, 65446.00
348.2450, 66002.00
349.4480, 66712.61
350.6510, 67205.00
351.8540, 68984.00
353.0560, 70112.00
354.2590, 71995.00
355.4610, 74061.00
356.6630, 77292.00
357.8650, 80247.00
359.0670, 84085.00
360.2680, 85539.00
361.4700, 84345.00
362.6710, 80169.00
363.8720, 75155.00
365.0730, 71508.00
366.2740, 69654.00
367.4740, 69507.00
368.6750, 68791.00
369.8750, 69290.00
371.0750, 69487.00
372.2750, 70538.00
373.4750, 71453.00
374.6740, 72851.00
375.8740, 74413.00
377.0730, 76027.00
378.2720, 78183.00
379.4710, 80455.00
380.6700, 82832.00
381.8690, 85419.00
383.0670, 88936.00
384.2660, 91906.00
385.4640, 93197.00
386.6620, 91334.00
387.8600, 88737.00
389.0570, 86869.00
390.2550, 86116.00
391.4520, 86964.00
392.6490, 87694.00
393.8460, 85597.00
395.0430, 83701.00
396.2400, 80848.00
397.4370, 80391.00
398.6330, 81938.00
399.8290, 84923.00
401.0250, 88755.00
402.2210, 92775.00
403.4170, 96897.00
404.6130, 96168.00
405.8080, 92451.00
407.0030, 86781.00
408.1980, 80757.00
409.3930, 76649.00
410.5880, 73952.00
411.7830, 72702.00
412.9770, 71553.00
414.1720, 72192.00
415.3660, 72124.00
416.5600, 72559.00
417.7530, 73090.00
418.9470, 73887.00
420.1410, 73887.00
421.3340, 73051.00
422.5270, 73008.00
423.7200, 72250.00
424.9130, 72993.00
426.1060, 73592.00
427.2980, 74742.00
428.4900, 76752.00
429.6830, 78564.00
430.8750, 81727.00
432.0670, 85282.00
433.2580, 89328.00
434.4500, 93001.00
435.6410, 97060.00
436.8320, 98729.00
438.0240, 98731.00
439.2140, 96210.00
440.4050, 91440.00
441.5960, 86947.00
442.7860, 82602.00
443.9760, 80200.00
445.1670, 78797.00
446.3560, 78092.00
447.5460, 78786.00
448.7360, 78088.00
449.9250, 76939.00
451.1150, 74689.00
452.3040, 73352.00
453.4930, 72049.00
454.6810, 71656.00
455.8700, 71325.00
457.0590, 70876.00
458.2470, 70370.00
459.4350, 70225.00
460.6230, 70776.00
461.8110, 70536.00
462.9980, 71059.00
464.1860, 71579.00
465.3730, 71280.00
466.5600, 71662.00
467.7470, 72191.00
468.9340, 72367.00
470.1210, 73127.00
471.3080, 73779.00
472.4940, 74602.00
473.6800, 75882.00
474.8660, 77892.00
476.0520, 80543.00
477.2380, 84182.00
478.4230, 88317.00
479.6090, 93475.00
480.7940, 99986.00
481.9790, 107445.0
483.1640, 115930.0
484.3490, 124824.0
485.5330, 132067.0
486.7180, 133418.0
487.9020, 127443.0
489.0860, 116744.0
490.2700, 105712.0
491.4540, 96536.00
492.6370, 90627.00
493.8210, 86080.00
495.0040, 83353.00
496.1870, 80792.00
497.3700, 78488.00
498.5530, 77255.00
499.7360, 76592.00
500.9180, 75610.00
502.1000, 75011.00
503.2830, 75099.00
504.4650, 74878.00
505.6460, 74975.00
506.8280, 74858.00
508.0100, 75112.00
509.1910, 74856.00
510.3720, 75161.00
511.5530, 75423.00
512.7340, 75166.00
513.9150, 74704.00
515.0950, 74507.00
516.2760, 74345.00
517.4560, 73947.00
518.6360, 73684.00
519.8160, 73513.00
520.9950, 73225.00
522.1750, 73546.00
523.3540, 72977.00
524.5340, 73419.00
525.7130, 73051.00
526.8920, 73364.00
528.0700, 73406.00
529.2490, 73252.00
530.4270, 73326.00
531.6060, 73342.00
532.7840, 73615.00
533.9620, 73248.00
535.1390, 73535.00
536.3170, 73664.00
537.4940, 73464.00
538.6720, 73635.00
539.8490, 73751.00
541.0260, 74219.00
542.2030, 74048.00
543.3790, 74718.00
544.5560, 74138.00
545.7320, 74790.00
546.9080, 74500.00
548.0840, 75008.00
549.2600, 74702.00
550.4360, 74822.00
551.6110, 75703.00
552.7860, 76083.00
553.9620, 76759.00
555.1370, 78601.00
556.3110, 79713.00
557.4860, 80616.00
558.6610, 82607.00
559.8350, 84483.00
561.0090, 87000.00
562.1830, 88404.00
563.3570, 88640.00
564.5310, 86649.00
565.7040, 84276.00
566.8780, 81622.00
568.0510, 79636.00
569.2240, 78048.00
570.3970, 77583.00
571.5700, 76873.00
572.7420, 76815.00
573.9150, 76222.00
575.0870, 76448.00
576.2590, 76323.00
577.4310, 76061.00
578.6030, 76085.00
579.7740, 76252.00
580.9460, 76490.00
582.1170, 76349.00
583.2880, 76479.00
584.4590, 76600.00
585.6300, 76712.00
586.8010, 76637.00
587.9710, 76655.00
589.1410, 76964.00
590.3110, 76918.00
591.4810, 76819.00
592.6510, 76979.00
593.8210, 77379.62
594.9900, 78383.00
596.1600, 78615.00
597.3290, 79708.00
598.4980, 80696.00
599.6670, 81218.00
600.8350, 83331.00
602.0040, 84106.00
603.1720, 85604.00
604.3400, 87180.00
605.5080, 88047.00
606.6760, 88570.00
607.8440, 87655.00
609.0120, 86036.00
610.1790, 85127.00
611.3460, 83511.00
612.5130, 82747.00
613.6800, 82430.00
614.8470, 82150.00
616.0130, 82087.00
617.1800, 82002.00
618.3460, 82448.00
619.5120, 82979.00
620.6780, 82676.00
621.8440, 82502.00
623.0090, 82130.00
624.1750, 82970.00
625.3400, 82965.00
626.5050, 83815.00
627.6700, 83709.00
628.8350, 84341.00
629.9990, 84278.00
631.1640, 83919.00
632.3280, 83415.00
633.4920, 82915.00
634.6560, 82652.41
635.8200, 82048.00
636.9840, 82019.00
638.1470, 81584.00
639.3100, 81092.00
640.4730, 81179.00
641.6360, 80491.00
642.7990, 80241.00
643.9620, 79848.00
645.1240, 79741.00
646.2870, 79803.00
647.4490, 79369.00
648.6110, 79505.00
649.7730, 79757.00
650.9340, 80003.00
652.0960, 80096.00
653.2570, 79784.00
654.4180, 80047.00
655.5790, 80109.00
656.7400, 79593.00
657.9010, 79939.00
659.0620, 80005.00
660.2220, 80091.00
661.3820, 80295.00
662.5420, 80105.00
663.7020, 79909.00
664.8620, 79964.00
666.0210, 79875.00
667.1810, 79904.46
668.3400, 80161.00
669.4990, 80149.00
670.6580, 80261.00
671.8170, 80669.00
672.9750, 80534.00
674.1340, 80515.00
675.2920, 80607.00
676.4500, 80427.00
677.6080, 80464.00
678.7660, 80591.00
679.9230, 80455.52
681.0810, 80434.84
682.2380, 80355.00
683.3950, 80260.00
684.5520, 80212.00
685.7090, 80211.00
686.8660, 80599.00
688.0220, 80495.00
689.1780, 80789.00
690.3340, 80323.00
691.4900, 81000.00
692.6460, 80734.00
693.8020, 80722.00
694.9570, 81040.00
696.1130, 80972.00
697.2680, 81175.00
698.4230, 80986.00
699.5780, 81425.00
700.7320, 81829.00
701.8870, 81657.00
703.0410, 81876.00
704.1950, 82093.00
705.3490, 82433.00
706.5030, 82316.00
707.6570, 82540.00
708.8110, 82097.00
709.9640, 81669.00
711.1170, 81970.00
712.2700, 82023.00
713.4230, 81897.00
714.5760, 81712.00
715.7280, 81718.00
716.8810, 81654.77
718.0330, 81758.00
719.1850, 81710.00
720.3370, 81903.00
721.4890, 82051.00
722.6400, 82018.81
723.7920, 82093.00
724.9430, 82044.00
726.0940, 82064.00
727.2450, 82119.00
728.3960, 82350.00
729.5460, 82397.00
730.6970, 82339.00
731.8470, 82704.00
732.9970, 82469.00
734.1470, 82538.00
735.2970, 82706.00
736.4460, 82589.00
737.5960, 82977.00
738.7450, 83501.00
739.8940, 83346.00
741.0430, 82989.00
742.1920, 83416.00
743.3410, 82895.00
744.4890, 83285.00
745.6370, 83240.00
746.7850, 83279.00
747.9330, 83363.00
749.0810, 83408.06
750.2290, 83740.00
751.3760, 83472.00
752.5240, 83726.00
753.6710, 83521.00
754.8180, 83797.00
755.9650, 83512.00
757.1110, 83525.00
758.2580, 83910.00
759.4040, 83393.00
760.5510, 83778.00
761.6970, 83778.00
762.8420, 84055.00
763.9880, 83520.00
765.1340, 83738.00
766.2790, 83863.00
767.4240, 84003.00
768.5690, 83336.00
769.7140, 83903.00
770.8590, 83696.00
772.0030, 83899.00
773.1480, 84027.00
774.2920, 83764.00
775.4360, 84049.00
776.5800, 84265.00
777.7240, 84389.00
778.8670, 84290.00
780.0110, 84571.00
781.1540, 84339.00
782.2970, 84260.00
783.4400, 84273.00
784.5830, 84845.00
785.7250, 84424.00
786.8680, 85013.00
788.0100, 84555.00
789.1520, 84760.00
790.2940, 85050.00
791.4360, 84948.00
792.5780, 85072.00
793.7190, 85332.00
794.8600, 85101.00
796.0010, 85608.00
797.1420, 85186.00
798.2830, 85596.00
799.4240, 85102.00
800.5640, 85241.00
801.7050, 85348.00
802.8450, 86012.00
803.9850, 85746.00
805.1250, 85918.00
806.2640, 85958.00
807.4040, 86215.00
808.5430, 86298.00
809.6820, 86282.00
810.8210, 86325.00
811.9600, 86593.00
813.0990, 86256.00
814.2370, 86422.00
815.3760, 86331.00
816.5140, 86679.00
817.6520, 86669.00
818.7900, 86741.00
819.9270, 86675.00
821.0650, 86956.00
822.2020, 86588.00
823.3390, 87136.00
824.4760, 86907.00
825.6130, 86836.00
826.7500, 87465.00
827.8870, 87515.00
829.0230, 86946.00
830.1590, 87895.00
831.2950, 87612.00
832.4310, 87416.00
833.5670, 87389.00
834.7030, 87612.00
835.8380, 87578.00
836.9730, 88189.00
838.1080, 87720.00
839.2430, 88362.00
840.3780, 88312.00
841.5130, 88345.00
842.6470, 87964.00
843.7810, 88151.00
844.9150, 88208.00
846.0490, 88314.00
847.1830, 88412.00
848.3170, 88345.00
849.4500, 88411.00
850.5830, 89268.00
851.7160, 88928.00
852.8490, 89557.00
853.9820, 89029.00
855.1150, 89160.00
856.2470, 89630.00
857.3800, 89595.00
858.5120, 89708.00
859.6440, 89466.00
860.7760, 89465.00
861.9070, 89912.00
863.0390, 89528.00
864.1700, 90063.00
865.3010, 89963.00
866.4320, 90153.00
867.5630, 89958.00
868.6940, 90644.00
869.8240, 89980.00
870.9540, 91013.00
872.0850, 90083.00
873.2150, 90950.00
874.3450, 91007.00
875.4740, 90575.00
876.6040, 91380.00
877.7330, 91043.00
878.8620, 91444.00
879.9910, 91422.00
881.1200, 91632.00
882.2490, 92189.00
883.3770, 91990.00
884.5060, 92476.00
885.6340, 92658.00
886.7620, 92579.00
887.8900, 92891.00
889.0180, 93005.00
890.1450, 93063.00
891.2730, 93225.84
892.4000, 93324.73
893.5270, 93463.00
894.6540, 93643.00
895.7810, 93925.00
896.9070, 94247.00
898.0340, 94679.00
899.1600, 94447.00
900.2860, 94939.00
901.4120, 94840.00
902.5380, 94851.00
903.6630, 95315.00
904.7890, 95623.00
905.9140, 95802.91
907.0390, 96052.00
908.1640, 96215.00
909.2890, 96401.00
910.4130, 96469.00
911.5380, 96224.00
912.6620, 97096.00
913.7860, 97127.00
914.9100, 97432.00
916.0340, 98428.00
917.1580, 98409.00
918.2810, 98310.00
919.4040, 98908.00
920.5280, 99060.00
921.6510, 99832.00
922.7730, 100213.0
923.8960, 101114.0
925.0180, 101070.0
926.1410, 101955.0
927.2630, 102893.0
928.3850, 103449.0
929.5070, 104592.0
930.6280, 105375.0
931.7500, 106104.0
932.8710, 107408.0
933.9920, 109012.0
935.1130, 110009.0
936.2340, 111203.0
937.3550, 112554.0
938.4760, 113923.0
939.5960, 115575.0
940.7160, 116642.0
941.8360, 118350.0
942.9560, 120486.0
944.0760, 122527.0
945.1950, 124954.0
946.3150, 127509.0
947.4340, 130750.0
948.5530, 132965.0
949.6720, 135385.0
950.7900, 137004.0
951.9090, 137480.0
953.0270, 138049.0
954.1460, 137198.0
955.2640, 136641.0
956.3820, 135747.0
957.4990, 135891.0
958.6170, 135636.0
959.7340, 135359.0
960.8520, 135366.0
961.9690, 134291.0
963.0860, 132484.0
964.2020, 130552.0
965.3190, 127278.0
966.4350, 123812.0
967.5520, 121107.0
968.6680, 117746.0
969.7840, 115328.0
970.8990, 113534.0
972.0150, 111302.0
973.1310, 109907.0
974.2460, 108720.0
975.3610, 107891.0
976.4760, 106282.0
977.5910, 105619.0
978.7050, 105124.0
979.8200, 104040.0
980.9340, 103951.0
982.0480, 103834.0
983.1620, 103156.0
984.2760, 102983.0
985.3900, 103152.0
986.5030, 103194.0
987.6160, 103083.0
988.7300, 103771.0
989.8430, 103932.0
990.9550, 104243.0
992.0680, 104817.0
993.1810, 105570.0
994.2930, 107012.0
995.4050, 108326.0
996.5170, 109813.0
997.6290, 111556.0
998.7410, 113108.0
999.8520, 114001.0
1000.964, 114201.2
1002.075, 114306.0
1003.186, 113079.0
1004.297, 111341.0
1005.407, 109446.0
1006.518, 107774.0
1007.628, 105907.0
1008.738, 105005.0
1009.848, 104050.0
1010.958, 103843.0
1012.068, 103191.0
1013.178, 102791.0
1014.287, 102429.0
1015.396, 102060.9
1016.505, 101760.0
1017.614, 101690.0
1018.723, 101448.0
1019.831, 101360.4
1020.940, 101257.8
1022.048, 101246.0
1023.156, 101145.0
1024.264, 101168.0
1025.372, 101244.0
1026.479, 101180.0
1027.587, 101078.0
1028.694, 101177.0
1029.801, 101363.0
1030.908, 101425.0
1032.015, 101256.0
1033.121, 101287.8
1034.228, 101202.9
1035.334, 101139.0
1036.440, 101157.0
1037.546, 101197.0
1038.652, 101415.0
1039.758, 101193.0
1040.863, 101227.3
1041.968, 101037.0
1043.074, 101182.0
1044.178, 101303.0
1045.283, 101597.0
1046.388, 101092.0
1047.492, 101145.0
1048.597, 101337.0
1049.701, 101605.0
1050.805, 101482.0
1051.909, 101779.0
1053.012, 101316.0
1054.116, 101999.0
1055.219, 101674.0
1056.322, 101436.0
1057.425, 102133.0
1058.528, 101800.0
1059.631, 102004.0
1060.733, 101765.0
1061.836, 101790.0
1062.938, 101982.0
1064.040, 102024.0
1065.142, 102203.7
1066.243, 102263.8
1067.345, 102356.8
1068.446, 102406.0
1069.547, 102481.0
1070.648, 102586.0
1071.749, 102557.0
1072.850, 103005.0
1073.951, 102630.0
1075.051, 103003.0
1076.151, 102957.0
1077.251, 102882.0
1078.351, 103292.0
1079.451, 103378.0
1080.550, 103642.0
1081.650, 103640.0
1082.749, 103454.0
1083.848, 103556.0
1084.947, 103585.0
1086.046, 103607.0
1087.144, 104041.0
1088.243, 103886.0
1089.341, 104014.0
1090.439, 104307.0
1091.537, 103769.0
1092.635, 103782.0
1093.732, 104002.0
1094.830, 104481.0
1095.927, 103993.0
1097.024, 104124.0
1098.121, 104402.0
1099.218, 104356.0
1100.314, 104740.0
1101.411, 104597.0
1102.507, 104883.0
1103.603, 104332.0
1104.699, 104574.0
1105.795, 104658.0
1106.890, 104901.0
1107.986, 105025.0
1109.081, 104485.0
1110.176, 105382.0
1111.271, 104980.0
1112.366, 105323.0
1113.461, 105431.0
1114.555, 104733.0
1115.649, 105358.0
1116.744, 105100.0
1117.838, 105223.0
1118.931, 105500.0
1120.025, 105974.0
1121.119, 106090.0
1122.212, 105781.0
1123.305, 105776.0
1124.398, 106037.0
1125.491, 105793.0
1126.584, 105826.0
1127.676, 105693.0
1128.768, 106250.0
1129.861, 106131.0
1130.953, 106398.0
1132.044, 106502.0
1133.136, 106554.0
1134.228, 106319.0
1135.319, 106540.0
1136.410, 107165.0
1137.501, 106566.0
1138.592, 106972.0
1139.683, 106721.0
1140.773, 106697.0
1141.864, 107104.0
1142.954, 106847.0
1144.044, 106866.0
1145.134, 106892.0
1146.224, 107063.0
1147.313, 107078.2
1148.402, 107385.0
1149.492, 107249.0
1150.581, 107596.0
1151.670, 107771.0
1152.758, 107379.0
1153.847, 107977.0
1154.935, 107853.0
1156.024, 107785.0
1157.112, 107955.0
1158.200, 107854.0
1159.287, 108146.0
1160.375, 108160.0
1161.462, 107982.0
1162.550, 108245.0
1163.637, 108196.0
1164.724, 108417.0
1165.810, 108765.0
1166.897, 108201.0
1167.983, 108739.0
1169.070, 108447.0
1170.156, 108483.0
1171.242, 109081.0
1172.327, 109045.0
1173.413, 108860.0
1174.499, 109083.0
1175.584, 108971.0
1176.669, 109158.0
1177.754, 109095.0
1178.839, 109314.0
1179.923, 109248.7
1181.008, 109057.0
1182.092, 109250.0
1183.176, 109182.0
1184.260, 109374.0
1185.344, 109738.0
1186.428, 109817.0
1187.511, 110127.0
1188.595, 109985.0
1189.678, 109933.0
1190.761, 109796.0
1191.843, 109986.0
1192.926, 110061.0
1194.009, 110056.0
1195.091, 110134.0
1196.173, 110008.0
1197.255, 110371.0
1198.337, 110270.0
1199.419, 110644.0
1200.500, 110570.0
1201.582, 110461.0
1202.663, 110612.0
1203.744, 110514.0
1204.825, 110796.0
1205.905, 111153.0
1206.986, 111385.0
1208.066, 111252.0
1209.146, 111305.0
1210.226, 111526.0
1211.306, 111370.0
1212.386, 111341.0
1213.466, 111438.0
1214.545, 111686.0
1215.624, 111205.0
1216.703, 111287.0
1217.782, 111482.0
1218.861, 111998.0
1219.939, 112196.0
1221.018, 111954.0
1222.096, 112090.0
1223.174, 112340.0
1224.252, 112249.0
1225.330, 112426.0
1226.407, 112167.0
1227.485, 112121.0
1228.562, 112544.0
1229.639, 111981.0
1230.716, 113487.0
1231.793, 112513.0
1232.869, 112980.0
1233.946, 112632.0
1235.022, 113071.0
1236.098, 113572.0
1237.174, 113167.0
1238.250, 113702.0
1239.325, 113313.0
1240.401, 113314.0
1241.476, 113101.0
1242.551, 113171.0
1243.626, 113372.0
1244.701, 113493.0
1245.776, 113965.0
1246.850, 114128.0
1247.924, 113678.0
1248.999, 114053.0
1250.073, 113767.0
1251.146, 114340.0
1252.220, 114008.0
