##NAMES=Kyanite
##RRUFFID=R050450
##IDEAL CHEMISTRY=Al_2_OSiO_4_
##LOCALITY=Switzerland
##OWNER=RRUFF
##SOURCE=Marcus Origlieri
##DESCRIPTION=Blue bladed crystals
##STATUS=The identification of this mineral has been confirmed by X-ray diffraction and chemical analysis
##URL=rruff.info/R050450
##MEASURED CHEMISTRY=Al_2.00_OSi_1.00_O_4_
##PIN_ID=M01448
##ORIENTATION=Laser parallel to -c* (0 0 -1). Fiducial mark perpendicular to laser is parallel to -a [-1 0 0]
148.7160, 10853.00
149.9470, 10781.00
151.1780, 10720.00
152.4080, 11073.00
153.6380, 11014.00
154.8690, 11138.00
156.0980, 10988.00
157.3280, 11027.00
158.5580, 10919.00
159.7870, 11031.00
161.0170, 11071.00
162.2460, 11019.00
163.4750, 11271.00
164.7030, 11185.00
165.9320, 11333.00
167.1600, 11483.00
168.3890, 11199.00
169.6170, 11343.00
170.8450, 11307.00
172.0730, 11463.00
173.3000, 11458.00
174.5280, 11381.00
175.7550, 11511.00
176.9820, 11588.00
178.2090, 11561.00
179.4350, 11600.00
180.6620, 11521.00
181.8880, 11523.00
183.1150, 11536.00
184.3410, 11575.00
185.5670, 11584.84
186.7920, 11631.00
188.0180, 11645.47
189.2430, 11718.00
190.4690, 11785.00
191.6940, 11798.00
192.9180, 11916.00
194.1430, 11868.00
195.3680, 11857.00
196.5920, 11950.00
197.8160, 12018.00
199.0400, 12159.00
200.2640, 12109.00
201.4880, 12301.00
202.7110, 12270.00
203.9350, 12346.00
205.1580, 12393.00
206.3810, 12264.00
207.6040, 12249.00
208.8270, 12256.00
210.0490, 12103.00
211.2710, 12069.00
212.4940, 12087.00
213.7160, 12182.00
214.9370, 12256.00
216.1590, 12168.00
217.3810, 12219.39
218.6020, 12204.00
219.8230, 12185.00
221.0440, 12214.00
222.2650, 12206.00
223.4860, 12323.00
224.7060, 12514.00
225.9260, 12508.00
227.1470, 12533.00
228.3670, 12517.00
229.5860, 12528.00
230.8060, 12272.00
232.0260, 12316.00
233.2450, 12255.00
234.4640, 12291.00
235.6830, 12279.00
236.9020, 12347.00
238.1200, 12427.00
239.3390, 12356.00
240.5570, 12301.00
241.7750, 12395.00
242.9930, 12535.00
244.2110, 12571.00
245.4290, 12631.00
246.6460, 12551.00
247.8630, 12457.00
249.0810, 12610.00
250.2980, 12828.00
251.5140, 12821.00
252.7310, 12692.00
253.9470, 12632.00
255.1640, 12778.00
256.3800, 12637.00
257.5960, 12738.00
258.8120, 12885.00
260.0270, 12903.10
261.2430, 12943.89
262.4580, 13134.00
263.6730, 12897.00
264.8880, 13027.00
266.1030, 12936.00
267.3170, 12970.00
268.5320, 13052.00
269.7460, 13058.49
270.9600, 13133.66
272.1740, 13213.00
273.3880, 13303.00
274.6010, 13446.00
275.8150, 13633.00
277.0280, 13871.00
278.2410, 13950.00
279.4540, 13893.00
280.6670, 13698.00
281.8790, 13458.00
283.0920, 13381.00
284.3040, 13467.00
285.5160, 13601.00
286.7280, 13610.00
287.9400, 13724.00
289.1510, 14201.00
290.3630, 14535.00
291.5740, 14654.00
292.7850, 14757.00
293.9960, 14954.00
295.2070, 14853.00
296.4170, 15008.00
297.6280, 15641.00
298.8380, 16829.00
300.0480, 17891.00
301.2580, 19076.00
302.4680, 18916.00
303.6770, 18078.00
304.8870, 16608.00
306.0960, 15513.00
307.3050, 14925.00
308.5140, 14226.00
309.7230, 14034.00
310.9310, 13845.00
312.1400, 14093.00
313.3480, 14048.00
314.5560, 14113.00
315.7640, 14292.00
316.9720, 14202.00
318.1790, 14739.00
319.3870, 14880.00
320.5940, 15175.00
321.8010, 15967.00
323.0080, 17034.00
324.2150, 18513.00
325.4210, 19446.00
326.6280, 19404.00
327.8340, 18460.00
329.0400, 17224.00
330.2460, 15988.00
331.4510, 15280.00
332.6570, 14740.00
333.8620, 14415.00
335.0680, 14421.00
336.2730, 14271.00
337.4780, 14341.00
338.6820, 14474.00
339.8870, 14561.00
341.0910, 14805.00
342.2950, 14743.00
343.5000, 14735.00
344.7030, 14635.00
345.9070, 14402.00
347.1110, 14394.00
348.3140, 14374.00
349.5170, 14421.00
350.7200, 14405.00
351.9230, 14522.00
353.1260, 14554.00
354.3290, 14757.00
355.5310, 14802.00
356.7330, 15057.00
357.9350, 15443.00
359.1370, 15777.00
360.3390, 15943.00
361.5400, 15845.00
362.7420, 15868.00
363.9430, 15559.00
365.1440, 15310.00
366.3450, 15230.00
367.5460, 15426.00
368.7460, 15447.00
369.9470, 15839.00
371.1470, 16369.00
372.3470, 16409.00
373.5470, 16868.00
374.7460, 16684.00
375.9460, 16897.00
377.1450, 17232.00
378.3450, 17267.00
379.5440, 17243.00
380.7430, 17239.00
381.9410, 17345.00
383.1400, 17906.00
384.3380, 18440.00
385.5370, 18558.00
386.7350, 18322.00
387.9320, 18153.00
389.1300, 17767.00
390.3280, 17877.00
391.5250, 18484.00
392.7220, 18560.00
393.9190, 18081.00
395.1160, 17334.00
396.3130, 17113.00
397.5100, 16602.00
398.7060, 16487.00
399.9020, 16670.00
401.0980, 17107.00
402.2940, 18147.00
403.4900, 18922.00
404.6860, 19203.00
405.8810, 18753.00
407.0760, 18222.00
408.2710, 18250.00
409.4660, 16590.00
410.6610, 16099.00
411.8550, 15846.00
413.0500, 15806.00
414.2440, 15574.00
415.4380, 15809.00
416.6320, 15893.00
417.8260, 16038.00
419.0190, 16095.75
420.2130, 16123.11
421.4060, 16131.00
422.5990, 16053.00
423.7920, 16023.00
424.9850, 15833.00
426.1770, 15798.00
427.3700, 15809.00
428.5620, 15906.06
429.7540, 16099.05
430.9460, 16383.00
432.1380, 16763.00
433.3290, 17258.00
434.5210, 17904.00
435.7120, 18484.00
436.9030, 19043.00
438.0940, 19288.00
439.2850, 19320.00
440.4750, 18918.00
441.6660, 18074.00
442.8560, 17649.00
444.0460, 17098.00
445.2360, 16832.00
446.4260, 16957.00
447.6160, 16835.00
448.8050, 16970.00
449.9940, 16834.00
451.1830, 16708.00
452.3720, 16430.00
453.5610, 16280.00
454.7500, 16150.00
455.9380, 16044.00
457.1260, 16155.00
458.3150, 16180.00
459.5020, 16195.00
460.6900, 16313.00
461.8780, 16315.89
463.0650, 16249.00
464.2530, 16379.00
465.4400, 16322.00
466.6270, 16326.00
467.8130, 16563.00
469.0000, 16492.00
470.1870, 16598.00
471.3730, 16577.00
472.5590, 16611.00
473.7450, 16665.00
474.9310, 16996.00
476.1160, 17304.00
477.3020, 17638.00
478.4870, 18188.00
479.6720, 19029.00
480.8570, 19770.00
482.0420, 21245.00
483.2270, 22872.00
484.4110, 25464.00
485.5960, 27904.00
486.7800, 29362.00
487.9640, 28764.00
489.1480, 26904.00
490.3310, 24596.00
491.5150, 23819.00
492.6980, 22115.00
493.8810, 20439.00
495.0640, 19568.00
496.2470, 18803.00
497.4300, 18467.00
498.6120, 17965.00
499.7950, 17739.00
500.9770, 17670.00
502.1590, 17574.00
503.3410, 17584.00
504.5220, 17303.00
505.7040, 17321.00
506.8850, 17373.00
508.0660, 17359.32
509.2470, 17602.00
510.4280, 17584.00
511.6090, 17673.00
512.7890, 17861.00
513.9700, 17532.00
515.1500, 17765.00
516.3300, 17518.00
517.5100, 17305.00
518.6900, 17288.00
519.8690, 17315.00
521.0490, 17054.00
522.2280, 17086.00
523.4070, 17114.00
524.5860, 17295.00
525.7640, 17188.00
526.9430, 17139.00
528.1210, 17091.00
529.3000, 17091.00
530.4780, 17092.74
531.6560, 17091.00
532.8330, 17143.00
534.0110, 17170.00
535.1880, 17190.84
536.3650, 17285.00
537.5430, 17306.00
538.7190, 17415.00
539.8960, 17430.00
541.0730, 17334.00
542.2490, 17518.00
543.4250, 17756.00
544.6020, 17856.00
545.7780, 17767.00
546.9530, 17660.00
548.1290, 17684.00
549.3040, 17592.00
550.4800, 17763.00
551.6550, 17759.00
552.8300, 17716.00
554.0040, 17707.00
555.1790, 17904.00
556.3540, 18111.00
557.5280, 17992.00
558.7020, 18027.00
559.8760, 18306.00
561.0500, 18538.00
562.2230, 19098.00
563.3970, 18948.00
564.5700, 19084.00
565.7430, 18981.00
566.9160, 18795.00
568.0890, 18464.00
569.2620, 18427.00
570.4340, 18377.00
571.6070, 18493.00
572.7790, 18302.00
573.9510, 18440.00
575.1230, 18625.00
576.2940, 18431.00
577.4660, 18350.00
578.6370, 18428.00
579.8080, 18260.00
580.9790, 18299.00
582.1500, 18547.00
583.3210, 18778.00
584.4910, 18867.00
585.6620, 19035.00
586.8320, 18922.00
588.0020, 18812.00
589.1720, 18854.00
590.3410, 18752.00
591.5110, 18544.00
592.6800, 18441.00
593.8500, 18442.00
595.0190, 18376.00
596.1880, 18389.00
597.3560, 18574.00
598.5250, 18604.00
599.6930, 18543.00
600.8620, 18919.00
602.0300, 18797.00
603.1970, 18827.00
604.3650, 18956.00
605.5330, 19123.00
606.7000, 19210.00
607.8680, 19224.00
609.0350, 19295.00
610.2020, 19209.18
611.3680, 19274.50
612.5350, 19226.43
613.7010, 19286.00
614.8680, 19171.00
616.0340, 19080.00
617.2000, 19099.00
618.3660, 19016.00
619.5310, 19249.00
620.6970, 18972.00
621.8620, 19177.00
623.0270, 19157.00
624.1920, 19194.00
625.3570, 19154.00
626.5220, 19437.00
627.6860, 19327.00
628.8500, 19485.00
630.0140, 19362.00
631.1780, 19696.00
632.3420, 19694.00
633.5060, 19953.00
634.6700, 19831.00
635.8330, 20160.00
636.9960, 20330.00
638.1590, 20172.00
639.3220, 20102.00
640.4850, 19990.00
641.6470, 19774.00
642.8100, 19765.00
643.9720, 19693.00
645.1340, 19504.00
646.2960, 19569.00
647.4570, 19467.00
648.6190, 19575.00
649.7800, 19665.00
650.9420, 19696.00
652.1030, 19660.00
653.2640, 19736.00
654.4240, 19948.00
655.5850, 20076.00
656.7450, 20015.00
657.9060, 20138.00
659.0660, 19867.00
660.2260, 20150.00
661.3850, 20046.00
662.5450, 19790.00
663.7040, 19922.00
664.8640, 19929.00
666.0230, 20128.00
667.1820, 20047.00
668.3410, 19992.00
669.4990, 20075.00
670.6580, 20355.00
671.8160, 20253.00
672.9740, 20216.00
674.1320, 20238.00
675.2900, 20134.00
676.4480, 20186.00
677.6050, 20177.00
678.7630, 20021.00
679.9200, 20034.00
681.0770, 20083.00
682.2340, 19888.00
683.3900, 19979.00
684.5470, 20092.00
685.7030, 20279.00
686.8590, 20086.00
688.0150, 20078.00
689.1710, 20124.00
690.3270, 20134.00
691.4830, 20188.00
692.6380, 19961.00
693.7930, 20231.00
694.9480, 20366.00
696.1030, 20198.61
697.2580, 20677.00
698.4130, 20092.00
699.5670, 20319.00
700.7210, 20524.00
701.8750, 20535.00
703.0290, 20596.00
704.1830, 20617.91
705.3370, 20467.00
706.4900, 20580.00
707.6430, 20394.00
708.7970, 20378.00
709.9490, 20423.00
711.1020, 20363.88
712.2550, 20474.00
713.4070, 20425.00
714.5600, 20456.00
715.7120, 20556.00
716.8640, 20578.00
718.0160, 20595.00
719.1670, 20672.54
720.3190, 20670.00
721.4700, 20763.00
722.6210, 20879.00
723.7720, 20880.00
724.9230, 20793.00
726.0740, 20933.00
727.2250, 20930.00
728.3750, 20910.00
729.5250, 21003.00
730.6750, 20981.00
731.8250, 20836.00
732.9750, 20741.00
734.1240, 20773.67
735.2740, 20824.00
736.4230, 20870.00
737.5720, 20908.00
738.7210, 21023.00
739.8700, 20973.00
741.0190, 20842.00
742.1670, 20942.00
743.3150, 20802.00
744.4630, 21006.00
745.6110, 21121.00
746.7590, 21132.00
747.9070, 21238.00
749.0540, 21095.00
750.2020, 21297.00
751.3490, 21177.00
752.4960, 21282.00
753.6430, 21377.00
754.7890, 21234.00
755.9360, 21386.00
757.0820, 21483.00
758.2280, 21519.00
759.3740, 21561.80
760.5200, 21459.00
761.6660, 21505.00
762.8120, 21510.00
763.9570, 21382.00
765.1020, 21501.00
766.2470, 21484.00
767.3920, 21701.00
768.5370, 21487.00
769.6810, 21518.00
770.8260, 21393.00
771.9700, 21680.00
773.1140, 21922.00
774.2580, 21799.00
775.4020, 21612.00
776.5460, 21612.00
777.6890, 21677.00
778.8320, 21686.00
779.9750, 21735.00
781.1180, 21766.28
782.2610, 21798.83
783.4040, 21809.00
784.5460, 21859.00
785.6890, 21844.00
786.8310, 21839.00
787.9730, 21862.26
789.1150, 21824.00
790.2560, 21890.00
791.3980, 21926.00
792.5390, 21958.00
793.6810, 21883.00
794.8220, 21944.00
795.9630, 22011.00
797.1030, 22102.00
798.2440, 22196.00
799.3840, 22020.00
800.5240, 22113.00
801.6650, 22094.00
802.8040, 22281.00
803.9440, 22313.00
805.0840, 22214.00
806.2230, 22187.00
807.3630, 22354.00
808.5020, 22445.00
809.6410, 22492.00
810.7790, 22437.00
811.9180, 22336.00
813.0570, 22569.00
814.1950, 22335.00
815.3330, 22569.00
816.4710, 22662.00
817.6090, 22661.00
818.7470, 22645.00
819.8840, 22717.00
821.0220, 22546.00
822.1590, 22381.00
823.2960, 22713.00
824.4330, 22599.00
825.5690, 22448.00
826.7060, 22888.00
827.8420, 22931.00
828.9790, 22903.00
830.1150, 22905.00
831.2510, 22857.00
832.3860, 22918.00
833.5220, 22995.00
834.6570, 22951.00
835.7930, 23036.61
836.9280, 22935.00
838.0630, 23150.00
839.1980, 23054.00
840.3320, 23139.00
841.4670, 23016.00
842.6010, 23052.00
843.7350, 23056.00
844.8690, 23095.00
846.0030, 23104.00
847.1370, 23230.00
848.2700, 23373.00
849.4040, 23436.00
850.5370, 23544.00
851.6700, 23516.00
852.8030, 23639.00
853.9360, 23277.00
855.0680, 23382.00
856.2000, 23482.00
857.3330, 23548.00
858.4650, 23646.00
859.5970, 23708.00
860.7290, 23857.00
861.8600, 23732.00
862.9920, 23921.00
864.1230, 23750.00
865.2540, 23962.00
866.3850, 23856.00
867.5160, 23828.00
868.6460, 24038.00
869.7770, 24132.00
870.9070, 24038.00
872.0370, 24263.00
873.1670, 24345.00
874.2970, 24312.00
875.4270, 24375.00
876.5570, 24591.00
877.6860, 24435.00
878.8150, 24906.00
879.9440, 24751.00
881.0730, 25212.00
882.2020, 25168.00
883.3300, 25495.00
884.4590, 25653.00
885.5870, 25800.00
886.7150, 26270.00
887.8430, 26623.00
888.9710, 26843.00
890.0990, 27086.00
891.2260, 27073.00
892.3530, 27235.00
893.4810, 27264.00
894.6080, 27283.00
895.7340, 27526.00
896.8610, 27483.00
897.9880, 27992.00
899.1140, 27808.00
900.2400, 28254.00
901.3660, 28329.00
902.4920, 28088.00
903.6180, 27880.00
904.7430, 27505.00
905.8690, 26997.00
906.9940, 26787.00
908.1190, 26201.00
909.2440, 25959.00
910.3690, 25887.00
911.4930, 25855.00
912.6180, 25716.00
913.7420, 25745.00
914.8660, 25696.00
915.9900, 25731.00
917.1140, 25692.00
918.2380, 25827.00
919.3610, 25910.00
920.4850, 25894.00
921.6080, 25913.00
922.7310, 25951.00
923.8540, 25839.00
924.9760, 25879.00
926.0990, 25974.00
927.2210, 26306.00
928.3440, 26113.00
929.4660, 26297.00
930.5880, 26616.00
931.7090, 26413.00
932.8310, 26620.00
933.9520, 27075.00
935.0740, 27007.00
936.1950, 27213.00
937.3160, 27705.00
938.4360, 27974.00
939.5570, 28100.00
940.6780, 28312.00
941.7980, 28855.00
942.9180, 29298.00
944.0380, 29660.00
945.1580, 30403.00
946.2780, 30950.00
947.3970, 31694.00
948.5170, 31953.00
949.6360, 32609.00
950.7550, 33057.00
951.8740, 33203.00
952.9930, 32983.00
954.1110, 32819.00
955.2300, 32457.00
956.3480, 32051.00
957.4660, 31706.76
958.5840, 31228.00
959.7020, 31039.00
960.8190, 30755.00
961.9370, 30432.37
963.0540, 30144.11
964.1710, 29863.00
965.2880, 29465.00
966.4050, 29142.00
967.5220, 28782.85
968.6380, 28524.42
969.7550, 28278.00
970.8710, 28037.00
971.9870, 27991.00
973.1030, 27741.70
974.2190, 27660.00
975.3340, 27503.00
976.4500, 27318.00
977.5650, 27105.00
978.6800, 26922.00
979.7950, 26845.76
980.9100, 26941.00
982.0250, 26852.00
983.1390, 26804.00
984.2530, 27066.00
985.3680, 26881.00
986.4820, 26918.00
987.5950, 26866.00
988.7090, 26942.00
989.8230, 26831.00
990.9360, 27073.00
992.0490, 27071.00
993.1620, 27038.00
994.2750, 26921.00
995.3880, 27143.00
996.5010, 27361.00
997.6130, 27535.00
998.7250, 27522.00
999.8370, 27433.00
1000.949, 27637.00
1002.061, 27812.00
1003.173, 27565.00
1004.284, 27537.00
1005.396, 27428.00
1006.507, 27282.00
1007.618, 27151.00
1008.729, 27296.00
1009.839, 27167.00
1010.950, 27231.00
1012.060, 27221.00
1013.171, 27295.00
1014.281, 27235.00
1015.391, 27168.00
1016.500, 27159.00
1017.610, 27306.00
1018.719, 27245.00
1019.829, 27400.00
1020.938, 27466.00
1022.047, 27317.00
1023.156, 27140.00
1024.264, 27341.00
1025.373, 27322.00
1026.481, 27454.00
1027.589, 27309.00
1028.697, 27550.00
1029.805, 27518.00
1030.913, 27569.00
1032.020, 27386.00
1033.128, 27500.00
1034.235, 27811.00
1035.342, 27378.00
1036.449, 27614.00
1037.556, 27791.00
1038.663, 27702.00
1039.769, 27629.00
1040.875, 27743.00
1041.981, 27732.00
1043.087, 27717.00
1044.193, 27913.00
1045.299, 27796.00
1046.404, 27740.00
1047.510, 27970.00
1048.615, 27751.00
1049.720, 27796.00
1050.825, 27865.00
1051.930, 27964.00
1053.034, 28116.00
1054.139, 27947.00
1055.243, 28016.00
1056.347, 28123.00
1057.451, 28092.00
1058.555, 28106.00
1059.658, 28154.00
1060.762, 28181.00
1061.865, 28281.00
1062.968, 28318.00
1064.071, 28314.00
1065.174, 28340.00
1066.277, 28202.00
1067.380, 28401.00
1068.482, 28299.00
1069.584, 28513.00
1070.686, 28442.00
1071.788, 28578.00
1072.890, 28502.00
1073.992, 28358.00
1075.093, 28551.00
1076.194, 28445.00
1077.295, 28551.00
1078.396, 28547.00
1079.497, 28609.00
1080.598, 28785.00
1081.698, 28737.00
1082.799, 28896.00
1083.899, 28583.00
1084.999, 28721.00
1086.099, 28782.00
1087.199, 28748.00
1088.298, 28947.00
1089.398, 28924.00
1090.497, 28814.00
1091.596, 28969.00
1092.695, 28829.00
1093.794, 29034.00
1094.892, 28851.00
1095.991, 28912.00
1097.089, 29190.00
1098.187, 29203.00
1099.285, 29051.00
1100.383, 28990.00
1101.481, 29302.00
1102.579, 29108.00
1103.676, 29274.00
1104.773, 29316.00
1105.870, 29253.00
1106.967, 29183.00
1108.064, 29352.00
1109.161, 29257.00
1110.257, 29286.00
1111.353, 29217.00
1112.449, 29381.00
1113.545, 29388.00
1114.641, 29306.00
1115.737, 29335.00
1116.832, 29755.00
1117.928, 29586.00
1119.023, 29909.00
1120.118, 29870.00
1121.213, 29630.00
1122.308, 29836.00
1123.402, 29962.00
1124.497, 29607.00
1125.591, 29927.00
1126.685, 29731.00
1127.779, 29716.00
1128.873, 29651.00
1129.967, 29789.00
1131.060, 29894.00
1132.153, 29726.00
1133.247, 29895.00
1134.340, 30134.00
1135.433, 30542.00
1136.525, 30288.95
1137.618, 30313.00
1138.710, 30008.00
1139.802, 30139.00
1140.895, 30410.00
1141.987, 30167.00
1143.078, 30278.00
1144.170, 30184.00
1145.261, 30120.00
1146.353, 30317.00
1147.444, 30418.00
1148.535, 30236.00
1149.626, 30484.00
1150.716, 30192.00
1151.807, 30316.00
1152.897, 30353.00
1153.988, 30449.00
1155.078, 30536.00
1156.168, 30578.00
1157.257, 30440.00
1158.347, 30566.00
1159.436, 30474.00
1160.526, 30708.00
1161.615, 30675.00
1162.704, 30734.00
1163.793, 30549.00
1164.881, 30764.00
1165.970, 30789.00
1167.058, 30632.00
1168.147, 30757.00
1169.235, 30700.00
1170.323, 30997.00
1171.410, 30932.00
1172.498, 30974.00
1173.585, 30991.00
1174.673, 30765.00
1175.760, 30871.00
1176.847, 30935.00
1177.934, 31011.00
1179.020, 31124.00
1180.107, 31063.00
1181.193, 31199.00
1182.279, 31307.00
1183.365, 31206.00
1184.451, 31319.00
1185.537, 31363.00
1186.623, 31394.00
1187.708, 31189.00
1188.793, 31432.00
1189.878, 31303.00
1190.963, 31202.00
1192.048, 31689.00
1193.133, 31661.00
1194.217, 31638.00
1195.302, 31469.00
1196.386, 31638.00
1197.470, 31448.00
1198.554, 31555.00
1199.638, 31476.00
1200.721, 31634.00
1201.805, 31634.00
1202.888, 31704.00
1203.971, 31979.00
1205.054, 31761.00
1206.137, 31675.00
1207.219, 31929.00
1208.302, 31577.00
1209.384, 31724.00
1210.466, 31924.00
1211.548, 31900.00
1212.630, 31931.00
1213.712, 32114.00
1214.794, 32224.00
1215.875, 32210.00
1216.956, 32162.00
1218.037, 32225.00
1219.118, 32250.00
1220.199, 32333.65
1221.280, 32368.00
1222.360, 32502.00
1223.441, 32351.00
1224.521, 32306.00
1225.601, 32199.00
1226.681, 32470.00
1227.760, 32485.00
1228.840, 32425.00
1229.919, 32377.00
1230.999, 32481.00
1232.078, 32720.00
1233.157, 32525.00
1234.236, 32647.00
1235.314, 32728.00
1236.393, 32520.00
1237.471, 32678.00
1238.549, 32467.00
1239.627, 32667.00
1240.705, 32657.00
1241.783, 32674.00
1242.860, 32761.00
1243.938, 32783.00
1245.015, 32859.38
1246.092, 32888.00
1247.169, 32973.00
1248.246, 32906.00
1249.323, 32875.86
1250.399, 32804.00
1251.475, 32828.00
1252.552, 32991.00
1253.628, 32964.00
1254.703, 33295.00
1255.779, 33160.00
1256.855, 33253.00
1257.930, 33233.00
1259.005, 33197.00
1260.080, 33252.00
1261.155, 33211.00
1262.230, 33283.00
1263.305, 33368.00
1264.379, 33265.00
1265.454, 33611.00
1266.528, 33433.00
1267.602, 33375.00
1268.676, 33545.00
1269.750, 33498.00
1270.823, 33536.00
1271.897, 33545.00
1272.970, 33416.00
1274.043, 33778.00
1275.116, 33395.00
1276.189, 33760.00
1277.261, 33798.00
1278.334, 33771.00
1279.406, 33838.00
1280.478, 33851.87
1281.550, 34010.00
1282.622, 33914.00
1283.694, 33744.00
1284.766, 33753.27
1285.837, 33870.00
1286.908, 33859.00
1287.979, 33986.00
1289.050, 34144.00
1290.121, 34144.00
1291.192, 34161.00
1292.262, 34051.00
1293.333, 34235.00
1294.403, 34332.00
1295.473, 34240.00
1296.543, 34261.00
1297.613, 34397.00
1298.682, 34572.00
1299.752, 34687.00
1300.821, 34707.11
1301.890, 34519.00
1302.959, 34689.00
1304.028, 34629.00
1305.096, 34614.00
1306.165, 34720.00
1307.233, 34710.00
1308.301, 34765.00
1309.370, 34847.00
1310.437, 34800.00
1311.505, 34877.00
1312.573, 34744.00
1313.640, 34803.00
1314.708, 34898.00
1315.775, 35046.00
1316.842, 34915.00
1317.908, 34913.00
1318.975, 34926.00
1320.042, 35261.00
1321.108, 34947.00
1322.174, 35132.00
1323.240, 35187.00
1324.306, 35005.00
1325.372, 35405.00
1326.438, 35092.00
