##NAMES=Kyanite
##RRUFFID=R040119
##IDEAL CHEMISTRY=Al_2_OSiO_4_
##LOCALITY=Rutherford County, North Carolina, USA
##OWNER=RRUFF
##SOURCE=University of Arizona Mineral Museum
##DESCRIPTION=Blue bladed crystal
##STATUS=The identification of this mineral has been confirmed by X-ray diffraction and chemical analysis
##URL=rruff.info/R040119
##MEASURED CHEMISTRY=(Al_0.99_Fe^3+^_0.01_)_2_OSi_1.00_O_4_
##PIN_ID=L00051
##ORIENTATION=Laser parallel to b* (0 1 0). Fiducial mark perpendicular to laser is parallel to -c [0 0 -1]
69.76100, 60437.00
71.00100, 60994.00
72.24000, 62923.00
73.47900, 62889.00
74.71800, 63872.00
75.95700, 64423.00
77.19600, 64215.00
78.43500, 64559.00
79.67300, 64895.00
80.91200, 64304.00
82.15000, 64494.00
83.38800, 64080.00
84.62600, 63401.00
85.86300, 62927.00
87.10100, 62704.00
88.33800, 62781.00
89.57500, 62871.00
90.81200, 63164.00
92.04900, 63201.00
93.28600, 62977.00
94.52300, 62959.00
95.75900, 62734.00
96.99500, 62805.00
98.23100, 62933.00
99.46700, 63263.00
100.7030, 63171.00
101.9390, 63945.00
103.1740, 64673.00
104.4090, 65572.00
105.6440, 65468.00
106.8790, 65461.00
108.1140, 64889.00
109.3490, 64390.00
110.5830, 64762.00
111.8180, 65049.00
113.0520, 65280.00
114.2860, 65416.00
115.5200, 65707.00
116.7530, 66268.00
117.9870, 66107.00
119.2200, 66177.00
120.4530, 66422.00
121.6860, 65659.00
122.9190, 64969.00
124.1520, 65294.00
125.3850, 64809.00
126.6170, 64841.00
127.8490, 64787.00
129.0810, 64580.00
130.3130, 64845.00
131.5450, 64720.00
132.7770, 64735.00
134.0080, 64925.00
135.2390, 64940.00
136.4710, 65076.00
137.7020, 65331.00
138.9320, 65491.00
140.1630, 65249.00
141.3930, 65537.00
142.6240, 65420.00
143.8540, 65696.00
145.0840, 65608.00
146.3140, 65934.00
147.5440, 65725.00
148.7730, 65935.00
150.0020, 65911.00
151.2320, 65950.00
152.4610, 66127.00
153.6900, 65903.00
154.9180, 66064.00
156.1470, 66385.00
157.3750, 66070.00
158.6040, 66669.00
159.8320, 66900.00
161.0600, 66709.00
162.2870, 66863.00
163.5150, 66788.00
164.7420, 66514.00
165.9700, 66880.00
167.1970, 66848.00
168.4240, 67373.00
169.6510, 67089.00
170.8770, 67335.00
172.1040, 67316.00
173.3300, 67882.00
174.5560, 67885.00
175.7820, 67775.00
177.0080, 68055.00
178.2340, 68167.00
179.4590, 67939.00
180.6850, 67751.00
181.9100, 67877.00
183.1350, 67617.00
184.3600, 67511.00
185.5850, 67971.00
186.8090, 68067.00
188.0340, 68199.00
189.2580, 67936.00
190.4820, 67949.00
191.7060, 67819.00
192.9300, 68287.00
194.1530, 68451.00
195.3770, 68601.00
196.6000, 68271.00
197.8230, 68462.00
199.0460, 68457.00
200.2690, 68990.00
201.4910, 69060.00
202.7140, 68795.00
203.9360, 68998.00
205.1580, 68805.00
206.3800, 68685.00
207.6020, 69465.00
208.8240, 69282.00
210.0450, 69606.00
211.2670, 69216.00
212.4880, 69297.00
213.7090, 69647.00
214.9300, 69612.00
216.1510, 69605.00
217.3710, 70243.00
218.5920, 70396.00
219.8120, 70458.00
221.0320, 70920.00
222.2520, 70850.00
223.4720, 71369.00
224.6910, 71799.00
225.9110, 72070.00
227.1300, 71853.00
228.3490, 71728.00
229.5680, 71313.00
230.7870, 70859.00
232.0050, 70794.00
233.2240, 70766.00
234.4420, 70951.00
235.6600, 70387.00
236.8780, 70794.00
238.0960, 70576.00
239.3140, 71001.00
240.5310, 71029.00
241.7490, 71134.00
242.9660, 71042.00
244.1830, 71441.00
245.4000, 71582.00
246.6160, 71528.00
247.8330, 71268.00
249.0490, 71663.00
250.2660, 71873.00
251.4820, 71658.00
252.6980, 71790.00
253.9130, 72500.00
255.1290, 72653.00
256.3440, 72714.00
257.5600, 72783.00
258.7750, 71992.00
259.9900, 72310.00
261.2040, 72151.00
262.4190, 72381.00
263.6330, 72326.00
264.8480, 72283.00
266.0620, 72670.00
267.2760, 72954.00
268.4900, 72991.00
269.7030, 73650.00
270.9170, 73905.00
272.1300, 74369.00
273.3430, 74911.00
274.5560, 75731.00
275.7690, 76472.00
276.9820, 76375.00
278.1940, 76546.46
279.4070, 76655.00
280.6190, 76098.00
281.8310, 76032.00
283.0430, 75877.00
284.2550, 76239.00
285.4660, 76991.00
286.6770, 78162.00
287.8890, 79070.00
289.1000, 80766.00
290.3110, 82598.00
291.5210, 84497.00
292.7320, 85537.00
293.9420, 86818.00
295.1530, 89219.00
296.3630, 91364.00
297.5730, 94834.00
298.7830, 97498.00
299.9920, 101660.0
301.2020, 100983.0
302.4110, 98738.00
303.6200, 94263.00
304.8290, 88192.00
306.0380, 83276.00
307.2470, 81218.00
308.4550, 78832.00
309.6630, 77735.00
310.8720, 77658.00
312.0800, 77474.00
313.2880, 77805.00
314.4950, 78664.00
315.7030, 79218.00
316.9100, 79729.00
318.1170, 80970.00
319.3240, 81751.00
320.5310, 83555.00
321.7380, 85243.00
322.9450, 86823.00
324.1510, 88519.00
325.3570, 89419.00
326.5630, 87899.00
327.7690, 86032.00
328.9750, 82964.00
330.1810, 80781.00
331.3860, 78738.00
332.5910, 78341.00
333.7960, 78021.00
335.0010, 77975.00
336.2060, 78290.00
337.4110, 78468.00
338.6150, 78784.00
339.8200, 78761.00
341.0240, 79125.00
342.2280, 78833.00
343.4320, 78703.00
344.6350, 78822.00
345.8390, 78671.00
347.0420, 78847.00
348.2450, 79407.00
349.4480, 80072.00
350.6510, 80370.00
351.8540, 81378.00
353.0560, 82616.00
354.2590, 83972.00
355.4610, 85882.00
356.6630, 88427.00
357.8650, 89796.00
359.0670, 91716.00
360.2680, 92387.00
361.4700, 90919.00
362.6710, 88715.00
363.8720, 86214.00
365.0730, 84470.00
366.2740, 83561.00
367.4740, 83396.00
368.6750, 83932.00
369.8750, 84705.00
371.0750, 85248.00
372.2750, 86015.00
373.4750, 86666.21
374.6740, 87136.00
375.8740, 87966.00
377.0730, 88486.00
378.2720, 89032.00
379.4710, 90127.00
380.6700, 91801.00
381.8690, 92857.00
383.0670, 94810.00
384.2660, 96483.00
385.4640, 97331.00
386.6620, 97413.00
387.8600, 97025.00
389.0570, 97457.00
390.2550, 98214.00
391.4520, 99073.00
392.6490, 98945.00
393.8460, 96805.00
395.0430, 94818.00
396.2400, 92827.00
397.4370, 92570.00
398.6330, 93852.00
399.8290, 96012.00
401.0250, 98375.00
402.2210, 101001.0
403.4170, 102541.0
404.6130, 101672.0
405.8080, 98962.00
407.0030, 95432.00
408.1980, 92106.00
409.3930, 89089.00
410.5880, 87230.00
411.7830, 87345.00
412.9770, 87016.00
414.1720, 87905.00
415.3660, 88423.00
416.5600, 88953.00
417.7530, 90361.00
418.9470, 90504.00
420.1410, 90114.00
421.3340, 89101.00
422.5270, 88276.00
423.7200, 87395.00
424.9130, 87397.00
426.1060, 87498.00
427.2980, 87903.00
428.4900, 89466.00
429.6830, 90938.00
430.8750, 93404.00
432.0670, 95136.00
433.2580, 97779.00
434.4500, 100506.0
435.6410, 102109.0
436.8320, 102605.0
438.0240, 102132.0
439.2140, 99804.00
440.4050, 97107.00
441.5960, 94341.00
442.7860, 92393.00
443.9760, 90841.00
445.1670, 89771.00
446.3560, 89757.00
447.5460, 89925.00
448.7360, 89277.00
449.9250, 88499.00
451.1150, 87663.00
452.3040, 86939.00
453.4930, 86286.00
454.6810, 86035.77
455.8700, 86192.00
457.0590, 85969.00
458.2470, 86175.00
459.4350, 86569.00
460.6230, 86590.00
461.8110, 86981.00
462.9980, 86978.00
464.1860, 87549.00
465.3730, 87715.00
466.5600, 87822.00
467.7470, 88039.00
468.9340, 88431.00
470.1210, 88802.00
471.3080, 89457.00
472.4940, 89981.00
473.6800, 91454.00
474.8660, 93545.00
476.0520, 96446.00
477.2380, 99301.00
478.4230, 102860.0
479.6090, 108315.0
480.7940, 114368.0
481.9790, 120739.0
483.1640, 128934.0
484.3490, 135298.0
485.5330, 139580.0
486.7180, 139646.0
487.9020, 134871.0
489.0860, 126862.0
490.2700, 119312.0
491.4540, 111789.0
492.6370, 107995.0
493.8210, 103833.0
495.0040, 100908.0
496.1870, 98143.00
497.3700, 96284.00
498.5530, 94528.00
499.7360, 93736.00
500.9180, 92898.00
502.1000, 92811.00
503.2830, 92524.00
504.4650, 92552.00
505.6460, 92974.00
506.8280, 93161.00
508.0100, 93135.00
509.1910, 93774.00
510.3720, 94316.00
511.5530, 94344.00
512.7340, 93630.00
513.9150, 93536.00
515.0950, 92918.00
516.2760, 92034.00
517.4560, 91549.00
518.6360, 90970.00
519.8160, 90996.00
520.9950, 90321.00
522.1750, 90502.00
523.3540, 90241.00
524.5340, 90301.00
525.7130, 90414.00
526.8920, 90150.00
528.0700, 90617.00
529.2490, 90600.00
530.4270, 90778.00
531.6060, 90452.00
532.7840, 90666.00
533.9620, 90695.00
535.1390, 91017.00
536.3170, 90860.00
537.4940, 91571.00
538.6720, 91690.00
539.8490, 91723.00
541.0260, 92361.00
542.2030, 92526.00
543.3790, 92973.00
544.5560, 93186.00
545.7320, 93752.00
546.9080, 93016.00
548.0840, 93578.00
549.2600, 93252.00
550.4360, 93505.00
551.6110, 93529.00
552.7860, 94071.00
553.9620, 94350.00
555.1370, 95491.00
556.3110, 96799.00
557.4860, 97807.00
558.6610, 99849.00
559.8350, 101095.0
561.0090, 103139.0
562.1830, 104114.0
563.3570, 103918.0
564.5310, 103111.0
565.7040, 101253.0
566.8780, 100251.0
568.0510, 98536.00
569.2240, 98543.00
570.3970, 98445.00
571.5700, 98463.00
572.7420, 98356.00
573.9150, 98274.00
575.0870, 97128.00
576.2590, 96067.00
577.4310, 95565.00
578.6030, 95464.00
579.7740, 95228.00
580.9460, 94784.00
582.1170, 94588.00
583.2880, 94474.00
584.4590, 94592.00
585.6300, 94782.00
586.8010, 94562.00
587.9710, 94507.00
589.1410, 94767.00
590.3110, 94516.00
591.4810, 94740.00
592.6510, 94849.00
593.8210, 94867.00
594.9900, 95300.00
596.1600, 95926.00
597.3290, 96224.00
598.4980, 96243.00
599.6670, 97019.00
600.8350, 98170.00
602.0040, 98122.00
603.1720, 98691.00
604.3400, 99454.00
605.5080, 99712.00
606.6760, 99767.00
607.8440, 99382.00
609.0120, 98804.00
610.1790, 98524.00
611.3460, 97840.00
612.5130, 97571.00
613.6800, 97322.00
614.8470, 97678.00
616.0130, 97618.00
617.1800, 97770.00
618.3460, 97714.00
619.5120, 97632.00
620.6780, 98075.00
621.8440, 97818.00
623.0090, 97802.00
624.1750, 98048.00
625.3400, 98454.00
626.5050, 98444.00
627.6700, 98704.00
628.8350, 98949.00
629.9990, 99125.00
631.1640, 99735.00
632.3280, 99720.00
633.4920, 100099.0
634.6560, 100016.0
635.8200, 100136.0
636.9840, 100190.0
638.1470, 99919.78
639.3100, 99650.00
640.4730, 99308.00
641.6360, 98908.00
642.7990, 98718.50
643.9620, 98219.00
645.1240, 98296.00
646.2870, 98215.00
647.4490, 98034.00
648.6110, 98448.00
649.7730, 98239.00
650.9340, 98345.00
652.0960, 98616.00
653.2570, 98694.00
654.4180, 98872.00
655.5790, 98838.00
656.7400, 99111.00
657.9010, 99192.00
659.0620, 99409.00
660.2220, 99429.00
661.3820, 99947.00
662.5420, 99710.00
663.7020, 100099.0
664.8620, 99958.00
666.0210, 100992.0
667.1810, 100885.0
668.3400, 100823.0
669.4990, 101425.0
670.6580, 101375.0
671.8170, 101408.0
672.9750, 100913.0
674.1340, 101119.0
675.2920, 100372.0
676.4500, 100300.0
677.6080, 100362.0
678.7660, 100227.0
679.9230, 100094.0
681.0810, 99771.00
682.2380, 99753.52
683.3950, 100202.0
684.5520, 99841.00
685.7090, 99835.00
686.8660, 100382.0
688.0220, 100176.0
689.1780, 99848.00
690.3340, 100747.0
691.4900, 100390.0
692.6460, 100214.0
693.8020, 100553.0
694.9570, 100630.0
696.1130, 100427.0
697.2680, 101014.0
698.4230, 100781.0
699.5780, 100923.0
700.7320, 101098.0
701.8870, 101124.0
703.0410, 101333.0
704.1950, 101584.0
705.3490, 101776.0
706.5030, 101699.0
707.6570, 101624.0
708.8110, 101266.0
709.9640, 101172.0
711.1170, 101203.0
712.2700, 101559.0
713.4230, 101823.0
714.5760, 101684.0
715.7280, 101881.0
716.8810, 101969.3
718.0330, 102286.0
719.1850, 102230.0
720.3370, 102175.0
721.4890, 102391.0
722.6400, 102243.0
723.7920, 102662.0
724.9430, 102578.0
726.0940, 102378.0
727.2450, 102580.0
728.3960, 102492.0
729.5460, 102526.5
730.6970, 102164.0
731.8470, 102689.0
732.9970, 102954.0
734.1470, 103231.0
735.2970, 102448.0
736.4460, 103198.0
737.5960, 102604.0
738.7450, 103266.0
739.8940, 103215.0
741.0430, 103371.0
742.1920, 103692.0
743.3410, 103866.0
744.4890, 104128.0
745.6370, 103643.0
746.7850, 104275.0
747.9330, 103777.0
749.0810, 104209.0
750.2290, 104326.0
751.3760, 104252.0
752.5240, 104528.0
753.6710, 104551.0
754.8180, 104300.0
755.9650, 104646.0
757.1110, 104793.0
758.2580, 104817.0
759.4040, 104423.0
760.5510, 104917.0
761.6970, 104665.0
762.8420, 104587.0
763.9880, 104735.0
765.1340, 105007.0
766.2790, 104966.1
767.4240, 104800.0
768.5690, 105075.0
769.7140, 105018.0
770.8590, 105054.0
772.0030, 105566.0
773.1480, 105136.0
774.2920, 105513.0
775.4360, 105771.0
776.5800, 105536.0
777.7240, 105757.0
778.8670, 106095.0
780.0110, 105630.0
781.1540, 105810.0
782.2970, 106114.0
783.4400, 105802.0
784.5830, 106034.0
785.7250, 106041.0
786.8680, 106341.0
788.0100, 106681.0
789.1520, 106421.0
790.2940, 106693.0
791.4360, 106710.0
792.5780, 106764.0
793.7190, 106639.0
794.8600, 106790.0
796.0010, 106809.0
797.1420, 106890.8
798.2830, 107279.0
799.4240, 107139.0
800.5640, 107291.0
801.7050, 107452.0
802.8450, 107243.0
803.9850, 107661.0
805.1250, 107268.0
806.2640, 107167.0
807.4040, 107938.0
808.5430, 108081.0
809.6820, 107722.0
810.8210, 108321.0
811.9600, 108285.0
813.0990, 108710.0
814.2370, 108192.0
815.3760, 108979.0
816.5140, 108819.0
817.6520, 108547.0
818.7900, 109087.0
819.9270, 109096.0
821.0650, 109222.0
822.2020, 109323.0
823.3390, 109402.0
824.4760, 109544.5
825.6130, 109861.0
826.7500, 110050.0
827.8870, 109286.0
829.0230, 109983.0
830.1590, 109634.0
831.2950, 109787.0
832.4310, 110331.0
833.5670, 110229.0
834.7030, 110502.0
835.8380, 110652.0
836.9730, 110936.0
838.1080, 110824.0
839.2430, 111144.0
840.3780, 110704.0
841.5130, 111081.0
842.6470, 111036.0
843.7810, 111506.0
844.9150, 111623.0
846.0490, 111466.0
847.1830, 111830.0
848.3170, 112187.0
849.4500, 111868.0
850.5830, 112035.0
851.7160, 112366.0
852.8490, 112317.0
853.9820, 112621.0
855.1150, 112512.0
856.2470, 112565.0
857.3800, 113404.0
858.5120, 112967.0
859.6440, 113415.0
860.7760, 113157.0
861.9070, 113073.0
863.0390, 113965.0
864.1700, 113654.0
865.3010, 113940.0
866.4320, 114591.0
867.5630, 114784.0
868.6940, 114902.0
869.8240, 115144.0
870.9540, 115704.0
872.0850, 115956.0
873.2150, 116298.0
874.3450, 116630.0
875.4740, 117039.1
876.6040, 117587.0
877.7330, 118054.0
878.8620, 118711.0
879.9910, 119508.0
881.1200, 120567.0
882.2490, 120973.0
883.3770, 122547.0
884.5060, 123777.0
885.6340, 124510.0
886.7620, 126325.0
887.8900, 127471.0
889.0180, 128356.0
890.1450, 129409.0
891.2730, 130094.0
892.4000, 130644.0
893.5270, 131455.0
894.6540, 132303.0
895.7810, 134309.0
896.9070, 135572.0
898.0340, 137547.0
899.1600, 139340.0
900.2860, 140503.0
901.4120, 140882.0
902.5380, 140231.0
903.6630, 137717.0
904.7890, 135382.0
905.9140, 133166.0
907.0390, 130661.0
908.1640, 128332.0
909.2890, 126821.0
910.4130, 125638.0
911.5380, 124665.0
912.6620, 123610.0
913.7860, 123032.2
914.9100, 123174.0
916.0340, 122334.0
917.1580, 122511.0
918.2810, 122813.0
919.4040, 122581.0
920.5280, 122419.0
921.6510, 123121.0
922.7730, 123028.0
923.8960, 123255.0
925.0180, 123394.0
926.1410, 123683.0
927.2630, 123965.0
928.3850, 124764.0
929.5070, 124595.0
930.6280, 126153.0
931.7500, 126180.0
932.8710, 127003.0
933.9920, 127332.0
935.1130, 128843.0
936.2340, 129812.0
937.3550, 130051.0
938.4760, 130694.0
939.5960, 131655.0
940.7160, 132439.4
941.8360, 133712.0
942.9560, 134681.0
944.0760, 136035.0
945.1950, 137464.0
946.3150, 138892.0
947.4340, 140811.0
948.5530, 141655.0
949.6720, 142922.0
950.7900, 143913.0
951.9090, 143646.0
953.0270, 144515.0
954.1460, 143600.0
955.2640, 143617.0
956.3820, 143187.0
957.4990, 142698.0
958.6170, 142921.0
959.7340, 142556.0
960.8520, 142186.0
961.9690, 141487.0
963.0860, 140488.0
964.2020, 139330.0
965.3190, 137567.0
966.4350, 136204.0
967.5520, 134702.0
968.6680, 133115.0
969.7840, 131603.0
970.8990, 130925.0
972.0150, 129620.0
973.1310, 129226.0
974.2460, 128469.0
975.3610, 127523.0
976.4760, 126955.0
977.5910, 126586.6
978.7050, 126401.0
979.8200, 126345.0
980.9340, 126106.0
982.0480, 126401.0
983.1620, 125552.0
984.2760, 126166.0
985.3900, 125207.0
986.5030, 125760.0
987.6160, 126063.0
988.7300, 126356.0
989.8430, 125903.0
990.9550, 126279.0
992.0680, 126864.0
993.1810, 126682.0
994.2930, 127781.0
995.4050, 127492.0
996.5170, 128339.0
997.6290, 129191.0
998.7410, 129606.0
999.8520, 130099.0
1000.964, 130167.0
1002.075, 130566.0
1003.186, 130045.0
1004.297, 128942.0
1005.407, 128538.0
1006.518, 127847.0
1007.628, 127390.0
1008.738, 126743.0
1009.848, 127233.0
1010.958, 126815.0
1012.068, 126629.0
1013.178, 126835.0
1014.287, 126358.0
1015.396, 126102.0
1016.505, 126435.0
1017.614, 126524.0
1018.723, 126466.0
1019.831, 126326.0
1020.940, 126197.0
1022.048, 126441.0
1023.156, 126277.0
1024.264, 126754.0
1025.372, 127302.0
1026.479, 126158.0
1027.587, 126477.0
1028.694, 126791.0
1029.801, 126475.0
1030.908, 126858.0
1032.015, 127252.0
1033.121, 126365.0
1034.228, 126672.0
1035.334, 127028.0
1036.440, 126972.0
1037.546, 126912.0
1038.652, 126972.0
1039.758, 127138.0
1040.863, 127015.0
1041.968, 127293.0
1043.074, 126916.0
1044.178, 126994.0
1045.283, 127616.0
1046.388, 127464.0
1047.492, 127799.0
1048.597, 127753.0
1049.701, 128106.0
1050.805, 128103.0
1051.909, 127714.0
1053.012, 128322.0
1054.116, 128751.0
1055.219, 127958.0
1056.322, 127926.0
1057.425, 128427.0
1058.528, 129086.0
1059.631, 128488.0
1060.733, 128870.0
1061.836, 129077.0
1062.938, 129616.0
1064.040, 129587.0
1065.142, 129246.0
1066.243, 129355.0
1067.345, 129392.0
1068.446, 129463.0
1069.547, 129854.0
1070.648, 129772.0
1071.749, 129899.0
1072.850, 129946.0
1073.951, 129670.0
1075.051, 130116.0
1076.151, 129957.0
1077.251, 130330.0
1078.351, 129985.0
1079.451, 130459.0
1080.550, 130777.0
1081.650, 130588.0
1082.749, 131041.0
1083.848, 130869.0
1084.947, 130580.0
1086.046, 130641.0
1087.144, 130667.6
1088.243, 130964.0
1089.341, 131130.0
1090.439, 131160.0
1091.537, 131698.0
1092.635, 132114.0
1093.732, 131807.0
1094.830, 131836.0
1095.927, 132237.0
1097.024, 131967.0
1098.121, 132224.0
1099.218, 131988.0
1100.314, 131974.0
1101.411, 132856.0
1102.507, 132579.0
1103.603, 132874.0
1104.699, 132767.0
1105.795, 132937.0
1106.890, 133132.0
1107.986, 132951.0
1109.081, 133299.0
1110.176, 133503.0
1111.271, 133437.0
1112.366, 133330.0
1113.461, 133945.0
1114.555, 133604.0
1115.649, 134222.0
1116.744, 133579.0
1117.838, 133928.0
1118.931, 133443.0
1120.025, 134179.0
1121.119, 133983.0
1122.212, 133809.0
1123.305, 134087.0
1124.398, 134510.0
1125.491, 134663.0
1126.584, 134664.0
1127.676, 135194.0
1128.768, 134798.0
1129.861, 135132.0
1130.953, 135575.0
1132.044, 135440.0
1133.136, 135009.0
1134.228, 135112.0
1135.319, 135400.0
1136.410, 135320.0
1137.501, 135444.0
1138.592, 135681.0
1139.683, 135681.0
1140.773, 135779.2
1141.864, 135679.0
1142.954, 135915.0
1144.044, 136071.0
1145.134, 136309.0
1146.224, 135816.0
1147.313, 136390.0
1148.402, 136104.0
1149.492, 136758.0
1150.581, 136071.0
1151.670, 136860.0
1152.758, 137148.0
1153.847, 137421.0
1154.935, 137628.4
1156.024, 137451.0
1157.112, 137584.0
1158.200, 137363.0
1159.287, 137119.0
1160.375, 137636.0
1161.462, 137302.0
1162.550, 137961.0
1163.637, 137783.0
1164.724, 138400.0
1165.810, 137791.0
1166.897, 137969.0
1167.983, 138330.0
1169.070, 138754.0
1170.156, 138686.0
1171.242, 138760.0
1172.327, 138762.0
1173.413, 138658.0
1174.499, 138494.0
1175.584, 138761.0
1176.669, 138531.0
1177.754, 138893.0
1178.839, 139303.0
1179.923, 138970.0
1181.008, 139454.0
1182.092, 139261.0
1183.176, 140181.0
1184.260, 139457.0
1185.344, 139022.0
1186.428, 139947.0
1187.511, 139556.0
1188.595, 140096.0
1189.678, 139524.0
1190.761, 140185.0
1191.843, 140204.0
1192.926, 140292.0
1194.009, 140486.0
1195.091, 140293.0
1196.173, 140789.0
1197.255, 140820.0
1198.337, 140212.0
1199.419, 140506.0
1200.500, 140654.0
1201.582, 140880.0
1202.663, 140894.0
1203.744, 141545.0
1204.825, 141309.0
1205.905, 140759.0
1206.986, 141503.0
1208.066, 142081.0
1209.146, 141624.0
1210.226, 141879.0
1211.306, 141344.0
1212.386, 142142.0
1213.466, 142380.0
1214.545, 142234.0
1215.624, 142172.0
1216.703, 142602.0
1217.782, 142117.0
1218.861, 142600.0
1219.939, 142460.0
1221.018, 142995.0
1222.096, 142627.0
1223.174, 143409.0
1224.252, 143057.0
1225.330, 142952.0
1226.407, 143480.0
1227.485, 143497.0
1228.562, 143648.0
1229.639, 143235.0
1230.716, 144128.0
1231.793, 143863.0
1232.869, 143876.0
1233.946, 144447.0
1235.022, 144385.0
1236.098, 144516.0
1237.174, 144712.0
1238.250, 144612.0
1239.325, 144453.0
1240.401, 144744.0
1241.476, 144325.0
1242.551, 144625.0
1243.626, 144962.0
1244.701, 145612.0
1245.776, 145685.2
1246.850, 145141.0
1247.924, 145705.0
1248.999, 145934.0
1250.073, 145272.0
1251.146, 145677.0
1252.220, 145688.0
1253.293, 146173.0
1254.367, 145855.0
