##NAMES=Kyanite
##RRUFFID=R040119
##IDEAL CHEMISTRY=Al_2_OSiO_4_
##LOCALITY=Rutherford County, North Carolina, USA
##OWNER=RRUFF
##SOURCE=University of Arizona Mineral Museum
##DESCRIPTION=Blue bladed crystal
##STATUS=The identification of this mineral has been confirmed by X-ray diffraction and chemical analysis
##URL=rruff.info/R040119
##MEASURED CHEMISTRY=(Al_0.99_Fe^3+^_0.01_)_2_OSi_1.00_O_4_
##PIN_ID=L00532
##ORIENTATION=Laser parallel to (-1 0 -1). Fiducial mark perpendicular to laser is parallel to b [0 1 0]
77.19600, 66234.00
78.43500, 67746.00
79.67300, 67871.00
80.91200, 68812.00
82.15000, 67719.00
83.38800, 67872.00
84.62600, 68145.00
85.86300, 67325.00
87.10100, 66940.00
88.33800, 67000.00
89.57500, 67067.00
90.81200, 67098.49
92.04900, 67978.00
93.28600, 67283.00
94.52300, 67516.00
95.75900, 67242.00
96.99500, 66620.00
98.23100, 66896.00
99.46700, 67713.00
100.7030, 68300.00
101.9390, 68091.00
103.1740, 68262.00
104.4090, 69112.00
105.6440, 69091.00
106.8790, 68715.00
108.1140, 68627.00
109.3490, 67591.00
110.5830, 68596.00
111.8180, 69896.00
113.0520, 69603.00
114.2860, 69092.00
115.5200, 69313.00
116.7530, 70224.00
117.9870, 69734.00
119.2200, 70538.00
120.4530, 70217.00
121.6860, 69247.00
122.9190, 69185.00
124.1520, 68998.00
125.3850, 68877.00
126.6170, 67868.00
127.8490, 68170.00
129.0810, 67595.00
130.3130, 67376.00
131.5450, 68237.00
132.7770, 68302.00
134.0080, 67800.00
135.2390, 68125.00
136.4710, 68505.00
137.7020, 68456.00
138.9320, 68217.00
140.1630, 69125.00
141.3930, 69352.00
142.6240, 69254.00
143.8540, 68803.00
145.0840, 68807.00
146.3140, 69038.00
147.5440, 68346.00
148.7730, 68459.00
150.0020, 69112.00
151.2320, 69167.00
152.4610, 68822.00
153.6900, 69333.00
154.9180, 69348.00
156.1470, 68853.00
157.3750, 68949.00
158.6040, 69605.00
159.8320, 68680.00
161.0600, 69390.00
162.2870, 69472.00
163.5150, 68917.00
164.7420, 68939.00
165.9700, 68870.00
167.1970, 69376.00
168.4240, 69387.00
169.6510, 69548.23
170.8770, 70248.00
172.1040, 69854.00
173.3300, 70531.00
174.5560, 70845.00
175.7820, 70851.00
177.0080, 70611.00
178.2340, 70238.00
179.4590, 70105.91
180.6850, 69845.00
181.9100, 69793.00
183.1350, 69490.00
184.3600, 69728.00
185.5850, 69598.00
186.8090, 69853.00
188.0340, 70045.00
189.2580, 70079.93
190.4820, 70171.00
191.7060, 70249.00
192.9300, 70404.00
194.1530, 70374.00
195.3770, 70367.00
196.6000, 69999.00
197.8230, 71070.00
199.0460, 71005.00
200.2690, 71323.00
201.4910, 72078.00
202.7140, 72007.00
203.9360, 72246.00
205.1580, 72284.00
206.3800, 72543.00
207.6020, 72283.00
208.8240, 72533.00
210.0450, 71657.00
211.2670, 71745.00
212.4880, 70968.00
213.7090, 71620.00
214.9300, 70898.00
216.1510, 71405.00
217.3710, 72485.00
218.5920, 72535.00
219.8120, 72589.00
221.0320, 73294.00
222.2520, 74194.00
223.4720, 74850.00
224.6910, 74941.00
225.9110, 74841.00
227.1300, 74272.00
228.3490, 73267.00
229.5680, 72671.00
230.7870, 72050.00
232.0050, 71817.00
233.2240, 71817.00
234.4420, 71443.00
235.6600, 71360.00
236.8780, 71652.46
238.0960, 72456.00
239.3140, 72365.00
240.5310, 72549.00
241.7490, 72875.00
242.9660, 72526.00
244.1830, 72642.00
245.4000, 72698.00
246.6160, 73025.00
247.8330, 72626.00
249.0490, 72563.00
250.2660, 72873.00
251.4820, 73290.00
252.6980, 72716.00
253.9130, 73069.00
255.1290, 73400.00
256.3440, 73256.00
257.5600, 73637.00
258.7750, 72551.00
259.9900, 72491.00
261.2040, 72647.00
262.4190, 72289.00
263.6330, 72206.00
264.8480, 72465.00
266.0620, 72631.00
267.2760, 73499.00
268.4900, 73986.00
269.7030, 74777.00
270.9170, 75434.00
272.1300, 76567.00
273.3430, 77288.00
274.5560, 79390.00
275.7690, 80720.00
276.9820, 80767.00
278.1940, 80155.00
279.4070, 79151.00
280.6190, 78374.00
281.8310, 78066.00
283.0430, 78559.00
284.2550, 79158.00
285.4660, 81325.00
286.6770, 83799.00
287.8890, 86769.00
289.1000, 89899.00
290.3110, 92170.00
291.5210, 93245.00
292.7320, 95245.00
293.9420, 98641.00
295.1530, 104160.0
296.3630, 111278.0
297.5730, 120594.0
298.7830, 130874.0
299.9920, 136231.0
301.2020, 128709.0
302.4110, 114837.0
303.6200, 102867.0
304.8290, 93171.00
306.0380, 86968.00
307.2470, 83428.00
308.4550, 81624.00
309.6630, 81482.00
310.8720, 81529.00
312.0800, 82042.00
313.2880, 83287.00
314.4950, 84957.00
315.7030, 87341.00
316.9100, 89969.00
318.1170, 93487.00
319.3240, 99101.00
320.5310, 105849.0
321.7380, 113502.0
322.9450, 121825.0
324.1510, 126315.0
325.3570, 121232.0
326.5630, 110609.0
327.7690, 100359.0
328.9750, 91490.00
330.1810, 86700.00
331.3860, 83010.00
332.5910, 80918.00
333.7960, 79602.00
335.0010, 79648.00
336.2060, 79589.00
337.4110, 80055.00
338.6150, 80641.00
339.8200, 80370.00
341.0240, 80639.00
342.2280, 80073.00
343.4320, 79760.00
344.6350, 79184.00
345.8390, 79047.00
347.0420, 79645.00
348.2450, 79791.00
349.4480, 80175.00
350.6510, 81083.00
351.8540, 82070.00
353.0560, 83888.00
354.2590, 85692.00
355.4610, 88344.00
356.6630, 91329.00
357.8650, 95164.00
359.0670, 97217.00
360.2680, 95666.00
361.4700, 92403.00
362.6710, 90447.00
363.8720, 89416.00
365.0730, 90050.00
366.2740, 91584.00
367.4740, 93925.00
368.6750, 96748.00
369.8750, 100253.0
371.0750, 102077.0
372.2750, 102880.0
373.4750, 104165.0
374.6740, 105345.0
375.8740, 106880.0
377.0730, 106753.0
378.2720, 108061.0
379.4710, 109589.0
380.6700, 112369.0
381.8690, 117058.0
383.0670, 121606.0
384.2660, 122323.0
385.4640, 119501.0
386.6620, 117161.0
387.8600, 117182.0
389.0570, 119041.0
390.2550, 122661.0
391.4520, 123105.0
392.6490, 116615.0
393.8460, 108743.0
395.0430, 103364.0
396.2400, 101534.0
397.4370, 102043.0
398.6330, 106675.0
399.8290, 112467.0
401.0250, 118595.0
402.2210, 124127.0
403.4170, 123272.0
404.6130, 116103.0
405.8080, 106752.0
407.0030, 99087.00
408.1980, 94037.00
409.3930, 90843.00
410.5880, 88904.00
411.7830, 88064.00
412.9770, 88587.00
414.1720, 89335.00
415.3660, 90252.00
416.5600, 91366.00
417.7530, 91726.00
418.9470, 91420.00
420.1410, 90219.00
421.3340, 88797.00
422.5270, 87753.00
423.7200, 87396.00
424.9130, 87865.00
426.1060, 88791.00
427.2980, 90724.00
428.4900, 93541.00
429.6830, 96145.00
430.8750, 100677.0
432.0670, 105725.0
433.2580, 110429.0
434.4500, 115484.0
435.6410, 117880.0
436.8320, 117712.0
438.0240, 114515.0
439.2140, 108653.0
440.4050, 103428.0
441.5960, 99809.00
442.7860, 98072.00
443.9760, 98015.00
445.1670, 98996.00
446.3560, 100071.0
447.5460, 98652.00
448.7360, 96484.00
449.9250, 93225.00
451.1150, 90352.00
452.3040, 88332.00
453.4930, 87263.00
454.6810, 86937.00
455.8700, 87084.00
457.0590, 86872.00
458.2470, 86971.00
459.4350, 87392.00
460.6230, 88446.00
461.8110, 89217.00
462.9980, 89728.00
464.1860, 89979.00
465.3730, 90378.00
466.5600, 90533.00
467.7470, 90498.00
468.9340, 90817.00
470.1210, 92138.00
471.3080, 93340.00
472.4940, 95595.00
473.6800, 98956.00
474.8660, 103895.0
476.0520, 109931.0
477.2380, 117992.0
478.4230, 129204.0
479.6090, 144559.0
480.7940, 161757.0
481.9790, 182637.0
483.1640, 203428.0
484.3490, 219799.0
485.5330, 222547.0
486.7180, 207003.0
487.9020, 184024.0
489.0860, 161985.0
490.2700, 144305.0
491.4540, 131707.0
492.6370, 122028.0
493.8210, 114248.0
495.0040, 107949.0
496.1870, 103058.0
497.3700, 99602.00
498.5530, 97098.00
499.7360, 95387.00
500.9180, 94655.00
502.1000, 93707.00
503.2830, 93278.00
504.4650, 93044.00
505.6460, 93440.00
506.8280, 93424.00
508.0100, 94188.00
509.1910, 95096.00
510.3720, 94415.00
511.5530, 94683.00
512.7340, 93662.00
513.9150, 92751.00
515.0950, 91378.00
516.2760, 90591.00
517.4560, 89802.00
518.6360, 89059.00
519.8160, 88553.00
520.9950, 88306.00
522.1750, 88209.00
523.3540, 88391.00
524.5340, 87889.00
525.7130, 87384.00
526.8920, 87934.00
528.0700, 87851.00
529.2490, 87926.00
530.4270, 88180.00
531.6060, 88122.00
532.7840, 87957.00
533.9620, 88379.00
535.1390, 88463.00
536.3170, 88457.00
537.4940, 88679.00
538.6720, 88853.00
539.8490, 89194.00
541.0260, 89780.00
542.2030, 90036.00
543.3790, 89809.00
544.5560, 90389.00
545.7320, 90600.00
546.9080, 90285.00
548.0840, 89746.00
549.2600, 89888.00
550.4360, 90003.00
551.6110, 90368.00
552.7860, 90654.00
553.9620, 91386.00
555.1370, 92779.00
556.3110, 93374.00
557.4860, 94653.00
558.6610, 97285.00
559.8350, 98814.00
561.0090, 100741.0
562.1830, 101250.0
563.3570, 99703.00
564.5310, 97759.00
565.7040, 96400.00
566.8780, 95430.00
568.0510, 94887.00
569.2240, 94856.00
570.3970, 95253.00
571.5700, 95068.00
572.7420, 95138.00
573.9150, 94804.00
575.0870, 94185.00
576.2590, 94484.00
577.4310, 94107.00
578.6030, 94465.00
579.7740, 95294.00
580.9460, 95385.00
582.1170, 95791.00
583.2880, 96532.00
584.4590, 96115.00
585.6300, 96354.00
586.8010, 95541.00
587.9710, 94595.00
589.1410, 93813.00
590.3110, 93232.00
591.4810, 93103.00
592.6510, 92549.00
593.8210, 93007.00
594.9900, 93284.00
596.1600, 93729.31
597.3290, 94967.00
598.4980, 95363.00
599.6670, 96375.00
600.8350, 97657.00
602.0040, 98571.00
603.1720, 99521.00
604.3400, 100572.0
605.5080, 100925.0
606.6760, 99888.00
607.8440, 98667.00
609.0120, 97590.00
610.1790, 96473.00
611.3460, 96250.00
612.5130, 96395.00
613.6800, 95779.00
614.8470, 95608.00
616.0130, 95869.00
617.1800, 95555.00
618.3460, 95598.00
619.5120, 95818.00
620.6780, 96006.00
621.8440, 95165.00
623.0090, 95888.00
624.1750, 95847.00
625.3400, 96439.00
626.5050, 97077.00
627.6700, 97620.00
628.8350, 98389.00
629.9990, 99061.00
631.1640, 100010.0
632.3280, 101072.0
633.4920, 101644.0
634.6560, 103172.0
635.8200, 103643.0
636.9840, 102899.0
638.1470, 102176.0
639.3100, 100702.0
640.4730, 98970.00
641.6360, 98130.00
642.7990, 97878.00
643.9620, 96835.00
645.1240, 97560.00
646.2870, 97759.00
647.4490, 97533.00
648.6110, 98262.00
649.7730, 98565.00
650.9340, 99196.00
652.0960, 100375.0
653.2570, 101294.0
654.4180, 101821.0
655.5790, 101556.0
656.7400, 101501.0
657.9010, 100803.0
659.0620, 100197.0
660.2220, 99677.00
661.3820, 99025.00
662.5420, 98907.41
663.7020, 98495.00
664.8620, 98885.00
666.0210, 99171.00
667.1810, 99515.00
668.3400, 99459.00
669.4990, 99579.00
670.6580, 99440.00
671.8170, 99001.00
672.9750, 98264.00
674.1340, 98255.00
675.2920, 97477.00
676.4500, 97592.00
677.6080, 97445.00
678.7660, 97979.00
679.9230, 97904.00
681.0810, 98055.00
682.2380, 98297.00
683.3950, 97686.00
684.5520, 97900.00
685.7090, 97806.00
686.8660, 97536.00
688.0220, 96734.00
689.1780, 96916.00
690.3340, 96720.00
691.4900, 96710.00
692.6460, 96798.00
693.8020, 96995.00
694.9570, 97041.00
696.1130, 97115.00
697.2680, 97385.00
698.4230, 97346.54
699.5780, 97445.00
700.7320, 97506.00
701.8870, 97688.00
703.0410, 97727.70
704.1950, 97795.00
705.3490, 97852.00
706.5030, 97930.00
707.6570, 97962.00
708.8110, 97250.00
709.9640, 97751.00
711.1170, 97121.00
712.2700, 97240.00
713.4230, 97413.00
714.5760, 97333.00
715.7280, 97238.00
716.8810, 97230.00
718.0330, 97340.00
719.1850, 97112.00
720.3370, 96938.00
721.4890, 96845.00
722.6400, 96563.00
723.7920, 96503.00
724.9430, 96531.14
726.0940, 96781.00
727.2450, 96686.00
728.3960, 97126.00
729.5460, 97194.00
730.6970, 97319.00
731.8470, 97575.00
732.9970, 97634.00
734.1470, 97889.00
735.2970, 98022.00
736.4460, 98793.00
737.5960, 97882.00
738.7450, 97701.00
739.8940, 98371.00
741.0430, 97941.00
742.1920, 98126.00
743.3410, 98094.00
744.4890, 98399.00
745.6370, 98380.00
746.7850, 98491.00
747.9330, 98092.00
749.0810, 98395.00
750.2290, 98569.00
751.3760, 98329.00
752.5240, 98589.00
753.6710, 98472.00
754.8180, 98468.00
755.9650, 98598.00
757.1110, 98508.00
758.2580, 98184.00
759.4040, 98758.00
760.5510, 98316.00
761.6970, 98385.00
762.8420, 98499.00
763.9880, 98250.00
765.1340, 98298.00
766.2790, 98464.00
767.4240, 98410.00
768.5690, 98281.00
769.7140, 98549.00
770.8590, 98959.00
772.0030, 98872.00
773.1480, 98248.00
774.2920, 99044.00
775.4360, 99023.00
776.5800, 99050.00
777.7240, 99432.00
778.8670, 98901.00
780.0110, 98874.00
781.1540, 99048.00
782.2970, 99221.00
783.4400, 99051.00
784.5830, 99338.00
785.7250, 99111.00
786.8680, 99491.00
788.0100, 99421.00
789.1520, 99564.00
790.2940, 99557.00
791.4360, 99511.00
792.5780, 99407.00
793.7190, 99826.00
794.8600, 99704.00
796.0010, 99765.00
797.1420, 99646.00
798.2830, 100009.0
799.4240, 99886.00
800.5640, 100089.0
801.7050, 100213.0
802.8450, 100125.0
803.9850, 100638.0
805.1250, 100612.0
806.2640, 100975.0
807.4040, 100928.0
808.5430, 101036.0
809.6820, 100753.0
810.8210, 100879.0
811.9600, 100591.0
813.0990, 100854.0
814.2370, 101410.0
815.3760, 101152.0
816.5140, 101254.0
817.6520, 101450.0
818.7900, 101445.0
819.9270, 101918.0
821.0650, 101403.0
822.2020, 101848.0
823.3390, 101962.0
824.4760, 101685.0
825.6130, 101755.0
826.7500, 102293.0
827.8870, 102061.0
829.0230, 101773.0
830.1590, 102427.0
831.2950, 102240.0
832.4310, 102828.0
833.5670, 103171.0
834.7030, 103199.0
835.8380, 102881.0
836.9730, 103110.0
838.1080, 103089.0
839.2430, 103158.0
840.3780, 103403.0
841.5130, 103527.0
842.6470, 103096.0
843.7810, 103880.0
844.9150, 103334.0
846.0490, 103957.0
847.1830, 104047.0
848.3170, 104262.0
849.4500, 104647.0
850.5830, 104628.0
851.7160, 104829.0
852.8490, 104627.0
853.9820, 105070.0
855.1150, 105077.0
856.2470, 105505.0
857.3800, 105294.0
858.5120, 105956.0
859.6440, 106079.0
860.7760, 106192.0
861.9070, 106745.0
863.0390, 106863.0
864.1700, 106933.0
865.3010, 106998.0
866.4320, 107737.0
867.5630, 107923.0
868.6940, 108719.0
869.8240, 108790.0
870.9540, 109177.0
872.0850, 109845.0
873.2150, 110740.0
874.3450, 111296.0
875.4740, 111832.0
876.6040, 112981.0
877.7330, 113818.0
878.8620, 115066.9
879.9910, 116532.0
881.1200, 117918.0
882.2490, 120036.0
883.3770, 121848.0
884.5060, 124396.0
885.6340, 126954.0
886.7620, 130284.0
887.8900, 131893.0
889.0180, 134044.0
890.1450, 134431.0
891.2730, 134063.0
892.4000, 133576.0
893.5270, 133212.0
894.6540, 132569.0
895.7810, 132041.0
896.9070, 133597.0
898.0340, 134744.0
899.1600, 135475.0
900.2860, 135600.0
901.4120, 134399.0
902.5380, 132490.0
903.6630, 129745.0
904.7890, 127555.0
905.9140, 125000.0
907.0390, 123097.0
908.1640, 120933.0
909.2890, 119798.0
910.4130, 119123.0
911.5380, 118087.0
912.6620, 118671.0
913.7860, 117873.0
914.9100, 118281.0
916.0340, 118914.0
917.1580, 118660.0
918.2810, 118772.0
919.4040, 119177.0
920.5280, 119439.1
921.6510, 120149.0
922.7730, 120588.0
923.8960, 121481.0
925.0180, 122357.0
926.1410, 123388.0
927.2630, 123928.0
928.3850, 125009.0
929.5070, 126271.0
930.6280, 128236.0
931.7500, 129820.0
932.8710, 131472.0
933.9920, 133856.0
935.1130, 135845.0
936.2340, 138365.0
937.3550, 139332.0
938.4760, 142588.0
939.5960, 144729.0
940.7160, 146926.0
941.8360, 150553.0
942.9560, 153942.0
944.0760, 158110.0
945.1950, 161106.0
946.3150, 165355.0
947.4340, 168641.0
948.5530, 172016.0
949.6720, 174158.0
950.7900, 174562.0
951.9090, 174176.0
953.0270, 172447.0
954.1460, 170873.0
955.2640, 168948.0
956.3820, 166843.0
957.4990, 166587.0
958.6170, 164538.0
959.7340, 164167.0
960.8520, 161936.0
961.9690, 159182.0
963.0860, 156485.0
964.2020, 152467.0
965.3190, 148621.0
966.4350, 144212.0
967.5520, 140970.0
968.6680, 137454.0
969.7840, 134664.0
970.8990, 132288.0
972.0150, 129609.0
973.1310, 128106.0
974.2460, 126700.0
975.3610, 125271.0
976.4760, 124287.0
977.5910, 123672.0
978.7050, 122700.0
979.8200, 121696.0
980.9340, 121371.0
982.0480, 120686.0
983.1620, 120499.0
984.2760, 120169.0
985.3900, 119812.3
986.5030, 119891.0
987.6160, 119475.0
988.7300, 119690.0
989.8430, 119975.0
990.9550, 119752.0
992.0680, 120958.0
993.1810, 120455.0
994.2930, 121662.0
995.4050, 122673.0
996.5170, 124048.0
997.6290, 124766.0
998.7410, 125576.0
999.8520, 125647.0
1000.964, 125345.0
1002.075, 125373.0
1003.186, 123853.0
1004.297, 122576.0
1005.407, 121942.0
1006.518, 120980.0
1007.628, 120438.0
1008.738, 119432.0
1009.848, 119552.0
1010.958, 119398.0
1012.068, 118629.0
1013.178, 118221.0
1014.287, 118351.0
1015.396, 117979.0
1016.505, 117783.0
1017.614, 118046.0
1018.723, 117797.0
1019.831, 117745.0
1020.940, 118040.0
1022.048, 117435.0
1023.156, 117900.0
1024.264, 117531.0
1025.372, 117280.0
1026.479, 117036.0
1027.587, 117525.0
1028.694, 117144.0
1029.801, 117679.0
1030.908, 117145.0
1032.015, 117358.0
1033.121, 117673.0
1034.228, 117246.0
1035.334, 117071.0
1036.440, 117232.0
1037.546, 117363.0
1038.652, 117436.6
1039.758, 116970.0
1040.863, 117624.0
1041.968, 117598.0
1043.074, 117377.0
1044.178, 118002.0
1045.283, 117691.0
1046.388, 117769.0
1047.492, 117808.0
1048.597, 118290.0
1049.701, 117924.0
1050.805, 117968.0
1051.909, 118168.0
1053.012, 118074.0
1054.116, 118125.0
1055.219, 118169.0
1056.322, 118340.1
1057.425, 118455.1
1058.528, 118566.1
1059.631, 118818.0
1060.733, 118806.0
1061.836, 119027.0
1062.938, 119133.0
1064.040, 119225.0
1065.142, 119258.0
1066.243, 119310.0
1067.345, 119658.0
1068.446, 119371.0
1069.547, 119245.0
1070.648, 119812.0
1071.749, 119239.0
1072.850, 119366.0
1073.951, 119478.0
1075.051, 119539.0
1076.151, 119370.0
1077.251, 119259.0
1078.351, 120137.0
1079.451, 119984.0
1080.550, 120250.0
1081.650, 120330.0
1082.749, 120305.0
1083.848, 120518.0
1084.947, 120703.0
1086.046, 120452.0
1087.144, 120193.0
1088.243, 120441.0
1089.341, 120940.0
1090.439, 120792.0
1091.537, 120831.0
1092.635, 120811.0
1093.732, 121211.0
1094.830, 121155.0
1095.927, 121095.0
1097.024, 121488.0
1098.121, 121251.0
1099.218, 121799.0
1100.314, 121588.0
1101.411, 122082.0
1102.507, 121814.0
1103.603, 121925.0
1104.699, 122176.0
1105.795, 121732.0
1106.890, 122573.0
1107.986, 122082.0
1109.081, 122699.0
1110.176, 122576.0
1111.271, 122348.0
1112.366, 123222.0
1113.461, 122322.0
1114.555, 122900.0
1115.649, 122699.0
1116.744, 122935.0
1117.838, 122882.0
1118.931, 122854.0
1120.025, 122933.0
1121.119, 123265.0
1122.212, 123259.0
1123.305, 123599.0
1124.398, 123620.0
1125.491, 123385.0
1126.584, 123485.0
1127.676, 123961.0
1128.768, 123490.0
1129.861, 123649.0
1130.953, 123933.0
1132.044, 123788.0
1133.136, 123962.0
1134.228, 124150.0
1135.319, 123929.0
1136.410, 123914.0
1137.501, 124152.0
1138.592, 124306.0
1139.683, 124239.0
1140.773, 124233.0
1141.864, 124587.0
1142.954, 124639.0
1144.044, 124803.0
1145.134, 124908.5
1146.224, 124848.0
1147.313, 124942.0
1148.402, 125046.0
1149.492, 124911.0
1150.581, 125319.0
1151.670, 125163.0
1152.758, 125513.0
1153.847, 125621.0
1154.935, 125770.0
1156.024, 125531.0
1157.112, 126046.0
1158.200, 126293.0
1159.287, 125832.0
1160.375, 125984.0
1161.462, 126105.0
1162.550, 126058.0
1163.637, 126096.0
1164.724, 126210.3
1165.810, 126528.0
1166.897, 126404.0
1167.983, 126723.0
1169.070, 126780.0
1170.156, 126422.0
1171.242, 127058.0
1172.327, 127446.0
1173.413, 126956.0
1174.499, 126678.0
1175.584, 127158.0
1176.669, 126797.0
1177.754, 127448.0
1178.839, 126781.0
1179.923, 127722.0
1181.008, 127528.0
1182.092, 127699.0
1183.176, 127390.0
1184.260, 127408.0
1185.344, 127857.0
1186.428, 128269.0
1187.511, 127742.0
1188.595, 127853.0
1189.678, 127899.0
1190.761, 128196.0
1191.843, 128309.0
1192.926, 128070.0
1194.009, 128605.0
1195.091, 128374.0
1196.173, 128538.0
1197.255, 128695.0
1198.337, 128800.0
1199.419, 128263.0
1200.500, 128584.0
1201.582, 128667.0
1202.663, 128640.0
1203.744, 129016.0
1204.825, 129492.0
1205.905, 128957.0
1206.986, 129726.0
1208.066, 129391.0
1209.146, 129554.0
1210.226, 129757.0
1211.306, 129637.0
1212.386, 129989.0
1213.466, 129523.0
1214.545, 130879.0
1215.624, 130327.0
1216.703, 130675.0
1217.782, 129922.0
1218.861, 130379.0
1219.939, 130875.0
1221.018, 131029.0
1222.096, 131063.0
1223.174, 131454.0
1224.252, 130766.0
1225.330, 131285.0
1226.407, 131007.0
1227.485, 131613.0
1228.562, 131163.0
1229.639, 131267.0
1230.716, 131894.0
1231.793, 131559.0
1232.869, 131848.0
1233.946, 132315.0
1235.022, 132077.0
1236.098, 132057.0
1237.174, 132090.0
1238.250, 132448.0
1239.325, 132230.0
1240.401, 132608.0
1241.476, 132657.0
1242.551, 132243.0
1243.626, 132773.0
1244.701, 132470.0
1245.776, 132596.0
1246.850, 132316.0
1247.924, 133028.0
1248.999, 133384.0
1250.073, 132961.0
1251.146, 133116.0
1252.220, 133099.0
1253.293, 132986.0
1254.367, 133298.0
1255.440, 133048.0
1256.513, 133433.0
1257.586, 133218.0
1258.658, 133566.0
1259.731, 133806.0
1260.803, 133453.0
