##NAMES=Kyanite
##RRUFFID=R050450
##IDEAL CHEMISTRY=Al_2_OSiO_4_
##LOCALITY=Switzerland
##OWNER=RRUFF
##SOURCE=Marcus Origlieri
##DESCRIPTION=Blue bladed crystals
##STATUS=The identification of this mineral has been confirmed by X-ray diffraction and chemical analysis
##URL=rruff.info/R050450
##MEASURED CHEMISTRY=Al_2.00_OSi_1.00_O_4_
##PIN_ID=M01855
##ORIENTATION=Laser parallel to (1 1 0). Fiducial mark perpendicular to laser is parallel to c [0 0 1]
148.7160, 15791.45
149.9470, 15641.00
151.1780, 15864.00
152.4080, 15864.00
153.6380, 15846.00
154.8690, 15768.00
156.0980, 15720.00
157.3280, 15741.07
158.5580, 15762.00
159.7870, 15780.00
161.0170, 15888.00
162.2460, 15892.00
163.4750, 15922.00
164.7030, 15842.00
165.9320, 15818.00
167.1600, 16008.00
168.3890, 15803.00
169.6170, 16010.00
170.8450, 16110.00
172.0730, 15920.00
173.3000, 16024.00
174.5280, 16000.00
175.7550, 16133.00
176.9820, 16022.00
178.2090, 15968.00
179.4350, 16011.00
180.6620, 15980.00
181.8880, 15979.00
183.1150, 16055.00
184.3410, 16038.00
185.5670, 16034.00
186.7920, 16115.00
188.0180, 16090.00
189.2430, 16077.00
190.4690, 16074.00
191.6940, 16113.00
192.9180, 15938.00
194.1430, 15992.00
195.3680, 16036.00
196.5920, 16165.00
197.8160, 16237.00
199.0400, 16144.00
200.2640, 16302.00
201.4880, 16180.00
202.7110, 16289.00
203.9350, 16356.00
205.1580, 16512.00
206.3810, 16581.00
207.6040, 16720.00
208.8270, 16650.00
210.0490, 16555.00
211.2710, 16320.00
212.4940, 16617.00
213.7160, 16379.00
214.9370, 16415.00
216.1590, 16504.00
217.3810, 16323.00
218.6020, 16356.00
219.8230, 16525.00
221.0440, 16499.00
222.2650, 16746.00
223.4860, 16945.00
224.7060, 17190.00
225.9260, 17238.00
227.1470, 17378.00
228.3670, 17491.00
229.5860, 17331.00
230.8060, 17035.00
232.0260, 16792.00
233.2450, 16674.00
234.4640, 16785.00
235.6830, 16665.00
236.9020, 16728.00
238.1200, 16633.00
239.3390, 16654.00
240.5570, 16810.00
241.7750, 16837.00
242.9930, 16747.00
244.2110, 16998.00
245.4290, 16881.00
246.6460, 16907.00
247.8630, 16817.00
249.0810, 17080.00
250.2980, 16972.00
251.5140, 16868.00
252.7310, 16900.00
253.9470, 16793.00
255.1640, 16862.00
256.3800, 16801.00
257.5960, 16874.00
258.8120, 16768.00
260.0270, 16984.00
261.2430, 16952.00
262.4580, 17023.00
263.6730, 17003.00
264.8880, 16884.00
266.1030, 16870.00
267.3170, 17078.00
268.5320, 17211.00
269.7460, 17178.00
270.9600, 17464.00
272.1740, 17528.00
273.3880, 17706.00
274.6010, 18186.00
275.8150, 18544.00
277.0280, 19004.00
278.2410, 19373.00
279.4540, 19474.00
280.6670, 19331.00
281.8790, 18774.00
283.0920, 18471.00
284.3040, 18244.00
285.5160, 17996.00
286.7280, 18294.00
287.9400, 18591.00
289.1510, 19368.00
290.3630, 20259.00
291.5740, 21518.00
292.7850, 22458.00
293.9960, 23357.00
295.2070, 23030.00
296.4170, 23099.00
297.6280, 24255.00
298.8380, 26947.00
300.0480, 30076.00
301.2580, 32490.00
302.4680, 34072.00
303.6770, 33427.00
304.8870, 30161.00
306.0960, 26380.00
307.3050, 23136.00
308.5140, 20544.00
309.7230, 19282.00
310.9310, 18529.00
312.1400, 18247.00
313.3480, 18261.00
314.5560, 18359.00
315.7640, 18745.00
316.9720, 19229.00
318.1790, 19883.00
319.3870, 20563.00
320.5940, 20895.00
321.8010, 22192.00
323.0080, 24580.00
324.2150, 27165.00
325.4210, 29127.00
326.6280, 30233.00
327.8340, 30158.00
329.0400, 27697.00
330.2460, 24839.00
331.4510, 22110.00
332.6570, 20407.00
333.8620, 19136.00
335.0680, 18576.00
336.2730, 18418.00
337.4780, 18443.00
338.6820, 18677.00
339.8870, 19005.00
341.0910, 19461.00
342.2950, 19377.00
343.5000, 19559.00
344.7030, 19227.00
345.9070, 18928.00
347.1110, 18833.00
348.3140, 18340.00
349.5170, 18297.00
350.7200, 18387.00
351.9230, 18778.00
353.1260, 19169.00
354.3290, 19375.00
355.5310, 19613.00
356.7330, 20654.00
357.9350, 21850.00
359.1370, 23317.00
360.3390, 24492.00
361.5400, 24904.00
362.7420, 24252.00
363.9430, 22986.00
365.1440, 21344.00
366.3450, 19862.00
367.5460, 19174.00
368.7460, 18860.00
369.9470, 18881.00
371.1470, 19204.00
372.3470, 19504.00
373.5470, 19627.00
374.7460, 19979.00
375.9460, 20343.00
377.1450, 20734.00
378.3450, 21224.00
379.5440, 21390.00
380.7430, 22046.00
381.9410, 23038.00
383.1400, 24539.00
384.3380, 25902.00
385.5370, 27012.00
386.7350, 27346.00
387.9320, 26727.00
389.1300, 25655.00
390.3280, 25293.00
391.5250, 25312.00
392.7220, 25059.00
393.9190, 25048.00
395.1160, 24747.00
396.3130, 23466.00
397.5100, 22629.00
398.7060, 21919.00
399.9020, 21928.00
401.0980, 22970.00
402.2940, 24531.00
403.4900, 26291.00
404.6860, 27241.00
405.8810, 27393.00
407.0760, 26421.00
408.2710, 24354.00
409.4660, 22250.00
410.6610, 20973.00
411.8550, 19854.00
413.0500, 19525.00
414.2440, 19454.00
415.4380, 19326.00
416.6320, 19462.00
417.8260, 19703.00
419.0190, 20134.00
420.2130, 20391.00
421.4060, 20167.00
422.5990, 20066.00
423.7920, 19683.00
424.9850, 19554.00
426.1770, 19481.00
427.3700, 19715.00
428.5620, 19837.00
429.7540, 20304.00
430.9460, 21203.00
432.1380, 22168.00
433.3290, 23473.00
434.5210, 24798.00
435.7120, 26890.00
436.9030, 28811.00
438.0940, 30629.00
439.2850, 30990.00
440.4750, 30612.00
441.6660, 28838.00
442.8560, 26564.00
444.0460, 24228.00
445.2360, 22454.00
446.4260, 22155.00
447.6160, 21968.00
448.8050, 22032.00
449.9940, 21781.00
451.1830, 21305.00
452.3720, 20528.00
453.5610, 19832.00
454.7500, 19453.00
455.9380, 19083.00
457.1260, 19021.00
458.3150, 18809.00
459.5020, 18860.00
460.6900, 18847.00
461.8780, 18936.00
463.0650, 19011.00
464.2530, 18905.00
465.4400, 19039.00
466.6270, 19167.00
467.8130, 19146.00
469.0000, 19091.00
470.1870, 19240.00
471.3730, 19371.00
472.5590, 19375.00
473.7450, 19512.00
474.9310, 20033.00
476.1160, 20680.00
477.3020, 21632.00
478.4870, 23099.00
479.6720, 24846.00
480.8570, 26486.00
482.0420, 29247.00
483.2270, 32611.00
484.4110, 37421.00
485.5960, 42639.00
486.7800, 45752.00
487.9640, 46985.00
489.1480, 45304.00
490.3310, 40395.00
491.5150, 35233.00
492.6980, 31010.00
493.8810, 27468.00
495.0640, 25229.00
496.2470, 23819.00
497.4300, 22616.00
498.6120, 21937.00
499.7950, 21105.00
500.9770, 20861.00
502.1590, 20474.00
503.3410, 20442.00
504.5220, 20149.00
505.7040, 20334.00
506.8850, 20379.00
508.0660, 20272.00
509.2470, 20680.00
510.4280, 20735.00
511.6090, 20876.00
512.7890, 20881.00
513.9700, 20904.00
515.1500, 20756.00
516.3300, 20646.00
517.5100, 20268.00
518.6900, 19926.00
519.8690, 19709.00
521.0490, 19557.00
522.2280, 19444.00
523.4070, 19348.56
524.5860, 19295.00
525.7640, 19258.00
526.9430, 19218.80
528.1210, 19328.00
529.3000, 19203.00
530.4780, 19206.00
531.6560, 19240.00
532.8330, 19086.00
534.0110, 19133.00
535.1880, 19153.00
536.3650, 19060.00
537.5430, 19039.00
538.7190, 19058.26
539.8960, 19065.00
541.0730, 19145.00
542.2490, 19227.00
543.4250, 19365.00
544.6020, 19318.00
545.7780, 19451.00
546.9530, 19635.00
548.1290, 19614.00
549.3040, 19512.00
550.4800, 19578.00
551.6550, 19361.00
552.8300, 19527.00
554.0040, 19512.00
555.1790, 19961.00
556.3540, 20340.00
557.5280, 20632.00
558.7020, 21185.51
559.8760, 21639.00
561.0500, 22309.00
562.2230, 23052.00
563.3970, 23811.00
564.5700, 23801.00
565.7430, 23042.00
566.9160, 22114.00
568.0890, 21383.00
569.2620, 20888.00
570.4340, 20530.00
571.6070, 20449.00
572.7790, 20026.00
573.9510, 20068.00
575.1230, 19891.00
576.2940, 20007.00
577.4660, 19897.00
578.6370, 19927.00
579.8080, 20114.00
580.9790, 20023.00
582.1500, 20253.00
583.3210, 20114.00
584.4910, 20260.00
585.6620, 20375.00
586.8320, 20481.00
588.0020, 20476.00
589.1720, 20170.00
590.3410, 20304.00
591.5110, 19996.00
592.6800, 20172.00
593.8500, 20210.00
595.0190, 20182.00
596.1880, 20621.00
597.3560, 20504.00
598.5250, 21009.00
599.6930, 21136.00
600.8620, 21599.00
602.0300, 22225.00
603.1970, 22467.00
604.3650, 23306.00
605.5330, 24090.00
606.7000, 24689.00
607.8680, 24694.00
609.0350, 24588.00
610.2020, 23927.00
611.3680, 23305.00
612.5350, 22664.00
613.7010, 22303.00
614.8680, 22252.00
616.0340, 22284.00
617.2000, 22186.00
618.3660, 22438.00
619.5310, 22498.00
620.6970, 22199.00
621.8620, 22560.00
623.0270, 22468.00
624.1920, 22433.00
625.3570, 22820.00
626.5220, 22705.00
627.6860, 22783.00
628.8500, 22909.00
630.0140, 23200.00
631.1780, 23073.00
632.3420, 22729.00
633.5060, 22457.00
634.6700, 22051.00
635.8330, 21624.00
636.9960, 21499.00
638.1590, 21608.00
639.3220, 21574.00
640.4850, 21339.00
641.6470, 21334.00
642.8100, 21165.00
643.9720, 21159.00
645.1340, 21214.00
646.2960, 21079.00
647.4570, 21224.00
648.6190, 21086.00
649.7800, 21265.00
650.9420, 21239.00
652.1030, 21183.00
653.2640, 21185.00
654.4240, 21235.00
655.5850, 21900.00
656.7450, 21582.00
657.9060, 21545.00
659.0660, 21245.00
660.2260, 21124.00
661.3850, 21140.00
662.5450, 20969.00
663.7040, 20927.00
664.8640, 20972.00
666.0230, 20946.00
667.1820, 21100.00
668.3410, 21233.00
669.4990, 21215.00
670.6580, 21345.00
671.8160, 21229.00
672.9740, 21168.00
674.1320, 21085.00
675.2900, 20883.00
676.4480, 20876.00
677.6050, 20641.00
678.7630, 20402.00
679.9200, 20395.00
681.0770, 20399.00
682.2340, 20342.00
683.3900, 20344.24
684.5470, 20408.00
685.7030, 20288.00
686.8590, 20262.00
688.0150, 20185.00
689.1710, 20352.00
690.3270, 20321.00
691.4830, 20225.00
692.6380, 20461.00
693.7930, 20283.00
694.9480, 20248.00
696.1030, 20277.00
697.2580, 20186.00
698.4130, 20497.00
699.5670, 20248.00
700.7210, 20572.00
701.8750, 20641.00
703.0290, 20568.00
704.1830, 20645.00
705.3370, 20553.00
706.4900, 20739.00
707.6430, 20581.00
708.7970, 20626.00
709.9490, 20507.00
711.1020, 20497.30
712.2550, 20596.00
713.4070, 20468.00
714.5600, 20484.00
715.7120, 20450.00
716.8640, 20539.00
718.0160, 20529.00
719.1670, 20610.00
720.3190, 20611.00
721.4700, 20740.00
722.6210, 20760.27
723.7720, 20739.00
724.9230, 20845.00
726.0740, 20843.00
727.2250, 20877.00
728.3750, 20898.14
729.5250, 20796.00
730.6750, 20854.00
731.8250, 20862.00
732.9750, 20740.00
734.1240, 20814.00
735.2740, 20828.00
736.4230, 20781.00
737.5720, 20739.00
738.7210, 20668.00
739.8700, 20872.00
741.0190, 20890.00
742.1670, 20746.00
743.3150, 20910.00
744.4630, 20792.00
745.6110, 21017.00
746.7590, 20907.00
747.9070, 20915.00
749.0540, 20829.00
750.2020, 20890.00
751.3490, 20824.00
752.4960, 20884.00
753.6430, 20748.00
754.7890, 20893.00
755.9360, 21137.00
757.0820, 20886.00
758.2280, 21028.00
759.3740, 20906.00
760.5200, 20883.00
761.6660, 20987.00
762.8120, 20945.00
763.9570, 21087.00
765.1020, 21110.00
766.2470, 20951.00
767.3920, 20875.00
768.5370, 21261.00
769.6810, 21138.00
770.8260, 21256.55
771.9700, 21625.00
773.1140, 21268.00
774.2580, 21347.00
775.4020, 21164.00
776.5460, 21119.03
777.6890, 21349.00
778.8320, 21097.00
779.9750, 21294.00
781.1180, 21306.00
782.2610, 21377.00
783.4040, 21203.00
784.5460, 21435.00
785.6890, 21333.00
786.8310, 21402.00
787.9730, 21444.00
789.1150, 21262.00
790.2560, 21369.00
791.3980, 21436.00
792.5390, 21222.00
793.6810, 21348.00
794.8220, 21627.00
795.9630, 21701.00
797.1030, 21644.00
798.2440, 21641.00
799.3840, 21432.00
800.5240, 21710.00
801.6650, 21442.00
802.8040, 21545.00
803.9440, 21758.00
805.0840, 21485.00
806.2230, 21637.00
807.3630, 21615.00
808.5020, 21656.00
809.6410, 21732.00
810.7790, 21830.00
811.9180, 21835.00
813.0570, 21905.00
814.1950, 22090.00
815.3330, 22060.19
816.4710, 21888.00
817.6090, 22084.00
818.7470, 22016.00
819.8840, 21978.00
821.0220, 22066.00
822.1590, 21885.00
823.2960, 22186.00
824.4330, 22082.00
825.5690, 22122.00
826.7060, 22233.00
827.8420, 21962.00
828.9790, 22065.00
830.1150, 22080.00
831.2510, 22209.00
832.3860, 22307.00
833.5220, 22339.00
834.6570, 22327.00
835.7930, 22386.93
836.9280, 22448.00
838.0630, 22423.00
839.1980, 22515.00
840.3320, 22508.00
841.4670, 22573.00
842.6010, 22495.00
843.7350, 22468.00
844.8690, 22691.00
846.0030, 22552.00
847.1370, 22739.00
848.2700, 22851.00
849.4040, 22999.00
850.5370, 23032.00
851.6700, 23058.00
852.8030, 23210.00
853.9360, 23145.00
855.0680, 23279.00
856.2000, 23202.00
857.3330, 23359.00
858.4650, 23435.00
859.5970, 23444.00
860.7290, 23587.00
861.8600, 23508.18
862.9920, 23672.00
864.1230, 23500.00
865.2540, 23511.00
866.3850, 23764.00
867.5160, 23520.00
868.6460, 23462.00
869.7770, 23401.00
870.9070, 23623.00
872.0370, 23555.00
873.1670, 23573.00
874.2970, 23683.00
875.4270, 23678.83
876.5570, 23830.00
877.6860, 23804.00
878.8150, 23944.00
879.9440, 24043.00
881.0730, 24057.00
882.2020, 24201.00
883.3300, 24441.00
884.4590, 24581.00
885.5870, 24888.00
886.7150, 25263.00
887.8430, 25231.00
888.9710, 25783.00
890.0990, 25766.00
891.2260, 25844.00
892.3530, 25855.00
893.4810, 25686.00
894.6080, 25544.00
895.7340, 25282.00
896.8610, 24863.00
897.9880, 24848.00
899.1140, 24612.00
900.2400, 24751.00
901.3660, 24961.00
902.4920, 24511.00
903.6180, 24518.00
904.7430, 24504.00
905.8690, 24792.00
906.9940, 24870.00
908.1190, 24929.00
909.2440, 24869.00
910.3690, 24855.00
911.4930, 25247.00
912.6180, 24965.00
913.7420, 25089.00
914.8660, 25207.00
915.9900, 25089.00
917.1140, 25287.00
918.2380, 25566.00
919.3610, 25774.00
920.4850, 25856.00
921.6080, 25803.00
922.7310, 26024.00
923.8540, 26149.00
924.9760, 26376.00
926.0990, 26602.00
927.2210, 26837.00
928.3440, 27293.00
929.4660, 27495.00
930.5880, 28009.00
931.7090, 28546.00
932.8310, 28938.00
933.9520, 29471.00
935.0740, 30149.00
936.1950, 30794.00
937.3160, 31594.00
938.4360, 32326.00
939.5570, 33252.00
940.6780, 34191.00
941.7980, 35616.56
942.9180, 37005.00
944.0380, 39033.00
945.1580, 40836.00
946.2780, 43207.00
947.3970, 46105.00
948.5170, 49040.00
949.6360, 51195.00
950.7550, 53494.00
951.8740, 54644.00
952.9930, 54567.00
954.1110, 53153.00
955.2300, 51427.00
956.3480, 48769.00
957.4660, 46439.00
958.5840, 43861.00
959.7020, 42180.00
960.8190, 40793.00
961.9370, 39841.00
963.0540, 38461.00
964.1710, 37263.00
965.2880, 36199.00
966.4050, 34741.00
967.5220, 33801.00
968.6380, 32712.00
969.7550, 31587.00
970.8710, 30642.00
971.9870, 29972.00
973.1030, 29400.00
974.2190, 28765.00
975.3340, 28266.50
976.4500, 27515.00
977.5650, 27450.00
978.6800, 26872.00
979.7950, 26762.00
980.9100, 26565.00
982.0250, 26592.00
983.1390, 26319.00
984.2530, 26464.00
985.3680, 26214.00
986.4820, 26073.00
987.5950, 26180.00
988.7090, 26145.00
989.8230, 25962.00
990.9360, 26253.00
992.0490, 26048.00
993.1620, 26256.00
994.2750, 26546.00
995.3880, 27353.00
996.5010, 27550.00
997.6130, 28273.00
998.7250, 28901.00
999.8370, 29586.00
1000.949, 30082.00
1002.061, 30388.00
1003.173, 30141.00
1004.284, 29511.00
1005.396, 28800.00
1006.507, 28125.00
1007.618, 27611.30
1008.729, 27130.99
1009.839, 26679.00
1010.950, 26401.00
1012.060, 26109.00
1013.171, 25833.00
1014.281, 25841.00
1015.391, 25812.00
1016.500, 25636.00
1017.610, 25529.00
1018.719, 25648.00
1019.829, 25771.00
1020.938, 25730.00
1022.047, 25661.00
1023.156, 25745.00
1024.264, 25708.00
1025.373, 25625.00
1026.481, 25554.00
1027.589, 25682.00
1028.697, 25558.00
1029.805, 25491.00
1030.913, 25578.00
1032.020, 25468.00
1033.128, 25318.00
1034.235, 25294.00
1035.342, 25327.00
1036.449, 25474.00
1037.556, 25361.00
1038.663, 25345.00
1039.769, 25420.00
1040.875, 25333.32
1041.981, 25348.00
1043.087, 25250.00
1044.193, 25390.00
1045.299, 25311.00
1046.404, 25398.00
1047.510, 25444.00
1048.615, 25295.00
1049.720, 25507.00
1050.825, 25632.00
1051.930, 25647.00
1053.034, 25627.00
1054.139, 25516.00
1055.243, 25735.00
1056.347, 25593.00
1057.451, 25507.00
1058.555, 25605.00
1059.658, 25545.60
1060.762, 25717.00
1061.865, 25616.00
1062.968, 25607.00
1064.071, 25658.00
1065.174, 25889.00
1066.277, 25647.00
1067.380, 25809.00
1068.482, 25815.00
1069.584, 25776.00
1070.686, 25840.00
1071.788, 25802.00
1072.890, 25997.00
1073.992, 25812.00
1075.093, 25935.00
1076.194, 26001.00
1077.295, 26261.00
1078.396, 26356.00
1079.497, 26289.00
1080.598, 26393.00
1081.698, 26375.00
1082.799, 26340.00
1083.899, 26516.00
1084.999, 26542.00
1086.099, 26374.00
1087.199, 26228.00
1088.298, 26572.00
1089.398, 26413.00
1090.497, 26639.00
1091.596, 26424.00
1092.695, 26299.00
1093.794, 26511.00
1094.892, 26160.00
1095.991, 26324.00
1097.089, 26431.00
1098.187, 26265.00
1099.285, 26450.00
1100.383, 26103.00
1101.481, 26548.00
1102.579, 26452.00
1103.676, 26417.00
1104.773, 26541.00
1105.870, 26442.00
1106.967, 26319.00
1108.064, 26713.00
1109.161, 26433.00
1110.257, 26806.00
1111.353, 26662.00
1112.449, 26472.00
1113.545, 26654.00
1114.641, 26587.00
1115.737, 26552.00
1116.832, 26809.00
1117.928, 26988.00
1119.023, 26944.00
1120.118, 26948.00
1121.213, 27196.00
1122.308, 27043.00
1123.402, 27133.00
1124.497, 27151.00
1125.591, 27081.00
1126.685, 27043.00
1127.779, 26905.00
1128.873, 26848.00
1129.967, 27140.00
1131.060, 26870.00
1132.153, 26956.00
1133.247, 27032.00
1134.340, 26966.00
1135.433, 26920.00
1136.525, 27056.00
1137.618, 27031.00
1138.710, 27112.00
1139.802, 27067.00
1140.895, 27100.77
1141.987, 27301.00
1143.078, 27099.00
1144.170, 27156.00
1145.261, 27084.00
1146.353, 27424.00
1147.444, 27262.00
1148.535, 27207.00
1149.626, 27293.00
1150.716, 27100.00
1151.807, 27281.00
1152.897, 27201.00
1153.988, 27317.00
1155.078, 27381.00
1156.168, 27245.00
1157.257, 27220.00
1158.347, 27466.00
1159.436, 27704.00
1160.526, 27666.00
1161.615, 27129.00
1162.704, 27706.00
1163.793, 27358.00
1164.881, 27508.00
1165.970, 27658.00
1167.058, 27532.00
1168.147, 27655.00
1169.235, 27762.00
1170.323, 27904.00
1171.410, 27947.00
1172.498, 27898.00
1173.585, 27921.00
1174.673, 27805.00
1175.760, 27944.00
1176.847, 28094.00
1177.934, 28130.00
1179.020, 27832.00
1180.107, 27915.00
1181.193, 27803.00
1182.279, 28044.00
1183.365, 27802.00
1184.451, 28236.00
1185.537, 28213.00
1186.623, 28303.00
1187.708, 28004.00
1188.793, 28362.00
1189.878, 28207.00
1190.963, 27965.00
1192.048, 28193.00
1193.133, 28158.00
1194.217, 28294.00
1195.302, 28139.00
1196.386, 28474.00
1197.470, 28261.00
1198.554, 28344.00
1199.638, 28429.00
1200.721, 28541.00
1201.805, 28591.00
1202.888, 28573.00
1203.971, 28397.00
1205.054, 28268.00
1206.137, 28422.00
1207.219, 28320.00
1208.302, 28424.00
1209.384, 28736.00
1210.466, 28645.00
1211.548, 28827.00
1212.630, 28852.00
1213.712, 28804.00
1214.794, 29008.00
1215.875, 28929.00
1216.956, 28857.00
1218.037, 28843.00
1219.118, 29068.00
1220.199, 28961.00
1221.280, 29065.78
1222.360, 29063.00
1223.441, 29123.00
1224.521, 29187.00
1225.601, 29141.00
1226.681, 29048.00
1227.760, 29321.00
1228.840, 29233.00
1229.919, 29084.00
1230.999, 29088.00
1232.078, 29339.00
1233.157, 29285.78
1234.236, 29605.00
1235.314, 29477.00
1236.393, 29558.00
1237.471, 29712.00
1238.549, 29697.00
1239.627, 29755.00
1240.705, 29822.00
1241.783, 29729.00
1242.860, 29636.00
1243.938, 29730.00
1245.015, 29830.00
1246.092, 30033.00
1247.169, 29934.00
1248.246, 29812.00
1249.323, 29816.00
1250.399, 30022.00
1251.475, 30085.00
1252.552, 30237.00
1253.628, 30170.00
1254.703, 30256.00
1255.779, 30049.00
1256.855, 30082.00
1257.930, 30089.00
1259.005, 30249.00
1260.080, 30290.00
1261.155, 30406.00
1262.230, 30480.00
1263.305, 30396.00
1264.379, 30773.00
1265.454, 30489.00
1266.528, 30771.00
1267.602, 31086.00
1268.676, 30832.00
1269.750, 30892.00
1270.823, 30983.00
1271.897, 30655.00
1272.970, 31021.00
1274.043, 30762.00
1275.116, 30737.00
1276.189, 30891.00
1277.261, 31101.00
1278.334, 31052.00
1279.406, 31036.00
1280.478, 31124.00
1281.550, 30772.00
1282.622, 31088.00
1283.694, 30870.00
1284.766, 30900.00
1285.837, 30993.00
1286.908, 31261.00
1287.979, 31084.00
1289.050, 31323.00
1290.121, 31308.00
1291.192, 31567.00
1292.262, 31418.00
1293.333, 31434.00
1294.403, 31510.00
1295.473, 31500.00
1296.543, 31720.00
1297.613, 31550.00
1298.682, 31502.00
1299.752, 31633.00
1300.821, 31772.00
1301.890, 31626.00
1302.959, 31654.00
1304.028, 31892.00
1305.096, 31842.00
1306.165, 31718.00
1307.233, 32178.00
1308.301, 32138.00
1309.370, 31904.00
1310.437, 32243.00
1311.505, 32067.00
1312.573, 32064.00
1313.640, 32010.00
1314.708, 32407.00
1315.775, 32323.00
1316.842, 32167.00
1317.908, 32407.00
1318.975, 32229.00
1320.042, 32414.00
1321.108, 32355.00
1322.174, 32434.00
1323.240, 31986.00
1324.306, 32264.00
1325.372, 32221.00
1326.438, 32541.00
