##NAMES=Kyanite
##RRUFFID=R050450
##IDEAL CHEMISTRY=Al_2_OSiO_4_
##LOCALITY=Switzerland
##OWNER=RRUFF
##SOURCE=Marcus Origlieri
##DESCRIPTION=Blue bladed crystals
##STATUS=The identification of this mineral has been confirmed by X-ray diffraction and chemical analysis
##URL=rruff.info/R050450
##MEASURED CHEMISTRY=Al_2.00_OSi_1.00_O_4_
##PIN_ID=M01603
##ORIENTATION=Laser parallel to (-1 0 -1). Fiducial mark perpendicular to laser is parallel to b [0 1 0]
148.7160, 11284.00
149.9470, 11142.00
151.1780, 11334.00
152.4080, 11291.00
153.6380, 11301.00
154.8690, 11164.00
156.0980, 11112.00
157.3280, 11051.00
158.5580, 11174.00
159.7870, 11137.00
161.0170, 11097.00
162.2460, 11014.00
163.4750, 11060.00
164.7030, 11141.00
165.9320, 11063.00
167.1600, 11020.00
168.3890, 10942.00
169.6170, 10889.00
170.8450, 10955.00
172.0730, 10982.00
173.3000, 10949.00
174.5280, 10847.00
175.7550, 11024.00
176.9820, 10910.00
178.2090, 11043.00
179.4350, 10865.00
180.6620, 10862.00
181.8880, 10812.00
183.1150, 10774.00
184.3410, 10787.00
185.5670, 10791.91
186.7920, 10779.93
188.0180, 10831.00
189.2430, 10758.00
190.4690, 10710.00
191.6940, 10653.00
192.9180, 10720.00
194.1430, 10645.00
195.3680, 10693.00
196.5920, 10806.00
197.8160, 10848.00
199.0400, 10934.00
200.2640, 10955.00
201.4880, 11024.00
202.7110, 10995.00
203.9350, 11257.00
205.1580, 11287.00
206.3810, 11544.00
207.6040, 11658.00
208.8270, 11543.00
210.0490, 11181.00
211.2710, 11074.00
212.4940, 10818.00
213.7160, 10761.00
214.9370, 10810.00
216.1590, 10978.00
217.3810, 10930.00
218.6020, 11025.00
219.8230, 10878.00
221.0440, 11036.00
222.2650, 11227.00
223.4860, 11287.00
224.7060, 11531.00
225.9260, 11796.00
227.1470, 12001.00
228.3670, 11821.00
229.5860, 11477.00
230.8060, 11031.00
232.0260, 11189.00
233.2450, 10933.00
234.4640, 10885.00
235.6830, 10971.00
236.9020, 11007.00
238.1200, 11012.00
239.3390, 11093.86
240.5570, 11119.00
241.7750, 11195.00
242.9930, 11193.00
244.2110, 11200.00
245.4290, 11311.00
246.6460, 11164.00
247.8630, 11210.00
249.0810, 11235.00
250.2980, 11137.00
251.5140, 11371.00
252.7310, 11339.00
253.9470, 11144.00
255.1640, 11192.00
256.3800, 11037.00
257.5960, 10973.00
258.8120, 11117.00
260.0270, 11346.00
261.2430, 11395.00
262.4580, 11108.00
263.6730, 11024.00
264.8880, 10859.00
266.1030, 11021.00
267.3170, 10885.00
268.5320, 11253.00
269.7460, 11119.00
270.9600, 11168.00
272.1740, 11324.00
273.3880, 11575.00
274.6010, 12064.00
275.8150, 12491.62
277.0280, 12906.00
278.2410, 13147.00
279.4540, 12945.00
280.6670, 12171.00
281.8790, 11683.00
283.0920, 11427.00
284.3040, 11430.00
285.5160, 11409.00
286.7280, 11602.00
287.9400, 11792.00
289.1510, 12415.00
290.3630, 13382.00
291.5740, 14453.00
292.7850, 14938.00
293.9960, 14835.00
295.2070, 14356.00
296.4170, 14682.00
297.6280, 16025.00
298.8380, 18513.00
300.0480, 21655.00
301.2580, 25516.00
302.4680, 27232.00
303.6770, 23378.00
304.8870, 18410.00
306.0960, 15170.00
307.3050, 13372.00
308.5140, 12393.00
309.7230, 12097.00
310.9310, 11758.00
312.1400, 11575.00
313.3480, 11817.00
314.5560, 12215.00
315.7640, 12552.00
316.9720, 13096.00
318.1790, 13296.00
319.3870, 13530.00
320.5940, 13947.00
321.8010, 14983.00
323.0080, 16893.00
324.2150, 19431.00
325.4210, 22801.00
326.6280, 24235.00
327.8340, 21540.00
329.0400, 17682.00
330.2460, 14701.00
331.4510, 13265.00
332.6570, 12343.00
333.8620, 11885.00
335.0680, 11711.00
336.2730, 11692.00
337.4780, 11627.00
338.6820, 11758.00
339.8870, 11877.00
341.0910, 11974.00
342.2950, 11978.92
343.5000, 11941.22
344.7030, 11878.00
345.9070, 11771.00
347.1110, 11590.00
348.3140, 11545.00
349.5170, 11559.00
350.7200, 11716.00
351.9230, 11931.00
353.1260, 12287.00
354.3290, 12348.00
355.5310, 12747.00
356.7330, 13278.00
357.9350, 14178.00
359.1370, 15408.00
360.3390, 16821.00
361.5400, 17017.00
362.7420, 15307.00
363.9430, 13820.00
365.1440, 12918.00
366.3450, 12591.00
367.5460, 12758.00
368.7460, 13022.00
369.9470, 13661.00
371.1470, 14667.00
372.3470, 15564.00
373.5470, 16068.00
374.7460, 16749.63
375.9460, 17240.55
377.1450, 17479.00
378.3450, 17970.00
379.5440, 17874.00
380.7430, 17941.00
381.9410, 18693.00
383.1400, 20802.00
384.3380, 23432.00
385.5370, 25649.00
386.7350, 24705.00
387.9320, 21572.00
389.1300, 19435.00
390.3280, 19204.00
391.5250, 20327.00
392.7220, 21951.00
393.9190, 21476.00
395.1160, 18320.00
396.3130, 16266.00
397.5100, 15195.00
398.7060, 14923.00
399.9020, 15584.00
401.0980, 17195.00
402.2940, 19496.00
403.4900, 22254.00
404.6860, 24117.00
405.8810, 23054.00
407.0760, 19529.00
408.2710, 16301.00
409.4660, 14378.00
410.6610, 13261.00
411.8550, 12597.00
413.0500, 12517.00
414.2440, 12121.00
415.4380, 12148.00
416.6320, 12338.00
417.8260, 12695.00
419.0190, 12955.00
420.2130, 13196.00
421.4060, 12939.00
422.5990, 12481.00
423.7920, 12151.00
424.9850, 12096.00
426.1770, 11993.00
427.3700, 12350.00
428.5620, 12654.00
429.7540, 13017.00
430.9460, 13610.00
432.1380, 14524.00
433.3290, 15540.00
434.5210, 17057.00
435.7120, 18776.00
436.9030, 20316.00
438.0940, 21035.00
439.2850, 21110.00
440.4750, 19921.00
441.6660, 17845.00
442.8560, 15893.00
444.0460, 14998.00
445.2360, 14731.00
446.4260, 15000.00
447.6160, 15728.00
448.8050, 16341.00
449.9940, 16072.00
451.1830, 14891.00
452.3720, 13690.00
453.5610, 12993.00
454.7500, 12652.00
455.9380, 12548.00
457.1260, 12514.00
458.3150, 12468.00
459.5020, 12495.75
460.6900, 12545.00
461.8780, 12722.00
463.0650, 12879.00
464.2530, 13252.00
465.4400, 13552.00
466.6270, 13713.00
467.8130, 13541.00
469.0000, 13341.00
470.1870, 13229.00
471.3730, 12997.00
472.5590, 13194.00
473.7450, 13378.00
474.9310, 13719.00
476.1160, 14427.00
477.3020, 15571.00
478.4870, 17029.00
479.6720, 18868.00
480.8570, 20738.00
482.0420, 23709.00
483.2270, 28216.00
484.4110, 34304.00
485.5960, 41632.00
486.7800, 46973.00
487.9640, 46548.00
489.1480, 39451.00
490.3310, 31623.00
491.5150, 26164.00
492.6980, 22983.00
493.8810, 20613.00
495.0640, 18887.00
496.2470, 17286.00
497.4300, 15968.00
498.6120, 14951.00
499.7950, 14298.00
500.9770, 13797.00
502.1590, 13422.00
503.3410, 13327.00
504.5220, 13068.00
505.7040, 13077.00
506.8850, 13087.00
508.0660, 13109.00
509.2470, 13081.00
510.4280, 13111.00
511.6090, 13219.00
512.7890, 13348.00
513.9700, 13126.00
515.1500, 12993.00
516.3300, 12837.00
517.5100, 12618.00
518.6900, 12420.00
519.8690, 12350.00
521.0490, 12263.00
522.2280, 12258.00
523.4070, 12132.00
524.5860, 12132.00
525.7640, 12049.00
526.9430, 12023.59
528.1210, 12033.27
529.3000, 12014.00
530.4780, 12081.00
531.6560, 12137.00
532.8330, 12202.00
534.0110, 12070.00
535.1880, 12157.00
536.3650, 12135.00
537.5430, 12074.00
538.7190, 12193.00
539.8960, 12037.00
541.0730, 12078.00
542.2490, 12337.00
543.4250, 12347.81
544.6020, 12592.00
545.7780, 12618.00
546.9530, 12463.00
548.1290, 12494.00
549.3040, 12363.00
550.4800, 12316.00
551.6550, 12217.00
552.8300, 12357.00
554.0040, 12404.00
555.1790, 12487.00
556.3540, 12785.00
557.5280, 12862.00
558.7020, 13128.00
559.8760, 13539.00
561.0500, 13998.00
562.2230, 14926.00
563.3970, 15163.00
564.5700, 14775.00
565.7430, 14298.00
566.9160, 13668.00
568.0890, 13428.00
569.2620, 13082.00
570.4340, 13075.00
571.6070, 12860.00
572.7790, 12850.00
573.9510, 12820.00
575.1230, 12910.00
576.2940, 12772.00
577.4660, 12939.00
578.6370, 12828.00
579.8080, 12928.00
580.9790, 13227.00
582.1500, 13086.00
583.3210, 13402.00
584.4910, 13611.00
585.6620, 13752.00
586.8320, 13885.00
588.0020, 13784.00
589.1720, 13565.00
590.3410, 13409.00
591.5110, 13272.00
592.6800, 13181.00
593.8500, 13196.00
595.0190, 13299.00
596.1880, 13367.00
597.3560, 13508.00
598.5250, 13726.00
599.6930, 13942.00
600.8620, 14079.00
602.0300, 14475.00
603.1970, 14848.00
604.3650, 15230.00
605.5330, 15779.00
606.7000, 16039.00
607.8680, 15840.00
609.0350, 15660.00
610.2020, 15129.00
611.3680, 14649.00
612.5350, 14499.00
613.7010, 14476.00
614.8680, 14244.00
616.0340, 14394.00
617.2000, 14628.00
618.3660, 14752.00
619.5310, 14622.00
620.6970, 14617.00
621.8620, 14734.00
623.0270, 14679.00
624.1920, 14709.00
625.3570, 14809.00
626.5220, 14929.00
627.6860, 15110.00
628.8500, 15207.38
630.0140, 15343.00
631.1780, 15466.00
632.3420, 15635.00
633.5060, 15791.89
634.6700, 15725.00
635.8330, 16013.00
636.9960, 16254.00
638.1590, 16313.00
639.3220, 16149.00
640.4850, 15840.00
641.6470, 15269.00
642.8100, 14998.00
643.9720, 14594.00
645.1340, 14681.00
646.2960, 14602.00
647.4570, 14368.00
648.6190, 14770.00
649.7800, 14979.00
650.9420, 15268.00
652.1030, 15493.00
653.2640, 15980.00
654.4240, 16296.00
655.5850, 16690.00
656.7450, 16742.00
657.9060, 16577.00
659.0660, 16352.00
660.2260, 15856.00
661.3850, 15352.00
662.5450, 14675.00
663.7040, 14378.00
664.8640, 14066.00
666.0230, 14145.00
667.1820, 13959.00
668.3410, 14092.00
669.4990, 14053.00
670.6580, 14067.00
671.8160, 14028.00
672.9740, 13661.00
674.1320, 13632.00
675.2900, 13518.00
676.4480, 13201.00
677.6050, 13271.00
678.7630, 13174.00
679.9200, 13068.00
681.0770, 13165.00
682.2340, 13112.00
683.3900, 13110.00
684.5470, 13038.00
685.7030, 13075.00
686.8590, 12946.00
688.0150, 13052.00
689.1710, 13060.00
690.3270, 13064.00
691.4830, 12905.00
692.6380, 12822.00
693.7930, 12919.00
694.9480, 12972.00
696.1030, 12984.00
697.2580, 12924.00
698.4130, 13059.00
699.5670, 13052.00
700.7210, 13146.00
701.8750, 13054.00
703.0290, 13106.00
704.1830, 13170.00
705.3370, 13259.00
706.4900, 13193.00
707.6430, 13124.00
708.7970, 13123.00
709.9490, 13113.00
711.1020, 13000.00
712.2550, 13032.00
713.4070, 13171.00
714.5600, 12961.00
715.7120, 12885.00
716.8640, 12979.00
718.0160, 13149.00
719.1670, 13116.00
720.3190, 13246.00
721.4700, 13352.00
722.6210, 13316.00
723.7720, 13513.00
724.9230, 13451.00
726.0740, 13564.00
727.2250, 13280.00
728.3750, 13506.00
729.5250, 13407.21
730.6750, 13443.00
731.8250, 13350.00
732.9750, 13402.00
734.1240, 13338.00
735.2740, 13405.00
736.4230, 13406.00
737.5720, 13393.00
738.7210, 13421.00
739.8700, 13338.00
741.0190, 13418.00
742.1670, 13449.00
743.3150, 13377.00
744.4630, 13547.00
745.6110, 13465.00
746.7590, 13515.00
747.9070, 13557.00
749.0540, 13565.00
750.2020, 13486.00
751.3490, 13406.00
752.4960, 13588.00
753.6430, 13648.00
754.7890, 13706.00
755.9360, 13830.00
757.0820, 13660.00
758.2280, 13734.00
759.3740, 13817.00
760.5200, 13738.00
761.6660, 13881.00
762.8120, 13780.00
763.9570, 13897.00
765.1020, 13994.00
766.2470, 13961.00
767.3920, 14022.00
768.5370, 13955.00
769.6810, 13947.00
770.8260, 14104.00
771.9700, 14025.00
773.1140, 14025.00
774.2580, 14095.00
775.4020, 14198.00
776.5460, 13887.00
777.6890, 14083.00
778.8320, 13949.00
779.9750, 14036.00
781.1180, 14154.00
782.2610, 14201.00
783.4040, 14180.00
784.5460, 14107.00
785.6890, 14106.00
786.8310, 14110.62
787.9730, 14255.00
789.1150, 14205.00
790.2560, 14246.00
791.3980, 14395.00
792.5390, 14311.00
793.6810, 14337.00
794.8220, 14513.00
795.9630, 14396.00
797.1030, 14349.00
798.2440, 14568.00
799.3840, 14493.00
800.5240, 14703.00
801.6650, 14459.00
802.8040, 14559.00
803.9440, 14453.00
805.0840, 14649.00
806.2230, 14685.00
807.3630, 14729.00
808.5020, 14652.00
809.6410, 14800.00
810.7790, 14680.00
811.9180, 14844.00
813.0570, 14753.00
814.1950, 14895.00
815.3330, 14890.00
816.4710, 15144.00
817.6090, 14855.00
818.7470, 15003.00
819.8840, 14933.00
821.0220, 15238.00
822.1590, 15065.00
823.2960, 15107.00
824.4330, 15237.00
825.5690, 15192.00
826.7060, 15402.00
827.8420, 15182.00
828.9790, 15099.00
830.1150, 15205.00
831.2510, 15129.00
832.3860, 15254.00
833.5220, 15186.00
834.6570, 15362.00
835.7930, 15394.00
836.9280, 15449.00
838.0630, 15555.00
839.1980, 15407.00
840.3320, 15792.00
841.4670, 15502.00
842.6010, 15820.00
843.7350, 15801.00
844.8690, 15771.00
846.0030, 15970.00
847.1370, 15988.00
848.2700, 16198.00
849.4040, 16071.00
850.5370, 16211.00
851.6700, 16048.00
852.8030, 16420.00
853.9360, 16531.00
855.0680, 16480.00
856.2000, 16732.00
857.3330, 16706.00
858.4650, 16840.00
859.5970, 16757.00
860.7290, 17059.00
861.8600, 17222.00
862.9920, 17013.00
864.1230, 16788.00
865.2540, 16985.00
866.3850, 16819.00
867.5160, 16930.00
868.6460, 16786.00
869.7770, 16910.00
870.9070, 16879.00
872.0370, 16993.00
873.1670, 16783.00
874.2970, 16725.00
875.4270, 16748.00
876.5570, 17074.00
877.6860, 16888.00
878.8150, 17119.00
879.9440, 17214.00
881.0730, 17223.00
882.2020, 17463.00
883.3300, 17640.00
884.4590, 17746.00
885.5870, 18097.00
886.7150, 18659.00
887.8430, 18808.00
888.9710, 19215.00
890.0990, 19358.00
891.2260, 19518.00
892.3530, 19475.00
893.4810, 19257.00
894.6080, 19268.00
895.7340, 19158.00
896.8610, 19095.00
897.9880, 19370.00
899.1140, 19438.00
900.2400, 19775.00
901.3660, 19671.00
902.4920, 19260.00
903.6180, 19643.00
904.7430, 18918.00
905.8690, 18820.00
906.9940, 18769.00
908.1190, 18363.00
909.2440, 18402.00
910.3690, 18208.00
911.4930, 18121.00
912.6180, 18066.00
913.7420, 18185.00
914.8660, 18212.00
915.9900, 18172.00
917.1140, 18078.00
918.2380, 18031.00
919.3610, 18264.00
920.4850, 18356.00
921.6080, 18642.00
922.7310, 18589.00
923.8540, 18628.00
924.9760, 18946.00
926.0990, 19230.00
927.2210, 19379.00
928.3440, 19665.00
929.4660, 19871.00
930.5880, 20353.00
931.7090, 20864.00
932.8310, 21431.00
933.9520, 21841.00
935.0740, 22586.00
936.1950, 23166.00
937.3160, 23849.00
938.4360, 24175.00
939.5570, 24838.00
940.6780, 25588.00
941.7980, 26313.00
942.9180, 27201.00
944.0380, 28021.00
945.1580, 29322.00
946.2780, 29997.00
947.3970, 31339.00
948.5170, 32267.00
949.6360, 33048.00
950.7550, 33999.00
951.8740, 34341.00
952.9930, 34204.00
954.1110, 34104.00
955.2300, 34211.00
956.3480, 33721.00
957.4660, 33437.00
958.5840, 33252.00
959.7020, 33505.00
960.8190, 33503.00
961.9370, 33477.00
963.0540, 33163.00
964.1710, 31739.00
965.2880, 30415.00
966.4050, 29083.00
967.5220, 27390.00
968.6380, 25974.00
969.7550, 24791.00
970.8710, 23569.00
971.9870, 22612.00
973.1030, 21843.00
974.2190, 21048.00
975.3340, 20426.00
976.4500, 19915.00
977.5650, 19507.00
978.6800, 19273.00
979.7950, 18926.00
980.9100, 18799.00
982.0250, 18464.00
983.1390, 18538.00
984.2530, 18233.00
985.3680, 18095.00
986.4820, 18117.00
987.5950, 18187.00
988.7090, 17996.00
989.8230, 17960.00
990.9360, 18147.00
992.0490, 18117.00
993.1620, 18447.00
994.2750, 18656.00
995.3880, 19222.00
996.5010, 19556.00
997.6130, 20232.00
998.7250, 20752.00
999.8370, 21493.00
1000.949, 21867.00
1002.061, 21865.00
1003.173, 21668.00
1004.284, 21261.00
1005.396, 20313.00
1006.507, 19472.00
1007.618, 19064.00
1008.729, 18533.00
1009.839, 18231.00
1010.950, 17956.00
1012.060, 17748.99
1013.171, 17885.00
1014.281, 17682.00
1015.391, 17581.00
1016.500, 17870.00
1017.610, 17729.00
1018.719, 17547.00
1019.829, 17945.00
1020.938, 17703.00
1022.047, 17750.00
1023.156, 17881.00
1024.264, 17535.00
1025.373, 17530.00
1026.481, 17885.00
1027.589, 17458.00
1028.697, 17613.00
1029.805, 17499.00
1030.913, 17525.00
1032.020, 17342.00
1033.128, 17167.00
1034.235, 17401.00
1035.342, 17246.00
1036.449, 17367.00
1037.556, 17262.00
1038.663, 17302.00
1039.769, 17358.37
1040.875, 17296.00
1041.981, 17452.00
1043.087, 17232.00
1044.193, 17220.00
1045.299, 17202.00
1046.404, 17258.00
1047.510, 17309.00
1048.615, 17392.00
1049.720, 17323.00
1050.825, 17349.00
1051.930, 17349.00
1053.034, 17338.00
1054.139, 17438.00
1055.243, 17364.00
1056.347, 17305.00
1057.451, 17267.00
1058.555, 17471.00
1059.658, 17155.00
1060.762, 17388.00
1061.865, 17313.00
1062.968, 17390.00
1064.071, 17479.00
1065.174, 17715.00
1066.277, 17750.00
1067.380, 17578.00
1068.482, 17739.00
1069.584, 17568.00
1070.686, 17798.00
1071.788, 17921.00
1072.890, 17927.00
1073.992, 17932.00
1075.093, 18166.00
1076.194, 18161.00
1077.295, 18084.00
1078.396, 18307.00
1079.497, 18452.00
1080.598, 18469.00
1081.698, 18650.00
1082.799, 18729.00
1083.899, 18611.00
1084.999, 18592.00
1086.099, 18641.00
1087.199, 18602.00
1088.298, 18589.00
1089.398, 18589.07
1090.497, 18440.00
1091.596, 18582.00
1092.695, 18375.00
1093.794, 18403.00
1094.892, 18311.00
1095.991, 18318.00
1097.089, 18363.18
1098.187, 18201.00
1099.285, 18443.00
1100.383, 18415.00
1101.481, 18365.00
1102.579, 18463.00
1103.676, 18410.00
1104.773, 18515.00
1105.870, 18554.54
1106.967, 18805.00
1108.064, 18620.00
1109.161, 18555.00
1110.257, 18463.00
1111.353, 18723.00
1112.449, 18471.00
1113.545, 18590.00
1114.641, 18565.00
1115.737, 18461.00
1116.832, 18578.00
1117.928, 18526.00
1119.023, 18548.00
1120.118, 18613.00
1121.213, 18633.00
1122.308, 18743.00
1123.402, 18641.00
1124.497, 18731.00
1125.591, 18548.00
1126.685, 18486.00
1127.779, 18640.00
1128.873, 18771.00
1129.967, 18591.00
1131.060, 18639.00
1132.153, 18696.00
1133.247, 18715.00
1134.340, 18685.00
1135.433, 18563.00
1136.525, 18839.00
1137.618, 18483.00
1138.710, 18812.00
1139.802, 18620.00
1140.895, 18591.00
1141.987, 18495.00
1143.078, 18508.00
1144.170, 18498.00
1145.261, 18494.00
1146.353, 18472.00
1147.444, 18579.00
1148.535, 18680.00
1149.626, 18532.00
1150.716, 18743.00
1151.807, 18782.00
1152.897, 18476.00
1153.988, 18765.00
1155.078, 18700.00
1156.168, 18708.00
1157.257, 18702.00
1158.347, 19038.00
1159.436, 18885.00
1160.526, 18952.00
1161.615, 19048.00
1162.704, 18908.00
1163.793, 18988.00
1164.881, 18785.00
1165.970, 19123.00
1167.058, 18964.00
1168.147, 19034.00
1169.235, 18923.00
1170.323, 18819.00
1171.410, 18978.00
1172.498, 19064.00
1173.585, 19152.00
1174.673, 19121.00
1175.760, 19279.00
1176.847, 19081.00
1177.934, 19352.00
1179.020, 19325.00
1180.107, 19149.00
1181.193, 19116.00
1182.279, 19275.00
1183.365, 18998.00
1184.451, 19286.00
1185.537, 19218.00
1186.623, 19208.00
1187.708, 19261.00
1188.793, 19231.00
1189.878, 19215.00
1190.963, 19229.19
1192.048, 19121.00
1193.133, 19244.00
1194.217, 19159.00
1195.302, 19202.71
1196.386, 19349.00
1197.470, 19173.00
1198.554, 19235.00
1199.638, 19230.00
1200.721, 19228.00
1201.805, 19425.00
1202.888, 19354.00
1203.971, 19292.00
1205.054, 19407.00
1206.137, 19313.00
1207.219, 19315.00
1208.302, 19382.00
1209.384, 19372.00
1210.466, 19605.00
1211.548, 19575.00
1212.630, 19746.00
1213.712, 19601.00
1214.794, 19735.00
1215.875, 19992.00
1216.956, 19994.00
1218.037, 19907.00
1219.118, 19773.00
1220.199, 19847.00
1221.280, 19896.00
1222.360, 20000.00
1223.441, 19936.00
1224.521, 19969.00
1225.601, 19935.00
1226.681, 19956.62
1227.760, 19979.42
1228.840, 20044.00
1229.919, 20021.00
1230.999, 20128.84
1232.078, 20124.44
1233.157, 20393.00
1234.236, 20282.00
1235.314, 20427.00
1236.393, 20519.00
1237.471, 20425.00
1238.549, 20499.00
1239.627, 20669.00
1240.705, 20559.00
1241.783, 20735.00
1242.860, 20625.00
1243.938, 20749.00
1245.015, 20659.00
1246.092, 20684.62
1247.169, 20935.00
1248.246, 20754.00
1249.323, 20897.00
1250.399, 21040.00
1251.475, 20969.00
1252.552, 21190.00
1253.628, 21245.00
1254.703, 21137.00
1255.779, 21213.00
1256.855, 21445.00
1257.930, 21258.00
1259.005, 21191.00
1260.080, 21665.00
1261.155, 21564.00
1262.230, 21740.00
1263.305, 21810.00
1264.379, 21868.00
1265.454, 22171.00
1266.528, 22130.00
1267.602, 22074.00
1268.676, 22250.00
1269.750, 22149.00
1270.823, 22107.00
1271.897, 22225.00
1272.970, 22248.00
1274.043, 22190.00
1275.116, 22341.00
1276.189, 22235.00
1277.261, 22453.00
1278.334, 22229.00
1279.406, 22265.00
1280.478, 22187.00
1281.550, 22186.00
1282.622, 22206.00
1283.694, 22184.00
1284.766, 22223.83
1285.837, 21930.00
1286.908, 22198.00
1287.979, 22315.00
1289.050, 22109.00
1290.121, 22384.00
1291.192, 22406.00
1292.262, 22466.00
1293.333, 22710.00
1294.403, 22509.00
1295.473, 22798.00
1296.543, 22701.00
1297.613, 22604.00
1298.682, 22989.00
1299.752, 22819.00
1300.821, 23034.00
1301.890, 22895.00
1302.959, 22961.00
1304.028, 22855.00
1305.096, 23099.00
1306.165, 23255.00
1307.233, 23143.00
1308.301, 23310.00
1309.370, 23241.00
1310.437, 23390.00
1311.505, 23293.00
1312.573, 23562.00
1313.640, 23683.00
1314.708, 23554.00
1315.775, 23559.00
1316.842, 23411.00
1317.908, 23541.00
1318.975, 23599.00
1320.042, 23734.00
1321.108, 23464.00
1322.174, 23279.00
1323.240, 23343.00
1324.306, 23135.00
1325.372, 22964.00
1326.438, 23099.00
