##NAMES=Kyanite
##RRUFFID=R050450
##IDEAL CHEMISTRY=Al_2_OSiO_4_
##LOCALITY=Switzerland
##OWNER=RRUFF
##SOURCE=Marcus Origlieri
##DESCRIPTION=Blue bladed crystals
##STATUS=The identification of this mineral has been confirmed by X-ray diffraction and chemical analysis
##URL=rruff.info/R050450
##MEASURED CHEMISTRY=Al_2.00_OSi_1.00_O_4_
##PIN_ID=M01978
##ORIENTATION=Laser parallel to -b* (0 -1 0). Fiducial mark perpendicular to laser is parallel to c [0 0 1]
148.7160, 6453.000
149.9470, 6491.000
151.1780, 6419.000
152.4080, 6579.000
153.6380, 6513.000
154.8690, 6590.000
156.0980, 6685.000
157.3280, 6633.000
158.5580, 6498.000
159.7870, 6533.000
161.0170, 6530.000
162.2460, 6471.000
163.4750, 6625.000
164.7030, 6764.000
165.9320, 6780.000
167.1600, 6678.000
168.3890, 6831.000
169.6170, 6786.000
170.8450, 6860.000
172.0730, 6932.000
173.3000, 7021.000
174.5280, 6977.000
175.7550, 7066.000
176.9820, 7208.000
178.2090, 7229.000
179.4350, 7123.000
180.6620, 7119.000
181.8880, 7040.000
183.1150, 6931.000
184.3410, 6933.000
185.5670, 6881.000
186.7920, 6839.000
188.0180, 6758.000
189.2430, 6961.000
190.4690, 6970.000
191.6940, 6959.000
192.9180, 6938.000
194.1430, 7019.000
195.3680, 6948.000
196.5920, 7111.000
197.8160, 7049.000
199.0400, 7046.000
200.2640, 7109.000
201.4880, 7154.000
202.7110, 7181.000
203.9350, 7133.000
205.1580, 7201.000
206.3810, 7283.000
207.6040, 7213.000
208.8270, 7189.000
210.0490, 7197.000
211.2710, 7095.000
212.4940, 7156.000
213.7160, 7192.000
214.9370, 7171.000
216.1590, 7295.000
217.3810, 7518.000
218.6020, 7563.000
219.8230, 7775.000
221.0440, 7788.000
222.2650, 7998.000
223.4860, 8461.000
224.7060, 8890.000
225.9260, 9233.000
227.1470, 9458.000
228.3670, 9389.000
229.5860, 8941.000
230.8060, 8314.000
232.0260, 8026.000
233.2450, 7548.000
234.4640, 7459.000
235.6830, 7367.000
236.9020, 7304.000
238.1200, 7371.000
239.3390, 7386.000
240.5570, 7358.000
241.7750, 7375.000
242.9930, 7385.502
244.2110, 7360.000
245.4290, 7426.000
246.6460, 7489.000
247.8630, 7524.000
249.0810, 7531.540
250.2980, 7492.000
251.5140, 7502.000
252.7310, 7451.000
253.9470, 7416.000
255.1640, 7489.000
256.3800, 7440.000
257.5960, 7456.000
258.8120, 7438.000
260.0270, 7730.000
261.2430, 7787.000
262.4580, 7644.000
263.6730, 7491.000
264.8880, 7447.000
266.1030, 7450.000
267.3170, 7657.000
268.5320, 7798.000
269.7460, 7989.000
270.9600, 7967.000
272.1740, 8202.000
273.3880, 8320.000
274.6010, 8754.000
275.8150, 9142.000
277.0280, 9536.000
278.2410, 9763.000
279.4540, 9857.000
280.6670, 9629.000
281.8790, 9264.000
283.0920, 9235.000
284.3040, 8989.000
285.5160, 8972.000
286.7280, 9221.000
287.9400, 9766.000
289.1510, 10739.00
290.3630, 12010.00
291.5740, 13510.00
292.7850, 15174.00
293.9960, 16126.00
295.2070, 16456.00
296.4170, 16669.00
297.6280, 18807.00
298.8380, 22726.00
300.0480, 26864.00
301.2580, 30446.00
302.4680, 31984.00
303.6770, 29890.00
304.8870, 24953.00
306.0960, 19312.00
307.3050, 14904.00
308.5140, 11863.00
309.7230, 10410.00
310.9310, 10514.00
312.1400, 9668.000
313.3480, 9367.000
314.5560, 9484.000
315.7640, 9929.000
316.9720, 10520.00
318.1790, 10952.00
319.3870, 11242.00
320.5940, 11401.00
321.8010, 12302.00
323.0080, 14020.00
324.2150, 15606.00
325.4210, 17178.00
326.6280, 17905.00
327.8340, 17148.00
329.0400, 15209.00
330.2460, 13005.00
331.4510, 11200.00
332.6570, 10068.00
333.8620, 9460.000
335.0680, 9217.000
336.2730, 9150.000
337.4780, 9239.000
338.6820, 9442.000
339.8870, 9612.000
341.0910, 9978.000
342.2950, 10073.00
343.5000, 10057.00
344.7030, 9775.000
345.9070, 9398.000
347.1110, 9234.000
348.3140, 9242.000
349.5170, 9262.000
350.7200, 9886.000
351.9230, 10576.00
353.1260, 11320.00
354.3290, 11786.00
355.5310, 13177.46
356.7330, 13727.00
357.9350, 16020.00
359.1370, 18138.00
360.3390, 19761.00
361.5400, 20127.00
362.7420, 19072.00
363.9430, 16533.00
365.1440, 14371.00
366.3450, 12444.00
367.5460, 11740.00
368.7460, 11356.00
369.9470, 11981.00
371.1470, 12818.00
372.3470, 13455.00
373.5470, 13820.00
374.7460, 14319.00
375.9460, 14752.00
377.1450, 15362.00
378.3450, 15959.00
379.5440, 15755.00
380.7430, 16079.00
381.9410, 16955.00
383.1400, 18880.00
384.3380, 20961.00
385.5370, 22532.00
386.7350, 22732.00
387.9320, 21508.00
389.1300, 20925.00
390.3280, 21070.00
391.5250, 21495.00
392.7220, 22082.00
393.9190, 21987.00
395.1160, 20559.00
396.3130, 18689.00
397.5100, 16754.00
398.7060, 15815.00
399.9020, 15887.00
401.0980, 17146.00
402.2940, 19587.00
403.4900, 21611.00
404.6860, 22891.00
405.8810, 22648.00
407.0760, 20633.00
408.2710, 17730.00
409.4660, 15137.00
410.6610, 13147.00
411.8550, 12105.00
413.0500, 11553.00
414.2440, 11315.00
415.4380, 11357.00
416.6320, 11763.00
417.8260, 12048.00
419.0190, 12610.00
420.2130, 12713.00
421.4060, 12635.00
422.5990, 12059.00
423.7920, 11606.00
424.9850, 11200.00
426.1770, 11208.00
427.3700, 11453.00
428.5620, 12124.00
429.7540, 12716.00
430.9460, 13923.00
432.1380, 15100.00
433.3290, 16834.00
434.5210, 18604.00
435.7120, 20961.00
436.9030, 23124.00
438.0940, 24849.00
439.2850, 25058.00
440.4750, 23883.00
441.6660, 21287.00
442.8560, 18536.00
444.0460, 15979.00
445.2360, 14465.00
446.4260, 13941.00
447.6160, 13910.00
448.8050, 14002.00
449.9940, 13584.00
451.1830, 12829.00
452.3720, 12151.00
453.5610, 11330.00
454.7500, 10599.00
455.9380, 10278.00
457.1260, 10158.00
458.3150, 10019.00
459.5020, 10138.00
460.6900, 10310.00
461.8780, 10380.00
463.0650, 10536.00
464.2530, 10656.00
465.4400, 11027.00
466.6270, 11013.00
467.8130, 11015.00
469.0000, 11103.00
470.1870, 11022.00
471.3730, 11077.00
472.5590, 11427.00
473.7450, 11580.00
474.9310, 12329.00
476.1160, 13280.00
477.3020, 15189.00
478.4870, 17750.00
479.6720, 20889.00
480.8570, 23818.00
482.0420, 27309.00
483.2270, 32983.00
484.4110, 39995.00
485.5960, 47266.00
486.7800, 51619.00
487.9640, 51899.00
489.1480, 47549.00
490.3310, 40360.00
491.5150, 33304.00
492.6980, 27519.00
493.8810, 23600.00
495.0640, 20882.00
496.2470, 18462.00
497.4300, 16517.00
498.6120, 15241.00
499.7950, 13988.00
500.9770, 13195.00
502.1590, 12765.00
503.3410, 12502.00
504.5220, 12529.00
505.7040, 12529.00
506.8850, 12782.00
508.0660, 12809.00
509.2470, 12991.00
510.4280, 13396.00
511.6090, 13662.00
512.7890, 13758.00
513.9700, 13453.00
515.1500, 13258.00
516.3300, 12462.00
517.5100, 12047.00
518.6900, 11553.00
519.8690, 10985.00
521.0490, 10816.00
522.2280, 10411.00
523.4070, 10382.00
524.5860, 10359.00
525.7640, 10198.00
526.9430, 10136.00
528.1210, 10184.00
529.3000, 9977.000
530.4780, 10009.00
531.6560, 10039.00
532.8330, 10082.00
534.0110, 10064.00
535.1880, 10000.00
536.3650, 10063.00
537.5430, 10091.00
538.7190, 10177.00
539.8960, 10239.00
541.0730, 10282.00
542.2490, 10405.00
543.4250, 10612.00
544.6020, 10763.00
545.7780, 10850.00
546.9530, 10961.00
548.1290, 10863.00
549.3040, 10812.00
550.4800, 10794.00
551.6550, 10759.00
552.8300, 10913.00
554.0040, 11178.00
555.1790, 11504.00
556.3540, 12016.00
557.5280, 12338.00
558.7020, 12890.00
559.8760, 13850.00
561.0500, 14908.00
562.2230, 15850.00
563.3970, 16534.00
564.5700, 16703.00
565.7430, 16106.00
566.9160, 15280.00
568.0890, 14660.00
569.2620, 14497.00
570.4340, 14594.00
571.6070, 14788.00
572.7790, 14917.00
573.9510, 14571.10
575.1230, 14326.00
576.2940, 13620.00
577.4660, 12961.00
578.6370, 12166.00
579.8080, 11694.00
580.9790, 11405.00
582.1500, 11280.00
583.3210, 11099.00
584.4910, 10965.00
585.6620, 11033.00
586.8320, 11014.00
588.0020, 11088.00
589.1720, 11081.00
590.3410, 11104.00
591.5110, 10917.00
592.6800, 10747.00
593.8500, 10801.00
595.0190, 10948.00
596.1880, 11115.00
597.3560, 11408.00
598.5250, 11704.00
599.6930, 12090.00
600.8620, 12440.00
602.0300, 12900.21
603.1970, 13367.00
604.3650, 13833.00
605.5330, 14400.00
606.7000, 14788.00
607.8680, 14675.00
609.0350, 14418.00
610.2020, 13757.00
611.3680, 13273.00
612.5350, 12703.00
613.7010, 12329.00
614.8680, 12210.00
616.0340, 12251.00
617.2000, 12226.00
618.3660, 12119.00
619.5310, 12186.00
620.6970, 12173.00
621.8620, 11926.00
623.0270, 11866.00
624.1920, 11983.00
625.3570, 11784.00
626.5220, 11956.00
627.6860, 12086.00
628.8500, 12237.00
630.0140, 12221.00
631.1780, 12284.00
632.3420, 12146.00
633.5060, 12211.00
634.6700, 12225.00
635.8330, 12283.00
636.9960, 12307.00
638.1590, 12245.00
639.3220, 12019.00
640.4850, 12011.00
641.6470, 11579.00
642.8100, 11422.00
643.9720, 11290.00
645.1340, 11192.00
646.2960, 11123.57
647.4570, 11086.42
648.6190, 11075.00
649.7800, 11086.00
650.9420, 11131.00
652.1030, 11165.00
653.2640, 11303.00
654.4240, 11266.00
655.5850, 11500.00
656.7450, 11484.00
657.9060, 11514.00
659.0660, 11555.00
660.2260, 11461.00
661.3850, 11483.00
662.5450, 11495.00
663.7040, 11516.00
664.8640, 11641.00
666.0230, 11782.00
667.1820, 11974.00
668.3410, 12019.00
669.4990, 12234.00
670.6580, 12325.00
671.8160, 12377.00
672.9740, 12200.00
674.1320, 12022.00
675.2900, 11989.00
676.4480, 11607.00
677.6050, 11612.00
678.7630, 11253.00
679.9200, 11383.00
681.0770, 11320.00
682.2340, 11254.00
683.3900, 11262.00
684.5470, 11204.00
685.7030, 11219.59
686.8590, 11193.58
688.0150, 11254.00
689.1710, 11129.00
690.3270, 11136.00
691.4830, 11039.00
692.6380, 11194.00
693.7930, 11008.00
694.9480, 11052.00
696.1030, 11335.00
697.2580, 11061.00
698.4130, 11165.00
699.5670, 11213.00
700.7210, 11379.00
701.8750, 11254.00
703.0290, 11316.00
704.1830, 11261.00
705.3370, 11450.00
706.4900, 11240.00
707.6430, 11334.00
708.7970, 11285.00
709.9490, 11254.00
711.1020, 11161.00
712.2550, 11231.00
713.4070, 11148.00
714.5600, 11280.00
715.7120, 11303.00
716.8640, 11211.00
718.0160, 11287.00
719.1670, 11527.00
720.3190, 11604.00
721.4700, 11683.00
722.6210, 11616.00
723.7720, 12069.00
724.9230, 11910.00
726.0740, 12026.00
727.2250, 11911.00
728.3750, 11834.00
729.5250, 11450.00
730.6750, 11383.00
731.8250, 11342.00
732.9750, 11296.00
734.1240, 11254.68
735.2740, 11177.00
736.4230, 11202.00
737.5720, 11135.00
738.7210, 11141.00
739.8700, 11140.16
741.0190, 11088.00
742.1670, 11158.00
743.3150, 11215.00
744.4630, 11250.00
745.6110, 11221.00
746.7590, 11203.00
747.9070, 11330.00
749.0540, 11094.00
750.2020, 11256.00
751.3490, 11145.00
752.4960, 11106.00
753.6430, 11293.00
754.7890, 11328.00
755.9360, 11239.00
757.0820, 11240.00
758.2280, 11231.00
759.3740, 11363.00
760.5200, 11199.00
761.6660, 11066.00
762.8120, 11258.00
763.9570, 11257.00
765.1020, 11248.00
766.2470, 11433.00
767.3920, 11290.00
768.5370, 11263.00
769.6810, 11461.00
770.8260, 11358.00
771.9700, 11420.00
773.1140, 11402.00
774.2580, 11339.00
775.4020, 11215.00
776.5460, 11406.00
777.6890, 11375.00
778.8320, 11424.00
779.9750, 11483.00
781.1180, 11510.00
782.2610, 11516.00
783.4040, 11427.00
784.5460, 11514.00
785.6890, 11342.00
786.8310, 11505.00
787.9730, 11474.00
789.1150, 11491.00
790.2560, 11505.00
791.3980, 11555.00
792.5390, 11564.05
793.6810, 11574.28
794.8220, 11603.00
795.9630, 11600.00
797.1030, 11612.00
798.2440, 11672.00
799.3840, 11692.00
800.5240, 11662.00
801.6650, 11758.00
802.8040, 11755.00
803.9440, 11759.00
805.0840, 11558.00
806.2230, 11703.00
807.3630, 11770.00
808.5020, 11708.00
809.6410, 11899.00
810.7790, 11910.00
811.9180, 11894.00
813.0570, 12117.00
814.1950, 11949.00
815.3330, 11803.00
816.4710, 11888.00
817.6090, 11924.00
818.7470, 11789.00
819.8840, 11968.00
821.0220, 11952.00
822.1590, 12002.00
823.2960, 12091.00
824.4330, 12035.00
825.5690, 11914.00
826.7060, 12053.00
827.8420, 12196.00
828.9790, 12049.00
830.1150, 12126.06
831.2510, 12116.00
832.3860, 12040.00
833.5220, 12213.00
834.6570, 12163.00
835.7930, 12160.00
836.9280, 12308.00
838.0630, 12280.00
839.1980, 12330.00
840.3320, 12188.00
841.4670, 12434.00
842.6010, 12317.00
843.7350, 12398.00
844.8690, 12577.00
846.0030, 12534.00
847.1370, 12573.00
848.2700, 12481.00
849.4040, 12622.00
850.5370, 12647.00
851.6700, 12636.00
852.8030, 12630.00
853.9360, 12814.00
855.0680, 12770.00
856.2000, 13040.00
857.3330, 13013.00
858.4650, 13141.00
859.5970, 13138.00
860.7290, 13210.00
861.8600, 13208.00
862.9920, 13320.72
864.1230, 13512.00
865.2540, 13534.00
866.3850, 13665.00
867.5160, 13735.00
868.6460, 13914.00
869.7770, 14077.57
870.9070, 14357.00
872.0370, 14481.00
873.1670, 14787.00
874.2970, 15025.00
875.4270, 15203.00
876.5570, 15641.00
877.6860, 16109.00
878.8150, 16722.00
879.9440, 17404.00
881.0730, 18240.00
882.2020, 19389.00
883.3300, 20398.00
884.4590, 21974.00
885.5870, 23681.00
886.7150, 25044.00
887.8430, 27132.00
888.9710, 28220.00
890.0990, 28884.00
891.2260, 28989.00
892.3530, 28433.00
893.4810, 27197.00
894.6080, 25749.00
895.7340, 24585.00
896.8610, 23808.00
897.9880, 23475.00
899.1140, 23408.00
900.2400, 23253.00
901.3660, 23360.00
902.4920, 23258.00
903.6180, 22696.00
904.7430, 21883.00
905.8690, 20715.00
906.9940, 19759.00
908.1190, 18925.00
909.2440, 18002.00
910.3690, 17414.00
911.4930, 16905.00
912.6180, 16617.00
913.7420, 16359.00
914.8660, 16142.00
915.9900, 15875.00
917.1140, 15715.00
918.2380, 15832.00
919.3610, 15708.00
920.4850, 15875.00
921.6080, 15798.00
922.7310, 15872.00
923.8540, 15891.00
924.9760, 16123.00
926.0990, 16302.00
927.2210, 16462.00
928.3440, 16863.00
929.4660, 17036.00
930.5880, 17566.00
931.7090, 17863.00
932.8310, 18197.00
933.9520, 18930.00
935.0740, 19334.00
936.1950, 19943.00
937.3160, 20607.00
938.4360, 21104.00
939.5570, 21788.00
940.6780, 22341.00
941.7980, 22907.00
942.9180, 23875.00
944.0380, 24406.00
945.1580, 25132.00
946.2780, 26268.00
947.3970, 27191.00
948.5170, 28050.00
949.6360, 29104.00
950.7550, 29821.00
951.8740, 29882.00
952.9930, 30437.00
954.1110, 30182.00
955.2300, 29967.00
956.3480, 29582.00
957.4660, 29307.00
958.5840, 28741.00
959.7020, 28870.00
960.8190, 28902.00
961.9370, 28867.00
963.0540, 28362.00
964.1710, 27450.00
965.2880, 26496.00
966.4050, 24994.00
967.5220, 24010.00
968.6380, 22619.00
969.7550, 21412.00
970.8710, 20281.00
971.9870, 19568.00
973.1030, 18874.00
974.2190, 18324.00
975.3340, 17605.00
976.4500, 17015.00
977.5650, 16760.00
978.6800, 16527.00
979.7950, 16231.00
980.9100, 16102.00
982.0250, 15990.00
983.1390, 15574.00
984.2530, 15715.00
985.3680, 15478.00
986.4820, 15382.00
987.5950, 15536.00
988.7090, 15236.00
989.8230, 15358.00
990.9360, 15393.00
992.0490, 15500.00
993.1620, 15789.00
994.2750, 15935.00
995.3880, 16439.00
996.5010, 16848.00
997.6130, 17398.00
998.7250, 17879.00
999.8370, 18288.00
1000.949, 18606.00
1002.061, 18539.22
1003.173, 18319.00
1004.284, 18023.00
1005.396, 17455.00
1006.507, 16850.00
1007.618, 16391.00
1008.729, 15994.47
1009.839, 15650.00
1010.950, 15400.00
1012.060, 15161.00
1013.171, 15005.00
1014.281, 14948.00
1015.391, 14959.00
1016.500, 14724.00
1017.610, 14567.00
1018.719, 14710.00
1019.829, 14534.00
1020.938, 14637.00
1022.047, 14665.00
1023.156, 14603.00
1024.264, 14506.00
1025.373, 14639.00
1026.481, 14450.00
1027.589, 14542.00
1028.697, 14412.00
1029.805, 14366.00
1030.913, 14349.00
1032.020, 14308.00
1033.128, 14324.29
1034.235, 14410.00
1035.342, 14348.00
1036.449, 14354.00
1037.556, 14324.09
1038.663, 14260.00
1039.769, 14356.00
1040.875, 14234.00
1041.981, 14359.00
1043.087, 14307.00
1044.193, 14306.00
1045.299, 14621.00
1046.404, 14363.00
1047.510, 14454.00
1048.615, 14297.00
1049.720, 14378.00
1050.825, 14312.00
1051.930, 14444.00
1053.034, 14445.00
1054.139, 14483.00
1055.243, 14546.00
1056.347, 14591.00
1057.451, 14624.00
1058.555, 14490.00
1059.658, 14539.00
1060.762, 14521.73
1061.865, 14546.00
1062.968, 14562.00
1064.071, 14436.00
1065.174, 14490.00
1066.277, 14605.00
1067.380, 14627.00
1068.482, 14773.00
1069.584, 14577.00
1070.686, 14474.00
1071.788, 14572.00
1072.890, 14584.00
1073.992, 14564.00
1075.093, 14504.00
1076.194, 14657.00
1077.295, 14695.00
1078.396, 14699.00
1079.497, 14792.61
1080.598, 14738.96
1081.698, 14857.00
1082.799, 14728.00
1083.899, 14670.00
1084.999, 14807.00
1086.099, 14805.00
1087.199, 14777.00
1088.298, 14815.00
1089.398, 14796.00
1090.497, 14879.00
1091.596, 14861.67
1092.695, 14783.00
1093.794, 14846.00
1094.892, 14852.00
1095.991, 14804.00
1097.089, 14798.00
1098.187, 14758.00
1099.285, 15005.00
1100.383, 14704.00
1101.481, 14921.00
1102.579, 14839.00
1103.676, 14874.00
1104.773, 14985.00
1105.870, 14809.00
1106.967, 14908.00
1108.064, 15091.00
1109.161, 15105.00
1110.257, 14880.00
1111.353, 14968.00
1112.449, 15050.00
1113.545, 14885.00
1114.641, 15065.00
1115.737, 15031.00
1116.832, 15016.00
1117.928, 15031.00
1119.023, 15056.68
1120.118, 15072.60
1121.213, 15127.00
1122.308, 15140.00
1123.402, 15116.00
1124.497, 15161.00
1125.591, 14946.00
1126.685, 14995.00
1127.779, 15095.00
1128.873, 14991.00
1129.967, 15149.00
1131.060, 15132.00
1132.153, 15240.00
1133.247, 15133.00
1134.340, 15403.00
1135.433, 15128.00
1136.525, 15272.00
1137.618, 15078.00
1138.710, 15329.00
1139.802, 15148.00
1140.895, 15258.00
1141.987, 15453.00
1143.078, 15142.00
1144.170, 15304.00
1145.261, 15213.00
1146.353, 15332.00
1147.444, 15502.00
1148.535, 15359.00
1149.626, 15438.00
1150.716, 15279.00
1151.807, 15487.00
1152.897, 15434.00
1153.988, 15359.00
1155.078, 15438.00
1156.168, 15397.00
1157.257, 15571.00
1158.347, 15365.00
1159.436, 15461.00
1160.526, 15542.00
1161.615, 15524.00
1162.704, 15554.00
1163.793, 15472.00
1164.881, 15566.00
1165.970, 15391.00
1167.058, 15497.00
1168.147, 15520.00
1169.235, 15526.00
1170.323, 15596.00
1171.410, 15570.04
1172.498, 15780.00
1173.585, 15583.00
1174.673, 15624.00
1175.760, 15714.00
1176.847, 15560.00
1177.934, 15686.00
1179.020, 15637.00
1180.107, 15545.00
1181.193, 15666.00
1182.279, 15751.00
1183.365, 15819.00
1184.451, 15741.00
1185.537, 15658.00
1186.623, 15823.00
1187.708, 15765.00
1188.793, 15823.00
1189.878, 15838.00
1190.963, 15785.00
1192.048, 15757.00
1193.133, 15851.00
1194.217, 15821.00
1195.302, 15937.00
1196.386, 15848.00
1197.470, 15900.00
1198.554, 16046.00
1199.638, 16016.00
1200.721, 16138.00
1201.805, 15984.00
1202.888, 15967.00
1203.971, 16004.00
1205.054, 15999.00
1206.137, 16064.00
1207.219, 16091.00
1208.302, 16028.00
1209.384, 16124.00
1210.466, 16199.00
1211.548, 16091.00
1212.630, 15985.00
1213.712, 16109.00
1214.794, 16198.00
1215.875, 16149.00
1216.956, 16073.00
1218.037, 16119.00
1219.118, 16268.00
1220.199, 16244.00
1221.280, 16348.00
1222.360, 16143.00
1223.441, 16334.00
1224.521, 16261.00
1225.601, 16485.00
1226.681, 16352.00
1227.760, 16464.00
1228.840, 16135.00
1229.919, 16522.00
1230.999, 16326.00
1232.078, 16419.00
1233.157, 16445.00
1234.236, 16569.00
1235.314, 16391.00
1236.393, 16550.00
1237.471, 16429.00
1238.549, 16483.00
1239.627, 16474.00
1240.705, 16531.00
1241.783, 16409.00
1242.860, 16658.00
1243.938, 16491.00
1245.015, 16546.00
1246.092, 16520.00
1247.169, 16617.00
1248.246, 16708.00
1249.323, 16474.00
1250.399, 16728.00
1251.475, 16639.00
1252.552, 16746.00
1253.628, 16794.00
1254.703, 16807.00
1255.779, 16832.68
1256.855, 16837.00
1257.930, 16811.00
1259.005, 16829.38
1260.080, 16753.00
1261.155, 16833.00
1262.230, 16826.00
1263.305, 16827.00
1264.379, 16919.00
1265.454, 16886.00
1266.528, 16770.00
1267.602, 16902.00
1268.676, 17022.00
1269.750, 16827.00
1270.823, 16800.00
1271.897, 16770.00
1272.970, 16875.00
1274.043, 16908.00
1275.116, 16935.39
1276.189, 17094.00
1277.261, 17034.00
1278.334, 17016.00
1279.406, 17118.00
1280.478, 16915.00
1281.550, 17125.00
1282.622, 17195.00
1283.694, 17119.00
1284.766, 17072.00
1285.837, 17047.00
1286.908, 17000.00
1287.979, 17005.00
1289.050, 17275.00
1290.121, 17281.00
1291.192, 17049.00
1292.262, 17315.00
1293.333, 17203.00
1294.403, 17241.00
1295.473, 17238.00
1296.543, 17314.00
1297.613, 17302.00
1298.682, 17349.43
1299.752, 17375.00
1300.821, 17407.00
1301.890, 17432.00
1302.959, 17422.00
1304.028, 17479.00
1305.096, 17534.00
1306.165, 17242.00
1307.233, 17484.00
1308.301, 17475.00
1309.370, 17345.00
1310.437, 17569.00
1311.505, 17658.00
1312.573, 17510.00
1313.640, 17534.00
1314.708, 17562.00
1315.775, 17715.00
1316.842, 17728.00
1317.908, 17631.00
1318.975, 17904.00
1320.042, 17743.00
1321.108, 17710.00
1322.174, 17869.00
1323.240, 17502.00
1324.306, 17758.00
1325.372, 17723.00
1326.438, 17867.00
