##NAMES=Kyanite
##RRUFFID=R040119
##IDEAL CHEMISTRY=Al_2_OSiO_4_
##LOCALITY=Rutherford County, North Carolina, USA
##OWNER=RRUFF
##SOURCE=University of Arizona Mineral Museum
##DESCRIPTION=Blue bladed crystal
##STATUS=The identification of this mineral has been confirmed by X-ray diffraction and chemical analysis
##URL=rruff.info/R040119
##MEASURED CHEMISTRY=(Al_0.99_Fe^3+^_0.01_)_2_OSi_1.00_O_4_
##PIN_ID=L00103
##ORIENTATION=Laser parallel to c* (0 0 1). Fiducial mark perpendicular to laser is parallel to a [1 0 0]
98.23100, 35232.00
99.46700, 36249.00
100.7030, 36864.00
101.9390, 37587.00
103.1740, 39085.00
104.4090, 40224.00
105.6440, 40813.00
106.8790, 40577.00
108.1140, 39857.00
109.3490, 39364.00
110.5830, 39527.00
111.8180, 40006.00
113.0520, 40182.00
114.2860, 40487.20
115.5200, 41205.00
116.7530, 40985.00
117.9870, 41238.00
119.2200, 41367.00
120.4530, 40404.00
121.6860, 39621.00
122.9190, 39625.00
124.1520, 39015.00
125.3850, 39095.00
126.6170, 39193.00
127.8490, 39249.00
129.0810, 39291.00
130.3130, 39421.00
131.5450, 39562.00
132.7770, 39600.01
134.0080, 39330.00
135.2390, 39708.00
136.4710, 39837.00
137.7020, 39872.00
138.9320, 40247.00
140.1630, 40214.00
141.3930, 40206.00
142.6240, 39802.00
143.8540, 40281.00
145.0840, 40248.00
146.3140, 40650.00
147.5440, 40653.00
148.7730, 40468.00
150.0020, 40559.00
151.2320, 40570.05
152.4610, 40710.61
153.6900, 40735.00
154.9180, 40849.07
156.1470, 40952.58
157.3750, 41080.00
158.6040, 41185.00
159.8320, 41319.42
161.0600, 41473.00
162.2870, 41624.00
163.5150, 41818.00
164.7420, 41945.00
165.9700, 41866.00
167.1970, 41754.00
168.4240, 42083.00
169.6510, 42244.00
170.8770, 42258.00
172.1040, 42554.00
173.3300, 42576.00
174.5560, 42955.00
175.7820, 43041.00
177.0080, 43071.00
178.2340, 43106.00
179.4590, 43159.00
180.6850, 42924.00
181.9100, 42686.00
183.1350, 42548.00
184.3600, 42415.00
185.5850, 42308.00
186.8090, 42543.00
188.0340, 42734.00
189.2580, 42749.00
190.4820, 42689.00
191.7060, 42781.00
192.9300, 42865.28
194.1530, 42982.00
195.3770, 43123.00
196.6000, 43178.00
197.8230, 43279.00
199.0460, 43376.00
200.2690, 43574.00
201.4910, 43884.00
202.7140, 43895.06
203.9360, 43939.00
205.1580, 44016.00
206.3800, 44012.00
207.6020, 44058.00
208.8240, 44267.00
210.0450, 44666.00
211.2670, 44760.00
212.4880, 44682.00
213.7090, 44976.00
214.9300, 45547.00
216.1510, 46238.00
217.3710, 47180.00
218.5920, 48342.00
219.8120, 49488.00
221.0320, 51684.00
222.2520, 52969.00
223.4720, 54724.00
224.6910, 55609.00
225.9110, 56309.00
227.1300, 54701.00
228.3490, 53043.00
229.5680, 51269.00
230.7870, 49282.00
232.0050, 48232.98
233.2240, 46584.00
234.4420, 46303.00
235.6600, 46046.00
236.8780, 45620.00
238.0960, 45496.00
239.3140, 45211.00
240.5310, 45556.00
241.7490, 45626.00
242.9660, 45719.00
244.1830, 45630.00
245.4000, 45700.76
246.6160, 45714.02
247.8330, 45786.00
249.0490, 45727.00
250.2660, 45911.00
251.4820, 46210.52
252.6980, 46391.00
253.9130, 47119.00
255.1290, 47519.00
256.3440, 48244.00
257.5600, 48190.00
258.7750, 47040.00
259.9900, 46888.00
261.2040, 46951.00
262.4190, 47029.00
263.6330, 47186.33
264.8480, 47378.00
266.0620, 47741.00
267.2760, 48102.00
268.4900, 48521.00
269.7030, 49960.00
270.9170, 50797.00
272.1300, 52360.00
273.3430, 53078.00
274.5560, 54762.00
275.7690, 55905.00
276.9820, 56435.00
278.1940, 56524.00
279.4070, 56588.00
280.6190, 56412.00
281.8310, 56728.00
283.0430, 57988.00
284.2550, 60314.00
285.4660, 64174.00
286.6770, 69048.00
287.8890, 74709.00
289.1000, 81378.00
290.3110, 88572.00
291.5210, 94564.00
292.7320, 101360.0
293.9420, 110911.0
295.1530, 122051.0
296.3630, 136402.0
297.5730, 150949.0
298.7830, 164993.0
299.9920, 173143.0
301.2020, 167405.0
302.4110, 150156.0
303.6200, 129090.0
304.8290, 105590.0
306.0380, 84516.00
307.2470, 70957.00
308.4550, 64493.00
309.6630, 60956.00
310.8720, 59611.00
312.0800, 58709.00
313.2880, 59633.00
314.4950, 60021.00
315.7030, 62357.00
316.9100, 65297.00
318.1170, 68717.00
319.3240, 73721.00
320.5310, 79301.00
321.7380, 85718.00
322.9450, 90728.00
324.1510, 93572.00
325.3570, 93044.00
326.5630, 87293.00
327.7690, 80172.00
328.9750, 71679.00
330.1810, 64684.00
331.3860, 60148.00
332.5910, 57473.00
333.7960, 56534.00
335.0010, 55474.00
336.2060, 55658.00
337.4110, 55833.00
338.6150, 56320.00
339.8200, 56490.81
341.0240, 56658.05
342.2280, 57040.00
343.4320, 56901.00
344.6350, 57105.00
345.8390, 57267.00
347.0420, 57889.00
348.2450, 59165.00
349.4480, 61411.00
350.6510, 64601.00
351.8540, 68687.00
353.0560, 73540.00
354.2590, 80139.00
355.4610, 88166.00
356.6630, 96037.00
357.8650, 103168.0
359.0670, 107622.0
360.2680, 105884.0
361.4700, 99766.00
362.6710, 92101.00
363.8720, 83683.00
365.0730, 77361.00
366.2740, 74749.00
367.4740, 74643.00
368.6750, 76407.00
369.8750, 78165.00
371.0750, 79091.00
372.2750, 79497.00
373.4750, 79399.00
374.6740, 79359.00
375.8740, 79420.00
377.0730, 80938.00
378.2720, 83283.00
379.4710, 87128.00
380.6700, 92490.00
381.8690, 98792.00
383.0670, 105087.0
384.2660, 110967.0
385.4640, 114827.0
386.6620, 119287.0
387.8600, 124108.0
389.0570, 129223.0
390.2550, 134600.0
391.4520, 136419.0
392.6490, 131907.0
393.8460, 123310.0
395.0430, 114146.0
396.2400, 106134.0
397.4370, 103052.0
398.6330, 106559.0
399.8290, 114793.0
401.0250, 122591.0
402.2210, 128857.0
403.4170, 130173.0
404.6130, 124374.0
405.8080, 114435.0
407.0030, 102530.0
408.1980, 90942.00
409.3930, 83702.00
410.5880, 80004.00
411.7830, 79620.00
412.9770, 81437.00
414.1720, 84971.00
415.3660, 88831.00
416.5600, 92597.00
417.7530, 95802.00
418.9470, 95606.00
420.1410, 92276.00
421.3340, 87207.00
422.5270, 82444.00
423.7200, 78318.00
424.9130, 76820.00
426.1060, 77660.00
427.2980, 80048.00
428.4900, 83769.00
429.6830, 89685.00
430.8750, 97112.00
432.0670, 105363.0
433.2580, 113942.0
434.4500, 120903.0
435.6410, 125239.0
436.8320, 124884.0
438.0240, 120524.0
439.2140, 111191.0
440.4050, 100754.0
441.5960, 91580.00
442.7860, 82972.00
443.9760, 78160.00
445.1670, 75088.00
446.3560, 73529.00
447.5460, 71926.00
448.7360, 70523.00
449.9250, 68363.00
451.1150, 66582.00
452.3040, 64785.00
453.4930, 63779.00
454.6810, 63150.00
455.8700, 63657.00
457.0590, 64330.00
458.2470, 64826.00
459.4350, 65996.00
460.6230, 67260.00
461.8110, 68232.00
462.9980, 69495.00
464.1860, 70398.00
465.3730, 71099.00
466.5600, 71404.00
467.7470, 72008.00
468.9340, 72677.00
470.1210, 74398.00
471.3080, 76468.00
472.4940, 81089.00
473.6800, 86828.00
474.8660, 94939.00
476.0520, 105966.0
477.2380, 121107.0
478.4230, 139782.0
479.6090, 164487.0
480.7940, 193687.0
481.9790, 225717.0
483.1640, 257621.0
484.3490, 282717.0
485.5330, 293648.0
486.7180, 287101.0
487.9020, 266134.0
489.0860, 235514.0
490.2700, 204059.0
491.4540, 175676.0
492.6370, 155241.0
493.8210, 138604.0
495.0040, 124460.0
496.1870, 111800.0
497.3700, 102242.0
498.5530, 94908.00
499.7360, 89822.00
500.9180, 86946.00
502.1000, 86004.00
503.2830, 85231.00
504.4650, 85595.00
505.6460, 86104.00
506.8280, 87827.00
508.0100, 88755.00
509.1910, 89078.00
510.3720, 88386.34
511.5530, 87310.00
512.7340, 84868.00
513.9150, 81960.00
515.0950, 78472.00
516.2760, 75344.00
517.4560, 72661.00
518.6360, 70844.00
519.8160, 69392.00
520.9950, 68220.00
522.1750, 68416.00
523.3540, 67479.00
524.5340, 66841.00
525.7130, 66467.00
526.8920, 65981.00
528.0700, 65967.00
529.2490, 66040.00
530.4270, 66017.00
531.6060, 66040.00
532.7840, 66412.00
533.9620, 67146.00
535.1390, 67856.00
536.3170, 68727.00
537.4940, 69693.00
538.6720, 71271.00
539.8490, 72589.00
541.0260, 74524.00
542.2030, 75820.00
543.3790, 77365.00
544.5560, 78061.00
545.7320, 78276.00
546.9080, 77583.00
548.0840, 76613.00
549.2600, 75425.00
550.4360, 75306.00
551.6110, 75189.00
552.7860, 76350.00
553.9620, 78632.00
555.1370, 82180.00
556.3110, 86366.00
557.4860, 91579.00
558.6610, 98251.00
559.8350, 104490.0
561.0090, 110335.0
562.1830, 112739.0
563.3570, 111977.0
564.5310, 109428.0
565.7040, 105210.0
566.8780, 103337.0
568.0510, 102414.0
569.2240, 103507.0
570.3970, 104530.0
571.5700, 104645.0
572.7420, 102864.0
573.9150, 98278.00
575.0870, 92979.00
576.2590, 86967.00
577.4310, 82565.00
578.6030, 78199.00
579.7740, 76191.00
580.9460, 73978.00
582.1170, 72776.00
583.2880, 72621.00
584.4590, 72141.00
585.6300, 72812.00
586.8010, 72109.00
587.9710, 71000.00
589.1410, 70073.00
590.3110, 69732.92
591.4810, 69603.00
592.6510, 69312.00
593.8210, 69418.00
594.9900, 69672.00
596.1600, 70076.00
597.3290, 70321.00
598.4980, 70782.00
599.6670, 71257.00
600.8350, 72222.00
602.0040, 72649.00
603.1720, 73485.00
604.3400, 73424.42
605.5080, 73215.00
606.6760, 72701.00
607.8440, 71939.00
609.0120, 70620.00
610.1790, 70118.00
611.3460, 69203.00
612.5130, 68767.00
613.6800, 68564.00
614.8470, 68404.00
616.0130, 68880.00
617.1800, 68598.00
618.3460, 68575.00
619.5120, 68543.00
620.6780, 68578.00
621.8440, 68676.00
623.0090, 68505.00
624.1750, 68795.00
625.3400, 69229.00
626.5050, 69936.00
627.6700, 70271.00
628.8350, 70888.00
629.9990, 71873.00
631.1640, 73215.00
632.3280, 74846.00
633.4920, 76023.00
634.6560, 77050.00
635.8200, 77887.00
636.9840, 77678.00
638.1470, 77114.00
639.3100, 75719.00
640.4730, 73904.00
641.6360, 72638.00
642.7990, 71376.00
643.9620, 70641.00
645.1240, 69794.00
646.2870, 69555.00
647.4490, 69152.00
648.6110, 69364.00
649.7730, 69389.00
650.9340, 69937.00
652.0960, 69814.00
653.2570, 70016.00
654.4180, 70371.00
655.5790, 70759.00
656.7400, 70971.00
657.9010, 71439.00
659.0620, 71702.00
660.2220, 72677.00
661.3820, 73303.00
662.5420, 74176.00
663.7020, 76699.00
664.8620, 77853.00
666.0210, 80053.00
667.1810, 82076.00
668.3400, 83267.00
669.4990, 84102.00
670.6580, 83584.00
671.8170, 82731.00
672.9750, 80202.00
674.1340, 78280.00
675.2920, 76215.00
676.4500, 74736.00
677.6080, 73535.12
678.7660, 72717.00
679.9230, 71932.00
681.0810, 71584.00
682.2380, 71348.00
683.3950, 70754.00
684.5520, 70366.00
685.7090, 70140.00
686.8660, 69812.67
688.0220, 69706.69
689.1780, 69472.00
690.3340, 69540.00
691.4900, 69480.00
692.6460, 69359.00
693.8020, 69575.00
694.9570, 69518.00
696.1130, 69713.00
697.2680, 69941.00
698.4230, 70303.00
699.5780, 70196.00
700.7320, 70781.00
701.8870, 70630.00
703.0410, 70464.00
704.1950, 70397.00
705.3490, 70189.00
706.5030, 69849.00
707.6570, 69830.00
708.8110, 69668.11
709.9640, 69727.00
711.1170, 69669.00
712.2700, 69975.00
713.4230, 70285.00
714.5760, 70618.00
715.7280, 71122.00
716.8810, 71368.00
718.0330, 71980.00
719.1850, 72445.00
720.3370, 72845.00
721.4890, 73431.00
722.6400, 73726.00
723.7920, 74053.00
724.9430, 73668.00
726.0940, 72860.00
727.2450, 72090.00
728.3960, 72011.00
729.5460, 71220.00
730.6970, 71051.00
731.8470, 70673.00
732.9970, 70423.00
734.1470, 70341.00
735.2970, 70160.00
736.4460, 70287.00
737.5960, 70105.00
738.7450, 70265.00
739.8940, 69830.00
741.0430, 70391.00
742.1920, 70030.00
743.3410, 70254.00
744.4890, 70334.00
745.6370, 69943.00
746.7850, 70368.00
747.9330, 70331.00
749.0810, 70454.00
750.2290, 70492.00
751.3760, 70549.05
752.5240, 70590.61
753.6710, 70633.00
754.8180, 70582.00
755.9650, 70491.00
757.1110, 70370.00
758.2580, 70147.00
759.4040, 70722.00
760.5510, 70204.00
761.6970, 70537.00
762.8420, 70801.00
763.9880, 70587.00
765.1340, 70838.00
766.2790, 70664.00
767.4240, 70665.00
768.5690, 70746.95
769.7140, 70691.00
770.8590, 70765.00
772.0030, 70705.00
773.1480, 70584.00
774.2920, 70860.00
775.4360, 71060.00
776.5800, 70626.00
777.7240, 70762.00
778.8670, 70589.00
780.0110, 71497.00
781.1540, 70999.00
782.2970, 71329.00
783.4400, 71071.00
784.5830, 71310.00
785.7250, 71760.00
786.8680, 71754.00
788.0100, 71734.00
789.1520, 71413.00
790.2940, 71424.00
791.4360, 71583.00
792.5780, 71475.00
793.7190, 71786.00
794.8600, 71889.00
796.0010, 71907.00
797.1420, 72201.00
798.2830, 72379.00
799.4240, 72186.00
800.5640, 72537.00
801.7050, 72914.00
802.8450, 72928.00
803.9850, 72557.00
805.1250, 72491.00
806.2640, 73085.00
807.4040, 72679.00
808.5430, 73125.00
809.6820, 73368.00
810.8210, 73423.00
811.9600, 73600.41
813.0990, 73431.00
814.2370, 73583.00
815.3760, 73563.00
816.5140, 73669.05
817.6520, 74138.00
818.7900, 74006.00
819.9270, 74229.00
821.0650, 74510.00
822.2020, 74545.00
823.3390, 74468.00
824.4760, 74462.00
825.6130, 74761.00
826.7500, 74864.00
827.8870, 75228.00
829.0230, 75047.00
830.1590, 75282.00
831.2950, 75421.00
832.4310, 75476.00
833.5670, 75563.00
834.7030, 75798.35
835.8380, 75796.00
836.9730, 76317.00
838.1080, 76615.00
839.2430, 76953.00
840.3780, 76519.00
841.5130, 76811.00
842.6470, 77027.00
843.7810, 77127.00
844.9150, 77397.00
846.0490, 77703.00
847.1830, 78195.00
848.3170, 78780.00
849.4500, 78574.00
850.5830, 79161.00
851.7160, 79218.00
852.8490, 79507.00
853.9820, 80357.00
855.1150, 80640.00
856.2470, 81008.00
857.3800, 81482.00
858.5120, 82472.00
859.6440, 82716.00
860.7760, 83174.00
861.9070, 84178.00
863.0390, 84532.00
864.1700, 85504.00
865.3010, 86452.00
866.4320, 87496.00
867.5630, 88565.00
868.6940, 89850.00
869.8240, 91026.00
870.9540, 93131.00
872.0850, 94987.00
873.2150, 97121.00
874.3450, 99923.00
875.4740, 103185.0
876.6040, 106306.0
877.7330, 110445.0
878.8620, 115468.0
879.9910, 121369.0
881.1200, 128178.0
882.2490, 135513.0
883.3770, 145162.0
884.5060, 155078.0
885.6340, 164697.0
886.7620, 175756.0
887.8900, 184369.0
889.0180, 191725.0
890.1450, 195688.0
891.2730, 197853.0
892.4000, 198127.0
893.5270, 199441.0
894.6540, 201112.0
895.7810, 207213.0
896.9070, 214737.0
898.0340, 224213.0
899.1600, 230386.0
900.2860, 234257.0
901.4120, 231822.0
902.5380, 223459.0
903.6630, 210366.0
904.7890, 194743.0
905.9140, 176855.0
907.0390, 161513.0
908.1640, 148153.0
909.2890, 136896.0
910.4130, 127953.0
911.5380, 120918.0
912.6620, 115859.0
913.7860, 110963.0
914.9100, 107428.0
916.0340, 104708.0
917.1580, 102996.0
918.2810, 100683.0
919.4040, 99511.00
920.5280, 98549.00
921.6510, 97834.00
922.7730, 96926.00
923.8960, 96708.00
925.0180, 96798.00
926.1410, 97491.00
927.2630, 97506.00
928.3850, 98249.00
929.5070, 99295.00
930.6280, 100339.0
931.7500, 102072.0
932.8710, 103805.0
933.9920, 105752.0
935.1130, 107619.0
936.2340, 109568.0
937.3550, 111647.0
938.4760, 113956.0
939.5960, 116250.0
940.7160, 119115.0
941.8360, 121735.0
942.9560, 124255.0
944.0760, 127480.0
945.1950, 130479.0
946.3150, 133787.0
947.4340, 136484.0
948.5530, 139448.0
949.6720, 141415.0
950.7900, 142642.0
951.9090, 142989.0
953.0270, 142063.0
954.1460, 140562.0
955.2640, 139151.0
956.3820, 137772.7
957.4990, 136250.0
958.6170, 134599.0
959.7340, 133082.0
960.8520, 131214.0
961.9690, 129216.0
963.0860, 126038.0
964.2020, 123029.0
965.3190, 118944.0
966.4350, 115629.1
967.5520, 111394.0
968.6680, 108636.0
969.7840, 105463.0
970.8990, 102862.0
972.0150, 100217.0
973.1310, 98404.00
974.2460, 97066.00
975.3610, 95883.00
976.4760, 94471.00
977.5910, 93606.00
978.7050, 92665.00
979.8200, 91768.00
980.9340, 90859.00
982.0480, 90171.00
983.1620, 89816.00
984.2760, 89465.00
985.3900, 88682.00
986.5030, 88610.00
987.6160, 88296.00
988.7300, 87607.00
989.8430, 87648.00
990.9550, 87879.00
992.0680, 88096.00
993.1810, 87868.00
994.2930, 87921.00
995.4050, 88435.00
996.5170, 88536.00
997.6290, 88849.00
998.7410, 89038.00
999.8520, 89103.00
1000.964, 89013.69
1002.075, 88914.14
1003.186, 88414.00
1004.297, 88265.00
1005.407, 87593.00
1006.518, 86777.00
1007.628, 86325.00
1008.738, 86054.00
1009.848, 85824.00
1010.958, 85629.91
1012.068, 85470.57
1013.178, 85431.00
1014.287, 85303.00
1015.396, 85242.00
1016.505, 85333.00
1017.614, 84982.00
1018.723, 84717.00
1019.831, 85029.00
1020.940, 85237.00
1022.048, 84899.00
1023.156, 84970.00
1024.264, 84645.00
1025.372, 85128.00
1026.479, 84687.00
1027.587, 85035.00
1028.694, 84989.00
1029.801, 84830.00
1030.908, 85355.00
1032.015, 85011.00
1033.121, 84787.00
1034.228, 84860.00
1035.334, 84698.00
1036.440, 84810.00
1037.546, 84482.00
1038.652, 84891.00
1039.758, 84965.00
1040.863, 85493.00
1041.968, 84822.00
1043.074, 84669.00
1044.178, 84836.00
1045.283, 84754.00
1046.388, 84912.00
1047.492, 84923.00
1048.597, 84861.00
1049.701, 84699.00
1050.805, 84797.00
1051.909, 85038.00
1053.012, 84955.00
1054.116, 85173.00
1055.219, 84992.00
1056.322, 85039.00
1057.425, 85091.00
1058.528, 85144.00
1059.631, 85443.00
1060.733, 85373.00
1061.836, 85091.00
1062.938, 85335.00
1064.040, 85349.00
1065.142, 85724.00
1066.243, 85281.00
1067.345, 85448.00
1068.446, 85149.00
1069.547, 85641.00
1070.648, 85666.00
1071.749, 85910.00
1072.850, 85808.00
1073.951, 86091.00
1075.051, 85905.00
1076.151, 85552.00
1077.251, 86059.00
1078.351, 86233.00
1079.451, 86317.00
1080.550, 86039.00
1081.650, 86031.00
1082.749, 85761.00
1083.848, 86454.00
1084.947, 86472.00
1086.046, 86634.00
1087.144, 86237.00
1088.243, 86251.00
1089.341, 86712.00
1090.439, 86625.00
1091.537, 87289.00
1092.635, 86232.00
1093.732, 86474.00
1094.830, 86673.00
1095.927, 86859.00
1097.024, 86919.00
1098.121, 87376.00
1099.218, 86784.00
1100.314, 86679.00
1101.411, 86682.00
1102.507, 87053.00
1103.603, 87168.00
1104.699, 87092.00
1105.795, 87293.41
1106.890, 87396.00
1107.986, 87368.00
1109.081, 87216.00
1110.176, 87154.00
1111.271, 87346.00
1112.366, 87570.00
1113.461, 87169.00
1114.555, 87927.00
1115.649, 87839.00
1116.744, 87663.00
1117.838, 87558.00
1118.931, 87703.00
1120.025, 88059.00
1121.119, 87538.00
1122.212, 87831.00
1123.305, 88060.00
1124.398, 87903.00
1125.491, 88030.00
1126.584, 88045.11
1127.676, 88107.00
1128.768, 88139.00
1129.861, 88096.00
1130.953, 88282.00
1132.044, 88297.00
1133.136, 88151.00
1134.228, 88210.00
1135.319, 88291.00
1136.410, 88143.00
1137.501, 88247.00
1138.592, 88177.00
1139.683, 88233.66
1140.773, 88603.00
1141.864, 88325.00
1142.954, 88608.00
1144.044, 88566.00
1145.134, 88192.00
1146.224, 88683.00
1147.313, 88978.00
1148.402, 88652.00
1149.492, 88835.00
1150.581, 89018.00
1151.670, 88947.72
1152.758, 89270.00
1153.847, 89069.00
1154.935, 89079.00
1156.024, 89106.00
1157.112, 89016.12
1158.200, 89093.57
1159.287, 89062.00
1160.375, 89168.00
1161.462, 89411.00
1162.550, 89426.00
1163.637, 89445.00
1164.724, 89581.73
1165.810, 89567.88
1166.897, 89785.00
1167.983, 89741.00
1169.070, 89935.00
1170.156, 90291.00
1171.242, 89865.00
1172.327, 89909.00
1173.413, 89777.00
1174.499, 90063.00
1175.584, 89722.00
1176.669, 89990.00
1177.754, 89820.00
1178.839, 89797.00
1179.923, 89993.00
1181.008, 90275.00
1182.092, 90082.00
1183.176, 90179.00
1184.260, 90028.00
1185.344, 89958.89
1186.428, 90030.41
1187.511, 89864.00
1188.595, 90179.00
1189.678, 90327.00
1190.761, 90525.00
1191.843, 90647.00
1192.926, 90355.00
1194.009, 90067.00
1195.091, 90562.00
1196.173, 90824.00
1197.255, 91048.00
1198.337, 90562.00
1199.419, 90497.00
1200.500, 90779.00
1201.582, 91311.00
1202.663, 91366.00
1203.744, 91476.95
1204.825, 91480.00
1205.905, 91381.00
1206.986, 91327.00
1208.066, 91224.00
1209.146, 91264.00
1210.226, 91184.00
1211.306, 91167.00
1212.386, 91484.00
1213.466, 91519.00
1214.545, 91637.00
1215.624, 91539.00
1216.703, 91796.00
1217.782, 91623.00
1218.861, 91564.00
1219.939, 91753.00
1221.018, 92097.00
1222.096, 91834.00
1223.174, 92176.00
1224.252, 92167.00
1225.330, 91861.00
1226.407, 92305.00
1227.485, 91997.00
1228.562, 92435.00
1229.639, 92240.00
1230.716, 92752.00
1231.793, 92187.00
1232.869, 92277.00
1233.946, 92782.00
1235.022, 92374.00
1236.098, 93078.00
1237.174, 92756.00
1238.250, 92928.00
1239.325, 92707.00
1240.401, 92637.00
1241.476, 92800.00
1242.551, 92861.00
1243.626, 92315.00
1244.701, 92871.00
1245.776, 92781.00
1246.850, 93227.00
1247.924, 92906.00
1248.999, 93209.00
1250.073, 93183.00
1251.146, 93387.00
1252.220, 93069.00
1253.293, 93340.00
1254.367, 93523.00
1255.440, 93529.00
1256.513, 93795.30
1257.586, 93789.61
1258.658, 94063.00
1259.731, 93861.00
1260.803, 93756.00
1261.875, 93804.00
1262.947, 93820.00
1264.019, 93899.00
1265.091, 94024.00
1266.162, 94266.00
1267.234, 94085.00
1268.305, 94243.00
1269.376, 93905.00
1270.447, 93764.00
1271.517, 94459.00
1272.588, 94297.00
1273.658, 94424.00
1274.729, 94638.00
1275.799, 94068.00
1276.868, 94610.00
1277.938, 94810.00
1279.008, 94289.00
