##NAMES=Kyanite
##RRUFFID=R040119
##IDEAL CHEMISTRY=Al_2_OSiO_4_
##LOCALITY=Rutherford County, North Carolina, USA
##OWNER=RRUFF
##SOURCE=University of Arizona Mineral Museum
##DESCRIPTION=Blue bladed crystal
##STATUS=The identification of this mineral has been confirmed by X-ray diffraction and chemical analysis
##URL=rruff.info/R040119
##MEASURED CHEMISTRY=(Al_0.99_Fe^3+^_0.01_)_2_OSi_1.00_O_4_
##PIN_ID=L00103
##ORIENTATION=Laser parallel to c* (0 0 1). Fiducial mark perpendicular to laser is parallel to a [1 0 0]
95.75900, 27534.62
96.99500, 27843.00
98.23100, 27927.00
99.46700, 28564.00
100.7030, 29324.00
101.9390, 29903.00
103.1740, 31265.00
104.4090, 32543.00
105.6440, 32818.00
106.8790, 32581.00
108.1140, 31890.00
109.3490, 31619.00
110.5830, 31294.00
111.8180, 31572.00
113.0520, 31904.00
114.2860, 32556.00
115.5200, 32618.13
116.7530, 33029.00
117.9870, 32973.00
119.2200, 33170.00
120.4530, 33406.00
121.6860, 32692.00
122.9190, 31657.00
124.1520, 31349.00
125.3850, 30823.00
126.6170, 30790.00
127.8490, 30939.00
129.0810, 30827.00
130.3130, 31034.00
131.5450, 30920.00
132.7770, 30922.00
134.0080, 31038.00
135.2390, 31218.00
136.4710, 31125.00
137.7020, 31445.00
138.9320, 31519.00
140.1630, 31600.00
141.3930, 31579.00
142.6240, 31622.00
143.8540, 31567.00
145.0840, 31712.00
146.3140, 31826.00
147.5440, 31760.00
148.7730, 31511.00
150.0020, 31653.00
151.2320, 31820.00
152.4610, 31689.00
153.6900, 31826.00
154.9180, 32006.00
156.1470, 32071.00
157.3750, 32144.00
158.6040, 32022.00
159.8320, 32458.00
161.0600, 32103.00
162.2870, 32456.00
163.5150, 32539.00
164.7420, 32462.00
165.9700, 32666.42
167.1970, 32532.00
168.4240, 32816.00
169.6510, 32925.00
170.8770, 33021.00
172.1040, 33065.00
173.3300, 33159.00
174.5560, 33259.00
175.7820, 33410.00
177.0080, 33396.00
178.2340, 33427.00
179.4590, 33111.00
180.6850, 32958.00
181.9100, 32966.00
183.1350, 32768.00
184.3600, 32857.00
185.5850, 32866.00
186.8090, 32889.00
188.0340, 33006.00
189.2580, 33302.00
190.4820, 33135.00
191.7060, 33359.00
192.9300, 33236.00
194.1530, 33523.00
195.3770, 33583.00
196.6000, 33798.00
197.8230, 34152.00
199.0460, 34605.00
200.2690, 34867.00
201.4910, 35329.00
202.7140, 35956.00
203.9360, 36336.00
205.1580, 36546.00
206.3800, 36746.00
207.6020, 36852.00
208.8240, 36639.00
210.0450, 35971.00
211.2670, 35960.00
212.4880, 35389.00
213.7090, 35171.00
214.9300, 35091.00
216.1510, 35567.00
217.3710, 35788.00
218.5920, 36253.00
219.8120, 37043.00
221.0320, 37686.00
222.2520, 38466.00
223.4720, 39386.00
224.6910, 40284.00
225.9110, 40292.00
227.1300, 40166.00
228.3490, 38976.00
229.5680, 37987.00
230.7870, 36789.00
232.0050, 36096.00
233.2240, 35706.00
234.4420, 35452.00
235.6600, 35298.00
236.8780, 35250.00
238.0960, 35666.00
239.3140, 35479.00
240.5310, 35711.00
241.7490, 35708.00
242.9660, 35827.00
244.1830, 35912.00
245.4000, 36010.00
246.6160, 36022.00
247.8330, 36263.00
249.0490, 35891.00
250.2660, 35926.00
251.4820, 36009.00
252.6980, 36089.00
253.9130, 36245.00
255.1290, 36623.00
256.3440, 37446.00
257.5600, 37378.00
258.7750, 36725.00
259.9900, 35978.00
261.2040, 35946.00
262.4190, 35981.00
263.6330, 36116.00
264.8480, 36475.00
266.0620, 36834.00
267.2760, 37278.26
268.4900, 37717.00
269.7030, 38529.00
270.9170, 39261.00
272.1300, 40313.00
273.3430, 41552.00
274.5560, 42767.00
275.7690, 43778.00
276.9820, 44505.00
278.1940, 44564.00
279.4070, 44086.00
280.6190, 43594.00
281.8310, 43268.00
283.0430, 43404.00
284.2550, 44773.00
285.4660, 47116.00
286.6770, 49804.00
287.8890, 53724.00
289.1000, 57956.00
290.3110, 61811.00
291.5210, 66267.00
292.7320, 70500.00
293.9420, 75839.00
295.1530, 82673.00
296.3630, 91952.00
297.5730, 101858.0
298.7830, 111523.0
299.9920, 120843.0
301.2020, 119628.0
302.4110, 107882.0
303.6200, 92672.00
304.8290, 77129.00
306.0380, 62784.00
307.2470, 53952.00
308.4550, 49167.00
309.6630, 46941.00
310.8720, 46224.00
312.0800, 46301.00
313.2880, 47301.00
314.4950, 49140.00
315.7030, 51616.00
316.9100, 55000.00
318.1170, 60059.00
319.3240, 65513.00
320.5310, 72508.00
321.7380, 80438.00
322.9450, 87439.00
324.1510, 93476.00
325.3570, 93365.00
326.5630, 86614.00
327.7690, 76577.00
328.9750, 65979.00
330.1810, 56736.00
331.3860, 50717.00
332.5910, 47225.00
333.7960, 45567.00
335.0010, 44847.00
336.2060, 44818.00
337.4110, 44862.00
338.6150, 45449.00
339.8200, 45667.00
341.0240, 46021.00
342.2280, 45706.00
343.4320, 45514.00
344.6350, 45013.00
345.8390, 44535.00
347.0420, 44553.00
348.2450, 45024.00
349.4480, 46515.00
350.6510, 47419.00
351.8540, 48992.00
353.0560, 51816.00
354.2590, 55173.00
355.4610, 59379.00
356.6630, 63485.00
357.8650, 67662.00
359.0670, 71005.00
360.2680, 70990.00
361.4700, 68267.00
362.6710, 64205.00
363.8720, 61198.00
365.0730, 58942.00
366.2740, 58654.00
367.4740, 60382.00
368.6750, 62655.00
369.8750, 66098.00
371.0750, 68905.00
372.2750, 69847.00
373.4750, 70196.00
374.6740, 70238.00
375.8740, 71385.00
377.0730, 72370.00
378.2720, 74239.00
379.4710, 77159.00
380.6700, 80842.00
381.8690, 84677.00
383.0670, 90101.00
384.2660, 94179.00
385.4640, 95691.00
386.6620, 95400.00
387.8600, 95635.00
389.0570, 95641.00
390.2550, 98090.00
391.4520, 100898.0
392.6490, 97886.00
393.8460, 90414.00
395.0430, 83198.00
396.2400, 77904.00
397.4370, 75755.00
398.6330, 78272.00
399.8290, 83895.00
401.0250, 90138.00
402.2210, 95843.00
403.4170, 98122.00
404.6130, 93808.00
405.8080, 85603.00
407.0030, 76050.00
408.1980, 67076.00
409.3930, 60654.00
410.5880, 57395.00
411.7830, 56250.00
412.9770, 56529.00
414.1720, 57710.00
415.3660, 59398.00
416.5600, 60885.00
417.7530, 62886.00
418.9470, 62800.00
420.1410, 61683.00
421.3340, 59204.00
422.5270, 56953.00
423.7200, 55326.00
424.9130, 54783.00
426.1060, 55859.00
427.2980, 57592.00
428.4900, 61277.00
429.6830, 65335.00
430.8750, 70806.00
432.0670, 77188.00
433.2580, 84428.00
434.4500, 91077.00
435.6410, 95506.00
436.8320, 97672.00
438.0240, 94996.00
439.2140, 88934.00
440.4050, 80555.00
441.5960, 72655.00
442.7860, 66261.00
443.9760, 61846.00
445.1670, 60148.00
446.3560, 59026.00
447.5460, 58095.00
448.7360, 56420.00
449.9250, 54510.00
451.1150, 52031.00
452.3040, 50499.00
453.4930, 48738.00
454.6810, 48122.00
455.8700, 47726.00
457.0590, 47659.00
458.2470, 48372.00
459.4350, 48573.00
460.6230, 49082.00
461.8110, 49786.00
462.9980, 50172.00
464.1860, 51042.00
465.3730, 51502.00
466.5600, 51551.00
467.7470, 52444.00
468.9340, 53239.00
470.1210, 54217.00
471.3080, 56437.00
472.4940, 59670.00
473.6800, 64182.00
474.8660, 70477.00
476.0520, 78324.00
477.2380, 89013.00
478.4230, 103651.0
479.6090, 121610.0
480.7940, 143603.0
481.9790, 168241.0
483.1640, 193768.0
484.3490, 216753.0
485.5330, 229585.0
486.7180, 225864.0
487.9020, 206829.0
489.0860, 181208.0
490.2700, 153944.0
491.4540, 131628.0
492.6370, 114881.0
493.8210, 101868.0
495.0040, 91112.00
496.1870, 81763.00
497.3700, 74697.00
498.5530, 68759.00
499.7360, 65499.00
500.9180, 62874.00
502.1000, 61583.00
503.2830, 61028.00
504.4650, 60934.00
505.6460, 61344.00
506.8280, 61724.00
508.0100, 62222.00
509.1910, 62429.00
510.3720, 62774.00
511.5530, 62127.00
512.7340, 60654.00
513.9150, 58455.00
515.0950, 56762.00
516.2760, 54652.00
517.4560, 53177.00
518.6360, 51906.80
519.8160, 50851.00
520.9950, 50118.00
522.1750, 49599.00
523.3540, 49494.00
524.5340, 48948.00
525.7130, 48948.00
526.8920, 48454.00
528.0700, 48680.00
529.2490, 48783.00
530.4270, 48651.00
531.6060, 48503.00
532.7840, 48545.00
533.9620, 49166.00
535.1390, 49400.00
536.3170, 49769.00
537.4940, 50294.00
538.6720, 50823.00
539.8490, 51667.00
541.0260, 52531.00
542.2030, 53356.00
543.3790, 54299.00
544.5560, 54184.00
545.7320, 54584.00
546.9080, 54047.00
548.0840, 53400.00
549.2600, 53178.00
550.4360, 52688.00
551.6110, 53320.00
552.7860, 54078.00
553.9620, 55392.00
555.1370, 57638.00
556.3110, 59919.00
557.4860, 61760.00
558.6610, 65175.00
559.8350, 68328.00
561.0090, 71742.00
562.1830, 73248.00
563.3570, 72899.00
564.5310, 71259.00
565.7040, 68992.00
566.8780, 67232.00
568.0510, 66286.00
569.2240, 67054.00
570.3970, 67025.00
571.5700, 67792.00
572.7420, 66819.00
573.9150, 65037.00
575.0870, 62764.00
576.2590, 60420.00
577.4310, 58603.00
578.6030, 57446.00
579.7740, 56548.00
580.9460, 56779.00
582.1170, 57182.00
583.2880, 57055.00
584.4590, 57221.00
585.6300, 57185.00
586.8010, 56552.00
587.9710, 55760.00
589.1410, 54315.00
590.3110, 53774.00
591.4810, 52866.00
592.6510, 52350.00
593.8210, 52316.00
594.9900, 51807.00
596.1600, 52193.00
597.3290, 52603.00
598.4980, 52859.00
599.6670, 53566.00
600.8350, 53884.00
602.0040, 54658.00
603.1720, 55036.00
604.3400, 55499.00
605.5080, 55772.00
606.6760, 55772.00
607.8440, 54933.00
609.0120, 54787.00
610.1790, 54133.00
611.3460, 54032.00
612.5130, 53717.00
613.6800, 53740.00
614.8470, 54036.00
616.0130, 54047.00
617.1800, 54054.00
618.3460, 54352.00
619.5120, 54274.00
620.6780, 53822.00
621.8440, 53917.00
623.0090, 54096.00
624.1750, 54079.00
625.3400, 54530.00
626.5050, 55006.00
627.6700, 55873.00
628.8350, 56753.00
629.9990, 57706.00
631.1640, 58627.00
632.3280, 60222.00
633.4920, 61449.00
634.6560, 62672.00
635.8200, 63523.00
636.9840, 63512.00
638.1470, 62702.00
639.3100, 61280.00
640.4730, 59310.00
641.6360, 57429.00
642.7990, 56240.00
643.9620, 54805.00
645.1240, 54196.00
646.2870, 53701.00
647.4490, 53323.00
648.6110, 53352.00
649.7730, 54013.00
650.9340, 53723.00
652.0960, 54094.00
653.2570, 54034.00
654.4180, 54243.00
655.5790, 54533.00
656.7400, 54486.00
657.9010, 54430.00
659.0620, 54722.00
660.2220, 54780.00
661.3820, 54909.00
662.5420, 55277.00
663.7020, 55708.00
664.8620, 56861.00
666.0210, 58077.00
667.1810, 58974.00
668.3400, 59818.00
669.4990, 60066.00
670.6580, 60004.00
671.8170, 59600.00
672.9750, 58482.00
674.1340, 57283.00
675.2920, 56178.00
676.4500, 55309.00
677.6080, 54851.00
678.7660, 54042.00
679.9230, 53918.00
681.0810, 53651.00
682.2380, 53547.00
683.3950, 53260.00
684.5520, 53263.00
685.7090, 53200.00
686.8660, 52956.00
688.0220, 52787.00
689.1780, 52761.00
690.3340, 52805.00
691.4900, 52822.00
692.6460, 52726.00
693.8020, 52859.00
694.9570, 52803.00
696.1130, 53172.00
697.2680, 53297.00
698.4230, 53690.00
699.5780, 53923.00
700.7320, 53872.00
701.8870, 53890.00
703.0410, 54080.00
704.1950, 53943.00
705.3490, 53696.00
706.5030, 53550.00
707.6570, 53473.09
708.8110, 53500.93
709.9640, 53396.90
711.1170, 53359.91
712.2700, 53394.17
713.4230, 53277.03
714.5760, 53688.97
715.7280, 54092.38
716.8810, 53990.00
718.0330, 54226.00
719.1850, 54874.00
720.3370, 55346.00
721.4890, 55747.00
722.6400, 55901.00
723.7920, 56089.00
724.9430, 56119.00
726.0940, 55375.00
727.2450, 55143.00
728.3960, 54601.00
729.5460, 54330.00
730.6970, 53813.00
731.8470, 53300.00
732.9970, 53254.00
734.1470, 53196.00
735.2970, 53063.00
736.4460, 53106.00
737.5960, 53207.00
738.7450, 53546.00
739.8940, 52981.00
741.0430, 52587.00
742.1920, 52757.00
743.3410, 52702.00
744.4890, 52396.00
745.6370, 52471.00
746.7850, 52501.00
747.9330, 52301.00
749.0810, 52416.00
750.2290, 52369.00
751.3760, 52094.00
752.5240, 52407.00
753.6710, 52347.00
754.8180, 52090.00
755.9650, 52289.00
757.1110, 52158.00
758.2580, 51977.00
759.4040, 52342.00
760.5510, 52044.00
761.6970, 52163.00
762.8420, 52138.00
763.9880, 51988.00
765.1340, 51941.00
766.2790, 52146.00
767.4240, 52011.00
768.5690, 52149.00
769.7140, 51848.00
770.8590, 52124.00
772.0030, 52083.00
773.1480, 52141.00
774.2920, 52018.00
775.4360, 52093.00
776.5800, 52144.00
777.7240, 51852.00
778.8670, 51982.74
780.0110, 51919.86
781.1540, 52054.00
782.2970, 52003.00
783.4400, 52161.00
784.5830, 52358.00
785.7250, 52284.00
786.8680, 52404.00
788.0100, 52300.00
789.1520, 52552.00
790.2940, 52519.00
791.4360, 52390.00
792.5780, 52638.00
793.7190, 52638.00
794.8600, 52576.00
796.0010, 52943.00
797.1420, 52870.00
798.2830, 52701.00
799.4240, 52693.00
800.5640, 52793.58
801.7050, 53071.00
802.8450, 53018.00
803.9850, 53326.00
805.1250, 53236.00
806.2640, 53429.00
807.4040, 53399.00
808.5430, 53647.00
809.6820, 53406.00
810.8210, 53695.00
811.9600, 53550.00
813.0990, 53614.00
814.2370, 53868.00
815.3760, 53886.00
816.5140, 53870.00
817.6520, 54173.00
818.7900, 54153.00
819.9270, 54577.00
821.0650, 54086.00
822.2020, 54105.00
823.3390, 54500.00
824.4760, 54174.00
825.6130, 54246.00
826.7500, 54651.00
827.8870, 54616.00
829.0230, 54745.00
830.1590, 54844.00
831.2950, 54873.00
832.4310, 55158.00
833.5670, 55137.00
834.7030, 55469.00
835.8380, 55452.00
836.9730, 55352.00
838.1080, 55632.00
839.2430, 55685.00
840.3780, 55758.00
841.5130, 55789.00
842.6470, 55931.00
843.7810, 55846.00
844.9150, 56158.00
846.0490, 56277.98
847.1830, 56400.00
848.3170, 56692.00
849.4500, 56976.00
850.5830, 57145.00
851.7160, 57497.00
852.8490, 57766.00
853.9820, 58470.00
855.1150, 58474.00
856.2470, 58819.12
857.3800, 59116.76
858.5120, 59243.00
859.6440, 59721.00
860.7760, 60070.00
861.9070, 60701.00
863.0390, 60859.00
864.1700, 61462.00
865.3010, 62064.00
866.4320, 62891.00
867.5630, 63406.00
868.6940, 64316.00
869.8240, 65444.00
870.9540, 66141.00
872.0850, 67148.00
873.2150, 68747.00
874.3450, 70623.00
875.4740, 72005.00
876.6040, 74287.00
877.7330, 77282.00
878.8620, 80298.00
879.9910, 84190.00
881.1200, 88620.00
882.2490, 93268.00
883.3770, 99549.00
884.5060, 106771.0
885.6340, 113720.0
886.7620, 121503.0
887.8900, 127983.0
889.0180, 132780.0
890.1450, 136389.0
891.2730, 137834.0
892.4000, 137062.0
893.5270, 136899.0
894.6540, 136333.0
895.7810, 137103.0
896.9070, 139632.0
898.0340, 144219.0
899.1600, 146580.0
900.2860, 148304.0
901.4120, 145995.0
902.5380, 141296.0
903.6630, 133354.0
904.7890, 124067.0
905.9140, 114592.0
907.0390, 105915.0
908.1640, 98693.00
909.2890, 92403.00
910.4130, 87479.00
911.5380, 83771.00
912.6620, 80710.00
913.7860, 78839.00
914.9100, 76783.00
916.0340, 75486.00
917.1580, 74703.00
918.2810, 73620.00
919.4040, 73302.00
920.5280, 72826.00
921.6510, 72996.00
922.7730, 72782.00
923.8960, 73045.00
925.0180, 73445.00
926.1410, 73516.00
927.2630, 74480.00
928.3850, 75383.00
929.5070, 75921.00
930.6280, 77664.00
931.7500, 79135.00
932.8710, 80648.00
933.9920, 82952.00
935.1130, 84317.00
936.2340, 86747.00
937.3550, 88926.00
938.4760, 90863.00
939.5960, 94018.00
940.7160, 96325.00
941.8360, 99157.00
942.9560, 102223.0
944.0760, 105485.0
945.1950, 109052.0
946.3150, 112791.0
947.4340, 115558.0
948.5530, 118402.0
949.6720, 121794.0
950.7900, 121235.0
951.9090, 121635.0
953.0270, 120895.0
954.1460, 118497.0
955.2640, 116557.0
956.3820, 114085.0
957.4990, 111914.0
958.6170, 111161.0
959.7340, 109395.0
960.8520, 107956.0
961.9690, 105812.0
963.0860, 103410.0
964.2020, 100066.0
965.3190, 96190.00
966.4350, 93018.00
967.5520, 89260.00
968.6680, 86024.00
969.7840, 82636.00
970.8990, 80610.00
972.0150, 78341.00
973.1310, 76338.00
974.2460, 74511.00
975.3610, 73578.00
976.4760, 72500.00
977.5910, 70868.00
978.7050, 70464.00
979.8200, 69730.00
980.9340, 68925.00
982.0480, 68386.00
983.1620, 67800.00
984.2760, 67339.00
985.3900, 67047.00
986.5030, 66476.00
987.6160, 66607.00
988.7300, 66490.00
989.8430, 66092.00
990.9550, 66055.00
992.0680, 66130.00
993.1810, 66417.00
994.2930, 66551.00
995.4050, 67108.00
996.5170, 67090.00
997.6290, 67908.00
998.7410, 68343.00
999.8520, 68612.00
1000.964, 68844.00
1002.075, 68301.00
1003.186, 67905.00
1004.297, 67046.00
1005.407, 66278.00
1006.518, 65659.00
1007.628, 65061.00
1008.738, 64580.97
1009.848, 64324.00
1010.958, 63880.00
1012.068, 63583.00
1013.178, 63475.00
1014.287, 63224.00
1015.396, 63102.00
1016.505, 62889.00
1017.614, 62877.00
1018.723, 62910.00
1019.831, 63087.00
1020.940, 62954.00
1022.048, 62868.00
1023.156, 62668.00
1024.264, 62679.00
1025.372, 62595.00
1026.479, 62496.71
1027.587, 62591.00
1028.694, 62462.00
1029.801, 62519.00
1030.908, 62442.80
1032.015, 62596.00
1033.121, 62371.00
1034.228, 62285.00
1035.334, 62416.00
1036.440, 62244.48
1037.546, 62386.00
1038.652, 62150.00
1039.758, 62143.00
1040.863, 62136.00
1041.968, 62057.00
1043.074, 62104.00
1044.178, 62188.00
1045.283, 61996.00
1046.388, 62060.00
1047.492, 61934.00
1048.597, 62375.00
1049.701, 62089.00
1050.805, 62566.00
1051.909, 62226.00
1053.012, 62459.00
1054.116, 62257.00
1055.219, 62046.00
1056.322, 62537.00
1057.425, 62488.00
1058.528, 62202.00
1059.631, 62602.00
1060.733, 62531.00
1061.836, 62404.00
1062.938, 62463.00
1064.040, 62522.00
1065.142, 62662.00
1066.243, 62471.00
1067.345, 62659.00
1068.446, 62779.00
1069.547, 62627.00
1070.648, 62828.00
1071.749, 62709.00
1072.850, 62639.00
1073.951, 63055.00
1075.051, 62914.00
1076.151, 62837.00
1077.251, 63039.00
1078.351, 63312.00
1079.451, 62924.00
1080.550, 63087.00
1081.650, 63355.00
1082.749, 63281.00
1083.848, 62898.00
1084.947, 62998.00
1086.046, 63058.00
1087.144, 63212.00
1088.243, 63012.00
1089.341, 62977.00
1090.439, 63042.00
1091.537, 62980.00
1092.635, 63386.00
1093.732, 63231.00
1094.830, 63439.00
1095.927, 63140.00
1097.024, 63403.00
1098.121, 63452.00
1099.218, 63175.00
1100.314, 63622.00
1101.411, 63419.00
1102.507, 63483.00
1103.603, 64130.00
1104.699, 63824.00
1105.795, 63485.00
1106.890, 63378.00
1107.986, 63546.00
1109.081, 63706.00
1110.176, 64034.00
1111.271, 63838.00
1112.366, 63929.00
1113.461, 63602.00
1114.555, 63807.00
1115.649, 63846.00
1116.744, 63706.00
1117.838, 64162.00
1118.931, 64605.00
1120.025, 63712.00
1121.119, 63967.00
1122.212, 64219.00
1123.305, 64263.00
1124.398, 64328.00
1125.491, 64295.69
1126.584, 64301.00
1127.676, 64186.00
1128.768, 64171.00
1129.861, 64332.00
1130.953, 64173.00
1132.044, 64342.00
1133.136, 64375.00
1134.228, 64405.00
1135.319, 64223.00
1136.410, 64736.00
1137.501, 64158.00
1138.592, 64755.00
1139.683, 64415.00
1140.773, 64446.00
1141.864, 64656.00
1142.954, 64541.00
1144.044, 64856.00
1145.134, 64627.00
1146.224, 64709.00
1147.313, 64690.00
1148.402, 64525.00
1149.492, 64794.00
1150.581, 64454.00
1151.670, 64566.00
1152.758, 64990.00
1153.847, 64703.00
1154.935, 64994.00
1156.024, 64879.00
1157.112, 64712.00
1158.200, 64805.00
1159.287, 65016.00
1160.375, 64930.00
1161.462, 64975.00
1162.550, 65206.00
1163.637, 65058.00
1164.724, 65219.00
1165.810, 65016.00
1166.897, 65529.00
1167.983, 65484.00
1169.070, 65017.00
1170.156, 65322.00
1171.242, 65675.00
1172.327, 65135.00
1173.413, 65849.00
1174.499, 65313.00
1175.584, 65332.00
1176.669, 65466.00
1177.754, 65529.00
1178.839, 65599.26
1179.923, 65559.00
1181.008, 65598.12
1182.092, 65571.00
1183.176, 65599.00
1184.260, 65591.00
1185.344, 65606.90
1186.428, 65619.00
1187.511, 65748.00
1188.595, 65794.00
1189.678, 65882.00
1190.761, 65874.00
1191.843, 66001.95
1192.926, 65823.00
1194.009, 66237.00
1195.091, 65989.00
1196.173, 66102.00
1197.255, 66125.00
1198.337, 65934.00
1199.419, 66104.00
1200.500, 65871.00
1201.582, 66059.00
1202.663, 66258.00
1203.744, 66296.00
1204.825, 66429.00
1205.905, 66333.00
1206.986, 66417.00
1208.066, 66308.00
1209.146, 66656.00
1210.226, 66390.00
1211.306, 66575.00
1212.386, 66854.00
1213.466, 66555.00
1214.545, 66573.00
1215.624, 66657.00
1216.703, 66616.00
1217.782, 66767.00
1218.861, 67269.00
1219.939, 67115.84
1221.018, 67394.00
1222.096, 67088.00
1223.174, 66974.00
1224.252, 66881.00
1225.330, 66809.00
1226.407, 67255.00
1227.485, 67043.00
1228.562, 67414.00
1229.639, 67382.00
1230.716, 67515.00
1231.793, 67533.00
1232.869, 67244.00
1233.946, 67194.00
1235.022, 67538.00
1236.098, 67485.00
1237.174, 67709.00
1238.250, 67689.00
1239.325, 67640.00
1240.401, 67805.00
1241.476, 67877.00
1242.551, 67778.00
1243.626, 67465.00
1244.701, 68016.00
1245.776, 67648.00
1246.850, 67751.00
1247.924, 68043.00
1248.999, 67857.00
1250.073, 67994.00
1251.146, 68167.00
1252.220, 68235.00
1253.293, 67816.00
1254.367, 68049.00
1255.440, 68224.00
1256.513, 68245.00
1257.586, 68701.00
1258.658, 68273.00
1259.731, 68137.00
1260.803, 68215.00
1261.875, 68601.00
1262.947, 68090.00
1264.019, 68732.00
1265.091, 68687.00
1266.162, 68460.00
1267.234, 68521.00
1268.305, 68594.00
1269.376, 68576.00
1270.447, 68471.00
1271.517, 68568.00
1272.588, 68485.00
1273.658, 69004.00
1274.729, 68694.00
1275.799, 68873.00
1276.868, 68945.00
