##NAMES=Kyanite
##RRUFFID=R040119
##IDEAL CHEMISTRY=Al_2_OSiO_4_
##LOCALITY=Rutherford County, North Carolina, USA
##OWNER=RRUFF
##SOURCE=University of Arizona Mineral Museum
##DESCRIPTION=Blue bladed crystal
##STATUS=The identification of this mineral has been confirmed by X-ray diffraction and chemical analysis
##URL=rruff.info/R040119
##MEASURED CHEMISTRY=(Al_0.99_Fe^3+^_0.01_)_2_OSi_1.00_O_4_
##PIN_ID=L00532
##ORIENTATION=Laser parallel to (-1 0 -1). Fiducial mark perpendicular to laser is parallel to b [0 1 0]
77.19600, 60161.00
78.43500, 60908.00
79.67300, 61324.00
80.91200, 62124.00
82.15000, 60769.00
83.38800, 60873.00
84.62600, 60507.00
85.86300, 60148.00
87.10100, 59773.00
88.33800, 59748.00
89.57500, 59901.00
90.81200, 59975.12
92.04900, 60036.72
93.28600, 60423.00
94.52300, 60041.00
95.75900, 60016.00
96.99500, 59675.00
98.23100, 59851.00
99.46700, 60476.00
100.7030, 60482.02
101.9390, 60973.00
103.1740, 61103.00
104.4090, 61855.00
105.6440, 62148.00
106.8790, 61693.00
108.1140, 61092.00
109.3490, 60333.00
110.5830, 61128.00
111.8180, 62250.00
113.0520, 62141.00
114.2860, 61762.00
115.5200, 61767.00
116.7530, 63059.00
117.9870, 62556.00
119.2200, 63203.00
120.4530, 62039.00
121.6860, 61278.00
122.9190, 61289.00
124.1520, 61370.00
125.3850, 60846.00
126.6170, 60196.00
127.8490, 60283.00
129.0810, 60504.00
130.3130, 59641.00
131.5450, 60573.00
132.7770, 60307.00
134.0080, 60471.00
135.2390, 60307.00
136.4710, 59790.00
137.7020, 60339.00
138.9320, 60583.00
140.1630, 61422.00
141.3930, 61278.00
142.6240, 61228.00
143.8540, 60748.00
145.0840, 61138.00
146.3140, 61135.00
147.5440, 60943.48
148.7730, 60658.00
150.0020, 60715.00
151.2320, 60705.00
152.4610, 60627.00
153.6900, 60965.00
154.9180, 61250.00
156.1470, 61117.00
157.3750, 60942.00
158.6040, 61374.00
159.8320, 60885.00
161.0600, 61208.00
162.2870, 61090.00
163.5150, 61056.00
164.7420, 60921.00
165.9700, 61045.00
167.1970, 61034.00
168.4240, 61689.00
169.6510, 62321.00
170.8770, 62378.00
172.1040, 62364.00
173.3300, 62461.00
174.5560, 62863.00
175.7820, 63000.00
177.0080, 63119.00
178.2340, 61946.00
179.4590, 61593.00
180.6850, 61736.00
181.9100, 61440.00
183.1350, 61219.00
184.3600, 61177.00
185.5850, 60904.00
186.8090, 61621.00
188.0340, 61317.00
189.2580, 60626.00
190.4820, 61294.00
191.7060, 61896.00
192.9300, 61746.00
194.1530, 61684.00
195.3770, 62428.00
196.6000, 62397.00
197.8230, 62258.00
199.0460, 62463.00
200.2690, 62866.00
201.4910, 63158.00
202.7140, 62880.00
203.9360, 63112.00
205.1580, 63206.00
206.3800, 63547.00
207.6020, 63724.00
208.8240, 63231.00
210.0450, 63221.00
211.2670, 62922.00
212.4880, 62686.00
213.7090, 62384.00
214.9300, 62660.00
216.1510, 62846.00
217.3710, 63722.00
218.5920, 64010.00
219.8120, 64408.00
221.0320, 65600.00
222.2520, 66133.00
223.4720, 66959.00
224.6910, 67727.00
225.9110, 67505.00
227.1300, 66542.00
228.3490, 64981.00
229.5680, 64116.00
230.7870, 64063.00
232.0050, 62787.00
233.2240, 63353.00
234.4420, 61916.00
235.6600, 62636.00
236.8780, 63845.00
238.0960, 63129.00
239.3140, 63383.00
240.5310, 63333.00
241.7490, 63512.00
242.9660, 63194.00
244.1830, 63498.00
245.4000, 63608.00
246.6160, 63494.00
247.8330, 63634.00
249.0490, 63864.00
250.2660, 63923.00
251.4820, 63435.00
252.6980, 63794.00
253.9130, 63675.00
255.1290, 64120.00
256.3440, 64206.00
257.5600, 64066.00
258.7750, 63363.00
259.9900, 63102.00
261.2040, 63175.00
262.4190, 62851.00
263.6330, 62874.00
264.8480, 63053.00
266.0620, 63215.00
267.2760, 63910.00
268.4900, 63965.00
269.7030, 64547.00
270.9170, 64846.00
272.1300, 65655.00
273.3430, 66657.00
274.5560, 68148.00
275.7690, 69391.00
276.9820, 69722.00
278.1940, 69404.00
279.4070, 68233.00
280.6190, 68181.00
281.8310, 68313.00
283.0430, 68461.00
284.2550, 68915.00
285.4660, 70880.00
286.6770, 72840.00
287.8890, 76040.00
289.1000, 79032.00
290.3110, 81657.00
291.5210, 82808.00
292.7320, 84614.00
293.9420, 88373.00
295.1530, 93870.00
296.3630, 101346.0
297.5730, 109793.0
298.7830, 121339.0
299.9920, 127479.0
301.2020, 120549.0
302.4110, 106152.0
303.6200, 93121.00
304.8290, 83535.00
306.0380, 76857.00
307.2470, 73780.00
308.4550, 71818.00
309.6630, 70721.00
310.8720, 71211.00
312.0800, 71610.00
313.2880, 71917.00
314.4950, 73386.00
315.7030, 74397.00
316.9100, 75294.00
318.1170, 77190.00
319.3240, 81145.00
320.5310, 85360.00
321.7380, 90032.00
322.9450, 95848.00
324.1510, 100024.0
325.3570, 97127.00
326.5630, 89483.00
327.7690, 82708.00
328.9750, 78009.00
330.1810, 73399.00
331.3860, 70976.00
332.5910, 69086.00
333.7960, 68147.00
335.0010, 68544.00
336.2060, 68278.00
337.4110, 68333.00
338.6150, 69265.00
339.8200, 69147.00
341.0240, 69062.00
342.2280, 68701.00
343.4320, 68628.00
344.6350, 68045.00
345.8390, 68592.00
347.0420, 68606.00
348.2450, 69068.00
349.4480, 69526.00
350.6510, 70829.00
351.8540, 72609.00
353.0560, 74305.00
354.2590, 76527.00
355.4610, 79900.00
356.6630, 83837.00
357.8650, 88559.00
359.0670, 91206.00
360.2680, 89329.00
361.4700, 85127.00
362.6710, 81823.00
363.8720, 79808.00
365.0730, 79527.00
366.2740, 80526.00
367.4740, 82708.00
368.6750, 85175.00
369.8750, 88592.00
371.0750, 90075.00
372.2750, 90253.00
373.4750, 90296.00
374.6740, 91601.00
375.8740, 92907.00
377.0730, 93719.00
378.2720, 95217.00
379.4710, 97529.00
380.6700, 102136.0
381.8690, 108148.0
383.0670, 113894.0
384.2660, 115167.0
385.4640, 111175.0
386.6620, 107865.0
387.8600, 106783.0
389.0570, 108769.0
390.2550, 112804.0
391.4520, 114034.0
392.6490, 107462.0
393.8460, 98603.00
395.0430, 92324.00
396.2400, 89694.00
397.4370, 90304.00
398.6330, 93870.00
399.8290, 99634.00
401.0250, 106411.0
402.2210, 112884.0
403.4170, 112605.0
404.6130, 105750.0
405.8080, 96447.00
407.0030, 88656.00
408.1980, 83169.00
409.3930, 80263.00
410.5880, 78015.00
411.7830, 77620.00
412.9770, 77664.00
414.1720, 78424.00
415.3660, 79655.00
416.5600, 82019.00
417.7530, 81103.41
418.9470, 81016.00
420.1410, 79800.00
421.3340, 78029.00
422.5270, 77105.00
423.7200, 76557.00
424.9130, 77040.00
426.1060, 78045.00
427.2980, 79972.00
428.4900, 82386.00
429.6830, 85067.00
430.8750, 89370.00
432.0670, 94015.00
433.2580, 100091.0
434.4500, 105066.0
435.6410, 108275.0
436.8320, 107881.0
438.0240, 104856.0
439.2140, 99144.00
440.4050, 94312.00
441.5960, 90722.00
442.7860, 88506.00
443.9760, 89331.00
445.1670, 90371.00
446.3560, 91314.00
447.5460, 91140.00
448.7360, 88211.00
449.9250, 84109.00
451.1150, 80982.00
452.3040, 78295.00
453.4930, 77190.00
454.6810, 76821.00
455.8700, 76858.00
457.0590, 76657.00
458.2470, 77445.00
459.4350, 77836.00
460.6230, 79004.00
461.8110, 79852.00
462.9980, 80876.00
464.1860, 81280.00
465.3730, 81661.00
466.5600, 81278.00
467.7470, 81075.00
468.9340, 80801.00
470.1210, 81618.00
471.3080, 82988.00
472.4940, 84775.00
473.6800, 88164.00
474.8660, 92294.00
476.0520, 98099.00
477.2380, 106087.0
478.4230, 116836.0
479.6090, 130577.0
480.7940, 147641.0
481.9790, 167603.0
483.1640, 188408.0
484.3490, 205700.0
485.5330, 208463.0
486.7180, 193653.0
487.9020, 170311.0
489.0860, 148323.0
490.2700, 131012.0
491.4540, 118697.0
492.6370, 109426.0
493.8210, 101821.0
495.0040, 95346.00
496.1870, 90392.00
497.3700, 87083.00
498.5530, 84547.00
499.7360, 83152.00
500.9180, 82081.00
502.1000, 81163.00
503.2830, 81099.00
504.4650, 81198.00
505.6460, 80860.00
506.8280, 80838.00
508.0100, 81348.00
509.1910, 82002.00
510.3720, 82298.00
511.5530, 81841.00
512.7340, 81886.00
513.9150, 81089.00
515.0950, 79675.00
516.2760, 79229.00
517.4560, 77968.00
518.6360, 77774.00
519.8160, 77342.00
520.9950, 76681.00
522.1750, 77015.00
523.3540, 76198.00
524.5340, 76270.00
525.7130, 76152.00
526.8920, 76050.00
528.0700, 76089.34
529.2490, 76106.00
530.4270, 76012.00
531.6060, 76124.00
532.7840, 75921.00
533.9620, 75830.00
535.1390, 76386.00
536.3170, 76165.00
537.4940, 76596.00
538.6720, 76783.00
539.8490, 77515.00
541.0260, 77891.00
542.2030, 78261.00
543.3790, 78303.00
544.5560, 78656.00
545.7320, 78413.00
546.9080, 78456.00
548.0840, 78462.00
549.2600, 78021.00
550.4360, 77955.00
551.6110, 78180.00
552.7860, 78189.00
553.9620, 79271.00
555.1370, 80231.00
556.3110, 80780.00
557.4860, 82692.00
558.6610, 84679.00
559.8350, 86906.00
561.0090, 88959.00
562.1830, 89881.00
563.3570, 87828.00
564.5310, 86011.00
565.7040, 83696.00
566.8780, 83307.00
568.0510, 83170.00
569.2240, 83008.00
570.3970, 83727.00
571.5700, 83724.00
572.7420, 82967.00
573.9150, 82685.00
575.0870, 81688.00
576.2590, 80784.00
577.4310, 80444.00
578.6030, 80618.00
579.7740, 80388.00
580.9460, 80285.00
582.1170, 80274.00
583.2880, 80090.00
584.4590, 79895.00
585.6300, 80248.00
586.8010, 80297.00
587.9710, 79979.00
589.1410, 79704.00
590.3110, 80000.00
591.4810, 79666.00
592.6510, 80482.00
593.8210, 80601.00
594.9900, 81142.00
596.1600, 82028.00
597.3290, 82742.00
598.4980, 83769.00
599.6670, 84890.00
600.8350, 87102.00
602.0040, 88581.00
603.1720, 90291.00
604.3400, 91218.00
605.5080, 91412.00
606.6760, 90281.00
607.8440, 88604.00
609.0120, 87183.00
610.1790, 85789.00
611.3460, 84561.00
612.5130, 84332.00
613.6800, 84461.00
614.8470, 84005.00
616.0130, 84120.00
617.1800, 84135.00
618.3460, 83884.00
619.5120, 83634.00
620.6780, 83157.00
621.8440, 83206.00
623.0090, 83147.00
624.1750, 83192.00
625.3400, 83381.00
626.5050, 84038.00
627.6700, 84921.00
628.8350, 86009.00
629.9990, 86367.00
631.1640, 86837.00
632.3280, 87602.00
633.4920, 88630.00
634.6560, 88566.00
635.8200, 89456.00
636.9840, 89131.00
638.1470, 87844.00
639.3100, 86478.00
640.4730, 85682.00
641.6360, 84633.00
642.7990, 84443.00
643.9620, 83819.00
645.1240, 84115.00
646.2870, 84390.00
647.4490, 84874.00
648.6110, 86131.00
649.7730, 86895.00
650.9340, 87995.00
652.0960, 89368.00
653.2570, 90337.00
654.4180, 90946.00
655.5790, 90969.04
656.7400, 91134.00
657.9010, 89773.00
659.0620, 88519.00
660.2220, 86846.00
661.3820, 86010.00
662.5420, 85079.00
663.7020, 84412.00
664.8620, 84326.00
666.0210, 84514.00
667.1810, 84242.00
668.3400, 83835.00
669.4990, 83844.00
670.6580, 83948.00
671.8170, 83699.00
672.9750, 83176.00
674.1340, 83372.00
675.2920, 83211.00
676.4500, 83480.00
677.6080, 83251.00
678.7660, 83905.00
679.9230, 83777.00
681.0810, 84312.00
682.2380, 84094.00
683.3950, 83989.00
684.5520, 83477.00
685.7090, 84147.00
686.8660, 83225.00
688.0220, 82634.00
689.1780, 82955.00
690.3340, 82430.00
691.4900, 82425.00
692.6460, 82220.00
693.8020, 82154.00
694.9570, 82680.00
696.1130, 82531.00
697.2680, 82639.00
698.4230, 82862.00
699.5780, 82857.00
700.7320, 83186.00
701.8870, 83331.00
703.0410, 83270.00
704.1950, 83000.00
705.3490, 82924.00
706.5030, 83218.00
707.6570, 83038.00
708.8110, 83481.00
709.9640, 83106.00
711.1170, 82978.00
712.2700, 82992.00
713.4230, 82775.00
714.5760, 82687.00
715.7280, 82900.00
716.8810, 82913.00
718.0330, 82832.00
719.1850, 82884.00
720.3370, 83293.00
721.4890, 83500.00
722.6400, 83737.00
723.7920, 83638.38
724.9430, 83398.00
726.0940, 83222.00
727.2450, 83373.00
728.3960, 83131.00
729.5460, 82933.00
730.6970, 83213.00
731.8470, 83481.00
732.9970, 83111.00
734.1470, 83020.00
735.2970, 83045.00
736.4460, 82917.91
737.5960, 83672.00
738.7450, 83160.00
739.8940, 83034.00
741.0430, 83644.00
742.1920, 83431.00
743.3410, 83554.00
744.4890, 83401.00
745.6370, 83566.00
746.7850, 83758.00
747.9330, 83401.00
749.0810, 83569.00
750.2290, 84025.00
751.3760, 83135.00
752.5240, 83729.00
753.6710, 83812.00
754.8180, 83556.00
755.9650, 83916.00
757.1110, 83665.00
758.2580, 83905.00
759.4040, 83646.00
760.5510, 83836.00
761.6970, 84152.00
762.8420, 83629.00
763.9880, 83956.00
765.1340, 83919.00
766.2790, 84056.00
767.4240, 83855.00
768.5690, 84191.00
769.7140, 84057.00
770.8590, 84362.00
772.0030, 84013.00
773.1480, 84107.00
774.2920, 84166.00
775.4360, 83902.00
776.5800, 84596.00
777.7240, 84093.00
778.8670, 84609.00
780.0110, 84194.00
781.1540, 84029.00
782.2970, 84224.00
783.4400, 84426.00
784.5830, 84493.00
785.7250, 84632.00
786.8680, 84597.00
788.0100, 84828.00
789.1520, 84907.00
790.2940, 84738.00
791.4360, 84734.00
792.5780, 84996.00
793.7190, 85004.00
794.8600, 84783.00
796.0010, 85205.00
797.1420, 85271.00
798.2830, 84989.00
799.4240, 85214.00
800.5640, 84955.00
801.7050, 85135.30
802.8450, 85573.00
803.9850, 85487.00
805.1250, 85579.00
806.2640, 85797.00
807.4040, 85673.00
808.5430, 85893.00
809.6820, 85897.00
810.8210, 85729.00
811.9600, 85820.00
813.0990, 86541.00
814.2370, 86595.00
815.3760, 86591.00
816.5140, 85986.00
817.6520, 86450.00
818.7900, 86285.00
819.9270, 86647.00
821.0650, 86477.00
822.2020, 86963.00
823.3390, 86734.00
824.4760, 86439.00
825.6130, 87211.00
826.7500, 87248.00
827.8870, 86797.00
829.0230, 87061.00
830.1590, 87043.00
831.2950, 86777.00
832.4310, 87574.00
833.5670, 87345.00
834.7030, 87948.00
835.8380, 87769.90
836.9730, 88389.00
838.1080, 87531.00
839.2430, 87739.00
840.3780, 88024.00
841.5130, 88343.00
842.6470, 88310.00
843.7810, 88273.00
844.9150, 88551.00
846.0490, 88835.00
847.1830, 88537.00
848.3170, 88919.00
849.4500, 88897.00
850.5830, 89113.00
851.7160, 89042.00
852.8490, 89327.00
853.9820, 89833.00
855.1150, 89527.00
856.2470, 89853.00
857.3800, 90028.00
858.5120, 90544.00
859.6440, 90451.00
860.7760, 90384.00
861.9070, 90876.00
863.0390, 91261.00
864.1700, 91186.00
865.3010, 92031.00
866.4320, 91858.00
867.5630, 92273.00
868.6940, 93040.00
869.8240, 92945.00
870.9540, 93784.00
872.0850, 94420.00
873.2150, 94533.00
874.3450, 96297.00
875.4740, 96762.00
876.6040, 97938.00
877.7330, 99083.00
878.8620, 100041.0
879.9910, 102188.0
881.1200, 104278.0
882.2490, 106593.0
883.3770, 109580.0
884.5060, 112126.0
885.6340, 115540.0
886.7620, 118970.0
887.8900, 121045.0
889.0180, 122578.0
890.1450, 122906.0
891.2730, 121551.0
892.4000, 119778.0
893.5270, 117325.0
894.6540, 115933.0
895.7810, 114633.0
896.9070, 114410.0
898.0340, 114453.0
899.1600, 114519.0
900.2860, 114158.0
901.4120, 113273.0
902.5380, 111984.0
903.6630, 109808.0
904.7890, 107731.0
905.9140, 106385.0
907.0390, 105165.0
908.1640, 103392.0
909.2890, 102708.0
910.4130, 102108.0
911.5380, 101533.0
912.6620, 101092.0
913.7860, 101269.0
914.9100, 101598.0
916.0340, 101619.0
917.1580, 101829.0
918.2810, 101558.0
919.4040, 102368.0
920.5280, 102657.0
921.6510, 102905.0
922.7730, 103777.0
923.8960, 104984.0
925.0180, 106061.0
926.1410, 106386.0
927.2630, 107198.0
928.3850, 108436.0
929.5070, 109571.0
930.6280, 111539.0
931.7500, 113132.0
932.8710, 115645.0
933.9920, 117721.0
935.1130, 119401.0
936.2340, 121314.0
937.3550, 122932.0
938.4760, 124735.0
939.5960, 126808.0
940.7160, 128367.0
941.8360, 130303.0
942.9560, 132873.0
944.0760, 134821.0
945.1950, 137159.0
946.3150, 138994.0
947.4340, 140667.0
948.5530, 142092.5
949.6720, 143303.0
950.7900, 143949.0
951.9090, 144156.0
953.0270, 144072.0
954.1460, 145731.0
955.2640, 146345.0
956.3820, 148094.0
957.4990, 149748.0
958.6170, 150693.0
959.7340, 151490.0
960.8520, 150765.0
961.9690, 149452.0
963.0860, 146278.0
964.2020, 141757.0
965.3190, 137576.0
966.4350, 132508.0
967.5520, 128243.0
968.6680, 123879.0
969.7840, 120371.0
970.8990, 117471.0
972.0150, 115007.0
973.1310, 112901.0
974.2460, 111071.7
975.3610, 109443.0
976.4760, 108377.0
977.5910, 106878.0
978.7050, 106058.0
979.8200, 105473.0
980.9340, 104525.0
982.0480, 104055.0
983.1620, 103708.0
984.2760, 103438.0
985.3900, 103095.0
986.5030, 103159.0
987.6160, 102991.0
988.7300, 102959.0
989.8430, 103188.0
990.9550, 103871.0
992.0680, 104164.0
993.1810, 105201.0
994.2930, 106367.0
995.4050, 107950.0
996.5170, 109621.0
997.6290, 111013.0
998.7410, 112695.0
999.8520, 112823.0
1000.964, 113432.0
1002.075, 111654.0
1003.186, 110689.0
1004.297, 109154.0
1005.407, 107232.0
1006.518, 105864.0
1007.628, 104624.0
1008.738, 103280.0
1009.848, 102947.0
1010.958, 102536.0
1012.068, 102049.0
1013.178, 101380.0
1014.287, 101447.0
1015.396, 101075.0
1016.505, 100647.0
1017.614, 100635.0
1018.723, 100511.0
1019.831, 100554.0
1020.940, 100537.0
1022.048, 100239.0
1023.156, 100470.0
1024.264, 99832.00
1025.372, 100148.0
1026.479, 100241.0
1027.587, 99917.00
1028.694, 99641.00
1029.801, 99448.00
1030.908, 99965.00
1032.015, 99954.00
1033.121, 100057.0
1034.228, 99956.00
1035.334, 99848.00
1036.440, 99683.00
1037.546, 99939.00
1038.652, 99708.00
1039.758, 100263.0
1040.863, 100264.0
1041.968, 100074.0
1043.074, 100008.0
1044.178, 100317.0
1045.283, 99776.00
1046.388, 100097.0
1047.492, 100584.0
1048.597, 100477.9
1049.701, 100544.0
1050.805, 100727.0
1051.909, 100457.0
1053.012, 100268.0
1054.116, 100464.0
1055.219, 100258.0
1056.322, 100910.0
1057.425, 100505.0
1058.528, 100678.0
1059.631, 100911.0
1060.733, 100899.0
1061.836, 100509.0
1062.938, 101257.0
1064.040, 100851.0
1065.142, 101082.0
1066.243, 101215.0
1067.345, 101007.0
1068.446, 101283.0
1069.547, 101115.0
1070.648, 100965.0
1071.749, 101422.0
1072.850, 101145.0
1073.951, 101321.0
1075.051, 101174.0
1076.151, 101332.0
1077.251, 101561.0
1078.351, 101344.0
1079.451, 101977.0
1080.550, 101881.0
1081.650, 101621.0
1082.749, 101883.0
1083.848, 102385.0
1084.947, 101802.4
1086.046, 102208.0
1087.144, 101732.0
1088.243, 102212.0
1089.341, 102300.1
1090.439, 102145.0
1091.537, 102627.0
1092.635, 102475.0
1093.732, 102367.0
1094.830, 102795.0
1095.927, 102577.0
1097.024, 102630.0
1098.121, 102729.0
1099.218, 102734.0
1100.314, 103005.0
1101.411, 103135.0
1102.507, 103178.0
1103.603, 103122.0
1104.699, 102931.0
1105.795, 103177.0
1106.890, 103381.0
1107.986, 103644.0
1109.081, 103259.0
1110.176, 103919.0
1111.271, 103670.0
1112.366, 104007.0
1113.461, 103380.0
1114.555, 104339.0
1115.649, 104121.0
1116.744, 104116.0
1117.838, 104155.0
1118.931, 104147.0
1120.025, 104389.0
1121.119, 103915.0
1122.212, 104108.0
1123.305, 104181.0
1124.398, 103856.0
1125.491, 104399.0
1126.584, 104263.0
1127.676, 104403.0
1128.768, 104460.0
1129.861, 104460.0
1130.953, 104465.0
1132.044, 104814.0
1133.136, 104872.0
1134.228, 104657.0
1135.319, 105054.0
1136.410, 104909.0
1137.501, 104656.0
1138.592, 104989.0
1139.683, 105279.0
1140.773, 105339.0
1141.864, 105226.0
1142.954, 104912.0
1144.044, 105076.2
1145.134, 105566.0
1146.224, 105337.0
1147.313, 105478.0
1148.402, 105885.0
1149.492, 105440.0
1150.581, 105766.0
1151.670, 106126.0
1152.758, 106047.0
1153.847, 106242.0
1154.935, 106195.0
1156.024, 106325.0
1157.112, 105892.0
1158.200, 106360.0
1159.287, 106550.0
1160.375, 106003.0
1161.462, 106507.0
1162.550, 106828.0
1163.637, 106348.0
1164.724, 106759.0
1165.810, 106899.0
1166.897, 106520.0
1167.983, 107013.0
1169.070, 106774.0
1170.156, 107547.0
1171.242, 106573.0
1172.327, 107220.0
1173.413, 107602.0
1174.499, 107113.0
1175.584, 106881.0
1176.669, 107127.0
1177.754, 107838.0
1178.839, 107143.0
1179.923, 107684.0
1181.008, 107565.0
1182.092, 107952.0
1183.176, 107748.0
1184.260, 107647.0
1185.344, 107706.0
1186.428, 107918.0
1187.511, 107764.0
1188.595, 108061.0
1189.678, 108322.0
1190.761, 108080.0
1191.843, 108504.8
1192.926, 108778.6
1194.009, 108909.4
1195.091, 108468.9
1196.173, 108766.0
1197.255, 108767.6
1198.337, 108757.0
1199.419, 109157.9
1200.500, 108800.5
1201.582, 109194.9
1202.663, 109289.1
1203.744, 109520.7
1204.825, 109065.0
1205.905, 109404.0
1206.986, 109634.0
1208.066, 108935.0
1209.146, 109502.0
1210.226, 109465.0
1211.306, 109248.0
1212.386, 109936.0
1213.466, 109572.0
1214.545, 109813.0
1215.624, 110321.0
1216.703, 109952.0
1217.782, 110044.0
1218.861, 110293.0
1219.939, 110179.0
1221.018, 110543.0
1222.096, 110566.0
1223.174, 110528.0
1224.252, 110866.0
1225.330, 110960.0
1226.407, 110483.0
1227.485, 110835.0
1228.562, 110663.0
1229.639, 110692.0
1230.716, 111096.0
1231.793, 110944.0
1232.869, 111229.0
1233.946, 111549.0
1235.022, 111039.0
1236.098, 111368.0
1237.174, 110916.0
1238.250, 111468.0
1239.325, 111324.0
1240.401, 112165.0
1241.476, 111837.0
1242.551, 111747.0
1243.626, 111804.0
1244.701, 111401.0
1245.776, 111677.0
1246.850, 111765.0
1247.924, 112387.0
1248.999, 112141.0
1250.073, 111766.0
1251.146, 112282.0
1252.220, 112238.0
1253.293, 112506.0
1254.367, 112403.0
1255.440, 112209.0
1256.513, 112925.0
1257.586, 112329.0
1258.658, 112587.0
1259.731, 112477.0
1260.803, 112802.0
