##NAMES=Kyanite
##RRUFFID=R050450
##IDEAL CHEMISTRY=Al_2_OSiO_4_
##LOCALITY=Switzerland
##OWNER=RRUFF
##SOURCE=Marcus Origlieri
##DESCRIPTION=Blue bladed crystals
##STATUS=The identification of this mineral has been confirmed by X-ray diffraction and chemical analysis
##URL=rruff.info/R050450
##MEASURED CHEMISTRY=Al_2.00_OSi_1.00_O_4_
##PIN_ID=M01448
##ORIENTATION=Laser parallel to -c* (0 0 -1). Fiducial mark perpendicular to laser is parallel to -a [-1 0 0]
148.7160, 12647.00
149.9470, 12694.00
151.1780, 12724.00
152.4080, 12776.00
153.6380, 12965.00
154.8690, 12879.00
156.0980, 12906.00
157.3280, 12791.00
158.5580, 12897.00
159.7870, 12765.00
161.0170, 12882.00
162.2460, 12871.00
163.4750, 13025.00
164.7030, 13074.00
165.9320, 13248.00
167.1600, 13264.00
168.3890, 13338.63
169.6170, 13383.13
170.8450, 13397.00
172.0730, 13403.00
173.3000, 13360.00
174.5280, 13334.00
175.7550, 13394.00
176.9820, 13598.00
178.2090, 13678.00
179.4350, 13688.00
180.6620, 13535.00
181.8880, 13636.00
183.1150, 13606.00
184.3410, 13615.00
185.5670, 13655.00
186.7920, 13710.00
188.0180, 13786.00
189.2430, 13831.00
190.4690, 13698.00
191.6940, 13841.00
192.9180, 13707.00
194.1430, 13851.00
195.3680, 13903.00
196.5920, 14095.00
197.8160, 14118.00
199.0400, 14294.00
200.2640, 14233.00
201.4880, 14430.00
202.7110, 14373.00
203.9350, 14166.00
205.1580, 14300.00
206.3810, 14294.00
207.6040, 14088.00
208.8270, 14208.17
210.0490, 14163.56
211.2710, 14191.00
212.4940, 14261.00
213.7160, 14154.00
214.9370, 14272.00
216.1590, 14302.00
217.3810, 14177.00
218.6020, 14175.00
219.8230, 14400.00
221.0440, 14561.00
222.2650, 14523.00
223.4860, 14755.37
224.7060, 14706.00
225.9260, 15046.00
227.1470, 15269.00
228.3670, 15416.00
229.5860, 15301.00
230.8060, 14943.00
232.0260, 14709.00
233.2450, 14636.00
234.4640, 14526.00
235.6830, 14556.00
236.9020, 14655.00
238.1200, 14671.00
239.3390, 14726.00
240.5570, 14788.00
241.7750, 14715.00
242.9930, 14804.00
244.2110, 14856.00
245.4290, 14648.00
246.6460, 14833.00
247.8630, 14826.00
249.0810, 14806.00
250.2980, 14950.00
251.5140, 14873.00
252.7310, 14887.00
253.9470, 15132.00
255.1640, 14990.00
256.3800, 14949.00
257.5960, 15041.00
258.8120, 15125.00
260.0270, 15182.45
261.2430, 15229.73
262.4580, 15365.00
263.6730, 15227.00
264.8880, 15285.00
266.1030, 15151.00
267.3170, 15281.00
268.5320, 15368.00
269.7460, 15452.00
270.9600, 15558.00
272.1740, 15426.00
273.3880, 15372.00
274.6010, 15521.00
275.8150, 15603.00
277.0280, 15901.00
278.2410, 16028.00
279.4540, 16175.00
280.6670, 16071.00
281.8790, 15898.00
283.0920, 15872.00
284.3040, 15740.00
285.5160, 15767.00
286.7280, 15909.00
287.9400, 16106.00
289.1510, 16321.00
290.3630, 16704.00
291.5740, 17503.00
292.7850, 17497.19
293.9960, 18418.00
295.2070, 17913.00
296.4170, 17798.00
297.6280, 18210.00
298.8380, 18818.00
300.0480, 20079.00
301.2580, 22674.00
302.4680, 25227.00
303.6770, 25158.00
304.8870, 22740.00
306.0960, 20278.00
307.3050, 18659.00
308.5140, 17374.00
309.7230, 16812.00
310.9310, 16304.00
312.1400, 16738.00
313.3480, 16585.00
314.5560, 16564.00
315.7640, 16885.00
316.9720, 17231.00
318.1790, 17245.00
319.3870, 17225.00
320.5940, 17189.00
321.8010, 17295.00
323.0080, 17587.00
324.2150, 18416.00
325.4210, 19708.00
326.6280, 20858.00
327.8340, 20897.00
329.0400, 19900.00
330.2460, 18685.00
331.4510, 17883.00
332.6570, 17062.00
333.8620, 17085.00
335.0680, 16851.00
336.2730, 16857.00
337.4780, 16611.00
338.6820, 16658.00
339.8870, 16751.00
341.0910, 17019.00
342.2950, 16990.00
343.5000, 17154.00
344.7030, 16893.00
345.9070, 16797.00
347.1110, 17049.00
348.3140, 16941.00
349.5170, 17041.00
350.7200, 17008.00
351.9230, 17234.00
353.1260, 17419.00
354.3290, 17305.00
355.5310, 17476.00
356.7330, 17694.00
357.9350, 18037.00
359.1370, 18755.00
360.3390, 19575.00
361.5400, 20559.00
362.7420, 20468.00
363.9430, 19557.00
365.1440, 18836.00
366.3450, 18396.00
367.5460, 18130.00
368.7460, 18114.00
369.9470, 18328.00
371.1470, 18932.00
372.3470, 19488.00
373.5470, 20121.00
374.7460, 20239.00
375.9460, 19996.00
377.1450, 19927.00
378.3450, 20089.00
379.5440, 20153.00
380.7430, 20028.00
381.9410, 19720.00
383.1400, 20227.00
384.3380, 20767.00
385.5370, 21705.00
386.7350, 22067.00
387.9320, 21878.00
389.1300, 21244.00
390.3280, 21060.00
391.5250, 21471.00
392.7220, 22907.00
393.9190, 23847.00
395.1160, 22779.00
396.3130, 21615.00
397.5100, 20494.00
398.7060, 19793.00
399.9020, 19435.00
401.0980, 19962.00
402.2940, 20674.00
403.4900, 21653.00
404.6860, 23193.00
405.8810, 23823.00
407.0760, 22926.00
408.2710, 21550.00
409.4660, 20567.00
410.6610, 19540.00
411.8550, 19104.00
413.0500, 19122.00
414.2440, 18876.00
415.4380, 19142.00
416.6320, 18943.00
417.8260, 19341.00
419.0190, 19849.00
420.2130, 20377.00
421.4060, 20288.00
422.5990, 20172.00
423.7920, 19649.00
424.9850, 19264.00
426.1770, 18999.00
427.3700, 18963.00
428.5620, 19162.00
429.7540, 19088.00
430.9460, 19433.00
432.1380, 19623.00
433.3290, 20075.00
434.5210, 20486.00
435.7120, 21266.00
436.9030, 22276.00
438.0940, 22653.00
439.2850, 23150.00
440.4750, 23161.00
441.6660, 22237.00
442.8560, 21347.00
444.0460, 20679.00
445.2360, 20166.00
446.4260, 20077.00
447.6160, 20386.00
448.8050, 20768.00
449.9940, 20840.00
451.1830, 20584.00
452.3720, 20208.00
453.5610, 19751.00
454.7500, 19236.00
455.9380, 19305.00
457.1260, 19168.00
458.3150, 19487.00
459.5020, 19273.07
460.6900, 19305.00
461.8780, 19197.00
463.0650, 19212.00
464.2530, 19552.00
465.4400, 19664.00
466.6270, 19857.00
467.8130, 19753.00
469.0000, 19951.00
470.1870, 20090.00
471.3730, 20042.00
472.5590, 19733.00
473.7450, 19847.00
474.9310, 20229.00
476.1160, 20229.00
477.3020, 20989.00
478.4870, 21517.00
479.6720, 22236.00
480.8570, 23042.00
482.0420, 24099.00
483.2270, 25292.00
484.4110, 27934.00
485.5960, 31105.00
486.7800, 35185.00
487.9640, 37335.00
489.1480, 35767.00
490.3310, 32661.00
491.5150, 29186.00
492.6980, 26938.00
493.8810, 25572.00
495.0640, 24338.00
496.2470, 23446.00
497.4300, 22580.40
498.6120, 22165.00
499.7950, 21482.00
500.9770, 21193.00
502.1590, 21099.00
503.3410, 20878.00
504.5220, 20795.00
505.7040, 20812.00
506.8850, 20908.00
508.0660, 20876.00
509.2470, 21150.00
510.4280, 21249.00
511.6090, 21248.00
512.7890, 21443.00
513.9700, 21414.00
515.1500, 21452.00
516.3300, 21552.00
517.5100, 20949.00
518.6900, 20942.00
519.8690, 20521.00
521.0490, 20736.00
522.2280, 20780.00
523.4070, 20560.00
524.5860, 20537.00
525.7640, 20651.00
526.9430, 20547.00
528.1210, 20645.00
529.3000, 20307.00
530.4780, 20489.00
531.6560, 20519.00
532.8330, 20726.00
534.0110, 20689.00
535.1880, 20598.00
536.3650, 20686.00
537.5430, 20524.00
538.7190, 20847.00
539.8960, 20837.00
541.0730, 20873.00
542.2490, 20844.00
543.4250, 21099.00
544.6020, 21105.00
545.7780, 21111.00
546.9530, 21325.00
548.1290, 21646.00
549.3040, 21354.00
550.4800, 21191.00
551.6550, 20991.00
552.8300, 21182.00
554.0040, 21286.00
555.1790, 21328.00
556.3540, 21572.00
557.5280, 21468.00
558.7020, 21688.00
559.8760, 22035.00
561.0500, 22397.00
562.2230, 22817.00
563.3970, 23483.00
564.5700, 23718.00
565.7430, 23651.00
566.9160, 23124.00
568.0890, 22766.00
569.2620, 22771.00
570.4340, 22696.00
571.6070, 23209.00
572.7790, 23412.00
573.9510, 23506.00
575.1230, 23385.00
576.2940, 22979.00
577.4660, 22749.00
578.6370, 22146.00
579.8080, 22204.00
580.9790, 22050.00
582.1500, 21964.00
583.3210, 22018.00
584.4910, 21964.00
585.6620, 22198.00
586.8320, 21977.00
588.0020, 22031.00
589.1720, 22157.00
590.3410, 21875.00
591.5110, 21893.00
592.6800, 21964.00
593.8500, 21898.00
595.0190, 21841.00
596.1880, 22079.00
597.3560, 22002.00
598.5250, 22090.00
599.6930, 22310.00
600.8620, 22376.00
602.0300, 22565.00
603.1970, 22717.00
604.3650, 22791.00
605.5330, 23151.00
606.7000, 23347.00
607.8680, 23398.00
609.0350, 23322.00
610.2020, 23171.00
611.3680, 22874.00
612.5350, 22817.00
613.7010, 22667.00
614.8680, 22749.00
616.0340, 22783.00
617.2000, 22772.00
618.3660, 22837.00
619.5310, 22766.00
620.6970, 22791.38
621.8620, 22779.00
623.0270, 22792.00
624.1920, 22782.00
625.3570, 22803.00
626.5220, 22812.00
627.6860, 22875.00
628.8500, 22918.00
630.0140, 23003.00
631.1780, 23213.00
632.3420, 23339.00
633.5060, 23348.00
634.6700, 23346.00
635.8330, 23471.00
636.9960, 23612.00
638.1590, 23586.00
639.3220, 23802.00
640.4850, 23621.00
641.6470, 23665.00
642.8100, 23437.00
643.9720, 23382.00
645.1340, 23316.00
646.2960, 23274.00
647.4570, 23103.00
648.6190, 23367.00
649.7800, 23418.00
650.9420, 23253.00
652.1030, 23419.00
653.2640, 23542.00
654.4240, 23724.00
655.5850, 23883.00
656.7450, 24048.00
657.9060, 23916.00
659.0660, 24041.00
660.2260, 23884.00
661.3850, 23803.00
662.5450, 23814.00
663.7040, 23790.76
664.8640, 23790.00
666.0230, 23910.00
667.1820, 23896.00
668.3410, 24020.00
669.4990, 24122.00
670.6580, 24371.00
671.8160, 24232.00
672.9740, 24345.00
674.1320, 24047.00
675.2900, 24233.00
676.4480, 24302.00
677.6050, 23919.00
678.7630, 23831.00
679.9200, 23910.00
681.0770, 23788.00
682.2340, 23991.00
683.3900, 23756.00
684.5470, 24039.00
685.7030, 23977.00
686.8590, 24058.00
688.0150, 24121.00
689.1710, 24093.00
690.3270, 24025.00
691.4830, 24031.00
692.6380, 24018.00
693.7930, 24094.00
694.9480, 24105.39
696.1030, 24144.53
697.2580, 24188.00
698.4130, 24224.00
699.5670, 24265.76
700.7210, 24303.47
701.8750, 24408.00
703.0290, 24435.00
704.1830, 24501.00
705.3370, 24513.00
706.4900, 24421.00
707.6430, 24491.00
708.7970, 24342.00
709.9490, 24593.00
711.1020, 24265.00
712.2550, 24503.00
713.4070, 24613.00
714.5600, 24512.00
715.7120, 24584.00
716.8640, 24565.00
718.0160, 24641.00
719.1670, 24740.00
720.3190, 24973.00
721.4700, 25100.00
722.6210, 25127.72
723.7720, 24993.00
724.9230, 25083.00
726.0740, 25042.00
727.2250, 24889.00
728.3750, 24863.00
729.5250, 24949.00
730.6750, 24895.00
731.8250, 24972.00
732.9750, 24893.00
734.1240, 24984.00
735.2740, 25028.00
736.4230, 25088.00
737.5720, 25141.00
738.7210, 25033.00
739.8700, 24960.00
741.0190, 25002.75
742.1670, 24939.63
743.3150, 25077.00
744.4630, 25008.00
745.6110, 25106.00
746.7590, 25327.00
747.9070, 25148.00
749.0540, 25280.00
750.2020, 25502.00
751.3490, 25483.00
752.4960, 25256.00
753.6430, 25653.00
754.7890, 25362.00
755.9360, 25409.00
757.0820, 25348.00
758.2280, 25663.00
759.3740, 25517.00
760.5200, 25539.00
761.6660, 25743.00
762.8120, 25614.00
763.9570, 25731.00
765.1020, 25643.00
766.2470, 25679.00
767.3920, 25805.00
768.5370, 25864.00
769.6810, 25929.12
770.8260, 25965.55
771.9700, 25974.00
773.1140, 25986.00
774.2580, 25832.00
775.4020, 25814.00
776.5460, 26143.00
777.6890, 25940.00
778.8320, 26091.00
779.9750, 26088.00
781.1180, 26111.00
782.2610, 26166.83
783.4040, 26215.00
784.5460, 26198.00
785.6890, 26173.00
786.8310, 26159.00
787.9730, 26160.38
789.1150, 26179.66
790.2560, 26206.00
791.3980, 26257.00
792.5390, 26355.00
793.6810, 26424.00
794.8220, 26493.00
795.9630, 26361.00
797.1030, 26330.00
798.2440, 26458.00
799.3840, 26558.00
800.5240, 26703.00
801.6650, 26513.00
802.8040, 26717.00
803.9440, 26705.00
805.0840, 26591.00
806.2230, 26661.00
807.3630, 26672.00
808.5020, 26851.00
809.6410, 26831.00
810.7790, 26893.00
811.9180, 26915.00
813.0570, 26866.00
814.1950, 26915.00
815.3330, 27059.00
816.4710, 27122.00
817.6090, 27122.00
818.7470, 27023.00
819.8840, 27081.00
821.0220, 27128.00
822.1590, 27135.00
823.2960, 27215.00
824.4330, 27195.00
825.5690, 27366.00
826.7060, 27442.00
827.8420, 27451.00
828.9790, 27364.00
830.1150, 27508.00
831.2510, 27418.00
832.3860, 27440.00
833.5220, 27568.00
834.6570, 27479.00
835.7930, 27798.00
836.9280, 27508.00
838.0630, 27594.00
839.1980, 27854.00
840.3320, 27876.00
841.4670, 27659.00
842.6010, 27757.00
843.7350, 27784.00
844.8690, 27922.00
846.0030, 28095.00
847.1370, 28022.00
848.2700, 27841.00
849.4040, 28057.00
850.5370, 28044.00
851.6700, 28069.91
852.8030, 28218.00
853.9360, 28208.00
855.0680, 28317.00
856.2000, 28475.00
857.3330, 28601.00
858.4650, 28548.00
859.5970, 28484.00
860.7290, 28583.00
861.8600, 28676.00
862.9920, 28654.00
864.1230, 28838.00
865.2540, 29090.00
866.3850, 28829.00
867.5160, 29218.00
868.6460, 29030.00
869.7770, 29197.00
870.9070, 29391.00
872.0370, 29660.00
873.1670, 29626.00
874.2970, 29801.00
875.4270, 29865.00
876.5570, 29950.00
877.6860, 29870.00
878.8150, 30257.00
879.9440, 30407.00
881.0730, 30639.00
882.2020, 31201.00
883.3300, 31547.00
884.4590, 31964.00
885.5870, 32619.00
886.7150, 33173.00
887.8430, 33834.00
888.9710, 34544.00
890.0990, 35263.00
891.2260, 35516.00
892.3530, 35485.00
893.4810, 35495.00
894.6080, 35131.00
895.7340, 35257.00
896.8610, 34857.00
897.9880, 35083.00
899.1140, 35236.00
900.2400, 35515.00
901.3660, 35649.00
902.4920, 35996.00
903.6180, 35939.00
904.7430, 35213.00
905.8690, 34422.00
906.9940, 33961.00
908.1190, 33033.00
909.2440, 32899.00
910.3690, 32129.00
911.4930, 31872.00
912.6180, 31682.00
913.7420, 31480.00
914.8660, 31219.00
915.9900, 31277.00
917.1140, 30927.00
918.2380, 30991.00
919.3610, 30746.00
920.4850, 31202.00
921.6080, 30913.00
922.7310, 31021.00
923.8540, 31231.00
924.9760, 31140.00
926.0990, 31027.00
927.2210, 31413.00
928.3440, 31301.00
929.4660, 31522.00
930.5880, 31644.00
931.7090, 31629.00
932.8310, 31885.00
933.9520, 32101.00
935.0740, 32249.00
936.1950, 32683.00
937.3160, 32947.00
938.4360, 33110.00
939.5570, 33263.00
940.6780, 33591.00
941.7980, 33794.30
942.9180, 34067.00
944.0380, 34406.00
945.1580, 34705.00
946.2780, 35162.00
947.3970, 35757.00
948.5170, 36024.00
949.6360, 36446.00
950.7550, 36698.00
951.8740, 36903.00
952.9930, 36879.00
954.1110, 36827.00
955.2300, 36716.00
956.3480, 36614.00
957.4660, 36439.00
958.5840, 36358.00
959.7020, 36278.00
960.8190, 36234.00
961.9370, 36346.00
963.0540, 36305.00
964.1710, 36235.00
965.2880, 36040.00
966.4050, 35503.00
967.5220, 35086.00
968.6380, 34615.00
969.7550, 34182.00
970.8710, 33939.00
971.9870, 33409.00
973.1030, 33264.00
974.2190, 33195.00
975.3340, 32836.00
976.4500, 32707.00
977.5650, 32617.00
978.6800, 32585.00
979.7950, 32441.00
980.9100, 32390.92
982.0250, 32255.00
983.1390, 32272.00
984.2530, 32276.32
985.3680, 32287.79
986.4820, 32365.00
987.5950, 32422.00
988.7090, 32620.00
989.8230, 32394.00
990.9360, 32452.00
992.0490, 32431.00
993.1620, 32609.00
994.2750, 32628.00
995.3880, 32672.00
996.5010, 32970.00
997.6130, 33191.00
998.7250, 33343.00
999.8370, 33479.00
1000.949, 33521.00
1002.061, 33821.00
1003.173, 33638.00
1004.284, 33597.00
1005.396, 33488.00
1006.507, 33169.00
1007.618, 33301.00
1008.729, 33003.00
1009.839, 32972.00
1010.950, 33014.00
1012.060, 33009.00
1013.171, 32923.00
1014.281, 32885.00
1015.391, 32825.00
1016.500, 32967.00
1017.610, 33034.00
1018.719, 33011.00
1019.829, 33069.61
1020.938, 32994.00
1022.047, 33078.00
1023.156, 33051.43
1024.264, 33047.98
1025.373, 33059.00
1026.481, 33044.00
1027.589, 33089.00
1028.697, 33092.00
1029.805, 32980.00
1030.913, 33218.00
1032.020, 33223.00
1033.128, 33135.00
1034.235, 33383.00
1035.342, 33364.00
1036.449, 33397.00
1037.556, 33152.00
1038.663, 33476.00
1039.769, 33439.00
1040.875, 33508.00
1041.981, 33582.00
1043.087, 33484.00
1044.193, 33509.00
1045.299, 33473.00
1046.404, 33473.78
1047.510, 33788.00
1048.615, 33568.00
1049.720, 33647.00
1050.825, 33832.00
1051.930, 33772.00
1053.034, 33856.00
1054.139, 33853.00
1055.243, 33868.18
1056.347, 33843.00
1057.451, 33925.00
1058.555, 33917.00
1059.658, 33969.05
1060.762, 34024.00
1061.865, 34167.00
1062.968, 34083.00
1064.071, 34152.00
1065.174, 34273.00
1066.277, 34284.00
1067.380, 34267.00
1068.482, 34307.00
1069.584, 34299.00
1070.686, 34268.20
1071.788, 34479.00
1072.890, 34298.00
1073.992, 34311.00
1075.093, 34559.00
1076.194, 34731.00
1077.295, 34595.00
1078.396, 34792.00
1079.497, 34662.00
1080.598, 34571.00
1081.698, 34778.00
1082.799, 34682.00
1083.899, 34882.00
1084.999, 34693.00
1086.099, 34989.00
1087.199, 35018.00
1088.298, 34794.00
1089.398, 34806.00
1090.497, 34935.00
1091.596, 34975.00
1092.695, 34866.00
1093.794, 34961.62
1094.892, 34927.00
1095.991, 35114.00
1097.089, 35097.00
1098.187, 35420.00
1099.285, 35195.00
1100.383, 35327.00
1101.481, 35308.00
1102.579, 35136.00
1103.676, 35367.00
1104.773, 35426.00
1105.870, 35611.00
1106.967, 35410.00
1108.064, 35446.00
1109.161, 35543.00
1110.257, 35831.00
1111.353, 35746.48
1112.449, 35508.00
1113.545, 35798.00
1114.641, 35715.00
1115.737, 35916.00
1116.832, 35794.00
1117.928, 35897.10
1119.023, 35799.00
1120.118, 36006.00
1121.213, 36077.00
1122.308, 36083.00
1123.402, 36256.00
1124.497, 36205.00
1125.591, 36083.00
1126.685, 36127.00
1127.779, 36099.00
1128.873, 36120.00
1129.967, 36093.00
1131.060, 36214.00
1132.153, 36367.00
1133.247, 36572.00
1134.340, 36167.00
1135.433, 36282.00
1136.525, 36501.00
1137.618, 36204.00
1138.710, 36537.00
1139.802, 36575.00
1140.895, 36443.00
1141.987, 36721.00
1143.078, 36332.00
1144.170, 36716.00
1145.261, 36454.00
1146.353, 36595.00
1147.444, 36631.00
1148.535, 36596.00
1149.626, 36945.00
1150.716, 36619.00
1151.807, 37007.00
1152.897, 37059.00
1153.988, 37041.00
1155.078, 36744.00
1156.168, 36860.00
1157.257, 37065.00
1158.347, 37012.00
1159.436, 37156.00
1160.526, 37320.00
1161.615, 37250.00
1162.704, 37400.00
1163.793, 37208.00
1164.881, 37258.00
1165.970, 37256.00
1167.058, 37362.00
1168.147, 37420.00
1169.235, 37227.00
1170.323, 37313.00
1171.410, 37387.00
1172.498, 37477.00
1173.585, 37692.00
1174.673, 37392.00
1175.760, 37608.00
1176.847, 37798.00
1177.934, 37678.00
1179.020, 37874.00
1180.107, 37895.00
1181.193, 37735.00
1182.279, 37957.00
1183.365, 37850.00
1184.451, 37852.00
1185.537, 37926.00
1186.623, 37962.00
1187.708, 38092.00
1188.793, 37949.00
1189.878, 38135.00
1190.963, 37927.00
1192.048, 38234.00
1193.133, 37889.00
1194.217, 38400.00
1195.302, 38339.00
1196.386, 38212.00
1197.470, 38177.00
1198.554, 38292.00
1199.638, 38830.00
1200.721, 38728.00
1201.805, 38564.00
1202.888, 38212.00
1203.971, 38576.00
1205.054, 38783.00
1206.137, 38590.00
1207.219, 38704.00
1208.302, 38567.00
1209.384, 38664.00
1210.466, 38801.00
1211.548, 38819.00
1212.630, 38847.37
1213.712, 38849.00
1214.794, 38891.00
1215.875, 38969.00
1216.956, 39161.00
1218.037, 39201.00
1219.118, 39211.00
1220.199, 39293.00
1221.280, 39215.00
1222.360, 39231.00
1223.441, 39312.00
1224.521, 39156.00
1225.601, 39138.00
1226.681, 39263.00
1227.760, 39403.00
1228.840, 39486.00
1229.919, 39267.00
1230.999, 39505.00
1232.078, 39694.00
1233.157, 39427.00
1234.236, 39530.00
1235.314, 39807.00
1236.393, 39825.00
1237.471, 39987.00
1238.549, 39720.00
1239.627, 39910.00
1240.705, 40018.00
1241.783, 39713.00
1242.860, 39817.00
1243.938, 39608.00
1245.015, 39750.24
1246.092, 40129.00
1247.169, 40000.00
1248.246, 40074.00
1249.323, 40008.00
1250.399, 39942.00
1251.475, 40131.00
1252.552, 40342.00
1253.628, 40239.00
1254.703, 40174.00
1255.779, 40120.00
1256.855, 40058.00
1257.930, 40119.99
1259.005, 40146.64
1260.080, 40324.00
1261.155, 40302.00
1262.230, 40501.00
1263.305, 40574.00
1264.379, 40810.00
1265.454, 40535.00
1266.528, 40523.00
1267.602, 40746.00
1268.676, 40562.00
1269.750, 40794.00
1270.823, 40945.00
1271.897, 41270.00
1272.970, 41297.00
1274.043, 40993.00
1275.116, 40934.00
1276.189, 41001.00
1277.261, 41075.00
1278.334, 40869.00
1279.406, 41073.00
1280.478, 40740.00
1281.550, 41106.00
1282.622, 41054.00
1283.694, 40964.00
1284.766, 41159.00
1285.837, 41482.00
1286.908, 41341.41
1287.979, 41387.00
1289.050, 41301.00
1290.121, 41385.00
1291.192, 41463.00
1292.262, 41440.00
1293.333, 41474.00
1294.403, 41452.00
1295.473, 41656.00
1296.543, 41448.00
1297.613, 42032.00
1298.682, 41845.00
1299.752, 41941.00
1300.821, 42335.00
1301.890, 41819.00
1302.959, 42101.00
1304.028, 42001.00
1305.096, 41980.00
1306.165, 42158.00
1307.233, 42188.00
1308.301, 42325.00
1309.370, 42336.00
1310.437, 42027.00
1311.505, 42444.00
1312.573, 42721.00
1313.640, 42292.00
1314.708, 42491.00
1315.775, 42461.00
1316.842, 42586.00
1317.908, 42601.33
1318.975, 42686.00
1320.042, 42656.00
1321.108, 42623.55
1322.174, 42756.00
1323.240, 42631.00
1324.306, 42610.00
1325.372, 42709.00
1326.438, 42708.00
