##NAMES=Kyanite
##RRUFFID=R040119
##IDEAL CHEMISTRY=Al_2_OSiO_4_
##LOCALITY=Rutherford County, North Carolina, USA
##OWNER=RRUFF
##SOURCE=University of Arizona Mineral Museum
##DESCRIPTION=Blue bladed crystal
##STATUS=The identification of this mineral has been confirmed by X-ray diffraction and chemical analysis
##URL=rruff.info/R040119
##MEASURED CHEMISTRY=(Al_0.99_Fe^3+^_0.01_)_2_OSi_1.00_O_4_
##PIN_ID=L00375
##ORIENTATION=Laser parallel to (0 1 1). Fiducial mark perpendicular to laser is parallel to a [1 0 0]
103.1740, 55236.00
104.4090, 56408.00
105.6440, 54895.00
106.8790, 54774.00
108.1140, 53830.00
109.3490, 53628.00
110.5830, 53900.00
111.8180, 54175.00
113.0520, 54502.00
114.2860, 54751.28
115.5200, 55345.00
116.7530, 55068.00
117.9870, 55404.00
119.2200, 55106.00
120.4530, 54812.00
121.6860, 54419.00
122.9190, 54588.00
124.1520, 54570.00
125.3850, 54157.00
126.6170, 54507.00
127.8490, 54302.00
129.0810, 54467.00
130.3130, 54355.00
131.5450, 54621.00
132.7770, 54863.00
134.0080, 54780.00
135.2390, 54786.00
136.4710, 54701.00
137.7020, 55122.00
138.9320, 55239.00
140.1630, 55404.00
141.3930, 55181.00
142.6240, 54888.00
143.8540, 55209.00
145.0840, 55512.00
146.3140, 55397.00
147.5440, 55717.00
148.7730, 55551.00
150.0020, 55344.00
151.2320, 55790.00
152.4610, 55868.00
153.6900, 56220.00
154.9180, 56287.00
156.1470, 56282.00
157.3750, 56507.36
158.6040, 56301.00
159.8320, 56680.00
161.0600, 56971.00
162.2870, 56911.00
163.5150, 57110.00
164.7420, 57139.00
165.9700, 57333.11
167.1970, 57579.00
168.4240, 57812.00
169.6510, 58292.00
170.8770, 58650.00
172.1040, 58834.00
173.3300, 59532.00
174.5560, 59635.00
175.7820, 59960.00
177.0080, 59710.00
178.2340, 59640.00
179.4590, 58696.00
180.6850, 58656.00
181.9100, 58006.00
183.1350, 57982.00
184.3600, 57971.00
185.5850, 57673.00
186.8090, 58086.00
188.0340, 58152.00
189.2580, 58225.00
190.4820, 58099.00
191.7060, 58373.00
192.9300, 58667.00
194.1530, 58898.00
195.3770, 59043.57
196.6000, 59017.00
197.8230, 59260.00
199.0460, 59463.21
200.2690, 59571.00
201.4910, 60221.00
202.7140, 60489.00
203.9360, 61106.00
205.1580, 61458.00
206.3800, 61357.00
207.6020, 61053.00
208.8240, 61069.00
210.0450, 60643.00
211.2670, 60100.00
212.4880, 60205.00
213.7090, 60343.00
214.9300, 60363.00
216.1510, 60793.00
217.3710, 60994.00
218.5920, 61233.00
219.8120, 61847.00
221.0320, 62616.00
222.2520, 62947.00
223.4720, 63935.00
224.6910, 65155.00
225.9110, 64803.00
227.1300, 64382.00
228.3490, 63506.00
229.5680, 62622.00
230.7870, 61712.00
232.0050, 61338.00
233.2240, 61494.00
234.4420, 61222.00
235.6600, 61280.00
236.8780, 61351.00
238.0960, 61312.00
239.3140, 61573.00
240.5310, 61875.00
241.7490, 61619.00
242.9660, 62064.00
244.1830, 62021.00
245.4000, 62179.00
246.6160, 62526.00
247.8330, 62609.00
249.0490, 62849.00
250.2660, 62603.00
251.4820, 62781.00
252.6980, 62669.00
253.9130, 62683.00
255.1290, 63374.00
256.3440, 63604.00
257.5600, 63173.00
258.7750, 62468.00
259.9900, 62199.00
261.2040, 62457.00
262.4190, 62468.00
263.6330, 62866.00
264.8480, 62929.00
266.0620, 63373.00
267.2760, 64276.00
268.4900, 64406.00
269.7030, 65180.00
270.9170, 65874.00
272.1300, 67520.00
273.3430, 68617.00
274.5560, 70303.00
275.7690, 71657.00
276.9820, 72286.00
278.1940, 71158.00
279.4070, 70084.00
280.6190, 69018.00
281.8310, 68215.00
283.0430, 68482.00
284.2550, 69526.00
285.4660, 70892.00
286.6770, 72956.00
287.8890, 75778.00
289.1000, 78961.00
290.3110, 81820.00
291.5210, 84031.00
292.7320, 85945.00
293.9420, 89263.00
295.1530, 94462.00
296.3630, 101162.0
297.5730, 110113.0
298.7830, 121686.0
299.9920, 129389.0
301.2020, 125264.0
302.4110, 112496.0
303.6200, 99483.00
304.8290, 87612.00
306.0380, 78664.00
307.2470, 74229.00
308.4550, 72009.00
309.6630, 70973.00
310.8720, 70699.00
312.0800, 71318.00
313.2880, 72159.00
314.4950, 72988.00
315.7030, 74658.00
316.9100, 76555.00
318.1170, 78723.00
319.3240, 81962.00
320.5310, 86120.00
321.7380, 91274.00
322.9450, 97654.00
324.1510, 102005.0
325.3570, 100135.0
326.5630, 94554.00
327.7690, 87301.00
328.9750, 79829.00
330.1810, 75114.00
331.3860, 72751.00
332.5910, 70940.00
333.7960, 69943.00
335.0010, 69984.00
336.2060, 70577.00
337.4110, 71299.00
338.6150, 72164.00
339.8200, 72644.00
341.0240, 72907.00
342.2280, 71824.00
343.4320, 71199.00
344.6350, 71040.00
345.8390, 70725.00
347.0420, 71157.00
348.2450, 71372.00
349.4480, 72394.00
350.6510, 73956.00
351.8540, 75573.00
353.0560, 77631.00
354.2590, 81259.00
355.4610, 85196.00
356.6630, 90480.00
357.8650, 96009.00
359.0670, 98263.00
360.2680, 95953.00
361.4700, 90679.00
362.6710, 86220.00
363.8720, 82330.00
365.0730, 80465.00
366.2740, 80552.00
367.4740, 81571.00
368.6750, 84213.00
369.8750, 87011.00
371.0750, 89425.00
372.2750, 91288.00
373.4750, 92392.00
374.6740, 94339.00
375.8740, 96281.00
377.0730, 98010.00
378.2720, 100107.0
379.4710, 103708.0
380.6700, 108928.0
381.8690, 115592.0
383.0670, 121608.0
384.2660, 124390.0
385.4640, 121168.0
386.6620, 116926.0
387.8600, 114064.0
389.0570, 114659.0
390.2550, 118451.0
391.4520, 119623.0
392.6490, 114940.0
393.8460, 107553.0
395.0430, 101700.0
396.2400, 98729.00
397.4370, 99799.00
398.6330, 104765.0
399.8290, 112566.0
401.0250, 122024.0
402.2210, 129643.0
403.4170, 130768.0
404.6130, 122873.0
405.8080, 111835.0
407.0030, 100846.0
408.1980, 91713.00
409.3930, 86182.00
410.5880, 83092.00
411.7830, 81905.00
412.9770, 81580.00
414.1720, 82218.00
415.3660, 83578.00
416.5600, 85244.00
417.7530, 86518.00
418.9470, 85938.00
420.1410, 85089.00
421.3340, 83869.00
422.5270, 82375.00
423.7200, 81246.00
424.9130, 81282.00
426.1060, 82526.00
427.2980, 84570.00
428.4900, 87346.00
429.6830, 91100.00
430.8750, 96433.00
432.0670, 102836.0
433.2580, 109444.0
434.4500, 116289.0
435.6410, 120215.0
436.8320, 120129.0
438.0240, 116524.0
439.2140, 108581.0
440.4050, 100637.0
441.5960, 95135.00
442.7860, 91545.00
443.9760, 89582.00
445.1670, 89461.00
446.3560, 89689.00
447.5460, 89670.00
448.7360, 87455.00
449.9250, 84721.00
451.1150, 82270.00
452.3040, 80409.00
453.4930, 79375.00
454.6810, 78343.00
455.8700, 78257.00
457.0590, 78620.00
458.2470, 78944.00
459.4350, 79668.00
460.6230, 80355.00
461.8110, 81706.00
462.9980, 82609.00
464.1860, 83078.00
465.3730, 83433.00
466.5600, 83309.00
467.7470, 83188.00
468.9340, 83223.00
470.1210, 84469.00
471.3080, 85453.00
472.4940, 87733.00
473.6800, 90626.00
474.8660, 95613.00
476.0520, 100984.0
477.2380, 109797.0
478.4230, 120050.0
479.6090, 134240.0
480.7940, 151229.0
481.9790, 170417.0
483.1640, 192445.0
484.3490, 211239.0
485.5330, 217853.0
486.7180, 207676.0
487.9020, 187817.0
489.0860, 165376.0
490.2700, 146722.0
491.4540, 132448.0
492.6370, 122113.0
493.8210, 113532.0
495.0040, 105868.0
496.1870, 99712.00
497.3700, 95341.00
498.5530, 91491.00
499.7360, 89411.00
500.9180, 88183.00
502.1000, 87036.00
503.2830, 87256.00
504.4650, 87183.00
505.6460, 87864.00
506.8280, 87818.00
508.0100, 89222.00
509.1910, 90425.00
510.3720, 90736.00
511.5530, 90660.20
512.7340, 90511.00
513.9150, 88814.00
515.0950, 86902.00
516.2760, 84636.00
517.4560, 83587.00
518.6360, 82208.00
519.8160, 81137.00
520.9950, 80972.00
522.1750, 80872.00
523.3540, 80330.01
524.5340, 80161.00
525.7130, 80010.00
526.8920, 79761.00
528.0700, 80046.00
529.2490, 79918.00
530.4270, 79797.00
531.6060, 79984.00
532.7840, 79754.00
533.9620, 80264.00
535.1390, 80732.00
536.3170, 80749.00
537.4940, 81277.00
538.6720, 81842.00
539.8490, 82393.00
541.0260, 83292.00
542.2030, 83885.00
543.3790, 84782.00
544.5560, 85111.00
545.7320, 84816.00
546.9080, 84677.00
548.0840, 84453.00
549.2600, 83855.00
550.4360, 84188.00
551.6110, 84558.00
552.7860, 84838.00
553.9620, 85946.00
555.1370, 87741.00
556.3110, 89466.00
557.4860, 92530.00
558.6610, 96614.00
559.8350, 100035.0
561.0090, 103612.0
562.1830, 104852.0
563.3570, 102977.0
564.5310, 99629.00
565.7040, 96918.00
566.8780, 94063.00
568.0510, 93742.00
569.2240, 93325.00
570.3970, 92987.00
571.5700, 93060.00
572.7420, 92051.00
573.9150, 90653.00
575.0870, 89060.00
576.2590, 87531.00
577.4310, 87010.00
578.6030, 86022.24
579.7740, 85658.00
580.9460, 85428.00
582.1170, 84829.00
583.2880, 85501.00
584.4590, 85203.00
585.6300, 85471.00
586.8010, 85030.00
587.9710, 84919.00
589.1410, 84621.00
590.3110, 84843.00
591.4810, 83938.00
592.6510, 84310.00
593.8210, 84474.00
594.9900, 85100.00
596.1600, 85130.00
597.3290, 85751.00
598.4980, 86395.00
599.6670, 87473.00
600.8350, 88931.00
602.0040, 89653.00
603.1720, 90775.00
604.3400, 91770.00
605.5080, 92096.00
606.6760, 92112.00
607.8440, 91162.00
609.0120, 90473.00
610.1790, 89005.00
611.3460, 88651.00
612.5130, 88441.00
613.6800, 88456.00
614.8470, 88315.00
616.0130, 88717.00
617.1800, 88569.00
618.3460, 88930.00
619.5120, 88332.00
620.6780, 88128.00
621.8440, 88018.00
623.0090, 88178.00
624.1750, 88214.00
625.3400, 88711.00
626.5050, 89508.00
627.6700, 90417.00
628.8350, 91146.00
629.9990, 92682.00
631.1640, 93737.00
632.3280, 96024.00
633.4920, 97294.00
634.6560, 98564.00
635.8200, 99584.00
636.9840, 99422.00
638.1470, 98239.00
639.3100, 96831.00
640.4730, 94081.00
641.6360, 92391.00
642.7990, 90998.00
643.9620, 90317.00
645.1240, 90307.00
646.2870, 90167.00
647.4490, 90517.00
648.6110, 91508.00
649.7730, 92081.00
650.9340, 93172.00
652.0960, 94243.00
653.2570, 95487.00
654.4180, 96928.00
655.5790, 97088.00
656.7400, 96668.00
657.9010, 95598.00
659.0620, 94505.00
660.2220, 93762.00
661.3820, 92789.00
662.5420, 92296.11
663.7020, 91706.00
664.8620, 91605.00
666.0210, 91797.00
667.1810, 91864.00
668.3400, 92571.00
669.4990, 92381.00
670.6580, 92658.00
671.8170, 91769.00
672.9750, 90777.00
674.1340, 90461.00
675.2920, 89440.00
676.4500, 89134.00
677.6080, 88992.00
678.7660, 88686.00
679.9230, 89036.00
681.0810, 88645.00
682.2380, 88861.00
683.3950, 88409.00
684.5520, 88244.00
685.7090, 88002.00
686.8660, 87837.62
688.0220, 87685.00
689.1780, 87628.00
690.3340, 87731.00
691.4900, 87610.00
692.6460, 87739.00
693.8020, 87728.00
694.9570, 88073.00
696.1130, 87878.00
697.2680, 88178.00
698.4230, 88529.00
699.5780, 88483.00
700.7320, 88005.00
701.8870, 88873.00
703.0410, 88375.00
704.1950, 88302.00
705.3490, 88470.00
706.5030, 88533.00
707.6570, 88423.00
708.8110, 88634.00
709.9640, 88366.00
711.1170, 88337.00
712.2700, 88698.00
713.4230, 88407.00
714.5760, 88542.00
715.7280, 88889.00
716.8810, 89287.00
718.0330, 88945.00
719.1850, 88706.00
720.3370, 89492.00
721.4890, 89467.00
722.6400, 89429.00
723.7920, 89926.00
724.9430, 89694.00
726.0940, 89917.00
727.2450, 89496.00
728.3960, 89614.00
729.5460, 88806.00
730.6970, 88971.00
731.8470, 89083.00
732.9970, 89289.00
734.1470, 89250.00
735.2970, 89181.00
736.4460, 89242.45
737.5960, 89058.00
738.7450, 89139.00
739.8940, 89177.00
741.0430, 88988.00
742.1920, 89132.29
743.3410, 89394.00
744.4890, 89248.00
745.6370, 89260.00
746.7850, 89307.00
747.9330, 89265.00
749.0810, 89471.00
750.2290, 89732.00
751.3760, 89718.00
752.5240, 89087.00
753.6710, 89408.00
754.8180, 89436.00
755.9650, 89574.00
757.1110, 89707.00
758.2580, 89754.89
759.4040, 89570.00
760.5510, 89758.00
761.6970, 89774.00
762.8420, 89472.00
763.9880, 89384.00
765.1340, 89493.00
766.2790, 89050.00
767.4240, 89285.00
768.5690, 89087.00
769.7140, 89302.00
770.8590, 89435.00
772.0030, 89152.00
773.1480, 89385.77
774.2920, 89462.03
775.4360, 89487.00
776.5800, 89733.00
777.7240, 89736.00
778.8670, 89690.60
780.0110, 89855.62
781.1540, 90015.00
782.2970, 90103.00
783.4400, 89818.00
784.5830, 90069.00
785.7250, 90242.00
786.8680, 90345.00
788.0100, 89881.00
789.1520, 90011.00
790.2940, 90121.00
791.4360, 90040.48
792.5780, 90489.00
793.7190, 90293.00
794.8600, 90394.00
796.0010, 90705.00
797.1420, 90827.00
798.2830, 90856.00
799.4240, 90815.00
800.5640, 90689.00
801.7050, 90726.00
802.8450, 90763.00
803.9850, 91361.00
805.1250, 91306.00
806.2640, 91547.00
807.4040, 91801.00
808.5430, 91392.00
809.6820, 91687.00
810.8210, 92057.00
811.9600, 91708.00
813.0990, 91633.00
814.2370, 92218.00
815.3760, 92063.00
816.5140, 91970.00
817.6520, 92317.00
818.7900, 92376.00
819.9270, 92221.00
821.0650, 92794.00
822.2020, 92682.00
823.3390, 92984.00
824.4760, 92928.00
825.6130, 93115.00
826.7500, 93098.00
827.8870, 93371.00
829.0230, 93524.80
830.1590, 93578.00
831.2950, 93794.00
832.4310, 93959.00
833.5670, 93746.00
834.7030, 93774.00
835.8380, 93694.00
836.9730, 93800.00
838.1080, 94516.00
839.2430, 94901.00
840.3780, 94667.00
841.5130, 94694.00
842.6470, 95017.00
843.7810, 95322.00
844.9150, 94801.00
846.0490, 95292.00
847.1830, 95394.00
848.3170, 95209.00
849.4500, 95411.00
850.5830, 95945.00
851.7160, 95655.00
852.8490, 96077.00
853.9820, 96218.00
855.1150, 96768.00
856.2470, 96751.00
857.3800, 96897.00
858.5120, 97168.00
859.6440, 97389.00
860.7760, 97771.00
861.9070, 98451.00
863.0390, 98298.00
864.1700, 98775.00
865.3010, 99100.00
866.4320, 99155.00
867.5630, 100212.0
868.6940, 100740.0
869.8240, 101563.0
870.9540, 101910.0
872.0850, 102740.0
873.2150, 103304.0
874.3450, 104439.0
875.4740, 105440.0
876.6040, 107221.0
877.7330, 108948.0
878.8620, 111064.0
879.9910, 113267.0
881.1200, 115447.0
882.2490, 119002.0
883.3770, 122496.0
884.5060, 126830.0
885.6340, 131220.0
886.7620, 135954.0
887.8900, 139852.0
889.0180, 142986.0
890.1450, 144368.0
891.2730, 145180.0
892.4000, 144077.0
893.5270, 143018.0
894.6540, 143711.0
895.7810, 144721.0
896.9070, 146966.0
898.0340, 149753.0
899.1600, 151253.0
900.2860, 152970.0
901.4120, 150977.0
902.5380, 149622.0
903.6630, 142412.0
904.7890, 136491.0
905.9140, 130998.0
907.0390, 125741.0
908.1640, 123464.0
909.2890, 120501.0
910.4130, 118200.0
911.5380, 115816.0
912.6620, 114777.0
913.7860, 113394.0
914.9100, 111805.0
916.0340, 111658.0
917.1580, 111607.0
918.2810, 111833.0
919.4040, 111188.0
920.5280, 112146.0
921.6510, 111778.0
922.7730, 112726.0
923.8960, 113851.0
925.0180, 113537.0
926.1410, 114791.0
927.2630, 116485.0
928.3850, 117632.0
929.5070, 118583.0
930.6280, 120768.0
931.7500, 122028.0
932.8710, 123411.0
933.9920, 126675.0
935.1130, 129156.0
936.2340, 131477.0
937.3550, 133044.0
938.4760, 135187.0
939.5960, 137755.0
940.7160, 139733.0
941.8360, 142741.0
942.9560, 145160.0
944.0760, 147290.0
945.1950, 149801.0
946.3150, 151797.0
947.4340, 153191.0
948.5530, 154946.0
949.6720, 156535.0
950.7900, 157645.0
951.9090, 159530.0
953.0270, 160896.0
954.1460, 162734.0
955.2640, 164787.0
956.3820, 166293.0
957.4990, 168655.0
958.6170, 171059.0
959.7340, 172500.0
960.8520, 171573.0
961.9690, 169359.0
963.0860, 165335.0
964.2020, 160731.0
965.3190, 154666.0
966.4350, 149391.0
967.5520, 143453.0
968.6680, 138326.0
969.7840, 133634.0
970.8990, 130089.0
972.0150, 126762.0
973.1310, 124359.0
974.2460, 121622.0
975.3610, 119923.0
976.4760, 118417.0
977.5910, 116483.0
978.7050, 115844.0
979.8200, 114955.0
980.9340, 113789.0
982.0480, 113303.0
983.1620, 112763.8
984.2760, 112446.0
985.3900, 112077.0
986.5030, 112109.0
987.6160, 111610.0
988.7300, 111501.0
989.8430, 112299.0
990.9550, 112349.0
992.0680, 112440.0
993.1810, 113039.0
994.2930, 114841.0
995.4050, 115651.0
996.5170, 117253.0
997.6290, 119722.0
998.7410, 119926.0
999.8520, 120915.0
1000.964, 120769.0
1002.075, 119948.0
1003.186, 118830.0
1004.297, 117019.0
1005.407, 114939.0
1006.518, 113686.0
1007.628, 112465.0
1008.738, 111306.0
1009.848, 111064.0
1010.958, 110325.0
1012.068, 109876.0
1013.178, 109674.0
1014.287, 109048.0
1015.396, 108927.0
1016.505, 108367.0
1017.614, 108777.0
1018.723, 108477.0
1019.831, 108436.0
1020.940, 108323.0
1022.048, 108141.6
1023.156, 108020.1
1024.264, 107972.0
1025.372, 107798.0
1026.479, 107944.0
1027.587, 108120.0
1028.694, 107838.0
1029.801, 107682.0
1030.908, 108280.0
1032.015, 108418.0
1033.121, 107796.0
1034.228, 107547.0
1035.334, 107854.0
1036.440, 107867.0
1037.546, 107685.0
1038.652, 107974.0
1039.758, 107607.0
1040.863, 108254.0
1041.968, 107953.0
1043.074, 107783.0
1044.178, 108208.0
1045.283, 108069.0
1046.388, 108379.0
1047.492, 108032.0
1048.597, 108505.0
1049.701, 108221.0
1050.805, 107951.0
1051.909, 108173.0
1053.012, 107894.0
1054.116, 108764.0
1055.219, 108606.0
1056.322, 108806.0
1057.425, 108744.0
1058.528, 108494.0
1059.631, 108517.0
1060.733, 108564.0
1061.836, 108849.0
1062.938, 109233.0
1064.040, 109566.0
1065.142, 109457.0
1066.243, 109291.0
1067.345, 109229.0
1068.446, 109165.0
1069.547, 109724.0
1070.648, 109124.0
1071.749, 109833.0
1072.850, 109452.0
1073.951, 109695.0
1075.051, 109350.0
1076.151, 109286.0
1077.251, 109656.0
1078.351, 109946.0
1079.451, 109851.0
1080.550, 110086.0
1081.650, 110385.0
1082.749, 110088.0
1083.848, 110223.0
1084.947, 110025.0
1086.046, 110292.0
1087.144, 110303.0
1088.243, 110304.0
1089.341, 110242.0
1090.439, 110644.0
1091.537, 110567.0
1092.635, 110760.0
1093.732, 111102.0
1094.830, 110893.0
1095.927, 111156.0
1097.024, 111387.0
1098.121, 111016.0
1099.218, 111208.0
1100.314, 111499.0
1101.411, 111217.0
1102.507, 111258.0
1103.603, 111630.0
1104.699, 111837.0
1105.795, 111743.0
1106.890, 111543.0
1107.986, 111616.0
1109.081, 111867.0
1110.176, 112326.0
1111.271, 112287.9
1112.366, 112601.0
1113.461, 112092.0
1114.555, 112396.0
1115.649, 111635.0
1116.744, 112279.0
1117.838, 112283.0
1118.931, 112355.0
1120.025, 112427.0
1121.119, 112440.0
1122.212, 113165.0
1123.305, 112732.0
1124.398, 112639.0
1125.491, 113279.0
1126.584, 112597.0
1127.676, 113026.0
1128.768, 113153.0
1129.861, 112661.0
1130.953, 113297.0
1132.044, 113517.0
1133.136, 113143.0
1134.228, 113346.0
1135.319, 113154.0
1136.410, 113674.0
1137.501, 113233.0
1138.592, 113927.0
1139.683, 113997.0
1140.773, 113704.0
1141.864, 113899.0
1142.954, 114176.0
1144.044, 114192.0
1145.134, 114002.0
1146.224, 113933.0
1147.313, 114326.0
1148.402, 114170.0
1149.492, 114286.0
1150.581, 114329.0
1151.670, 114248.0
1152.758, 114540.0
1153.847, 114640.0
1154.935, 114710.0
1156.024, 114833.0
1157.112, 115128.0
1158.200, 115047.0
1159.287, 115362.0
1160.375, 114745.0
1161.462, 115290.0
1162.550, 115275.0
1163.637, 115255.0
1164.724, 115673.0
1165.810, 115408.0
1166.897, 115781.0
1167.983, 116390.0
1169.070, 116066.0
1170.156, 115826.0
1171.242, 115598.0
1172.327, 115585.7
1173.413, 116218.0
1174.499, 115792.0
1175.584, 116056.0
1176.669, 116409.0
1177.754, 116075.0
1178.839, 116483.0
1179.923, 116181.0
1181.008, 116445.0
1182.092, 116745.0
1183.176, 116484.0
1184.260, 116696.0
1185.344, 116396.0
1186.428, 116894.0
1187.511, 116664.0
1188.595, 116830.0
1189.678, 116854.0
1190.761, 117072.0
1191.843, 117178.0
1192.926, 117409.0
1194.009, 117378.0
1195.091, 117514.2
1196.173, 117405.0
1197.255, 117566.0
1198.337, 117479.0
1199.419, 117307.0
1200.500, 117843.0
1201.582, 117973.0
1202.663, 117952.0
1203.744, 118073.0
1204.825, 118045.0
1205.905, 117834.0
1206.986, 118497.0
1208.066, 118353.9
1209.146, 118673.0
1210.226, 118610.0
1211.306, 118520.0
1212.386, 118630.0
1213.466, 118510.0
1214.545, 118645.0
1215.624, 118706.5
1216.703, 119151.0
1217.782, 118862.0
1218.861, 119240.0
1219.939, 119236.0
1221.018, 119349.0
1222.096, 119346.0
1223.174, 119186.0
1224.252, 119647.0
1225.330, 119513.0
1226.407, 119932.0
1227.485, 120155.0
1228.562, 119785.0
1229.639, 119994.0
1230.716, 120366.0
1231.793, 119666.0
1232.869, 119991.0
1233.946, 120671.0
1235.022, 120043.0
1236.098, 120290.0
1237.174, 120624.0
1238.250, 120385.0
1239.325, 120323.0
1240.401, 120980.0
1241.476, 120665.0
1242.551, 120635.0
1243.626, 120869.0
1244.701, 121175.0
1245.776, 121207.0
1246.850, 121437.1
1247.924, 121499.0
1248.999, 121635.0
1250.073, 121508.0
1251.146, 121395.0
1252.220, 121201.0
1253.293, 121615.0
1254.367, 121548.0
1255.440, 121611.0
1256.513, 121681.0
1257.586, 121942.7
1258.658, 121921.5
1259.731, 122089.5
1260.803, 121908.0
1261.875, 122416.0
1262.947, 122246.0
1264.019, 122590.0
1265.091, 122165.0
1266.162, 122500.0
1267.234, 122529.0
1268.305, 122539.0
1269.376, 122361.0
1270.447, 122736.0
1271.517, 122676.0
1272.588, 122883.0
1273.658, 123041.0
1274.729, 123089.2
1275.799, 123489.0
1276.868, 123331.0
1277.938, 123591.0
1279.008, 123819.0
1280.077, 123446.0
1281.146, 123428.0
1282.215, 123535.0
1283.284, 123423.0
