##NAMES=Kyanite
##RRUFFID=R040119
##IDEAL CHEMISTRY=Al_2_OSiO_4_
##LOCALITY=Rutherford County, North Carolina, USA
##OWNER=RRUFF
##SOURCE=University of Arizona Mineral Museum
##DESCRIPTION=Blue bladed crystal
##STATUS=The identification of this mineral has been confirmed by X-ray diffraction and chemical analysis
##URL=rruff.info/R040119
##MEASURED CHEMISTRY=(Al_0.99_Fe^3+^_0.01_)_2_OSi_1.00_O_4_
##PIN_ID=L00051
##ORIENTATION=Laser parallel to b* (0 1 0). Fiducial mark perpendicular to laser is parallel to -c [0 0 -1]
67.28100, 53666.00
68.52100, 54166.00
69.76100, 54543.00
71.00100, 55330.00
72.24000, 56393.00
73.47900, 56420.00
74.71800, 56925.00
75.95700, 57612.00
77.19600, 57226.00
78.43500, 58291.00
79.67300, 58038.00
80.91200, 57811.00
82.15000, 57345.00
83.38800, 57625.00
84.62600, 56818.00
85.86300, 56481.00
87.10100, 55979.00
88.33800, 56335.00
89.57500, 55827.00
90.81200, 56880.00
92.04900, 56961.00
93.28600, 56308.00
94.52300, 56498.00
95.75900, 56125.00
96.99500, 55729.00
98.23100, 55939.00
99.46700, 56518.00
100.7030, 56968.00
101.9390, 56968.00
103.1740, 58220.00
104.4090, 58575.00
105.6440, 58798.00
106.8790, 58562.00
108.1140, 58238.00
109.3490, 58282.59
110.5830, 58104.74
111.8180, 58176.00
113.0520, 58118.00
114.2860, 58292.00
115.5200, 58570.00
116.7530, 59082.00
117.9870, 59124.00
119.2200, 58731.00
120.4530, 58514.00
121.6860, 58096.00
122.9190, 57897.00
124.1520, 57956.00
125.3850, 57767.95
126.6170, 57585.00
127.8490, 57744.00
129.0810, 57447.00
130.3130, 57438.00
131.5450, 57674.00
132.7770, 57508.00
134.0080, 57696.00
135.2390, 57636.00
136.4710, 58167.00
137.7020, 58063.00
138.9320, 57913.00
140.1630, 58293.00
141.3930, 58260.00
142.6240, 58356.00
143.8540, 58530.00
145.0840, 58461.00
146.3140, 58390.00
147.5440, 58949.00
148.7730, 58519.00
150.0020, 58724.00
151.2320, 58853.00
152.4610, 58438.00
153.6900, 58657.00
154.9180, 59212.00
156.1470, 59797.00
157.3750, 59990.00
158.6040, 58959.00
159.8320, 59148.00
161.0600, 59095.00
162.2870, 59317.00
163.5150, 59310.00
164.7420, 59123.00
165.9700, 59281.00
167.1970, 59127.00
168.4240, 59819.00
169.6510, 59781.00
170.8770, 59574.00
172.1040, 60214.00
173.3300, 59938.00
174.5560, 60476.00
175.7820, 60454.00
177.0080, 60505.00
178.2340, 60712.00
179.4590, 60652.00
180.6850, 60424.00
181.9100, 60396.00
183.1350, 59914.00
184.3600, 60144.00
185.5850, 60097.00
186.8090, 59826.00
188.0340, 60085.00
189.2580, 60185.00
190.4820, 60464.00
191.7060, 60375.00
192.9300, 60497.00
194.1530, 60524.00
195.3770, 60570.00
196.6000, 60659.00
197.8230, 60720.00
199.0460, 60853.21
200.2690, 60923.68
201.4910, 61154.00
202.7140, 61085.00
203.9360, 61250.00
205.1580, 61301.00
206.3800, 61057.00
207.6020, 61213.00
208.8240, 61412.00
210.0450, 61254.00
211.2670, 61532.00
212.4880, 61361.00
213.7090, 61278.00
214.9300, 61435.00
216.1510, 61622.00
217.3710, 61598.00
218.5920, 62076.00
219.8120, 62326.00
221.0320, 62195.00
222.2520, 62783.00
223.4720, 62658.00
224.6910, 62834.00
225.9110, 63251.00
227.1300, 63433.00
228.3490, 63338.00
229.5680, 63012.00
230.7870, 62829.00
232.0050, 62752.00
233.2240, 62778.00
234.4420, 62646.87
235.6600, 62543.00
236.8780, 62653.00
238.0960, 62595.00
239.3140, 62888.00
240.5310, 62802.00
241.7490, 62861.00
242.9660, 63000.00
244.1830, 62861.00
245.4000, 63030.00
246.6160, 63415.00
247.8330, 63136.00
249.0490, 63455.00
250.2660, 63693.00
251.4820, 63492.00
252.6980, 63898.00
253.9130, 63606.00
255.1290, 64097.00
256.3440, 64531.00
257.5600, 64233.00
258.7750, 63757.00
259.9900, 63490.00
261.2040, 64070.00
262.4190, 64646.00
263.6330, 63807.00
264.8480, 63559.00
266.0620, 63926.00
267.2760, 64435.00
268.4900, 64221.00
269.7030, 64945.00
270.9170, 65163.00
272.1300, 65732.00
273.3430, 66024.00
274.5560, 66413.00
275.7690, 66900.00
276.9820, 67072.00
278.1940, 67304.00
279.4070, 67296.00
280.6190, 67055.00
281.8310, 66566.00
283.0430, 66085.00
284.2550, 66934.00
285.4660, 67183.00
286.6770, 67903.00
287.8890, 69101.00
289.1000, 70018.00
290.3110, 71007.00
291.5210, 72441.00
292.7320, 73539.00
293.9420, 74564.00
295.1530, 75776.00
296.3630, 77577.00
297.5730, 79228.00
298.7830, 81703.00
299.9920, 83828.00
301.2020, 84385.00
302.4110, 83178.00
303.6200, 80335.00
304.8290, 76726.00
306.0380, 72568.00
307.2470, 69901.00
308.4550, 69027.00
309.6630, 68147.00
310.8720, 68360.00
312.0800, 68350.00
313.2880, 68937.00
314.4950, 69137.00
315.7030, 69669.00
316.9100, 70292.00
318.1170, 71223.00
319.3240, 71638.00
320.5310, 73070.00
321.7380, 73736.00
322.9450, 75344.00
324.1510, 76638.00
325.3570, 76880.00
326.5630, 76894.00
327.7690, 75254.00
328.9750, 73137.00
330.1810, 71533.00
331.3860, 69630.00
332.5910, 68889.00
333.7960, 68945.00
335.0010, 68485.00
336.2060, 69160.00
337.4110, 69578.00
338.6150, 69618.00
339.8200, 70271.00
341.0240, 70451.00
342.2280, 70192.00
343.4320, 70070.00
344.6350, 69595.00
345.8390, 69691.00
347.0420, 69594.00
348.2450, 69507.00
349.4480, 70029.00
350.6510, 70528.00
351.8540, 71554.00
353.0560, 72427.00
354.2590, 73248.00
355.4610, 74711.00
356.6630, 76381.00
357.8650, 78199.00
359.0670, 79797.00
360.2680, 79868.00
361.4700, 79501.00
362.6710, 78198.00
363.8720, 75813.00
365.0730, 74281.00
366.2740, 73458.00
367.4740, 73740.00
368.6750, 73929.00
369.8750, 74788.00
371.0750, 75454.00
372.2750, 76691.00
373.4750, 77680.00
374.6740, 78516.00
375.8740, 79853.00
377.0730, 80160.00
378.2720, 80950.00
379.4710, 81364.00
380.6700, 81575.00
381.8690, 82017.00
383.0670, 82886.00
384.2660, 83806.00
385.4640, 84098.00
386.6620, 84566.00
387.8600, 83935.00
389.0570, 84312.84
390.2550, 83236.00
391.4520, 84027.00
392.6490, 83737.00
393.8460, 82877.00
395.0430, 81454.00
396.2400, 80761.00
397.4370, 79997.00
398.6330, 80731.00
399.8290, 82183.00
401.0250, 83619.00
402.2210, 85944.00
403.4170, 87098.00
404.6130, 86496.00
405.8080, 84803.00
407.0030, 82521.00
408.1980, 79452.00
409.3930, 77714.00
410.5880, 76143.00
411.7830, 75767.00
412.9770, 75629.00
414.1720, 75953.00
415.3660, 76382.00
416.5600, 77101.00
417.7530, 77433.00
418.9470, 77681.00
420.1410, 77822.00
421.3340, 77068.00
422.5270, 76880.00
423.7200, 76162.00
424.9130, 75736.00
426.1060, 76300.00
427.2980, 77050.00
428.4900, 78140.00
429.6830, 79429.00
430.8750, 80804.00
432.0670, 82475.00
433.2580, 84714.00
434.4500, 86578.00
435.6410, 88024.00
436.8320, 89033.00
438.0240, 88988.00
439.2140, 88077.00
440.4050, 85738.00
441.5960, 83560.00
442.7860, 81404.00
443.9760, 79576.00
445.1670, 79200.00
446.3560, 78725.00
447.5460, 78769.00
448.7360, 78871.00
449.9250, 78368.00
451.1150, 77633.00
452.3040, 77101.00
453.4930, 76278.00
454.6810, 76279.00
455.8700, 75974.00
457.0590, 75837.00
458.2470, 75957.00
459.4350, 76021.00
460.6230, 76286.00
461.8110, 76079.00
462.9980, 76280.00
464.1860, 76801.00
465.3730, 76688.00
466.5600, 77111.00
467.7470, 77373.00
468.9340, 77527.00
470.1210, 77340.00
471.3080, 78088.00
472.4940, 78602.00
473.6800, 79812.00
474.8660, 81134.00
476.0520, 82355.00
477.2380, 84964.00
478.4230, 87723.00
479.6090, 91635.00
480.7940, 95246.00
481.9790, 100268.0
483.1640, 105123.0
484.3490, 109418.0
485.5330, 112744.0
486.7180, 113387.0
487.9020, 110708.0
489.0860, 105540.0
490.2700, 100039.0
491.4540, 94382.00
492.6370, 90834.00
493.8210, 88522.00
495.0040, 86548.00
496.1870, 84876.00
497.3700, 83077.00
498.5530, 82246.00
499.7360, 81270.00
500.9180, 81351.00
502.1000, 81063.00
503.2830, 80551.00
504.4650, 81098.00
505.6460, 80882.00
506.8280, 81545.00
508.0100, 82263.00
509.1910, 82056.00
510.3720, 82294.00
511.5530, 82724.00
512.7340, 82860.00
513.9150, 82728.00
515.0950, 82570.00
516.2760, 81920.00
517.4560, 81042.00
518.6360, 80501.00
519.8160, 80482.00
520.9950, 80221.00
522.1750, 79765.00
523.3540, 79474.00
524.5340, 79504.00
525.7130, 79779.00
526.8920, 79573.00
528.0700, 79598.00
529.2490, 79481.00
530.4270, 79554.57
531.6060, 79626.00
532.7840, 79828.00
533.9620, 79791.00
535.1390, 80055.00
536.3170, 80471.00
537.4940, 80571.00
538.6720, 80552.00
539.8490, 81198.00
541.0260, 81010.00
542.2030, 81316.00
543.3790, 81432.00
544.5560, 81914.00
545.7320, 82270.00
546.9080, 81975.00
548.0840, 81917.00
549.2600, 82000.00
550.4360, 82315.00
551.6110, 82273.00
552.7860, 82577.00
553.9620, 83230.00
555.1370, 83948.00
556.3110, 84737.00
557.4860, 85618.00
558.6610, 86678.00
559.8350, 87870.00
561.0090, 89424.00
562.1830, 89744.00
563.3570, 90195.00
564.5310, 89477.00
565.7040, 88123.00
566.8780, 87179.00
568.0510, 85854.00
569.2240, 85778.00
570.3970, 85350.00
571.5700, 85643.00
572.7420, 85664.00
573.9150, 85071.00
575.0870, 84765.00
576.2590, 84403.00
577.4310, 84076.00
578.6030, 83904.00
579.7740, 83804.00
580.9460, 83837.00
582.1170, 83609.00
583.2880, 83471.00
584.4590, 83382.00
585.6300, 83606.00
586.8010, 83790.00
587.9710, 83829.00
589.1410, 83525.00
590.3110, 83934.00
591.4810, 83326.00
592.6510, 83878.00
593.8210, 84142.00
594.9900, 84340.00
596.1600, 84414.00
597.3290, 84795.00
598.4980, 85276.00
599.6670, 85641.00
600.8350, 86411.00
602.0040, 86766.00
603.1720, 87331.00
604.3400, 87776.00
605.5080, 88404.00
606.6760, 88631.00
607.8440, 88208.00
609.0120, 87847.00
610.1790, 87412.00
611.3460, 87285.00
612.5130, 86648.00
613.6800, 86376.00
614.8470, 86225.00
616.0130, 86509.00
617.1800, 86693.00
618.3460, 86618.00
619.5120, 86816.00
620.6780, 86731.00
621.8440, 86663.00
623.0090, 86728.00
624.1750, 87020.00
625.3400, 87067.00
626.5050, 87304.46
627.6700, 87487.00
628.8350, 87741.00
629.9990, 87913.00
631.1640, 88139.00
632.3280, 87948.00
633.4920, 87663.00
634.6560, 88070.00
635.8200, 88728.00
636.9840, 88205.00
638.1470, 88197.00
639.3100, 87387.00
640.4730, 87426.00
641.6360, 87362.00
642.7990, 86942.00
643.9620, 86987.00
645.1240, 87085.00
646.2870, 87014.00
647.4490, 86801.00
648.6110, 87052.00
649.7730, 86825.00
650.9340, 87291.00
652.0960, 86939.00
653.2570, 87297.00
654.4180, 87416.00
655.5790, 87834.00
656.7400, 87472.00
657.9010, 87837.00
659.0620, 87808.00
660.2220, 88209.00
661.3820, 88013.00
662.5420, 87875.00
663.7020, 87893.00
664.8620, 88045.00
666.0210, 88444.00
667.1810, 88868.00
668.3400, 89133.00
669.4990, 89141.00
670.6580, 89240.14
671.8170, 88905.00
672.9750, 89102.00
674.1340, 88741.00
675.2920, 88651.00
676.4500, 88502.00
677.6080, 88697.00
678.7660, 88682.00
679.9230, 88873.00
681.0810, 88969.00
682.2380, 88818.00
683.3950, 88477.00
684.5520, 88872.00
685.7090, 88931.00
686.8660, 88355.00
688.0220, 89057.00
689.1780, 89105.00
690.3340, 88753.00
691.4900, 89104.00
692.6460, 89242.00
693.8020, 89115.00
694.9570, 89044.00
696.1130, 89029.00
697.2680, 89294.00
698.4230, 89334.00
699.5780, 89328.00
700.7320, 89436.00
701.8870, 89365.00
703.0410, 90062.00
704.1950, 89856.00
705.3490, 90272.00
706.5030, 90105.00
707.6570, 89950.00
708.8110, 90126.00
709.9640, 90119.00
711.1170, 89974.00
712.2700, 90371.00
713.4230, 90184.00
714.5760, 90409.00
715.7280, 90464.00
716.8810, 90509.00
718.0330, 90368.00
719.1850, 90568.00
720.3370, 90360.00
721.4890, 90492.00
722.6400, 90497.00
723.7920, 90567.00
724.9430, 91035.00
726.0940, 90976.00
727.2450, 90979.00
728.3960, 91221.00
729.5460, 90999.00
730.6970, 90692.00
731.8470, 91217.00
732.9970, 91317.00
734.1470, 91605.00
735.2970, 91900.00
736.4460, 91299.00
737.5960, 91629.00
738.7450, 91544.00
739.8940, 91657.00
741.0430, 91678.00
742.1920, 91861.00
743.3410, 92158.00
744.4890, 92048.00
745.6370, 92419.00
746.7850, 92576.00
747.9330, 92425.00
749.0810, 92272.00
750.2290, 92614.00
751.3760, 92568.00
752.5240, 92569.00
753.6710, 93022.00
754.8180, 92807.00
755.9650, 92898.00
757.1110, 93321.00
758.2580, 92896.00
759.4040, 93346.00
760.5510, 93343.00
761.6970, 93053.00
762.8420, 92920.00
763.9880, 93271.00
765.1340, 93548.00
766.2790, 93482.00
767.4240, 93682.00
768.5690, 93830.00
769.7140, 93583.00
770.8590, 93467.00
772.0030, 93326.00
773.1480, 93385.51
774.2920, 93591.00
775.4360, 93593.00
776.5800, 93632.00
777.7240, 93676.00
778.8670, 94078.00
780.0110, 94051.00
781.1540, 94501.00
782.2970, 94308.00
783.4400, 94419.00
784.5830, 94126.00
785.7250, 93866.00
786.8680, 94517.00
788.0100, 94450.00
789.1520, 94802.00
790.2940, 94937.00
791.4360, 94702.00
792.5780, 95088.00
793.7190, 94935.00
794.8600, 95246.00
796.0010, 95352.00
797.1420, 95270.00
798.2830, 95382.00
799.4240, 95680.00
800.5640, 95937.00
801.7050, 95425.00
802.8450, 96041.00
803.9850, 95566.00
805.1250, 96038.00
806.2640, 96136.00
807.4040, 95856.00
808.5430, 96242.00
809.6820, 96702.00
810.8210, 96655.00
811.9600, 96788.00
813.0990, 96554.00
814.2370, 96877.00
815.3760, 97054.00
816.5140, 96780.00
817.6520, 97155.00
818.7900, 97318.00
819.9270, 97648.00
821.0650, 97673.00
822.2020, 97650.00
823.3390, 97532.00
824.4760, 97457.00
825.6130, 98197.00
826.7500, 98004.00
827.8870, 98225.00
829.0230, 98111.00
830.1590, 98384.00
831.2950, 98205.00
832.4310, 98397.69
833.5670, 98660.00
834.7030, 98652.00
835.8380, 98776.00
836.9730, 98828.00
838.1080, 99247.00
839.2430, 99110.00
840.3780, 99360.00
841.5130, 99223.00
842.6470, 99440.00
843.7810, 99652.00
844.9150, 99453.00
846.0490, 99776.00
847.1830, 99879.00
848.3170, 100052.0
849.4500, 100153.6
850.5830, 100118.0
851.7160, 100218.0
852.8490, 100608.0
853.9820, 100575.0
855.1150, 100925.0
856.2470, 100747.0
857.3800, 100584.0
858.5120, 100982.0
859.6440, 101263.0
860.7760, 101484.0
861.9070, 101006.0
863.0390, 102092.0
864.1700, 101403.0
865.3010, 101713.0
866.4320, 102264.0
867.5630, 101977.0
868.6940, 102449.0
869.8240, 102176.0
870.9540, 102944.0
872.0850, 102617.0
873.2150, 103343.0
874.3450, 104229.0
875.4740, 104106.0
876.6040, 104556.0
877.7330, 104347.0
878.8620, 105177.0
879.9910, 105670.0
881.1200, 105863.0
882.2490, 106399.0
883.3770, 107286.0
884.5060, 107762.0
885.6340, 108681.0
886.7620, 109460.0
887.8900, 110179.0
889.0180, 111088.0
890.1450, 111076.0
891.2730, 112535.0
892.4000, 113015.0
893.5270, 112968.0
894.6540, 113565.0
895.7810, 114477.0
896.9070, 115526.0
898.0340, 116948.0
899.1600, 118003.0
900.2860, 118893.0
901.4120, 118601.0
902.5380, 118279.0
903.6630, 117982.0
904.7890, 116228.0
905.9140, 114461.0
907.0390, 113108.0
908.1640, 112021.0
909.2890, 111632.0
910.4130, 110344.0
911.5380, 110026.0
912.6620, 110122.0
913.7860, 109659.0
914.9100, 109667.0
916.0340, 109374.0
917.1580, 109603.0
918.2810, 110062.0
919.4040, 109578.0
920.5280, 110196.0
921.6510, 110028.0
922.7730, 109851.0
923.8960, 110355.0
925.0180, 110732.0
926.1410, 111293.0
927.2630, 111895.0
928.3850, 111618.0
929.5070, 112183.0
930.6280, 112150.0
931.7500, 113574.0
932.8710, 114123.0
933.9920, 114330.0
935.1130, 115689.0
936.2340, 115904.0
937.3550, 117037.0
938.4760, 118060.0
939.5960, 118379.0
940.7160, 119081.0
941.8360, 120406.0
942.9560, 121108.0
944.0760, 122498.0
945.1950, 123680.0
946.3150, 125276.0
947.4340, 126439.0
948.5530, 128007.0
949.6720, 129569.0
950.7900, 129992.0
951.9090, 130953.0
953.0270, 130543.0
954.1460, 129732.0
955.2640, 130109.0
956.3820, 129383.0
957.4990, 128794.0
958.6170, 128881.0
959.7340, 128595.0
960.8520, 128078.0
961.9690, 127744.0
963.0860, 126742.5
964.2020, 125943.0
965.3190, 124396.0
966.4350, 123263.0
967.5520, 121651.0
968.6680, 120202.0
969.7840, 118906.0
970.8990, 117845.8
972.0150, 116935.8
973.1310, 116288.0
974.2460, 115650.0
975.3610, 115412.0
976.4760, 115152.0
977.5910, 114746.0
978.7050, 113990.0
979.8200, 114128.0
980.9340, 113829.0
982.0480, 113511.0
983.1620, 113549.0
984.2760, 113878.0
985.3900, 113268.0
986.5030, 113740.0
987.6160, 113629.0
988.7300, 113822.0
989.8430, 114258.0
990.9550, 114084.0
992.0680, 114417.0
993.1810, 114798.0
994.2930, 115490.0
995.4050, 115931.0
996.5170, 116595.0
997.6290, 117127.0
998.7410, 117996.0
999.8520, 118465.0
1000.964, 118441.0
1002.075, 118428.0
1003.186, 118429.0
1004.297, 117610.0
1005.407, 116768.0
1006.518, 116039.0
1007.628, 115835.0
1008.738, 115471.0
1009.848, 115208.0
1010.958, 114821.0
1012.068, 114875.0
1013.178, 114876.0
1014.287, 114404.0
1015.396, 114181.0
1016.505, 114264.0
1017.614, 114158.0
1018.723, 114573.0
1019.831, 114201.0
1020.940, 114354.0
1022.048, 114454.0
1023.156, 114289.0
1024.264, 114758.0
1025.372, 114451.0
1026.479, 114175.0
1027.587, 114551.0
1028.694, 114795.0
1029.801, 115134.0
1030.908, 115102.0
1032.015, 115111.0
1033.121, 115123.0
1034.228, 114971.0
1035.334, 115403.0
1036.440, 115182.0
1037.546, 114814.0
1038.652, 115017.0
1039.758, 115535.0
1040.863, 115336.0
1041.968, 115226.0
1043.074, 114890.0
1044.178, 115553.0
1045.283, 115652.0
1046.388, 116471.0
1047.492, 115616.0
1048.597, 115610.0
1049.701, 115866.0
1050.805, 115760.0
1051.909, 115973.0
1053.012, 116474.0
1054.116, 115865.0
1055.219, 116619.0
1056.322, 116391.0
1057.425, 116167.0
1058.528, 116799.0
1059.631, 116756.0
1060.733, 117001.0
1061.836, 117259.0
1062.938, 117133.0
1064.040, 117022.0
1065.142, 117245.0
1066.243, 117566.0
1067.345, 117426.0
1068.446, 117367.0
1069.547, 117217.0
1070.648, 117976.0
1071.749, 117907.0
1072.850, 117580.0
1073.951, 118359.0
1075.051, 117794.0
1076.151, 118220.0
1077.251, 118352.0
1078.351, 118390.0
1079.451, 118679.0
1080.550, 118768.0
1081.650, 118787.0
1082.749, 119176.0
1083.848, 119338.0
1084.947, 119144.0
1086.046, 119247.0
1087.144, 119022.0
1088.243, 119159.0
1089.341, 119271.0
1090.439, 119352.7
1091.537, 120085.0
1092.635, 119712.0
1093.732, 120032.0
1094.830, 120195.0
1095.927, 119947.0
1097.024, 120422.0
1098.121, 120459.0
1099.218, 120414.0
1100.314, 120498.0
1101.411, 120436.0
1102.507, 120921.0
1103.603, 120996.0
1104.699, 121017.0
1105.795, 121286.0
1106.890, 121116.0
1107.986, 121528.0
1109.081, 121347.0
1110.176, 121611.0
1111.271, 121916.0
1112.366, 121814.0
1113.461, 122032.0
1114.555, 121888.0
1115.649, 121891.2
1116.744, 121923.0
1117.838, 121970.0
1118.931, 122059.9
1120.025, 122406.0
1121.119, 122295.0
1122.212, 122473.0
1123.305, 122618.0
1124.398, 122506.0
1125.491, 122935.0
1126.584, 122436.0
1127.676, 122548.0
1128.768, 122979.0
1129.861, 123402.0
1130.953, 122884.0
1132.044, 122876.0
1133.136, 123134.0
1134.228, 123314.0
1135.319, 123436.0
1136.410, 123565.8
1137.501, 123651.0
1138.592, 123628.0
1139.683, 123961.0
1140.773, 123821.0
1141.864, 124114.0
1142.954, 124238.0
1144.044, 124621.0
1145.134, 123876.0
1146.224, 124364.0
1147.313, 124484.0
1148.402, 124202.0
1149.492, 124826.0
1150.581, 124849.0
1151.670, 124647.0
1152.758, 124890.0
1153.847, 125027.0
1154.935, 124958.0
1156.024, 125075.0
1157.112, 125144.0
1158.200, 125405.0
1159.287, 125630.0
1160.375, 125670.0
1161.462, 125630.0
1162.550, 125731.0
1163.637, 126042.0
1164.724, 126334.0
1165.810, 126525.0
1166.897, 126563.1
1167.983, 126835.0
1169.070, 126407.0
1170.156, 126617.0
1171.242, 126387.0
1172.327, 126713.0
1173.413, 127266.0
1174.499, 127016.0
1175.584, 127019.0
1176.669, 127518.0
1177.754, 127189.0
1178.839, 127357.0
1179.923, 127519.0
1181.008, 127400.0
1182.092, 128076.0
1183.176, 127599.0
1184.260, 128217.0
1185.344, 128019.0
1186.428, 127901.0
1187.511, 128510.0
1188.595, 128130.0
1189.678, 128421.0
1190.761, 128143.0
1191.843, 128614.0
1192.926, 128370.0
1194.009, 129024.0
1195.091, 128855.0
1196.173, 128689.0
1197.255, 128404.0
1198.337, 128996.0
1199.419, 129308.0
1200.500, 128981.0
1201.582, 129286.0
1202.663, 129316.0
1203.744, 129575.0
1204.825, 129948.0
1205.905, 129626.0
1206.986, 130232.0
1208.066, 130422.0
1209.146, 129617.0
1210.226, 130253.0
1211.306, 130220.0
1212.386, 130348.0
1213.466, 130474.0
1214.545, 130768.0
1215.624, 130732.0
1216.703, 130317.0
1217.782, 130683.0
1218.861, 130854.0
1219.939, 131462.0
1221.018, 131496.0
1222.096, 131383.0
1223.174, 131759.0
1224.252, 131645.0
1225.330, 131835.0
1226.407, 132038.0
1227.485, 132247.0
1228.562, 132266.0
1229.639, 131977.0
1230.716, 132313.0
1231.793, 132253.0
1232.869, 132638.0
1233.946, 132081.0
1235.022, 132644.0
1236.098, 132667.0
1237.174, 132918.0
1238.250, 133029.0
1239.325, 132864.0
1240.401, 132834.0
1241.476, 133203.0
1242.551, 133292.0
1243.626, 133576.0
1244.701, 133813.0
1245.776, 133856.0
1246.850, 133366.0
1247.924, 133413.0
1248.999, 133463.0
1250.073, 133689.0
1251.146, 133452.0
1252.220, 133835.0
