##NAMES=Kyanite
##RRUFFID=R050450
##IDEAL CHEMISTRY=Al_2_OSiO_4_
##LOCALITY=Switzerland
##OWNER=RRUFF
##SOURCE=Marcus Origlieri
##DESCRIPTION=Blue bladed crystals
##STATUS=The identification of this mineral has been confirmed by X-ray diffraction and chemical analysis
##URL=rruff.info/R050450
##MEASURED CHEMISTRY=Al_2.00_OSi_1.00_O_4_
##PIN_ID=M01603
##ORIENTATION=Laser parallel to (-1 0 -1). Fiducial mark perpendicular to laser is parallel to b [0 1 0]
148.7160, 14771.00
149.9470, 14802.00
151.1780, 14800.00
152.4080, 14827.57
153.6380, 14963.00
154.8690, 14900.00
156.0980, 15020.00
157.3280, 15098.00
158.5580, 15012.00
159.7870, 14986.00
161.0170, 15019.00
162.2460, 15021.00
163.4750, 15104.00
164.7030, 15218.00
165.9320, 15140.00
167.1600, 15245.00
168.3890, 15198.00
169.6170, 15119.00
170.8450, 15302.00
172.0730, 15279.00
173.3000, 15380.00
174.5280, 15409.00
175.7550, 15441.00
176.9820, 15507.34
178.2090, 15528.99
179.4350, 15589.00
180.6620, 15527.00
181.8880, 15527.00
183.1150, 15373.00
184.3410, 15354.00
185.5670, 15490.00
186.7920, 15634.00
188.0180, 15570.00
189.2430, 15803.00
190.4690, 15536.00
191.6940, 15644.00
192.9180, 15681.00
194.1430, 15623.00
195.3680, 15812.00
196.5920, 15838.00
197.8160, 15841.00
199.0400, 15928.70
200.2640, 15840.00
201.4880, 16004.00
202.7110, 16049.00
203.9350, 16109.00
205.1580, 16339.00
206.3810, 16498.00
207.6040, 16564.00
208.8270, 16501.00
210.0490, 16547.00
211.2710, 16283.00
212.4940, 16247.00
213.7160, 16004.00
214.9370, 16306.00
216.1590, 16236.00
217.3810, 16302.00
218.6020, 16359.00
219.8230, 16290.00
221.0440, 16380.00
222.2650, 16547.00
223.4860, 16609.00
224.7060, 16724.00
225.9260, 16866.00
227.1470, 17240.00
228.3670, 17141.00
229.5860, 17118.00
230.8060, 16999.00
232.0260, 16648.00
233.2450, 16683.00
234.4640, 16544.00
235.6830, 16531.00
236.9020, 16431.00
238.1200, 16468.00
239.3390, 16555.00
240.5570, 16683.00
241.7750, 16649.00
242.9930, 16726.00
244.2110, 16792.00
245.4290, 17023.00
246.6460, 16908.00
247.8630, 17080.00
249.0810, 16766.00
250.2980, 16955.00
251.5140, 16976.00
252.7310, 17106.00
253.9470, 16947.00
255.1640, 17009.00
256.3800, 16911.00
257.5960, 16974.00
258.8120, 16918.00
260.0270, 17038.00
261.2430, 17102.00
262.4580, 17080.00
263.6730, 17012.00
264.8880, 16912.00
266.1030, 17110.00
267.3170, 17087.00
268.5320, 17326.00
269.7460, 17338.00
270.9600, 17135.00
272.1740, 17424.00
273.3880, 17502.00
274.6010, 17810.00
275.8150, 18172.00
277.0280, 18632.00
278.2410, 19057.00
279.4540, 19275.00
280.6670, 18848.00
281.8790, 18582.00
283.0920, 18367.00
284.3040, 18208.00
285.5160, 17950.00
286.7280, 18193.00
287.9400, 18405.00
289.1510, 18906.00
290.3630, 19679.00
291.5740, 20397.00
292.7850, 21279.00
293.9960, 21192.00
295.2070, 21386.00
296.4170, 21371.00
297.6280, 21900.00
298.8380, 23658.00
300.0480, 26114.00
301.2580, 29357.00
302.4680, 31408.00
303.6770, 30623.00
304.8870, 26911.00
306.0960, 24085.00
307.3050, 21539.00
308.5140, 20249.00
309.7230, 19275.00
310.9310, 18910.00
312.1400, 18702.00
313.3480, 18629.00
314.5560, 18722.00
315.7640, 19208.00
316.9720, 19634.00
318.1790, 19989.00
319.3870, 20402.00
320.5940, 20542.00
321.8010, 21504.00
323.0080, 23077.00
324.2150, 25102.00
325.4210, 27791.00
326.6280, 30316.00
327.8340, 29707.00
329.0400, 26586.00
330.2460, 23987.00
331.4510, 21812.00
332.6570, 20141.00
333.8620, 19491.00
335.0680, 18962.00
336.2730, 18889.00
337.4780, 18687.00
338.6820, 18757.00
339.8870, 18986.00
341.0910, 19140.00
342.2950, 19287.00
343.5000, 19312.00
344.7030, 19149.00
345.9070, 18986.00
347.1110, 18911.00
348.3140, 18862.00
349.5170, 18850.00
350.7200, 18955.23
351.9230, 19270.00
353.1260, 19262.00
354.3290, 19608.00
355.5310, 19805.00
356.7330, 20334.40
357.9350, 20829.00
359.1370, 21667.00
360.3390, 22627.00
361.5400, 23540.00
362.7420, 22770.00
363.9430, 21716.00
365.1440, 20863.00
366.3450, 20341.00
367.5460, 19943.00
368.7460, 20163.00
369.9470, 20153.00
371.1470, 20801.00
372.3470, 21307.00
373.5470, 21835.00
374.7460, 22298.00
375.9460, 22966.00
377.1450, 23726.00
378.3450, 24766.00
379.5440, 24986.00
380.7430, 25125.00
381.9410, 25378.00
383.1400, 26563.00
384.3380, 28110.00
385.5370, 30328.00
386.7350, 30410.00
387.9320, 29172.00
389.1300, 27353.00
390.3280, 26900.00
391.5250, 26849.00
392.7220, 28127.00
393.9190, 28523.00
395.1160, 27002.00
396.3130, 25232.00
397.5100, 23905.00
398.7060, 23419.00
399.9020, 23236.00
401.0980, 23908.00
402.2940, 25697.00
403.4900, 27923.00
404.6860, 30057.00
405.8810, 30452.00
407.0760, 28488.00
408.2710, 26036.00
409.4660, 24006.00
410.6610, 22482.00
411.8550, 21794.00
413.0500, 21177.00
414.2440, 20907.00
415.4380, 20800.00
416.6320, 21001.00
417.8260, 21151.00
419.0190, 21471.00
420.2130, 21450.76
421.4060, 21566.00
422.5990, 21363.00
423.7920, 21112.00
424.9850, 20841.00
426.1770, 20759.00
427.3700, 21046.00
428.5620, 21045.00
429.7540, 21620.00
430.9460, 21960.00
432.1380, 22596.00
433.3290, 23606.00
434.5210, 24482.00
435.7120, 25902.00
436.9030, 27301.00
438.0940, 28330.00
439.2850, 28606.00
440.4750, 28332.00
441.6660, 26911.00
442.8560, 25311.00
444.0460, 24050.00
445.2360, 23426.00
446.4260, 23344.00
447.6160, 23728.00
448.8050, 24132.00
449.9940, 24555.00
451.1830, 23936.00
452.3720, 22893.00
453.5610, 22215.00
454.7500, 21606.00
455.9380, 21257.00
457.1260, 21124.00
458.3150, 21263.00
459.5020, 21166.00
460.6900, 21238.00
461.8780, 21435.00
463.0650, 21603.00
464.2530, 21931.00
465.4400, 22009.00
466.6270, 22202.00
467.8130, 22024.00
469.0000, 22113.00
470.1870, 22066.00
471.3730, 21934.00
472.5590, 21947.00
473.7450, 22344.00
474.9310, 22617.00
476.1160, 22997.00
477.3020, 23935.00
478.4870, 25081.00
479.6720, 26543.00
480.8570, 28358.00
482.0420, 30413.00
483.2270, 33529.00
484.4110, 37753.00
485.5960, 43781.00
486.7800, 49489.00
487.9640, 51276.00
489.1480, 48413.00
490.3310, 42656.00
491.5150, 37412.00
492.6980, 33542.00
493.8810, 30698.00
495.0640, 28805.00
496.2470, 27126.00
497.4300, 25672.00
498.6120, 24869.00
499.7950, 23921.00
500.9770, 23463.00
502.1590, 23098.00
503.3410, 22987.00
504.5220, 22890.00
505.7040, 22646.00
506.8850, 22701.00
508.0660, 22561.00
509.2470, 22575.00
510.4280, 22742.00
511.6090, 22793.00
512.7890, 22550.00
513.9700, 22773.00
515.1500, 22567.00
516.3300, 22513.00
517.5100, 22362.00
518.6900, 22229.00
519.8690, 22220.00
521.0490, 22413.00
522.2280, 22048.00
523.4070, 22127.00
524.5860, 21962.00
525.7640, 22213.00
526.9430, 22185.00
528.1210, 22074.00
529.3000, 22105.00
530.4780, 22183.00
531.6560, 22101.00
532.8330, 22399.00
534.0110, 22287.00
535.1880, 22157.00
536.3650, 22430.00
537.5430, 22337.00
538.7190, 22293.00
539.8960, 22457.00
541.0730, 22529.00
542.2490, 22377.00
543.4250, 22513.00
544.6020, 22733.00
545.7780, 22727.00
546.9530, 22983.00
548.1290, 22701.00
549.3040, 22872.00
550.4800, 22825.00
551.6550, 22830.00
552.8300, 22652.00
554.0040, 22787.00
555.1790, 22881.00
556.3540, 22997.00
557.5280, 23233.00
558.7020, 23449.00
559.8760, 23817.00
561.0500, 24175.00
562.2230, 24880.00
563.3970, 25205.00
564.5700, 25474.00
565.7430, 24883.00
566.9160, 24368.00
568.0890, 24176.00
569.2620, 23624.00
570.4340, 23722.00
571.6070, 23653.00
572.7790, 23529.00
573.9510, 23668.00
575.1230, 23478.00
576.2940, 23397.00
577.4660, 23680.00
578.6370, 23458.00
579.8080, 23667.00
580.9790, 23606.00
582.1500, 23810.00
583.3210, 24076.00
584.4910, 24064.00
585.6620, 24320.00
586.8320, 24386.00
588.0020, 24207.00
589.1720, 24334.00
590.3410, 24101.00
591.5110, 23960.00
592.6800, 23895.00
593.8500, 23829.00
595.0190, 23852.47
596.1880, 23980.00
597.3560, 24027.00
598.5250, 24187.00
599.6930, 24401.00
600.8620, 24494.00
602.0300, 24714.00
603.1970, 25024.00
604.3650, 25517.00
605.5330, 25871.00
606.7000, 26046.00
607.8680, 26279.00
609.0350, 26259.00
610.2020, 25907.00
611.3680, 25385.00
612.5350, 25351.00
613.7010, 25056.00
614.8680, 24996.00
616.0340, 25195.00
617.2000, 25112.00
618.3660, 25075.00
619.5310, 25147.00
620.6970, 25207.00
621.8620, 25148.00
623.0270, 25125.00
624.1920, 25203.00
625.3570, 25134.00
626.5220, 25421.00
627.6860, 25307.00
628.8500, 25696.00
630.0140, 25896.00
631.1780, 25854.00
632.3420, 26084.00
633.5060, 26071.00
634.6700, 26380.00
635.8330, 26478.00
636.9960, 26809.00
638.1590, 26747.00
639.3220, 26714.19
640.4850, 26807.00
641.6470, 26423.00
642.8100, 26007.00
643.9720, 25843.00
645.1340, 25730.00
646.2960, 25859.00
647.4570, 25781.00
648.6190, 25846.00
649.7800, 25962.00
650.9420, 26206.00
652.1030, 26535.00
653.2640, 26618.00
654.4240, 26826.00
655.5850, 27108.00
656.7450, 27563.00
657.9060, 27569.00
659.0660, 27440.00
660.2260, 27312.00
661.3850, 26938.00
662.5450, 26695.00
663.7040, 26292.00
664.8640, 26177.00
666.0230, 26085.00
667.1820, 26166.00
668.3410, 26083.00
669.4990, 26100.00
670.6580, 26044.00
671.8160, 26179.00
672.9740, 26069.00
674.1320, 26008.00
675.2900, 25680.00
676.4480, 25669.00
677.6050, 25873.00
678.7630, 25504.00
679.9200, 25473.00
681.0770, 25612.00
682.2340, 25584.00
683.3900, 25638.00
684.5470, 25556.00
685.7030, 25669.00
686.8590, 25481.00
688.0150, 25566.00
689.1710, 25532.00
690.3270, 25583.00
691.4830, 25649.00
692.6380, 25628.00
693.7930, 25703.23
694.9480, 25647.00
696.1030, 25750.00
697.2580, 25767.00
698.4130, 25677.00
699.5670, 25918.00
700.7210, 25981.00
701.8750, 25916.00
703.0290, 25991.00
704.1830, 25973.00
705.3370, 25934.00
706.4900, 26120.00
707.6430, 26123.00
708.7970, 25782.00
709.9490, 26054.00
711.1020, 25985.00
712.2550, 25756.00
713.4070, 25960.00
714.5600, 26027.00
715.7120, 26081.00
716.8640, 26148.00
718.0160, 26194.28
719.1670, 26237.98
720.3190, 26286.00
721.4700, 26294.00
722.6210, 26337.00
723.7720, 26325.12
724.9230, 26379.00
726.0740, 26388.00
727.2250, 26209.00
728.3750, 26359.00
729.5250, 26408.00
730.6750, 26334.00
731.8250, 26613.00
732.9750, 26544.00
734.1240, 26469.00
735.2740, 26740.00
736.4230, 26710.00
737.5720, 26472.00
738.7210, 26848.00
739.8700, 26723.00
741.0190, 26704.00
742.1670, 26806.00
743.3150, 26766.00
744.4630, 26816.00
745.6110, 26978.00
746.7590, 26760.00
747.9070, 26901.00
749.0540, 26832.00
750.2020, 26873.00
751.3490, 26866.00
752.4960, 26867.00
753.6430, 26861.00
754.7890, 27020.00
755.9360, 27106.00
757.0820, 27077.00
758.2280, 27035.00
759.3740, 27057.00
760.5200, 27064.00
761.6660, 27394.00
762.8120, 27229.00
763.9570, 27331.00
765.1020, 27542.00
766.2470, 27351.00
767.3920, 27418.00
768.5370, 27450.00
769.6810, 27443.00
770.8260, 27509.00
771.9700, 27541.00
773.1140, 27526.00
774.2580, 27549.00
775.4020, 27691.00
776.5460, 27649.00
777.6890, 27786.00
778.8320, 27673.00
779.9750, 27611.00
781.1180, 27704.00
782.2610, 27772.00
783.4040, 27861.00
784.5460, 27888.00
785.6890, 28016.00
786.8310, 28011.54
787.9730, 27862.00
789.1150, 28015.00
790.2560, 28003.00
791.3980, 27975.00
792.5390, 28026.00
793.6810, 28011.00
794.8220, 28076.61
795.9630, 28134.71
797.1030, 28165.00
798.2440, 28278.00
799.3840, 28218.00
800.5240, 28263.00
801.6650, 28402.00
802.8040, 28417.00
803.9440, 28383.00
805.0840, 28433.00
806.2230, 28543.00
807.3630, 28499.00
808.5020, 28431.00
809.6410, 28530.00
810.7790, 28789.00
811.9180, 28612.00
813.0570, 28701.00
814.1950, 29065.00
815.3330, 28822.00
816.4710, 28931.00
817.6090, 28995.00
818.7470, 28920.00
819.8840, 28750.00
821.0220, 28891.00
822.1590, 28802.00
823.2960, 29002.00
824.4330, 29102.00
825.5690, 29007.00
826.7060, 29114.00
827.8420, 29192.00
828.9790, 29124.00
830.1150, 29208.00
831.2510, 29086.00
832.3860, 29294.00
833.5220, 29448.00
834.6570, 29254.00
835.7930, 29230.00
836.9280, 29328.00
838.0630, 29364.00
839.1980, 29439.28
840.3320, 29663.00
841.4670, 29580.00
842.6010, 29757.00
843.7350, 29750.00
844.8690, 29831.00
846.0030, 29682.00
847.1370, 29877.00
848.2700, 29943.00
849.4040, 30253.00
850.5370, 30145.00
851.6700, 30117.00
852.8030, 30044.00
853.9360, 30280.00
855.0680, 30323.00
856.2000, 30540.00
857.3330, 30542.00
858.4650, 30606.00
859.5970, 30445.00
860.7290, 30587.00
861.8600, 30717.00
862.9920, 30697.00
864.1230, 30793.00
865.2540, 30845.00
866.3850, 31114.00
867.5160, 30801.00
868.6460, 30834.00
869.7770, 31092.00
870.9070, 31107.00
872.0370, 31188.25
873.1670, 31210.00
874.2970, 31299.00
875.4270, 31246.00
876.5570, 31342.00
877.6860, 31357.54
878.8150, 31530.00
879.9440, 31436.00
881.0730, 31586.00
882.2020, 31666.00
883.3300, 32107.00
884.4590, 32152.00
885.5870, 32504.00
886.7150, 32588.00
887.8430, 32858.00
888.9710, 33065.00
890.0990, 33206.00
891.2260, 33369.00
892.3530, 33517.00
893.4810, 33307.00
894.6080, 33469.00
895.7340, 33459.00
896.8610, 33492.00
897.9880, 33445.00
899.1140, 33681.00
900.2400, 33491.00
901.3660, 33844.00
902.4920, 33907.00
903.6180, 33929.00
904.7430, 33607.00
905.8690, 33582.00
906.9940, 33220.00
908.1190, 33401.00
909.2440, 33370.00
910.3690, 32925.00
911.4930, 33056.00
912.6180, 33205.00
913.7420, 33217.00
914.8660, 33489.00
915.9900, 33248.00
917.1140, 33143.00
918.2380, 33370.00
919.3610, 33287.00
920.4850, 33647.00
921.6080, 33831.00
922.7310, 33815.00
923.8540, 33917.00
924.9760, 34059.00
926.0990, 34276.02
927.2210, 34734.00
928.3440, 34844.00
929.4660, 35265.00
930.5880, 35553.00
931.7090, 35780.00
932.8310, 36215.00
933.9520, 36665.00
935.0740, 37192.00
936.1950, 37594.00
937.3160, 38107.00
938.4360, 38690.00
939.5570, 39522.00
940.6780, 39846.00
941.7980, 40597.00
942.9180, 41366.00
944.0380, 42442.00
945.1580, 43472.00
946.2780, 44511.00
947.3970, 45654.00
948.5170, 46955.00
949.6360, 48063.00
950.7550, 48781.00
951.8740, 49213.11
952.9930, 49387.00
954.1110, 49158.00
955.2300, 48790.00
956.3480, 48011.00
957.4660, 47273.00
958.5840, 46683.00
959.7020, 46489.00
960.8190, 46667.00
961.9370, 46362.00
963.0540, 46145.00
964.1710, 45632.00
965.2880, 44732.00
966.4050, 43470.00
967.5220, 42481.00
968.6380, 41126.00
969.7550, 40443.00
970.8710, 39342.00
971.9870, 38675.00
973.1030, 38112.00
974.2190, 37401.00
975.3340, 36984.00
976.4500, 36929.00
977.5650, 36399.00
978.6800, 36078.00
979.7950, 35783.00
980.9100, 35568.00
982.0250, 35297.00
983.1390, 35358.00
984.2530, 35235.00
985.3680, 35121.00
986.4820, 35234.00
987.5950, 35005.00
988.7090, 35191.00
989.8230, 35026.00
990.9360, 35272.00
992.0490, 35329.00
993.1620, 35407.00
994.2750, 35541.00
995.3880, 35757.00
996.5010, 35924.00
997.6130, 36423.00
998.7250, 36578.00
999.8370, 36978.00
1000.949, 37665.00
1002.061, 37871.00
1003.173, 37778.00
1004.284, 37414.00
1005.396, 37213.00
1006.507, 36699.00
1007.618, 36287.00
1008.729, 35991.00
1009.839, 35782.00
1010.950, 35571.00
1012.060, 35432.69
1013.171, 35347.00
1014.281, 35339.00
1015.391, 35292.00
1016.500, 35482.00
1017.610, 35281.00
1018.719, 35449.00
1019.829, 35419.71
1020.938, 35492.00
1022.047, 35358.00
1023.156, 35444.00
1024.264, 35294.00
1025.373, 35553.00
1026.481, 35375.00
1027.589, 35484.00
1028.697, 35543.00
1029.805, 35509.00
1030.913, 35569.54
1032.020, 35543.00
1033.128, 35593.00
1034.235, 35596.00
1035.342, 35616.00
1036.449, 35579.00
1037.556, 35565.00
1038.663, 35502.00
1039.769, 35619.00
1040.875, 35853.00
1041.981, 35732.00
1043.087, 35659.00
1044.193, 35956.00
1045.299, 35967.00
1046.404, 35943.00
1047.510, 36077.00
1048.615, 35922.00
1049.720, 35925.00
1050.825, 35736.00
1051.930, 36040.00
1053.034, 36129.00
1054.139, 36287.00
1055.243, 36239.00
1056.347, 36276.00
1057.451, 36281.00
1058.555, 36446.00
1059.658, 36330.00
1060.762, 36344.00
1061.865, 36461.00
1062.968, 36417.00
1064.071, 36607.00
1065.174, 36604.64
1066.277, 36598.00
1067.380, 36639.00
1068.482, 36743.00
1069.584, 36686.00
1070.686, 36691.00
1071.788, 36865.00
1072.890, 36831.00
1073.992, 36829.00
1075.093, 36789.00
1076.194, 36910.00
1077.295, 36915.00
1078.396, 37101.00
1079.497, 37182.97
1080.598, 37199.00
1081.698, 37418.00
1082.799, 37293.00
1083.899, 37379.00
1084.999, 37569.00
1086.099, 37304.00
1087.199, 37413.00
1088.298, 37531.00
1089.398, 37196.00
1090.497, 37571.00
1091.596, 37279.00
1092.695, 37428.00
1093.794, 37471.00
1094.892, 37573.00
1095.991, 37411.00
1097.089, 37874.00
1098.187, 37953.00
1099.285, 37897.00
1100.383, 37644.00
1101.481, 37976.00
1102.579, 37761.00
1103.676, 37810.00
1104.773, 37953.00
1105.870, 37833.00
1106.967, 38015.00
1108.064, 38113.00
1109.161, 37998.00
1110.257, 38099.00
1111.353, 38203.00
1112.449, 38040.00
1113.545, 38163.00
1114.641, 38385.00
1115.737, 38382.00
1116.832, 38492.05
1117.928, 38167.00
1119.023, 38570.00
1120.118, 38527.00
1121.213, 38530.00
1122.308, 38906.00
1123.402, 38785.00
1124.497, 38558.00
1125.591, 38691.00
1126.685, 38665.00
1127.779, 38967.00
1128.873, 38876.00
1129.967, 38989.00
1131.060, 38792.00
1132.153, 38740.00
1133.247, 38963.00
1134.340, 39183.00
1135.433, 38891.00
1136.525, 39133.00
1137.618, 39053.00
1138.710, 39258.00
1139.802, 39270.00
1140.895, 39072.00
1141.987, 39012.00
1143.078, 39365.00
1144.170, 39123.00
1145.261, 39451.00
1146.353, 39469.00
1147.444, 39499.00
1148.535, 39621.00
1149.626, 39574.84
1150.716, 39661.00
1151.807, 39585.00
1152.897, 39427.00
1153.988, 39518.00
1155.078, 39597.00
1156.168, 39567.00
1157.257, 39690.00
1158.347, 39668.00
1159.436, 39844.00
1160.526, 39732.00
1161.615, 39800.00
1162.704, 40084.00
1163.793, 40018.00
1164.881, 39976.00
1165.970, 40013.00
1167.058, 40033.00
1168.147, 40070.05
1169.235, 40241.00
1170.323, 40270.00
1171.410, 40226.00
1172.498, 40501.00
1173.585, 40330.00
1174.673, 40445.00
1175.760, 40337.00
1176.847, 40591.00
1177.934, 40662.00
1179.020, 40291.00
1180.107, 40691.00
1181.193, 40641.00
1182.279, 40608.00
1183.365, 40923.00
1184.451, 40508.00
1185.537, 40644.00
1186.623, 40842.00
1187.708, 40441.00
1188.793, 40614.00
1189.878, 41094.00
1190.963, 40961.00
1192.048, 41240.00
1193.133, 41101.00
1194.217, 40791.00
1195.302, 40927.00
1196.386, 41237.00
1197.470, 41058.00
1198.554, 41289.00
1199.638, 41312.00
1200.721, 41362.00
1201.805, 41340.00
1202.888, 41272.00
1203.971, 41352.01
1205.054, 41389.46
1206.137, 41482.00
1207.219, 41522.00
1208.302, 41642.00
1209.384, 41608.00
1210.466, 41355.00
1211.548, 41685.00
1212.630, 42059.00
1213.712, 41893.00
1214.794, 41734.00
1215.875, 42224.00
1216.956, 42059.00
1218.037, 42223.00
1219.118, 42136.00
1220.199, 42157.00
1221.280, 42183.68
1222.360, 42263.00
1223.441, 42219.00
1224.521, 42483.00
1225.601, 42610.00
1226.681, 42897.00
1227.760, 42576.00
1228.840, 42612.00
1229.919, 42906.00
1230.999, 42242.00
1232.078, 42390.00
1233.157, 42810.00
1234.236, 42591.00
1235.314, 42905.00
1236.393, 42773.00
1237.471, 42762.00
1238.549, 42948.00
1239.627, 43117.00
1240.705, 43073.00
1241.783, 43203.00
1242.860, 43118.00
1243.938, 43310.00
1245.015, 43532.00
1246.092, 43026.00
1247.169, 43349.00
1248.246, 43322.00
1249.323, 43248.00
1250.399, 43422.00
1251.475, 43798.00
1252.552, 43370.00
1253.628, 43729.00
1254.703, 43986.00
1255.779, 43520.00
1256.855, 43923.00
1257.930, 43954.00
1259.005, 43962.00
1260.080, 43960.00
1261.155, 44083.00
1262.230, 44139.00
1263.305, 44067.00
1264.379, 44419.00
1265.454, 44053.00
1266.528, 44341.00
1267.602, 43994.00
1268.676, 44319.00
1269.750, 44317.00
1270.823, 44422.00
1271.897, 44480.00
1272.970, 44341.00
1274.043, 44409.00
1275.116, 44768.00
1276.189, 44576.00
1277.261, 44597.00
1278.334, 44674.00
1279.406, 44541.00
1280.478, 44394.00
1281.550, 44657.00
1282.622, 44659.00
1283.694, 44787.00
1284.766, 44809.00
1285.837, 44814.00
1286.908, 44886.00
1287.979, 44912.00
1289.050, 45107.00
1290.121, 45208.00
1291.192, 45185.00
1292.262, 45158.00
1293.333, 45271.38
1294.403, 45425.00
1295.473, 45489.00
1296.543, 45523.00
1297.613, 45717.00
1298.682, 45625.00
1299.752, 45945.00
1300.821, 45936.00
1301.890, 45767.00
1302.959, 45986.00
1304.028, 45892.00
1305.096, 45901.00
1306.165, 46092.00
1307.233, 46309.00
1308.301, 46048.00
1309.370, 46071.00
1310.437, 45976.00
1311.505, 46177.00
1312.573, 46261.00
1313.640, 46447.00
1314.708, 46329.00
1315.775, 46561.00
1316.842, 46642.00
1317.908, 46392.00
1318.975, 46741.00
1320.042, 46796.00
1321.108, 46761.00
1322.174, 46868.66
1323.240, 46739.00
1324.306, 46755.00
1325.372, 46721.00
1326.438, 46492.00
