##NAMES=Kyanite
##RRUFFID=R050450
##IDEAL CHEMISTRY=Al_2_OSiO_4_
##LOCALITY=Switzerland
##OWNER=RRUFF
##SOURCE=Marcus Origlieri
##DESCRIPTION=Blue bladed crystals
##STATUS=The identification of this mineral has been confirmed by X-ray diffraction and chemical analysis
##URL=rruff.info/R050450
##MEASURED CHEMISTRY=Al_2.00_OSi_1.00_O_4_
##PIN_ID=M00770
##ORIENTATION=Laser parallel to (0 1 -1). Fiducial mark perpendicular to laser is parallel to -a [-1 0 0]
159.7870, 7509.000
161.0170, 7454.000
162.2460, 7441.000
163.4750, 7458.000
164.7030, 7552.000
165.9320, 7522.000
167.1600, 7479.000
168.3890, 7684.000
169.6170, 7710.000
170.8450, 7571.000
172.0730, 7673.000
173.3000, 7723.000
174.5280, 7657.000
175.7550, 7683.000
176.9820, 7697.000
178.2090, 7791.000
179.4350, 7719.000
180.6620, 7803.000
181.8880, 7626.000
183.1150, 7464.000
184.3410, 7513.000
185.5670, 7462.000
186.7920, 7525.000
188.0180, 7530.000
189.2430, 7565.000
190.4690, 7539.000
191.6940, 7585.000
192.9180, 7613.000
194.1430, 7586.000
195.3680, 7687.000
196.5920, 7604.000
197.8160, 7619.000
199.0400, 7730.000
200.2640, 7684.000
201.4880, 7827.000
202.7110, 7834.000
203.9350, 7880.000
205.1580, 7857.000
206.3810, 7851.000
207.6040, 7845.571
208.8270, 7863.000
210.0490, 7799.000
211.2710, 7776.000
212.4940, 7738.000
213.7160, 7892.000
214.9370, 8045.000
216.1590, 8155.000
217.3810, 8448.000
218.6020, 8856.000
219.8230, 8976.000
221.0440, 8990.000
222.2650, 9333.000
223.4860, 9773.000
224.7060, 10245.00
225.9260, 10513.00
227.1470, 10588.00
228.3670, 10475.00
229.5860, 9991.000
230.8060, 9605.000
232.0260, 9126.000
233.2450, 8820.456
234.4640, 8421.000
235.6830, 8274.000
236.9020, 8261.000
238.1200, 8114.000
239.3390, 8039.000
240.5570, 8138.000
241.7750, 8135.000
242.9930, 8168.000
244.2110, 8077.000
245.4290, 8073.000
246.6460, 8035.000
247.8630, 8109.000
249.0810, 8101.000
250.2980, 8106.000
251.5140, 7978.000
252.7310, 8084.000
253.9470, 7995.000
255.1640, 7962.000
256.3800, 8014.000
257.5960, 7925.000
258.8120, 8157.000
260.0270, 8174.000
261.2430, 8442.000
262.4580, 8143.000
263.6730, 7958.000
264.8880, 8003.000
266.1030, 7989.000
267.3170, 8047.000
268.5320, 8311.000
269.7460, 8496.000
270.9600, 8761.000
272.1740, 8805.000
273.3880, 8801.000
274.6010, 9040.000
275.8150, 9321.000
277.0280, 9587.000
278.2410, 9727.000
279.4540, 9584.000
280.6670, 9731.000
281.8790, 9687.000
283.0920, 10111.00
284.3040, 10423.00
285.5160, 10462.00
286.7280, 10635.00
287.9400, 11601.00
289.1510, 12772.00
290.3630, 14161.00
291.5740, 16179.00
292.7850, 19025.00
293.9960, 21172.00
295.2070, 21882.00
296.4170, 21550.00
297.6280, 23346.00
298.8380, 27641.00
300.0480, 31269.00
301.2580, 32937.00
302.4680, 32714.00
303.6770, 30558.00
304.8870, 26432.00
306.0960, 21375.00
307.3050, 16648.00
308.5140, 13181.00
309.7230, 11267.00
310.9310, 10239.00
312.1400, 9946.000
313.3480, 9754.000
314.5560, 9959.000
315.7640, 10227.00
316.9720, 11136.00
318.1790, 12113.00
319.3870, 12746.00
320.5940, 13011.00
321.8010, 13723.00
323.0080, 15069.00
324.2150, 16686.00
325.4210, 17553.00
326.6280, 17537.00
327.8340, 16862.00
329.0400, 15414.00
330.2460, 13549.00
331.4510, 11884.00
332.6570, 10474.00
333.8620, 9724.000
335.0680, 9376.000
336.2730, 9200.000
337.4780, 9225.000
338.6820, 9267.000
339.8870, 9356.000
341.0910, 9386.000
342.2950, 9405.739
343.5000, 9396.000
344.7030, 9383.000
345.9070, 9372.000
347.1110, 9290.000
348.3140, 9405.000
349.5170, 9610.000
350.7200, 10095.00
351.9230, 11295.00
353.1260, 12347.00
354.3290, 13050.00
355.5310, 14318.35
356.7330, 14193.00
357.9350, 16403.00
359.1370, 17800.00
360.3390, 18545.00
361.5400, 18596.00
362.7420, 17940.00
363.9430, 16735.00
365.1440, 15307.00
366.3450, 14084.00
367.5460, 13295.00
368.7460, 13241.00
369.9470, 13745.00
371.1470, 14286.00
372.3470, 14658.00
373.5470, 14602.00
374.7460, 14667.00
375.9460, 14687.00
377.1450, 14761.00
378.3450, 14906.00
379.5440, 14655.00
380.7430, 14931.00
381.9410, 15754.00
383.1400, 17603.00
384.3380, 19937.00
385.5370, 21871.00
386.7350, 22301.00
387.9320, 21893.00
389.1300, 22443.00
390.3280, 23959.00
391.5250, 25060.00
392.7220, 24919.00
393.9190, 24451.00
395.1160, 23637.00
396.3130, 22308.00
397.5100, 20925.00
398.7060, 19293.00
399.9020, 18504.00
401.0980, 19909.00
402.2940, 21864.00
403.4900, 23646.00
404.6860, 24067.00
405.8810, 23242.00
407.0760, 21505.00
408.2710, 19225.00
409.4660, 16916.00
410.6610, 15174.00
411.8550, 14379.00
413.0500, 14285.00
414.2440, 14273.00
415.4380, 14466.00
416.6320, 15255.00
417.8260, 16261.00
419.0190, 16882.00
420.2130, 17117.00
421.4060, 16350.00
422.5990, 15502.00
423.7920, 14321.00
424.9850, 13265.00
426.1770, 12808.00
427.3700, 12756.00
428.5620, 13247.00
429.7540, 14033.00
430.9460, 15183.00
432.1380, 16368.00
433.3290, 17780.00
434.5210, 18859.00
435.7120, 20198.00
436.9030, 21597.00
438.0940, 22086.00
439.2850, 21898.00
440.4750, 20693.00
441.6660, 19053.00
442.8560, 17067.00
444.0460, 15216.00
445.2360, 13850.00
446.4260, 13289.00
447.6160, 13006.00
448.8050, 12768.00
449.9940, 12569.00
451.1830, 12082.00
452.3720, 11592.00
453.5610, 11159.00
454.7500, 10817.00
455.9380, 10576.00
457.1260, 10579.00
458.3150, 10548.00
459.5020, 10650.00
460.6900, 10860.00
461.8780, 11130.00
463.0650, 11383.00
464.2530, 11591.00
465.4400, 11718.00
466.6270, 11926.00
467.8130, 11973.00
469.0000, 11824.00
470.1870, 11968.00
471.3730, 12162.00
472.5590, 12563.00
473.7450, 12967.00
474.9310, 13936.00
476.1160, 15766.00
477.3020, 18623.00
478.4870, 22719.00
479.6720, 27879.00
480.8570, 32048.00
482.0420, 36139.00
483.2270, 41053.00
484.4110, 48073.00
485.5960, 54781.00
486.7800, 57490.00
487.9640, 57172.00
489.1480, 53411.00
490.3310, 47346.00
491.5150, 40130.00
492.6980, 34189.00
493.8810, 29159.00
495.0640, 25487.00
496.2470, 22516.00
497.4300, 20180.00
498.6120, 18035.00
499.7950, 16542.00
500.9770, 15456.00
502.1590, 14832.00
503.3410, 14676.00
504.5220, 14558.00
505.7040, 14582.00
506.8850, 14768.00
508.0660, 14858.00
509.2470, 15158.00
510.4280, 15488.00
511.6090, 15427.00
512.7890, 15032.00
513.9700, 14821.00
515.1500, 14306.00
516.3300, 13544.00
517.5100, 12855.00
518.6900, 12336.00
519.8690, 11778.00
521.0490, 11552.00
522.2280, 11194.00
523.4070, 11125.00
524.5860, 11121.00
525.7640, 10923.00
526.9430, 10749.00
528.1210, 10997.00
529.3000, 10759.00
530.4780, 10933.00
531.6560, 10661.00
532.8330, 10734.00
534.0110, 10803.00
535.1880, 10980.00
536.3650, 11119.01
537.5430, 11275.00
538.7190, 11487.00
539.8960, 11718.00
541.0730, 11895.00
542.2490, 12037.00
543.4250, 12507.00
544.6020, 12823.00
545.7780, 12842.00
546.9530, 12995.00
548.1290, 12868.00
549.3040, 12944.00
550.4800, 12631.00
551.6550, 12479.00
552.8300, 12742.00
554.0040, 12900.00
555.1790, 13531.00
556.3540, 14342.00
557.5280, 15097.00
558.7020, 15729.00
559.8760, 16721.00
561.0500, 18038.00
562.2230, 19229.00
563.3970, 20003.00
564.5700, 20066.00
565.7430, 20000.00
566.9160, 19388.00
568.0890, 19131.00
569.2620, 18857.00
570.4340, 19071.00
571.6070, 19534.00
572.7790, 19390.00
573.9510, 19224.00
575.1230, 18124.00
576.2940, 17195.00
577.4660, 15745.00
578.6370, 14653.00
579.8080, 13613.00
580.9790, 13229.00
582.1500, 12571.00
583.3210, 12552.00
584.4910, 12319.00
585.6620, 12274.00
586.8320, 12199.00
588.0020, 12170.00
589.1720, 12024.00
590.3410, 11930.00
591.5110, 11815.00
592.6800, 11771.00
593.8500, 11725.00
595.0190, 11758.00
596.1880, 11849.00
597.3560, 11906.00
598.5250, 12058.00
599.6930, 12224.00
600.8620, 12449.00
602.0300, 12575.00
603.1970, 12994.00
604.3650, 12840.00
605.5330, 13204.00
606.7000, 13180.00
607.8680, 13102.00
609.0350, 12793.00
610.2020, 12698.00
611.3680, 12258.00
612.5350, 12172.00
613.7010, 12110.00
614.8680, 11971.00
616.0340, 12134.00
617.2000, 12226.00
618.3660, 12239.00
619.5310, 12262.46
620.6970, 12196.00
621.8620, 12144.00
623.0270, 12102.00
624.1920, 11952.00
625.3570, 11989.00
626.5220, 12058.00
627.6860, 12221.00
628.8500, 12394.00
630.0140, 12577.26
631.1780, 12880.00
632.3420, 13045.00
633.5060, 13401.00
634.6700, 13702.00
635.8330, 14245.00
636.9960, 14347.00
638.1590, 14513.00
639.3220, 14450.00
640.4850, 14328.00
641.6470, 13901.00
642.8100, 13462.00
643.9720, 13211.00
645.1340, 12746.00
646.2960, 12451.00
647.4570, 12353.00
648.6190, 12328.00
649.7800, 12404.00
650.9420, 12407.30
652.1030, 12473.00
653.2640, 12544.00
654.4240, 12589.10
655.5850, 12675.38
656.7450, 12738.00
657.9060, 12853.00
659.0660, 12971.00
660.2260, 13099.00
661.3850, 13152.00
662.5450, 13535.00
663.7040, 13644.00
664.8640, 14117.00
666.0230, 14298.00
667.1820, 14836.00
668.3410, 14855.00
669.4990, 15122.00
670.6580, 15391.00
671.8160, 15239.00
672.9740, 14962.00
674.1320, 14533.00
675.2900, 14097.00
676.4480, 13696.00
677.6050, 13366.00
678.7630, 13087.33
679.9200, 12929.00
681.0770, 12713.00
682.2340, 12643.00
683.3900, 12632.00
684.5470, 12538.00
685.7030, 12567.00
686.8590, 12508.00
688.0150, 12391.00
689.1710, 12433.00
690.3270, 12275.00
691.4830, 12174.00
692.6380, 12194.00
693.7930, 12118.00
694.9480, 12149.00
696.1030, 12160.00
697.2580, 12216.00
698.4130, 12227.00
699.5670, 12208.00
700.7210, 12175.00
701.8750, 12350.00
703.0290, 12341.00
704.1830, 12384.00
705.3370, 12209.00
706.4900, 12333.00
707.6430, 12174.00
708.7970, 12192.00
709.9490, 12247.00
711.1020, 12205.00
712.2550, 12147.00
713.4070, 12249.00
714.5600, 12259.00
715.7120, 12364.00
716.8640, 12704.00
718.0160, 12539.00
719.1670, 12746.00
720.3190, 12726.00
721.4700, 13063.00
722.6210, 13276.00
723.7720, 13255.00
724.9230, 13349.00
726.0740, 13314.00
727.2250, 13275.00
728.3750, 12999.00
729.5250, 12910.00
730.6750, 12860.00
731.8250, 12895.00
732.9750, 12704.00
734.1240, 12671.00
735.2740, 12716.00
736.4230, 12475.00
737.5720, 12620.00
738.7210, 12550.00
739.8700, 12519.00
741.0190, 12545.00
742.1670, 12467.00
743.3150, 12506.00
744.4630, 12443.00
745.6110, 12614.00
746.7590, 12534.00
747.9070, 12616.00
749.0540, 12761.00
750.2020, 12593.00
751.3490, 12638.00
752.4960, 12766.00
753.6430, 12854.00
754.7890, 12850.75
755.9360, 12704.00
757.0820, 12796.00
758.2280, 12821.00
759.3740, 12709.00
760.5200, 12819.00
761.6660, 12848.00
762.8120, 12901.00
763.9570, 12866.00
765.1020, 12840.00
766.2470, 12779.00
767.3920, 12770.00
768.5370, 12819.00
769.6810, 12802.00
770.8260, 13017.00
771.9700, 12843.00
773.1140, 12812.00
774.2580, 12882.00
775.4020, 13064.00
776.5460, 12893.00
777.6890, 12909.00
778.8320, 12911.00
779.9750, 12934.00
781.1180, 12854.00
782.2610, 12920.00
783.4040, 12746.00
784.5460, 13026.00
785.6890, 12966.00
786.8310, 13030.00
787.9730, 13278.00
789.1150, 13285.00
790.2560, 13099.00
791.3980, 13221.00
792.5390, 13265.00
793.6810, 13550.00
794.8220, 13446.00
795.9630, 13740.00
797.1030, 13734.00
798.2440, 13705.00
799.3840, 13793.00
800.5240, 13736.00
801.6650, 13957.00
802.8040, 14013.00
803.9440, 14132.00
805.0840, 14065.00
806.2230, 14254.00
807.3630, 14393.00
808.5020, 14355.00
809.6410, 14546.00
810.7790, 14476.00
811.9180, 14360.00
813.0570, 14479.00
814.1950, 14435.00
815.3330, 14434.00
816.4710, 14418.00
817.6090, 14612.00
818.7470, 14733.00
819.8840, 14698.00
821.0220, 14887.00
822.1590, 14884.20
823.2960, 14899.00
824.4330, 14903.00
825.5690, 14960.00
826.7060, 14874.00
827.8420, 15016.00
828.9790, 14964.00
830.1150, 15038.00
831.2510, 14984.00
832.3860, 15027.00
833.5220, 15111.00
834.6570, 15023.00
835.7930, 15184.00
836.9280, 15179.00
838.0630, 15077.00
839.1980, 15262.00
840.3320, 15209.00
841.4670, 15133.00
842.6010, 15223.00
843.7350, 15166.00
844.8690, 15295.00
846.0030, 15220.00
847.1370, 15214.00
848.2700, 15144.00
849.4040, 15221.00
850.5370, 15403.00
851.6700, 15323.00
852.8030, 15482.00
853.9360, 15511.00
855.0680, 15685.00
856.2000, 15781.00
857.3330, 15942.00
858.4650, 15988.00
859.5970, 16050.00
860.7290, 16133.00
861.8600, 16525.00
862.9920, 16288.00
864.1230, 16579.00
865.2540, 16776.00
866.3850, 16726.00
867.5160, 17202.00
868.6460, 17144.00
869.7770, 17257.00
870.9070, 17660.00
872.0370, 17698.00
873.1670, 18275.00
874.2970, 18556.00
875.4270, 19028.00
876.5570, 19579.00
877.6860, 20352.00
878.8150, 21349.00
879.9440, 22546.42
881.0730, 23942.58
882.2020, 25593.00
883.3300, 27370.00
884.4590, 29418.00
885.5870, 31676.00
886.7150, 34066.00
887.8430, 35965.00
888.9710, 37995.00
890.0990, 39146.00
891.2260, 39835.00
892.3530, 40058.00
893.4810, 39627.00
894.6080, 39790.00
895.7340, 39923.00
896.8610, 40932.00
897.9880, 42150.00
899.1140, 43522.00
900.2400, 45035.00
901.3660, 45170.00
902.4920, 44686.00
903.6180, 42668.00
904.7430, 39857.00
905.8690, 36657.00
906.9940, 33188.00
908.1190, 29863.00
909.2440, 27302.00
910.3690, 25293.00
911.4930, 23512.00
912.6180, 22225.00
913.7420, 21499.00
914.8660, 20759.00
915.9900, 20053.00
917.1140, 19757.00
918.2380, 19276.00
919.3610, 19037.00
920.4850, 18580.00
921.6080, 18389.00
922.7310, 18254.00
923.8540, 18308.00
924.9760, 18286.00
926.0990, 18313.00
927.2210, 18447.51
928.3440, 18704.00
929.4660, 18805.00
930.5880, 18962.00
931.7090, 19277.00
932.8310, 19810.00
933.9520, 20275.00
935.0740, 20545.00
936.1950, 21070.00
937.3160, 21503.00
938.4360, 21869.00
939.5570, 22451.00
940.6780, 22957.00
941.7980, 23599.00
942.9180, 23977.00
944.0380, 24556.00
945.1580, 25319.00
946.2780, 25874.00
947.3970, 26781.00
948.5170, 26997.00
949.6360, 27798.00
950.7550, 28235.00
951.8740, 28215.00
952.9930, 28193.00
954.1110, 28139.00
955.2300, 27996.00
956.3480, 27651.00
957.4660, 26993.00
958.5840, 26590.00
959.7020, 26310.00
960.8190, 26348.00
961.9370, 26048.00
963.0540, 25421.00
964.1710, 24908.00
965.2880, 24329.00
966.4050, 23290.00
967.5220, 22425.00
968.6380, 21669.00
969.7550, 21085.00
970.8710, 20335.00
971.9870, 19812.16
973.1030, 19303.00
974.2190, 18869.00
975.3340, 18499.00
976.4500, 18243.83
977.5650, 17986.00
978.6800, 17745.00
979.7950, 17640.00
980.9100, 17441.00
982.0250, 17332.00
983.1390, 17228.00
984.2530, 17212.00
985.3680, 17040.00
986.4820, 17058.00
987.5950, 16955.93
988.7090, 16880.00
989.8230, 16931.00
990.9360, 16961.00
992.0490, 16989.00
993.1620, 16982.00
994.2750, 17000.00
995.3880, 17111.56
996.5010, 17186.00
997.6130, 17399.00
998.7250, 17624.00
999.8370, 17860.00
1000.949, 18143.00
1002.061, 18161.00
1003.173, 18229.00
1004.284, 17852.00
1005.396, 17555.00
1006.507, 17556.00
1007.618, 17067.00
1008.729, 16967.00
1009.839, 16991.00
1010.950, 16864.00
1012.060, 16773.00
1013.171, 16752.00
1014.281, 16781.00
1015.391, 16760.00
1016.500, 16789.47
1017.610, 16803.45
1018.719, 16826.00
1019.829, 16844.00
1020.938, 16821.00
1022.047, 16837.00
1023.156, 16807.67
1024.264, 16698.00
1025.373, 16706.00
1026.481, 16686.00
1027.589, 16544.00
1028.697, 16785.00
1029.805, 16702.00
1030.913, 16749.00
1032.020, 16684.00
1033.128, 16737.00
1034.235, 16640.00
1035.342, 16593.00
1036.449, 16632.00
1037.556, 16672.00
1038.663, 16824.00
1039.769, 16871.00
1040.875, 16793.00
1041.981, 16807.00
1043.087, 16687.00
1044.193, 16812.00
1045.299, 16781.00
1046.404, 16766.00
1047.510, 16927.00
1048.615, 16902.00
1049.720, 16780.00
1050.825, 16706.00
1051.930, 16902.00
1053.034, 16835.00
1054.139, 16880.00
1055.243, 16817.00
1056.347, 16733.00
1057.451, 16855.00
1058.555, 17042.00
1059.658, 16927.00
1060.762, 16756.00
1061.865, 16943.00
1062.968, 16817.00
1064.071, 16844.00
1065.174, 17012.00
1066.277, 17190.00
1067.380, 17098.00
1068.482, 17112.00
1069.584, 17058.00
1070.686, 17168.00
1071.788, 17297.00
1072.890, 17264.00
1073.992, 17301.00
1075.093, 17330.00
1076.194, 17290.00
1077.295, 17226.00
1078.396, 17280.00
1079.497, 17321.00
1080.598, 17500.00
1081.698, 17519.00
1082.799, 17546.00
1083.899, 17658.00
1084.999, 17589.00
1086.099, 17653.94
1087.199, 17681.00
1088.298, 17646.00
1089.398, 17573.00
1090.497, 17457.00
1091.596, 17466.37
1092.695, 17556.00
1093.794, 17509.00
1094.892, 17605.00
1095.991, 17764.00
1097.089, 17616.00
1098.187, 17543.00
1099.285, 17672.00
1100.383, 17735.00
1101.481, 17818.00
1102.579, 17760.00
1103.676, 17827.00
1104.773, 18011.00
1105.870, 18161.00
1106.967, 18342.52
1108.064, 18683.00
1109.161, 18752.00
1110.257, 19015.00
1111.353, 19212.00
1112.449, 19179.00
1113.545, 19338.00
1114.641, 19326.00
1115.737, 19377.00
1116.832, 19258.42
1117.928, 19046.00
1119.023, 18871.00
1120.118, 18770.00
1121.213, 18462.00
1122.308, 18474.00
1123.402, 18611.00
1124.497, 18423.00
1125.591, 18479.00
1126.685, 18237.00
1127.779, 18314.00
1128.873, 18490.00
1129.967, 18355.00
1131.060, 18152.00
1132.153, 18512.00
1133.247, 18511.00
1134.340, 18669.00
1135.433, 18478.00
1136.525, 18390.00
1137.618, 18600.00
1138.710, 18357.00
1139.802, 18486.00
1140.895, 18309.00
1141.987, 18462.00
1143.078, 18349.00
1144.170, 18560.00
1145.261, 18313.00
1146.353, 18377.00
1147.444, 18439.00
1148.535, 18467.00
1149.626, 18466.00
1150.716, 18531.00
1151.807, 18537.66
1152.897, 18629.00
1153.988, 18575.00
1155.078, 18621.28
1156.168, 18626.00
1157.257, 18749.00
1158.347, 18843.00
1159.436, 18956.00
1160.526, 18933.00
1161.615, 18917.00
1162.704, 18742.00
1163.793, 18731.00
1164.881, 18605.00
1165.970, 18788.00
1167.058, 18614.00
1168.147, 18800.00
1169.235, 18890.00
1170.323, 18690.00
1171.410, 18650.00
1172.498, 18748.00
1173.585, 18827.00
1174.673, 18870.00
1175.760, 18995.00
1176.847, 19076.02
1177.934, 18956.00
1179.020, 19323.00
1180.107, 19413.00
1181.193, 19618.00
1182.279, 19523.00
1183.365, 19815.00
1184.451, 19813.00
1185.537, 19783.00
1186.623, 19978.00
1187.708, 20100.00
1188.793, 19929.00
1189.878, 19871.00
1190.963, 19770.00
1192.048, 19641.00
1193.133, 19586.00
1194.217, 19405.00
1195.302, 19369.00
1196.386, 19357.00
1197.470, 19227.00
1198.554, 19243.52
1199.638, 19318.00
1200.721, 19197.00
1201.805, 19245.00
1202.888, 19194.00
1203.971, 19212.00
1205.054, 19316.00
1206.137, 19324.00
1207.219, 19362.00
1208.302, 19388.00
1209.384, 19468.00
1210.466, 19661.00
1211.548, 19622.00
1212.630, 19910.00
1213.712, 19812.00
1214.794, 20005.00
1215.875, 20073.00
1216.956, 19999.00
1218.037, 20291.00
1219.118, 20246.00
1220.199, 20374.00
1221.280, 20378.51
1222.360, 20592.00
1223.441, 20315.00
1224.521, 20574.00
1225.601, 20592.00
1226.681, 20571.00
1227.760, 20726.00
1228.840, 20915.00
1229.919, 20835.00
1230.999, 20795.00
1232.078, 21363.00
1233.157, 21524.00
1234.236, 21423.00
1235.314, 20944.00
1236.393, 20802.00
1237.471, 20699.74
1238.549, 20814.00
1239.627, 20752.00
1240.705, 20871.00
1241.783, 20912.61
1242.860, 20862.00
1243.938, 21046.00
1245.015, 20970.00
1246.092, 21041.00
1247.169, 21082.00
1248.246, 21200.00
1249.323, 21177.00
1250.399, 21254.00
1251.475, 21432.00
1252.552, 21188.00
1253.628, 21259.00
1254.703, 21422.00
1255.779, 21367.00
1256.855, 21211.00
1257.930, 21300.00
1259.005, 21201.00
1260.080, 21366.00
1261.155, 21199.00
1262.230, 21101.00
1263.305, 21081.00
1264.379, 21117.00
1265.454, 21051.00
1266.528, 21035.00
1267.602, 21114.00
1268.676, 20912.00
1269.750, 21064.00
1270.823, 21165.00
1271.897, 20795.00
1272.970, 20896.00
1274.043, 21036.00
1275.116, 20792.00
1276.189, 20892.00
1277.261, 21033.00
1278.334, 20954.00
1279.406, 20975.00
1280.478, 21086.00
1281.550, 20965.00
1282.622, 21004.00
1283.694, 21084.00
1284.766, 21218.00
1285.837, 20985.00
1286.908, 21174.00
1287.979, 21183.71
1289.050, 21384.00
1290.121, 21344.00
1291.192, 21343.00
1292.262, 21442.00
1293.333, 21682.00
1294.403, 21646.00
1295.473, 21720.00
1296.543, 21672.00
1297.613, 21653.59
1298.682, 21745.00
1299.752, 21585.00
1300.821, 21688.00
1301.890, 21684.00
1302.959, 21657.00
1304.028, 21793.00
1305.096, 21671.00
1306.165, 21492.00
1307.233, 21541.00
1308.301, 21649.00
1309.370, 21689.00
1310.437, 21695.00
1311.505, 21723.00
1312.573, 21700.00
1313.640, 21722.00
1314.708, 21581.00
1315.775, 21544.00
1316.842, 21730.00
1317.908, 21496.00
1318.975, 21613.00
1320.042, 21666.00
1321.108, 21583.00
1322.174, 21642.00
1323.240, 21567.00
1324.306, 21657.00
1325.372, 21635.00
1326.438, 21666.00
1327.503, 21672.78
1328.568, 21687.42
1329.634, 21671.00
1330.699, 21705.00
1331.763, 21735.00
1332.828, 21691.00
1333.893, 21665.00
1334.957, 21746.00
1336.021, 21690.00
