##NAMES=Kyanite
##RRUFFID=R040119
##IDEAL CHEMISTRY=Al_2_OSiO_4_
##LOCALITY=Rutherford County, North Carolina, USA
##OWNER=RRUFF
##SOURCE=University of Arizona Mineral Museum
##DESCRIPTION=Blue bladed crystal
##STATUS=The identification of this mineral has been confirmed by X-ray diffraction and chemical analysis
##URL=rruff.info/R040119
##MEASURED CHEMISTRY=(Al_0.99_Fe^3+^_0.01_)_2_OSi_1.00_O_4_
##PIN_ID=L00448
##ORIENTATION=Laser parallel to -a* (-1 0 0). Fiducial mark perpendicular to laser is parallel to b [0 1 0]
127.8490, 47375.00
129.0810, 47430.00
130.3130, 47154.00
131.5450, 46931.00
132.7770, 47364.00
134.0080, 47230.00
135.2390, 47433.00
136.4710, 47290.00
137.7020, 47374.00
138.9320, 47543.00
140.1630, 47854.00
141.3930, 47630.00
142.6240, 47805.00
143.8540, 47794.00
145.0840, 47767.00
146.3140, 47803.00
147.5440, 47788.93
148.7730, 47686.00
150.0020, 47804.00
151.2320, 47786.00
152.4610, 47800.00
153.6900, 48044.00
154.9180, 48021.00
156.1470, 48024.00
157.3750, 48099.00
158.6040, 48528.00
159.8320, 49188.00
161.0600, 49434.00
162.2870, 49744.00
163.5150, 49497.00
164.7420, 48840.00
165.9700, 48486.00
167.1970, 48511.00
168.4240, 48589.00
169.6510, 48452.00
170.8770, 48491.00
172.1040, 48729.00
173.3300, 49038.00
174.5560, 48948.00
175.7820, 49377.00
177.0080, 49439.00
178.2340, 49166.00
179.4590, 48940.00
180.6850, 48907.00
181.9100, 48769.64
183.1350, 48759.00
184.3600, 48719.00
185.5850, 48817.00
186.8090, 48862.00
188.0340, 48735.00
189.2580, 48930.00
190.4820, 49137.00
191.7060, 48930.00
192.9300, 49290.00
194.1530, 49238.00
195.3770, 49508.00
196.6000, 49513.00
197.8230, 49771.00
199.0460, 50221.00
200.2690, 50617.00
201.4910, 51119.00
202.7140, 51369.00
203.9360, 51740.00
205.1580, 52058.00
206.3800, 52147.00
207.6020, 52447.00
208.8240, 52288.00
210.0450, 51996.00
211.2670, 51038.00
212.4880, 50786.00
213.7090, 50603.00
214.9300, 50552.00
216.1510, 50797.00
217.3710, 50894.00
218.5920, 51439.00
219.8120, 51311.00
221.0320, 51653.00
222.2520, 52389.00
223.4720, 52737.00
224.6910, 53008.00
225.9110, 53164.00
227.1300, 53000.00
228.3490, 52307.00
229.5680, 52008.00
230.7870, 51555.00
232.0050, 51359.00
233.2240, 51292.00
234.4420, 51759.00
235.6600, 51479.00
236.8780, 51384.00
238.0960, 51918.00
239.3140, 51727.00
240.5310, 52104.00
241.7490, 52705.00
242.9660, 53727.00
244.1830, 54845.00
245.4000, 55071.00
246.6160, 52657.00
247.8330, 52468.00
249.0490, 52391.00
250.2660, 52556.00
251.4820, 52282.00
252.6980, 52390.00
253.9130, 52289.00
255.1290, 52618.00
256.3440, 52607.00
257.5600, 52451.00
258.7750, 51804.00
259.9900, 51564.00
261.2040, 51321.00
262.4190, 51616.00
263.6330, 51907.00
264.8480, 52506.00
266.0620, 52627.00
267.2760, 53055.00
268.4900, 53813.00
269.7030, 54902.00
270.9170, 55941.00
272.1300, 57250.00
273.3430, 58983.00
274.5560, 60472.00
275.7690, 62557.00
276.9820, 63215.00
278.1940, 63026.00
279.4070, 61324.00
280.6190, 59335.00
281.8310, 59037.00
283.0430, 58374.00
284.2550, 58777.00
285.4660, 60105.00
286.6770, 62255.00
287.8890, 64738.00
289.1000, 68013.00
290.3110, 70858.00
291.5210, 73163.00
292.7320, 75625.00
293.9420, 78886.00
295.1530, 84946.00
296.3630, 92578.00
297.5730, 101179.0
298.7830, 111199.0
299.9920, 118527.0
301.2020, 116815.0
302.4110, 105060.0
303.6200, 92349.00
304.8290, 80027.00
306.0380, 69473.00
307.2470, 64056.00
308.4550, 60901.00
309.6630, 59516.00
310.8720, 59044.00
312.0800, 59330.00
313.2880, 60106.00
314.4950, 61879.00
315.7030, 64313.00
316.9100, 67618.00
318.1170, 72358.00
319.3240, 77759.00
320.5310, 85396.00
321.7380, 93819.00
322.9450, 102199.0
324.1510, 109434.0
325.3570, 108083.0
326.5630, 98919.00
327.7690, 88072.00
328.9750, 76902.00
330.1810, 68469.00
331.3860, 63056.00
332.5910, 60387.00
333.7960, 58865.00
335.0010, 58634.00
336.2060, 58668.00
337.4110, 58867.00
338.6150, 59936.00
339.8200, 60394.00
341.0240, 60857.00
342.2280, 60480.00
343.4320, 59869.00
344.6350, 58857.00
345.8390, 58435.00
347.0420, 58684.00
348.2450, 58439.00
349.4480, 59430.00
350.6510, 60600.00
351.8540, 62758.00
353.0560, 65116.00
354.2590, 68274.00
355.4610, 71887.00
356.6630, 76118.00
357.8650, 80451.00
359.0670, 83221.00
360.2680, 82563.00
361.4700, 78907.00
362.6710, 73938.00
363.8720, 70473.00
365.0730, 67896.00
366.2740, 67993.00
367.4740, 69259.00
368.6750, 70372.00
369.8750, 71850.00
371.0750, 74061.00
372.2750, 76222.00
373.4750, 77735.00
374.6740, 80156.00
375.8740, 83371.00
377.0730, 86611.00
378.2720, 90636.00
379.4710, 95100.00
380.6700, 100921.0
381.8690, 107653.0
383.0670, 114162.0
384.2660, 117611.0
385.4640, 114944.0
386.6620, 110527.0
387.8600, 105404.0
389.0570, 103396.0
390.2550, 104442.0
391.4520, 104955.0
392.6490, 100466.0
393.8460, 93921.00
395.0430, 88467.00
396.2400, 85714.00
397.4370, 86657.00
398.6330, 91952.00
399.8290, 99331.00
401.0250, 107776.0
402.2210, 115283.0
403.4170, 117319.0
404.6130, 111151.0
405.8080, 99964.00
407.0030, 88489.00
408.1980, 78407.00
409.3930, 71227.00
410.5880, 67929.00
411.7830, 65977.00
412.9770, 64435.00
414.1720, 63877.00
415.3660, 64372.00
416.5600, 64453.00
417.7530, 64832.00
418.9470, 65006.00
420.1410, 64933.00
421.3340, 63982.00
422.5270, 64302.00
423.7200, 64577.00
424.9130, 65427.00
426.1060, 67027.00
427.2980, 70197.00
428.4900, 73492.00
429.6830, 77936.00
430.8750, 84174.00
432.0670, 91488.00
433.2580, 99813.00
434.4500, 107304.0
435.6410, 111958.0
436.8320, 113308.0
438.0240, 109916.0
439.2140, 102230.0
440.4050, 93680.00
441.5960, 86136.00
442.7860, 80890.00
443.9760, 78019.00
445.1670, 76780.00
446.3560, 76198.00
447.5460, 75478.00
448.7360, 73449.00
449.9250, 70527.00
451.1150, 67688.00
452.3040, 65191.00
453.4930, 63722.00
454.6810, 63159.00
455.8700, 62597.00
457.0590, 62792.00
458.2470, 63455.00
459.4350, 63795.00
460.6230, 64489.00
461.8110, 65251.00
462.9980, 65796.00
464.1860, 66474.00
465.3730, 66543.00
466.5600, 66983.00
467.7470, 66300.00
468.9340, 66971.00
470.1210, 67417.00
471.3080, 68809.00
472.4940, 70916.00
473.6800, 74301.00
474.8660, 78834.00
476.0520, 85061.00
477.2380, 93685.00
478.4230, 105074.0
479.6090, 120181.0
480.7940, 138082.0
481.9790, 159747.0
483.1640, 181956.0
484.3490, 201378.0
485.5330, 208799.0
486.7180, 200083.0
487.9020, 180463.0
489.0860, 156193.0
490.2700, 133989.0
491.4540, 117425.0
492.6370, 104786.0
493.8210, 96015.00
495.0040, 88539.00
496.1870, 82457.00
497.3700, 77881.00
498.5530, 74267.00
499.7360, 72111.00
500.9180, 70819.00
502.1000, 69523.00
503.2830, 68771.00
504.4650, 68525.00
505.6460, 68463.00
506.8280, 68569.00
508.0100, 68731.00
509.1910, 68908.00
510.3720, 68886.00
511.5530, 68825.00
512.7340, 68103.00
513.9150, 67246.00
515.0950, 65891.00
516.2760, 65110.00
517.4560, 63899.00
518.6360, 63328.00
519.8160, 62705.00
520.9950, 62290.00
522.1750, 62364.00
523.3540, 62385.00
524.5340, 62083.00
525.7130, 61968.00
526.8920, 61652.00
528.0700, 61551.00
529.2490, 61602.92
530.4270, 61792.00
531.6060, 61809.00
532.7840, 61747.00
533.9620, 61801.00
535.1390, 61612.00
536.3170, 62129.00
537.4940, 61905.00
538.6720, 61940.00
539.8490, 62197.00
541.0260, 62720.00
542.2030, 62995.00
543.3790, 63223.00
544.5560, 63333.00
545.7320, 63328.24
546.9080, 63467.00
548.0840, 63259.00
549.2600, 63703.00
550.4360, 63966.00
551.6110, 64146.00
552.7860, 64958.00
553.9620, 66085.00
555.1370, 67476.00
556.3110, 68835.00
557.4860, 70952.00
558.6610, 73410.00
559.8350, 76260.00
561.0090, 78472.00
562.1830, 79430.00
563.3570, 77891.00
564.5310, 75400.00
565.7040, 72766.00
566.8780, 70325.00
568.0510, 68616.00
569.2240, 67887.00
570.3970, 67487.00
571.5700, 67146.00
572.7420, 66723.00
573.9150, 66764.00
575.0870, 66902.00
576.2590, 66110.00
577.4310, 66410.00
578.6030, 66276.00
579.7740, 67016.00
580.9460, 67366.00
582.1170, 67874.00
583.2880, 68075.00
584.4590, 68264.00
585.6300, 68100.00
586.8010, 67591.00
587.9710, 66915.00
589.1410, 66728.00
590.3110, 65521.00
591.4810, 65365.00
592.6510, 65876.00
593.8210, 65814.00
594.9900, 66464.00
596.1600, 66923.00
597.3290, 67774.00
598.4980, 68839.00
599.6670, 70170.00
600.8350, 71871.00
602.0040, 73640.00
603.1720, 74876.00
604.3400, 76227.00
605.5080, 76956.00
606.6760, 76729.00
607.8440, 75567.00
609.0120, 74101.00
610.1790, 72938.00
611.3460, 71866.00
612.5130, 71371.00
613.6800, 71736.00
614.8470, 71815.00
616.0130, 72056.00
617.1800, 71994.00
618.3460, 72066.00
619.5120, 72285.00
620.6780, 72381.00
621.8440, 72315.00
623.0090, 73046.00
624.1750, 73674.00
625.3400, 74469.00
626.5050, 75771.00
627.6700, 76549.00
628.8350, 77446.00
629.9990, 77695.00
631.1640, 78780.00
632.3280, 78926.00
633.4920, 79608.00
634.6560, 80649.00
635.8200, 80853.00
636.9840, 80410.00
638.1470, 79050.00
639.3100, 77534.00
640.4730, 75565.00
641.6360, 73610.00
642.7990, 72507.00
643.9620, 71562.00
645.1240, 71426.00
646.2870, 71349.00
647.4490, 71954.00
648.6110, 72652.00
649.7730, 73776.00
650.9340, 75123.00
652.0960, 75946.00
653.2570, 77382.00
654.4180, 78746.00
655.5790, 79125.00
656.7400, 78347.00
657.9010, 77904.00
659.0620, 76577.00
660.2220, 75154.00
661.3820, 73455.00
662.5420, 72878.00
663.7020, 71724.00
664.8620, 71341.00
666.0210, 71400.00
667.1810, 71839.00
668.3400, 71621.00
669.4990, 71788.00
670.6580, 71522.00
671.8170, 70505.00
672.9750, 69703.00
674.1340, 69208.00
675.2920, 68462.00
676.4500, 68460.00
677.6080, 68236.00
678.7660, 68118.00
679.9230, 68117.00
681.0810, 68031.00
682.2380, 67605.00
683.3950, 67506.00
684.5520, 67536.00
685.7090, 67185.00
686.8660, 67293.00
688.0220, 67061.00
689.1780, 67491.00
690.3340, 67456.00
691.4900, 67140.00
692.6460, 66906.00
693.8020, 67678.00
694.9570, 67474.00
696.1130, 67725.00
697.2680, 68055.00
698.4230, 67766.00
699.5780, 68666.00
700.7320, 68887.00
701.8870, 68397.00
703.0410, 68749.00
704.1950, 69130.00
705.3490, 68737.00
706.5030, 68656.00
707.6570, 68810.00
708.8110, 68526.00
709.9640, 68003.00
711.1170, 68131.00
712.2700, 67871.00
713.4230, 67796.00
714.5760, 67844.00
715.7280, 67692.00
716.8810, 66972.00
718.0330, 67092.00
719.1850, 67050.00
720.3370, 66796.00
721.4890, 66966.00
722.6400, 66625.00
723.7920, 67276.00
724.9430, 67033.00
726.0940, 67165.00
727.2450, 67190.00
728.3960, 67424.00
729.5460, 67153.00
730.6970, 67344.00
731.8470, 67822.00
732.9970, 67483.00
734.1470, 67678.00
735.2970, 67884.00
736.4460, 67365.00
737.5960, 67494.00
738.7450, 67699.00
739.8940, 67455.00
741.0430, 67191.00
742.1920, 67577.00
743.3410, 67284.00
744.4890, 67091.00
745.6370, 66894.00
746.7850, 67247.00
747.9330, 67684.00
749.0810, 67764.00
750.2290, 67720.93
751.3760, 67025.00
752.5240, 67213.00
753.6710, 66948.00
754.8180, 66492.00
755.9650, 66604.00
757.1110, 66380.03
758.2580, 66388.00
759.4040, 66234.00
760.5510, 66268.00
761.6970, 66095.00
762.8420, 66423.00
763.9880, 66582.00
765.1340, 66300.00
766.2790, 66570.00
767.4240, 66224.00
768.5690, 66409.00
769.7140, 65883.00
770.8590, 66190.00
772.0030, 65830.00
773.1480, 65876.00
774.2920, 66157.00
775.4360, 66169.00
776.5800, 66269.00
777.7240, 66125.00
778.8670, 66359.00
780.0110, 66268.00
781.1540, 65981.00
782.2970, 66606.00
783.4400, 66050.00
784.5830, 66301.00
785.7250, 65879.00
786.8680, 66302.00
788.0100, 66242.00
789.1520, 67249.00
790.2940, 66388.00
791.4360, 66679.00
792.5780, 66499.00
793.7190, 66437.00
794.8600, 67006.00
796.0010, 66981.00
797.1420, 66819.00
798.2830, 67272.00
799.4240, 66785.00
800.5640, 66942.00
801.7050, 67077.00
802.8450, 67020.00
803.9850, 67075.00
805.1250, 67363.00
806.2640, 67086.00
807.4040, 67390.00
808.5430, 67483.00
809.6820, 67383.00
810.8210, 67742.00
811.9600, 67363.00
813.0990, 67583.00
814.2370, 67666.00
815.3760, 67637.00
816.5140, 67703.00
817.6520, 67686.00
818.7900, 67993.00
819.9270, 67976.00
821.0650, 68399.00
822.2020, 68208.00
823.3390, 68270.00
824.4760, 67838.00
825.6130, 68768.00
826.7500, 68241.00
827.8870, 68602.00
829.0230, 68745.00
830.1590, 68735.00
831.2950, 68837.00
832.4310, 68809.00
833.5670, 68929.00
834.7030, 68872.00
835.8380, 68915.00
836.9730, 69038.00
838.1080, 69356.00
839.2430, 69580.00
840.3780, 69523.00
841.5130, 69717.00
842.6470, 69829.00
843.7810, 69814.00
844.9150, 70072.00
846.0490, 69936.00
847.1830, 70171.00
848.3170, 70141.00
849.4500, 70277.00
850.5830, 70591.00
851.7160, 70394.00
852.8490, 70627.00
853.9820, 71054.00
855.1150, 71164.00
856.2470, 71611.00
857.3800, 71566.00
858.5120, 71996.00
859.6440, 71564.00
860.7760, 72222.00
861.9070, 72831.00
863.0390, 72563.00
864.1700, 72559.00
865.3010, 72784.00
866.4320, 72785.00
867.5630, 72687.00
868.6940, 73472.00
869.8240, 73238.00
870.9540, 73450.00
872.0850, 73847.00
873.2150, 74534.00
874.3450, 74678.00
875.4740, 75044.00
876.6040, 75367.00
877.7330, 75951.00
878.8620, 76174.00
879.9910, 76888.00
881.1200, 77113.00
882.2490, 78454.00
883.3770, 78965.00
884.5060, 79736.00
885.6340, 80395.00
886.7620, 81174.00
887.8900, 82277.00
889.0180, 82751.00
890.1450, 83279.00
891.2730, 83376.00
892.4000, 83557.00
893.5270, 83584.00
894.6540, 84387.00
895.7810, 84422.00
896.9070, 85250.00
898.0340, 86436.00
899.1600, 86819.00
900.2860, 87496.00
901.4120, 87661.00
902.5380, 87438.00
903.6630, 86381.00
904.7890, 85554.00
905.9140, 84328.00
907.0390, 83871.00
908.1640, 83393.00
909.2890, 83303.00
910.4130, 83303.00
911.5380, 83226.00
912.6620, 83306.00
913.7860, 83588.00
914.9100, 83696.00
916.0340, 84150.97
917.1580, 84656.00
918.2810, 85221.00
919.4040, 85982.00
920.5280, 86777.00
921.6510, 87629.00
922.7730, 87926.00
923.8960, 89171.00
925.0180, 90319.00
926.1410, 91940.00
927.2630, 93559.00
928.3850, 95084.00
929.5070, 97172.00
930.6280, 99120.00
931.7500, 101378.0
932.8710, 104406.0
933.9920, 107353.0
935.1130, 110829.0
936.2340, 113793.0
937.3550, 117600.0
938.4760, 121812.0
939.5960, 126153.0
940.7160, 131259.0
941.8360, 136703.0
942.9560, 143409.0
944.0760, 150518.0
945.1950, 157652.0
946.3150, 165141.0
947.4340, 172115.0
948.5530, 177808.0
949.6720, 182124.0
950.7900, 184366.0
951.9090, 184526.0
953.0270, 182500.0
954.1460, 178749.0
955.2640, 175636.0
956.3820, 171772.0
957.4990, 169376.0
958.6170, 168310.0
959.7340, 165272.0
960.8520, 162965.0
961.9690, 158609.0
963.0860, 153760.0
964.2020, 147215.0
965.3190, 139983.0
966.4350, 132646.0
967.5520, 126115.0
968.6680, 119948.0
969.7840, 114578.0
970.8990, 109807.0
972.0150, 105922.0
973.1310, 102818.0
974.2460, 99560.00
975.3610, 97376.00
976.4760, 95454.00
977.5910, 93513.00
978.7050, 92309.00
979.8200, 90476.00
980.9340, 89638.00
982.0480, 88563.00
983.1620, 88241.00
984.2760, 87764.00
985.3900, 87258.00
986.5030, 87221.00
987.6160, 86907.00
988.7300, 87055.00
989.8430, 86838.00
990.9550, 87161.00
992.0680, 87573.00
993.1810, 88423.09
994.2930, 89770.79
995.4050, 90954.00
996.5170, 92919.00
997.6290, 94836.00
998.7410, 96073.00
999.8520, 97427.00
1000.964, 97894.00
1002.075, 97420.00
1003.186, 95329.00
1004.297, 93350.00
1005.407, 91112.00
1006.518, 88749.00
1007.628, 87053.00
1008.738, 85997.00
1009.848, 85052.00
1010.958, 84275.00
1012.068, 83478.00
1013.178, 83173.00
1014.287, 82750.00
1015.396, 82478.00
1016.505, 82026.00
1017.614, 82046.00
1018.723, 81874.05
1019.831, 82122.00
1020.940, 81764.00
1022.048, 81450.00
1023.156, 81228.00
1024.264, 81346.00
1025.372, 81379.00
1026.479, 81077.00
1027.587, 80957.00
1028.694, 80673.00
1029.801, 80797.00
1030.908, 81017.00
1032.015, 80215.00
1033.121, 80485.00
1034.228, 80600.00
1035.334, 80382.00
1036.440, 80539.00
1037.546, 80167.00
1038.652, 80389.00
1039.758, 80626.00
1040.863, 80161.00
1041.968, 80046.00
1043.074, 80165.00
1044.178, 79981.00
1045.283, 80243.00
1046.388, 80261.00
1047.492, 80116.00
1048.597, 80180.00
1049.701, 80202.02
1050.805, 80444.00
1051.909, 80335.00
1053.012, 80334.00
1054.116, 80396.00
1055.219, 80370.00
1056.322, 80470.00
1057.425, 80222.00
1058.528, 80632.00
1059.631, 80198.00
1060.733, 80749.00
1061.836, 80878.00
1062.938, 80671.00
1064.040, 80815.00
1065.142, 80874.00
1066.243, 80821.00
1067.345, 81044.00
1068.446, 80634.00
1069.547, 80867.00
1070.648, 80802.00
1071.749, 80934.00
1072.850, 80821.00
1073.951, 81193.00
1075.051, 81354.00
1076.151, 80968.00
1077.251, 81291.00
1078.351, 81291.00
1079.451, 81220.00
1080.550, 81710.00
1081.650, 82014.00
1082.749, 81997.00
1083.848, 82094.00
1084.947, 81912.00
1086.046, 81991.00
1087.144, 82260.00
1088.243, 81656.00
1089.341, 81678.00
1090.439, 82191.00
1091.537, 81937.00
1092.635, 82047.00
1093.732, 81751.00
1094.830, 82294.00
1095.927, 81696.00
1097.024, 81839.00
1098.121, 82209.00
1099.218, 81770.00
1100.314, 82255.00
1101.411, 81837.00
1102.507, 82629.00
1103.603, 82264.00
1104.699, 82061.00
1105.795, 82455.00
1106.890, 82285.00
1107.986, 82210.00
1109.081, 82394.00
1110.176, 82723.00
1111.271, 82586.00
1112.366, 82627.00
1113.461, 82516.00
1114.555, 82857.00
1115.649, 82700.00
1116.744, 82557.00
1117.838, 82825.00
1118.931, 82615.00
1120.025, 82760.00
1121.119, 83099.00
1122.212, 83157.00
1123.305, 82997.00
1124.398, 83191.00
1125.491, 83433.00
1126.584, 83900.00
1127.676, 83225.00
1128.768, 83015.00
1129.861, 83231.00
1130.953, 83608.00
1132.044, 83653.00
1133.136, 83446.00
1134.228, 83757.00
1135.319, 83403.00
1136.410, 83678.00
1137.501, 83318.00
1138.592, 83775.00
1139.683, 83387.00
1140.773, 83257.00
1141.864, 83407.00
1142.954, 83688.00
1144.044, 83829.00
1145.134, 83998.00
1146.224, 83702.00
1147.313, 84031.00
1148.402, 83924.09
1149.492, 84352.00
1150.581, 83936.00
1151.670, 84167.00
1152.758, 84247.00
1153.847, 83937.00
1154.935, 84743.00
1156.024, 84725.00
1157.112, 84563.00
1158.200, 84382.00
1159.287, 84323.00
1160.375, 84718.00
1161.462, 84759.00
1162.550, 85259.00
1163.637, 84574.00
1164.724, 85111.00
1165.810, 85303.00
1166.897, 84822.00
1167.983, 85081.00
1169.070, 85187.00
1170.156, 85325.00
1171.242, 85286.00
1172.327, 85139.00
1173.413, 85056.00
1174.499, 85377.00
1175.584, 85460.00
1176.669, 85213.00
1177.754, 85086.00
1178.839, 85721.00
1179.923, 85340.00
1181.008, 85856.00
1182.092, 85873.00
1183.176, 85606.00
1184.260, 85730.00
1185.344, 85765.00
1186.428, 85858.00
1187.511, 85945.07
1188.595, 86144.00
1189.678, 86079.00
1190.761, 86039.00
1191.843, 86016.00
1192.926, 86242.00
1194.009, 86070.00
1195.091, 86134.00
1196.173, 86453.00
1197.255, 85907.00
1198.337, 85944.00
1199.419, 86470.00
1200.500, 86389.00
1201.582, 86523.00
1202.663, 86435.00
1203.744, 87056.00
1204.825, 86943.00
1205.905, 86539.00
1206.986, 87165.00
1208.066, 86590.00
1209.146, 86918.00
1210.226, 86927.00
1211.306, 87426.00
1212.386, 87198.00
1213.466, 87428.00
1214.545, 87434.00
1215.624, 87348.00
1216.703, 87464.00
1217.782, 87638.00
1218.861, 87640.52
1219.939, 87790.00
1221.018, 87733.00
1222.096, 87958.00
1223.174, 87885.00
1224.252, 88036.00
1225.330, 88010.00
1226.407, 87967.00
1227.485, 88082.00
1228.562, 88070.48
1229.639, 88127.00
1230.716, 88199.28
1231.793, 88410.00
1232.869, 88570.00
1233.946, 88606.00
1235.022, 88852.00
1236.098, 88947.95
1237.174, 88655.00
1238.250, 89070.00
1239.325, 89103.00
1240.401, 88817.00
1241.476, 89207.00
1242.551, 88953.00
1243.626, 88721.00
1244.701, 89009.00
1245.776, 89309.00
1246.850, 89369.00
1247.924, 88909.00
1248.999, 89456.00
1250.073, 89230.00
1251.146, 89212.00
1252.220, 89798.00
1253.293, 89204.00
1254.367, 89778.00
1255.440, 89445.00
1256.513, 89858.00
1257.586, 89971.00
1258.658, 89798.00
1259.731, 89830.00
1260.803, 90077.00
1261.875, 89777.00
1262.947, 89805.00
1264.019, 90221.00
1265.091, 90535.00
1266.162, 90366.00
1267.234, 90316.00
1268.305, 90321.00
1269.376, 90342.00
1270.447, 90846.00
1271.517, 90970.00
1272.588, 91090.00
1273.658, 90985.00
1274.729, 91099.00
1275.799, 90996.00
1276.868, 90955.00
1277.938, 91347.00
1279.008, 90992.00
1280.077, 91299.98
1281.146, 91267.00
1282.215, 91338.00
1283.284, 91628.00
1284.353, 91031.00
1285.421, 91356.00
1286.490, 91322.00
1287.558, 91148.00
1288.626, 91596.00
1289.694, 91432.00
1290.762, 91531.00
1291.829, 91713.67
1292.897, 91841.00
1293.964, 91923.00
1295.031, 92003.00
1296.098, 92039.00
1297.165, 91798.00
1298.231, 92264.00
1299.298, 92165.00
1300.364, 92074.00
1301.430, 92382.00
1302.496, 92341.00
1303.562, 92162.00
1304.627, 92594.00
