##NAMES=Kyanite
##RRUFFID=R050450
##IDEAL CHEMISTRY=Al_2_OSiO_4_
##LOCALITY=Switzerland
##OWNER=RRUFF
##SOURCE=Marcus Origlieri
##DESCRIPTION=Blue bladed crystals
##STATUS=The identification of this mineral has been confirmed by X-ray diffraction and chemical analysis
##URL=rruff.info/R050450
##MEASURED CHEMISTRY=Al_2.00_OSi_1.00_O_4_
##PIN_ID=M01448
##ORIENTATION=Laser parallel to -c* (0 0 -1). Fiducial mark perpendicular to laser is parallel to -a [-1 0 0]
148.7160, 12644.00
149.9470, 12654.00
151.1780, 12832.00
152.4080, 12923.00
153.6380, 13061.00
154.8690, 13076.00
156.0980, 13027.00
157.3280, 13102.00
158.5580, 13033.00
159.7870, 13140.00
161.0170, 13113.00
162.2460, 12960.00
163.4750, 13211.00
164.7030, 13202.00
165.9320, 13350.00
167.1600, 13335.00
168.3890, 13510.00
169.6170, 13493.00
170.8450, 13467.00
172.0730, 13477.00
173.3000, 13696.00
174.5280, 13638.23
175.7550, 13778.00
176.9820, 13713.00
178.2090, 13641.00
179.4350, 13732.00
180.6620, 13649.00
181.8880, 13523.00
183.1150, 13624.00
184.3410, 13679.00
185.5670, 13866.00
186.7920, 13858.00
188.0180, 13848.00
189.2430, 13868.00
190.4690, 14021.00
191.6940, 13971.00
192.9180, 14031.00
194.1430, 13973.00
195.3680, 14130.00
196.5920, 14247.00
197.8160, 14080.00
199.0400, 14342.00
200.2640, 14494.00
201.4880, 14291.00
202.7110, 14295.00
203.9350, 14326.00
205.1580, 14494.00
206.3810, 14379.00
207.6040, 14423.00
208.8270, 14390.00
210.0490, 14273.00
211.2710, 14140.00
212.4940, 14342.00
213.7160, 14395.00
214.9370, 14287.00
216.1590, 14443.00
217.3810, 14393.00
218.6020, 14361.00
219.8230, 14574.00
221.0440, 14406.00
222.2650, 14530.00
223.4860, 14617.00
224.7060, 14692.00
225.9260, 14926.00
227.1470, 15007.00
228.3670, 15084.00
229.5860, 14760.00
230.8060, 14790.00
232.0260, 14801.00
233.2450, 14622.00
234.4640, 14640.00
235.6830, 14778.00
236.9020, 14806.00
238.1200, 14689.00
239.3390, 14874.00
240.5570, 15040.00
241.7750, 14888.00
242.9930, 14778.00
244.2110, 14950.00
245.4290, 14911.00
246.6460, 14882.00
247.8630, 14877.00
249.0810, 15018.00
250.2980, 14856.00
251.5140, 15049.00
252.7310, 15100.00
253.9470, 15048.00
255.1640, 14956.00
256.3800, 14879.00
257.5960, 15215.96
258.8120, 15363.00
260.0270, 15624.00
261.2430, 15562.76
262.4580, 15527.00
263.6730, 15363.00
264.8880, 15325.00
266.1030, 15269.00
267.3170, 15333.00
268.5320, 15502.00
269.7460, 15536.00
270.9600, 15550.00
272.1740, 15481.00
273.3880, 15597.00
274.6010, 15562.00
275.8150, 15845.00
277.0280, 16358.00
278.2410, 16364.00
279.4540, 16547.00
280.6670, 16312.00
281.8790, 16051.00
283.0920, 15847.00
284.3040, 15925.00
285.5160, 15825.00
286.7280, 16161.00
287.9400, 16139.00
289.1510, 16386.00
290.3630, 17164.00
291.5740, 17750.00
292.7850, 18086.00
293.9960, 17848.00
295.2070, 17770.00
296.4170, 17628.00
297.6280, 18003.00
298.8380, 18780.00
300.0480, 20417.00
301.2580, 22306.00
302.4680, 23329.00
303.6770, 22104.00
304.8870, 20370.00
306.0960, 18839.00
307.3050, 17843.00
308.5140, 17222.00
309.7230, 16787.00
310.9310, 16563.00
312.1400, 16626.00
313.3480, 16561.00
314.5560, 16655.00
315.7640, 16767.00
316.9720, 17053.00
318.1790, 17218.00
319.3870, 17400.00
320.5940, 17503.00
321.8010, 17694.00
323.0080, 18711.00
324.2150, 19805.00
325.4210, 21286.00
326.6280, 22186.00
327.8340, 21594.00
329.0400, 20059.00
330.2460, 18887.00
331.4510, 18017.00
332.6570, 17540.00
333.8620, 17055.00
335.0680, 16802.00
336.2730, 16918.00
337.4780, 16894.00
338.6820, 16886.00
339.8870, 17111.00
341.0910, 17239.00
342.2950, 17185.00
343.5000, 17306.00
344.7030, 17183.00
345.9070, 17231.00
347.1110, 17030.00
348.3140, 16975.00
349.5170, 17014.00
350.7200, 17151.00
351.9230, 17184.00
353.1260, 17402.00
354.3290, 17242.00
355.5310, 17475.00
356.7330, 17883.00
357.9350, 18078.00
359.1370, 18531.00
360.3390, 19188.00
361.5400, 19347.00
362.7420, 19042.00
363.9430, 18550.00
365.1440, 18341.00
366.3450, 18062.00
367.5460, 17990.00
368.7460, 18101.00
369.9470, 18458.00
371.1470, 18858.00
372.3470, 19417.00
373.5470, 19807.00
374.7460, 19658.00
375.9460, 19955.00
377.1450, 19966.00
378.3450, 20407.00
379.5440, 20165.00
380.7430, 19923.00
381.9410, 19902.00
383.1400, 20225.00
384.3380, 20669.00
385.5370, 20642.82
386.7350, 21240.00
387.9320, 20842.00
389.1300, 20639.00
390.3280, 20759.00
391.5250, 21409.00
392.7220, 22184.00
393.9190, 22039.00
395.1160, 21232.00
396.3130, 20151.00
397.5100, 19890.00
398.7060, 19534.00
399.9020, 19245.00
401.0980, 19854.00
402.2940, 20826.00
403.4900, 21967.00
404.6860, 23054.00
405.8810, 22713.00
407.0760, 21806.00
408.2710, 20534.00
409.4660, 19931.00
410.6610, 19307.00
411.8550, 19091.00
413.0500, 18981.00
414.2440, 18976.00
415.4380, 19076.25
416.6320, 19326.00
417.8260, 19583.00
419.0190, 19874.00
420.2130, 19868.32
421.4060, 20089.00
422.5990, 19793.00
423.7920, 19396.00
424.9850, 19268.00
426.1770, 19047.00
427.3700, 18911.00
428.5620, 19004.00
429.7540, 19260.00
430.9460, 19390.00
432.1380, 19553.00
433.3290, 20104.00
434.5210, 20843.00
435.7120, 21254.00
436.9030, 22079.00
438.0940, 22408.00
439.2850, 22637.00
440.4750, 22132.00
441.6660, 21492.00
442.8560, 20836.00
444.0460, 20269.00
445.2360, 19994.00
446.4260, 19838.00
447.6160, 20121.00
448.8050, 20212.00
449.9940, 20269.00
451.1830, 20034.00
452.3720, 19774.00
453.5610, 19580.00
454.7500, 19439.02
455.9380, 19278.00
457.1260, 19294.00
458.3150, 19252.00
459.5020, 19345.00
460.6900, 19320.00
461.8780, 19206.00
463.0650, 19404.00
464.2530, 19424.00
465.4400, 19601.00
466.6270, 19485.00
467.8130, 19482.00
469.0000, 19752.00
470.1870, 19614.00
471.3730, 19536.00
472.5590, 19873.00
473.7450, 19978.00
474.9310, 20052.00
476.1160, 20465.00
477.3020, 20596.00
478.4870, 21307.00
479.6720, 21888.00
480.8570, 22727.00
482.0420, 23591.00
483.2270, 25187.00
484.4110, 27731.00
485.5960, 30758.00
486.7800, 33157.00
487.9640, 33718.00
489.1480, 32042.00
490.3310, 29387.00
491.5150, 27003.00
492.6980, 25413.00
493.8810, 23995.00
495.0640, 23225.00
496.2470, 22381.00
497.4300, 22069.00
498.6120, 21438.00
499.7950, 21193.00
500.9770, 20875.00
502.1590, 20867.00
503.3410, 20745.00
504.5220, 20838.00
505.7040, 20773.01
506.8850, 20668.00
508.0660, 20791.00
509.2470, 20835.00
510.4280, 20957.00
511.6090, 21196.00
512.7890, 21230.00
513.9700, 21157.00
515.1500, 21203.00
516.3300, 21112.00
517.5100, 20862.00
518.6900, 20826.00
519.8690, 20721.00
521.0490, 20523.00
522.2280, 20432.00
523.4070, 20667.00
524.5860, 20549.00
525.7640, 20431.00
526.9430, 20716.00
528.1210, 20546.00
529.3000, 20535.00
530.4780, 20286.00
531.6560, 20435.00
532.8330, 20771.00
534.0110, 20689.00
535.1880, 20722.00
536.3650, 20796.00
537.5430, 20590.00
538.7190, 20921.00
539.8960, 20996.00
541.0730, 21057.00
542.2490, 20896.00
543.4250, 21130.00
544.6020, 21071.00
545.7780, 21242.00
546.9530, 21351.00
548.1290, 21292.00
549.3040, 21343.00
550.4800, 21313.00
551.6550, 21276.00
552.8300, 21305.00
554.0040, 21174.00
555.1790, 21439.00
556.3540, 21297.00
557.5280, 21399.00
558.7020, 21915.00
559.8760, 22408.00
561.0500, 22628.00
562.2230, 22972.00
563.3970, 23411.00
564.5700, 23341.00
565.7430, 23250.00
566.9160, 22800.00
568.0890, 22583.00
569.2620, 22405.00
570.4340, 22439.00
571.6070, 22629.00
572.7790, 22368.00
573.9510, 22441.00
575.1230, 22517.00
576.2940, 22289.00
577.4660, 22333.00
578.6370, 22089.00
579.8080, 22027.00
580.9790, 22103.00
582.1500, 22003.00
583.3210, 22066.00
584.4910, 22263.00
585.6620, 22344.00
586.8320, 22271.00
588.0020, 22380.00
589.1720, 22321.00
590.3410, 22258.00
591.5110, 22098.00
592.6800, 22013.00
593.8500, 22019.00
595.0190, 21840.00
596.1880, 21886.00
597.3560, 22051.00
598.5250, 22174.00
599.6930, 22050.00
600.8620, 22402.00
602.0300, 22388.00
603.1970, 22669.00
604.3650, 22767.00
605.5330, 22937.00
606.7000, 23013.00
607.8680, 23185.00
609.0350, 23023.00
610.2020, 22754.00
611.3680, 22865.00
612.5350, 22759.00
613.7010, 22798.00
614.8680, 22703.00
616.0340, 22686.00
617.2000, 22807.00
618.3660, 22652.00
619.5310, 22843.00
620.6970, 22861.00
621.8620, 22846.00
623.0270, 22706.00
624.1920, 22636.00
625.3570, 22921.00
626.5220, 22889.00
627.6860, 23023.00
628.8500, 23078.00
630.0140, 23168.00
631.1780, 23180.00
632.3420, 23252.00
633.5060, 23559.00
634.6700, 23638.00
635.8330, 23689.00
636.9960, 23992.00
638.1590, 23878.00
639.3220, 23865.00
640.4850, 23766.00
641.6470, 23940.00
642.8100, 23346.00
643.9720, 23339.00
645.1340, 23452.00
646.2960, 23293.00
647.4570, 23291.00
648.6190, 23594.00
649.7800, 23335.00
650.9420, 23311.00
652.1030, 23573.00
653.2640, 23729.00
654.4240, 23714.00
655.5850, 23753.00
656.7450, 23807.54
657.9060, 23965.00
659.0660, 23895.00
660.2260, 23978.00
661.3850, 24101.00
662.5450, 23892.00
663.7040, 23969.00
664.8640, 23979.00
666.0230, 24161.00
667.1820, 24044.00
668.3410, 24145.00
669.4990, 24239.89
670.6580, 24285.00
671.8160, 24409.00
672.9740, 24313.00
674.1320, 24303.00
675.2900, 24130.00
676.4480, 24132.00
677.6050, 24000.00
678.7630, 23985.00
679.9200, 23928.00
681.0770, 23904.00
682.2340, 23949.00
683.3900, 24052.00
684.5470, 24007.00
685.7030, 23983.00
686.8590, 23988.00
688.0150, 24174.00
689.1710, 24068.00
690.3270, 24224.00
691.4830, 24206.00
692.6380, 24199.00
693.7930, 24183.00
694.9480, 24106.00
696.1030, 24393.00
697.2580, 24369.00
698.4130, 24126.00
699.5670, 24424.00
700.7210, 24425.00
701.8750, 24339.00
703.0290, 24334.00
704.1830, 24460.00
705.3370, 24455.00
706.4900, 24373.00
707.6430, 24472.00
708.7970, 24309.00
709.9490, 24423.00
711.1020, 24625.00
712.2550, 24512.00
713.4070, 24488.00
714.5600, 24651.00
715.7120, 24687.00
716.8640, 24584.00
718.0160, 24635.00
719.1670, 24781.00
720.3190, 24697.21
721.4700, 24737.00
722.6210, 24712.00
723.7720, 24869.00
724.9230, 24984.00
726.0740, 25164.00
727.2250, 25062.00
728.3750, 25097.00
729.5250, 25093.00
730.6750, 24920.00
731.8250, 24954.00
732.9750, 25025.00
734.1240, 24964.00
735.2740, 25007.86
736.4230, 25139.00
737.5720, 25031.00
738.7210, 24960.00
739.8700, 24998.00
741.0190, 25216.00
742.1670, 25330.00
743.3150, 25324.00
744.4630, 25101.00
745.6110, 25492.00
746.7590, 25250.00
747.9070, 25482.00
749.0540, 25476.00
750.2020, 25408.00
751.3490, 25299.00
752.4960, 25556.00
753.6430, 25438.00
754.7890, 25483.00
755.9360, 25581.00
757.0820, 25630.00
758.2280, 25731.00
759.3740, 25818.00
760.5200, 25590.00
761.6660, 25655.00
762.8120, 25581.00
763.9570, 25689.00
765.1020, 25848.00
766.2470, 25795.00
767.3920, 25826.00
768.5370, 25885.00
769.6810, 25766.00
770.8260, 25980.00
771.9700, 25831.00
773.1140, 25952.00
774.2580, 26081.00
775.4020, 26156.00
776.5460, 26031.00
777.6890, 26205.00
778.8320, 25943.00
779.9750, 26263.00
781.1180, 26143.00
782.2610, 26175.00
783.4040, 26151.00
784.5460, 26158.04
785.6890, 25976.00
786.8310, 26238.00
787.9730, 26363.00
789.1150, 26437.00
790.2560, 26264.00
791.3980, 26331.00
792.5390, 26431.00
793.6810, 26327.00
794.8220, 26582.00
795.9630, 26527.00
797.1030, 26452.00
798.2440, 26764.00
799.3840, 26703.00
800.5240, 26544.00
801.6650, 26511.00
802.8040, 26491.60
803.9440, 26513.65
805.0840, 26586.00
806.2230, 26647.00
807.3630, 26848.00
808.5020, 26885.00
809.6410, 26825.00
810.7790, 27023.00
811.9180, 26753.00
813.0570, 26829.00
814.1950, 26873.00
815.3330, 26965.00
816.4710, 27103.00
817.6090, 26888.00
818.7470, 27095.00
819.8840, 27131.00
821.0220, 27248.00
822.1590, 27326.00
823.2960, 27167.00
824.4330, 27479.00
825.5690, 27290.00
826.7060, 27283.00
827.8420, 27316.00
828.9790, 27217.00
830.1150, 27509.00
831.2510, 27614.00
832.3860, 27709.00
833.5220, 27722.35
834.6570, 27620.00
835.7930, 27553.00
836.9280, 27703.00
838.0630, 27549.00
839.1980, 27666.00
840.3320, 27977.00
841.4670, 27716.00
842.6010, 27926.00
843.7350, 27779.00
844.8690, 28026.00
846.0030, 28055.00
847.1370, 27927.00
848.2700, 28096.00
849.4040, 28053.52
850.5370, 28262.00
851.6700, 28108.00
852.8030, 28230.00
853.9360, 28271.00
855.0680, 28282.00
856.2000, 28257.00
857.3330, 28327.93
858.4650, 28336.00
859.5970, 28436.00
860.7290, 28503.00
861.8600, 28553.00
862.9920, 28774.00
864.1230, 28780.00
865.2540, 28883.00
866.3850, 28713.00
867.5160, 28808.00
868.6460, 28915.00
869.7770, 29067.00
870.9070, 29242.00
872.0370, 29287.00
873.1670, 29132.00
874.2970, 29345.00
875.4270, 29441.00
876.5570, 29425.00
877.6860, 29641.00
878.8150, 29885.00
879.9440, 30190.00
881.0730, 30214.00
882.2020, 30302.00
883.3300, 30803.00
884.4590, 31064.00
885.5870, 31454.00
886.7150, 31761.00
887.8430, 32368.00
888.9710, 32726.00
890.0990, 33112.00
891.2260, 33276.00
892.3530, 33311.00
893.4810, 33394.00
894.6080, 33687.00
895.7340, 33633.00
896.8610, 33897.00
897.9880, 33992.00
899.1140, 34426.00
900.2400, 34845.00
901.3660, 35067.00
902.4920, 35200.00
903.6180, 34780.00
904.7430, 34337.00
905.8690, 33617.00
906.9940, 32808.00
908.1190, 32166.00
909.2440, 32052.00
910.3690, 31639.00
911.4930, 31195.00
912.6180, 31100.00
913.7420, 30924.00
914.8660, 31073.00
915.9900, 30875.00
917.1140, 30846.00
918.2380, 30959.00
919.3610, 30881.00
920.4850, 30800.00
921.6080, 30970.00
922.7310, 30860.00
923.8540, 30972.00
924.9760, 31215.00
926.0990, 31229.00
927.2210, 31275.00
928.3440, 31393.00
929.4660, 31522.00
930.5880, 31681.00
931.7090, 31800.00
932.8310, 31992.00
933.9520, 32017.00
935.0740, 32278.00
936.1950, 32541.00
937.3160, 32961.00
938.4360, 33055.00
939.5570, 33436.00
940.6780, 33757.00
941.7980, 33903.00
942.9180, 34360.00
944.0380, 34707.00
945.1580, 35472.00
946.2780, 35878.00
947.3970, 36471.00
948.5170, 37350.00
949.6360, 37972.00
950.7550, 38467.00
951.8740, 38824.00
952.9930, 38593.00
954.1110, 38498.00
955.2300, 38136.00
956.3480, 37689.00
957.4660, 37041.00
958.5840, 36563.00
959.7020, 36234.00
960.8190, 36309.00
961.9370, 35856.00
963.0540, 35646.00
964.1710, 35503.00
965.2880, 35286.00
966.4050, 34951.00
967.5220, 34690.00
968.6380, 34246.00
969.7550, 33710.00
970.8710, 33400.00
971.9870, 33257.00
973.1030, 33110.00
974.2190, 33038.00
975.3340, 32874.57
976.4500, 32720.00
977.5650, 32619.00
978.6800, 32509.00
979.7950, 32432.00
980.9100, 32235.00
982.0250, 32296.00
983.1390, 32568.00
984.2530, 32172.00
985.3680, 32421.00
986.4820, 32415.00
987.5950, 32233.00
988.7090, 32328.00
989.8230, 32385.00
990.9360, 32597.00
992.0490, 32482.00
993.1620, 32512.00
994.2750, 32641.00
995.3880, 32591.00
996.5010, 32626.00
997.6130, 32755.59
998.7250, 32919.00
999.8370, 32969.00
1000.949, 33317.00
1002.061, 33368.00
1003.173, 33339.00
1004.284, 33364.00
1005.396, 33267.00
1006.507, 32977.00
1007.618, 32754.00
1008.729, 32869.00
1009.839, 32880.00
1010.950, 32790.00
1012.060, 32911.00
1013.171, 32802.00
1014.281, 33008.00
1015.391, 32624.00
1016.500, 32984.00
1017.610, 32626.00
1018.719, 32927.00
1019.829, 32913.00
1020.938, 32738.00
1022.047, 32937.00
1023.156, 32998.00
1024.264, 32759.00
1025.373, 32984.00
1026.481, 32943.00
1027.589, 33044.00
1028.697, 32991.00
1029.805, 33141.00
1030.913, 33280.00
1032.020, 33137.00
1033.128, 33247.00
1034.235, 33368.00
1035.342, 33088.00
1036.449, 33468.00
1037.556, 33262.00
1038.663, 33254.00
1039.769, 33485.00
1040.875, 33320.00
1041.981, 33516.00
1043.087, 33518.00
1044.193, 33521.00
1045.299, 33706.00
1046.404, 33493.00
1047.510, 33570.00
1048.615, 33418.00
1049.720, 33682.00
1050.825, 33671.00
1051.930, 33467.00
1053.034, 33846.00
1054.139, 33793.00
1055.243, 33935.00
1056.347, 33905.00
1057.451, 34001.00
1058.555, 33834.00
1059.658, 34270.00
1060.762, 33737.00
1061.865, 34258.00
1062.968, 34135.00
1064.071, 34111.00
1065.174, 34039.00
1066.277, 34032.44
1067.380, 34245.00
1068.482, 34151.00
1069.584, 34180.00
1070.686, 34448.00
1071.788, 34249.00
1072.890, 34312.00
1073.992, 34315.00
1075.093, 34621.00
1076.194, 34501.00
1077.295, 34513.00
1078.396, 34541.00
1079.497, 34584.00
1080.598, 34472.00
1081.698, 34576.00
1082.799, 34586.00
1083.899, 34701.00
1084.999, 34884.00
1086.099, 34884.00
1087.199, 34938.00
1088.298, 35022.16
1089.398, 34713.00
1090.497, 35107.00
1091.596, 34916.00
1092.695, 34889.00
1093.794, 35081.00
1094.892, 34905.00
1095.991, 35053.00
1097.089, 35097.00
1098.187, 35065.00
1099.285, 35216.00
1100.383, 35299.00
1101.481, 35161.00
1102.579, 35115.00
1103.676, 35287.00
1104.773, 35141.00
1105.870, 35500.00
1106.967, 35338.00
1108.064, 35266.00
1109.161, 35532.00
1110.257, 35493.00
1111.353, 35605.00
1112.449, 35602.00
1113.545, 35494.00
1114.641, 35688.00
1115.737, 35845.00
1116.832, 35989.00
1117.928, 35932.00
1119.023, 35731.00
1120.118, 35794.00
1121.213, 35956.00
1122.308, 35779.00
1123.402, 36300.00
1124.497, 35798.00
1125.591, 36106.00
1126.685, 35988.00
1127.779, 36202.00
1128.873, 36214.00
1129.967, 36161.00
1131.060, 36201.00
1132.153, 36133.00
1133.247, 36167.00
1134.340, 36164.00
1135.433, 36180.00
1136.525, 36322.00
1137.618, 36120.00
1138.710, 36335.00
1139.802, 36362.00
1140.895, 36350.00
1141.987, 36708.00
1143.078, 36440.00
1144.170, 36737.00
1145.261, 36576.00
1146.353, 36718.00
1147.444, 36698.00
1148.535, 36507.00
1149.626, 36816.00
1150.716, 36786.00
1151.807, 36966.00
1152.897, 36695.00
1153.988, 36782.00
1155.078, 36777.00
1156.168, 36864.00
1157.257, 36909.00
1158.347, 36903.46
1159.436, 36837.00
1160.526, 36959.00
1161.615, 37090.00
1162.704, 37257.00
1163.793, 37074.00
1164.881, 36998.00
1165.970, 37096.00
1167.058, 37307.00
1168.147, 37239.00
1169.235, 37432.00
1170.323, 37206.00
1171.410, 37412.00
1172.498, 37586.00
1173.585, 37732.00
1174.673, 37456.00
1175.760, 37687.00
1176.847, 37408.00
1177.934, 37466.39
1179.020, 37641.00
1180.107, 37441.00
1181.193, 37851.00
1182.279, 37745.00
1183.365, 37993.00
1184.451, 37888.00
1185.537, 37918.00
1186.623, 37839.00
1187.708, 37955.00
1188.793, 37979.41
1189.878, 37982.00
1190.963, 38093.00
1192.048, 38203.00
1193.133, 38192.00
1194.217, 38230.00
1195.302, 38243.00
1196.386, 38243.93
1197.470, 38333.11
1198.554, 38296.00
1199.638, 38403.00
1200.721, 38535.00
1201.805, 38355.00
1202.888, 38319.00
1203.971, 38393.00
1205.054, 38453.00
1206.137, 38556.00
1207.219, 38520.00
1208.302, 38845.00
1209.384, 38564.00
1210.466, 39024.00
1211.548, 38648.00
1212.630, 39004.00
1213.712, 38806.00
1214.794, 38745.00
1215.875, 38688.00
1216.956, 38752.00
1218.037, 38995.00
1219.118, 38885.00
1220.199, 38980.00
1221.280, 39249.00
1222.360, 39125.00
1223.441, 39305.00
1224.521, 39179.00
1225.601, 39123.00
1226.681, 39158.00
1227.760, 39351.00
1228.840, 39628.00
1229.919, 39209.00
1230.999, 39576.00
1232.078, 39478.00
1233.157, 39415.00
1234.236, 39823.00
1235.314, 39559.00
1236.393, 39562.00
1237.471, 39528.00
1238.549, 39684.00
1239.627, 39459.00
1240.705, 39779.00
1241.783, 39619.00
1242.860, 39902.00
1243.938, 39646.00
1245.015, 39614.00
1246.092, 39713.00
1247.169, 40004.00
1248.246, 39726.00
1249.323, 40020.00
1250.399, 40098.00
1251.475, 39944.00
1252.552, 39791.00
1253.628, 40038.00
1254.703, 40164.00
1255.779, 40196.00
1256.855, 40138.00
1257.930, 40454.00
1259.005, 40255.00
1260.080, 40242.00
1261.155, 40567.00
1262.230, 40307.00
1263.305, 40310.00
1264.379, 40355.00
1265.454, 40337.80
1266.528, 40413.44
1267.602, 40533.00
1268.676, 40532.00
1269.750, 40683.00
1270.823, 40701.00
1271.897, 40642.00
1272.970, 40526.00
1274.043, 40606.00
1275.116, 41120.00
1276.189, 40933.65
1277.261, 40970.00
1278.334, 40940.00
1279.406, 40916.00
1280.478, 40905.00
1281.550, 41018.00
1282.622, 40935.00
1283.694, 40983.00
1284.766, 41237.00
1285.837, 41090.00
1286.908, 41429.00
1287.979, 41292.00
1289.050, 41226.00
1290.121, 41426.00
1291.192, 41386.97
1292.262, 41310.00
1293.333, 41590.00
1294.403, 41513.00
1295.473, 41665.00
1296.543, 41730.00
1297.613, 41543.00
1298.682, 41754.00
1299.752, 41595.00
1300.821, 41766.00
1301.890, 41902.00
1302.959, 41933.00
1304.028, 42054.00
1305.096, 42098.00
1306.165, 42050.00
1307.233, 42133.06
1308.301, 42050.00
1309.370, 42145.00
1310.437, 42265.00
1311.505, 42183.00
1312.573, 42402.00
1313.640, 42195.00
1314.708, 42387.00
1315.775, 42436.00
1316.842, 42383.00
1317.908, 42208.00
1318.975, 42594.00
1320.042, 42338.00
1321.108, 42448.00
1322.174, 42602.00
1323.240, 42761.00
1324.306, 42742.00
1325.372, 42796.77
1326.438, 42732.00
