##NAMES=Kyanite
##RRUFFID=R040119
##IDEAL CHEMISTRY=Al_2_OSiO_4_
##LOCALITY=Rutherford County, North Carolina, USA
##OWNER=RRUFF
##SOURCE=University of Arizona Mineral Museum
##DESCRIPTION=Blue bladed crystal
##STATUS=The identification of this mineral has been confirmed by X-ray diffraction and chemical analysis
##URL=rruff.info/R040119
##MEASURED CHEMISTRY=(Al_0.99_Fe^3+^_0.01_)_2_OSi_1.00_O_4_
##PIN_ID=L00532
##ORIENTATION=Laser parallel to (-1 0 -1). Fiducial mark perpendicular to laser is parallel to b [0 1 0]
77.19600, 51677.00
78.43500, 52824.00
79.67300, 52347.00
80.91200, 53028.00
82.15000, 52069.00
83.38800, 51876.00
84.62600, 51680.00
85.86300, 51193.00
87.10100, 50304.00
88.33800, 50488.00
89.57500, 50474.00
90.81200, 51887.00
92.04900, 51969.00
93.28600, 51030.00
94.52300, 50805.00
95.75900, 50536.00
96.99500, 49657.00
98.23100, 50674.00
99.46700, 50601.00
100.7030, 51804.00
101.9390, 51568.00
103.1740, 51179.00
104.4090, 52137.00
105.6440, 52332.00
106.8790, 51638.00
108.1140, 51645.00
109.3490, 51832.96
110.5830, 50804.00
111.8180, 52181.00
113.0520, 52263.00
114.2860, 52042.00
115.5200, 51858.00
116.7530, 53444.00
117.9870, 52295.00
119.2200, 52842.00
120.4530, 52796.00
121.6860, 51300.00
122.9190, 51024.00
124.1520, 51118.00
125.3850, 50676.00
126.6170, 50100.00
127.8490, 49931.00
129.0810, 50110.00
130.3130, 49653.00
131.5450, 50338.00
132.7770, 49729.00
134.0080, 50136.00
135.2390, 49920.00
136.4710, 50122.00
137.7020, 50150.00
138.9320, 50346.28
140.1630, 50900.00
141.3930, 50760.00
142.6240, 51087.00
143.8540, 51026.00
145.0840, 50518.00
146.3140, 50745.00
147.5440, 49671.00
148.7730, 49985.00
150.0020, 50242.00
151.2320, 50770.00
152.4610, 50422.00
153.6900, 50157.00
154.9180, 50494.00
156.1470, 50206.00
157.3750, 50738.00
158.6040, 50645.00
159.8320, 50712.00
161.0600, 50961.00
162.2870, 50833.00
163.5150, 50720.00
164.7420, 50493.00
165.9700, 50531.00
167.1970, 50736.00
168.4240, 51488.00
169.6510, 51779.00
170.8770, 51826.00
172.1040, 51854.00
173.3300, 52233.00
174.5560, 52781.00
175.7820, 52663.00
177.0080, 52339.00
178.2340, 51663.00
179.4590, 50928.00
180.6850, 50469.00
181.9100, 50185.29
183.1350, 49773.00
184.3600, 50140.00
185.5850, 50179.00
186.8090, 50692.00
188.0340, 50660.00
189.2580, 50843.69
190.4820, 50595.00
191.7060, 50910.00
192.9300, 50950.00
194.1530, 50699.00
195.3770, 50853.00
196.6000, 50702.00
197.8230, 51035.00
199.0460, 51076.00
200.2690, 51213.00
201.4910, 51539.00
202.7140, 51726.00
203.9360, 51601.00
205.1580, 51672.00
206.3800, 51866.00
207.6020, 51962.00
208.8240, 51882.46
210.0450, 51586.00
211.2670, 51600.00
212.4880, 51438.00
213.7090, 51624.60
214.9300, 52007.77
216.1510, 52273.00
217.3710, 52928.00
218.5920, 53618.00
219.8120, 53825.00
221.0320, 54905.00
222.2520, 56235.00
223.4720, 57184.00
224.6910, 57834.00
225.9110, 58317.00
227.1300, 56847.00
228.3490, 54965.00
229.5680, 53733.00
230.7870, 52550.00
232.0050, 51735.44
233.2240, 51618.00
234.4420, 51094.00
235.6600, 51334.00
236.8780, 51961.00
238.0960, 51845.00
239.3140, 52166.00
240.5310, 51630.00
241.7490, 51951.00
242.9660, 51777.00
244.1830, 52044.00
245.4000, 52064.00
246.6160, 52744.00
247.8330, 51964.00
249.0490, 52536.00
250.2660, 52509.00
251.4820, 52284.00
252.6980, 51979.00
253.9130, 52004.00
255.1290, 52344.00
256.3440, 52537.00
257.5600, 52687.00
258.7750, 51760.00
259.9900, 51456.00
261.2040, 51254.00
262.4190, 51333.00
263.6330, 51454.00
264.8480, 51548.85
266.0620, 51788.64
267.2760, 52020.00
268.4900, 52382.00
269.7030, 52757.00
270.9170, 53224.00
272.1300, 54357.00
273.3430, 55081.00
274.5560, 56426.00
275.7690, 57945.00
276.9820, 58281.00
278.1940, 58069.00
279.4070, 56792.00
280.6190, 56771.00
281.8310, 56835.00
283.0430, 57362.00
284.2550, 58509.00
285.4660, 60176.00
286.6770, 65785.00
287.8890, 66152.00
289.1000, 69395.00
290.3110, 72564.00
291.5210, 74437.00
292.7320, 77174.00
293.9420, 81972.00
295.1530, 88989.00
296.3630, 98218.00
297.5730, 109300.0
298.7830, 121920.0
299.9920, 129873.0
301.2020, 121066.0
302.4110, 103452.0
303.6200, 87869.00
304.8290, 75404.00
306.0380, 67708.00
307.2470, 63375.00
308.4550, 60868.00
309.6630, 59973.00
310.8720, 59772.00
312.0800, 60199.00
313.2880, 60810.00
314.4950, 62266.00
315.7030, 63427.00
316.9100, 64744.00
318.1170, 66626.00
319.3240, 70330.00
320.5310, 74738.00
321.7380, 80641.00
322.9450, 86429.00
324.1510, 90225.00
325.3570, 87679.00
326.5630, 79803.00
327.7690, 71890.00
328.9750, 65728.00
330.1810, 61402.00
331.3860, 58981.00
332.5910, 57167.00
333.7960, 56004.00
335.0010, 55931.00
336.2060, 55526.00
337.4110, 55902.00
338.6150, 56120.00
339.8200, 56145.00
341.0240, 56497.00
342.2280, 55650.00
343.4320, 55881.00
344.6350, 55331.00
345.8390, 55891.00
347.0420, 56415.00
348.2450, 57241.00
349.4480, 57725.00
350.6510, 59070.00
351.8540, 61184.00
353.0560, 63422.00
354.2590, 66489.00
355.4610, 70311.00
356.6630, 75602.00
357.8650, 80926.00
359.0670, 83531.00
360.2680, 81198.00
361.4700, 75804.00
362.6710, 71163.00
363.8720, 68563.00
365.0730, 67798.00
366.2740, 68637.00
367.4740, 70504.00
368.6750, 73161.00
369.8750, 76144.00
371.0750, 78081.00
372.2750, 78884.00
373.4750, 80166.00
374.6740, 81717.00
375.8740, 82985.00
377.0730, 85000.00
378.2720, 87290.00
379.4710, 90865.00
380.6700, 96118.00
381.8690, 102185.0
383.0670, 108363.0
384.2660, 109510.0
385.4640, 106393.0
386.6620, 102810.0
387.8600, 101678.0
389.0570, 104296.0
390.2550, 109698.0
391.4520, 111325.0
392.6490, 102980.0
393.8460, 91784.00
395.0430, 84498.00
396.2400, 81244.00
397.4370, 81894.00
398.6330, 86146.00
399.8290, 93523.00
401.0250, 100785.0
402.2210, 107463.0
403.4170, 107426.0
404.6130, 98285.00
405.8080, 87518.00
407.0030, 80487.00
408.1980, 75916.00
409.3930, 69164.00
410.5880, 66978.00
411.7830, 65745.00
412.9770, 64508.00
414.1720, 64903.00
415.3660, 65438.00
416.5600, 66463.00
417.7530, 67713.00
418.9470, 68054.00
420.1410, 66860.00
421.3340, 65523.00
422.5270, 64408.00
423.7200, 64226.00
424.9130, 65095.00
426.1060, 66103.00
427.2980, 68048.00
428.4900, 71559.00
429.6830, 74915.00
430.8750, 79935.00
432.0670, 85351.00
433.2580, 92328.00
434.4500, 97988.00
435.6410, 100595.0
436.8320, 100450.0
438.0240, 97150.00
439.2140, 90881.00
440.4050, 84527.00
441.5960, 80867.00
442.7860, 79607.00
443.9760, 79987.00
445.1670, 81568.00
446.3560, 83575.00
447.5460, 82101.00
448.7360, 78608.00
449.9250, 73575.00
451.1150, 69275.00
452.3040, 66550.00
453.4930, 64816.00
454.6810, 64408.00
455.8700, 64280.00
457.0590, 64583.00
458.2470, 64906.00
459.4350, 65535.00
460.6230, 66851.00
461.8110, 68269.00
462.9980, 68998.00
464.1860, 70088.00
465.3730, 69765.00
466.5600, 69501.00
467.7470, 69334.00
468.9340, 69578.00
470.1210, 72475.00
471.3080, 71505.00
472.4940, 74202.00
473.6800, 77979.00
474.8660, 83570.00
476.0520, 90637.00
477.2380, 100552.0
478.4230, 113608.0
479.6090, 130600.0
480.7940, 152076.0
481.9790, 176728.0
483.1640, 200687.0
484.3490, 220978.0
485.5330, 222903.0
486.7180, 204807.0
487.9020, 176891.0
489.0860, 149810.0
490.2700, 128781.0
491.4540, 113874.0
492.6370, 102236.0
493.8210, 93232.00
495.0040, 85822.00
496.1870, 79628.00
497.3700, 75582.00
498.5530, 72741.00
499.7360, 70439.00
500.9180, 69685.00
502.1000, 69361.00
503.2830, 67715.00
504.4650, 67659.00
505.6460, 67962.00
506.8280, 67926.00
508.0100, 68414.00
509.1910, 68773.00
510.3720, 69046.00
511.5530, 68974.00
512.7340, 68482.00
513.9150, 67642.00
515.0950, 66430.00
516.2760, 65166.00
517.4560, 64335.00
518.6360, 63709.00
519.8160, 62856.00
520.9950, 62627.00
522.1750, 62660.00
523.3540, 62461.00
524.5340, 62313.00
525.7130, 62274.00
526.8920, 61934.00
528.0700, 61728.00
529.2490, 61963.00
530.4270, 61769.00
531.6060, 61731.00
532.7840, 62087.00
533.9620, 61814.00
535.1390, 62274.00
536.3170, 62467.00
537.4940, 62441.00
538.6720, 62568.00
539.8490, 63005.00
541.0260, 63175.00
542.2030, 63176.00
543.3790, 63886.00
544.5560, 63855.00
545.7320, 63882.00
546.9080, 63523.00
548.0840, 63501.00
549.2600, 63133.00
550.4360, 63308.00
551.6110, 63717.00
552.7860, 64024.00
553.9620, 64932.00
555.1370, 65422.00
556.3110, 67020.00
557.4860, 68070.00
558.6610, 70603.00
559.8350, 72921.00
561.0090, 75162.00
562.1830, 75430.00
563.3570, 73790.00
564.5310, 71641.00
565.7040, 70364.00
566.8780, 69215.00
568.0510, 68770.00
569.2240, 69105.00
570.3970, 69256.00
571.5700, 69490.00
572.7420, 69058.00
573.9150, 68306.00
575.0870, 67412.00
576.2590, 66815.00
577.4310, 66103.00
578.6030, 65801.00
579.7740, 65989.00
580.9460, 65446.93
582.1170, 64804.00
583.2880, 65119.00
584.4590, 64799.00
585.6300, 65017.00
586.8010, 64580.00
587.9710, 64611.00
589.1410, 64937.00
590.3110, 65253.00
591.4810, 65271.00
592.6510, 65481.00
593.8210, 66120.00
594.9900, 67084.00
596.1600, 68244.00
597.3290, 69526.00
598.4980, 71022.00
599.6670, 72344.00
600.8350, 74167.00
602.0040, 76527.00
603.1720, 78425.00
604.3400, 79318.00
605.5080, 79619.00
606.6760, 78437.00
607.8440, 76072.00
609.0120, 73961.00
610.1790, 72201.00
611.3460, 70798.00
612.5130, 70063.00
613.6800, 70170.00
614.8470, 69502.00
616.0130, 69823.00
617.1800, 69510.00
618.3460, 69183.00
619.5120, 68988.00
620.6780, 68407.00
621.8440, 68285.00
623.0090, 68131.00
624.1750, 68008.00
625.3400, 68304.00
626.5050, 68840.00
627.6700, 69290.00
628.8350, 69745.00
629.9990, 70419.00
631.1640, 71379.00
632.3280, 72341.00
633.4920, 73238.00
634.6560, 74189.00
635.8200, 74448.00
636.9840, 74380.00
638.1470, 73477.00
639.3100, 71873.00
640.4730, 70822.00
641.6360, 69580.00
642.7990, 69234.00
643.9620, 69083.00
645.1240, 69208.00
646.2870, 69648.00
647.4490, 69966.00
648.6110, 70467.00
649.7730, 71789.00
650.9340, 72791.00
652.0960, 73937.00
653.2570, 75123.00
654.4180, 75641.00
655.5790, 76093.00
656.7400, 75319.00
657.9010, 74173.00
659.0620, 72765.00
660.2220, 71396.00
661.3820, 70063.00
662.5420, 69223.00
663.7020, 68914.00
664.8620, 68200.00
666.0210, 67903.00
667.1810, 67871.00
668.3400, 67636.00
669.4990, 67898.00
670.6580, 67800.00
671.8170, 67591.00
672.9750, 67366.00
674.1340, 67880.00
675.2920, 67397.00
676.4500, 68170.00
677.6080, 67808.00
678.7660, 68146.00
679.9230, 68773.00
681.0810, 68731.00
682.2380, 68610.00
683.3950, 68329.00
684.5520, 68439.00
685.7090, 68051.00
686.8660, 67795.00
688.0220, 67313.00
689.1780, 67239.00
690.3340, 66975.00
691.4900, 66400.00
692.6460, 66627.00
693.8020, 66685.00
694.9570, 66142.00
696.1130, 66474.00
697.2680, 66955.00
698.4230, 66852.00
699.5780, 66754.00
700.7320, 66756.00
701.8870, 66540.00
703.0410, 66789.00
704.1950, 66881.00
705.3490, 66921.00
706.5030, 66777.00
707.6570, 66920.00
708.8110, 66876.57
709.9640, 66853.00
711.1170, 66921.00
712.2700, 67095.00
713.4230, 67165.00
714.5760, 66692.00
715.7280, 67246.00
716.8810, 67208.00
718.0330, 67532.00
719.1850, 67756.00
720.3370, 67907.00
721.4890, 68008.00
722.6400, 67901.00
723.7920, 67978.00
724.9430, 67963.00
726.0940, 67974.00
727.2450, 67488.00
728.3960, 67529.00
729.5460, 67203.00
730.6970, 67232.00
731.8470, 67155.00
732.9970, 66850.00
734.1470, 66952.00
735.2970, 66844.81
736.4460, 66643.00
737.5960, 66968.00
738.7450, 66942.00
739.8940, 67298.00
741.0430, 67637.00
742.1920, 67697.00
743.3410, 67387.00
744.4890, 67076.00
745.6370, 66982.00
746.7850, 67356.00
747.9330, 67290.00
749.0810, 67173.00
750.2290, 67394.00
751.3760, 67241.00
752.5240, 67353.00
753.6710, 67249.00
754.8180, 67060.00
755.9650, 67427.00
757.1110, 67454.00
758.2580, 67130.00
759.4040, 67674.00
760.5510, 67511.00
761.6970, 67386.00
762.8420, 67153.00
763.9880, 67186.00
765.1340, 67266.00
766.2790, 67219.00
767.4240, 67137.00
768.5690, 67351.00
769.7140, 67164.00
770.8590, 67098.00
772.0030, 67354.00
773.1480, 67458.00
774.2920, 67149.00
775.4360, 67623.00
776.5800, 67407.00
777.7240, 67234.00
778.8670, 67428.00
780.0110, 67702.00
781.1540, 67510.00
782.2970, 68010.00
783.4400, 67657.00
784.5830, 67663.00
785.7250, 67724.00
786.8680, 67526.00
788.0100, 67894.00
789.1520, 67865.00
790.2940, 67829.00
791.4360, 67823.00
792.5780, 67701.00
793.7190, 68336.00
794.8600, 68035.00
796.0010, 68426.00
797.1420, 67834.00
798.2830, 68368.00
799.4240, 68587.00
800.5640, 68629.00
801.7050, 68537.00
802.8450, 68336.00
803.9850, 68406.00
805.1250, 68520.00
806.2640, 68608.00
807.4040, 68702.00
808.5430, 69303.00
809.6820, 68950.00
810.8210, 69697.00
811.9600, 68820.00
813.0990, 69227.00
814.2370, 69369.00
815.3760, 69404.00
816.5140, 69351.00
817.6520, 69167.00
818.7900, 69651.00
819.9270, 69490.00
821.0650, 69634.00
822.2020, 69495.00
823.3390, 69697.00
824.4760, 69846.00
825.6130, 69672.00
826.7500, 69651.00
827.8870, 69768.00
829.0230, 69961.00
830.1590, 70220.00
831.2950, 70160.00
832.4310, 70223.00
833.5670, 70306.00
834.7030, 70525.00
835.8380, 70587.00
836.9730, 70714.00
838.1080, 70749.00
839.2430, 70620.00
840.3780, 70912.00
841.5130, 70801.00
842.6470, 71437.00
843.7810, 70946.00
844.9150, 70850.00
846.0490, 71034.00
847.1830, 71718.00
848.3170, 71428.00
849.4500, 71776.00
850.5830, 71847.00
851.7160, 71950.00
852.8490, 72464.00
853.9820, 72205.00
855.1150, 72372.00
856.2470, 72685.00
857.3800, 73226.00
858.5120, 73014.00
859.6440, 73482.00
860.7760, 73619.00
861.9070, 74024.00
863.0390, 74295.79
864.1700, 74504.00
865.3010, 74852.00
866.4320, 75121.00
867.5630, 75400.00
868.6940, 75878.78
869.8240, 76334.41
870.9540, 76976.00
872.0850, 77557.00
873.2150, 78396.00
874.3450, 79271.00
875.4740, 80179.00
876.6040, 81894.00
877.7330, 82880.00
878.8620, 84746.00
879.9910, 86683.00
881.1200, 88800.00
882.2490, 92002.00
883.3770, 94969.00
884.5060, 98250.00
885.6340, 102240.0
886.7620, 105517.0
887.8900, 108309.0
889.0180, 109820.0
890.1450, 110913.0
891.2730, 108445.0
892.4000, 105619.0
893.5270, 102557.0
894.6540, 100207.0
895.7810, 98628.00
896.9070, 97723.00
898.0340, 97878.00
899.1600, 97245.00
900.2860, 97324.00
901.4120, 96313.00
902.5380, 95086.00
903.6630, 93050.00
904.7890, 91658.00
905.9140, 89521.00
907.0390, 88334.00
908.1640, 86551.00
909.2890, 85778.00
910.4130, 84906.00
911.5380, 84584.00
912.6620, 84046.00
913.7860, 83959.00
914.9100, 84025.00
916.0340, 84327.00
917.1580, 83878.00
918.2810, 84385.00
919.4040, 84836.00
920.5280, 85643.00
921.6510, 85809.00
922.7730, 86472.00
923.8960, 87402.00
925.0180, 88494.00
926.1410, 89222.00
927.2630, 90658.00
928.3850, 92435.00
929.5070, 93580.00
930.6280, 95716.00
931.7500, 98080.00
932.8710, 99774.00
933.9920, 102098.0
935.1130, 103948.0
936.2340, 106056.0
937.3550, 107750.6
938.4760, 109719.0
939.5960, 111031.0
940.7160, 112729.0
941.8360, 114495.0
942.9560, 116328.0
944.0760, 118002.0
945.1950, 119605.0
946.3150, 121261.0
947.4340, 121912.0
948.5530, 122896.0
949.6720, 123776.0
950.7900, 124862.0
951.9090, 126191.0
953.0270, 127712.0
954.1460, 130143.0
955.2640, 132060.0
956.3820, 135054.0
957.4990, 137353.0
958.6170, 139636.0
959.7340, 140990.0
960.8520, 140653.0
961.9690, 138697.0
963.0860, 134965.0
964.2020, 130076.0
965.3190, 124706.0
966.4350, 119524.0
967.5520, 114674.0
968.6680, 110148.0
969.7840, 105259.0
970.8990, 101735.0
972.0150, 98492.00
973.1310, 96037.00
974.2460, 94228.00
975.3610, 92899.00
976.4760, 91104.00
977.5910, 89889.00
978.7050, 88762.00
979.8200, 87976.00
980.9340, 86926.00
982.0480, 86052.00
983.1620, 85544.00
984.2760, 85498.00
985.3900, 85044.00
986.5030, 85398.00
987.6160, 85279.00
988.7300, 85775.00
989.8430, 85707.00
990.9550, 86024.00
992.0680, 87133.00
993.1810, 87962.00
994.2930, 89276.00
995.4050, 90758.00
996.5170, 93369.00
997.6290, 94353.00
998.7410, 96412.00
999.8520, 97182.00
1000.964, 97876.00
1002.075, 96485.00
1003.186, 94530.00
1004.297, 92089.00
1005.407, 90148.00
1006.518, 88300.00
1007.628, 86777.00
1008.738, 85471.00
1009.848, 84908.00
1010.958, 84166.00
1012.068, 83305.00
1013.178, 83237.00
1014.287, 82664.00
1015.396, 82528.00
1016.505, 81986.00
1017.614, 82271.00
1018.723, 81691.00
1019.831, 81819.00
1020.940, 81601.00
1022.048, 81296.00
1023.156, 81238.00
1024.264, 81153.00
1025.372, 80969.00
1026.479, 80946.00
1027.587, 80724.00
1028.694, 81102.00
1029.801, 81128.00
1030.908, 81086.00
1032.015, 80835.00
1033.121, 80525.00
1034.228, 80401.00
1035.334, 80797.00
1036.440, 80393.00
1037.546, 80895.00
1038.652, 80283.00
1039.758, 81389.00
1040.863, 81012.00
1041.968, 80797.00
1043.074, 80766.00
1044.178, 80604.40
1045.283, 80720.00
1046.388, 80605.00
1047.492, 80730.00
1048.597, 80885.00
1049.701, 81122.00
1050.805, 80966.00
1051.909, 80812.00
1053.012, 80973.00
1054.116, 81199.00
1055.219, 81208.00
1056.322, 81018.00
1057.425, 81148.00
1058.528, 81182.00
1059.631, 81479.00
1060.733, 81054.00
1061.836, 81225.00
1062.938, 81631.00
1064.040, 81645.00
1065.142, 82147.00
1066.243, 81292.00
1067.345, 81252.00
1068.446, 81471.00
1069.547, 81399.00
1070.648, 81359.00
1071.749, 81441.00
1072.850, 81724.00
1073.951, 81876.00
1075.051, 81826.23
1076.151, 81669.00
1077.251, 81650.00
1078.351, 81878.00
1079.451, 81752.00
1080.550, 82120.00
1081.650, 82027.00
1082.749, 82040.00
1083.848, 81848.00
1084.947, 82332.00
1086.046, 82218.00
1087.144, 82138.00
1088.243, 82822.00
1089.341, 82427.00
1090.439, 82759.00
1091.537, 82369.00
1092.635, 82316.00
1093.732, 82603.00
1094.830, 83060.00
1095.927, 82532.00
1097.024, 82854.00
1098.121, 82789.00
1099.218, 83015.00
1100.314, 82882.00
1101.411, 82673.00
1102.507, 82695.00
1103.603, 82916.00
1104.699, 83234.00
1105.795, 83017.00
1106.890, 83298.36
1107.986, 83522.00
1109.081, 83512.00
1110.176, 83547.00
1111.271, 83629.00
1112.366, 83737.00
1113.461, 83755.00
1114.555, 83669.00
1115.649, 83740.00
1116.744, 83472.00
1117.838, 83838.00
1118.931, 83477.00
1120.025, 83767.00
1121.119, 83841.00
1122.212, 83856.00
1123.305, 83980.00
1124.398, 83856.00
1125.491, 83512.00
1126.584, 83996.00
1127.676, 84129.00
1128.768, 84411.00
1129.861, 84050.00
1130.953, 84207.00
1132.044, 84136.00
1133.136, 84177.00
1134.228, 84351.62
1135.319, 84578.00
1136.410, 84632.00
1137.501, 84537.00
1138.592, 84522.00
1139.683, 84667.00
1140.773, 84482.00
1141.864, 84485.00
1142.954, 84885.00
1144.044, 85013.00
1145.134, 84395.00
1146.224, 84867.00
1147.313, 85053.00
1148.402, 85094.00
1149.492, 85409.00
1150.581, 85110.00
1151.670, 85755.00
1152.758, 85740.00
1153.847, 85183.00
1154.935, 85512.00
1156.024, 85111.00
1157.112, 85590.00
1158.200, 85174.00
1159.287, 85146.00
1160.375, 85426.00
1161.462, 85504.00
1162.550, 85781.00
1163.637, 85488.00
1164.724, 86006.00
1165.810, 86047.00
1166.897, 85727.00
1167.983, 85749.00
1169.070, 86152.00
1170.156, 86204.00
1171.242, 86121.00
1172.327, 86144.00
1173.413, 86107.00
1174.499, 86206.00
1175.584, 86408.00
1176.669, 86044.00
1177.754, 86382.00
1178.839, 86597.00
1179.923, 86329.00
1181.008, 86605.00
1182.092, 86379.00
1183.176, 86556.00
1184.260, 86310.00
1185.344, 86579.00
1186.428, 86553.00
1187.511, 86621.00
1188.595, 86814.16
1189.678, 86825.00
1190.761, 87031.00
1191.843, 87109.00
1192.926, 87001.00
1194.009, 86934.00
1195.091, 87283.00
1196.173, 87105.00
1197.255, 86979.00
1198.337, 87628.00
1199.419, 87324.00
1200.500, 87366.00
1201.582, 87414.00
1202.663, 87737.00
1203.744, 87528.00
1204.825, 88068.00
1205.905, 87535.00
1206.986, 87722.00
1208.066, 88014.00
1209.146, 87918.00
1210.226, 87683.00
1211.306, 88055.00
1212.386, 88143.00
1213.466, 88105.00
1214.545, 88409.00
1215.624, 88475.00
1216.703, 88341.00
1217.782, 88655.00
1218.861, 88595.00
1219.939, 88287.00
1221.018, 88226.00
1222.096, 88257.38
1223.174, 88249.55
1224.252, 88439.00
1225.330, 88584.00
1226.407, 88713.00
1227.485, 89103.00
1228.562, 88862.00
1229.639, 88690.00
1230.716, 89333.00
1231.793, 89412.00
1232.869, 89773.00
1233.946, 89271.00
1235.022, 89881.00
1236.098, 89538.00
1237.174, 89512.00
1238.250, 89729.00
1239.325, 89762.00
1240.401, 89979.00
1241.476, 89609.00
1242.551, 89683.00
1243.626, 89404.00
1244.701, 90064.00
1245.776, 89679.00
1246.850, 89843.00
1247.924, 90424.00
1248.999, 90421.00
1250.073, 90177.00
1251.146, 90292.00
1252.220, 90102.00
1253.293, 90109.00
1254.367, 90279.00
1255.440, 90207.00
1256.513, 90595.00
1257.586, 90109.00
1258.658, 90590.00
1259.731, 90669.00
1260.803, 90490.00
