##NAMES=Kyanite
##RRUFFID=R040119
##IDEAL CHEMISTRY=Al_2_OSiO_4_
##LOCALITY=Rutherford County, North Carolina, USA
##OWNER=RRUFF
##SOURCE=University of Arizona Mineral Museum
##DESCRIPTION=Blue bladed crystal
##STATUS=The identification of this mineral has been confirmed by X-ray diffraction and chemical analysis
##URL=rruff.info/R040119
##MEASURED CHEMISTRY=(Al_0.99_Fe^3+^_0.01_)_2_OSi_1.00_O_4_
##PIN_ID=L00448
##ORIENTATION=Laser parallel to -a* (-1 0 0). Fiducial mark perpendicular to laser is parallel to b [0 1 0]
127.8490, 32109.00
129.0810, 32261.00
130.3130, 32336.00
131.5450, 32066.00
132.7770, 32015.00
134.0080, 31860.00
135.2390, 31967.00
136.4710, 31828.00
137.7020, 32094.00
138.9320, 32086.00
140.1630, 32239.00
141.3930, 31993.00
142.6240, 31967.00
143.8540, 32064.00
145.0840, 32073.00
146.3140, 32150.00
147.5440, 31799.00
148.7730, 31727.00
150.0020, 31844.00
151.2320, 31825.00
152.4610, 31838.00
153.6900, 31786.00
154.9180, 31893.00
156.1470, 32115.00
157.3750, 32229.00
158.6040, 32791.00
159.8320, 33731.00
161.0600, 33400.00
162.2870, 33150.00
163.5150, 32900.00
164.7420, 32391.00
165.9700, 32129.00
167.1970, 32145.00
168.4240, 32424.00
169.6510, 32421.00
170.8770, 32220.00
172.1040, 32466.00
173.3300, 32616.00
174.5560, 33015.00
175.7820, 32580.00
177.0080, 32627.00
178.2340, 32796.00
179.4590, 32439.00
180.6850, 32242.00
181.9100, 32372.00
183.1350, 32382.00
184.3600, 32380.00
185.5850, 32351.00
186.8090, 32572.00
188.0340, 32426.00
189.2580, 32651.00
190.4820, 32516.00
191.7060, 32708.00
192.9300, 32657.00
194.1530, 33079.00
195.3770, 33112.00
196.6000, 33290.00
197.8230, 33355.00
199.0460, 33797.00
200.2690, 34066.00
201.4910, 34809.00
202.7140, 35104.00
203.9360, 35676.00
205.1580, 36190.00
206.3800, 36562.00
207.6020, 36252.00
208.8240, 35676.00
210.0450, 35284.00
211.2670, 34658.00
212.4880, 34086.00
213.7090, 33920.00
214.9300, 33901.00
216.1510, 33712.00
217.3710, 33912.00
218.5920, 33999.00
219.8120, 34137.00
221.0320, 34350.00
222.2520, 34876.00
223.4720, 35048.00
224.6910, 35208.00
225.9110, 35224.44
227.1300, 35159.00
228.3490, 34908.00
229.5680, 34564.00
230.7870, 34248.00
232.0050, 34194.00
233.2240, 34143.00
234.4420, 33865.00
235.6600, 34101.00
236.8780, 34469.00
238.0960, 34367.00
239.3140, 34558.00
240.5310, 34519.00
241.7490, 34688.00
242.9660, 35147.00
244.1830, 35401.00
245.4000, 35018.00
246.6160, 35167.00
247.8330, 35608.00
249.0490, 35011.00
250.2660, 35040.00
251.4820, 34767.00
252.6980, 34545.00
253.9130, 35048.00
255.1290, 35240.00
256.3440, 34867.73
257.5600, 35370.00
258.7750, 34211.00
259.9900, 34199.00
261.2040, 34020.00
262.4190, 34334.00
263.6330, 34204.00
264.8480, 34507.00
266.0620, 34647.00
267.2760, 35299.00
268.4900, 35659.00
269.7030, 36733.00
270.9170, 37568.00
272.1300, 38827.00
273.3430, 40009.00
274.5560, 41460.00
275.7690, 42995.00
276.9820, 43421.00
278.1940, 42940.00
279.4070, 41672.00
280.6190, 40219.00
281.8310, 39601.00
283.0430, 39026.00
284.2550, 39240.00
285.4660, 40032.00
286.6770, 41605.00
287.8890, 43241.00
289.1000, 45430.00
290.3110, 47268.00
291.5210, 49321.00
292.7320, 51398.00
293.9420, 54526.00
295.1530, 58642.00
296.3630, 64548.00
297.5730, 71130.00
298.7830, 79072.00
299.9920, 84928.00
301.2020, 83150.00
302.4110, 74234.00
303.6200, 64344.00
304.8290, 54827.00
306.0380, 47523.00
307.2470, 43468.00
308.4550, 41167.00
309.6630, 40420.00
310.8720, 39942.00
312.0800, 40288.00
313.2880, 40683.00
314.4950, 42238.00
315.7030, 44160.00
316.9100, 47038.00
318.1170, 50224.00
319.3240, 54873.00
320.5310, 60381.00
321.7380, 66783.00
322.9450, 73763.00
324.1510, 79092.00
325.3570, 78197.00
326.5630, 70743.00
327.7690, 61537.00
328.9750, 53324.00
330.1810, 46631.00
331.3860, 42703.00
332.5910, 40608.00
333.7960, 39747.00
335.0010, 39337.00
336.2060, 39330.00
337.4110, 39659.00
338.6150, 40133.00
339.8200, 40743.00
341.0240, 40941.00
342.2280, 40961.00
343.4320, 40285.00
344.6350, 40040.00
345.8390, 40037.00
347.0420, 39516.00
348.2450, 39905.00
349.4480, 40795.00
350.6510, 42038.00
351.8540, 43497.00
353.0560, 45878.00
354.2590, 47840.00
355.4610, 51586.00
356.6630, 55602.00
357.8650, 59738.00
359.0670, 62059.00
360.2680, 61360.00
361.4700, 57922.00
362.6710, 54489.00
363.8720, 51819.00
365.0730, 50049.00
366.2740, 50378.00
367.4740, 51747.00
368.6750, 54070.00
369.8750, 56604.00
371.0750, 58770.00
372.2750, 60180.00
373.4750, 61501.00
374.6740, 63449.00
375.8740, 66678.00
377.0730, 69832.00
378.2720, 73678.00
379.4710, 78911.00
380.6700, 85412.00
381.8690, 92158.00
383.0670, 99518.00
384.2660, 102394.0
385.4640, 98945.00
386.6620, 93269.00
387.8600, 87500.00
389.0570, 84539.00
390.2550, 85206.00
391.4520, 85771.00
392.6490, 81239.00
393.8460, 74848.00
395.0430, 69878.00
396.2400, 67395.00
397.4370, 68990.00
398.6330, 75239.00
399.8290, 82962.00
401.0250, 92105.00
402.2210, 99999.00
403.4170, 101350.0
404.6130, 94178.00
405.8080, 82816.00
407.0030, 70217.00
408.1980, 59742.00
409.3930, 52898.00
410.5880, 48585.00
411.7830, 46269.00
412.9770, 44843.00
414.1720, 43909.00
415.3660, 43529.00
416.5600, 43530.00
417.7530, 43408.00
418.9470, 43538.00
420.1410, 43297.00
421.3340, 43184.00
422.5270, 43539.00
423.7200, 44032.00
424.9130, 45398.00
426.1060, 46900.00
427.2980, 49056.00
428.4900, 52567.00
429.6830, 56654.00
430.8750, 62168.00
432.0670, 68215.00
433.2580, 75365.00
434.4500, 81521.00
435.6410, 85709.00
436.8320, 86169.00
438.0240, 82668.00
439.2140, 75930.00
440.4050, 68837.00
441.5960, 62454.00
442.7860, 57871.00
443.9760, 55945.00
445.1670, 54735.00
446.3560, 55193.00
447.5460, 54507.00
448.7360, 52291.00
449.9250, 49701.00
451.1150, 47251.00
452.3040, 45080.00
453.4930, 44230.00
454.6810, 43766.00
455.8700, 43580.00
457.0590, 43694.99
458.2470, 44111.00
459.4350, 44856.00
460.6230, 45790.00
461.8110, 47102.00
462.9980, 47937.00
464.1860, 48890.00
465.3730, 48780.00
466.5600, 48625.00
467.7470, 48192.00
468.9340, 48106.00
470.1210, 48102.00
471.3080, 49243.00
472.4940, 50855.00
473.6800, 53718.00
474.8660, 57728.00
476.0520, 63257.00
477.2380, 74018.00
478.4230, 82762.00
479.6090, 95632.00
480.7940, 112153.0
481.9790, 130967.0
483.1640, 151785.0
484.3490, 168777.0
485.5330, 175897.0
486.7180, 167312.0
487.9020, 149416.0
489.0860, 128424.0
490.2700, 109509.0
491.4540, 95181.00
492.6370, 84443.00
493.8210, 75377.00
495.0040, 68294.00
496.1870, 62167.00
497.3700, 57075.00
498.5530, 53622.00
499.7360, 51629.00
500.9180, 49907.00
502.1000, 48587.00
503.2830, 47668.00
504.4650, 47371.00
505.6460, 47001.00
506.8280, 47092.00
508.0100, 46967.00
509.1910, 46986.00
510.3720, 46806.00
511.5530, 46818.00
512.7340, 46312.00
513.9150, 45515.00
515.0950, 44513.00
516.2760, 43756.00
517.4560, 43519.00
518.6360, 42846.00
519.8160, 42365.00
520.9950, 42301.00
522.1750, 41811.00
523.3540, 42000.00
524.5340, 41973.00
525.7130, 41814.00
526.8920, 41467.00
528.0700, 41621.00
529.2490, 41769.00
530.4270, 41476.00
531.6060, 41574.00
532.7840, 41630.00
533.9620, 41465.00
535.1390, 41577.00
536.3170, 41945.00
537.4940, 41842.00
538.6720, 42084.93
539.8490, 42540.00
541.0260, 42505.00
542.2030, 42432.00
543.3790, 42932.00
544.5560, 43079.00
545.7320, 43256.00
546.9080, 42845.00
548.0840, 43049.00
549.2600, 43073.00
550.4360, 43261.00
551.6110, 43583.00
552.7860, 44242.00
553.9620, 44796.00
555.1370, 46078.00
556.3110, 47343.00
557.4860, 49225.00
558.6610, 51594.00
559.8350, 53748.00
561.0090, 55652.00
562.1830, 56392.00
563.3570, 55757.00
564.5310, 53590.00
565.7040, 51156.00
566.8780, 49461.00
568.0510, 48263.00
569.2240, 47515.00
570.3970, 47228.00
571.5700, 46965.00
572.7420, 46625.00
573.9150, 46378.00
575.0870, 46083.00
576.2590, 45808.00
577.4310, 46002.00
578.6030, 45816.00
579.7740, 46773.00
580.9460, 47013.00
582.1170, 46902.00
583.2880, 47177.00
584.4590, 47419.00
585.6300, 47481.00
586.8010, 46780.00
587.9710, 46241.00
589.1410, 45623.00
590.3110, 45147.00
591.4810, 44643.00
592.6510, 44860.00
593.8210, 44809.00
594.9900, 45333.00
596.1600, 45606.00
597.3290, 46115.00
598.4980, 46523.00
599.6670, 47408.00
600.8350, 48085.00
602.0040, 49296.00
603.1720, 49755.00
604.3400, 50689.00
605.5080, 50983.00
606.6760, 50716.00
607.8440, 50264.00
609.0120, 49559.00
610.1790, 49248.00
611.3460, 49313.00
612.5130, 48890.00
613.6800, 49398.00
614.8470, 49867.00
616.0130, 49842.00
617.1800, 50471.00
618.3460, 50534.00
619.5120, 50639.00
620.6780, 51016.00
621.8440, 50847.00
623.0090, 51250.00
624.1750, 52055.00
625.3400, 53195.00
626.5050, 54458.00
627.6700, 55337.00
628.8350, 56503.00
629.9990, 57921.00
631.1640, 60332.00
632.3280, 62469.00
633.4920, 63527.00
634.6560, 64259.00
635.8200, 64880.00
636.9840, 65262.00
638.1470, 63262.00
639.3100, 62868.00
640.4730, 59419.00
641.6360, 55242.00
642.7990, 54161.00
643.9620, 54469.00
645.1240, 53056.00
646.2870, 55502.00
647.4490, 55960.00
648.6110, 56094.00
649.7730, 56297.00
650.9340, 57407.00
652.0960, 59278.00
653.2570, 60887.00
654.4180, 62136.00
655.5790, 62523.00
656.7400, 61940.00
657.9010, 60412.00
659.0620, 58635.00
660.2220, 56369.00
661.3820, 54366.00
662.5420, 52853.00
663.7020, 52140.00
664.8620, 51651.00
666.0210, 51564.00
667.1810, 51628.00
668.3400, 51436.00
669.4990, 51302.00
670.6580, 50661.00
671.8170, 50454.00
672.9750, 49473.00
674.1340, 48705.00
675.2920, 48005.00
676.4500, 47356.00
677.6080, 47111.27
678.7660, 47372.00
679.9230, 46838.00
681.0810, 46900.00
682.2380, 46819.00
683.3950, 46770.00
684.5520, 46426.00
685.7090, 46469.00
686.8660, 46212.00
688.0220, 45876.00
689.1780, 46077.00
690.3340, 46157.00
691.4900, 45935.00
692.6460, 46301.00
693.8020, 46280.00
694.9570, 46393.00
696.1130, 46514.00
697.2680, 46760.00
698.4230, 46965.50
699.5780, 47463.00
700.7320, 47474.00
701.8870, 47542.00
703.0410, 47733.00
704.1950, 47445.00
705.3490, 47794.00
706.5030, 47260.00
707.6570, 47304.00
708.8110, 46755.00
709.9640, 46894.00
711.1170, 46836.00
712.2700, 46780.00
713.4230, 45823.00
714.5760, 46145.00
715.7280, 46104.00
716.8810, 45605.00
718.0330, 46182.00
719.1850, 46031.00
720.3370, 45966.00
721.4890, 45966.00
722.6400, 46003.00
723.7920, 46162.00
724.9430, 46135.00
726.0940, 46172.00
727.2450, 46301.41
728.3960, 46169.00
729.5460, 46475.00
730.6970, 46497.00
731.8470, 46473.00
732.9970, 46330.00
734.1470, 46509.00
735.2970, 46234.00
736.4460, 46223.00
737.5960, 46421.00
738.7450, 46110.00
739.8940, 46025.00
741.0430, 46061.00
742.1920, 45980.00
743.3410, 45878.00
744.4890, 45631.00
745.6370, 45739.00
746.7850, 45582.00
747.9330, 45375.00
749.0810, 45440.00
750.2290, 45435.00
751.3760, 45634.00
752.5240, 45150.00
753.6710, 45207.00
754.8180, 44975.00
755.9650, 45006.00
757.1110, 44717.00
758.2580, 44817.00
759.4040, 44865.00
760.5510, 44670.00
761.6970, 44647.00
762.8420, 44674.00
763.9880, 44832.00
765.1340, 44530.00
766.2790, 44775.00
767.4240, 44625.00
768.5690, 44567.00
769.7140, 44305.00
770.8590, 44174.00
772.0030, 44243.00
773.1480, 44445.00
774.2920, 44218.00
775.4360, 44472.00
776.5800, 44427.00
777.7240, 44248.00
778.8670, 44553.00
780.0110, 44587.00
781.1540, 44336.00
782.2970, 44183.00
783.4400, 44336.00
784.5830, 44486.00
785.7250, 44320.00
786.8680, 44660.00
788.0100, 44055.00
789.1520, 44495.00
790.2940, 44332.00
791.4360, 44748.00
792.5780, 44740.00
793.7190, 44653.00
794.8600, 44764.00
796.0010, 44818.00
797.1420, 45020.00
798.2830, 44897.00
799.4240, 44715.00
800.5640, 44908.00
801.7050, 44834.00
802.8450, 44802.00
803.9850, 45224.00
805.1250, 44934.00
806.2640, 44946.00
807.4040, 45212.00
808.5430, 45233.00
809.6820, 45296.00
810.8210, 45182.00
811.9600, 45459.00
813.0990, 45500.91
814.2370, 45641.03
815.3760, 45735.19
816.5140, 45785.81
817.6520, 45662.59
818.7900, 45763.84
819.9270, 45775.11
821.0650, 45782.72
822.2020, 45915.54
823.3390, 46188.00
824.4760, 46262.00
825.6130, 46081.00
826.7500, 46157.00
827.8870, 46197.00
829.0230, 46249.00
830.1590, 46324.07
831.2950, 46443.00
832.4310, 46472.00
833.5670, 46538.00
834.7030, 46620.00
835.8380, 46603.00
836.9730, 46793.00
838.1080, 46793.00
839.2430, 47170.00
840.3780, 46738.00
841.5130, 47193.00
842.6470, 47227.00
843.7810, 47079.00
844.9150, 47584.00
846.0490, 47389.00
847.1830, 47699.00
848.3170, 47909.00
849.4500, 48016.00
850.5830, 47882.00
851.7160, 48067.00
852.8490, 48138.00
853.9820, 47998.00
855.1150, 48530.00
856.2470, 48642.00
857.3800, 48750.00
858.5120, 49347.00
859.6440, 49388.00
860.7760, 49340.00
861.9070, 49398.00
863.0390, 49486.00
864.1700, 49587.00
865.3010, 49513.00
866.4320, 49756.00
867.5630, 50194.00
868.6940, 50166.00
869.8240, 50584.22
870.9540, 50707.00
872.0850, 51194.00
873.2150, 51629.00
874.3450, 51930.00
875.4740, 52236.00
876.6040, 52888.00
877.7330, 53366.03
878.8620, 53843.00
879.9910, 54651.00
881.1200, 55198.00
882.2490, 55889.00
883.3770, 56889.00
884.5060, 57929.00
885.6340, 58571.00
886.7620, 59856.00
887.8900, 60487.00
889.0180, 61467.00
890.1450, 61876.00
891.2730, 62263.00
892.4000, 62645.00
893.5270, 62682.00
894.6540, 63048.00
895.7810, 63638.00
896.9070, 64474.00
898.0340, 65854.00
899.1600, 66535.00
900.2860, 67105.00
901.4120, 67248.00
902.5380, 66533.00
903.6630, 65366.00
904.7890, 63675.00
905.9140, 62688.00
907.0390, 61682.00
908.1640, 60412.00
909.2890, 59808.00
910.4130, 59170.00
911.5380, 58933.00
912.6620, 59063.00
913.7860, 58808.00
914.9100, 58993.00
916.0340, 59484.00
917.1580, 59828.00
918.2810, 60410.00
919.4040, 60532.00
920.5280, 60854.00
921.6510, 61746.00
922.7730, 62545.00
923.8960, 63001.00
925.0180, 64570.00
926.1410, 65598.00
927.2630, 67054.00
928.3850, 68288.00
929.5070, 69967.00
930.6280, 71999.00
931.7500, 74243.00
932.8710, 76508.00
933.9920, 79151.95
935.1130, 82013.00
936.2340, 84806.00
937.3550, 87814.00
938.4760, 90892.00
939.5960, 93702.00
940.7160, 97086.00
941.8360, 101300.0
942.9560, 105734.0
944.0760, 109102.0
945.1950, 112325.0
946.3150, 115024.0
947.4340, 117073.0
948.5530, 118921.0
949.6720, 120276.0
950.7900, 122200.0
951.9090, 123050.0
953.0270, 125037.0
954.1460, 126205.0
955.2640, 129171.0
956.3820, 131433.0
957.4990, 134597.0
958.6170, 137320.0
959.7340, 138770.0
960.8520, 138068.0
961.9690, 135987.0
963.0860, 131285.0
964.2020, 125135.0
965.3190, 117897.0
966.4350, 110642.0
967.5520, 103443.0
968.6680, 96384.00
969.7840, 90575.00
970.8990, 85557.00
972.0150, 81000.00
973.1310, 78142.00
974.2460, 75038.00
975.3610, 72202.00
976.4760, 70299.00
977.5910, 68153.00
978.7050, 66711.00
979.8200, 65193.00
980.9340, 64318.00
982.0480, 63372.00
983.1620, 62629.00
984.2760, 62060.89
985.3900, 61328.00
986.5030, 61299.00
987.6160, 60945.00
988.7300, 60950.00
989.8430, 60776.00
990.9550, 61308.00
992.0680, 61531.00
993.1810, 62431.00
994.2930, 63626.00
995.4050, 65114.00
996.5170, 66235.00
997.6290, 67645.00
998.7410, 68797.00
999.8520, 70076.00
1000.964, 70588.00
1002.075, 69387.61
1003.186, 68396.00
1004.297, 66027.00
1005.407, 63804.00
1006.518, 62407.00
1007.628, 60908.00
1008.738, 59372.00
1009.848, 58460.00
1010.958, 57881.00
1012.068, 57435.00
1013.178, 56808.00
1014.287, 57150.00
1015.396, 56549.84
1016.505, 57020.00
1017.614, 55966.00
1018.723, 55843.00
1019.831, 55594.00
1020.940, 55558.00
1022.048, 55767.00
1023.156, 55539.00
1024.264, 55362.00
1025.372, 55424.00
1026.479, 55124.00
1027.587, 55276.00
1028.694, 55071.00
1029.801, 54839.00
1030.908, 54978.00
1032.015, 54611.00
1033.121, 54628.00
1034.228, 54476.00
1035.334, 54533.00
1036.440, 54418.00
1037.546, 54303.00
1038.652, 54455.00
1039.758, 54395.00
1040.863, 54439.00
1041.968, 53954.27
1043.074, 54294.83
1044.178, 54484.30
1045.283, 54530.79
1046.388, 54006.08
1047.492, 54218.96
1048.597, 54136.25
1049.701, 54041.42
1050.805, 54358.12
1051.909, 53916.50
1053.012, 54226.67
1054.116, 54236.74
1055.219, 54384.17
1056.322, 54234.18
1057.425, 53857.00
1058.528, 54276.00
1059.631, 53822.00
1060.733, 53965.00
1061.836, 54015.00
1062.938, 54533.00
1064.040, 54314.00
1065.142, 54414.00
1066.243, 54066.00
1067.345, 54265.00
1068.446, 54510.00
1069.547, 54389.00
1070.648, 54443.00
1071.749, 54440.00
1072.850, 54625.00
1073.951, 54418.00
1075.051, 54483.00
1076.151, 54616.00
1077.251, 54590.00
1078.351, 54832.00
1079.451, 54575.00
1080.550, 54776.00
1081.650, 55186.00
1082.749, 55262.00
1083.848, 55016.00
1084.947, 54962.00
1086.046, 55075.00
1087.144, 54865.00
1088.243, 54907.00
1089.341, 54876.00
1090.439, 54819.00
1091.537, 54997.00
1092.635, 55142.00
1093.732, 54998.00
1094.830, 54996.00
1095.927, 55151.00
1097.024, 54989.00
1098.121, 55094.00
1099.218, 55105.00
1100.314, 54621.00
1101.411, 54934.00
1102.507, 54951.00
1103.603, 54804.00
1104.699, 55168.00
1105.795, 54757.00
1106.890, 55021.00
1107.986, 55285.00
1109.081, 54946.00
1110.176, 55317.00
1111.271, 55410.00
1112.366, 55556.00
1113.461, 55654.42
1114.555, 55587.91
1115.649, 55609.00
1116.744, 55477.00
1117.838, 55232.00
1118.931, 55326.00
1120.025, 55270.07
1121.119, 55500.00
1122.212, 55372.00
1123.305, 55366.00
1124.398, 55391.00
1125.491, 55414.00
1126.584, 55359.00
1127.676, 55274.00
1128.768, 55400.07
1129.861, 55570.00
1130.953, 55611.00
1132.044, 55594.00
1133.136, 55661.00
1134.228, 55607.00
1135.319, 55558.00
1136.410, 55612.00
1137.501, 55459.00
1138.592, 55373.00
1139.683, 55827.00
1140.773, 55556.00
1141.864, 55904.00
1142.954, 55800.00
1144.044, 55927.00
1145.134, 56077.00
1146.224, 55888.00
1147.313, 55780.00
1148.402, 56096.00
1149.492, 55874.00
1150.581, 56206.00
1151.670, 56178.00
1152.758, 56204.00
1153.847, 56318.00
1154.935, 56277.00
1156.024, 56301.35
1157.112, 56329.00
1158.200, 56331.00
1159.287, 56452.00
1160.375, 56606.00
1161.462, 56432.00
1162.550, 56322.00
1163.637, 56201.00
1164.724, 56422.00
1165.810, 56411.00
1166.897, 56609.00
1167.983, 56560.00
1169.070, 56426.00
1170.156, 56879.00
1171.242, 57034.00
1172.327, 56681.00
1173.413, 56629.00
1174.499, 56491.00
1175.584, 56859.00
1176.669, 57043.00
1177.754, 56808.00
1178.839, 57096.00
1179.923, 57037.65
1181.008, 57169.00
1182.092, 56990.00
1183.176, 57168.00
1184.260, 56979.00
1185.344, 56808.00
1186.428, 56591.00
1187.511, 56912.00
1188.595, 57091.00
1189.678, 56996.00
1190.761, 57227.00
1191.843, 57122.00
1192.926, 57332.00
1194.009, 56970.00
1195.091, 57018.00
1196.173, 57241.00
1197.255, 57394.00
1198.337, 57246.00
1199.419, 57128.00
1200.500, 57215.00
1201.582, 57335.00
1202.663, 57350.65
1203.744, 57368.00
1204.825, 57526.00
1205.905, 57391.00
1206.986, 57462.00
1208.066, 57761.00
1209.146, 57534.00
1210.226, 57660.00
1211.306, 57410.00
1212.386, 57946.00
1213.466, 57628.00
1214.545, 57808.00
1215.624, 57827.00
1216.703, 58109.00
1217.782, 57932.00
1218.861, 57787.00
1219.939, 58047.00
1221.018, 58211.00
1222.096, 57928.00
1223.174, 58228.00
1224.252, 58021.00
1225.330, 58475.00
1226.407, 58405.00
1227.485, 59014.00
1228.562, 58527.00
1229.639, 58336.00
1230.716, 58304.00
1231.793, 58480.00
1232.869, 58410.00
1233.946, 58983.00
1235.022, 58879.00
1236.098, 58936.00
1237.174, 58768.00
1238.250, 59054.00
1239.325, 59139.00
1240.401, 59034.00
1241.476, 58995.00
1242.551, 59220.00
1243.626, 59000.00
1244.701, 59378.00
1245.776, 59188.00
1246.850, 59584.00
1247.924, 59610.00
1248.999, 59216.00
1250.073, 59219.00
1251.146, 59128.00
1252.220, 59437.00
1253.293, 59579.00
1254.367, 59375.00
1255.440, 58988.00
1256.513, 59273.00
1257.586, 59281.00
1258.658, 59334.00
1259.731, 59559.00
1260.803, 59565.00
1261.875, 59653.00
1262.947, 59451.00
1264.019, 59967.00
1265.091, 59685.00
1266.162, 59705.00
1267.234, 59779.00
1268.305, 60226.00
1269.376, 60100.00
1270.447, 60201.00
1271.517, 60141.00
1272.588, 60066.00
1273.658, 60288.00
1274.729, 60289.00
1275.799, 60574.00
1276.868, 59998.00
1277.938, 60383.00
1279.008, 60110.00
1280.077, 60074.00
1281.146, 60142.00
1282.215, 60098.00
1283.284, 60365.00
1284.353, 60295.00
1285.421, 60451.00
1286.490, 60293.00
1287.558, 60255.00
1288.626, 60223.00
1289.694, 60185.00
1290.762, 60320.78
1291.829, 60544.00
1292.897, 60592.00
1293.964, 60704.00
1295.031, 60745.00
1296.098, 61042.00
1297.165, 60963.00
1298.231, 61119.00
1299.298, 61138.00
1300.364, 60653.00
1301.430, 61201.00
1302.496, 60906.00
1303.562, 61208.00
1304.627, 61121.00
