##NAMES=Kyanite
##RRUFFID=R050450
##IDEAL CHEMISTRY=Al_2_OSiO_4_
##LOCALITY=Switzerland
##OWNER=RRUFF
##SOURCE=Marcus Origlieri
##DESCRIPTION=Blue bladed crystals
##STATUS=The identification of this mineral has been confirmed by X-ray diffraction and chemical analysis
##URL=rruff.info/R050450
##MEASURED CHEMISTRY=Al_2.00_OSi_1.00_O_4_
##PIN_ID=M01603
##ORIENTATION=Laser parallel to (-1 0 -1). Fiducial mark perpendicular to laser is parallel to b [0 1 0]
148.7160, 13939.00
149.9470, 13856.00
151.1780, 13838.00
152.4080, 13979.00
153.6380, 14158.00
154.8690, 14017.00
156.0980, 14060.00
157.3280, 14050.00
158.5580, 14196.00
159.7870, 14292.00
161.0170, 14233.00
162.2460, 14206.00
163.4750, 14229.00
164.7030, 14198.00
165.9320, 14201.00
167.1600, 14252.00
168.3890, 14283.00
169.6170, 14121.00
170.8450, 14495.00
172.0730, 14303.00
173.3000, 14479.00
174.5280, 14337.00
175.7550, 14473.00
176.9820, 14527.00
178.2090, 14685.00
179.4350, 14709.00
180.6620, 14694.00
181.8880, 14620.00
183.1150, 14546.00
184.3410, 14482.00
185.5670, 14682.00
186.7920, 14641.00
188.0180, 14567.00
189.2430, 14661.00
190.4690, 14598.00
191.6940, 14669.00
192.9180, 14805.00
194.1430, 14783.00
195.3680, 14956.00
196.5920, 14957.00
197.8160, 15108.00
199.0400, 14918.00
200.2640, 15086.00
201.4880, 15003.00
202.7110, 15077.00
203.9350, 15248.00
205.1580, 15261.00
206.3810, 15402.00
207.6040, 15180.00
208.8270, 15427.00
210.0490, 15274.00
211.2710, 15344.00
212.4940, 15183.00
213.7160, 15254.00
214.9370, 15379.00
216.1590, 15369.00
217.3810, 15306.00
218.6020, 15383.00
219.8230, 15536.00
221.0440, 15375.00
222.2650, 15400.00
223.4860, 15598.00
224.7060, 15661.00
225.9260, 15906.00
227.1470, 15988.00
228.3670, 16028.00
229.5860, 15962.00
230.8060, 15963.13
232.0260, 15739.00
233.2450, 15829.00
234.4640, 15738.00
235.6830, 15625.00
236.9020, 15707.00
238.1200, 15639.00
239.3390, 15755.00
240.5570, 15658.00
241.7750, 15942.00
242.9930, 15933.00
244.2110, 15932.00
245.4290, 15841.00
246.6460, 15987.00
247.8630, 15913.00
249.0810, 15772.00
250.2980, 15946.00
251.5140, 16099.00
252.7310, 16175.00
253.9470, 16181.26
255.1640, 16181.00
256.3800, 16082.00
257.5960, 16028.00
258.8120, 15970.00
260.0270, 16169.00
261.2430, 16150.00
262.4580, 16178.00
263.6730, 16112.00
264.8880, 16117.00
266.1030, 16153.00
267.3170, 16174.00
268.5320, 16323.00
269.7460, 16380.00
270.9600, 16296.00
272.1740, 16479.00
273.3880, 16568.00
274.6010, 16761.00
275.8150, 17011.00
277.0280, 17391.00
278.2410, 17705.00
279.4540, 17887.00
280.6670, 17795.00
281.8790, 17473.00
283.0920, 17192.00
284.3040, 17152.00
285.5160, 17118.27
286.7280, 17146.00
287.9400, 17512.00
289.1510, 17756.00
290.3630, 18378.00
291.5740, 19107.00
292.7850, 19713.00
293.9960, 20072.00
295.2070, 20081.00
296.4170, 19813.00
297.6280, 20441.00
298.8380, 21315.00
300.0480, 22661.00
301.2580, 24854.00
302.4680, 26712.00
303.6770, 26096.00
304.8870, 23797.00
306.0960, 21690.00
307.3050, 19906.00
308.5140, 18788.00
309.7230, 18015.00
310.9310, 17715.00
312.1400, 17704.00
313.3480, 17852.00
314.5560, 17861.00
315.7640, 18174.00
316.9720, 18687.00
318.1790, 19118.00
319.3870, 19488.00
320.5940, 19590.00
321.8010, 19887.00
323.0080, 21264.00
324.2150, 22829.00
325.4210, 24848.00
326.6280, 26921.00
327.8340, 26263.00
329.0400, 24304.00
330.2460, 21998.00
331.4510, 20382.00
332.6570, 19240.00
333.8620, 18460.00
335.0680, 18020.00
336.2730, 18031.00
337.4780, 17915.00
338.6820, 17820.00
339.8870, 18008.00
341.0910, 18232.00
342.2950, 18247.00
343.5000, 18257.00
344.7030, 18129.00
345.9070, 18126.00
347.1110, 18110.00
348.3140, 17948.00
349.5170, 18107.00
350.7200, 18237.00
351.9230, 18142.00
353.1260, 18347.00
354.3290, 18532.00
355.5310, 18533.00
356.7330, 18911.00
357.9350, 19283.00
359.1370, 19755.00
360.3390, 20802.00
361.5400, 21174.00
362.7420, 20849.00
363.9430, 20302.00
365.1440, 19783.00
366.3450, 19465.00
367.5460, 19182.00
368.7460, 19296.00
369.9470, 19480.00
371.1470, 20361.00
372.3470, 21174.00
373.5470, 21654.00
374.7460, 21956.00
375.9460, 22464.28
377.1450, 22436.00
378.3450, 22966.00
379.5440, 22809.00
380.7430, 22658.00
381.9410, 22854.00
383.1400, 23073.00
384.3380, 24023.00
385.5370, 25211.00
386.7350, 25241.00
387.9320, 24488.00
389.1300, 23645.00
390.3280, 23356.00
391.5250, 23451.00
392.7220, 24373.00
393.9190, 24943.00
395.1160, 23833.00
396.3130, 22805.00
397.5100, 22003.00
398.7060, 21424.00
399.9020, 21544.00
401.0980, 21901.00
402.2940, 23133.00
403.4900, 24537.00
404.6860, 25962.00
405.8810, 26295.00
407.0760, 24833.00
408.2710, 23474.00
409.4660, 22198.00
410.6610, 20877.00
411.8550, 20233.00
413.0500, 19864.00
414.2440, 19940.00
415.4380, 19880.00
416.6320, 20024.00
417.8260, 20317.00
419.0190, 20795.00
420.2130, 20959.00
421.4060, 21198.00
422.5990, 20754.00
423.7920, 20424.00
424.9850, 20165.00
426.1770, 19983.00
427.3700, 20096.00
428.5620, 20397.00
429.7540, 20412.00
430.9460, 20818.00
432.1380, 21349.00
433.3290, 21734.00
434.5210, 22438.00
435.7120, 23409.00
436.9030, 24474.00
438.0940, 24866.00
439.2850, 25128.00
440.4750, 24589.00
441.6660, 23976.00
442.8560, 22914.00
444.0460, 22196.00
445.2360, 21572.00
446.4260, 21664.00
447.6160, 21795.00
448.8050, 22307.00
449.9940, 22328.00
451.1830, 21830.00
452.3720, 21244.00
453.5610, 20860.00
454.7500, 20494.00
455.9380, 20364.00
457.1260, 20159.00
458.3150, 20140.00
459.5020, 20155.00
460.6900, 20115.76
461.8780, 20313.00
463.0650, 20258.00
464.2530, 20501.00
465.4400, 20754.00
466.6270, 20815.00
467.8130, 20740.00
469.0000, 20701.00
470.1870, 20918.00
471.3730, 20646.00
472.5590, 20995.00
473.7450, 21066.00
474.9310, 21180.00
476.1160, 21683.00
477.3020, 22323.00
478.4870, 23493.00
479.6720, 24679.00
480.8570, 25953.00
482.0420, 27229.00
483.2270, 29261.00
484.4110, 32380.00
485.5960, 36341.00
486.7800, 39602.00
487.9640, 41266.00
489.1480, 39368.00
490.3310, 35606.00
491.5150, 31890.00
492.6980, 28806.00
493.8810, 27111.00
495.0640, 25536.00
496.2470, 24308.00
497.4300, 23683.00
498.6120, 22875.00
499.7950, 22588.00
500.9770, 22487.00
502.1590, 21876.00
503.3410, 22035.00
504.5220, 21936.00
505.7040, 21631.00
506.8850, 21698.00
508.0660, 21779.00
509.2470, 21773.00
510.4280, 21696.00
511.6090, 21638.00
512.7890, 21852.00
513.9700, 22081.00
515.1500, 21823.00
516.3300, 21781.00
517.5100, 21490.00
518.6900, 21715.00
519.8690, 21582.00
521.0490, 21469.00
522.2280, 21236.00
523.4070, 21323.00
524.5860, 21146.00
525.7640, 21383.00
526.9430, 21402.00
528.1210, 21396.00
529.3000, 21536.00
530.4780, 21239.00
531.6560, 21292.00
532.8330, 21445.00
534.0110, 21596.00
535.1880, 21508.00
536.3650, 21452.00
537.5430, 21414.00
538.7190, 21742.00
539.8960, 21583.00
541.0730, 21740.00
542.2490, 21699.00
543.4250, 21732.00
544.6020, 21839.00
545.7780, 21879.00
546.9530, 21944.00
548.1290, 21996.00
549.3040, 21994.00
550.4800, 22070.00
551.6550, 21780.00
552.8300, 21871.00
554.0040, 21969.00
555.1790, 22065.00
556.3540, 22393.00
557.5280, 22648.00
558.7020, 22625.00
559.8760, 22913.00
561.0500, 23337.00
562.2230, 23753.00
563.3970, 24316.00
564.5700, 24464.00
565.7430, 24216.00
566.9160, 23685.00
568.0890, 23265.00
569.2620, 23141.00
570.4340, 23113.00
571.6070, 22781.00
572.7790, 22604.00
573.9510, 22755.00
575.1230, 22894.00
576.2940, 22822.00
577.4660, 22891.53
578.6370, 22869.00
579.8080, 22823.00
580.9790, 22892.00
582.1500, 22810.00
583.3210, 23089.00
584.4910, 23469.00
585.6620, 23856.00
586.8320, 23579.00
588.0020, 23624.00
589.1720, 23517.00
590.3410, 23488.00
591.5110, 23174.00
592.6800, 23159.00
593.8500, 22939.00
595.0190, 23008.00
596.1880, 23067.00
597.3560, 23187.00
598.5250, 23279.52
599.6930, 23426.85
600.8620, 23538.00
602.0300, 23821.00
603.1970, 24021.00
604.3650, 24376.00
605.5330, 24723.00
606.7000, 25046.00
607.8680, 25071.00
609.0350, 25093.00
610.2020, 24879.00
611.3680, 24511.00
612.5350, 24319.00
613.7010, 24149.00
614.8680, 23997.00
616.0340, 24059.00
617.2000, 24039.00
618.3660, 23899.00
619.5310, 24162.00
620.6970, 24093.00
621.8620, 24106.00
623.0270, 24303.00
624.1920, 24184.00
625.3570, 24067.00
626.5220, 24335.00
627.6860, 24454.00
628.8500, 24848.00
630.0140, 24847.00
631.1780, 25035.00
632.3420, 25040.00
633.5060, 24983.00
634.6700, 25139.00
635.8330, 25207.00
636.9960, 25326.00
638.1590, 25311.00
639.3220, 25371.00
640.4850, 25335.00
641.6470, 25137.00
642.8100, 24963.00
643.9720, 24878.00
645.1340, 24477.00
646.2960, 24557.00
647.4570, 24522.00
648.6190, 24517.00
649.7800, 24713.00
650.9420, 24794.46
652.1030, 24855.00
653.2640, 25204.00
654.4240, 25386.00
655.5850, 25711.00
656.7450, 25712.00
657.9060, 25760.00
659.0660, 25529.00
660.2260, 25755.00
661.3850, 25684.00
662.5450, 25286.00
663.7040, 25024.00
664.8640, 25208.00
666.0230, 25189.00
667.1820, 25198.00
668.3410, 25236.00
669.4990, 25334.00
670.6580, 25442.00
671.8160, 25531.00
672.9740, 25441.00
674.1320, 25502.00
675.2900, 25218.00
676.4480, 25039.00
677.6050, 24887.00
678.7630, 24848.92
679.9200, 24879.00
681.0770, 24903.00
682.2340, 24906.00
683.3900, 24941.00
684.5470, 25011.00
685.7030, 24849.00
686.8590, 24904.00
688.0150, 25052.00
689.1710, 24843.00
690.3270, 24740.00
691.4830, 24992.00
692.6380, 25197.00
693.7930, 25192.00
694.9480, 24970.00
696.1030, 25103.00
697.2580, 25265.00
698.4130, 25140.00
699.5670, 25290.00
700.7210, 25308.00
701.8750, 25337.00
703.0290, 25370.00
704.1830, 25533.00
705.3370, 25371.00
706.4900, 25541.00
707.6430, 25552.00
708.7970, 25368.00
709.9490, 25321.00
711.1020, 25484.00
712.2550, 25370.00
713.4070, 25582.00
714.5600, 25544.00
715.7120, 25593.00
716.8640, 25665.00
718.0160, 25590.00
719.1670, 25621.00
720.3190, 25663.00
721.4700, 25660.00
722.6210, 25819.00
723.7720, 25654.00
724.9230, 25825.00
726.0740, 25980.00
727.2250, 25651.00
728.3750, 25940.00
729.5250, 25935.00
730.6750, 25931.00
731.8250, 25711.00
732.9750, 25839.00
734.1240, 25969.00
735.2740, 25872.00
736.4230, 26071.00
737.5720, 25870.00
738.7210, 26030.00
739.8700, 26337.00
741.0190, 26342.00
742.1670, 26046.00
743.3150, 26318.00
744.4630, 26239.00
745.6110, 26095.00
746.7590, 26192.00
747.9070, 26342.00
749.0540, 26211.00
750.2020, 26523.00
751.3490, 26267.00
752.4960, 26466.00
753.6430, 26419.00
754.7890, 26531.00
755.9360, 26409.00
757.0820, 26564.00
758.2280, 26459.00
759.3740, 26252.00
760.5200, 26666.00
761.6660, 26819.00
762.8120, 26833.00
763.9570, 26599.00
765.1020, 26776.00
766.2470, 26845.00
767.3920, 26681.00
768.5370, 26810.00
769.6810, 26739.00
770.8260, 26681.00
771.9700, 26941.00
773.1140, 27160.00
774.2580, 26739.00
775.4020, 26987.00
776.5460, 26967.00
777.6890, 26830.00
778.8320, 27074.00
779.9750, 26961.00
781.1180, 27367.00
782.2610, 27231.00
783.4040, 27114.00
784.5460, 27258.00
785.6890, 27112.00
786.8310, 27381.00
787.9730, 27388.00
789.1150, 27312.00
790.2560, 27366.00
791.3980, 27594.00
792.5390, 27424.00
793.6810, 27700.00
794.8220, 27697.00
795.9630, 27656.00
797.1030, 27470.00
798.2440, 27589.00
799.3840, 27597.00
800.5240, 27707.00
801.6650, 27730.51
802.8040, 27629.00
803.9440, 27814.00
805.0840, 27755.00
806.2230, 27856.00
807.3630, 27865.00
808.5020, 28048.00
809.6410, 27913.00
810.7790, 27868.00
811.9180, 28138.00
813.0570, 28216.00
814.1950, 28194.00
815.3330, 28086.00
816.4710, 27967.00
817.6090, 28242.00
818.7470, 28268.00
819.8840, 28314.00
821.0220, 28536.00
822.1590, 28238.00
823.2960, 28435.00
824.4330, 28326.00
825.5690, 28459.00
826.7060, 28567.00
827.8420, 28499.00
828.9790, 28596.00
830.1150, 28503.00
831.2510, 28779.00
832.3860, 28576.00
833.5220, 28814.00
834.6570, 28868.00
835.7930, 28664.00
836.9280, 28876.00
838.0630, 28771.00
839.1980, 29027.00
840.3320, 28977.00
841.4670, 29030.00
842.6010, 29074.00
843.7350, 29090.00
844.8690, 29091.00
846.0030, 29128.25
847.1370, 29167.08
848.2700, 29164.00
849.4040, 29307.00
850.5370, 29304.00
851.6700, 29446.00
852.8030, 29544.00
853.9360, 29355.00
855.0680, 29790.00
856.2000, 29596.00
857.3330, 29615.00
858.4650, 29952.00
859.5970, 29846.00
860.7290, 29829.00
861.8600, 29942.00
862.9920, 30117.00
864.1230, 30098.00
865.2540, 29964.00
866.3850, 30149.00
867.5160, 30221.00
868.6460, 29947.00
869.7770, 30296.00
870.9070, 30007.00
872.0370, 30412.00
873.1670, 30431.00
874.2970, 30582.00
875.4270, 30491.00
876.5570, 30383.00
877.6860, 30450.00
878.8150, 30498.00
879.9440, 30924.00
881.0730, 30932.00
882.2020, 31009.00
883.3300, 31249.00
884.4590, 31174.00
885.5870, 31251.00
886.7150, 31553.00
887.8430, 31621.00
888.9710, 31589.00
890.0990, 31913.00
891.2260, 32090.00
892.3530, 31997.00
893.4810, 32259.00
894.6080, 32341.00
895.7340, 32379.00
896.8610, 32473.00
897.9880, 32630.00
899.1140, 32988.00
900.2400, 32981.00
901.3660, 33115.00
902.4920, 33363.00
903.6180, 33202.00
904.7430, 33167.00
905.8690, 32806.00
906.9940, 33068.00
908.1190, 32744.00
909.2440, 32663.00
910.3690, 32486.00
911.4930, 32532.00
912.6180, 32353.00
913.7420, 32291.00
914.8660, 32384.00
915.9900, 32657.00
917.1140, 32618.00
918.2380, 32477.00
919.3610, 32662.00
920.4850, 32597.00
921.6080, 32997.00
922.7310, 32960.00
923.8540, 33211.00
924.9760, 33416.00
926.0990, 33457.00
927.2210, 33460.00
928.3440, 33792.00
929.4660, 34057.00
930.5880, 34210.00
931.7090, 34507.00
932.8310, 34887.00
933.9520, 35095.00
935.0740, 35635.00
936.1950, 36106.00
937.3160, 36557.00
938.4360, 37089.00
939.5570, 37531.00
940.6780, 38151.17
941.7980, 38425.00
942.9180, 39404.00
944.0380, 40251.00
945.1580, 40902.00
946.2780, 42566.00
947.3970, 43586.00
948.5170, 44608.00
949.6360, 45913.00
950.7550, 46495.00
951.8740, 47158.00
952.9930, 47611.00
954.1110, 47096.00
955.2300, 46192.00
956.3480, 45500.00
957.4660, 44424.00
958.5840, 43473.00
959.7020, 42991.00
960.8190, 43035.00
961.9370, 42546.00
963.0540, 42330.00
964.1710, 41980.00
965.2880, 41182.00
966.4050, 40194.00
967.5220, 39549.00
968.6380, 38740.00
969.7550, 37972.00
970.8710, 37285.00
971.9870, 36656.00
973.1030, 36393.00
974.2190, 36137.00
975.3340, 35770.00
976.4500, 35432.00
977.5650, 35023.00
978.6800, 35042.00
979.7950, 35121.00
980.9100, 34907.00
982.0250, 34749.00
983.1390, 34814.00
984.2530, 34456.00
985.3680, 34606.00
986.4820, 34274.00
987.5950, 34624.00
988.7090, 34362.00
989.8230, 34233.00
990.9360, 34511.00
992.0490, 34619.00
993.1620, 34492.00
994.2750, 34796.00
995.3880, 34966.00
996.5010, 35190.00
997.6130, 35535.00
998.7250, 35745.00
999.8370, 35937.00
1000.949, 36090.14
1002.061, 36271.00
1003.173, 36121.00
1004.284, 36279.00
1005.396, 35962.00
1006.507, 35626.00
1007.618, 35339.00
1008.729, 35243.00
1009.839, 35007.00
1010.950, 34924.26
1012.060, 35174.00
1013.171, 34846.00
1014.281, 34900.00
1015.391, 35000.00
1016.500, 34638.00
1017.610, 34838.00
1018.719, 34947.00
1019.829, 35028.00
1020.938, 34893.00
1022.047, 35015.00
1023.156, 34949.00
1024.264, 34936.58
1025.373, 35005.00
1026.481, 34955.00
1027.589, 34957.00
1028.697, 35064.00
1029.805, 35152.00
1030.913, 34942.00
1032.020, 35086.00
1033.128, 35074.00
1034.235, 35218.00
1035.342, 35091.00
1036.449, 35216.00
1037.556, 35217.93
1038.663, 35114.00
1039.769, 35280.00
1040.875, 35275.00
1041.981, 35346.00
1043.087, 35427.00
1044.193, 35531.00
1045.299, 35410.00
1046.404, 35481.00
1047.510, 35495.00
1048.615, 35520.00
1049.720, 35436.00
1050.825, 35545.00
1051.930, 35590.24
1053.034, 35642.00
1054.139, 35749.00
1055.243, 35855.00
1056.347, 35861.00
1057.451, 36009.00
1058.555, 36040.96
1059.658, 35911.00
1060.762, 36170.00
1061.865, 36138.00
1062.968, 36238.20
1064.071, 36098.00
1065.174, 36282.00
1066.277, 36280.00
1067.380, 36216.00
1068.482, 36217.00
1069.584, 36149.00
1070.686, 36404.00
1071.788, 36661.00
1072.890, 36372.00
1073.992, 36123.00
1075.093, 36640.00
1076.194, 36614.00
1077.295, 36493.00
1078.396, 36889.00
1079.497, 36607.00
1080.598, 36993.00
1081.698, 36958.00
1082.799, 36978.00
1083.899, 36662.00
1084.999, 36900.00
1086.099, 36943.00
1087.199, 37046.00
1088.298, 37124.09
1089.398, 37039.00
1090.497, 37174.00
1091.596, 37053.00
1092.695, 37001.00
1093.794, 37143.00
1094.892, 37122.30
1095.991, 37220.00
1097.089, 37320.00
1098.187, 37376.00
1099.285, 37562.00
1100.383, 37565.58
1101.481, 37362.00
1102.579, 37615.00
1103.676, 37535.00
1104.773, 37526.00
1105.870, 37773.00
1106.967, 37666.00
1108.064, 37738.00
1109.161, 37888.00
1110.257, 37728.00
1111.353, 37751.00
1112.449, 37917.00
1113.545, 37777.00
1114.641, 38133.00
1115.737, 37905.00
1116.832, 38368.00
1117.928, 37869.00
1119.023, 37888.00
1120.118, 37901.00
1121.213, 38386.00
1122.308, 38117.00
1123.402, 38117.00
1124.497, 38443.00
1125.591, 38353.00
1126.685, 38534.00
1127.779, 38328.00
1128.873, 38689.00
1129.967, 38550.00
1131.060, 38403.00
1132.153, 38510.00
1133.247, 38699.00
1134.340, 38474.00
1135.433, 38763.00
1136.525, 38775.00
1137.618, 38969.00
1138.710, 38821.00
1139.802, 39099.00
1140.895, 38920.00
1141.987, 39142.00
1143.078, 39137.67
1144.170, 38829.00
1145.261, 39165.00
1146.353, 39121.00
1147.444, 39129.00
1148.535, 39129.00
1149.626, 38945.00
1150.716, 39140.00
1151.807, 39049.00
1152.897, 39272.00
1153.988, 39359.00
1155.078, 39344.00
1156.168, 39327.00
1157.257, 39289.00
1158.347, 39500.00
1159.436, 39593.00
1160.526, 39384.00
1161.615, 39736.00
1162.704, 39676.00
1163.793, 39656.00
1164.881, 39709.00
1165.970, 39748.00
1167.058, 39631.00
1168.147, 39734.00
1169.235, 39934.00
1170.323, 39782.00
1171.410, 39962.00
1172.498, 40235.00
1173.585, 40420.00
1174.673, 40444.00
1175.760, 40432.00
1176.847, 40290.00
1177.934, 40186.00
1179.020, 40176.00
1180.107, 40248.00
1181.193, 40318.00
1182.279, 40403.00
1183.365, 40468.00
1184.451, 40547.00
1185.537, 40417.00
1186.623, 40739.00
1187.708, 40607.00
1188.793, 40785.00
1189.878, 40653.00
1190.963, 40827.00
1192.048, 40670.00
1193.133, 40740.00
1194.217, 40738.00
1195.302, 41039.00
1196.386, 40796.00
1197.470, 40862.00
1198.554, 41138.00
1199.638, 40945.00
1200.721, 40947.00
1201.805, 41313.00
1202.888, 41055.00
1203.971, 41185.00
1205.054, 41259.00
1206.137, 41398.00
1207.219, 41492.00
1208.302, 41466.00
1209.384, 41556.79
1210.466, 41661.00
1211.548, 41619.00
1212.630, 41525.00
1213.712, 41546.00
1214.794, 41748.00
1215.875, 41558.00
1216.956, 41956.00
1218.037, 41946.00
1219.118, 41739.00
1220.199, 42181.00
1221.280, 42066.00
1222.360, 42247.00
1223.441, 42069.00
1224.521, 42305.00
1225.601, 42069.00
1226.681, 42231.00
1227.760, 42386.00
1228.840, 42398.00
1229.919, 42414.00
1230.999, 42375.00
1232.078, 42419.00
1233.157, 42396.00
1234.236, 42614.00
1235.314, 42611.00
1236.393, 42527.00
1237.471, 42854.00
1238.549, 42826.00
1239.627, 42504.00
1240.705, 42865.00
1241.783, 42686.00
1242.860, 42896.00
1243.938, 43311.00
1245.015, 42811.00
1246.092, 43038.00
1247.169, 42784.00
1248.246, 43047.00
1249.323, 42970.00
1250.399, 43073.00
1251.475, 43296.00
1252.552, 43366.00
1253.628, 43587.00
1254.703, 43661.00
1255.779, 43450.00
1256.855, 43448.00
1257.930, 43474.00
1259.005, 43639.00
1260.080, 43514.00
1261.155, 43467.00
1262.230, 43889.00
1263.305, 43826.00
1264.379, 43757.00
1265.454, 43837.00
1266.528, 44050.00
1267.602, 43951.00
1268.676, 43933.00
1269.750, 44022.00
1270.823, 43989.73
1271.897, 44164.00
1272.970, 44011.00
1274.043, 44117.00
1275.116, 44040.00
1276.189, 44295.00
1277.261, 44058.00
1278.334, 44206.00
1279.406, 44244.00
1280.478, 44477.00
1281.550, 44293.00
1282.622, 44466.00
1283.694, 44677.00
1284.766, 44598.00
1285.837, 44461.00
1286.908, 44543.00
1287.979, 44651.00
1289.050, 44556.00
1290.121, 44626.00
1291.192, 44447.00
1292.262, 44601.00
1293.333, 44754.00
1294.403, 45216.00
1295.473, 45025.00
1296.543, 45315.00
1297.613, 45257.00
1298.682, 45344.00
1299.752, 45513.00
1300.821, 45288.00
1301.890, 45520.00
1302.959, 45642.00
1304.028, 45838.00
1305.096, 45426.00
1306.165, 45610.00
1307.233, 45624.00
1308.301, 45628.00
1309.370, 45794.00
1310.437, 46120.00
1311.505, 46133.84
1312.573, 46221.20
1313.640, 46277.00
1314.708, 46261.00
1315.775, 46167.00
1316.842, 46286.00
1317.908, 46538.00
1318.975, 46256.00
1320.042, 46414.00
1321.108, 46319.00
1322.174, 46639.00
1323.240, 46519.00
1324.306, 46410.00
1325.372, 46590.00
1326.438, 46483.00
