##NAMES=Kyanite
##RRUFFID=R040119
##IDEAL CHEMISTRY=Al_2_OSiO_4_
##LOCALITY=Rutherford County, North Carolina, USA
##OWNER=RRUFF
##SOURCE=University of Arizona Mineral Museum
##DESCRIPTION=Blue bladed crystal
##STATUS=The identification of this mineral has been confirmed by X-ray diffraction and chemical analysis
##URL=rruff.info/R040119
##MEASURED CHEMISTRY=(Al_0.99_Fe^3+^_0.01_)_2_OSi_1.00_O_4_
##PIN_ID=L00103
##ORIENTATION=Laser parallel to c* (0 0 1). Fiducial mark perpendicular to laser is parallel to a [1 0 0]
95.75900, 27687.00
96.99500, 27593.00
98.23100, 28276.00
99.46700, 28686.00
100.7030, 29075.00
101.9390, 29998.00
103.1740, 31350.00
104.4090, 32737.00
105.6440, 32673.00
106.8790, 32753.00
108.1140, 32347.00
109.3490, 31500.00
110.5830, 32052.00
111.8180, 31977.00
113.0520, 32120.00
114.2860, 32810.00
115.5200, 33292.00
116.7530, 33134.00
117.9870, 33315.00
119.2200, 33264.00
120.4530, 32542.00
121.6860, 31560.00
122.9190, 31210.00
124.1520, 30951.00
125.3850, 30782.00
126.6170, 30740.00
127.8490, 30845.00
129.0810, 30913.00
130.3130, 31081.00
131.5450, 31240.00
132.7770, 30992.00
134.0080, 30850.00
135.2390, 31245.00
136.4710, 31279.00
137.7020, 31553.00
138.9320, 31742.00
140.1630, 31517.00
141.3930, 31427.00
142.6240, 31566.00
143.8540, 31620.00
145.0840, 31631.00
146.3140, 31861.00
147.5440, 31782.00
148.7730, 31671.00
150.0020, 31781.00
151.2320, 31855.00
152.4610, 31747.00
153.6900, 31946.00
154.9180, 31886.00
156.1470, 31969.00
157.3750, 31934.00
158.6040, 32067.00
159.8320, 32211.00
161.0600, 32221.00
162.2870, 32323.00
163.5150, 32130.00
164.7420, 32272.00
165.9700, 32223.00
167.1970, 32150.00
168.4240, 32442.00
169.6510, 32459.00
170.8770, 32720.00
172.1040, 32603.00
173.3300, 32512.00
174.5560, 32724.00
175.7820, 32625.00
177.0080, 32703.00
178.2340, 32809.00
179.4590, 32944.00
180.6850, 32637.00
181.9100, 32744.00
183.1350, 32738.00
184.3600, 32917.00
185.5850, 32763.00
186.8090, 33002.00
188.0340, 33019.00
189.2580, 33399.00
190.4820, 33511.00
191.7060, 33545.00
192.9300, 33942.00
194.1530, 34235.00
195.3770, 34362.00
196.6000, 34803.00
197.8230, 35449.00
199.0460, 35906.00
200.2690, 36886.00
201.4910, 37546.00
202.7140, 38922.00
203.9360, 39710.00
205.1580, 40653.00
206.3800, 41159.00
207.6020, 40951.00
208.8240, 39644.00
210.0450, 38512.00
211.2670, 37362.00
212.4880, 36246.00
213.7090, 35727.00
214.9300, 35385.00
216.1510, 35566.00
217.3710, 35482.00
218.5920, 35627.00
219.8120, 35975.00
221.0320, 35904.00
222.2520, 36340.00
223.4720, 36675.00
224.6910, 37019.00
225.9110, 37084.00
227.1300, 37037.00
228.3490, 36579.00
229.5680, 36401.00
230.7870, 35845.00
232.0050, 35701.00
233.2240, 35733.00
234.4420, 35685.00
235.6600, 35736.00
236.8780, 36091.00
238.0960, 36323.00
239.3140, 36547.00
240.5310, 36829.00
241.7490, 37411.00
242.9660, 37629.00
244.1830, 37899.00
245.4000, 37692.00
246.6160, 37623.00
247.8330, 37374.00
249.0490, 37332.00
250.2660, 37179.00
251.4820, 36925.00
252.6980, 37269.02
253.9130, 37130.00
255.1290, 37662.00
256.3440, 38140.00
257.5600, 37766.00
258.7750, 36814.00
259.9900, 36122.00
261.2040, 36219.00
262.4190, 36441.00
263.6330, 36538.00
264.8480, 37056.00
266.0620, 37396.00
267.2760, 37691.00
268.4900, 38422.00
269.7030, 39246.41
270.9170, 40401.00
272.1300, 41613.00
273.3430, 43095.00
274.5560, 44939.00
275.7690, 46549.00
276.9820, 47218.00
278.1940, 46991.00
279.4070, 46074.00
280.6190, 44983.00
281.8310, 44280.00
283.0430, 44461.00
284.2550, 44810.00
285.4660, 46878.00
286.6770, 49042.00
287.8890, 52567.00
289.1000, 56483.00
290.3110, 60596.00
291.5210, 64049.00
292.7320, 68036.00
293.9420, 73460.00
295.1530, 80627.00
296.3630, 89976.00
297.5730, 99255.00
298.7830, 110881.0
299.9920, 120134.0
301.2020, 118377.0
302.4110, 105040.0
303.6200, 89202.00
304.8290, 74537.00
306.0380, 62217.00
307.2470, 54414.00
308.4550, 51060.00
309.6630, 49883.00
310.8720, 49727.00
312.0800, 50785.00
313.2880, 53240.00
314.4950, 56832.00
315.7030, 61547.00
316.9100, 68116.00
318.1170, 76488.00
319.3240, 87725.00
320.5310, 100157.0
321.7380, 113439.0
322.9450, 126795.0
324.1510, 137857.0
325.3570, 136591.0
326.5630, 121871.0
327.7690, 102480.0
328.9750, 83665.00
330.1810, 68718.00
331.3860, 58606.00
332.5910, 53567.00
333.7960, 51401.00
335.0010, 49935.00
336.2060, 49691.00
337.4110, 50140.00
338.6150, 51225.00
339.8200, 51871.00
341.0240, 52403.00
342.2280, 51338.00
343.4320, 49867.00
344.6350, 48885.00
345.8390, 47715.00
347.0420, 46999.00
348.2450, 47045.00
349.4480, 47108.00
350.6510, 47816.00
351.8540, 48643.00
353.0560, 50191.00
354.2590, 51887.00
355.4610, 54393.00
356.6630, 56687.00
357.8650, 59470.00
359.0670, 61970.00
360.2680, 62529.00
361.4700, 61550.00
362.6710, 60654.00
363.8720, 60552.00
365.0730, 62427.00
366.2740, 65504.00
367.4740, 70177.00
368.6750, 75266.00
369.8750, 80919.00
371.0750, 84918.00
372.2750, 86949.00
373.4750, 87873.00
374.6740, 88697.00
375.8740, 90686.00
377.0730, 92806.00
378.2720, 95674.00
379.4710, 99077.00
380.6700, 104095.0
381.8690, 110174.0
383.0670, 116821.0
384.2660, 121329.0
385.4640, 119674.0
386.6620, 114762.0
387.8600, 108978.0
389.0570, 105839.0
390.2550, 105861.0
391.4520, 107190.0
392.6490, 102015.0
393.8460, 92711.00
395.0430, 84447.00
396.2400, 78830.00
397.4370, 78242.00
398.6330, 82394.00
399.8290, 88055.00
401.0250, 95513.00
402.2210, 101668.0
403.4170, 104354.0
404.6130, 97881.00
405.8080, 87570.00
407.0030, 75985.00
408.1980, 65715.00
409.3930, 58341.00
410.5880, 54294.00
411.7830, 51275.00
412.9770, 50040.00
414.1720, 49476.00
415.3660, 49096.00
416.5600, 48914.00
417.7530, 48475.00
418.9470, 48895.00
420.1410, 48556.00
421.3340, 48933.00
422.5270, 49561.00
423.7200, 50502.00
424.9130, 52070.00
426.1060, 54510.00
427.2980, 57463.00
428.4900, 61761.00
429.6830, 67126.00
430.8750, 73575.00
432.0670, 81027.00
433.2580, 90350.00
434.4500, 98279.00
435.6410, 104706.0
436.8320, 107140.0
438.0240, 105959.0
439.2140, 98440.00
440.4050, 88685.00
441.5960, 79935.00
442.7860, 72906.00
443.9760, 68755.00
445.1670, 66953.00
446.3560, 66533.00
447.5460, 65563.00
448.7360, 63219.00
449.9250, 59492.00
451.1150, 55888.00
452.3040, 53010.00
453.4930, 50882.00
454.6810, 49798.00
455.8700, 49255.00
457.0590, 48746.00
458.2470, 48672.00
459.4350, 48594.00
460.6230, 49286.00
461.8110, 49664.00
462.9980, 50092.90
464.1860, 50586.00
465.3730, 51220.00
466.5600, 51778.00
467.7470, 52461.00
468.9340, 54302.00
470.1210, 56023.00
471.3080, 58425.00
472.4940, 62623.00
473.6800, 68131.00
474.8660, 76282.00
476.0520, 86226.00
477.2380, 99756.00
478.4230, 117515.0
479.6090, 139539.0
480.7940, 166303.0
481.9790, 197064.0
483.1640, 229552.0
484.3490, 257812.0
485.5330, 272507.0
486.7180, 263432.0
487.9020, 235375.0
489.0860, 200092.0
490.2700, 166302.0
491.4540, 138698.0
492.6370, 119406.0
493.8210, 104788.0
495.0040, 92630.00
496.1870, 82816.00
497.3700, 75194.00
498.5530, 69729.00
499.7360, 65547.00
500.9180, 62932.00
502.1000, 60987.00
503.2830, 59852.00
504.4650, 59573.00
505.6460, 59085.00
506.8280, 59346.00
508.0100, 59655.00
509.1910, 59700.00
510.3720, 59767.00
511.5530, 59259.00
512.7340, 58548.00
513.9150, 56932.00
515.0950, 55178.00
516.2760, 53494.00
517.4560, 52296.00
518.6360, 51201.09
519.8160, 50117.00
520.9950, 49738.00
522.1750, 49358.00
523.3540, 49030.00
524.5340, 48593.00
525.7130, 48405.00
526.8920, 48206.00
528.0700, 48205.00
529.2490, 48387.00
530.4270, 48296.00
531.6060, 48234.00
532.7840, 48456.00
533.9620, 48157.00
535.1390, 48383.00
536.3170, 48529.00
537.4940, 48797.00
538.6720, 48901.31
539.8490, 49044.60
541.0260, 49157.00
542.2030, 49227.00
543.3790, 49395.00
544.5560, 49421.00
545.7320, 49163.00
546.9080, 49288.00
548.0840, 49320.00
549.2600, 49120.00
550.4360, 49518.00
551.6110, 49830.00
552.7860, 49717.00
553.9620, 50176.00
555.1370, 51156.00
556.3110, 51930.00
557.4860, 52516.00
558.6610, 53431.00
559.8350, 54695.00
561.0090, 55663.00
562.1830, 56118.00
563.3570, 56142.00
564.5310, 55275.00
565.7040, 54780.00
566.8780, 54086.00
568.0510, 53634.82
569.2240, 53092.00
570.3970, 53073.00
571.5700, 53048.00
572.7420, 53288.00
573.9150, 53650.00
575.0870, 54052.00
576.2590, 54325.00
577.4310, 55135.00
578.6030, 56078.00
579.7740, 57240.00
580.9460, 58520.00
582.1170, 59501.00
583.2880, 60936.00
584.4590, 61707.00
585.6300, 61556.00
586.8010, 60273.00
587.9710, 59029.00
589.1410, 56687.00
590.3110, 54943.00
591.4810, 54072.00
592.6510, 53782.00
593.8210, 52795.00
594.9900, 52762.00
596.1600, 53046.00
597.3290, 53156.00
598.4980, 53512.00
599.6670, 53996.00
600.8350, 54628.00
602.0040, 55278.00
603.1720, 55568.00
604.3400, 56569.00
605.5080, 56868.00
606.6760, 57175.00
607.8440, 56544.00
609.0120, 56387.00
610.1790, 56311.00
611.3460, 56280.00
612.5130, 56237.00
613.6800, 57115.00
614.8470, 57381.00
616.0130, 57822.00
617.1800, 57865.00
618.3460, 58336.00
619.5120, 58084.00
620.6780, 58292.00
621.8440, 57852.00
623.0090, 57842.00
624.1750, 58514.00
625.3400, 59020.00
626.5050, 59959.00
627.6700, 61083.00
628.8350, 62395.00
629.9990, 64050.00
631.1640, 65489.00
632.3280, 67812.00
633.4920, 69353.00
634.6560, 71055.00
635.8200, 72180.00
636.9840, 72299.00
638.1470, 70366.00
639.3100, 68146.00
640.4730, 65018.00
641.6360, 62239.00
642.7990, 60176.00
643.9620, 58756.00
645.1240, 58569.00
646.2870, 57523.96
647.4490, 56695.00
648.6110, 57118.00
649.7730, 56970.00
650.9340, 57313.00
652.0960, 57116.00
653.2570, 57242.00
654.4180, 57462.00
655.5790, 57287.00
656.7400, 57421.00
657.9010, 56918.00
659.0620, 56717.00
660.2220, 56605.00
661.3820, 56153.00
662.5420, 55987.00
663.7020, 56111.00
664.8620, 56717.00
666.0210, 57224.00
667.1810, 57504.00
668.3400, 57946.00
669.4990, 58072.00
670.6580, 58188.00
671.8170, 57667.00
672.9750, 57235.00
674.1340, 57003.00
675.2920, 56327.00
676.4500, 55953.00
677.6080, 55732.00
678.7660, 55851.00
679.9230, 55414.00
681.0810, 55724.00
682.2380, 55739.00
683.3950, 55402.00
684.5520, 55192.00
685.7090, 55321.00
686.8660, 55306.00
688.0220, 55165.00
689.1780, 55082.00
690.3340, 54825.00
691.4900, 55435.00
692.6460, 54901.00
693.8020, 55782.00
694.9570, 55486.00
696.1130, 56201.00
697.2680, 55953.00
698.4230, 56584.00
699.5780, 56900.00
700.7320, 57327.00
701.8870, 57154.00
703.0410, 57431.00
704.1950, 57472.00
705.3490, 57373.00
706.5030, 56811.00
707.6570, 56511.00
708.8110, 56438.00
709.9640, 56111.00
711.1170, 55996.00
712.2700, 56033.00
713.4230, 55946.00
714.5760, 55709.00
715.7280, 55900.00
716.8810, 55909.00
718.0330, 56057.78
719.1850, 56433.00
720.3370, 56719.00
721.4890, 57026.00
722.6400, 57191.80
723.7920, 57269.43
724.9430, 57267.00
726.0940, 57174.00
727.2450, 56803.00
728.3960, 56505.00
729.5460, 56182.00
730.6970, 56048.00
731.8470, 55587.00
732.9970, 55453.00
734.1470, 55296.00
735.2970, 55282.00
736.4460, 55092.00
737.5960, 54813.00
738.7450, 54477.00
739.8940, 54500.00
741.0430, 54364.00
742.1920, 53898.00
743.3410, 54069.00
744.4890, 53757.00
745.6370, 53626.00
746.7850, 53517.00
747.9330, 53693.00
749.0810, 53209.00
750.2290, 53484.00
751.3760, 53265.00
752.5240, 52934.00
753.6710, 53291.00
754.8180, 52783.00
755.9650, 52974.00
757.1110, 52597.00
758.2580, 52274.00
759.4040, 52718.00
760.5510, 52560.00
761.6970, 52138.00
762.8420, 52034.00
763.9880, 52211.00
765.1340, 52623.00
766.2790, 52121.00
767.4240, 51789.00
768.5690, 52324.00
769.7140, 52117.00
770.8590, 52316.00
772.0030, 52018.00
773.1480, 51842.00
774.2920, 51572.00
775.4360, 51824.00
776.5800, 51843.00
777.7240, 51865.00
778.8670, 52063.00
780.0110, 51964.77
781.1540, 51882.00
782.2970, 51900.00
783.4400, 51942.00
784.5830, 51981.00
785.7250, 51970.00
786.8680, 52052.00
788.0100, 52150.00
789.1520, 51716.00
790.2940, 51909.00
791.4360, 52029.00
792.5780, 52492.00
793.7190, 51850.00
794.8600, 52244.00
796.0010, 52265.00
797.1420, 52334.00
798.2830, 52424.00
799.4240, 52486.00
800.5640, 52423.00
801.7050, 52691.00
802.8450, 52325.00
803.9850, 52605.00
805.1250, 52787.00
806.2640, 52475.00
807.4040, 53022.00
808.5430, 52957.00
809.6820, 53161.00
810.8210, 53206.00
811.9600, 53105.00
813.0990, 53495.00
814.2370, 53215.00
815.3760, 53185.00
816.5140, 53232.00
817.6520, 53292.00
818.7900, 53627.00
819.9270, 53448.00
821.0650, 53394.00
822.2020, 53880.00
823.3390, 53583.00
824.4760, 54014.00
825.6130, 53883.00
826.7500, 53980.00
827.8870, 53996.00
829.0230, 53957.36
830.1590, 53848.00
831.2950, 54015.00
832.4310, 53910.00
833.5670, 54096.00
834.7030, 54182.00
835.8380, 54147.00
836.9730, 54549.00
838.1080, 54482.00
839.2430, 54644.00
840.3780, 54488.00
841.5130, 54536.00
842.6470, 54803.00
843.7810, 55023.00
844.9150, 55276.00
846.0490, 55531.00
847.1830, 55360.00
848.3170, 55641.00
849.4500, 55550.00
850.5830, 55616.00
851.7160, 56059.00
852.8490, 56366.00
853.9820, 56492.00
855.1150, 56815.14
856.2470, 56988.50
857.3800, 57193.00
858.5120, 57308.00
859.6440, 57554.93
860.7760, 57736.67
861.9070, 58020.00
863.0390, 58213.00
864.1700, 58455.00
865.3010, 58820.00
866.4320, 59220.68
867.5630, 59769.00
868.6940, 60266.00
869.8240, 61151.00
870.9540, 61879.00
872.0850, 62754.00
873.2150, 63316.00
874.3450, 64467.00
875.4740, 65633.00
876.6040, 67158.00
877.7330, 68567.00
878.8620, 70124.00
879.9910, 72370.00
881.1200, 74827.00
882.2490, 77685.00
883.3770, 81248.00
884.5060, 85056.00
885.6340, 89059.00
886.7620, 92716.00
887.8900, 96374.00
889.0180, 99037.00
890.1450, 100084.0
891.2730, 99618.00
892.4000, 98642.00
893.5270, 97561.00
894.6540, 96268.00
895.7810, 95416.00
896.9070, 95225.00
898.0340, 95791.00
899.1600, 95572.00
900.2860, 95961.00
901.4120, 94137.00
902.5380, 91940.00
903.6630, 89097.00
904.7890, 85242.00
905.9140, 81675.00
907.0390, 79037.00
908.1640, 76454.00
909.2890, 74565.00
910.4130, 73346.00
911.5380, 72125.00
912.6620, 71121.00
913.7860, 71089.00
914.9100, 70634.00
916.0340, 70809.00
917.1580, 71129.00
918.2810, 71480.00
919.4040, 71767.00
920.5280, 72212.00
921.6510, 73239.00
922.7730, 73561.00
923.8960, 74445.00
925.0180, 75032.00
926.1410, 76459.00
927.2630, 78119.00
928.3850, 79260.00
929.5070, 80903.00
930.6280, 83360.00
931.7500, 85573.00
932.8710, 88641.00
933.9920, 90420.00
935.1130, 93584.00
936.2340, 96786.00
937.3550, 99578.00
938.4760, 103257.0
939.5960, 107416.0
940.7160, 111469.0
941.8360, 116756.0
942.9560, 120974.0
944.0760, 126075.0
945.1950, 131399.0
946.3150, 135454.0
947.4340, 139906.0
948.5530, 143449.0
949.6720, 146067.0
950.7900, 147412.0
951.9090, 146373.0
953.0270, 144854.0
954.1460, 141213.0
955.2640, 138315.0
956.3820, 134984.0
957.4990, 132270.0
958.6170, 129451.0
959.7340, 127240.0
960.8520, 125610.0
961.9690, 122715.0
963.0860, 119441.0
964.2020, 114355.0
965.3190, 109855.0
966.4350, 104878.0
967.5520, 99689.00
968.6680, 95520.00
969.7840, 90735.00
970.8990, 87891.00
972.0150, 84497.00
973.1310, 81726.00
974.2460, 79925.00
975.3610, 77664.00
976.4760, 75890.00
977.5910, 74506.00
978.7050, 73187.00
979.8200, 72104.00
980.9340, 71122.45
982.0480, 70449.00
983.1620, 69523.00
984.2760, 69083.00
985.3900, 68445.00
986.5030, 68182.00
987.6160, 68226.00
988.7300, 67284.00
989.8430, 66971.00
990.9550, 66849.00
992.0680, 67000.00
993.1810, 66685.00
994.2930, 66874.00
995.4050, 67356.00
996.5170, 68225.00
997.6290, 68174.00
998.7410, 68269.00
999.8520, 68912.00
1000.964, 68745.00
1002.075, 68186.00
1003.186, 67686.00
1004.297, 66843.00
1005.407, 66460.00
1006.518, 65573.00
1007.628, 64882.00
1008.738, 64565.00
1009.848, 63914.00
1010.958, 63844.00
1012.068, 63577.00
1013.178, 63389.00
1014.287, 63140.00
1015.396, 62889.00
1016.505, 63193.00
1017.614, 62897.00
1018.723, 62672.00
1019.831, 63024.00
1020.940, 62669.00
1022.048, 62689.00
1023.156, 62211.00
1024.264, 62329.00
1025.372, 61976.00
1026.479, 62276.00
1027.587, 62195.00
1028.694, 61898.00
1029.801, 62385.00
1030.908, 62419.00
1032.015, 61843.00
1033.121, 61746.00
1034.228, 61917.00
1035.334, 61717.00
1036.440, 61854.00
1037.546, 61515.00
1038.652, 61738.00
1039.758, 61496.00
1040.863, 61902.00
1041.968, 61151.00
1043.074, 61785.00
1044.178, 61331.00
1045.283, 61343.00
1046.388, 61674.00
1047.492, 61195.00
1048.597, 61585.00
1049.701, 61457.00
1050.805, 61459.00
1051.909, 61618.00
1053.012, 61067.00
1054.116, 61486.00
1055.219, 61297.00
1056.322, 61478.00
1057.425, 62048.00
1058.528, 61779.00
1059.631, 61372.00
1060.733, 61574.00
1061.836, 61868.00
1062.938, 61961.00
1064.040, 61844.00
1065.142, 62010.00
1066.243, 61740.00
1067.345, 61810.30
1068.446, 62093.00
1069.547, 61830.00
1070.648, 62026.00
1071.749, 62133.00
1072.850, 62184.00
1073.951, 62285.16
1075.051, 62324.29
1076.151, 62353.00
1077.251, 62346.00
1078.351, 62306.00
1079.451, 62196.00
1080.550, 61993.00
1081.650, 62438.00
1082.749, 62253.00
1083.848, 62400.00
1084.947, 62277.00
1086.046, 62311.00
1087.144, 62114.00
1088.243, 62221.26
1089.341, 62429.00
1090.439, 62340.00
1091.537, 62454.00
1092.635, 62413.00
1093.732, 62300.00
1094.830, 62439.00
1095.927, 62250.00
1097.024, 62130.00
1098.121, 62376.00
1099.218, 62231.00
1100.314, 62444.00
1101.411, 62173.00
1102.507, 62558.00
1103.603, 62468.00
1104.699, 62554.00
1105.795, 62292.00
1106.890, 62486.00
1107.986, 62479.00
1109.081, 62487.00
1110.176, 62731.00
1111.271, 62517.00
1112.366, 62728.00
1113.461, 62624.00
1114.555, 62680.00
1115.649, 62671.00
1116.744, 62696.84
1117.838, 62749.33
1118.931, 62822.00
1120.025, 62722.00
1121.119, 62820.00
1122.212, 62848.93
1123.305, 62793.00
1124.398, 62969.00
1125.491, 62984.00
1126.584, 63036.00
1127.676, 62825.00
1128.768, 62968.00
1129.861, 62854.00
1130.953, 63066.00
1132.044, 62911.00
1133.136, 63162.00
1134.228, 63222.00
1135.319, 62974.00
1136.410, 63154.00
1137.501, 63254.00
1138.592, 63106.00
1139.683, 63253.00
1140.773, 63487.00
1141.864, 63139.00
1142.954, 63376.00
1144.044, 63450.00
1145.134, 63008.00
1146.224, 63523.00
1147.313, 63036.00
1148.402, 63465.00
1149.492, 63395.00
1150.581, 63810.00
1151.670, 63686.00
1152.758, 63502.00
1153.847, 63347.00
1154.935, 63792.00
1156.024, 63673.00
1157.112, 63905.00
1158.200, 63938.00
1159.287, 64030.00
1160.375, 63759.00
1161.462, 63749.00
1162.550, 63489.00
1163.637, 63707.00
1164.724, 63986.00
1165.810, 64352.00
1166.897, 64035.00
1167.983, 64070.00
1169.070, 64263.00
1170.156, 64273.00
1171.242, 64112.00
1172.327, 64212.00
1173.413, 64020.00
1174.499, 64136.00
1175.584, 64224.00
1176.669, 64127.00
1177.754, 64349.00
1178.839, 64333.49
1179.923, 64339.80
1181.008, 64411.00
1182.092, 64327.00
1183.176, 64301.00
1184.260, 64276.00
1185.344, 64306.00
1186.428, 64365.00
1187.511, 64323.00
1188.595, 64393.15
1189.678, 64629.00
1190.761, 64458.00
1191.843, 64473.00
1192.926, 64453.95
1194.009, 64679.00
1195.091, 64546.00
1196.173, 64619.00
1197.255, 64660.00
1198.337, 64651.00
1199.419, 65067.00
1200.500, 64873.00
1201.582, 65165.00
1202.663, 64681.00
1203.744, 65515.00
1204.825, 65246.00
1205.905, 65155.00
1206.986, 65510.00
1208.066, 65249.50
1209.146, 65189.00
1210.226, 65269.00
1211.306, 64939.00
1212.386, 65214.00
1213.466, 65581.00
1214.545, 65178.00
1215.624, 65230.00
1216.703, 65579.00
1217.782, 65936.00
1218.861, 65590.00
1219.939, 65458.00
1221.018, 65873.00
1222.096, 65763.00
1223.174, 66008.00
1224.252, 65661.00
1225.330, 65772.00
1226.407, 65834.00
1227.485, 66041.00
1228.562, 65646.00
1229.639, 65937.45
1230.716, 66725.00
1231.793, 66142.00
1232.869, 66207.00
1233.946, 66195.00
1235.022, 66019.00
1236.098, 66348.00
1237.174, 66026.00
1238.250, 66726.00
1239.325, 66370.00
1240.401, 66556.00
1241.476, 66471.00
1242.551, 66714.00
1243.626, 66691.73
1244.701, 66417.00
1245.776, 66649.00
1246.850, 66862.00
1247.924, 66694.00
1248.999, 66646.00
1250.073, 66746.00
1251.146, 66637.00
1252.220, 66701.00
1253.293, 66785.00
1254.367, 66542.00
1255.440, 66903.00
1256.513, 67121.00
1257.586, 66740.00
1258.658, 66861.00
1259.731, 66784.00
1260.803, 66892.00
1261.875, 66994.00
1262.947, 66908.00
1264.019, 67411.00
1265.091, 67072.00
1266.162, 67374.00
1267.234, 66931.00
1268.305, 67032.00
1269.376, 67233.00
1270.447, 67381.00
1271.517, 67249.00
1272.588, 67752.00
1273.658, 67456.00
1274.729, 67783.00
1275.799, 67402.00
1276.868, 67325.00
