##NAMES=Kyanite
##RRUFFID=R050450
##IDEAL CHEMISTRY=Al_2_OSiO_4_
##LOCALITY=Switzerland
##OWNER=RRUFF
##SOURCE=Marcus Origlieri
##DESCRIPTION=Blue bladed crystals
##STATUS=The identification of this mineral has been confirmed by X-ray diffraction and chemical analysis
##URL=rruff.info/R050450
##MEASURED CHEMISTRY=Al_2.00_OSi_1.00_O_4_
##PIN_ID=M01448
##ORIENTATION=Laser parallel to -c* (0 0 -1). Fiducial mark perpendicular to laser is parallel to -a [-1 0 0]
148.7160, 11337.00
149.9470, 11416.00
151.1780, 11543.00
152.4080, 11655.00
153.6380, 11770.00
154.8690, 11789.03
156.0980, 11673.00
157.3280, 11744.00
158.5580, 11669.00
159.7870, 11529.00
161.0170, 11741.00
162.2460, 11834.00
163.4750, 11813.00
164.7030, 11885.00
165.9320, 11921.00
167.1600, 11974.00
168.3890, 11762.00
169.6170, 11938.04
170.8450, 11911.88
172.0730, 12163.00
173.3000, 11998.00
174.5280, 12145.00
175.7550, 12155.00
176.9820, 12340.00
178.2090, 12299.00
179.4350, 12298.00
180.6620, 12192.00
181.8880, 12323.00
183.1150, 12170.00
184.3410, 12197.00
185.5670, 12207.00
186.7920, 12297.00
188.0180, 12383.00
189.2430, 12308.00
190.4690, 12335.00
191.6940, 12542.00
192.9180, 12526.00
194.1430, 12606.36
195.3680, 12786.00
196.5920, 12667.00
197.8160, 12672.00
199.0400, 12650.00
200.2640, 12794.00
201.4880, 12768.00
202.7110, 12832.49
203.9350, 12866.00
205.1580, 12869.00
206.3810, 12966.00
207.6040, 12866.00
208.8270, 13015.00
210.0490, 12837.00
211.2710, 12864.06
212.4940, 12903.88
213.7160, 12770.00
214.9370, 12939.00
216.1590, 12820.00
217.3810, 12753.00
218.6020, 12846.00
219.8230, 12834.00
221.0440, 12949.00
222.2650, 12888.00
223.4860, 12966.00
224.7060, 13217.00
225.9260, 13250.00
227.1470, 13398.00
228.3670, 13437.00
229.5860, 13286.00
230.8060, 13326.00
232.0260, 13196.00
233.2450, 13161.00
234.4640, 13086.00
235.6830, 13202.00
236.9020, 13194.00
238.1200, 13165.00
239.3390, 13188.00
240.5570, 13177.00
241.7750, 13265.00
242.9930, 13227.00
244.2110, 13346.00
245.4290, 13265.00
246.6460, 13515.00
247.8630, 13287.00
249.0810, 13491.00
250.2980, 13390.00
251.5140, 13479.00
252.7310, 13466.00
253.9470, 13517.00
255.1640, 13417.00
256.3800, 13618.00
257.5960, 13514.00
258.8120, 13750.00
260.0270, 14144.00
261.2430, 14554.00
262.4580, 14004.00
263.6730, 13693.00
264.8880, 13690.00
266.1030, 13794.00
267.3170, 13798.00
268.5320, 13932.00
269.7460, 14009.00
270.9600, 13922.00
272.1740, 13915.00
273.3880, 13958.00
274.6010, 14117.00
275.8150, 14138.00
277.0280, 14313.00
278.2410, 14766.00
279.4540, 14566.00
280.6670, 14671.00
281.8790, 14287.00
283.0920, 14300.00
284.3040, 14287.00
285.5160, 14223.00
286.7280, 14294.00
287.9400, 14420.00
289.1510, 14926.00
290.3630, 15152.00
291.5740, 15801.00
292.7850, 16082.00
293.9960, 16017.00
295.2070, 16186.00
296.4170, 16230.00
297.6280, 16968.14
298.8380, 17586.00
300.0480, 18812.00
301.2580, 20157.00
302.4680, 21464.00
303.6770, 20732.00
304.8870, 19009.00
306.0960, 17267.00
307.3050, 16353.00
308.5140, 15263.00
309.7230, 14988.00
310.9310, 14790.00
312.1400, 14909.00
313.3480, 14895.00
314.5560, 14845.00
315.7640, 15086.00
316.9720, 15257.00
318.1790, 15390.00
319.3870, 15702.00
320.5940, 15781.00
321.8010, 16292.00
323.0080, 16791.00
324.2150, 17939.00
325.4210, 19093.00
326.6280, 19916.00
327.8340, 19587.00
329.0400, 18364.00
330.2460, 17141.00
331.4510, 16040.00
332.6570, 15484.00
333.8620, 15369.00
335.0680, 15109.00
336.2730, 15123.00
337.4780, 15092.00
338.6820, 15081.00
339.8870, 15237.00
341.0910, 15471.00
342.2950, 15465.00
343.5000, 15462.00
344.7030, 15424.00
345.9070, 15235.00
347.1110, 15156.00
348.3140, 15237.00
349.5170, 15115.00
350.7200, 15271.00
351.9230, 15535.00
353.1260, 15615.00
354.3290, 15664.00
355.5310, 15682.00
356.7330, 16096.00
357.9350, 16471.00
359.1370, 16928.00
360.3390, 17387.00
361.5400, 17683.00
362.7420, 17383.64
363.9430, 17247.00
365.1440, 16613.00
366.3450, 16264.00
367.5460, 16186.00
368.7460, 16458.00
369.9470, 16688.00
371.1470, 17131.00
372.3470, 17706.00
373.5470, 17787.00
374.7460, 18094.00
375.9460, 18028.00
377.1450, 18210.00
378.3450, 18388.00
379.5440, 18310.00
380.7430, 18182.00
381.9410, 18338.00
383.1400, 18682.00
384.3380, 19307.00
385.5370, 19948.00
386.7350, 20069.00
387.9320, 19716.00
389.1300, 19284.00
390.3280, 19096.00
391.5250, 20665.00
392.7220, 20202.00
393.9190, 20409.00
395.1160, 19549.00
396.3130, 18805.00
397.5100, 18036.00
398.7060, 17788.00
399.9020, 17741.00
401.0980, 17983.00
402.2940, 18871.00
403.4900, 19751.00
404.6860, 20736.00
405.8810, 20624.00
407.0760, 19992.00
408.2710, 18940.00
409.4660, 18024.00
410.6610, 17553.00
411.8550, 16977.00
413.0500, 16747.00
414.2440, 17166.00
415.4380, 16922.00
416.6320, 17172.00
417.8260, 17334.00
419.0190, 17516.00
420.2130, 17869.00
421.4060, 17709.00
422.5990, 17442.00
423.7920, 16982.00
424.9850, 17005.00
426.1770, 17046.00
427.3700, 16805.00
428.5620, 17095.00
429.7540, 17240.00
430.9460, 17679.00
432.1380, 17835.00
433.3290, 18266.00
434.5210, 18625.00
435.7120, 19544.00
436.9030, 20149.00
438.0940, 20404.00
439.2850, 20481.12
440.4750, 20545.00
441.6660, 19842.00
442.8560, 19089.00
444.0460, 18315.00
445.2360, 18017.00
446.4260, 17865.00
447.6160, 18240.00
448.8050, 18213.00
449.9940, 18270.00
451.1830, 18136.00
452.3720, 17728.00
453.5610, 17275.00
454.7500, 17288.00
455.9380, 17369.00
457.1260, 17090.00
458.3150, 17467.00
459.5020, 17266.15
460.6900, 17226.00
461.8780, 17206.00
463.0650, 17195.00
464.2530, 17333.00
465.4400, 17454.00
466.6270, 17680.00
467.8130, 17562.00
469.0000, 17676.00
470.1870, 17611.00
471.3730, 17657.00
472.5590, 17763.00
473.7450, 17826.00
474.9310, 18175.00
476.1160, 18303.00
477.3020, 18706.00
478.4870, 19540.00
479.6720, 20235.00
480.8570, 21166.00
482.0420, 22139.00
483.2270, 23722.00
484.4110, 25999.00
485.5960, 29021.00
486.7800, 31680.00
487.9640, 32465.00
489.1480, 30708.00
490.3310, 28015.00
491.5150, 25610.00
492.6980, 23709.00
493.8810, 22194.00
495.0640, 21297.00
496.2470, 20650.00
497.4300, 19989.00
498.6120, 19355.00
499.7950, 18946.00
500.9770, 18963.00
502.1590, 18652.00
503.3410, 18675.00
504.5220, 18558.00
505.7040, 18512.00
506.8850, 18444.00
508.0660, 18624.00
509.2470, 18688.00
510.4280, 18875.00
511.6090, 18965.00
512.7890, 18979.00
513.9700, 19147.00
515.1500, 19088.00
516.3300, 18884.00
517.5100, 18650.00
518.6900, 18603.00
519.8690, 18480.00
521.0490, 18279.00
522.2280, 18340.00
523.4070, 18273.00
524.5860, 18326.00
525.7640, 18366.00
526.9430, 18218.00
528.1210, 18231.00
529.3000, 18289.00
530.4780, 18195.00
531.6560, 18299.00
532.8330, 18247.00
534.0110, 18425.00
535.1880, 18414.00
536.3650, 18485.00
537.5430, 18608.00
538.7190, 18551.00
539.8960, 18559.00
541.0730, 18604.00
542.2490, 18591.00
543.4250, 18853.00
544.6020, 18658.00
545.7780, 18827.00
546.9530, 18714.00
548.1290, 18782.00
549.3040, 18921.00
550.4800, 18878.00
551.6550, 18778.00
552.8300, 18859.00
554.0040, 18857.00
555.1790, 18954.00
556.3540, 19166.00
557.5280, 19270.00
558.7020, 19397.00
559.8760, 19618.00
561.0500, 19979.00
562.2230, 20478.00
563.3970, 20878.00
564.5700, 20632.00
565.7430, 20561.00
566.9160, 20319.00
568.0890, 20116.00
569.2620, 20035.00
570.4340, 19906.00
571.6070, 20045.00
572.7790, 20136.00
573.9510, 20242.00
575.1230, 20164.98
576.2940, 19958.00
577.4660, 19917.00
578.6370, 19836.00
579.8080, 19649.00
580.9790, 19672.00
582.1500, 19517.00
583.3210, 19639.00
584.4910, 19867.00
585.6620, 19939.00
586.8320, 19843.00
588.0020, 19888.00
589.1720, 19940.00
590.3410, 19694.00
591.5110, 19639.00
592.6800, 19592.00
593.8500, 19616.00
595.0190, 19441.00
596.1880, 19645.00
597.3560, 20047.00
598.5250, 19614.00
599.6930, 20008.00
600.8620, 20052.00
602.0300, 19807.00
603.1970, 20209.00
604.3650, 20291.00
605.5330, 20630.00
606.7000, 20622.00
607.8680, 20770.00
609.0350, 20712.00
610.2020, 20535.00
611.3680, 20367.00
612.5350, 20205.00
613.7010, 20264.00
614.8680, 20326.00
616.0340, 20256.00
617.2000, 20441.00
618.3660, 20459.00
619.5310, 20209.00
620.6970, 20312.00
621.8620, 20395.00
623.0270, 20393.00
624.1920, 20399.00
625.3570, 20414.00
626.5220, 20550.00
627.6860, 20501.00
628.8500, 20794.00
630.0140, 20780.00
631.1780, 20879.00
632.3420, 20875.00
633.5060, 21064.00
634.6700, 21088.00
635.8330, 21178.00
636.9960, 21254.06
638.1590, 21286.87
639.3220, 21291.00
640.4850, 21313.00
641.6470, 21185.00
642.8100, 21058.00
643.9720, 21127.00
645.1340, 20842.00
646.2960, 20841.00
647.4570, 20903.00
648.6190, 20846.00
649.7800, 20861.00
650.9420, 20959.21
652.1030, 21069.00
653.2640, 21140.00
654.4240, 21345.00
655.5850, 21382.00
656.7450, 21199.00
657.9060, 21681.00
659.0660, 21601.00
660.2260, 21561.00
661.3850, 21324.00
662.5450, 21323.00
663.7040, 21411.00
664.8640, 21423.00
666.0230, 21386.00
667.1820, 21298.00
668.3410, 21542.00
669.4990, 21520.00
670.6580, 21625.00
671.8160, 21683.00
672.9740, 21750.00
674.1320, 21502.00
675.2900, 21408.00
676.4480, 21482.00
677.6050, 21372.00
678.7630, 21329.00
679.9200, 21246.00
681.0770, 21141.00
682.2340, 21415.00
683.3900, 21575.00
684.5470, 21506.13
685.7030, 21170.00
686.8590, 21426.00
688.0150, 21377.00
689.1710, 21284.00
690.3270, 21481.00
691.4830, 21495.00
692.6380, 21261.00
693.7930, 21362.00
694.9480, 21545.00
696.1030, 21563.00
697.2580, 21687.00
698.4130, 21514.00
699.5670, 21608.00
700.7210, 21723.00
701.8750, 21646.00
703.0290, 21723.00
704.1830, 21831.00
705.3370, 21940.00
706.4900, 21860.00
707.6430, 21739.00
708.7970, 21803.00
709.9490, 21868.00
711.1020, 21857.00
712.2550, 21880.00
713.4070, 21736.00
714.5600, 21930.00
715.7120, 21931.00
716.8640, 21919.00
718.0160, 22065.00
719.1670, 21983.00
720.3190, 22161.00
721.4700, 22291.00
722.6210, 22176.00
723.7720, 22202.00
724.9230, 22402.00
726.0740, 22225.00
727.2250, 22393.00
728.3750, 22312.00
729.5250, 22178.00
730.6750, 22165.00
731.8250, 22334.00
732.9750, 22053.00
734.1240, 22308.00
735.2740, 22331.00
736.4230, 22372.00
737.5720, 22255.00
738.7210, 22221.00
739.8700, 22260.00
741.0190, 22275.00
742.1670, 22446.00
743.3150, 22435.00
744.4630, 22463.00
745.6110, 22548.00
746.7590, 22335.00
747.9070, 22608.00
749.0540, 22534.00
750.2020, 22674.00
751.3490, 22453.00
752.4960, 22598.00
753.6430, 22488.00
754.7890, 22639.00
755.9360, 22878.00
757.0820, 22793.00
758.2280, 22811.00
759.3740, 22957.00
760.5200, 22737.00
761.6660, 22863.00
762.8120, 22886.00
763.9570, 23010.00
765.1020, 23037.00
766.2470, 23030.45
767.3920, 23042.00
768.5370, 22974.00
769.6810, 22946.00
770.8260, 22905.00
771.9700, 23004.00
773.1140, 23025.00
774.2580, 23041.00
775.4020, 23113.00
776.5460, 22898.00
777.6890, 23180.00
778.8320, 23283.00
779.9750, 23123.00
781.1180, 23143.00
782.2610, 23246.00
783.4040, 23181.00
784.5460, 23236.00
785.6890, 23295.00
786.8310, 23463.00
787.9730, 23403.00
789.1150, 23444.00
790.2560, 23369.00
791.3980, 23409.00
792.5390, 23284.00
793.6810, 23518.00
794.8220, 23438.00
795.9630, 23473.00
797.1030, 23391.00
798.2440, 23450.67
799.3840, 23658.00
800.5240, 23523.00
801.6650, 23672.00
802.8040, 23623.00
803.9440, 23752.00
805.0840, 23732.00
806.2230, 23689.00
807.3630, 23755.06
808.5020, 23958.00
809.6410, 23768.00
810.7790, 24003.00
811.9180, 23975.00
813.0570, 23955.00
814.1950, 24077.00
815.3330, 24068.00
816.4710, 24155.00
817.6090, 24139.00
818.7470, 24211.00
819.8840, 24167.54
821.0220, 24061.00
822.1590, 24103.00
823.2960, 24184.00
824.4330, 24233.00
825.5690, 24276.00
826.7060, 24306.00
827.8420, 24152.00
828.9790, 24248.00
830.1150, 24227.00
831.2510, 24263.00
832.3860, 24318.00
833.5220, 24484.00
834.6570, 24511.00
835.7930, 24498.00
836.9280, 24640.00
838.0630, 24579.00
839.1980, 24450.00
840.3320, 24716.00
841.4670, 24666.00
842.6010, 24601.00
843.7350, 24699.00
844.8690, 24862.00
846.0030, 24907.00
847.1370, 24980.06
848.2700, 24752.00
849.4040, 24990.00
850.5370, 24991.00
851.6700, 24844.00
852.8030, 25125.00
853.9360, 24969.00
855.0680, 25295.00
856.2000, 25043.00
857.3330, 25107.00
858.4650, 25387.00
859.5970, 25374.00
860.7290, 25365.00
861.8600, 25211.00
862.9920, 25469.00
864.1230, 25588.00
865.2540, 25648.00
866.3850, 25579.00
867.5160, 25568.00
868.6460, 25906.00
869.7770, 25774.00
870.9070, 25817.00
872.0370, 26014.00
873.1670, 26018.00
874.2970, 26175.00
875.4270, 26110.00
876.5570, 26424.00
877.6860, 26389.00
878.8150, 26631.00
879.9440, 26870.00
881.0730, 27129.00
882.2020, 27507.00
883.3300, 27596.00
884.4590, 28106.00
885.5870, 28479.00
886.7150, 29077.00
887.8430, 29369.00
888.9710, 29890.00
890.0990, 30129.00
891.2260, 30637.00
892.3530, 30465.00
893.4810, 30815.00
894.6080, 30535.00
895.7340, 30519.00
896.8610, 30436.00
897.9880, 30778.00
899.1140, 30844.00
900.2400, 30928.00
901.3660, 31246.00
902.4920, 31177.00
903.6180, 30846.00
904.7430, 30538.00
905.8690, 30045.00
906.9940, 29669.06
908.1190, 28879.00
909.2440, 28724.00
910.3690, 28256.00
911.4930, 27665.00
912.6180, 27738.00
913.7420, 27690.00
914.8660, 27708.00
915.9900, 27730.00
917.1140, 27571.00
918.2380, 27531.00
919.3610, 27631.00
920.4850, 27587.00
921.6080, 27684.00
922.7310, 27658.00
923.8540, 27743.00
924.9760, 27634.00
926.0990, 27630.00
927.2210, 27837.00
928.3440, 27926.00
929.4660, 28079.00
930.5880, 28203.00
931.7090, 28383.00
932.8310, 28766.00
933.9520, 28815.00
935.0740, 28847.00
936.1950, 29336.00
937.3160, 29530.00
938.4360, 29795.00
939.5570, 30087.00
940.6780, 30323.00
941.7980, 30690.33
942.9180, 30959.00
944.0380, 31459.00
945.1580, 31913.00
946.2780, 32387.00
947.3970, 33015.00
948.5170, 33451.00
949.6360, 33874.00
950.7550, 34107.78
951.8740, 34320.00
952.9930, 34378.00
954.1110, 34176.00
955.2300, 34264.00
956.3480, 33752.00
957.4660, 33408.00
958.5840, 33007.00
959.7020, 32915.00
960.8190, 32840.00
961.9370, 32659.51
963.0540, 32496.25
964.1710, 32411.00
965.2880, 31968.00
966.4050, 31634.00
967.5220, 31118.00
968.6380, 30934.00
969.7550, 30541.00
970.8710, 30014.00
971.9870, 29818.00
973.1030, 29598.00
974.2190, 29494.00
975.3340, 29378.00
976.4500, 29246.50
977.5650, 29264.00
978.6800, 29075.00
979.7950, 29040.00
980.9100, 29024.00
982.0250, 28836.00
983.1390, 29072.00
984.2530, 28809.00
985.3680, 29023.00
986.4820, 28711.00
987.5950, 28947.00
988.7090, 28788.00
989.8230, 28833.00
990.9360, 29046.00
992.0490, 29042.00
993.1620, 28989.00
994.2750, 29104.00
995.3880, 29186.00
996.5010, 29256.34
997.6130, 29379.10
998.7250, 29459.00
999.8370, 29631.00
1000.949, 29707.00
1002.061, 29887.00
1003.173, 29871.00
1004.284, 29741.00
1005.396, 29844.00
1006.507, 29535.00
1007.618, 29327.00
1008.729, 29525.00
1009.839, 29279.00
1010.950, 29281.00
1012.060, 29188.00
1013.171, 29340.00
1014.281, 29336.00
1015.391, 29296.63
1016.500, 29168.00
1017.610, 29189.00
1018.719, 29286.00
1019.829, 29183.00
1020.938, 29291.00
1022.047, 29507.00
1023.156, 29404.00
1024.264, 29366.00
1025.373, 29310.00
1026.481, 29170.00
1027.589, 29358.00
1028.697, 29574.00
1029.805, 29294.00
1030.913, 29581.00
1032.020, 29443.00
1033.128, 29593.00
1034.235, 29627.00
1035.342, 29618.00
1036.449, 29482.00
1037.556, 29565.00
1038.663, 29612.00
1039.769, 29618.00
1040.875, 29787.00
1041.981, 29605.00
1043.087, 29821.00
1044.193, 29556.00
1045.299, 30075.00
1046.404, 29867.00
1047.510, 29622.00
1048.615, 30030.00
1049.720, 29757.00
1050.825, 29842.00
1051.930, 29894.00
1053.034, 29915.00
1054.139, 30271.00
1055.243, 30007.00
1056.347, 30346.00
1057.451, 30093.00
1058.555, 30279.00
1059.658, 30186.00
1060.762, 30175.00
1061.865, 30303.00
1062.968, 30189.00
1064.071, 30408.00
1065.174, 30428.00
1066.277, 30185.00
1067.380, 30540.00
1068.482, 30379.00
1069.584, 30421.00
1070.686, 30533.00
1071.788, 30697.00
1072.890, 30473.00
1073.992, 30698.00
1075.093, 30354.00
1076.194, 30648.00
1077.295, 30323.00
1078.396, 30873.00
1079.497, 30706.00
1080.598, 30586.00
1081.698, 30722.00
1082.799, 30730.00
1083.899, 30898.00
1084.999, 30663.00
1086.099, 31148.00
1087.199, 30919.00
1088.298, 30979.00
1089.398, 31078.00
1090.497, 31108.00
1091.596, 31154.00
1092.695, 31153.00
1093.794, 31088.00
1094.892, 31218.00
1095.991, 31254.00
1097.089, 31173.00
1098.187, 31012.00
1099.285, 31066.00
1100.383, 31197.00
1101.481, 31312.00
1102.579, 31327.00
1103.676, 31240.00
1104.773, 31333.13
1105.870, 31342.00
1106.967, 31419.00
1108.064, 31380.00
1109.161, 31464.00
1110.257, 31465.00
1111.353, 31483.00
1112.449, 31477.00
1113.545, 31659.00
1114.641, 31682.00
1115.737, 31643.00
1116.832, 31584.00
1117.928, 31685.00
1119.023, 31718.00
1120.118, 31738.00
1121.213, 31699.00
1122.308, 31882.00
1123.402, 31653.00
1124.497, 31789.00
1125.591, 32146.00
1126.685, 32089.00
1127.779, 32128.00
1128.873, 32113.00
1129.967, 32103.46
1131.060, 32016.00
1132.153, 32168.00
1133.247, 32080.00
1134.340, 32259.00
1135.433, 32277.00
1136.525, 32238.00
1137.618, 32327.00
1138.710, 32326.00
1139.802, 32396.00
1140.895, 32449.00
1141.987, 32401.00
1143.078, 32492.00
1144.170, 32432.00
1145.261, 32298.00
1146.353, 32339.00
1147.444, 32671.00
1148.535, 32444.00
1149.626, 32692.00
1150.716, 32674.00
1151.807, 32614.00
1152.897, 33139.00
1153.988, 33596.00
1155.078, 33312.00
1156.168, 32787.00
1157.257, 32923.00
1158.347, 32793.00
1159.436, 32757.00
1160.526, 32940.00
1161.615, 32931.00
1162.704, 32869.00
1163.793, 32888.00
1164.881, 32896.00
1165.970, 32945.00
1167.058, 32824.00
1168.147, 33178.00
1169.235, 33200.00
1170.323, 33091.00
1171.410, 33210.00
1172.498, 33242.00
1173.585, 33186.00
1174.673, 33153.00
1175.760, 33201.45
1176.847, 33425.00
1177.934, 33350.00
1179.020, 33386.00
1180.107, 33603.00
1181.193, 33426.00
1182.279, 33779.00
1183.365, 33554.00
1184.451, 33618.00
1185.537, 33570.00
1186.623, 33606.00
1187.708, 33460.00
1188.793, 33750.00
1189.878, 33620.00
1190.963, 33862.00
1192.048, 34023.00
1193.133, 33760.00
1194.217, 34111.00
1195.302, 33714.00
1196.386, 33965.00
1197.470, 33744.00
1198.554, 34044.00
1199.638, 33910.00
1200.721, 33947.00
1201.805, 34178.00
1202.888, 34112.00
1203.971, 34185.00
1205.054, 34373.00
1206.137, 34185.00
1207.219, 34436.00
1208.302, 34307.00
1209.384, 33979.00
1210.466, 34182.00
1211.548, 34274.00
1212.630, 34306.66
1213.712, 34254.00
1214.794, 34474.00
1215.875, 34582.00
1216.956, 34391.00
1218.037, 34649.00
1219.118, 34704.00
1220.199, 34721.00
1221.280, 34604.00
1222.360, 34694.00
1223.441, 34722.00
1224.521, 34993.00
1225.601, 34892.00
1226.681, 34808.00
1227.760, 34680.00
1228.840, 34909.00
1229.919, 35224.00
1230.999, 35071.00
1232.078, 35030.00
1233.157, 34893.00
1234.236, 35025.00
1235.314, 35265.00
1236.393, 35099.00
1237.471, 35166.00
1238.549, 35334.00
1239.627, 35336.00
1240.705, 35417.00
1241.783, 35443.46
1242.860, 35448.00
1243.938, 35406.00
1245.015, 35301.00
1246.092, 35178.00
1247.169, 35300.00
1248.246, 35354.00
1249.323, 35318.00
1250.399, 35522.00
1251.475, 35575.00
1252.552, 35478.00
1253.628, 35731.00
1254.703, 35624.00
1255.779, 35679.00
1256.855, 35601.00
1257.930, 36006.00
1259.005, 35749.00
1260.080, 35866.00
1261.155, 35583.00
1262.230, 35777.00
1263.305, 36070.00
1264.379, 36233.00
1265.454, 36176.00
1266.528, 35865.00
1267.602, 35955.00
1268.676, 36164.00
1269.750, 36095.00
1270.823, 36201.45
1271.897, 36213.00
1272.970, 36247.00
1274.043, 36234.00
1275.116, 36221.00
1276.189, 36526.00
1277.261, 36098.00
1278.334, 36514.00
1279.406, 36664.00
1280.478, 36238.00
1281.550, 36572.00
1282.622, 36618.00
1283.694, 36214.00
1284.766, 36586.00
1285.837, 36602.00
1286.908, 36768.00
1287.979, 36902.00
1289.050, 36683.00
1290.121, 36778.00
1291.192, 36598.00
1292.262, 36547.00
1293.333, 36828.00
1294.403, 36887.00
1295.473, 36956.00
1296.543, 36933.00
1297.613, 37105.00
1298.682, 36885.00
1299.752, 37023.00
1300.821, 37272.00
1301.890, 37096.00
1302.959, 37377.00
1304.028, 37211.00
1305.096, 37295.00
1306.165, 37309.00
1307.233, 37312.47
1308.301, 37583.00
1309.370, 37417.00
1310.437, 37434.00
1311.505, 37490.00
1312.573, 37368.00
1313.640, 37593.00
1314.708, 37663.00
1315.775, 37629.00
1316.842, 37724.00
1317.908, 37763.00
1318.975, 37772.68
1320.042, 37798.00
1321.108, 37782.00
1322.174, 37887.00
1323.240, 37828.00
1324.306, 37685.00
1325.372, 38021.00
1326.438, 37742.00
