##NAMES=Kyanite
##RRUFFID=R050450
##IDEAL CHEMISTRY=Al_2_OSiO_4_
##LOCALITY=Switzerland
##OWNER=RRUFF
##SOURCE=Marcus Origlieri
##DESCRIPTION=Blue bladed crystals
##STATUS=The identification of this mineral has been confirmed by X-ray diffraction and chemical analysis
##URL=rruff.info/R050450
##MEASURED CHEMISTRY=Al_2.00_OSi_1.00_O_4_
##PIN_ID=M01603
##ORIENTATION=Laser parallel to (-1 0 -1). Fiducial mark perpendicular to laser is parallel to b [0 1 0]
148.7160, 11699.00
149.9470, 11664.00
151.1780, 11769.00
152.4080, 11629.00
153.6380, 11708.00
154.8690, 11611.00
156.0980, 11683.00
157.3280, 11698.00
158.5580, 11717.00
159.7870, 11701.00
161.0170, 11609.00
162.2460, 11568.00
163.4750, 11602.00
164.7030, 11646.00
165.9320, 11662.00
167.1600, 11780.00
168.3890, 11615.00
169.6170, 11556.00
170.8450, 11649.00
172.0730, 11715.00
173.3000, 11676.00
174.5280, 11733.00
175.7550, 11648.00
176.9820, 11781.00
178.2090, 11638.00
179.4350, 11739.00
180.6620, 11785.00
181.8880, 11614.00
183.1150, 11528.00
184.3410, 11751.00
185.5670, 11622.00
186.7920, 11457.00
188.0180, 11603.00
189.2430, 11470.00
190.4690, 11525.00
191.6940, 11533.00
192.9180, 11662.00
194.1430, 11579.00
195.3680, 11670.00
196.5920, 11915.00
197.8160, 11738.00
199.0400, 11920.00
200.2640, 12010.00
201.4880, 11994.00
202.7110, 12175.00
203.9350, 12140.00
205.1580, 12505.00
206.3810, 12773.00
207.6040, 13056.00
208.8270, 13114.00
210.0490, 12801.00
211.2710, 12448.00
212.4940, 12191.00
213.7160, 11930.00
214.9370, 12082.00
216.1590, 11976.00
217.3810, 11960.00
218.6020, 12035.00
219.8230, 12034.00
221.0440, 12245.00
222.2650, 12243.00
223.4860, 12446.00
224.7060, 12791.00
225.9260, 12885.00
227.1470, 13179.00
228.3670, 13224.00
229.5860, 12806.00
230.8060, 12468.00
232.0260, 12279.00
233.2450, 12230.00
234.4640, 12124.00
235.6830, 12157.00
236.9020, 12214.00
238.1200, 12014.00
239.3390, 12170.00
240.5570, 12186.00
241.7750, 12341.00
242.9930, 12412.00
244.2110, 12419.00
245.4290, 12403.00
246.6460, 12607.00
247.8630, 12541.00
249.0810, 12631.00
250.2980, 12588.00
251.5140, 12598.00
252.7310, 12642.00
253.9470, 12367.00
255.1640, 12297.00
256.3800, 12365.00
257.5960, 12350.00
258.8120, 12376.00
260.0270, 12379.00
261.2430, 12350.81
262.4580, 12460.00
263.6730, 12288.00
264.8880, 12399.00
266.1030, 12373.00
267.3170, 12495.00
268.5320, 12545.00
269.7460, 12583.00
270.9600, 12592.00
272.1740, 12824.00
273.3880, 12822.00
274.6010, 13137.00
275.8150, 13400.00
277.0280, 14015.00
278.2410, 14506.00
279.4540, 14662.00
280.6670, 14030.00
281.8790, 13595.00
283.0920, 13202.00
284.3040, 13065.00
285.5160, 12931.00
286.7280, 12744.00
287.9400, 13315.00
289.1510, 13786.00
290.3630, 14471.00
291.5740, 15589.00
292.7850, 16583.00
293.9960, 17255.00
295.2070, 17327.00
296.4170, 18082.00
297.6280, 18581.00
298.8380, 20881.00
300.0480, 24080.00
301.2580, 27935.00
302.4680, 30942.00
303.6770, 28949.00
304.8870, 24051.00
306.0960, 19721.00
307.3050, 17095.00
308.5140, 15246.00
309.7230, 14141.00
310.9310, 13644.00
312.1400, 13459.00
313.3480, 13462.00
314.5560, 13655.00
315.7640, 13789.00
316.9720, 14360.00
318.1790, 15077.00
319.3870, 15576.00
320.5940, 15746.00
321.8010, 16449.00
323.0080, 17866.00
324.2150, 20021.00
325.4210, 22817.00
326.6280, 24875.00
327.8340, 23889.00
329.0400, 20765.00
330.2460, 18093.00
331.4510, 16041.00
332.6570, 14902.00
333.8620, 14190.00
335.0680, 13805.00
336.2730, 13436.00
337.4780, 13518.00
338.6820, 13501.00
339.8870, 13542.00
341.0910, 13807.00
342.2950, 13995.00
343.5000, 13749.00
344.7030, 13694.00
345.9070, 13910.00
347.1110, 13677.00
348.3140, 13627.00
349.5170, 13716.00
350.7200, 13896.00
351.9230, 14463.00
353.1260, 14914.00
354.3290, 15069.00
355.5310, 15223.00
356.7330, 15966.00
357.9350, 17028.00
359.1370, 18497.00
360.3390, 20263.00
361.5400, 20944.00
362.7420, 19438.00
363.9430, 17618.00
365.1440, 16043.00
366.3450, 15039.00
367.5460, 14782.00
368.7460, 14527.00
369.9470, 14804.00
371.1470, 14966.03
372.3470, 15612.00
373.5470, 16108.00
374.7460, 16943.00
375.9460, 18229.00
377.1450, 19844.00
378.3450, 21566.00
379.5440, 22414.00
380.7430, 22837.00
381.9410, 24211.00
383.1400, 27015.00
384.3380, 31220.00
385.5370, 35034.00
386.7350, 35708.00
387.9320, 32182.00
389.1300, 28445.00
390.3280, 26707.00
391.5250, 26238.00
392.7220, 27867.00
393.9190, 27863.00
395.1160, 24990.00
396.3130, 22232.00
397.5100, 20821.00
398.7060, 19994.00
399.9020, 19862.00
401.0980, 21109.00
402.2940, 23735.00
403.4900, 26923.00
404.6860, 29750.00
405.8810, 29919.00
407.0760, 26638.00
408.2710, 22692.00
409.4660, 19612.00
410.6610, 17387.00
411.8550, 15998.00
413.0500, 15094.00
414.2440, 14640.00
415.4380, 14482.00
416.6320, 14271.00
417.8260, 14207.00
419.0190, 14109.00
420.2130, 14082.00
421.4060, 14091.43
422.5990, 14175.94
423.7920, 14215.00
424.9850, 14493.00
426.1770, 14677.00
427.3700, 14937.00
428.5620, 15541.00
429.7540, 16097.00
430.9460, 17101.00
432.1380, 18098.00
433.3290, 19316.00
434.5210, 21019.00
435.7120, 23100.00
436.9030, 25293.00
438.0940, 26860.00
439.2850, 27449.00
440.4750, 26847.00
441.6660, 24443.00
442.8560, 21913.00
444.0460, 19885.00
445.2360, 18807.00
446.4260, 18903.00
447.6160, 19240.00
448.8050, 20151.00
449.9940, 19961.00
451.1830, 18958.00
452.3720, 17719.00
453.5610, 16722.00
454.7500, 15793.00
455.9380, 15482.00
457.1260, 15409.00
458.3150, 15364.00
459.5020, 15487.00
460.6900, 15566.00
461.8780, 15916.00
463.0650, 16224.00
464.2530, 16665.00
465.4400, 17080.00
466.6270, 17532.00
467.8130, 17410.00
469.0000, 17151.00
470.1870, 16886.00
471.3730, 16786.00
472.5590, 16563.00
473.7450, 16654.00
474.9310, 17356.00
476.1160, 18229.00
477.3020, 19860.00
478.4870, 22185.00
479.6720, 25104.00
480.8570, 27764.00
482.0420, 30446.00
483.2270, 35045.00
484.4110, 41855.00
485.5960, 50239.00
486.7800, 57394.00
487.9640, 59700.00
489.1480, 54121.00
490.3310, 45642.00
491.5150, 38253.00
492.6980, 32588.00
493.8810, 28714.00
495.0640, 25866.00
496.2470, 23340.00
497.4300, 21086.00
498.6120, 19773.00
499.7950, 18410.00
500.9770, 17537.00
502.1590, 17078.00
503.3410, 16567.00
504.5220, 16298.00
505.7040, 16046.00
506.8850, 16031.00
508.0660, 15826.00
509.2470, 15895.00
510.4280, 15730.00
511.6090, 15573.00
512.7890, 15571.00
513.9700, 15479.00
515.1500, 15398.79
516.3300, 15344.00
517.5100, 15285.00
518.6900, 15264.00
519.8690, 15275.00
521.0490, 15176.00
522.2280, 15106.00
523.4070, 15117.00
524.5860, 14995.00
525.7640, 15053.00
526.9430, 14963.00
528.1210, 14933.00
529.3000, 14989.00
530.4780, 15107.00
531.6560, 14977.00
532.8330, 14985.00
534.0110, 15039.00
535.1880, 15001.00
536.3650, 15013.00
537.5430, 15115.00
538.7190, 15087.00
539.8960, 15128.00
541.0730, 15264.00
542.2490, 15211.00
543.4250, 15183.00
544.6020, 15450.00
545.7780, 15649.00
546.9530, 15665.00
548.1290, 15616.00
549.3040, 15387.00
550.4800, 15397.00
551.6550, 15277.00
552.8300, 15300.00
554.0040, 15473.00
555.1790, 15585.00
556.3540, 15552.00
557.5280, 15839.00
558.7020, 15905.00
559.8760, 15930.00
561.0500, 16550.00
562.2230, 17014.00
563.3970, 17344.00
564.5700, 17589.00
565.7430, 17133.00
566.9160, 16894.00
568.0890, 16586.00
569.2620, 16315.18
570.4340, 16153.08
571.6070, 15919.00
572.7790, 15893.00
573.9510, 15840.25
575.1230, 15816.40
576.2940, 15779.00
577.4660, 15808.00
578.6370, 15793.00
579.8080, 15808.00
580.9790, 15906.00
582.1500, 15962.00
583.3210, 16098.00
584.4910, 16029.00
585.6620, 16122.00
586.8320, 16319.00
588.0020, 16101.00
589.1720, 16088.00
590.3410, 16192.00
591.5110, 16113.00
592.6800, 16253.00
593.8500, 16205.00
595.0190, 16415.00
596.1880, 16614.00
597.3560, 16429.00
598.5250, 16938.00
599.6930, 17203.00
600.8620, 17212.00
602.0300, 17608.00
603.1970, 17824.00
604.3650, 18329.00
605.5330, 18768.00
606.7000, 18904.00
607.8680, 19134.00
609.0350, 19036.00
610.2020, 18651.00
611.3680, 18269.00
612.5350, 18099.00
613.7010, 18010.94
614.8680, 17970.00
616.0340, 18139.00
617.2000, 18289.00
618.3660, 18515.00
619.5310, 18553.00
620.6970, 18816.00
621.8620, 18418.00
623.0270, 18210.00
624.1920, 18130.00
625.3570, 18172.00
626.5220, 18198.00
627.6860, 18259.00
628.8500, 18404.00
630.0140, 18650.00
631.1780, 18817.00
632.3420, 19311.00
633.5060, 19646.00
634.6700, 19945.00
635.8330, 20973.00
636.9960, 21196.00
638.1590, 21510.00
639.3220, 21566.00
640.4850, 20954.00
641.6470, 20343.00
642.8100, 19628.00
643.9720, 19325.00
645.1340, 18949.00
646.2960, 18882.00
647.4570, 19009.00
648.6190, 19385.00
649.7800, 19651.00
650.9420, 20082.11
652.1030, 20704.00
653.2640, 21134.00
654.4240, 21673.00
655.5850, 22399.00
656.7450, 22903.00
657.9060, 22920.00
659.0660, 22345.00
660.2260, 21385.00
661.3850, 20565.00
662.5450, 19859.00
663.7040, 19079.00
664.8640, 18638.00
666.0230, 18347.00
667.1820, 17853.00
668.3410, 17767.00
669.4990, 17560.00
670.6580, 17400.00
671.8160, 17511.00
672.9740, 17297.00
674.1320, 17142.00
675.2900, 17130.00
676.4480, 16983.00
677.6050, 16936.00
678.7630, 16961.00
679.9200, 16885.00
681.0770, 16819.00
682.2340, 16851.00
683.3900, 16963.00
684.5470, 16998.00
685.7030, 17056.00
686.8590, 17003.00
688.0150, 16986.00
689.1710, 16883.00
690.3270, 16951.00
691.4830, 16986.00
692.6380, 16970.00
693.7930, 17041.00
694.9480, 16824.00
696.1030, 17132.00
697.2580, 16832.00
698.4130, 16969.00
699.5670, 16948.00
700.7210, 16970.00
701.8750, 16865.00
703.0290, 16929.00
704.1830, 16952.67
705.3370, 17048.00
706.4900, 17050.00
707.6430, 17094.00
708.7970, 17092.00
709.9490, 16982.00
711.1020, 17097.00
712.2550, 17106.00
713.4070, 17067.00
714.5600, 17221.00
715.7120, 17187.00
716.8640, 17112.00
718.0160, 17282.00
719.1670, 17316.00
720.3190, 17198.00
721.4700, 17364.00
722.6210, 17481.00
723.7720, 17497.00
724.9230, 17606.00
726.0740, 17646.00
727.2250, 17771.00
728.3750, 17449.00
729.5250, 17476.00
730.6750, 17475.00
731.8250, 17318.00
732.9750, 17502.00
734.1240, 17320.00
735.2740, 17291.00
736.4230, 17522.00
737.5720, 17336.00
738.7210, 17303.00
739.8700, 17518.00
741.0190, 17500.00
742.1670, 17673.00
743.3150, 17749.00
744.4630, 17740.00
745.6110, 17662.00
746.7590, 17676.00
747.9070, 17744.00
749.0540, 17733.00
750.2020, 17708.00
751.3490, 17833.00
752.4960, 17820.37
753.6430, 17803.00
754.7890, 17846.00
755.9360, 17929.00
757.0820, 17830.00
758.2280, 17881.00
759.3740, 17931.00
760.5200, 17892.00
761.6660, 18139.00
762.8120, 18213.00
763.9570, 18148.00
765.1020, 18200.00
766.2470, 18037.00
767.3920, 18083.00
768.5370, 18176.00
769.6810, 18239.00
770.8260, 18309.00
771.9700, 18223.00
773.1140, 18320.00
774.2580, 18312.32
775.4020, 18330.00
776.5460, 18343.00
777.6890, 18217.00
778.8320, 18209.00
779.9750, 18279.00
781.1180, 18287.78
782.2610, 18350.00
783.4040, 18444.00
784.5460, 18442.00
785.6890, 18509.00
786.8310, 18475.62
787.9730, 18475.00
789.1150, 18454.00
790.2560, 18483.06
791.3980, 18554.00
792.5390, 18574.00
793.6810, 18561.00
794.8220, 18642.00
795.9630, 18558.00
797.1030, 18678.00
798.2440, 18793.00
799.3840, 18677.00
800.5240, 18942.00
801.6650, 18820.00
802.8040, 18891.00
803.9440, 19021.00
805.0840, 19088.00
806.2230, 18974.00
807.3630, 18932.00
808.5020, 18822.00
809.6410, 19101.00
810.7790, 19118.00
811.9180, 19104.00
813.0570, 19302.00
814.1950, 19169.00
815.3330, 19237.00
816.4710, 19454.00
817.6090, 19352.00
818.7470, 19499.00
819.8840, 19622.00
821.0220, 19408.00
822.1590, 19355.00
823.2960, 19466.00
824.4330, 19654.00
825.5690, 19548.00
826.7060, 19456.00
827.8420, 19709.00
828.9790, 19680.00
830.1150, 19797.00
831.2510, 19607.00
832.3860, 19606.00
833.5220, 19803.00
834.6570, 19632.00
835.7930, 19851.00
836.9280, 19765.00
838.0630, 19957.00
839.1980, 20109.00
840.3320, 20062.00
841.4670, 20080.00
842.6010, 20022.00
843.7350, 20270.00
844.8690, 20275.00
846.0030, 20333.00
847.1370, 20292.00
848.2700, 20310.00
849.4040, 20394.00
850.5370, 20439.00
851.6700, 20573.00
852.8030, 20667.00
853.9360, 20734.00
855.0680, 20828.00
856.2000, 20773.00
857.3330, 21152.00
858.4650, 21200.00
859.5970, 21189.00
860.7290, 21179.00
861.8600, 21306.00
862.9920, 21370.00
864.1230, 21368.42
865.2540, 21490.00
866.3850, 21404.00
867.5160, 21401.00
868.6460, 21475.00
869.7770, 21579.00
870.9070, 21504.00
872.0370, 21445.00
873.1670, 21721.00
874.2970, 21567.00
875.4270, 21606.00
876.5570, 21663.00
877.6860, 21881.00
878.8150, 22082.00
879.9440, 22149.00
881.0730, 22176.00
882.2020, 22610.00
883.3300, 23023.00
884.4590, 23164.00
885.5870, 23717.00
886.7150, 24151.00
887.8430, 24421.00
888.9710, 24703.00
890.0990, 25138.00
891.2260, 25397.00
892.3530, 25131.00
893.4810, 24484.00
894.6080, 24409.00
895.7340, 24183.00
896.8610, 23896.00
897.9880, 23841.00
899.1140, 23820.00
900.2400, 23621.00
901.3660, 23762.00
902.4920, 23696.00
903.6180, 23684.00
904.7430, 23605.00
905.8690, 23330.00
906.9940, 23282.00
908.1190, 23107.00
909.2440, 22835.00
910.3690, 22875.00
911.4930, 22905.00
912.6180, 22808.00
913.7420, 22868.00
914.8660, 22904.00
915.9900, 22983.00
917.1140, 22903.00
918.2380, 22927.00
919.3610, 23164.00
920.4850, 22922.00
921.6080, 23188.00
922.7310, 23412.00
923.8540, 23516.00
924.9760, 23855.00
926.0990, 23983.00
927.2210, 24341.00
928.3440, 24589.00
929.4660, 25163.00
930.5880, 25547.00
931.7090, 26044.00
932.8310, 26631.00
933.9520, 27533.00
935.0740, 28105.00
936.1950, 28917.00
937.3160, 29421.00
938.4360, 30171.00
939.5570, 30844.00
940.6780, 31359.00
941.7980, 32085.00
942.9180, 32781.00
944.0380, 32942.00
945.1580, 33705.00
946.2780, 34304.00
947.3970, 34129.00
948.5170, 34272.00
949.6360, 33686.00
950.7550, 33974.00
951.8740, 33967.00
952.9930, 34542.00
954.1110, 35310.00
955.2300, 36132.00
956.3480, 37451.00
957.4660, 39092.00
958.5840, 40216.00
959.7020, 41352.00
960.8190, 42663.00
961.9370, 43165.00
963.0540, 43115.00
964.1710, 42293.00
965.2880, 40877.00
966.4050, 39076.00
967.5220, 37172.00
968.6380, 35031.00
969.7550, 33346.00
970.8710, 31656.00
971.9870, 30066.00
973.1030, 29096.00
974.2190, 27916.00
975.3340, 27519.00
976.4500, 26704.00
977.5650, 26107.00
978.6800, 25588.00
979.7950, 25254.00
980.9100, 24998.00
982.0250, 24546.00
983.1390, 24398.00
984.2530, 24227.00
985.3680, 24046.00
986.4820, 23998.74
987.5950, 23954.00
988.7090, 23965.00
989.8230, 23983.00
990.9360, 24083.00
992.0490, 23997.00
993.1620, 24461.00
994.2750, 24738.00
995.3880, 25012.00
996.5010, 25850.00
997.6130, 26361.00
998.7250, 27194.00
999.8370, 27855.00
1000.949, 28405.00
1002.061, 28387.16
1003.173, 28384.00
1004.284, 27698.00
1005.396, 27289.00
1006.507, 26317.00
1007.618, 25341.00
1008.729, 24873.00
1009.839, 24596.00
1010.950, 24332.00
1012.060, 24214.00
1013.171, 23823.00
1014.281, 23668.00
1015.391, 23597.00
1016.500, 23391.15
1017.610, 23495.00
1018.719, 23269.00
1019.829, 23398.00
1020.938, 23534.00
1022.047, 23255.00
1023.156, 23459.00
1024.264, 23218.00
1025.373, 23514.00
1026.481, 23330.00
1027.589, 23468.00
1028.697, 23286.00
1029.805, 23125.00
1030.913, 23320.00
1032.020, 23247.00
1033.128, 23122.00
1034.235, 23299.00
1035.342, 23177.00
1036.449, 23165.00
1037.556, 23220.00
1038.663, 23142.00
1039.769, 23301.00
1040.875, 23394.00
1041.981, 23260.00
1043.087, 23174.00
1044.193, 23251.00
1045.299, 23421.00
1046.404, 23210.00
1047.510, 23501.00
1048.615, 23337.00
1049.720, 23345.00
1050.825, 23095.00
1051.930, 23383.00
1053.034, 23362.00
1054.139, 23266.00
1055.243, 23354.00
1056.347, 23427.00
1057.451, 23373.00
1058.555, 23538.00
1059.658, 23515.00
1060.762, 23530.00
1061.865, 23591.00
1062.968, 23608.00
1064.071, 23618.47
1065.174, 23645.82
1066.277, 23633.00
1067.380, 23649.00
1068.482, 23675.00
1069.584, 23715.90
1070.686, 23768.41
1071.788, 23820.00
1072.890, 23933.00
1073.992, 23967.00
1075.093, 24122.00
1076.194, 23996.00
1077.295, 24101.00
1078.396, 24154.77
1079.497, 24264.00
1080.598, 24291.00
1081.698, 24382.00
1082.799, 24451.00
1083.899, 24469.39
1084.999, 24538.00
1086.099, 24484.00
1087.199, 24558.00
1088.298, 24505.00
1089.398, 24554.00
1090.497, 24616.00
1091.596, 24602.00
1092.695, 24572.27
1093.794, 24431.00
1094.892, 24471.00
1095.991, 24425.00
1097.089, 24438.00
1098.187, 24379.00
1099.285, 24468.00
1100.383, 24548.00
1101.481, 24585.00
1102.579, 24444.00
1103.676, 24750.00
1104.773, 24616.00
1105.870, 24565.00
1106.967, 24855.00
1108.064, 24787.00
1109.161, 24719.00
1110.257, 24800.00
1111.353, 24852.00
1112.449, 24775.00
1113.545, 24969.00
1114.641, 24863.00
1115.737, 24969.00
1116.832, 24781.00
1117.928, 24817.00
1119.023, 24813.00
1120.118, 24951.00
1121.213, 24872.00
1122.308, 24953.00
1123.402, 25075.00
1124.497, 25027.00
1125.591, 24867.00
1126.685, 25170.00
1127.779, 25039.00
1128.873, 25205.00
1129.967, 25246.00
1131.060, 25320.00
1132.153, 25051.00
1133.247, 24878.00
1134.340, 25211.00
1135.433, 25207.00
1136.525, 25402.00
1137.618, 25194.00
1138.710, 25037.00
1139.802, 25170.00
1140.895, 25082.00
1141.987, 25421.00
1143.078, 25182.00
1144.170, 24989.00
1145.261, 25276.00
1146.353, 25144.00
1147.444, 25175.00
1148.535, 25308.00
1149.626, 25326.00
1150.716, 25091.00
1151.807, 25116.00
1152.897, 25302.00
1153.988, 25281.00
1155.078, 25446.00
1156.168, 25485.00
1157.257, 25514.82
1158.347, 25510.00
1159.436, 25601.00
1160.526, 25614.00
1161.615, 25720.00
1162.704, 25605.00
1163.793, 25747.00
1164.881, 25535.00
1165.970, 25706.00
1167.058, 25841.00
1168.147, 25593.00
1169.235, 25697.00
1170.323, 25756.00
1171.410, 25894.00
1172.498, 25847.00
1173.585, 25739.00
1174.673, 25818.00
1175.760, 25770.62
1176.847, 25759.00
1177.934, 25822.00
1179.020, 25850.00
1180.107, 25948.00
1181.193, 26038.00
1182.279, 25923.00
1183.365, 26116.00
1184.451, 26064.00
1185.537, 25883.00
1186.623, 26124.00
1187.708, 26190.00
1188.793, 26186.00
1189.878, 26040.00
1190.963, 25940.00
1192.048, 25887.00
1193.133, 26203.00
1194.217, 26084.00
1195.302, 26286.00
1196.386, 26091.00
1197.470, 26094.00
1198.554, 26297.00
1199.638, 26137.00
1200.721, 26319.00
1201.805, 26095.00
1202.888, 26490.00
1203.971, 26476.00
1205.054, 26283.00
1206.137, 26471.00
1207.219, 26534.00
1208.302, 26549.00
1209.384, 26640.00
1210.466, 26512.00
1211.548, 26582.00
1212.630, 26652.00
1213.712, 26813.00
1214.794, 26736.00
1215.875, 26775.00
1216.956, 26820.00
1218.037, 26806.60
1219.118, 26935.00
1220.199, 26871.00
1221.280, 27002.00
1222.360, 27092.00
1223.441, 27110.00
1224.521, 27092.00
1225.601, 27139.00
1226.681, 27184.00
1227.760, 27247.00
1228.840, 27195.00
1229.919, 27128.00
1230.999, 27316.00
1232.078, 27201.00
1233.157, 27408.00
1234.236, 27165.00
1235.314, 27518.00
1236.393, 27450.00
1237.471, 27661.00
1238.549, 27651.00
1239.627, 27745.00
1240.705, 27566.00
1241.783, 27663.00
1242.860, 27850.00
1243.938, 27713.00
1245.015, 27789.00
1246.092, 27921.00
1247.169, 27836.66
1248.246, 27999.00
1249.323, 27824.00
1250.399, 27932.00
1251.475, 27964.00
1252.552, 28126.00
1253.628, 28350.00
1254.703, 28135.00
1255.779, 28245.00
1256.855, 28423.00
1257.930, 28357.00
1259.005, 28518.00
1260.080, 28302.00
1261.155, 28616.00
1262.230, 28625.00
1263.305, 28726.00
1264.379, 28936.00
1265.454, 28971.00
1266.528, 28880.00
1267.602, 29019.00
1268.676, 29051.00
1269.750, 28915.00
1270.823, 29113.00
1271.897, 29018.00
1272.970, 29110.00
1274.043, 29216.00
1275.116, 29307.00
1276.189, 29181.00
1277.261, 29159.00
1278.334, 29079.00
1279.406, 29075.41
1280.478, 29000.00
1281.550, 29075.00
1282.622, 29150.00
1283.694, 29103.00
1284.766, 29065.00
1285.837, 28943.00
1286.908, 29275.00
1287.979, 28960.00
1289.050, 29134.00
1290.121, 29520.00
1291.192, 29262.00
1292.262, 29233.00
1293.333, 29448.00
1294.403, 29479.00
1295.473, 29610.00
1296.543, 29722.39
1297.613, 29781.00
1298.682, 29906.00
1299.752, 29807.00
1300.821, 29854.00
1301.890, 29845.00
1302.959, 30207.00
1304.028, 30193.00
1305.096, 30029.00
1306.165, 30270.00
1307.233, 30178.00
1308.301, 30336.00
1309.370, 30228.00
1310.437, 30329.00
1311.505, 30178.00
1312.573, 30640.00
1313.640, 30480.00
1314.708, 30662.00
1315.775, 30830.00
1316.842, 30881.00
1317.908, 30632.00
1318.975, 30698.00
1320.042, 30557.00
1321.108, 30490.00
1322.174, 30769.00
1323.240, 30536.00
1324.306, 30501.00
1325.372, 30403.00
1326.438, 30236.00
