##NAMES=Kyanite
##RRUFFID=R050450
##IDEAL CHEMISTRY=Al_2_OSiO_4_
##LOCALITY=Switzerland
##OWNER=RRUFF
##SOURCE=Marcus Origlieri
##DESCRIPTION=Blue bladed crystals
##STATUS=The identification of this mineral has been confirmed by X-ray diffraction and chemical analysis
##URL=rruff.info/R050450
##MEASURED CHEMISTRY=Al_2.00_OSi_1.00_O_4_
##PIN_ID=M01855
##ORIENTATION=Laser parallel to (1 1 0). Fiducial mark perpendicular to laser is parallel to c [0 0 1]
148.7160, 12828.00
149.9470, 12703.00
151.1780, 12734.00
152.4080, 12745.00
153.6380, 12714.00
154.8690, 12664.00
156.0980, 12728.00
157.3280, 12698.00
158.5580, 12767.00
159.7870, 12715.00
161.0170, 12780.00
162.2460, 12806.00
163.4750, 12768.00
164.7030, 12797.00
165.9320, 12898.00
167.1600, 12769.00
168.3890, 12893.00
169.6170, 12752.00
170.8450, 12893.00
172.0730, 12915.00
173.3000, 12950.00
174.5280, 12958.00
175.7550, 13024.00
176.9820, 13129.00
178.2090, 12995.00
179.4350, 13062.00
180.6620, 13018.00
181.8880, 12838.00
183.1150, 12916.00
184.3410, 12712.00
185.5670, 12999.00
186.7920, 12927.00
188.0180, 12966.00
189.2430, 12867.00
190.4690, 12967.00
191.6940, 12878.00
192.9180, 12863.00
194.1430, 12954.00
195.3680, 12996.00
196.5920, 12983.00
197.8160, 13200.00
199.0400, 13281.00
200.2640, 13378.00
201.4880, 13377.00
202.7110, 13600.00
203.9350, 13856.00
205.1580, 14296.00
206.3810, 14695.00
207.6040, 14841.00
208.8270, 14773.00
210.0490, 14615.00
211.2710, 14164.00
212.4940, 13841.00
213.7160, 13573.00
214.9370, 13305.00
216.1590, 13373.00
217.3810, 13362.00
218.6020, 13308.00
219.8230, 13415.00
221.0440, 13529.77
222.2650, 13687.36
223.4860, 13933.00
224.7060, 14194.00
225.9260, 14489.00
227.1470, 14889.00
228.3670, 14738.00
229.5860, 14500.00
230.8060, 14103.00
232.0260, 13924.00
233.2450, 13676.00
234.4640, 13593.00
235.6830, 13397.00
236.9020, 13351.04
238.1200, 13476.00
239.3390, 13370.00
240.5570, 13504.00
241.7750, 13688.00
242.9930, 13791.00
244.2110, 13964.00
245.4290, 13937.00
246.6460, 14134.00
247.8630, 13911.00
249.0810, 13919.00
250.2980, 14042.00
251.5140, 14005.00
252.7310, 13920.00
253.9470, 14018.00
255.1640, 13835.00
256.3800, 13725.00
257.5960, 13528.00
258.8120, 13631.00
260.0270, 13749.00
261.2430, 13748.00
262.4580, 13729.00
263.6730, 13520.00
264.8880, 13597.00
266.1030, 13623.00
267.3170, 13731.00
268.5320, 13783.12
269.7460, 13926.00
270.9600, 13954.00
272.1740, 14001.00
273.3880, 14156.00
274.6010, 14657.00
275.8150, 14928.00
277.0280, 15417.00
278.2410, 15775.00
279.4540, 15862.00
280.6670, 15720.00
281.8790, 15212.00
283.0920, 14700.00
284.3040, 14795.00
285.5160, 14409.00
286.7280, 14724.00
287.9400, 15054.00
289.1510, 15566.00
290.3630, 16347.00
291.5740, 17657.00
292.7850, 18863.00
293.9960, 20070.00
295.2070, 20543.00
296.4170, 20505.00
297.6280, 22062.00
298.8380, 25256.00
300.0480, 29310.00
301.2580, 33051.00
302.4680, 34912.00
303.6770, 33719.00
304.8870, 30077.00
306.0960, 25333.00
307.3050, 20985.00
308.5140, 17918.00
309.7230, 16310.00
310.9310, 15580.00
312.1400, 15467.00
313.3480, 15140.00
314.5560, 15174.00
315.7640, 15933.00
316.9720, 16480.00
318.1790, 17409.00
319.3870, 17936.00
320.5940, 18364.00
321.8010, 19426.00
323.0080, 21972.00
324.2150, 24851.00
325.4210, 27369.00
326.6280, 28840.00
327.8340, 28408.00
329.0400, 25819.00
330.2460, 22496.00
331.4510, 19402.00
332.6570, 17223.00
333.8620, 15986.00
335.0680, 15357.00
336.2730, 15109.00
337.4780, 15003.00
338.6820, 15062.00
339.8870, 15188.00
341.0910, 15607.00
342.2950, 15498.00
343.5000, 15463.00
344.7030, 15527.00
345.9070, 15274.00
347.1110, 15032.00
348.3140, 15039.00
349.5170, 15054.00
350.7200, 15472.00
351.9230, 15847.00
353.1260, 16304.00
354.3290, 16553.00
355.5310, 16815.00
356.7330, 17669.00
357.9350, 19087.00
359.1370, 20392.00
360.3390, 21821.00
361.5400, 22076.00
362.7420, 21774.00
363.9430, 20094.00
365.1440, 18481.00
366.3450, 17049.00
367.5460, 16733.00
368.7460, 16408.00
369.9470, 16918.00
371.1470, 17474.00
372.3470, 17793.00
373.5470, 18474.00
374.7460, 19473.00
375.9460, 20560.00
377.1450, 22234.00
378.3450, 23883.00
379.5440, 24761.00
380.7430, 25411.00
381.9410, 27776.00
383.1400, 31389.00
384.3380, 35341.00
385.5370, 38577.00
386.7350, 38942.00
387.9320, 36890.00
389.1300, 33936.00
390.3280, 31846.00
391.5250, 31177.00
392.7220, 31059.00
393.9190, 30389.00
395.1160, 28729.00
396.3130, 26205.00
397.5100, 24261.00
398.7060, 22520.00
399.9020, 22210.00
401.0980, 23285.00
402.2940, 26314.00
403.4900, 29193.00
404.6860, 31305.00
405.8810, 31264.00
407.0760, 29541.00
408.2710, 25759.00
409.4660, 22315.00
410.6610, 19616.00
411.8550, 17589.00
413.0500, 16623.00
414.2440, 16214.00
415.4380, 15825.00
416.6320, 15613.00
417.8260, 15656.00
419.0190, 15416.00
420.2130, 15472.00
421.4060, 15583.00
422.5990, 15591.00
423.7920, 15680.00
424.9850, 15557.00
426.1770, 15909.00
427.3700, 16263.00
428.5620, 16922.00
429.7540, 17794.00
430.9460, 18896.00
432.1380, 20292.00
433.3290, 21636.00
434.5210, 23582.00
435.7120, 25899.00
436.9030, 28552.00
438.0940, 30692.00
439.2850, 31514.00
440.4750, 30801.00
441.6660, 28737.00
442.8560, 25797.00
444.0460, 23464.00
445.2360, 21811.00
446.4260, 21561.00
447.6160, 21586.00
448.8050, 22243.00
449.9940, 22006.00
451.1830, 21161.00
452.3720, 19843.00
453.5610, 18630.00
454.7500, 17557.00
455.9380, 16940.00
457.1260, 16794.00
458.3150, 16515.00
459.5020, 16716.00
460.6900, 16783.00
461.8780, 17123.00
463.0650, 17498.00
464.2530, 18058.00
465.4400, 18623.00
466.6270, 18816.00
467.8130, 18758.00
469.0000, 18659.00
470.1870, 18378.00
471.3730, 18045.00
472.5590, 18278.00
473.7450, 18344.00
474.9310, 18959.00
476.1160, 20018.00
477.3020, 22185.00
478.4870, 25286.00
479.6720, 28743.00
480.8570, 32445.00
482.0420, 36433.00
483.2270, 41996.00
484.4110, 51007.00
485.5960, 60474.00
486.7800, 65535.00
487.9640, 65535.00
489.1480, 64941.00
490.3310, 57434.00
491.5150, 48216.00
492.6980, 40256.00
493.8810, 34156.00
495.0640, 30133.00
496.2470, 26863.00
497.4300, 24369.00
498.6120, 22308.00
499.7950, 20628.00
500.9770, 19533.00
502.1590, 18846.00
503.3410, 18204.00
504.5220, 17799.00
505.7040, 17564.00
506.8850, 17282.00
508.0660, 17267.00
509.2470, 17143.00
510.4280, 17173.00
511.6090, 17233.00
512.7890, 17181.00
513.9700, 16995.00
515.1500, 16787.00
516.3300, 16657.00
517.5100, 16558.00
518.6900, 16190.00
519.8690, 16081.00
521.0490, 16089.00
522.2280, 16089.00
523.4070, 16090.00
524.5860, 15980.00
525.7640, 15983.00
526.9430, 15851.00
528.1210, 15983.00
529.3000, 15873.00
530.4780, 15907.00
531.6560, 15867.00
532.8330, 15780.00
534.0110, 15959.00
535.1880, 15874.00
536.3650, 15955.00
537.5430, 15897.00
538.7190, 15860.00
539.8960, 15998.00
541.0730, 16041.00
542.2490, 16141.00
543.4250, 16138.00
544.6020, 16318.00
545.7780, 16300.00
546.9530, 16502.00
548.1290, 16462.00
549.3040, 16437.00
550.4800, 16142.00
551.6550, 16045.00
552.8300, 16160.00
554.0040, 16179.00
555.1790, 16321.00
556.3540, 16403.00
557.5280, 16608.87
558.7020, 16794.00
559.8760, 17117.00
561.0500, 17524.00
562.2230, 17884.00
563.3970, 18315.00
564.5700, 18404.00
565.7430, 18149.00
566.9160, 17826.00
568.0890, 17373.00
569.2620, 16938.00
570.4340, 16590.00
571.6070, 16699.00
572.7790, 16737.00
573.9510, 16473.00
575.1230, 16484.00
576.2940, 16491.00
577.4660, 16386.00
578.6370, 16479.00
579.8080, 16518.00
580.9790, 16507.00
582.1500, 16674.00
583.3210, 16614.00
584.4910, 16647.00
585.6620, 16757.00
586.8320, 16733.00
588.0020, 16800.00
589.1720, 16770.00
590.3410, 16910.00
591.5110, 16644.00
592.6800, 16739.00
593.8500, 16831.00
595.0190, 16845.00
596.1880, 16983.00
597.3560, 17212.00
598.5250, 17412.00
599.6930, 17536.00
600.8620, 17800.00
602.0300, 18133.00
603.1970, 18669.00
604.3650, 19009.00
605.5330, 19602.00
606.7000, 19796.00
607.8680, 20161.00
609.0350, 19803.00
610.2020, 19631.00
611.3680, 19284.00
612.5350, 18880.00
613.7010, 19008.00
614.8680, 18870.00
616.0340, 18908.00
617.2000, 19254.00
618.3660, 19313.00
619.5310, 19616.00
620.6970, 19453.00
621.8620, 19307.00
623.0270, 19321.00
624.1920, 19059.00
625.3570, 19359.00
626.5220, 19710.00
627.6860, 19696.00
628.8500, 19868.00
630.0140, 19978.00
631.1780, 20233.00
632.3420, 20448.00
633.5060, 20795.00
634.6700, 21281.00
635.8330, 21724.00
636.9960, 22288.00
638.1590, 22280.19
639.3220, 22386.00
640.4850, 22090.00
641.6470, 21614.00
642.8100, 21221.72
643.9720, 20907.30
645.1340, 20378.00
646.2960, 20407.00
647.4570, 20075.00
648.6190, 20136.00
649.7800, 20677.00
650.9420, 20979.00
652.1030, 21655.00
653.2640, 22201.00
654.4240, 23108.00
655.5850, 23663.00
656.7450, 23821.00
657.9060, 23905.00
659.0660, 23659.00
660.2260, 22914.00
661.3850, 21961.00
662.5450, 20818.00
663.7040, 20187.00
664.8640, 19547.00
666.0230, 19038.00
667.1820, 18811.00
668.3410, 18493.00
669.4990, 18555.00
670.6580, 18463.00
671.8160, 18182.00
672.9740, 18191.00
674.1320, 18021.00
675.2900, 17664.00
676.4480, 17855.00
677.6050, 17493.00
678.7630, 17589.00
679.9200, 17309.00
681.0770, 17484.00
682.2340, 17525.00
683.3900, 17584.00
684.5470, 17398.00
685.7030, 17300.00
686.8590, 17420.00
688.0150, 17509.00
689.1710, 17297.00
690.3270, 17131.00
691.4830, 17058.00
692.6380, 17269.00
693.7930, 17223.00
694.9480, 17127.00
696.1030, 17270.00
697.2580, 17124.00
698.4130, 17286.00
699.5670, 17275.00
700.7210, 17285.00
701.8750, 17726.00
703.0290, 17525.00
704.1830, 17462.00
705.3370, 17631.00
706.4900, 17430.00
707.6430, 17313.00
708.7970, 17283.00
709.9490, 17230.96
711.1020, 17232.84
712.2550, 17275.00
713.4070, 17290.00
714.5600, 17336.00
715.7120, 17374.00
716.8640, 17389.00
718.0160, 17342.00
719.1670, 17583.00
720.3190, 17577.00
721.4700, 17830.00
722.6210, 17828.00
723.7720, 18071.00
724.9230, 18104.00
726.0740, 18262.00
727.2250, 18180.00
728.3750, 17924.00
729.5250, 17812.00
730.6750, 17690.00
731.8250, 17420.00
732.9750, 17467.00
734.1240, 17385.00
735.2740, 17628.00
736.4230, 17442.00
737.5720, 17459.00
738.7210, 17565.00
739.8700, 17435.00
741.0190, 17375.00
742.1670, 17558.00
743.3150, 17370.00
744.4630, 17373.00
745.6110, 17469.00
746.7590, 17446.00
747.9070, 17548.00
749.0540, 17660.00
750.2020, 17617.00
751.3490, 17487.00
752.4960, 17419.00
753.6430, 17526.00
754.7890, 17465.02
755.9360, 17548.00
757.0820, 17493.00
758.2280, 17561.00
759.3740, 17530.00
760.5200, 17722.00
761.6660, 17477.00
762.8120, 17639.00
763.9570, 17784.00
765.1020, 17670.00
766.2470, 17771.00
767.3920, 17751.00
768.5370, 17668.00
769.6810, 17582.00
770.8260, 17631.00
771.9700, 17748.00
773.1140, 17763.00
774.2580, 17745.00
775.4020, 17717.00
776.5460, 17725.56
777.6890, 17792.00
778.8320, 17768.00
779.9750, 17825.00
781.1180, 17954.00
782.2610, 17860.00
783.4040, 17954.00
784.5460, 17971.00
785.6890, 17875.00
786.8310, 17846.00
787.9730, 17790.00
789.1150, 17926.00
790.2560, 17953.00
791.3980, 18019.00
792.5390, 18098.92
793.6810, 18125.09
794.8220, 18176.00
795.9630, 18248.00
797.1030, 18175.00
798.2440, 18321.88
799.3840, 18089.00
800.5240, 18339.00
801.6650, 18332.00
802.8040, 18244.00
803.9440, 18273.00
805.0840, 18386.00
806.2230, 18273.00
807.3630, 18269.00
808.5020, 18197.00
809.6410, 18281.00
810.7790, 18350.00
811.9180, 18292.00
813.0570, 18402.00
814.1950, 18537.00
815.3330, 18438.00
816.4710, 18514.00
817.6090, 18552.00
818.7470, 18642.00
819.8840, 18605.00
821.0220, 18602.00
822.1590, 18552.00
823.2960, 18723.00
824.4330, 18818.00
825.5690, 18694.00
826.7060, 18723.00
827.8420, 18674.00
828.9790, 18872.00
830.1150, 18912.00
831.2510, 18930.87
832.3860, 18949.00
833.5220, 18921.00
834.6570, 19095.00
835.7930, 18996.00
836.9280, 19036.00
838.0630, 18907.00
839.1980, 19128.00
840.3320, 19147.00
841.4670, 19147.00
842.6010, 19308.00
843.7350, 19326.00
844.8690, 19250.00
846.0030, 19440.00
847.1370, 19642.00
848.2700, 19415.00
849.4040, 19650.00
850.5370, 19618.00
851.6700, 19662.00
852.8030, 19770.00
853.9360, 19764.00
855.0680, 19828.00
856.2000, 19979.74
857.3330, 20088.00
858.4650, 20296.00
859.5970, 20435.00
860.7290, 20585.00
861.8600, 20726.00
862.9920, 20703.00
864.1230, 20888.00
865.2540, 20656.00
866.3850, 20738.00
867.5160, 20593.00
868.6460, 20710.00
869.7770, 20736.00
870.9070, 20793.00
872.0370, 20968.00
873.1670, 20868.00
874.2970, 21020.00
875.4270, 21348.00
876.5570, 21700.00
877.6860, 21989.00
878.8150, 22269.00
879.9440, 22775.05
881.0730, 23136.00
882.2020, 23814.00
883.3300, 24377.00
884.4590, 24945.00
885.5870, 25993.00
886.7150, 26896.00
887.8430, 28149.00
888.9710, 28728.00
890.0990, 29478.00
891.2260, 29928.00
892.3530, 29581.00
893.4810, 28532.00
894.6080, 27891.00
895.7340, 26624.00
896.8610, 26005.00
897.9880, 25430.00
899.1140, 25011.00
900.2400, 24577.00
901.3660, 24412.00
902.4920, 24208.00
903.6180, 23937.00
904.7430, 23819.00
905.8690, 23508.00
906.9940, 23079.00
908.1190, 22849.00
909.2440, 22722.00
910.3690, 22564.00
911.4930, 22374.00
912.6180, 22193.00
913.7420, 22301.00
914.8660, 22191.00
915.9900, 22331.00
917.1140, 22320.00
918.2380, 22317.00
919.3610, 22548.00
920.4850, 22592.00
921.6080, 22819.23
922.7310, 22894.00
923.8540, 23273.00
924.9760, 23334.00
926.0990, 23509.00
927.2210, 24002.00
928.3440, 24318.00
929.4660, 24889.00
930.5880, 25419.00
931.7090, 25995.00
932.8310, 27011.00
933.9520, 27571.00
935.0740, 28616.00
936.1950, 29545.00
937.3160, 30350.00
938.4360, 31320.00
939.5570, 32287.00
940.6780, 33067.00
941.7980, 33988.00
942.9180, 35000.00
944.0380, 35985.00
945.1580, 36319.00
946.2780, 37280.00
947.3970, 37718.00
948.5170, 38025.00
949.6360, 38165.00
950.7550, 38264.00
951.8740, 38676.00
952.9930, 39273.00
954.1110, 39600.00
955.2300, 40442.00
956.3480, 41326.00
957.4660, 42601.00
958.5840, 43458.00
959.7020, 44633.00
960.8190, 46202.00
961.9370, 46196.00
963.0540, 45834.00
964.1710, 45105.00
965.2880, 43300.00
966.4050, 41317.00
967.5220, 38910.00
968.6380, 36815.00
969.7550, 34515.00
970.8710, 32441.00
971.9870, 31345.00
973.1030, 29638.00
974.2190, 28380.00
975.3340, 27388.00
976.4500, 26708.00
977.5650, 26054.00
978.6800, 25295.00
979.7950, 24923.00
980.9100, 24598.00
982.0250, 24186.00
983.1390, 23734.00
984.2530, 23774.00
985.3680, 23449.00
986.4820, 23637.00
987.5950, 23182.00
988.7090, 23287.00
989.8230, 23353.00
990.9360, 23174.00
992.0490, 23509.00
993.1620, 23745.00
994.2750, 23826.00
995.3880, 24527.00
996.5010, 24835.00
997.6130, 25876.00
998.7250, 26480.00
999.8370, 27403.00
1000.949, 28281.00
1002.061, 28988.00
1003.173, 28591.00
1004.284, 28145.00
1005.396, 27282.00
1006.507, 26007.00
1007.618, 25096.00
1008.729, 24377.00
1009.839, 23918.00
1010.950, 23542.00
1012.060, 23036.00
1013.171, 22769.00
1014.281, 22875.00
1015.391, 22520.00
1016.500, 22420.00
1017.610, 22453.00
1018.719, 22353.00
1019.829, 22446.00
1020.938, 22323.00
1022.047, 22342.00
1023.156, 22267.00
1024.264, 22348.00
1025.373, 22168.00
1026.481, 22410.00
1027.589, 22172.00
1028.697, 22133.00
1029.805, 22197.00
1030.913, 22166.00
1032.020, 22192.00
1033.128, 21968.00
1034.235, 22067.00
1035.342, 21824.00
1036.449, 21904.00
1037.556, 21907.00
1038.663, 21914.00
1039.769, 21856.00
1040.875, 22001.00
1041.981, 21890.00
1043.087, 21975.00
1044.193, 22002.00
1045.299, 21809.00
1046.404, 22156.00
1047.510, 21971.00
1048.615, 21955.00
1049.720, 22120.00
1050.825, 22025.00
1051.930, 22099.00
1053.034, 22120.00
1054.139, 21992.00
1055.243, 22027.00
1056.347, 22014.02
1057.451, 22120.00
1058.555, 22073.00
1059.658, 22118.77
1060.762, 22225.00
1061.865, 22137.00
1062.968, 22103.00
1064.071, 22196.00
1065.174, 22156.00
1066.277, 22263.00
1067.380, 22216.00
1068.482, 22348.00
1069.584, 22200.00
1070.686, 22441.00
1071.788, 22325.00
1072.890, 22480.00
1073.992, 22448.00
1075.093, 22488.00
1076.194, 22731.00
1077.295, 22547.00
1078.396, 22639.00
1079.497, 22605.00
1080.598, 22784.00
1081.698, 22879.00
1082.799, 22830.00
1083.899, 22853.00
1084.999, 22931.00
1086.099, 22822.00
1087.199, 23029.00
1088.298, 22973.00
1089.398, 22723.00
1090.497, 22569.00
1091.596, 22852.00
1092.695, 22822.00
1093.794, 22818.00
1094.892, 22843.00
1095.991, 22870.00
1097.089, 22948.00
1098.187, 23026.00
1099.285, 22885.00
1100.383, 23124.00
1101.481, 22941.00
1102.579, 22767.00
1103.676, 22991.00
1104.773, 22886.00
1105.870, 22962.00
1106.967, 23261.00
1108.064, 22969.00
1109.161, 23113.00
1110.257, 22981.00
1111.353, 23120.00
1112.449, 23156.00
1113.545, 23135.00
1114.641, 23181.00
1115.737, 23236.00
1116.832, 23259.00
1117.928, 23296.00
1119.023, 23306.20
1120.118, 23358.00
1121.213, 23322.00
1122.308, 23355.00
1123.402, 23386.00
1124.497, 23376.00
1125.591, 23466.00
1126.685, 23501.00
1127.779, 23546.00
1128.873, 23346.00
1129.967, 23568.00
1131.060, 23428.00
1132.153, 23361.00
1133.247, 23470.00
1134.340, 23525.00
1135.433, 23713.00
1136.525, 23498.00
1137.618, 23190.00
1138.710, 23535.00
1139.802, 23488.00
1140.895, 23606.00
1141.987, 23541.00
1143.078, 23608.00
1144.170, 23635.00
1145.261, 23563.00
1146.353, 23463.00
1147.444, 23531.00
1148.535, 23737.00
1149.626, 23705.00
1150.716, 23787.00
1151.807, 23689.00
1152.897, 23771.10
1153.988, 23853.00
1155.078, 23891.00
1156.168, 23867.00
1157.257, 23948.00
1158.347, 23754.00
1159.436, 23918.00
1160.526, 23979.00
1161.615, 23752.00
1162.704, 23946.00
1163.793, 23899.00
1164.881, 23956.00
1165.970, 23908.00
1167.058, 24186.00
1168.147, 24057.00
1169.235, 24201.00
1170.323, 24031.00
1171.410, 24163.00
1172.498, 24174.00
1173.585, 24184.00
1174.673, 24255.00
1175.760, 24256.00
1176.847, 24457.00
1177.934, 24408.00
1179.020, 24556.00
1180.107, 24337.00
1181.193, 24607.00
1182.279, 24610.00
1183.365, 24407.00
1184.451, 24424.00
1185.537, 24384.00
1186.623, 24391.00
1187.708, 24476.00
1188.793, 24683.00
1189.878, 24518.00
1190.963, 24703.00
1192.048, 24542.00
1193.133, 24524.00
1194.217, 24637.00
1195.302, 24412.00
1196.386, 24710.00
1197.470, 24507.00
1198.554, 24915.00
1199.638, 24559.00
1200.721, 24793.00
1201.805, 24843.00
1202.888, 24946.00
1203.971, 24941.00
1205.054, 24762.00
1206.137, 25004.00
1207.219, 24985.00
1208.302, 24791.00
1209.384, 24954.00
1210.466, 25018.00
1211.548, 25136.00
1212.630, 25161.88
1213.712, 24958.00
1214.794, 25171.00
1215.875, 25113.00
1216.956, 25097.00
1218.037, 25398.00
1219.118, 25366.00
1220.199, 25213.00
1221.280, 25337.00
1222.360, 25213.00
1223.441, 25322.00
1224.521, 25450.00
1225.601, 25468.00
1226.681, 25619.00
1227.760, 25675.00
1228.840, 25558.00
1229.919, 25591.00
1230.999, 25498.00
1232.078, 25692.00
1233.157, 25769.00
1234.236, 25857.00
1235.314, 25997.00
1236.393, 25890.00
1237.471, 25964.00
1238.549, 26130.00
1239.627, 25962.00
1240.705, 26038.00
1241.783, 26162.00
1242.860, 26213.00
1243.938, 26240.00
1245.015, 25941.00
1246.092, 26398.00
1247.169, 26069.00
1248.246, 26172.00
1249.323, 26291.00
1250.399, 26223.00
1251.475, 26137.00
1252.552, 26453.00
1253.628, 26288.00
1254.703, 26276.00
1255.779, 26514.00
1256.855, 26588.00
1257.930, 26434.00
1259.005, 26437.00
1260.080, 26557.00
1261.155, 26635.00
1262.230, 26617.00
1263.305, 26765.00
1264.379, 26825.00
1265.454, 26821.00
1266.528, 27017.00
1267.602, 27061.00
1268.676, 26928.00
1269.750, 27021.00
1270.823, 26932.00
1271.897, 26989.22
1272.970, 27009.56
1274.043, 27100.00
1275.116, 27093.00
1276.189, 27120.00
1277.261, 27222.00
1278.334, 27126.00
1279.406, 27151.00
1280.478, 26982.00
1281.550, 27099.00
1282.622, 27135.00
1283.694, 26951.00
1284.766, 27303.00
1285.837, 27260.00
1286.908, 26986.00
1287.979, 27314.00
1289.050, 27327.00
1290.121, 27435.00
1291.192, 27387.00
1292.262, 27565.00
1293.333, 27681.00
1294.403, 27335.00
1295.473, 27811.00
1296.543, 27639.00
1297.613, 27807.00
1298.682, 27793.00
1299.752, 27710.00
1300.821, 27720.00
1301.890, 27748.50
1302.959, 27934.00
1304.028, 27884.00
1305.096, 27850.00
1306.165, 27969.00
1307.233, 27878.00
1308.301, 27931.00
1309.370, 28043.00
1310.437, 28041.00
1311.505, 28416.00
1312.573, 28233.00
1313.640, 28290.00
1314.708, 28398.00
1315.775, 28203.00
1316.842, 28568.00
1317.908, 28290.00
1318.975, 28372.00
1320.042, 28520.00
1321.108, 28371.00
1322.174, 28276.00
1323.240, 28442.00
1324.306, 28601.00
1325.372, 28321.00
1326.438, 28385.00
