##NAMES=Kyanite
##RRUFFID=R040119
##IDEAL CHEMISTRY=Al_2_OSiO_4_
##LOCALITY=Rutherford County, North Carolina, USA
##OWNER=RRUFF
##SOURCE=University of Arizona Mineral Museum
##DESCRIPTION=Blue bladed crystal
##STATUS=The identification of this mineral has been confirmed by X-ray diffraction and chemical analysis
##URL=rruff.info/R040119
##MEASURED CHEMISTRY=(Al_0.99_Fe^3+^_0.01_)_2_OSi_1.00_O_4_
##PIN_ID=L00448
##ORIENTATION=Laser parallel to -a* (-1 0 0). Fiducial mark perpendicular to laser is parallel to b [0 1 0]
127.8490, 27338.00
129.0810, 27587.00
130.3130, 27300.00
131.5450, 27553.00
132.7770, 27579.00
134.0080, 27584.00
135.2390, 27830.00
136.4710, 27866.00
137.7020, 27487.00
138.9320, 28068.00
140.1630, 28038.00
141.3930, 27732.00
142.6240, 27901.00
143.8540, 28068.00
145.0840, 27881.00
146.3140, 28004.00
147.5440, 28136.00
148.7730, 28042.00
150.0020, 28089.00
151.2320, 27992.00
152.4610, 28108.00
153.6900, 28036.00
154.9180, 28091.00
156.1470, 28405.00
157.3750, 28329.00
158.6040, 28659.00
159.8320, 29560.00
161.0600, 29585.00
162.2870, 29929.00
163.5150, 29784.00
164.7420, 28846.00
165.9700, 28520.00
167.1970, 28373.00
168.4240, 28619.00
169.6510, 28413.00
170.8770, 28637.00
172.1040, 28806.00
173.3300, 28983.00
174.5560, 29179.00
175.7820, 29405.00
177.0080, 29751.00
178.2340, 29207.00
179.4590, 28810.00
180.6850, 28810.00
181.9100, 28851.00
183.1350, 28750.00
184.3600, 28775.00
185.5850, 28624.00
186.8090, 28697.65
188.0340, 28664.46
189.2580, 28854.00
190.4820, 28719.00
191.7060, 28873.00
192.9300, 29003.00
194.1530, 29120.00
195.3770, 29175.00
196.6000, 29135.00
197.8230, 29293.00
199.0460, 29398.00
200.2690, 29922.00
201.4910, 29951.00
202.7140, 30321.00
203.9360, 30621.00
205.1580, 30597.00
206.3800, 30734.00
207.6020, 30722.00
208.8240, 30779.00
210.0450, 30558.00
211.2670, 30562.00
212.4880, 30981.00
213.7090, 30925.00
214.9300, 29934.00
216.1510, 30213.00
217.3710, 30398.00
218.5920, 30484.00
219.8120, 30789.00
221.0320, 31036.00
222.2520, 31411.00
223.4720, 31853.00
224.6910, 32267.00
225.9110, 32553.00
227.1300, 32040.00
228.3490, 31499.00
229.5680, 31231.00
230.7870, 30740.00
232.0050, 30722.00
233.2240, 30641.00
234.4420, 30576.00
235.6600, 30543.00
236.8780, 30660.00
238.0960, 30607.00
239.3140, 31009.00
240.5310, 30852.00
241.7490, 31194.00
242.9660, 31312.00
244.1830, 31348.00
245.4000, 31335.00
246.6160, 31403.00
247.8330, 31298.00
249.0490, 31223.00
250.2660, 31048.00
251.4820, 30936.00
252.6980, 31081.00
253.9130, 31346.00
255.1290, 31226.00
256.3440, 32008.00
257.5600, 31524.00
258.7750, 30844.00
259.9900, 29978.00
261.2040, 30496.00
262.4190, 30359.00
263.6330, 30527.00
264.8480, 30483.00
266.0620, 31048.00
267.2760, 31269.00
268.4900, 31906.00
269.7030, 33155.00
270.9170, 33817.00
272.1300, 35240.00
273.3430, 36400.00
274.5560, 38053.00
275.7690, 39186.00
276.9820, 39666.00
278.1940, 39568.00
279.4070, 38346.00
280.6190, 37164.00
281.8310, 36321.00
283.0430, 36083.00
284.2550, 36657.00
285.4660, 38118.00
286.6770, 40008.00
287.8890, 42584.00
289.1000, 45475.00
290.3110, 48067.00
291.5210, 50134.00
292.7320, 52155.00
293.9420, 55638.00
295.1530, 59880.00
296.3630, 66624.00
297.5730, 73554.00
298.7830, 81703.00
299.9920, 87302.00
301.2020, 85062.00
302.4110, 76325.00
303.6200, 65409.00
304.8290, 55003.00
306.0380, 46056.00
307.2470, 40714.00
308.4550, 38165.00
309.6630, 36765.00
310.8720, 36580.00
312.0800, 36897.00
313.2880, 37668.00
314.4950, 39233.00
315.7030, 41343.00
316.9100, 44414.00
318.1170, 48140.00
319.3240, 53435.00
320.5310, 59996.00
321.7380, 66902.00
322.9450, 73770.00
324.1510, 79292.00
325.3570, 77799.00
326.5630, 70466.00
327.7690, 62863.00
328.9750, 52141.00
330.1810, 44017.00
331.3860, 39337.00
332.5910, 37117.00
333.7960, 35792.00
335.0010, 35297.00
336.2060, 35475.00
337.4110, 35930.00
338.6150, 36402.00
339.8200, 37065.00
341.0240, 37189.00
342.2280, 36793.00
343.4320, 36108.00
344.6350, 35480.00
345.8390, 34960.00
347.0420, 35281.00
348.2450, 35138.00
349.4480, 35883.00
350.6510, 36850.00
351.8540, 38579.00
353.0560, 40625.00
354.2590, 43561.00
355.4610, 46757.00
356.6630, 50122.00
357.8650, 53863.00
359.0670, 56074.00
360.2680, 55379.00
361.4700, 52045.00
362.6710, 48552.00
363.8720, 45001.00
365.0730, 42577.00
366.2740, 41678.00
367.4740, 42080.00
368.6750, 42574.00
369.8750, 44131.00
371.0750, 45422.00
372.2750, 46418.00
373.4750, 47303.00
374.6740, 48503.00
375.8740, 50514.00
377.0730, 52149.00
378.2720, 53960.00
379.4710, 56584.00
380.6700, 59996.00
381.8690, 63635.00
383.0670, 67052.00
384.2660, 69005.00
385.4640, 67860.00
386.6620, 65871.00
387.8600, 63767.00
389.0570, 63253.00
390.2550, 63683.00
391.4520, 63845.00
392.6490, 61631.00
393.8460, 57525.00
395.0430, 54268.00
396.2400, 51789.00
397.4370, 52260.00
398.6330, 55020.00
399.8290, 59101.00
401.0250, 64196.00
402.2210, 68560.00
403.4170, 69597.00
404.6130, 65778.00
405.8080, 60080.00
407.0030, 53864.00
408.1980, 47306.00
409.3930, 43581.00
410.5880, 41454.00
411.7830, 40447.00
412.9770, 40019.00
414.1720, 40359.00
415.3660, 40933.00
416.5600, 41522.00
417.7530, 41970.00
418.9470, 42289.00
420.1410, 41836.00
421.3340, 40937.00
422.5270, 40482.00
423.7200, 40405.00
424.9130, 40792.00
426.1060, 42338.00
427.2980, 43963.00
428.4900, 46507.00
429.6830, 50663.00
430.8750, 55186.00
432.0670, 60831.00
433.2580, 67115.00
434.4500, 72715.00
435.6410, 76339.00
436.8320, 77131.00
438.0240, 75333.00
439.2140, 69794.00
440.4050, 63480.00
441.5960, 57521.00
442.7860, 52729.00
443.9760, 49812.00
445.1670, 48761.00
446.3560, 48136.00
447.5460, 47665.00
448.7360, 45870.00
449.9250, 43922.00
451.1150, 41769.00
452.3040, 39802.00
453.4930, 38633.00
454.6810, 37951.00
455.8700, 37589.00
457.0590, 37221.00
458.2470, 37386.00
459.4350, 37484.00
460.6230, 37805.00
461.8110, 38169.00
462.9980, 38306.00
464.1860, 38675.00
465.3730, 38626.00
466.5600, 38841.00
467.7470, 38958.00
468.9340, 39370.00
470.1210, 39975.00
471.3080, 40996.00
472.4940, 42916.00
473.6800, 45143.00
474.8660, 48943.00
476.0520, 53719.00
477.2380, 60610.00
478.4230, 68655.00
479.6090, 79734.00
480.7940, 92931.00
481.9790, 108680.0
483.1640, 123915.0
484.3490, 137148.0
485.5330, 141803.0
486.7180, 135706.0
487.9020, 121377.0
489.0860, 103739.0
490.2700, 86935.00
491.4540, 73916.00
492.6370, 65218.00
493.8210, 58349.00
495.0040, 53773.00
496.1870, 49841.00
497.3700, 47128.00
498.5530, 45204.00
499.7360, 43873.00
500.9180, 42955.00
502.1000, 42344.00
503.2830, 42275.00
504.4650, 41964.00
505.6460, 42317.00
506.8280, 42787.00
508.0100, 42779.00
509.1910, 43365.00
510.3720, 43287.00
511.5530, 43425.00
512.7340, 42554.00
513.9150, 41626.00
515.0950, 40440.00
516.2760, 39491.00
517.4560, 38807.00
518.6360, 38089.86
519.8160, 37590.99
520.9950, 37185.00
522.1750, 36992.00
523.3540, 36816.00
524.5340, 36601.04
525.7130, 36586.00
526.8920, 36464.00
528.0700, 36271.00
529.2490, 36233.50
530.4270, 36143.75
531.6060, 36110.00
532.7840, 36084.00
533.9620, 36143.00
535.1390, 36177.00
536.3170, 36334.00
537.4940, 36166.00
538.6720, 36048.00
539.8490, 36773.00
541.0260, 36703.00
542.2030, 36887.00
543.3790, 37121.00
544.5560, 37639.00
545.7320, 37363.00
546.9080, 37666.00
548.0840, 37573.00
549.2600, 37737.00
550.4360, 37887.00
551.6110, 38220.00
552.7860, 39056.00
553.9620, 40001.00
555.1370, 41466.00
556.3110, 42790.00
557.4860, 45021.00
558.6610, 47403.00
559.8350, 49518.00
561.0090, 51455.00
562.1830, 51757.00
563.3570, 50748.00
564.5310, 48358.00
565.7040, 45341.00
566.8780, 43209.00
568.0510, 41344.00
569.2240, 40441.00
570.3970, 39905.00
571.5700, 39664.00
572.7420, 39537.00
573.9150, 39446.00
575.0870, 39655.00
576.2590, 39247.00
577.4310, 39377.00
578.6030, 39719.00
579.7740, 40118.00
580.9460, 40222.00
582.1170, 40677.00
583.2880, 41080.00
584.4590, 41409.00
585.6300, 40880.00
586.8010, 40436.00
587.9710, 40035.00
589.1410, 39495.00
590.3110, 38743.00
591.4810, 38657.00
592.6510, 38712.00
593.8210, 38940.00
594.9900, 39578.00
596.1600, 40252.00
597.3290, 41337.00
598.4980, 42544.66
599.6670, 43899.00
600.8350, 45639.00
602.0040, 47540.00
603.1720, 49588.00
604.3400, 50960.00
605.5080, 51326.00
606.6760, 50704.00
607.8440, 49500.00
609.0120, 48088.00
610.1790, 46423.00
611.3460, 45029.00
612.5130, 44230.00
613.6800, 43602.00
614.8470, 43540.00
616.0130, 43526.00
617.1800, 43650.00
618.3460, 43771.00
619.5120, 44012.00
620.6780, 44196.57
621.8440, 44359.00
623.0090, 44763.00
624.1750, 45174.00
625.3400, 45674.00
626.5050, 46265.00
627.6700, 47134.00
628.8350, 46976.00
629.9990, 46516.00
631.1640, 45946.00
632.3280, 45332.00
633.4920, 44860.94
634.6560, 44298.88
635.8200, 43819.00
636.9840, 43280.00
638.1470, 42716.00
639.3100, 42236.00
640.4730, 41307.00
641.6360, 40658.00
642.7990, 40421.00
643.9620, 40146.00
645.1240, 40065.00
646.2870, 40312.00
647.4490, 40407.00
648.6110, 40937.00
649.7730, 41244.00
650.9340, 42091.00
652.0960, 42381.00
653.2570, 43107.00
654.4180, 43493.00
655.5790, 44100.00
656.7400, 44379.00
657.9010, 43934.00
659.0620, 43242.00
660.2220, 43227.00
661.3820, 42684.00
662.5420, 42689.00
663.7020, 42656.00
664.8620, 42733.00
666.0210, 43252.00
667.1810, 43696.00
668.3400, 43979.00
669.4990, 44111.00
670.6580, 43923.00
671.8170, 43290.00
672.9750, 42481.00
674.1340, 41589.00
675.2920, 40778.00
676.4500, 40408.00
677.6080, 39920.00
678.7660, 39573.00
679.9230, 39523.00
681.0810, 39155.00
682.2380, 39052.00
683.3950, 38940.00
684.5520, 38852.00
685.7090, 38606.00
686.8660, 38604.00
688.0220, 38443.00
689.1780, 38523.00
690.3340, 38497.00
691.4900, 38537.00
692.6460, 38528.00
693.8020, 38556.00
694.9570, 38739.00
696.1130, 38827.00
697.2680, 39096.00
698.4230, 39332.00
699.5780, 39467.00
700.7320, 39615.00
701.8870, 40110.00
703.0410, 40115.00
704.1950, 40123.00
705.3490, 40001.00
706.5030, 39665.00
707.6570, 39544.00
708.8110, 39237.00
709.9640, 39535.00
711.1170, 38993.00
712.2700, 39119.00
713.4230, 38947.00
714.5760, 38901.11
715.7280, 38822.41
716.8810, 38879.00
718.0330, 38652.00
719.1850, 38379.00
720.3370, 38428.00
721.4890, 38545.00
722.6400, 38675.00
723.7920, 38817.00
724.9430, 38802.77
726.0940, 38802.89
727.2450, 38692.00
728.3960, 38658.00
729.5460, 38466.00
730.6970, 38380.00
731.8470, 38506.00
732.9970, 38214.00
734.1470, 38179.00
735.2970, 38239.00
736.4460, 38089.00
737.5960, 38220.00
738.7450, 38253.00
739.8940, 38053.00
741.0430, 38006.00
742.1920, 37790.00
743.3410, 37794.00
744.4890, 37725.96
745.6370, 37777.00
746.7850, 37650.00
747.9330, 37601.00
749.0810, 37502.00
750.2290, 37397.00
751.3760, 37153.00
752.5240, 37338.00
753.6710, 37139.00
754.8180, 37190.00
755.9650, 36926.00
757.1110, 37103.00
758.2580, 36801.00
759.4040, 36817.00
760.5510, 36717.00
761.6970, 36799.00
762.8420, 36713.00
763.9880, 36885.00
765.1340, 36719.00
766.2790, 36650.00
767.4240, 36724.00
768.5690, 36608.00
769.7140, 36602.39
770.8590, 36442.00
772.0030, 36499.00
773.1480, 36487.72
774.2920, 36381.00
775.4360, 36532.00
776.5800, 36684.00
777.7240, 36505.00
778.8670, 36443.00
780.0110, 36648.00
781.1540, 36291.00
782.2970, 36217.00
783.4400, 36171.00
784.5830, 36146.00
785.7250, 36211.77
786.8680, 36261.17
788.0100, 36320.00
789.1520, 36346.56
790.2940, 36335.00
791.4360, 36418.00
792.5780, 36467.00
793.7190, 36565.00
794.8600, 36550.00
796.0010, 36988.00
797.1420, 36802.00
798.2830, 36937.00
799.4240, 36821.00
800.5640, 36795.00
801.7050, 36745.00
802.8450, 36813.00
803.9850, 36626.00
805.1250, 36805.00
806.2640, 36877.00
807.4040, 36896.00
808.5430, 37205.00
809.6820, 37177.15
810.8210, 37060.00
811.9600, 37179.00
813.0990, 37347.00
814.2370, 37122.00
815.3760, 37303.00
816.5140, 37240.00
817.6520, 37209.00
818.7900, 37541.00
819.9270, 37342.00
821.0650, 37450.00
822.2020, 37447.00
823.3390, 37303.00
824.4760, 37464.00
825.6130, 37546.00
826.7500, 37523.25
827.8870, 37560.00
829.0230, 37562.00
830.1590, 37639.65
831.2950, 37769.00
832.4310, 37849.00
833.5670, 37957.98
834.7030, 38128.00
835.8380, 38096.00
836.9730, 37985.00
838.1080, 37973.00
839.2430, 38268.00
840.3780, 38317.00
841.5130, 38457.00
842.6470, 38398.00
843.7810, 38509.00
844.9150, 38512.00
846.0490, 38518.00
847.1830, 38913.00
848.3170, 38674.00
849.4500, 39024.00
850.5830, 38983.00
851.7160, 39197.00
852.8490, 39263.00
853.9820, 39044.00
855.1150, 39421.00
856.2470, 39433.00
857.3800, 39797.00
858.5120, 40020.00
859.6440, 40249.00
860.7760, 40006.00
861.9070, 40206.00
863.0390, 40135.00
864.1700, 40160.00
865.3010, 40528.00
866.4320, 40438.00
867.5630, 40767.00
868.6940, 40844.00
869.8240, 41113.00
870.9540, 41490.00
872.0850, 41337.00
873.2150, 41824.00
874.3450, 42140.00
875.4740, 42176.00
876.6040, 42982.00
877.7330, 43127.00
878.8620, 43610.00
879.9910, 43867.00
881.1200, 44175.00
882.2490, 45020.00
883.3770, 45837.00
884.5060, 46428.00
885.6340, 47045.00
886.7620, 47999.00
887.8900, 48600.00
889.0180, 49150.00
890.1450, 49246.00
891.2730, 49460.00
892.4000, 49380.00
893.5270, 49291.00
894.6540, 49037.00
895.7810, 49028.00
896.9070, 49060.00
898.0340, 49350.00
899.1600, 49586.00
900.2860, 49996.00
901.4120, 50219.00
902.5380, 49955.00
903.6630, 49790.00
904.7890, 49499.26
905.9140, 49210.96
907.0390, 48973.00
908.1640, 48904.95
909.2890, 49040.00
910.4130, 48916.00
911.5380, 49204.00
912.6620, 49348.00
913.7860, 49546.00
914.9100, 49975.00
916.0340, 50263.00
917.1580, 50929.00
918.2810, 51590.00
919.4040, 52143.00
920.5280, 52637.00
921.6510, 53653.00
922.7730, 54026.00
923.8960, 55298.00
925.0180, 56031.00
926.1410, 57001.00
927.2630, 58271.00
928.3850, 59785.00
929.5070, 61322.24
930.6280, 63159.10
931.7500, 65102.00
932.8710, 67276.00
933.9920, 69751.00
935.1130, 72241.00
936.2340, 75855.00
937.3550, 78960.00
938.4760, 82465.00
939.5960, 86590.00
940.7160, 91792.00
941.8360, 97842.00
942.9560, 104962.0
944.0760, 113627.0
945.1950, 123153.0
946.3150, 132651.0
947.4340, 142424.0
948.5530, 150402.0
949.6720, 157278.0
950.7900, 159617.0
951.9090, 158681.0
953.0270, 153811.0
954.1460, 146157.0
955.2640, 137819.0
956.3820, 129861.0
957.4990, 123464.0
958.6170, 116936.0
959.7340, 111959.0
960.8520, 107221.0
961.9690, 102668.0
963.0860, 97364.00
964.2020, 92108.00
965.3190, 86793.00
966.4350, 82400.00
967.5520, 77594.00
968.6680, 73328.00
969.7840, 69704.00
970.8990, 66410.00
972.0150, 64054.00
973.1310, 61717.49
974.2460, 60437.00
975.3610, 58332.00
976.4760, 57030.00
977.5910, 55656.00
978.7050, 54859.00
979.8200, 53630.00
980.9340, 52927.00
982.0480, 52098.00
983.1620, 51793.00
984.2760, 51612.00
985.3900, 51262.00
986.5030, 51068.00
987.6160, 51217.00
988.7300, 51108.00
989.8430, 51637.00
990.9550, 51467.00
992.0680, 52451.00
993.1810, 53334.00
994.2930, 54616.00
995.4050, 56415.00
996.5170, 57676.00
997.6290, 59759.00
998.7410, 61280.00
999.8520, 62246.00
1000.964, 62549.00
1002.075, 61607.00
1003.186, 60031.00
1004.297, 57672.00
1005.407, 55016.00
1006.518, 53089.00
1007.628, 51827.00
1008.738, 50352.00
1009.848, 49326.00
1010.958, 48768.00
1012.068, 48237.00
1013.178, 47649.00
1014.287, 47116.00
1015.396, 46649.00
1016.505, 46613.00
1017.614, 46469.00
1018.723, 46164.00
1019.831, 46342.00
1020.940, 46013.00
1022.048, 45906.00
1023.156, 45988.00
1024.264, 45511.00
1025.372, 45385.00
1026.479, 45627.00
1027.587, 45467.00
1028.694, 45168.00
1029.801, 45321.00
1030.908, 45301.00
1032.015, 44930.00
1033.121, 44907.00
1034.228, 44856.00
1035.334, 44688.00
1036.440, 44726.00
1037.546, 44389.00
1038.652, 44222.00
1039.758, 44345.00
1040.863, 44289.00
1041.968, 44377.00
1043.074, 44281.00
1044.178, 44308.71
1045.283, 44373.00
1046.388, 44324.00
1047.492, 44178.00
1048.597, 44206.00
1049.701, 44102.00
1050.805, 44205.00
1051.909, 44256.00
1053.012, 44167.00
1054.116, 44028.00
1055.219, 43970.00
1056.322, 43989.00
1057.425, 43927.01
1058.528, 44296.00
1059.631, 43895.00
1060.733, 43872.00
1061.836, 43816.00
1062.938, 44226.00
1064.040, 44376.00
1065.142, 44330.00
1066.243, 44106.00
1067.345, 44025.00
1068.446, 44217.00
1069.547, 43979.00
1070.648, 44150.00
1071.749, 44255.00
1072.850, 44182.00
1073.951, 44327.00
1075.051, 44335.00
1076.151, 44547.00
1077.251, 44404.00
1078.351, 44476.00
1079.451, 44261.00
1080.550, 44526.00
1081.650, 44868.00
1082.749, 44625.00
1083.848, 44606.00
1084.947, 44848.00
1086.046, 44740.00
1087.144, 44511.00
1088.243, 44568.00
1089.341, 44476.00
1090.439, 44333.00
1091.537, 44452.00
1092.635, 44422.00
1093.732, 44648.00
1094.830, 44508.00
1095.927, 44387.00
1097.024, 44614.00
1098.121, 44633.00
1099.218, 44557.34
1100.314, 44667.00
1101.411, 44466.00
1102.507, 44420.00
1103.603, 44502.00
1104.699, 44380.00
1105.795, 44578.00
1106.890, 44391.00
1107.986, 44554.00
1109.081, 44605.00
1110.176, 44849.00
1111.271, 44549.00
1112.366, 44744.00
1113.461, 44503.00
1114.555, 44472.00
1115.649, 44795.00
1116.744, 44577.00
1117.838, 44618.00
1118.931, 44622.00
1120.025, 44620.00
1121.119, 44704.14
1122.212, 44701.04
1123.305, 44809.00
1124.398, 44777.00
1125.491, 44703.00
1126.584, 44781.00
1127.676, 44978.00
1128.768, 44746.00
1129.861, 44828.00
1130.953, 45114.00
1132.044, 45095.00
1133.136, 44881.00
1134.228, 45097.00
1135.319, 45048.00
1136.410, 45151.00
1137.501, 44988.00
1138.592, 45100.00
1139.683, 45119.00
1140.773, 45113.00
1141.864, 44996.00
1142.954, 45137.00
1144.044, 45245.00
1145.134, 45024.00
1146.224, 45247.00
1147.313, 45122.00
1148.402, 44801.00
1149.492, 45184.00
1150.581, 45044.00
1151.670, 45171.00
1152.758, 45302.00
1153.847, 45162.00
1154.935, 45318.00
1156.024, 45494.00
1157.112, 45491.00
1158.200, 45238.00
1159.287, 45367.00
1160.375, 45377.00
1161.462, 45634.00
1162.550, 45470.00
1163.637, 45558.00
1164.724, 45527.00
1165.810, 45709.00
1166.897, 45672.00
1167.983, 45691.00
1169.070, 45766.00
1170.156, 45851.00
1171.242, 45787.20
1172.327, 45777.00
1173.413, 45759.00
1174.499, 45711.00
1175.584, 45890.00
1176.669, 45831.00
1177.754, 45994.00
1178.839, 46054.00
1179.923, 46085.00
1181.008, 45843.00
1182.092, 45896.00
1183.176, 45700.00
1184.260, 45980.00
1185.344, 45942.00
1186.428, 45812.00
1187.511, 45756.00
1188.595, 46006.00
1189.678, 45750.00
1190.761, 45961.00
1191.843, 46068.99
1192.926, 45938.48
1194.009, 46366.00
1195.091, 45969.00
1196.173, 46029.00
1197.255, 46360.00
1198.337, 45837.00
1199.419, 46282.00
1200.500, 46363.00
1201.582, 46601.00
1202.663, 46592.00
1203.744, 46408.00
1204.825, 46336.00
1205.905, 46537.00
1206.986, 46220.00
1208.066, 46144.00
1209.146, 46720.00
1210.226, 46656.00
1211.306, 46488.00
1212.386, 46496.00
1213.466, 46711.00
1214.545, 46666.00
1215.624, 46831.00
1216.703, 46801.00
1217.782, 47066.00
1218.861, 46779.00
1219.939, 47096.00
1221.018, 47027.00
1222.096, 46852.00
1223.174, 46871.00
1224.252, 47122.00
1225.330, 46844.00
1226.407, 47112.00
1227.485, 46881.00
1228.562, 46994.00
1229.639, 47144.00
1230.716, 47172.00
1231.793, 47351.00
1232.869, 47431.00
1233.946, 47570.00
1235.022, 47408.00
1236.098, 47733.00
1237.174, 47491.00
1238.250, 47681.00
1239.325, 47992.00
1240.401, 47854.00
1241.476, 47779.00
1242.551, 47778.00
1243.626, 47979.00
1244.701, 47972.00
1245.776, 48049.00
1246.850, 47813.00
1247.924, 47889.00
1248.999, 48282.00
1250.073, 47691.00
1251.146, 48246.00
1252.220, 48035.00
1253.293, 47959.00
1254.367, 47893.00
1255.440, 48042.00
1256.513, 48090.00
1257.586, 48004.00
1258.658, 48063.00
1259.731, 47947.00
1260.803, 48234.00
1261.875, 48283.00
1262.947, 47987.00
1264.019, 48122.00
1265.091, 48691.00
1266.162, 48284.00
1267.234, 48687.00
1268.305, 48606.00
1269.376, 48544.00
1270.447, 48362.00
1271.517, 48531.00
1272.588, 48728.00
1273.658, 48671.00
1274.729, 48971.00
1275.799, 48560.00
1276.868, 48557.00
1277.938, 48630.00
1279.008, 48570.00
1280.077, 48719.00
1281.146, 48839.00
1282.215, 48913.00
1283.284, 48960.05
1284.353, 48955.00
1285.421, 48911.00
1286.490, 49044.00
1287.558, 48877.00
1288.626, 48921.00
1289.694, 49173.00
1290.762, 49120.00
1291.829, 49287.00
1292.897, 49184.00
1293.964, 49374.00
1295.031, 49188.00
1296.098, 49189.00
1297.165, 49388.00
1298.231, 49216.00
1299.298, 49480.00
1300.364, 49256.00
1301.430, 49202.00
1302.496, 49382.00
1303.562, 49228.00
1304.627, 49509.00
