##NAMES=Kyanite
##RRUFFID=R040119
##IDEAL CHEMISTRY=Al_2_OSiO_4_
##LOCALITY=Rutherford County, North Carolina, USA
##OWNER=RRUFF
##SOURCE=University of Arizona Mineral Museum
##DESCRIPTION=Blue bladed crystal
##STATUS=The identification of this mineral has been confirmed by X-ray diffraction and chemical analysis
##URL=rruff.info/R040119
##MEASURED CHEMISTRY=(Al_0.99_Fe^3+^_0.01_)_2_OSi_1.00_O_4_
##PIN_ID=L00375
##ORIENTATION=Laser parallel to (0 1 1). Fiducial mark perpendicular to laser is parallel to a [1 0 0]
103.1740, 83791.00
104.4090, 84867.00
105.6440, 84898.00
106.8790, 85012.00
108.1140, 84280.00
109.3490, 84532.00
110.5830, 84553.00
111.8180, 84798.00
113.0520, 84827.00
114.2860, 85800.00
115.5200, 86225.00
116.7530, 85902.00
117.9870, 86323.00
119.2200, 86052.00
120.4530, 85722.00
121.6860, 85119.00
122.9190, 85110.88
124.1520, 85526.00
125.3850, 85019.00
126.6170, 85282.00
127.8490, 85446.00
129.0810, 85545.00
130.3130, 85811.00
131.5450, 85586.00
132.7770, 86012.00
134.0080, 86130.00
135.2390, 85802.00
136.4710, 86900.00
137.7020, 86682.00
138.9320, 87096.00
140.1630, 87013.00
141.3930, 86664.00
142.6240, 86783.00
143.8540, 87077.00
145.0840, 87540.00
146.3140, 87885.00
147.5440, 87782.00
148.7730, 87494.00
150.0020, 87805.00
151.2320, 87951.00
152.4610, 88177.00
153.6900, 88565.00
154.9180, 88394.00
156.1470, 88585.00
157.3750, 88750.00
158.6040, 88993.00
159.8320, 89464.00
161.0600, 89200.00
162.2870, 89529.00
163.5150, 89482.00
164.7420, 89301.00
165.9700, 90268.00
167.1970, 89988.00
168.4240, 90099.00
169.6510, 90781.00
170.8770, 90760.00
172.1040, 90938.00
173.3300, 91094.00
174.5560, 91124.00
175.7820, 91101.00
177.0080, 91174.85
178.2340, 91258.00
179.4590, 91228.00
180.6850, 91506.00
181.9100, 91592.00
183.1350, 91293.00
184.3600, 91510.00
185.5850, 91931.00
186.8090, 91647.00
188.0340, 91979.00
189.2580, 92027.00
190.4820, 92478.00
191.7060, 92302.00
192.9300, 92937.00
194.1530, 92852.00
195.3770, 92877.00
196.6000, 93128.00
197.8230, 93704.00
199.0460, 94269.00
200.2690, 94902.00
201.4910, 95475.00
202.7140, 96481.00
203.9360, 97390.00
205.1580, 97951.00
206.3800, 98286.00
207.6020, 98228.20
208.8240, 98155.00
210.0450, 97507.00
211.2670, 96664.00
212.4880, 96154.00
213.7090, 96089.00
214.9300, 95834.00
216.1510, 95621.00
217.3710, 96527.00
218.5920, 96594.00
219.8120, 97210.00
221.0320, 97583.00
222.2520, 97899.00
223.4720, 99808.00
224.6910, 99636.00
225.9110, 99831.00
227.1300, 99306.00
228.3490, 98906.00
229.5680, 98576.00
230.7870, 98017.00
232.0050, 97497.00
233.2240, 97980.00
234.4420, 97098.00
235.6600, 98020.00
236.8780, 97780.00
238.0960, 98166.00
239.3140, 98260.00
240.5310, 98566.00
241.7490, 99244.00
242.9660, 99539.00
244.1830, 100170.0
245.4000, 100446.0
246.6160, 100356.0
247.8330, 100135.0
249.0490, 100404.0
250.2660, 100281.7
251.4820, 100130.0
252.6980, 100385.0
253.9130, 100383.0
255.1290, 100534.0
256.3440, 100744.0
257.5600, 100512.0
258.7750, 99922.00
259.9900, 99832.00
261.2040, 99944.00
262.4190, 100266.0
263.6330, 100627.1
264.8480, 101198.0
266.0620, 101872.0
267.2760, 102785.0
268.4900, 103802.0
269.7030, 105395.0
270.9170, 106976.0
272.1300, 109431.0
273.3430, 112773.0
274.5560, 115133.0
275.7690, 118156.0
276.9820, 119406.0
278.1940, 117529.0
279.4070, 114857.0
280.6190, 112332.0
281.8310, 109783.0
283.0430, 109632.0
284.2550, 109608.0
285.4660, 111531.0
286.6770, 114054.0
287.8890, 117272.0
289.1000, 120436.0
290.3110, 124460.0
291.5210, 127811.0
292.7320, 130164.0
293.9420, 135306.0
295.1530, 142790.0
296.3630, 153050.0
297.5730, 165716.0
298.7830, 181909.0
299.9920, 193352.0
301.2020, 189804.0
302.4110, 172439.0
303.6200, 154428.0
304.8290, 137174.0
306.0380, 124869.0
307.2470, 117585.0
308.4550, 114107.0
309.6630, 112309.0
310.8720, 111800.0
312.0800, 111577.0
313.2880, 112436.0
314.4950, 114104.0
315.7030, 116749.0
316.9100, 120141.0
318.1170, 124442.0
319.3240, 131212.0
320.5310, 139146.0
321.7380, 149044.0
322.9450, 160412.0
324.1510, 169326.0
325.3570, 167575.0
326.5630, 156587.0
327.7690, 143509.0
328.9750, 131309.0
330.1810, 121711.0
331.3860, 116767.0
332.5910, 114074.0
333.7960, 112613.0
335.0010, 112432.0
336.2060, 113165.0
337.4110, 113615.0
338.6150, 114676.0
339.8200, 115595.0
341.0240, 115543.0
342.2280, 115296.0
343.4320, 114939.0
344.6350, 114381.0
345.8390, 114644.0
347.0420, 114432.0
348.2450, 115301.0
349.4480, 116644.0
350.6510, 118790.0
351.8540, 121475.0
353.0560, 125461.0
354.2590, 130886.0
355.4610, 137019.0
356.6630, 144901.0
357.8650, 153568.0
359.0670, 159211.0
360.2680, 155243.0
361.4700, 146865.0
362.6710, 138296.0
363.8720, 131175.0
365.0730, 127570.0
366.2740, 125989.0
367.4740, 127634.0
368.6750, 129733.0
369.8750, 133304.0
371.0750, 137500.0
372.2750, 140551.0
373.4750, 145395.0
374.6740, 150986.0
375.8740, 157752.0
377.0730, 165995.0
378.2720, 174694.0
379.4710, 185128.0
380.6700, 198651.0
381.8690, 215909.0
383.0670, 231523.0
384.2660, 237982.0
385.4640, 229488.0
386.6620, 215558.0
387.8600, 204997.0
389.0570, 198543.0
390.2550, 200999.0
391.4520, 201919.0
392.6490, 193043.0
393.8460, 180507.0
395.0430, 171068.0
396.2400, 167216.0
397.4370, 170844.0
398.6330, 182553.0
399.8290, 199432.0
401.0250, 218997.0
402.2210, 237246.0
403.4170, 240453.0
404.6130, 224245.0
405.8080, 199347.0
407.0030, 174153.0
408.1980, 153436.0
409.3930, 140272.0
410.5880, 132069.0
411.7830, 127768.0
412.9770, 125310.0
414.1720, 123484.0
415.3660, 123200.0
416.5600, 122757.0
417.7530, 122213.0
418.9470, 122603.0
420.1410, 123086.0
421.3340, 122788.0
422.5270, 123327.0
423.7200, 124911.0
424.9130, 127088.0
426.1060, 129633.0
427.2980, 133877.0
428.4900, 140080.0
429.6830, 147358.0
430.8750, 157357.0
432.0670, 169615.0
433.2580, 183267.0
434.4500, 195662.0
435.6410, 202781.0
436.8320, 203060.0
438.0240, 197352.0
439.2140, 183312.0
440.4050, 169176.0
441.5960, 157810.0
442.7860, 149338.0
443.9760, 145576.0
445.1670, 144731.0
446.3560, 146266.0
447.5460, 144763.0
448.7360, 141906.0
449.9250, 136798.0
451.1150, 132545.0
452.3040, 128035.0
453.4930, 126598.0
454.6810, 125476.0
455.8700, 125412.0
457.0590, 125678.4
458.2470, 126696.0
459.4350, 128205.0
460.6230, 130035.0
461.8110, 132764.0
462.9980, 135020.0
464.1860, 136363.0
465.3730, 136764.0
466.5600, 135898.0
467.7470, 135594.0
468.9340, 135106.0
470.1210, 135356.0
471.3080, 136349.0
472.4940, 139568.0
473.6800, 144178.0
474.8660, 151496.0
476.0520, 160577.0
477.2380, 172953.0
478.4230, 189994.0
479.6090, 212916.0
480.7940, 240797.0
481.9790, 274363.0
483.1640, 310890.0
484.3490, 344145.0
485.5330, 358567.0
486.7180, 345099.0
487.9020, 311780.0
489.0860, 274409.0
490.2700, 241407.0
491.4540, 216256.0
492.6370, 198726.0
493.8210, 183922.0
495.0040, 170705.0
496.1870, 159336.0
497.3700, 150985.0
498.5530, 145316.0
499.7360, 140974.0
500.9180, 138025.0
502.1000, 135847.0
503.2830, 133906.0
504.4650, 132812.0
505.6460, 132523.0
506.8280, 131961.0
508.0100, 132133.0
509.1910, 132777.0
510.3720, 132324.0
511.5530, 132328.0
512.7340, 131575.0
513.9150, 130979.0
515.0950, 128874.0
516.2760, 127833.0
517.4560, 126738.0
518.6360, 126319.0
519.8160, 125311.0
520.9950, 125417.0
522.1750, 125221.0
523.3540, 125134.0
524.5340, 125000.0
525.7130, 124647.0
526.8920, 125130.0
528.0700, 125118.0
529.2490, 125260.0
530.4270, 125077.0
531.6060, 125106.0
532.7840, 124894.0
533.9620, 125536.0
535.1390, 125150.0
536.3170, 125469.0
537.4940, 126227.0
538.6720, 125808.0
539.8490, 126798.0
541.0260, 126949.0
542.2030, 127095.0
543.3790, 127810.0
544.5560, 127970.0
545.7320, 128644.0
546.9080, 127854.0
548.0840, 128688.0
549.2600, 128551.0
550.4360, 128799.0
551.6110, 129309.0
552.7860, 130549.0
553.9620, 132167.0
555.1370, 134001.0
556.3110, 137129.0
557.4860, 140547.0
558.6610, 144897.0
559.8350, 149860.0
561.0090, 153804.0
562.1830, 155633.0
563.3570, 153405.0
564.5310, 148637.0
565.7040, 143809.0
566.8780, 141039.0
568.0510, 137899.0
569.2240, 137215.0
570.3970, 136122.0
571.5700, 136352.0
572.7420, 134958.0
573.9150, 133853.0
575.0870, 133102.0
576.2590, 132101.0
577.4310, 132395.0
578.6030, 132134.0
579.7740, 133092.0
580.9460, 133023.0
582.1170, 132794.0
583.2880, 133536.0
584.4590, 133476.0
585.6300, 133268.0
586.8010, 132508.0
587.9710, 132603.0
589.1410, 131878.0
590.3110, 132006.0
591.4810, 131469.0
592.6510, 132291.0
593.8210, 132246.0
594.9900, 132522.0
596.1600, 133503.0
597.3290, 134491.0
598.4980, 135065.0
599.6670, 136028.0
600.8350, 137798.0
602.0040, 139168.0
603.1720, 140467.0
604.3400, 141673.0
605.5080, 142689.0
606.6760, 142163.0
607.8440, 141954.0
609.0120, 140834.0
610.1790, 140232.0
611.3460, 140331.0
612.5130, 139979.0
613.6800, 140975.0
614.8470, 141202.0
616.0130, 141883.0
617.1800, 142552.0
618.3460, 141950.0
619.5120, 141860.0
620.6780, 141335.0
621.8440, 141171.0
623.0090, 141243.0
624.1750, 141795.0
625.3400, 142402.0
626.5050, 143622.0
627.6700, 145754.0
628.8350, 148278.0
629.9990, 151194.0
631.1640, 155190.0
632.3280, 159650.0
633.4920, 164294.0
634.6560, 168218.0
635.8200, 170919.0
636.9840, 170642.0
638.1470, 167870.0
639.3100, 163108.0
640.4730, 157611.0
641.6360, 153075.0
642.7990, 150490.0
643.9620, 148408.0
645.1240, 147999.0
646.2870, 148007.0
647.4490, 149201.0
648.6110, 151656.0
649.7730, 154134.0
650.9340, 156692.0
652.0960, 160420.0
653.2570, 163809.0
654.4180, 166299.0
655.5790, 168097.0
656.7400, 166388.0
657.9010, 164492.0
659.0620, 160165.0
660.2220, 155081.0
661.3820, 151520.0
662.5420, 148649.0
663.7020, 146294.0
664.8620, 144741.0
666.0210, 144091.0
667.1810, 143201.0
668.3400, 142358.0
669.4990, 141975.0
670.6580, 141581.0
671.8170, 140687.0
672.9750, 139916.0
674.1340, 139323.0
675.2920, 138693.0
676.4500, 138910.0
677.6080, 138727.0
678.7660, 138645.0
679.9230, 138737.0
681.0810, 138388.0
682.2380, 138748.0
683.3950, 138707.0
684.5520, 138562.0
685.7090, 138196.0
686.8660, 138618.0
688.0220, 138168.0
689.1780, 138222.0
690.3340, 138036.0
691.4900, 137550.0
692.6460, 137691.0
693.8020, 137665.0
694.9570, 138254.0
696.1130, 138497.0
697.2680, 138789.0
698.4230, 138864.0
699.5780, 139263.0
700.7320, 139240.0
701.8870, 139106.0
703.0410, 139420.0
704.1950, 138790.0
705.3490, 139323.0
706.5030, 138846.0
707.6570, 139434.0
708.8110, 138714.0
709.9640, 139200.0
711.1170, 138945.0
712.2700, 138770.0
713.4230, 138728.0
714.5760, 138705.0
715.7280, 138766.0
716.8810, 138961.0
718.0330, 138528.0
719.1850, 138595.0
720.3370, 138688.0
721.4890, 138082.0
722.6400, 138512.0
723.7920, 138230.0
724.9430, 138364.0
726.0940, 138949.0
727.2450, 138938.0
728.3960, 138355.0
729.5460, 138706.0
730.6970, 138422.0
731.8470, 138264.0
732.9970, 138795.0
734.1470, 139121.0
735.2970, 139173.0
736.4460, 139678.0
737.5960, 140056.0
738.7450, 139924.0
739.8940, 140478.0
741.0430, 140374.0
742.1920, 140752.0
743.3410, 140884.0
744.4890, 141068.0
745.6370, 140979.0
746.7850, 140980.0
747.9330, 140836.0
749.0810, 141003.0
750.2290, 141131.0
751.3760, 141283.0
752.5240, 140987.0
753.6710, 140679.0
754.8180, 140781.0
755.9650, 140744.0
757.1110, 140531.0
758.2580, 140633.0
759.4040, 141127.0
760.5510, 140847.0
761.6970, 140904.0
762.8420, 140562.0
763.9880, 140722.0
765.1340, 140473.6
766.2790, 140522.9
767.4240, 140369.0
768.5690, 140425.0
769.7140, 140956.0
770.8590, 140517.0
772.0030, 140716.0
773.1480, 140443.0
774.2920, 140529.0
775.4360, 140538.7
776.5800, 140474.0
777.7240, 140585.0
778.8670, 140839.0
780.0110, 140891.0
781.1540, 140102.0
782.2970, 140996.0
783.4400, 140963.0
784.5830, 141927.0
785.7250, 140748.0
786.8680, 141288.0
788.0100, 141275.0
789.1520, 141803.0
790.2940, 141926.0
791.4360, 141548.0
792.5780, 141282.0
793.7190, 141104.0
794.8600, 141189.3
796.0010, 141401.0
797.1420, 141496.0
798.2830, 141429.0
799.4240, 141361.0
800.5640, 141357.0
801.7050, 140989.0
802.8450, 141289.2
803.9850, 141324.8
805.1250, 141840.0
806.2640, 141857.0
807.4040, 142329.0
808.5430, 142846.0
809.6820, 143393.0
810.8210, 143317.0
811.9600, 143367.0
813.0990, 144204.0
814.2370, 143833.0
815.3760, 143489.0
816.5140, 143976.0
817.6520, 143746.0
818.7900, 144287.0
819.9270, 144032.0
821.0650, 144476.0
822.2020, 144579.0
823.3390, 144419.0
824.4760, 144439.0
825.6130, 144181.0
826.7500, 144359.3
827.8870, 144576.0
829.0230, 144821.0
830.1590, 144755.0
831.2950, 145290.0
832.4310, 144858.0
833.5670, 145209.0
834.7030, 144907.0
835.8380, 145543.0
836.9730, 145834.0
838.1080, 145564.0
839.2430, 145981.0
840.3780, 145819.0
841.5130, 146071.0
842.6470, 146451.0
843.7810, 147052.0
844.9150, 147019.0
846.0490, 146678.0
847.1830, 147139.0
848.3170, 147032.0
849.4500, 147577.0
850.5830, 147441.0
851.7160, 148299.0
852.8490, 148185.0
853.9820, 147787.0
855.1150, 148514.0
856.2470, 148615.0
857.3800, 148817.0
858.5120, 148871.0
859.6440, 148844.0
860.7760, 148969.0
861.9070, 149125.0
863.0390, 149998.0
864.1700, 149712.0
865.3010, 150491.0
866.4320, 150502.0
867.5630, 151301.0
868.6940, 151664.0
869.8240, 151071.0
870.9540, 151992.0
872.0850, 152212.0
873.2150, 153559.0
874.3450, 153596.0
875.4740, 153700.0
876.6040, 154301.0
877.7330, 154869.0
878.8620, 155148.0
879.9910, 155962.0
881.1200, 157322.0
882.2490, 158076.0
883.3770, 159854.0
884.5060, 160475.0
885.6340, 161687.0
886.7620, 163208.0
887.8900, 164981.0
889.0180, 166170.0
890.1450, 167498.0
891.2730, 167631.0
892.4000, 169109.0
893.5270, 169956.0
894.6540, 171162.0
895.7810, 172490.0
896.9070, 174393.0
898.0340, 176496.0
899.1600, 177860.0
900.2860, 179107.0
901.4120, 177418.0
902.5380, 177160.0
903.6630, 174541.0
904.7890, 172256.0
905.9140, 169716.0
907.0390, 168492.0
908.1640, 166777.0
909.2890, 166029.0
910.4130, 164987.0
911.5380, 164403.0
912.6620, 164843.0
913.7860, 164919.0
914.9100, 164987.0
916.0340, 165881.0
917.1580, 166272.0
918.2810, 167254.0
919.4040, 168068.0
920.5280, 169322.0
921.6510, 170637.0
922.7730, 171797.8
923.8960, 173470.7
925.0180, 174664.0
926.1410, 177004.0
927.2630, 179015.0
928.3850, 181174.0
929.5070, 184151.0
930.6280, 187217.0
931.7500, 191273.0
932.8710, 195209.0
933.9920, 199289.0
935.1130, 204082.0
936.2340, 208225.0
937.3550, 212409.0
938.4760, 217450.0
939.5960, 221038.0
940.7160, 226395.0
941.8360, 229893.0
942.9560, 233990.0
944.0760, 237713.0
945.1950, 240177.0
946.3150, 241355.0
947.4340, 242122.0
948.5530, 241491.0
949.6720, 242172.0
950.7900, 244509.0
951.9090, 248211.0
953.0270, 254486.0
954.1460, 261890.0
955.2640, 271529.0
956.3820, 280470.0
957.4990, 291032.0
958.6170, 300078.0
959.7340, 304269.0
960.8520, 306999.0
961.9690, 304002.0
963.0860, 297378.0
964.2020, 285888.0
965.3190, 272611.0
966.4350, 260667.0
967.5520, 247447.0
968.6680, 235435.0
969.7840, 225369.0
970.8990, 216717.0
972.0150, 208379.0
973.1310, 202603.0
974.2460, 197127.0
975.3610, 192932.0
976.4760, 189291.0
977.5910, 185853.0
978.7050, 183717.0
979.8200, 181010.0
980.9340, 180026.0
982.0480, 177699.0
983.1620, 176329.0
984.2760, 175701.0
985.3900, 174788.0
986.5030, 174175.0
987.6160, 173180.0
988.7300, 173129.0
989.8430, 172688.0
990.9550, 173857.0
992.0680, 174359.0
993.1810, 175560.0
994.2930, 176620.0
995.4050, 178916.0
996.5170, 181285.0
997.6290, 183829.0
998.7410, 186089.0
999.8520, 187177.0
1000.964, 187361.0
1002.075, 186235.0
1003.186, 184058.0
1004.297, 181671.0
1005.407, 179054.0
1006.518, 175778.0
1007.628, 173855.0
1008.738, 172151.0
1009.848, 170635.0
1010.958, 169087.0
1012.068, 169192.0
1013.178, 168663.0
1014.287, 167404.0
1015.396, 167311.0
1016.505, 166609.0
1017.614, 166050.0
1018.723, 166767.0
1019.831, 166135.0
1020.940, 166062.0
1022.048, 165719.0
1023.156, 165939.0
1024.264, 165541.0
1025.372, 165366.0
1026.479, 165122.0
1027.587, 164784.0
1028.694, 165577.0
1029.801, 164999.0
1030.908, 164039.0
1032.015, 164997.0
1033.121, 164729.0
1034.228, 164900.0
1035.334, 164713.0
1036.440, 165022.0
1037.546, 165548.0
1038.652, 164609.0
1039.758, 164724.0
1040.863, 164737.0
1041.968, 165303.0
1043.074, 164898.0
1044.178, 165130.0
1045.283, 165233.0
1046.388, 164992.0
1047.492, 165089.0
1048.597, 165297.0
1049.701, 165530.0
1050.805, 165665.0
1051.909, 165463.0
1053.012, 165793.0
1054.116, 165188.0
1055.219, 165394.0
1056.322, 164830.0
1057.425, 165918.0
1058.528, 165385.0
1059.631, 165986.0
1060.733, 166256.0
1061.836, 165826.0
1062.938, 166523.0
1064.040, 166177.0
1065.142, 166624.0
1066.243, 166018.0
1067.345, 166680.0
1068.446, 166455.0
1069.547, 166461.0
1070.648, 166410.0
1071.749, 166782.0
1072.850, 166479.8
1073.951, 166603.0
1075.051, 166244.0
1076.151, 166365.0
1077.251, 166610.0
1078.351, 166513.0
1079.451, 166760.0
1080.550, 166583.0
1081.650, 167073.0
1082.749, 166833.0
1083.848, 166896.0
1084.947, 167590.0
1086.046, 166997.0
1087.144, 167985.0
1088.243, 168200.0
1089.341, 167656.0
1090.439, 167867.0
1091.537, 168999.0
1092.635, 168620.0
1093.732, 168392.0
1094.830, 168912.0
1095.927, 168316.0
1097.024, 168953.0
1098.121, 168461.0
1099.218, 168847.0
1100.314, 168929.0
1101.411, 168978.0
1102.507, 169332.0
1103.603, 169568.0
1104.699, 170118.0
1105.795, 169191.0
1106.890, 169683.0
1107.986, 169492.0
1109.081, 169783.0
1110.176, 169951.0
1111.271, 170199.0
1112.366, 169897.0
1113.461, 170201.0
1114.555, 169874.0
1115.649, 170080.0
1116.744, 170174.0
1117.838, 170291.7
1118.931, 170055.0
1120.025, 170656.0
1121.119, 170874.0
1122.212, 170794.0
1123.305, 171297.0
1124.398, 170687.0
1125.491, 171196.0
1126.584, 171048.0
1127.676, 170991.0
1128.768, 170978.0
1129.861, 171015.2
1130.953, 171590.0
1132.044, 171210.0
1133.136, 171258.0
1134.228, 171358.0
1135.319, 171114.0
1136.410, 171877.0
1137.501, 171499.0
1138.592, 172018.0
1139.683, 172407.0
1140.773, 172096.0
1141.864, 172039.0
1142.954, 172389.0
1144.044, 172410.0
1145.134, 172140.0
1146.224, 172559.0
1147.313, 173075.0
1148.402, 172233.0
1149.492, 172972.0
1150.581, 172883.0
1151.670, 172726.0
1152.758, 172803.0
1153.847, 173058.0
1154.935, 173402.0
1156.024, 172735.0
1157.112, 173681.0
1158.200, 172873.0
1159.287, 173820.0
1160.375, 173744.0
1161.462, 173795.0
1162.550, 174291.0
1163.637, 173837.0
1164.724, 174112.0
1165.810, 174216.0
1166.897, 174097.0
1167.983, 174518.0
1169.070, 174308.0
1170.156, 174900.0
1171.242, 174596.0
1172.327, 174961.0
1173.413, 174685.0
1174.499, 174731.0
1175.584, 175031.0
1176.669, 174733.0
1177.754, 174839.0
1178.839, 175095.0
1179.923, 174777.0
1181.008, 175800.0
1182.092, 174910.0
1183.176, 175548.0
1184.260, 175629.0
1185.344, 175324.0
1186.428, 175470.0
1187.511, 175722.0
1188.595, 176437.0
1189.678, 175750.0
1190.761, 176388.0
1191.843, 176387.0
1192.926, 175503.0
1194.009, 177218.0
1195.091, 175674.0
1196.173, 176407.0
1197.255, 176697.0
1198.337, 176448.0
1199.419, 176388.0
1200.500, 176150.0
1201.582, 177397.0
1202.663, 176555.0
1203.744, 176944.0
1204.825, 177409.0
1205.905, 176907.0
1206.986, 176734.0
1208.066, 177204.0
1209.146, 177762.0
1210.226, 177784.0
1211.306, 177786.0
1212.386, 178093.0
1213.466, 177601.0
1214.545, 178038.0
1215.624, 178610.0
1216.703, 178268.0
1217.782, 179288.0
1218.861, 178310.0
1219.939, 179062.0
1221.018, 178844.0
1222.096, 180005.0
1223.174, 179265.0
1224.252, 178605.0
1225.330, 180113.0
1226.407, 179711.0
1227.485, 179852.0
1228.562, 180076.0
1229.639, 179921.0
1230.716, 180218.0
1231.793, 179975.0
1232.869, 180480.0
1233.946, 180547.0
1235.022, 180257.0
1236.098, 180857.0
1237.174, 180013.0
1238.250, 180906.0
1239.325, 180439.0
1240.401, 181107.0
1241.476, 180532.0
1242.551, 180833.0
1243.626, 181001.0
1244.701, 181338.0
1245.776, 181330.0
1246.850, 181474.6
1247.924, 181504.0
1248.999, 181700.0
1250.073, 181348.0
1251.146, 181700.0
1252.220, 181332.0
1253.293, 181851.0
1254.367, 182086.0
1255.440, 181694.0
1256.513, 182718.0
1257.586, 182724.0
1258.658, 182138.0
1259.731, 183228.0
1260.803, 182046.0
1261.875, 182843.0
1262.947, 182398.0
1264.019, 182704.0
1265.091, 182714.0
1266.162, 182880.0
1267.234, 183205.0
1268.305, 183423.0
1269.376, 183270.0
1270.447, 183226.0
1271.517, 183359.5
1272.588, 183290.0
1273.658, 183547.0
1274.729, 183493.0
1275.799, 183606.0
1276.868, 184023.0
1277.938, 183733.0
1279.008, 183354.0
1280.077, 184660.0
1281.146, 184309.0
1282.215, 184181.0
1283.284, 184710.0
