##NAMES=Kyanite
##RRUFFID=R040119
##IDEAL CHEMISTRY=Al_2_OSiO_4_
##LOCALITY=Rutherford County, North Carolina, USA
##OWNER=RRUFF
##SOURCE=University of Arizona Mineral Museum
##DESCRIPTION=Blue bladed crystal
##STATUS=The identification of this mineral has been confirmed by X-ray diffraction and chemical analysis
##URL=rruff.info/R040119
##MEASURED CHEMISTRY=(Al_0.99_Fe^3+^_0.01_)_2_OSi_1.00_O_4_
##PIN_ID=L00532
##ORIENTATION=Laser parallel to (-1 0 -1). Fiducial mark perpendicular to laser is parallel to b [0 1 0]
77.19600, 61225.00
78.43500, 62140.00
79.67300, 62933.00
80.91200, 63155.00
82.15000, 62653.00
83.38800, 62308.00
84.62600, 63091.00
85.86300, 62053.00
87.10100, 61531.00
88.33800, 61416.00
89.57500, 62016.00
90.81200, 62029.49
92.04900, 62241.27
93.28600, 62509.00
94.52300, 62467.00
95.75900, 61852.00
96.99500, 61593.00
98.23100, 61943.00
99.46700, 61852.90
100.7030, 63029.00
101.9390, 62606.00
103.1740, 63094.00
104.4090, 63922.00
105.6440, 63677.00
106.8790, 63234.00
108.1140, 63286.00
109.3490, 63652.47
110.5830, 63252.00
111.8180, 64385.00
113.0520, 64276.00
114.2860, 63642.00
115.5200, 63933.00
116.7530, 64932.00
117.9870, 64160.00
119.2200, 64898.00
120.4530, 65392.00
121.6860, 63730.00
122.9190, 63618.00
124.1520, 63365.00
125.3850, 63675.00
126.6170, 62122.00
127.8490, 62710.00
129.0810, 62038.00
130.3130, 61927.00
131.5450, 62478.00
132.7770, 62353.00
134.0080, 62461.00
135.2390, 62535.00
136.4710, 62832.00
137.7020, 62564.00
138.9320, 62943.00
140.1630, 63646.00
141.3930, 63567.00
142.6240, 63887.00
143.8540, 63262.00
145.0840, 63333.00
146.3140, 63261.00
147.5440, 62115.00
148.7730, 62974.00
150.0020, 63447.00
151.2320, 63113.00
152.4610, 62623.00
153.6900, 63300.00
154.9180, 63642.00
156.1470, 63041.00
157.3750, 63457.00
158.6040, 63503.00
159.8320, 62819.00
161.0600, 63242.00
162.2870, 63139.00
163.5150, 63028.00
164.7420, 62562.00
165.9700, 62581.00
167.1970, 62576.00
168.4240, 63483.00
169.6510, 63620.00
170.8770, 63368.00
172.1040, 62960.00
173.3300, 63294.00
174.5560, 63691.00
175.7820, 63774.00
177.0080, 63750.00
178.2340, 63823.20
179.4590, 63469.00
180.6850, 63575.00
181.9100, 63563.00
183.1350, 63222.00
184.3600, 63578.00
185.5850, 63246.00
186.8090, 63619.00
188.0340, 63522.00
189.2580, 63131.00
190.4820, 64130.00
191.7060, 64556.00
192.9300, 64672.00
194.1530, 63868.00
195.3770, 64812.00
196.6000, 64041.00
197.8230, 64175.00
199.0460, 64822.00
200.2690, 65225.00
201.4910, 65702.00
202.7140, 65754.00
203.9360, 66329.00
205.1580, 66472.00
206.3800, 66342.00
207.6020, 66112.00
208.8240, 66069.00
210.0450, 65615.00
211.2670, 65146.00
212.4880, 64553.00
213.7090, 64215.00
214.9300, 64065.00
216.1510, 63971.00
217.3710, 65290.00
218.5920, 65397.00
219.8120, 64839.00
221.0320, 65893.00
222.2520, 65735.16
223.4720, 65804.00
224.6910, 66075.00
225.9110, 66032.00
227.1300, 65757.00
228.3490, 64979.00
229.5680, 64918.00
230.7870, 64699.00
232.0050, 64522.00
233.2240, 64873.00
234.4420, 64891.00
235.6600, 64818.00
236.8780, 65830.00
238.0960, 65206.00
239.3140, 65850.00
240.5310, 65808.00
241.7490, 65936.00
242.9660, 65784.00
244.1830, 65783.00
245.4000, 65888.00
246.6160, 65849.00
247.8330, 65478.00
249.0490, 65716.00
250.2660, 65783.00
251.4820, 65730.00
252.6980, 65964.10
253.9130, 65844.00
255.1290, 66323.00
256.3440, 66264.00
257.5600, 66535.00
258.7750, 65463.00
259.9900, 65541.00
261.2040, 65349.00
262.4190, 66014.00
263.6330, 65702.00
264.8480, 65376.00
266.0620, 66171.00
267.2760, 66362.00
268.4900, 67270.00
269.7030, 67719.00
270.9170, 68459.00
272.1300, 70134.00
273.3430, 71365.00
274.5560, 72948.00
275.7690, 74305.00
276.9820, 74668.00
278.1940, 73566.00
279.4070, 72115.00
280.6190, 71629.00
281.8310, 70834.00
283.0430, 71178.00
284.2550, 71814.00
285.4660, 73495.00
286.6770, 75937.00
287.8890, 78508.00
289.1000, 82014.00
290.3110, 83413.00
291.5210, 84116.00
292.7320, 84909.00
293.9420, 87476.00
295.1530, 91739.00
296.3630, 97535.00
297.5730, 105350.0
298.7830, 115682.0
299.9920, 120930.0
301.2020, 114176.0
302.4110, 101399.0
303.6200, 91116.00
304.8290, 83282.00
306.0380, 78090.00
307.2470, 75026.00
308.4550, 73768.00
309.6630, 73444.00
310.8720, 73363.00
312.0800, 74274.00
313.2880, 75185.00
314.4950, 77603.00
315.7030, 80628.00
316.9100, 84163.00
318.1170, 89368.00
319.3240, 96030.00
320.5310, 105274.0
321.7380, 115540.0
322.9450, 127077.0
324.1510, 133530.0
325.3570, 127366.0
326.5630, 112231.0
327.7690, 98781.00
328.9750, 87937.00
330.1810, 81168.00
331.3860, 76644.00
332.5910, 74934.00
333.7960, 73834.00
335.0010, 73318.00
336.2060, 73354.00
337.4110, 73840.00
338.6150, 74592.00
339.8200, 74975.00
341.0240, 75214.00
342.2280, 73919.00
343.4320, 73431.00
344.6350, 72620.00
345.8390, 72660.00
347.0420, 72545.00
348.2450, 72325.00
349.4480, 72365.00
350.6510, 72679.00
351.8540, 73440.00
353.0560, 74319.00
354.2590, 75441.00
355.4610, 76928.00
356.6630, 78975.00
357.8650, 81610.00
359.0670, 82374.00
360.2680, 81705.00
361.4700, 80380.00
362.6710, 79355.00
363.8720, 79687.00
365.0730, 81609.00
366.2740, 83446.00
367.4740, 86417.00
368.6750, 90371.00
369.8750, 94077.00
371.0750, 96196.00
372.2750, 98113.86
373.4750, 99455.40
374.6740, 99602.00
375.8740, 100241.0
377.0730, 99764.00
378.2720, 99005.00
379.4710, 98377.00
380.6700, 100592.0
381.8690, 103490.0
383.0670, 107358.0
384.2660, 108257.0
385.4640, 105601.0
386.6620, 102752.0
387.8600, 102638.0
389.0570, 105036.0
390.2550, 108818.0
391.4520, 109561.0
392.6490, 103362.0
393.8460, 95992.00
395.0430, 91541.00
396.2400, 90138.00
397.4370, 91696.00
398.6330, 95961.00
399.8290, 101680.0
401.0250, 107746.0
402.2210, 113483.0
403.4170, 112236.0
404.6130, 105249.0
405.8080, 96729.00
407.0030, 89528.00
408.1980, 84425.00
409.3930, 81671.00
410.5880, 79938.00
411.7830, 79756.00
412.9770, 79716.00
414.1720, 80560.00
415.3660, 81720.00
416.5600, 82450.00
417.7530, 82982.00
418.9470, 82493.00
420.1410, 80959.00
421.3340, 79893.00
422.5270, 78483.00
423.7200, 78297.00
424.9130, 78614.00
426.1060, 79524.00
427.2980, 81199.00
428.4900, 83265.00
429.6830, 85491.00
430.8750, 89354.00
432.0670, 93469.00
433.2580, 98621.00
434.4500, 103227.0
435.6410, 105464.0
436.8320, 105125.0
438.0240, 102025.0
439.2140, 96963.00
440.4050, 91406.00
441.5960, 89417.00
442.7860, 86047.00
443.9760, 84912.00
445.1670, 84851.00
446.3560, 85122.00
447.5460, 84557.00
448.7360, 82455.00
449.9250, 80310.00
451.1150, 79244.00
452.3040, 77602.00
453.4930, 77337.00
454.6810, 77052.00
455.8700, 76936.00
457.0590, 77132.00
458.2470, 76778.00
459.4350, 76424.00
460.6230, 77110.00
461.8110, 77751.00
462.9980, 77417.00
464.1860, 77835.00
465.3730, 77837.00
466.5600, 77902.00
467.7470, 78314.00
468.9340, 79165.00
470.1210, 80147.00
471.3080, 81789.00
472.4940, 83813.00
473.6800, 86690.00
474.8660, 90697.00
476.0520, 95988.00
477.2380, 102853.0
478.4230, 112940.0
479.6090, 125703.0
480.7940, 142212.0
481.9790, 160849.0
483.1640, 181030.0
484.3490, 198427.0
485.5330, 201067.0
486.7180, 187836.0
487.9020, 165579.0
489.0860, 145723.0
490.2700, 130315.0
491.4540, 119171.0
492.6370, 110914.0
493.8210, 103667.0
495.0040, 98181.00
496.1870, 93424.00
497.3700, 90019.00
498.5530, 87854.00
499.7360, 86359.00
500.9180, 85000.00
502.1000, 84736.00
503.2830, 84352.00
504.4650, 84581.00
505.6460, 84551.00
506.8280, 85355.00
508.0100, 85447.00
509.1910, 86000.00
510.3720, 85928.00
511.5530, 86333.00
512.7340, 84814.00
513.9150, 83813.00
515.0950, 82030.00
516.2760, 80696.00
517.4560, 80256.00
518.6360, 79478.00
519.8160, 79172.00
520.9950, 79055.00
522.1750, 78797.00
523.3540, 78367.00
524.5340, 78684.00
525.7130, 78081.00
526.8920, 78211.00
528.0700, 78277.00
529.2490, 78636.00
530.4270, 78599.00
531.6060, 78455.00
532.7840, 78617.00
533.9620, 78435.00
535.1390, 78750.00
536.3170, 79030.00
537.4940, 79349.00
538.6720, 79347.00
539.8490, 80066.00
541.0260, 80150.00
542.2030, 80247.00
543.3790, 80790.00
544.5560, 81050.00
545.7320, 81021.00
546.9080, 80743.00
548.0840, 80852.00
549.2600, 80593.00
550.4360, 80616.00
551.6110, 81054.00
552.7860, 81478.00
553.9620, 82255.00
555.1370, 83191.00
556.3110, 83802.00
557.4860, 85716.00
558.6610, 87313.00
559.8350, 89321.00
561.0090, 90395.00
562.1830, 90753.00
563.3570, 89130.00
564.5310, 87624.00
565.7040, 85863.00
566.8780, 85119.00
568.0510, 84346.00
569.2240, 84412.00
570.3970, 84311.00
571.5700, 84698.00
572.7420, 84367.00
573.9150, 84254.00
575.0870, 84456.00
576.2590, 84785.00
577.4310, 85639.00
578.6030, 86590.00
579.7740, 87170.00
580.9460, 88305.00
582.1170, 89146.00
583.2880, 90505.00
584.4590, 90442.00
585.6300, 89924.00
586.8010, 88570.00
587.9710, 86974.00
589.1410, 85478.00
590.3110, 84703.00
591.4810, 83698.00
592.6510, 83119.00
593.8210, 82697.00
594.9900, 83020.00
596.1600, 82943.00
597.3290, 83349.00
598.4980, 83780.00
599.6670, 83670.00
600.8350, 84082.00
602.0040, 84691.00
603.1720, 85849.00
604.3400, 85952.00
605.5080, 85840.00
606.6760, 85368.00
607.8440, 84651.00
609.0120, 84865.00
610.1790, 84520.00
611.3460, 84391.00
612.5130, 84430.00
613.6800, 84858.00
614.8470, 84921.00
616.0130, 85077.00
617.1800, 85050.00
618.3460, 84840.00
619.5120, 85093.00
620.6780, 85317.00
621.8440, 85460.00
623.0090, 85795.00
624.1750, 86102.00
625.3400, 86516.00
626.5050, 87192.00
627.6700, 87526.00
628.8350, 88271.00
629.9990, 89289.00
631.1640, 90420.00
632.3280, 91428.00
633.4920, 93224.00
634.6560, 93867.00
635.8200, 94638.00
636.9840, 93675.00
638.1470, 93279.00
639.3100, 91593.00
640.4730, 90118.00
641.6360, 88889.00
642.7990, 87817.00
643.9620, 86921.00
645.1240, 87586.00
646.2870, 86749.00
647.4490, 87034.00
648.6110, 87095.00
649.7730, 87149.00
650.9340, 87771.00
652.0960, 88531.00
653.2570, 88984.00
654.4180, 89307.00
655.5790, 89334.00
656.7400, 89289.00
657.9010, 89114.00
659.0620, 88855.00
660.2220, 88772.00
661.3820, 88419.00
662.5420, 88769.00
663.7020, 89605.00
664.8620, 89392.00
666.0210, 90331.00
667.1810, 91359.00
668.3400, 91465.00
669.4990, 91221.00
670.6580, 91337.00
671.8170, 90657.00
672.9750, 89357.00
674.1340, 88782.00
675.2920, 88332.00
676.4500, 87949.00
677.6080, 87580.00
678.7660, 87609.00
679.9230, 87610.00
681.0810, 87460.00
682.2380, 87394.44
683.3950, 87117.00
684.5520, 87137.00
685.7090, 86891.00
686.8660, 86798.00
688.0220, 86482.00
689.1780, 86836.00
690.3340, 86669.00
691.4900, 86793.00
692.6460, 86659.00
693.8020, 86865.00
694.9570, 87023.00
696.1130, 87002.05
697.2680, 87655.00
698.4230, 87256.00
699.5780, 87858.00
700.7320, 88379.00
701.8870, 88302.00
703.0410, 88060.00
704.1950, 88187.00
705.3490, 88675.00
706.5030, 88248.00
707.6570, 88499.00
708.8110, 87707.00
709.9640, 87988.00
711.1170, 87596.00
712.2700, 87749.00
713.4230, 87350.00
714.5760, 87265.00
715.7280, 86993.00
716.8810, 86981.00
718.0330, 86962.00
719.1850, 87211.00
720.3370, 87208.00
721.4890, 87350.62
722.6400, 87376.00
723.7920, 87613.00
724.9430, 87638.00
726.0940, 87786.00
727.2450, 87860.84
728.3960, 87476.00
729.5460, 87879.00
730.6970, 87852.00
731.8470, 87653.00
732.9970, 87875.00
734.1470, 87601.00
735.2970, 87918.00
736.4460, 87696.00
737.5960, 87340.00
738.7450, 87695.00
739.8940, 87450.00
741.0430, 87930.00
742.1920, 87710.00
743.3410, 87851.00
744.4890, 87875.00
745.6370, 87213.00
746.7850, 87568.00
747.9330, 87628.00
749.0810, 87379.00
750.2290, 87884.00
751.3760, 87471.00
752.5240, 87847.00
753.6710, 87531.00
754.8180, 87551.00
755.9650, 87678.00
757.1110, 87249.00
758.2580, 87406.00
759.4040, 87242.00
760.5510, 87249.00
761.6970, 87207.00
762.8420, 87097.00
763.9880, 87199.00
765.1340, 87096.00
766.2790, 87323.00
767.4240, 87224.00
768.5690, 87215.00
769.7140, 87644.00
770.8590, 87646.00
772.0030, 87376.00
773.1480, 87632.70
774.2920, 87420.00
775.4360, 87453.00
776.5800, 87885.00
777.7240, 87246.00
778.8670, 87414.00
780.0110, 87142.00
781.1540, 87412.00
782.2970, 87479.00
783.4400, 87845.00
784.5830, 87963.00
785.7250, 87785.00
786.8680, 87586.00
788.0100, 87982.00
789.1520, 87870.00
790.2940, 88077.00
791.4360, 88122.00
792.5780, 87743.00
793.7190, 88116.00
794.8600, 88053.00
796.0010, 88229.00
797.1420, 88277.00
798.2830, 88389.87
799.4240, 88501.29
800.5640, 88672.00
801.7050, 88649.00
802.8450, 88793.00
803.9850, 88755.00
805.1250, 89002.00
806.2640, 88741.00
807.4040, 89355.00
808.5430, 89260.00
809.6820, 89503.00
810.8210, 89257.00
811.9600, 89356.94
813.0990, 89607.00
814.2370, 89429.00
815.3760, 89429.00
816.5140, 89560.00
817.6520, 89716.00
818.7900, 89888.00
819.9270, 90081.00
821.0650, 89668.00
822.2020, 89782.00
823.3390, 90229.00
824.4760, 89991.00
825.6130, 90479.00
826.7500, 90102.00
827.8870, 90645.00
829.0230, 90316.00
830.1590, 90350.00
831.2950, 90950.00
832.4310, 90705.00
833.5670, 90902.00
834.7030, 90765.00
835.8380, 91045.00
836.9730, 91275.00
838.1080, 91520.00
839.2430, 91483.00
840.3780, 91496.00
841.5130, 91345.00
842.6470, 91408.85
843.7810, 90952.00
844.9150, 91508.00
846.0490, 91366.00
847.1830, 91501.00
848.3170, 91969.00
849.4500, 92359.00
850.5830, 92601.00
851.7160, 92518.00
852.8490, 92878.00
853.9820, 92298.00
855.1150, 92717.00
856.2470, 93109.00
857.3800, 92771.00
858.5120, 93443.00
859.6440, 93093.00
860.7760, 93541.00
861.9070, 94021.00
863.0390, 93847.00
864.1700, 94167.00
865.3010, 94721.00
866.4320, 94747.00
867.5630, 95057.00
868.6940, 95829.00
869.8240, 95973.00
870.9540, 96420.00
872.0850, 96791.00
873.2150, 97012.00
874.3450, 97828.00
875.4740, 98246.00
876.6040, 98682.00
877.7330, 99499.00
878.8620, 100468.0
879.9910, 101400.0
881.1200, 102498.0
882.2490, 103784.0
883.3770, 105159.2
884.5060, 106677.0
885.6340, 108399.0
886.7620, 110336.0
887.8900, 112352.0
889.0180, 114079.0
890.1450, 115279.0
891.2730, 116512.0
892.4000, 116909.0
893.5270, 118372.0
894.6540, 119171.0
895.7810, 120833.0
896.9070, 123855.0
898.0340, 125325.0
899.1600, 126958.0
900.2860, 127037.0
901.4120, 126183.0
902.5380, 123969.0
903.6630, 120581.0
904.7890, 117052.0
905.9140, 114322.0
907.0390, 111750.5
908.1640, 109707.7
909.2890, 107894.0
910.4130, 106805.0
911.5380, 106141.0
912.6620, 105540.0
913.7860, 105213.0
914.9100, 105071.0
916.0340, 105831.0
917.1580, 106070.0
918.2810, 106061.0
919.4040, 106746.0
920.5280, 106771.0
921.6510, 107551.0
922.7730, 107676.0
923.8960, 108915.0
925.0180, 108805.0
926.1410, 109923.0
927.2630, 110428.0
928.3850, 111517.0
929.5070, 112341.0
930.6280, 113574.0
931.7500, 115414.0
932.8710, 116762.0
933.9920, 118323.0
935.1130, 120553.0
936.2340, 122442.0
937.3550, 124793.0
938.4760, 127942.0
939.5960, 130700.0
940.7160, 134528.0
941.8360, 138933.0
942.9560, 143253.0
944.0760, 148865.0
945.1950, 154144.0
946.3150, 159863.0
947.4340, 165169.0
948.5530, 169840.0
949.6720, 172114.0
950.7900, 172245.0
951.9090, 170932.0
953.0270, 167161.0
954.1460, 161456.0
955.2640, 156493.0
956.3820, 151537.0
957.4990, 147618.0
958.6170, 144755.0
959.7340, 141110.0
960.8520, 138927.0
961.9690, 135536.0
963.0860, 133619.0
964.2020, 130030.0
965.3190, 126968.0
966.4350, 124300.0
967.5520, 122078.0
968.6680, 119145.0
969.7840, 116962.0
970.8990, 115245.0
972.0150, 113291.0
973.1310, 112942.0
974.2460, 110897.0
975.3610, 110148.0
976.4760, 108813.0
977.5910, 107837.0
978.7050, 107247.1
979.8200, 106778.0
980.9340, 106270.0
982.0480, 105833.0
983.1620, 105652.0
984.2760, 105821.0
985.3900, 104771.0
986.5030, 105216.0
987.6160, 104825.0
988.7300, 104685.0
989.8430, 104555.0
990.9550, 104442.0
992.0680, 104836.0
993.1810, 104440.0
994.2930, 104733.0
995.4050, 104925.0
996.5170, 105647.0
997.6290, 105207.0
998.7410, 105704.0
999.8520, 105733.0
1000.964, 105855.0
1002.075, 105592.0
1003.186, 105121.0
1004.297, 104534.0
1005.407, 104469.0
1006.518, 103489.0
1007.628, 103466.0
1008.738, 103273.0
1009.848, 103236.0
1010.958, 102955.0
1012.068, 103195.0
1013.178, 103291.0
1014.287, 103007.0
1015.396, 102826.0
1016.505, 102847.0
1017.614, 103177.0
1018.723, 103094.0
1019.831, 102792.0
1020.940, 103202.0
1022.048, 102859.0
1023.156, 102746.0
1024.264, 102715.0
1025.372, 102910.0
1026.479, 102905.0
1027.587, 103306.0
1028.694, 102849.0
1029.801, 102660.0
1030.908, 103233.0
1032.015, 103116.0
1033.121, 102896.0
1034.228, 102508.0
1035.334, 102824.0
1036.440, 102422.0
1037.546, 102785.0
1038.652, 102675.0
1039.758, 102646.0
1040.863, 103167.0
1041.968, 102953.0
1043.074, 102817.0
1044.178, 102915.0
1045.283, 102604.0
1046.388, 102640.0
1047.492, 102390.0
1048.597, 103238.0
1049.701, 103105.0
1050.805, 103544.0
1051.909, 103129.0
1053.012, 103164.0
1054.116, 103378.0
1055.219, 103569.0
1056.322, 103916.0
1057.425, 103680.0
1058.528, 103359.0
1059.631, 103549.0
1060.733, 103641.0
1061.836, 103616.0
1062.938, 104041.0
1064.040, 103850.0
1065.142, 104461.0
1066.243, 103800.0
1067.345, 104222.0
1068.446, 103769.0
1069.547, 103955.0
1070.648, 104059.0
1071.749, 104305.0
1072.850, 104373.0
1073.951, 104209.0
1075.051, 104627.0
1076.151, 104405.0
1077.251, 105010.0
1078.351, 105082.0
1079.451, 105004.0
1080.550, 104646.0
1081.650, 104867.0
1082.749, 104833.0
1083.848, 105321.0
1084.947, 105217.0
1086.046, 105385.0
1087.144, 105081.0
1088.243, 105419.0
1089.341, 105472.0
1090.439, 105588.0
1091.537, 105616.0
1092.635, 105657.0
1093.732, 105468.0
1094.830, 105585.0
1095.927, 105592.0
1097.024, 105771.1
1098.121, 106007.0
1099.218, 106227.0
1100.314, 105901.0
1101.411, 105993.0
1102.507, 106180.0
1103.603, 106332.0
1104.699, 105853.0
1105.795, 106349.0
1106.890, 106500.0
1107.986, 106157.0
1109.081, 106757.0
1110.176, 106854.0
1111.271, 106448.0
1112.366, 106488.0
1113.461, 106542.0
1114.555, 106836.0
1115.649, 106703.0
1116.744, 107040.0
1117.838, 107008.0
1118.931, 107177.0
1120.025, 107364.0
1121.119, 106818.0
1122.212, 107686.0
1123.305, 107644.0
1124.398, 107139.0
1125.491, 107377.0
1126.584, 107423.0
1127.676, 107182.0
1128.768, 107362.0
1129.861, 107342.0
1130.953, 107795.0
1132.044, 107926.0
1133.136, 107644.0
1134.228, 107393.0
1135.319, 108185.0
1136.410, 107743.0
1137.501, 107927.0
1138.592, 108197.0
1139.683, 108096.0
1140.773, 108112.0
1141.864, 107967.0
1142.954, 108401.0
1144.044, 108770.0
1145.134, 108174.0
1146.224, 108351.0
1147.313, 109085.0
1148.402, 108299.0
1149.492, 108868.0
1150.581, 108448.0
1151.670, 108558.0
1152.758, 109034.0
1153.847, 109222.0
1154.935, 109136.0
1156.024, 109134.0
1157.112, 108882.0
1158.200, 108748.0
1159.287, 109022.0
1160.375, 109348.0
1161.462, 109170.0
1162.550, 109303.0
1163.637, 109682.0
1164.724, 109631.0
1165.810, 109827.0
1166.897, 109839.5
1167.983, 109875.0
1169.070, 109740.0
1170.156, 109850.0
1171.242, 109733.0
1172.327, 110417.0
1173.413, 110281.0
1174.499, 110255.0
1175.584, 110036.0
1176.669, 110125.0
1177.754, 110098.0
1178.839, 109997.0
1179.923, 110394.0
1181.008, 110119.0
1182.092, 110325.0
1183.176, 110803.0
1184.260, 110447.0
1185.344, 110776.0
1186.428, 111058.0
1187.511, 110579.0
1188.595, 111080.0
1189.678, 110872.0
1190.761, 110770.0
1191.843, 111256.0
1192.926, 110898.0
1194.009, 111487.0
1195.091, 110877.0
1196.173, 111251.0
1197.255, 111093.0
1198.337, 111501.0
1199.419, 111650.0
1200.500, 111369.0
1201.582, 111667.0
1202.663, 111691.0
1203.744, 112133.0
1204.825, 111814.0
1205.905, 111909.0
1206.986, 112059.0
1208.066, 111966.0
1209.146, 111881.0
1210.226, 112098.0
1211.306, 112116.0
1212.386, 112383.0
1213.466, 112087.0
1214.545, 113140.0
1215.624, 112598.0
1216.703, 112247.0
1217.782, 112908.0
1218.861, 112582.0
1219.939, 113588.0
1221.018, 112718.0
1222.096, 113249.0
1223.174, 113031.0
1224.252, 113173.0
1225.330, 113423.0
1226.407, 113182.0
1227.485, 113941.0
1228.562, 113981.0
1229.639, 113347.0
1230.716, 114075.0
1231.793, 113563.0
1232.869, 113706.0
1233.946, 113698.0
1235.022, 114107.0
1236.098, 113739.0
1237.174, 113795.0
1238.250, 114449.0
1239.325, 113898.0
1240.401, 113977.0
1241.476, 114335.0
1242.551, 114102.0
1243.626, 114025.0
1244.701, 114432.0
1245.776, 114718.0
1246.850, 114519.0
1247.924, 114317.0
1248.999, 114825.0
1250.073, 114723.0
1251.146, 114761.0
1252.220, 114708.0
1253.293, 115051.0
1254.367, 114929.0
1255.440, 114889.0
1256.513, 115290.0
1257.586, 115164.0
1258.658, 115018.0
1259.731, 115720.0
1260.803, 115202.0
