##NAMES=Kyanite
##RRUFFID=R050450
##IDEAL CHEMISTRY=Al_2_OSiO_4_
##LOCALITY=Switzerland
##OWNER=RRUFF
##SOURCE=Marcus Origlieri
##DESCRIPTION=Blue bladed crystals
##STATUS=The identification of this mineral has been confirmed by X-ray diffraction and chemical analysis
##URL=rruff.info/R050450
##MEASURED CHEMISTRY=Al_2.00_OSi_1.00_O_4_
##PIN_ID=M01855
##ORIENTATION=Laser parallel to (1 1 0). Fiducial mark perpendicular to laser is parallel to c [0 0 1]
148.7160, 18901.00
149.9470, 18933.00
151.1780, 18943.00
152.4080, 18877.00
153.6380, 18952.00
154.8690, 18986.00
156.0980, 18933.00
157.3280, 19137.00
158.5580, 18742.00
159.7870, 19025.00
161.0170, 19085.00
162.2460, 18902.00
163.4750, 19038.00
164.7030, 19103.00
165.9320, 19127.00
167.1600, 19361.00
168.3890, 19138.00
169.6170, 19036.00
170.8450, 19286.00
172.0730, 19083.00
173.3000, 19353.00
174.5280, 19309.00
175.7550, 19483.00
176.9820, 19467.00
178.2090, 19394.00
179.4350, 19354.00
180.6620, 19355.00
181.8880, 19329.00
183.1150, 19329.00
184.3410, 19319.00
185.5670, 19198.00
186.7920, 19379.00
188.0180, 19452.00
189.2430, 19405.00
190.4690, 19371.00
191.6940, 19568.00
192.9180, 19493.00
194.1430, 19468.00
195.3680, 19337.00
196.5920, 19627.00
197.8160, 19482.00
199.0400, 19702.00
200.2640, 19824.00
201.4880, 19863.00
202.7110, 20040.00
203.9350, 20138.00
205.1580, 20370.00
206.3810, 20557.00
207.6040, 20748.00
208.8270, 20728.00
210.0490, 20498.00
211.2710, 20163.00
212.4940, 20293.00
213.7160, 19941.00
214.9370, 19895.00
216.1590, 19862.00
217.3810, 19950.00
218.6020, 20054.00
219.8230, 19959.00
221.0440, 20150.00
222.2650, 20182.00
223.4860, 20443.00
224.7060, 20873.00
225.9260, 21131.00
227.1470, 21240.00
228.3670, 21095.00
229.5860, 20886.00
230.8060, 20624.00
232.0260, 20604.00
233.2450, 20331.00
234.4640, 20164.00
235.6830, 20065.00
236.9020, 20198.00
238.1200, 20302.00
239.3390, 20211.00
240.5570, 20371.00
241.7750, 20371.00
242.9930, 20486.00
244.2110, 20545.00
245.4290, 20465.00
246.6460, 20732.00
247.8630, 20707.00
249.0810, 20577.00
250.2980, 20702.00
251.5140, 20786.00
252.7310, 20595.00
253.9470, 20566.00
255.1640, 20462.00
256.3800, 20281.00
257.5960, 20644.00
258.8120, 20349.00
260.0270, 20603.00
261.2430, 20675.00
262.4580, 20648.00
263.6730, 20530.00
264.8880, 20470.00
266.1030, 20530.00
267.3170, 20911.00
268.5320, 20727.00
269.7460, 21083.00
270.9600, 21229.00
272.1740, 21126.00
273.3880, 21170.00
274.6010, 21745.00
275.8150, 22202.00
277.0280, 22519.00
278.2410, 22695.21
279.4540, 22725.84
280.6670, 22664.00
281.8790, 22460.00
283.0920, 22144.00
284.3040, 21871.00
285.5160, 21740.00
286.7280, 21936.00
287.9400, 22430.00
289.1510, 23060.00
290.3630, 24165.00
291.5740, 25174.00
292.7850, 26343.00
293.9960, 27377.00
295.2070, 27897.00
296.4170, 27738.00
297.6280, 28984.00
298.8380, 32020.00
300.0480, 35779.00
301.2580, 38980.00
302.4680, 40561.00
303.6770, 39261.00
304.8870, 35684.00
306.0960, 31295.00
307.3050, 27519.00
308.5140, 24885.00
309.7230, 23421.00
310.9310, 22505.00
312.1400, 22110.00
313.3480, 22240.00
314.5560, 22570.00
315.7640, 22787.00
316.9720, 23730.00
318.1790, 24416.00
319.3870, 25128.00
320.5940, 25642.00
321.8010, 26899.00
323.0080, 28971.00
324.2150, 31757.00
325.4210, 34499.00
326.6280, 36028.00
327.8340, 35009.00
329.0400, 32156.00
330.2460, 29164.00
331.4510, 26515.00
332.6570, 24156.00
333.8620, 23318.00
335.0680, 22600.00
336.2730, 22466.00
337.4780, 22079.00
338.6820, 22616.00
339.8870, 22710.00
341.0910, 23033.00
342.2950, 23105.00
343.5000, 23325.00
344.7030, 23027.00
345.9070, 22888.00
347.1110, 22518.00
348.3140, 22396.00
349.5170, 22488.00
350.7200, 22682.00
351.9230, 23076.00
353.1260, 23639.00
354.3290, 23818.00
355.5310, 23911.00
356.7330, 24785.00
357.9350, 26381.00
359.1370, 27779.00
360.3390, 29402.00
361.5400, 29599.00
362.7420, 28758.00
363.9430, 27441.00
365.1440, 25768.00
366.3450, 24403.00
367.5460, 23544.00
368.7460, 23488.00
369.9470, 23493.00
371.1470, 23822.00
372.3470, 24146.29
373.5470, 24749.00
374.7460, 25365.00
375.9460, 26255.00
377.1450, 27344.00
378.3450, 28525.00
379.5440, 29316.00
380.7430, 29947.00
381.9410, 31285.00
383.1400, 33951.00
384.3380, 36920.00
385.5370, 38962.00
386.7350, 39172.00
387.9320, 37983.00
389.1300, 35889.00
390.3280, 34413.00
391.5250, 34126.00
392.7220, 34451.00
393.9190, 34008.00
395.1160, 32597.00
396.3130, 31062.00
397.5100, 29421.00
398.7060, 28172.00
399.9020, 28162.00
401.0980, 29386.00
402.2940, 31654.00
403.4900, 33948.00
404.6860, 35892.00
405.8810, 35566.00
407.0760, 33720.00
408.2710, 31020.00
409.4660, 28239.00
410.6610, 26099.00
411.8550, 24844.00
413.0500, 24082.00
414.2440, 23582.00
415.4380, 23585.00
416.6320, 23500.00
417.8260, 23483.00
419.0190, 23839.00
420.2130, 23998.00
421.4060, 24088.00
422.5990, 23905.00
423.7920, 23733.00
424.9850, 23618.00
426.1770, 23625.00
427.3700, 23952.00
428.5620, 24567.00
429.7540, 25269.00
430.9460, 26421.00
432.1380, 27291.00
433.3290, 29120.00
434.5210, 30617.00
435.7120, 32876.00
436.9030, 34934.00
438.0940, 37207.00
439.2850, 37842.00
440.4750, 37138.00
441.6660, 35104.00
442.8560, 32315.00
444.0460, 29932.00
445.2360, 28613.00
446.4260, 27929.00
447.6160, 27824.00
448.8050, 28061.00
449.9940, 27877.00
451.1830, 27426.00
452.3720, 26485.00
453.5610, 25377.00
454.7500, 24716.00
455.9380, 24115.00
457.1260, 23997.00
458.3150, 23820.00
459.5020, 23980.00
460.6900, 23927.00
461.8780, 24015.00
463.0650, 24432.00
464.2530, 24756.00
465.4400, 24869.00
466.6270, 25152.00
467.8130, 25108.00
469.0000, 25030.00
470.1870, 24929.00
471.3730, 25036.00
472.5590, 25045.00
473.7450, 25216.00
474.9310, 25816.00
476.1160, 26951.00
477.3020, 28281.00
478.4870, 30761.00
479.6720, 33625.00
480.8570, 36737.00
482.0420, 39592.00
483.2270, 44678.00
484.4110, 51161.00
485.5960, 58529.00
486.7800, 64029.00
487.9640, 65073.00
489.1480, 61753.00
490.3310, 55192.00
491.5150, 48105.00
492.6980, 42324.00
493.8810, 37441.00
495.0640, 34342.00
496.2470, 31815.00
497.4300, 29922.00
498.6120, 28399.00
499.7950, 27173.00
500.9770, 26623.00
502.1590, 26041.00
503.3410, 25701.00
504.5220, 25431.25
505.7040, 25179.00
506.8850, 25215.00
508.0660, 25195.00
509.2470, 25283.00
510.4280, 25342.00
511.6090, 25266.00
512.7890, 25407.00
513.9700, 25405.00
515.1500, 25202.00
516.3300, 24885.00
517.5100, 24671.00
518.6900, 24468.00
519.8690, 24279.00
521.0490, 24186.00
522.2280, 23977.00
523.4070, 23948.00
524.5860, 24013.00
525.7640, 23819.00
526.9430, 24149.00
528.1210, 23932.00
529.3000, 23861.00
530.4780, 23982.00
531.6560, 24110.00
532.8330, 23893.00
534.0110, 23911.00
535.1880, 23894.00
536.3650, 23811.00
537.5430, 23795.00
538.7190, 23929.00
539.8960, 24144.00
541.0730, 24131.00
542.2490, 24419.00
543.4250, 24320.00
544.6020, 24228.00
545.7780, 24405.00
546.9530, 24644.00
548.1290, 24376.00
549.3040, 24287.00
550.4800, 24503.00
551.6550, 24640.00
552.8300, 24450.00
554.0040, 24415.00
555.1790, 24494.00
556.3540, 24962.00
557.5280, 25043.00
558.7020, 25446.00
559.8760, 25749.00
561.0500, 26512.00
562.2230, 27299.00
563.3970, 27778.00
564.5700, 27502.00
565.7430, 27285.00
566.9160, 26520.00
568.0890, 26155.00
569.2620, 25526.00
570.4340, 25166.00
571.6070, 25142.00
572.7790, 24884.00
573.9510, 25107.00
575.1230, 24768.00
576.2940, 24882.00
577.4660, 24960.00
578.6370, 24809.00
579.8080, 24796.00
580.9790, 24914.00
582.1500, 24852.00
583.3210, 24940.00
584.4910, 25187.00
585.6620, 25237.00
586.8320, 25371.00
588.0020, 25244.00
589.1720, 25270.00
590.3410, 25138.00
591.5110, 25191.00
592.6800, 25189.00
593.8500, 25167.00
595.0190, 25300.00
596.1880, 25417.00
597.3560, 25606.00
598.5250, 25865.00
599.6930, 26191.16
600.8620, 26657.00
602.0300, 27078.00
603.1970, 27608.00
604.3650, 28277.00
605.5330, 28662.00
606.7000, 28995.00
607.8680, 29209.00
609.0350, 29071.00
610.2020, 28475.00
611.3680, 28160.00
612.5350, 27433.00
613.7010, 27657.00
614.8680, 27280.00
616.0340, 27618.00
617.2000, 27699.00
618.3660, 27900.00
619.5310, 27630.00
620.6970, 27949.00
621.8620, 27744.00
623.0270, 27825.00
624.1920, 27849.00
625.3570, 27939.00
626.5220, 28196.00
627.6860, 28355.00
628.8500, 28550.00
630.0140, 28387.00
631.1780, 28722.00
632.3420, 28587.00
633.5060, 28742.00
634.6700, 28434.00
635.8330, 28654.00
636.9960, 28898.00
638.1590, 28979.00
639.3220, 28757.00
640.4850, 28759.00
641.6470, 28186.00
642.8100, 27870.00
643.9720, 27486.00
645.1340, 27451.00
646.2960, 27380.00
647.4570, 27446.00
648.6190, 27589.00
649.7800, 27811.00
650.9420, 28238.00
652.1030, 28278.00
653.2640, 28883.00
654.4240, 29184.00
655.5850, 29516.00
656.7450, 29791.00
657.9060, 29864.00
659.0660, 29626.00
660.2260, 29474.00
661.3850, 28690.00
662.5450, 28127.00
663.7040, 27655.00
664.8640, 27349.00
666.0230, 26965.00
667.1820, 27050.00
668.3410, 27097.00
669.4990, 27058.00
670.6580, 27177.00
671.8160, 27103.00
672.9740, 26902.00
674.1320, 26614.00
675.2900, 26299.00
676.4480, 26280.00
677.6050, 26211.00
678.7630, 26172.00
679.9200, 26156.32
681.0770, 26108.55
682.2340, 26159.00
683.3900, 26060.00
684.5470, 26122.00
685.7030, 26131.00
686.8590, 26016.00
688.0150, 25900.00
689.1710, 25784.00
690.3270, 25779.00
691.4830, 25890.00
692.6380, 25836.00
693.7930, 25896.59
694.9480, 25904.00
696.1030, 25968.00
697.2580, 26020.00
698.4130, 26074.00
699.5670, 26191.00
700.7210, 26249.00
701.8750, 26528.00
703.0290, 26370.00
704.1830, 26527.00
705.3370, 26371.00
706.4900, 26290.00
707.6430, 26245.00
708.7970, 26353.00
709.9490, 26266.00
711.1020, 26216.00
712.2550, 26336.00
713.4070, 26282.00
714.5600, 26368.00
715.7120, 26176.00
716.8640, 26313.00
718.0160, 26290.00
719.1670, 26368.00
720.3190, 26624.00
721.4700, 26354.00
722.6210, 26632.00
723.7720, 26864.00
724.9230, 26851.00
726.0740, 26753.00
727.2250, 26767.00
728.3750, 26805.00
729.5250, 26719.00
730.6750, 26646.00
731.8250, 26799.00
732.9750, 26716.00
734.1240, 26475.00
735.2740, 26561.00
736.4230, 26582.00
737.5720, 26616.00
738.7210, 26723.00
739.8700, 26698.90
741.0190, 26725.00
742.1670, 26706.00
743.3150, 26609.00
744.4630, 26620.00
745.6110, 26572.00
746.7590, 26737.00
747.9070, 26895.00
749.0540, 26705.00
750.2020, 26885.00
751.3490, 26821.00
752.4960, 26877.00
753.6430, 26790.00
754.7890, 26779.00
755.9360, 26781.00
757.0820, 26827.00
758.2280, 26978.00
759.3740, 26873.00
760.5200, 27019.00
761.6660, 26983.00
762.8120, 27066.00
763.9570, 26915.00
765.1020, 26976.46
766.2470, 26851.00
767.3920, 27051.00
768.5370, 26941.00
769.6810, 27077.00
770.8260, 27430.00
771.9700, 27040.00
773.1140, 27220.00
774.2580, 27419.00
775.4020, 27308.00
776.5460, 27233.00
777.6890, 27490.00
778.8320, 27205.00
779.9750, 27273.00
781.1180, 27263.00
782.2610, 27300.00
783.4040, 27420.00
784.5460, 27388.00
785.6890, 27485.23
786.8310, 27550.00
787.9730, 27493.00
789.1150, 27715.00
790.2560, 27467.00
791.3980, 27509.00
792.5390, 27266.00
793.6810, 27683.00
794.8220, 27566.00
795.9630, 27636.00
797.1030, 27728.00
798.2440, 27566.00
799.3840, 27790.00
800.5240, 27732.00
801.6650, 27816.00
802.8040, 28011.00
803.9440, 27718.00
805.0840, 28022.00
806.2230, 27813.00
807.3630, 28131.00
808.5020, 27834.00
809.6410, 27864.00
810.7790, 27960.00
811.9180, 28116.00
813.0570, 27897.00
814.1950, 28133.00
815.3330, 27968.00
816.4710, 28153.00
817.6090, 28380.00
818.7470, 28370.00
819.8840, 28278.00
821.0220, 28201.00
822.1590, 28067.00
823.2960, 28104.53
824.4330, 28443.00
825.5690, 28257.00
826.7060, 28355.00
827.8420, 28609.00
828.9790, 28484.00
830.1150, 28592.00
831.2510, 28507.00
832.3860, 28449.00
833.5220, 28671.00
834.6570, 28660.00
835.7930, 28679.00
836.9280, 28811.00
838.0630, 28784.00
839.1980, 28854.00
840.3320, 29045.00
841.4670, 29191.00
842.6010, 29221.28
843.7350, 29294.00
844.8690, 29351.00
846.0030, 29368.23
847.1370, 29331.00
848.2700, 29453.00
849.4040, 29359.00
850.5370, 29494.00
851.6700, 29564.00
852.8030, 29431.00
853.9360, 29699.00
855.0680, 29797.00
856.2000, 29686.00
857.3330, 29863.00
858.4650, 29923.33
859.5970, 30363.00
860.7290, 30200.00
861.8600, 30385.00
862.9920, 30612.00
864.1230, 30387.00
865.2540, 30455.00
866.3850, 30431.00
867.5160, 30460.00
868.6460, 30407.00
869.7770, 30709.00
870.9070, 30649.38
872.0370, 30467.00
873.1670, 30756.00
874.2970, 30860.00
875.4270, 30960.00
876.5570, 31117.00
877.6860, 31316.22
878.8150, 31585.00
879.9440, 31809.00
881.0730, 32065.00
882.2020, 32377.00
883.3300, 32953.00
884.4590, 33362.00
885.5870, 34017.00
886.7150, 34739.00
887.8430, 35470.00
888.9710, 35746.00
890.0990, 36105.00
891.2260, 36356.00
892.3530, 36154.00
893.4810, 35726.00
894.6080, 35391.00
895.7340, 34582.00
896.8610, 34170.00
897.9880, 33841.00
899.1140, 33394.00
900.2400, 33375.00
901.3660, 33222.00
902.4920, 33004.00
903.6180, 33053.00
904.7430, 32923.00
905.8690, 32742.00
906.9940, 32682.00
908.1190, 32634.00
909.2440, 32294.00
910.3690, 32560.00
911.4930, 32306.00
912.6180, 32439.00
913.7420, 32607.00
914.8660, 32500.00
915.9900, 32483.00
917.1140, 32309.00
918.2380, 32647.00
919.3610, 32523.00
920.4850, 33148.00
921.6080, 33232.00
922.7310, 33349.00
923.8540, 33456.00
924.9760, 33730.98
926.0990, 34008.00
927.2210, 34416.00
928.3440, 34816.00
929.4660, 35339.00
930.5880, 35582.00
931.7090, 36045.00
932.8310, 36800.00
933.9520, 37830.00
935.0740, 38322.00
936.1950, 39485.00
937.3160, 40029.00
938.4360, 41235.00
939.5570, 42222.00
940.6780, 43011.00
941.7980, 44072.00
942.9180, 45291.00
944.0380, 46587.00
945.1580, 48737.00
946.2780, 50034.00
947.3970, 51889.00
948.5170, 53538.00
949.6360, 54677.00
950.7550, 56193.00
951.8740, 56164.00
952.9930, 56683.00
954.1110, 56344.00
955.2300, 55468.00
956.3480, 54925.00
957.4660, 53676.00
958.5840, 52746.00
959.7020, 52397.00
960.8190, 52169.00
961.9370, 52231.00
963.0540, 51403.00
964.1710, 50488.00
965.2880, 49168.00
966.4050, 47357.00
967.5220, 45635.00
968.6380, 43932.00
969.7550, 42349.00
970.8710, 41023.34
971.9870, 39790.34
973.1030, 38724.00
974.2190, 37804.00
975.3340, 37012.00
976.4500, 36299.00
977.5650, 36076.00
978.6800, 35479.00
979.7950, 35045.00
980.9100, 34878.00
982.0250, 34506.00
983.1390, 34604.00
984.2530, 34049.00
985.3680, 34124.00
986.4820, 34016.00
987.5950, 33906.00
988.7090, 34042.00
989.8230, 33823.00
990.9360, 34395.00
992.0490, 33910.00
993.1620, 34346.00
994.2750, 34763.00
995.3880, 35095.00
996.5010, 35900.00
997.6130, 36338.00
998.7250, 37091.00
999.8370, 37815.00
1000.949, 38471.00
1002.061, 39087.00
1003.173, 38844.00
1004.284, 38360.00
1005.396, 37574.00
1006.507, 36777.00
1007.618, 35528.00
1008.729, 34874.00
1009.839, 34378.00
1010.950, 34460.00
1012.060, 34097.00
1013.171, 34035.00
1014.281, 33811.00
1015.391, 33563.00
1016.500, 33537.00
1017.610, 33686.00
1018.719, 33347.00
1019.829, 33598.00
1020.938, 33408.00
1022.047, 33542.00
1023.156, 33615.00
1024.264, 33711.00
1025.373, 33534.00
1026.481, 33811.00
1027.589, 33479.00
1028.697, 33516.00
1029.805, 33478.00
1030.913, 33423.00
1032.020, 33319.00
1033.128, 33506.00
1034.235, 33189.00
1035.342, 33507.00
1036.449, 33187.00
1037.556, 33253.00
1038.663, 33372.00
1039.769, 33322.00
1040.875, 33304.00
1041.981, 33396.00
1043.087, 33453.00
1044.193, 33578.00
1045.299, 33586.40
1046.404, 33488.00
1047.510, 33635.00
1048.615, 33427.00
1049.720, 33469.00
1050.825, 33480.00
1051.930, 33487.34
1053.034, 33657.00
1054.139, 33636.00
1055.243, 33697.00
1056.347, 33768.00
1057.451, 33689.00
1058.555, 33785.00
1059.658, 33771.85
1060.762, 33945.00
1061.865, 33785.00
1062.968, 33853.00
1064.071, 33850.00
1065.174, 34236.00
1066.277, 33932.00
1067.380, 33942.00
1068.482, 34160.00
1069.584, 33875.00
1070.686, 33909.00
1071.788, 33990.00
1072.890, 34251.00
1073.992, 34162.00
1075.093, 34213.00
1076.194, 34286.59
1077.295, 34232.00
1078.396, 34335.00
1079.497, 34361.00
1080.598, 34363.00
1081.698, 34635.00
1082.799, 34748.00
1083.899, 34789.00
1084.999, 34767.00
1086.099, 34841.00
1087.199, 34874.00
1088.298, 34929.00
1089.398, 34833.00
1090.497, 34728.00
1091.596, 34601.00
1092.695, 34945.00
1093.794, 35018.00
1094.892, 34964.00
1095.991, 34929.00
1097.089, 34728.00
1098.187, 34825.00
1099.285, 34795.00
1100.383, 34746.00
1101.481, 34904.00
1102.579, 34932.00
1103.676, 35043.00
1104.773, 35263.00
1105.870, 35075.00
1106.967, 35000.00
1108.064, 35349.00
1109.161, 35147.00
1110.257, 35385.00
1111.353, 35314.00
1112.449, 35537.00
1113.545, 35355.00
1114.641, 35191.00
1115.737, 35164.00
1116.832, 35302.00
1117.928, 35272.00
1119.023, 35355.79
1120.118, 35440.24
1121.213, 35522.00
1122.308, 35530.00
1123.402, 35665.00
1124.497, 35542.00
1125.591, 36022.00
1126.685, 35535.00
1127.779, 35755.00
1128.873, 35560.00
1129.967, 35892.00
1131.060, 35611.00
1132.153, 35799.00
1133.247, 35803.00
1134.340, 35999.00
1135.433, 35868.00
1136.525, 35932.00
1137.618, 35915.00
1138.710, 35891.00
1139.802, 35805.00
1140.895, 35913.00
1141.987, 36024.00
1143.078, 36051.00
1144.170, 35849.00
1145.261, 35993.00
1146.353, 36037.00
1147.444, 35932.00
1148.535, 36238.00
1149.626, 36074.00
1150.716, 36550.00
1151.807, 36079.00
1152.897, 35975.00
1153.988, 36398.00
1155.078, 36226.00
1156.168, 36451.00
1157.257, 36534.00
1158.347, 36684.00
1159.436, 36856.00
1160.526, 36326.00
1161.615, 36445.00
1162.704, 36440.00
1163.793, 36589.00
1164.881, 36711.00
1165.970, 36755.00
1167.058, 36813.00
1168.147, 36860.00
1169.235, 36844.00
1170.323, 36974.00
1171.410, 36884.00
1172.498, 37218.00
1173.585, 36911.00
1174.673, 37260.00
1175.760, 37259.00
1176.847, 37322.00
1177.934, 37297.00
1179.020, 37094.00
1180.107, 37243.00
1181.193, 37455.00
1182.279, 37351.00
1183.365, 37145.00
1184.451, 37467.00
1185.537, 37674.00
1186.623, 37467.00
1187.708, 37683.00
1188.793, 37414.00
1189.878, 37426.00
1190.963, 37412.00
1192.048, 37448.00
1193.133, 37580.00
1194.217, 37697.00
1195.302, 37708.69
1196.386, 37936.00
1197.470, 37689.00
1198.554, 37833.00
1199.638, 37693.00
1200.721, 38082.00
1201.805, 38013.00
1202.888, 37910.00
1203.971, 38039.00
1205.054, 37924.00
1206.137, 38020.00
1207.219, 38098.00
1208.302, 38136.00
1209.384, 38109.00
1210.466, 38102.00
1211.548, 38150.00
1212.630, 38304.00
1213.712, 38260.00
1214.794, 38442.00
1215.875, 38607.00
1216.956, 38692.00
1218.037, 38841.00
1219.118, 38577.00
1220.199, 38597.00
1221.280, 38766.00
1222.360, 38982.00
1223.441, 38843.00
1224.521, 38883.00
1225.601, 39047.00
1226.681, 38721.00
1227.760, 39046.00
1228.840, 38829.00
1229.919, 39126.00
1230.999, 38899.00
1232.078, 39189.00
1233.157, 39540.00
1234.236, 39191.00
1235.314, 39471.00
1236.393, 39295.00
1237.471, 39514.00
1238.549, 39458.00
1239.627, 39543.00
1240.705, 39810.00
1241.783, 39373.00
1242.860, 39907.00
1243.938, 39701.00
1245.015, 39759.00
1246.092, 39879.00
1247.169, 39638.00
1248.246, 39923.00
1249.323, 39964.00
1250.399, 39929.00
1251.475, 40146.00
1252.552, 40044.00
1253.628, 40054.00
1254.703, 39835.00
1255.779, 40168.00
1256.855, 40355.00
1257.930, 40045.00
1259.005, 40238.00
1260.080, 40526.00
1261.155, 40709.00
1262.230, 40446.00
1263.305, 40471.00
1264.379, 40517.00
1265.454, 40574.00
1266.528, 40842.00
1267.602, 41018.00
1268.676, 41098.00
1269.750, 40884.00
1270.823, 41086.00
1271.897, 41183.00
1272.970, 40961.00
1274.043, 41080.00
1275.116, 41274.00
1276.189, 41034.00
1277.261, 41103.00
1278.334, 41107.00
1279.406, 41393.00
1280.478, 41132.00
1281.550, 41322.00
1282.622, 41487.00
1283.694, 41252.00
1284.766, 41201.00
1285.837, 41228.00
1286.908, 41227.57
1287.979, 41333.07
1289.050, 41386.00
1290.121, 41583.00
1291.192, 41598.00
1292.262, 41686.00
1293.333, 41870.00
1294.403, 41753.00
1295.473, 42135.00
1296.543, 42036.00
1297.613, 41933.00
1298.682, 42143.00
1299.752, 42029.00
1300.821, 42159.00
1301.890, 41980.00
1302.959, 42216.00
1304.028, 42240.00
1305.096, 42134.00
1306.165, 42446.00
1307.233, 42445.00
1308.301, 42656.00
1309.370, 42403.00
1310.437, 42345.00
1311.505, 42845.00
1312.573, 42493.00
1313.640, 42716.00
1314.708, 42696.00
1315.775, 42740.00
1316.842, 43122.00
1317.908, 43154.00
1318.975, 42973.00
1320.042, 42917.00
1321.108, 43188.00
1322.174, 43088.00
1323.240, 43050.00
1324.306, 43068.00
1325.372, 43027.99
1326.438, 43053.66
