##NAMES=Kyanite
##RRUFFID=R050450
##IDEAL CHEMISTRY=Al_2_OSiO_4_
##LOCALITY=Switzerland
##OWNER=RRUFF
##SOURCE=Marcus Origlieri
##DESCRIPTION=Blue bladed crystals
##STATUS=The identification of this mineral has been confirmed by X-ray diffraction and chemical analysis
##URL=rruff.info/R050450
##MEASURED CHEMISTRY=Al_2.00_OSi_1.00_O_4_
##PIN_ID=M01855
##ORIENTATION=Laser parallel to (1 1 0). Fiducial mark perpendicular to laser is parallel to c [0 0 1]
148.7160, 5868.000
149.9470, 5791.000
151.1780, 5900.000
152.4080, 5832.000
153.6380, 5849.000
154.8690, 5815.548
156.0980, 5731.000
157.3280, 5736.000
158.5580, 5663.000
159.7870, 5694.000
161.0170, 5660.000
162.2460, 5692.000
163.4750, 5662.000
164.7030, 5801.000
165.9320, 5722.000
167.1600, 5790.000
168.3890, 5731.000
169.6170, 5667.000
170.8450, 5791.000
172.0730, 5715.000
173.3000, 5896.000
174.5280, 5756.000
175.7550, 5821.000
176.9820, 5838.000
178.2090, 5767.000
179.4350, 5762.000
180.6620, 5687.000
181.8880, 5685.000
183.1150, 5576.000
184.3410, 5505.000
185.5670, 5556.000
186.7920, 5593.000
188.0180, 5560.000
189.2430, 5491.000
190.4690, 5557.000
191.6940, 5496.000
192.9180, 5592.000
194.1430, 5563.000
195.3680, 5643.000
196.5920, 5814.000
197.8160, 5884.000
199.0400, 5897.000
200.2640, 5999.000
201.4880, 6159.777
202.7110, 6237.000
203.9350, 6597.000
205.1580, 6820.000
206.3810, 7149.000
207.6040, 7214.000
208.8270, 7168.000
210.0490, 6665.000
211.2710, 6535.000
212.4940, 5999.000
213.7160, 5743.000
214.9370, 5836.000
216.1590, 5719.000
217.3810, 5781.000
218.6020, 5997.000
219.8230, 5939.000
221.0440, 5955.000
222.2650, 6188.000
223.4860, 6465.000
224.7060, 6709.000
225.9260, 6930.000
227.1470, 6901.000
228.3670, 6860.000
229.5860, 6706.000
230.8060, 6221.000
232.0260, 6088.000
233.2450, 5809.000
234.4640, 5765.000
235.6830, 5752.000
236.9020, 5714.000
238.1200, 5807.000
239.3390, 5784.000
240.5570, 5853.000
241.7750, 5918.000
242.9930, 6068.000
244.2110, 6178.000
245.4290, 6194.000
246.6460, 6187.000
247.8630, 6206.000
249.0810, 6211.000
250.2980, 6113.000
251.5140, 6161.000
252.7310, 6110.000
253.9470, 5954.000
255.1640, 5921.000
256.3800, 5722.000
257.5960, 5675.000
258.8120, 5815.000
260.0270, 5949.000
261.2430, 5858.000
262.4580, 5745.000
263.6730, 6020.000
264.8880, 5854.354
266.1030, 6174.000
267.3170, 5815.000
268.5320, 6022.000
269.7460, 6093.000
270.9600, 6142.000
272.1740, 6237.000
273.3880, 6362.000
274.6010, 6781.000
275.8150, 7174.000
277.0280, 7603.000
278.2410, 7784.000
279.4540, 7773.000
280.6670, 7446.000
281.8790, 7102.000
283.0920, 6618.000
284.3040, 6610.000
285.5160, 6629.000
286.7280, 6815.000
287.9400, 7302.000
289.1510, 7871.000
290.3630, 8929.000
291.5740, 10315.00
292.7850, 11715.00
293.9960, 12540.00
295.2070, 12391.00
296.4170, 13148.00
297.6280, 15645.00
298.8380, 18889.00
300.0480, 23118.00
301.2580, 25961.00
302.4680, 26244.00
303.6770, 23407.00
304.8870, 18805.00
306.0960, 14173.00
307.3050, 10678.00
308.5140, 8597.000
309.7230, 7456.000
310.9310, 7068.000
312.1400, 6832.000
313.3480, 6837.000
314.5560, 7243.000
315.7640, 7904.000
316.9720, 8743.000
318.1790, 9722.000
319.3870, 9946.000
320.5940, 10688.00
321.8010, 12470.00
323.0080, 15020.00
324.2150, 17920.00
325.4210, 20073.00
326.6280, 20564.00
327.8340, 18682.00
329.0400, 15554.00
330.2460, 12254.00
331.4510, 9660.000
332.6570, 8006.000
333.8620, 7219.000
335.0680, 6731.000
336.2730, 6545.000
337.4780, 6507.000
338.6820, 6658.000
339.8870, 6841.000
341.0910, 6968.000
342.2950, 7091.000
343.5000, 6953.000
344.7030, 6789.000
345.9070, 6649.000
347.1110, 6494.000
348.3140, 6506.000
349.5170, 6670.000
350.7200, 7015.000
351.9230, 7613.000
353.1260, 7897.000
354.3290, 8098.000
355.5310, 8664.000
356.7330, 9712.000
357.9350, 11038.00
359.1370, 12545.00
360.3390, 13383.00
361.5400, 13203.00
362.7420, 12259.00
363.9430, 10436.00
365.1440, 9073.000
366.3450, 7924.000
367.5460, 7784.000
368.7460, 7976.000
369.9470, 8388.000
371.1470, 8988.000
372.3470, 9565.000
373.5470, 10318.00
374.7460, 11518.00
375.9460, 12961.00
377.1450, 14882.00
378.3450, 16188.00
379.5440, 16686.00
380.7430, 18386.00
381.9410, 21103.00
383.1400, 25198.00
384.3380, 28671.00
385.5370, 30875.00
386.7350, 29605.00
387.9320, 26630.00
389.1300, 24242.00
390.3280, 22550.00
391.5250, 22207.00
392.7220, 22059.00
393.9190, 20823.00
395.1160, 18776.00
396.3130, 16575.00
397.5100, 14530.00
398.7060, 13479.00
399.9020, 14101.00
401.0980, 16209.00
402.2940, 19202.00
403.4900, 21901.00
404.6860, 22938.00
405.8810, 21814.00
407.0760, 18517.00
408.2710, 14767.00
409.4660, 11680.00
410.6610, 9392.000
411.8550, 8052.000
413.0500, 7257.000
414.2440, 6906.000
415.4380, 6634.000
416.6320, 6621.000
417.8260, 6475.000
419.0190, 6430.000
420.2130, 6462.000
421.4060, 6474.000
422.5990, 6468.000
423.7920, 6463.000
424.9850, 6766.000
426.1770, 7030.000
427.3700, 7726.000
428.5620, 8244.000
429.7540, 9322.000
430.9460, 10482.00
432.1380, 12051.00
433.3290, 13705.00
434.5210, 15747.00
435.7120, 18505.00
436.9030, 20708.00
438.0940, 22065.00
439.2850, 22084.00
440.4750, 20588.00
441.6660, 17802.00
442.8560, 15005.00
444.0460, 13016.00
445.2360, 12128.00
446.4260, 12255.00
447.6160, 12605.00
448.8050, 12840.00
449.9940, 12268.00
451.1830, 11136.00
452.3720, 9871.000
453.5610, 8677.000
454.7500, 7831.000
455.9380, 7393.000
457.1260, 7301.000
458.3150, 7335.000
459.5020, 7408.000
460.6900, 7716.000
461.8780, 8040.000
463.0650, 8456.000
464.2530, 8921.000
465.4400, 9356.000
466.6270, 9426.000
467.8130, 9375.000
469.0000, 9121.000
470.1870, 8888.000
471.3730, 8825.000
472.5590, 8941.000
473.7450, 9528.000
474.9310, 10476.00
476.1160, 11948.00
477.3020, 14750.00
478.4870, 18264.00
479.6720, 22413.00
480.8570, 25784.00
482.0420, 30713.00
483.2270, 38539.00
484.4110, 48043.00
485.5960, 56386.00
486.7800, 61022.00
487.9640, 59334.00
489.1480, 52425.00
490.3310, 42575.00
491.5150, 33965.00
492.6980, 27024.00
493.8810, 22135.00
495.0640, 18738.00
496.2470, 16121.00
497.4300, 13567.00
498.6120, 11709.00
499.7950, 10361.00
500.9770, 9439.000
502.1590, 8768.000
503.3410, 8402.000
504.5220, 8115.000
505.7040, 7813.000
506.8850, 7655.000
508.0660, 7588.000
509.2470, 7559.000
510.4280, 7473.000
511.6090, 7360.000
512.7890, 7278.381
513.9700, 7180.000
515.1500, 7046.000
516.3300, 6835.000
517.5100, 6684.000
518.6900, 6613.000
519.8690, 6423.000
521.0490, 6427.000
522.2280, 6330.000
523.4070, 6222.000
524.5860, 6244.000
525.7640, 6123.000
526.9430, 6215.000
528.1210, 6182.000
529.3000, 5975.000
530.4780, 6003.000
531.6560, 6046.000
532.8330, 6054.000
534.0110, 6006.000
535.1880, 5983.000
536.3650, 6036.000
537.5430, 6146.000
538.7190, 6097.000
539.8960, 6193.000
541.0730, 6230.000
542.2490, 6223.000
543.4250, 6456.000
544.6020, 6531.000
545.7780, 6571.000
546.9530, 6506.000
548.1290, 6482.000
549.3040, 6322.000
550.4800, 6307.000
551.6550, 6331.000
552.8300, 6260.000
554.0040, 6351.000
555.1790, 6394.000
556.3540, 6533.000
557.5280, 6782.000
558.7020, 6931.000
559.8760, 7326.000
561.0500, 7682.000
562.2230, 8144.000
563.3970, 8352.000
564.5700, 8165.000
565.7430, 7964.000
566.9160, 7423.000
568.0890, 6993.000
569.2620, 6852.000
570.4340, 6568.000
571.6070, 6618.000
572.7790, 6473.000
573.9510, 6404.000
575.1230, 6354.000
576.2940, 6313.889
577.4660, 6305.000
578.6370, 6348.000
579.8080, 6396.000
580.9790, 6508.000
582.1500, 6633.000
583.3210, 6646.000
584.4910, 6677.000
585.6620, 6894.000
586.8320, 6840.000
588.0020, 6838.000
589.1720, 6815.000
590.3410, 6693.000
591.5110, 6718.000
592.6800, 6594.000
593.8500, 6748.000
595.0190, 6745.000
596.1880, 6930.000
597.3560, 7101.000
598.5250, 7341.000
599.6930, 7713.000
600.8620, 7963.000
602.0300, 8153.000
603.1970, 8664.000
604.3650, 9268.000
605.5330, 9313.000
606.7000, 9580.000
607.8680, 9538.000
609.0350, 9316.000
610.2020, 9130.000
611.3680, 8752.000
612.5350, 8637.000
613.7010, 8495.000
614.8680, 8694.000
616.0340, 8954.000
617.2000, 9209.000
618.3660, 9288.000
619.5310, 9287.000
620.6970, 9118.000
621.8620, 9099.000
623.0270, 9137.000
624.1920, 9134.000
625.3570, 9299.000
626.5220, 9379.000
627.6860, 9492.000
628.8500, 9695.000
630.0140, 10036.00
631.1780, 10281.00
632.3420, 10401.00
633.5060, 10783.00
634.6700, 11393.00
635.8330, 12051.00
636.9960, 12449.00
638.1590, 12443.00
639.3220, 12192.00
640.4850, 11637.00
641.6470, 10810.00
642.8100, 10226.00
643.9720, 9853.000
645.1340, 9527.000
646.2960, 9581.000
647.4570, 9765.000
648.6190, 10147.00
649.7800, 10394.00
650.9420, 10940.00
652.1030, 11613.00
653.2640, 12248.00
654.4240, 12833.00
655.5850, 13268.00
656.7450, 13516.00
657.9060, 13323.00
659.0660, 12692.00
660.2260, 11713.00
661.3850, 10655.00
662.5450, 9772.000
663.7040, 8982.000
664.8640, 8440.000
666.0230, 8113.000
667.1820, 7876.000
668.3410, 7690.000
669.4990, 7622.000
670.6580, 7446.000
671.8160, 7412.000
672.9740, 7171.000
674.1320, 7103.000
675.2900, 6843.000
676.4480, 6718.000
677.6050, 6621.000
678.7630, 6732.000
679.9200, 6575.000
681.0770, 6628.000
682.2340, 6632.000
683.3900, 6521.000
684.5470, 6631.000
685.7030, 6524.000
686.8590, 6550.000
688.0150, 6520.000
689.1710, 6390.000
690.3270, 6390.000
691.4830, 6287.000
692.6380, 6278.000
693.7930, 6237.000
694.9480, 6259.000
696.1030, 6279.000
697.2580, 6372.000
698.4130, 6372.000
699.5670, 6552.000
700.7210, 6524.000
701.8750, 6519.000
703.0290, 6540.000
704.1830, 6427.000
705.3370, 6416.115
706.4900, 6431.000
707.6430, 6341.000
708.7970, 6241.000
709.9490, 6278.000
711.1020, 6187.000
712.2550, 6276.000
713.4070, 6194.000
714.5600, 6343.000
715.7120, 6294.000
716.8640, 6343.000
718.0160, 6483.000
719.1670, 6543.000
720.3190, 6521.000
721.4700, 6712.000
722.6210, 6863.000
723.7720, 6856.000
724.9230, 6978.000
726.0740, 6944.000
727.2250, 6910.000
728.3750, 6751.000
729.5250, 6576.000
730.6750, 6588.000
731.8250, 6414.000
732.9750, 6312.000
734.1240, 6321.000
735.2740, 6255.000
736.4230, 6284.000
737.5720, 6256.169
738.7210, 6224.000
739.8700, 6227.000
741.0190, 6191.000
742.1670, 6167.000
743.3150, 6235.000
744.4630, 6219.000
745.6110, 6234.000
746.7590, 6258.000
747.9070, 6346.000
749.0540, 6313.000
750.2020, 6184.000
751.3490, 6255.000
752.4960, 6235.000
753.6430, 6149.000
754.7890, 6171.000
755.9360, 6147.000
757.0820, 6115.000
758.2280, 6188.000
759.3740, 6156.000
760.5200, 6215.000
761.6660, 6225.000
762.8120, 6286.000
763.9570, 6266.000
765.1020, 6280.000
766.2470, 6303.000
767.3920, 6290.000
768.5370, 6238.000
769.6810, 6339.000
770.8260, 6268.000
771.9700, 6288.000
773.1140, 6277.000
774.2580, 6203.000
775.4020, 6367.000
776.5460, 6322.666
777.6890, 6342.723
778.8320, 6283.000
779.9750, 6419.000
781.1180, 6210.000
782.2610, 6376.000
783.4040, 6377.000
784.5460, 6300.000
785.6890, 6366.000
786.8310, 6299.000
787.9730, 6428.000
789.1150, 6352.000
790.2560, 6347.000
791.3980, 6471.000
792.5390, 6393.000
793.6810, 6507.000
794.8220, 6443.000
795.9630, 6469.000
797.1030, 6401.000
798.2440, 6410.000
799.3840, 6520.000
800.5240, 6470.000
801.6650, 6520.000
802.8040, 6501.000
803.9440, 6504.000
805.0840, 6485.000
806.2230, 6464.000
807.3630, 6553.000
808.5020, 6606.000
809.6410, 6620.000
810.7790, 6547.000
811.9180, 6578.000
813.0570, 6553.000
814.1950, 6673.000
815.3330, 6607.000
816.4710, 6618.000
817.6090, 6782.000
818.7470, 6746.000
819.8840, 6711.000
821.0220, 6822.000
822.1590, 6794.000
823.2960, 6810.000
824.4330, 6832.000
825.5690, 6917.000
826.7060, 6825.000
827.8420, 6920.000
828.9790, 6949.000
830.1150, 6869.000
831.2510, 6903.000
832.3860, 6847.000
833.5220, 7054.000
834.6570, 6959.000
835.7930, 6985.000
836.9280, 6897.000
838.0630, 7097.000
839.1980, 7164.000
840.3320, 7172.000
841.4670, 7268.000
842.6010, 7235.000
843.7350, 7270.000
844.8690, 7434.000
846.0030, 7446.000
847.1370, 7391.000
848.2700, 7451.000
849.4040, 7551.000
850.5370, 7614.000
851.6700, 7582.000
852.8030, 7634.000
853.9360, 7788.000
855.0680, 8022.000
856.2000, 8095.000
857.3330, 8281.000
858.4650, 8204.000
859.5970, 8465.000
860.7290, 8591.000
861.8600, 8486.000
862.9920, 8447.000
864.1230, 8434.000
865.2540, 8422.000
866.3850, 8416.000
867.5160, 8465.769
868.6460, 8529.000
869.7770, 8568.000
870.9070, 8611.000
872.0370, 8622.000
873.1670, 8842.000
874.2970, 8876.000
875.4270, 8950.000
876.5570, 9250.000
877.6860, 9563.000
878.8150, 10007.00
879.9440, 10302.00
881.0730, 10875.00
882.2020, 11537.00
883.3300, 12244.00
884.4590, 13171.00
885.5870, 14149.00
886.7150, 15005.00
887.8430, 15704.00
888.9710, 16566.00
890.0990, 16595.00
891.2260, 16888.00
892.3530, 16227.00
893.4810, 15266.00
894.6080, 14373.00
895.7340, 13519.00
896.8610, 12832.00
897.9880, 12539.00
899.1140, 12384.00
900.2400, 12064.00
901.3660, 11835.00
902.4920, 11603.00
903.6180, 11308.00
904.7430, 11052.00
905.8690, 10563.00
906.9940, 10223.00
908.1190, 9918.000
909.2440, 9882.000
910.3690, 9783.000
911.4930, 9494.000
912.6180, 9504.000
913.7420, 9418.000
914.8660, 9395.000
915.9900, 9454.000
917.1140, 9329.000
918.2380, 9565.000
919.3610, 9550.000
920.4850, 9839.000
921.6080, 9844.000
922.7310, 9998.000
923.8540, 10362.00
924.9760, 10416.00
926.0990, 10828.00
927.2210, 11343.00
928.3440, 11689.00
929.4660, 12151.00
930.5880, 12882.00
931.7090, 13579.00
932.8310, 14121.00
933.9520, 15235.00
935.0740, 15910.00
936.1950, 16883.00
937.3160, 17958.00
938.4360, 18707.00
939.5570, 19642.00
940.6780, 20427.00
941.7980, 21288.00
942.9180, 22386.00
944.0380, 23186.00
945.1580, 23891.00
946.2780, 24453.00
947.3970, 24870.00
948.5170, 24978.00
949.6360, 25155.00
950.7550, 25430.00
951.8740, 25619.00
952.9930, 26240.00
954.1110, 26942.00
955.2300, 27915.00
956.3480, 29093.00
957.4660, 30224.00
958.5840, 31378.00
959.7020, 32262.00
960.8190, 33032.00
961.9370, 33328.00
963.0540, 32558.00
964.1710, 31238.00
965.2880, 29039.00
966.4050, 26802.00
967.5220, 24469.00
968.6380, 22221.00
969.7550, 19962.00
970.8710, 18223.00
971.9870, 16700.00
973.1030, 15610.00
974.2190, 14293.00
975.3340, 13448.00
976.4500, 12688.00
977.5650, 12124.00
978.6800, 11526.00
979.7950, 11084.00
980.9100, 10568.00
982.0250, 10310.00
983.1390, 10028.00
984.2530, 9982.000
985.3680, 9705.000
986.4820, 9699.000
987.5950, 9705.000
988.7090, 9580.000
989.8230, 9582.000
990.9360, 9595.000
992.0490, 9828.000
993.1620, 10119.00
994.2750, 10452.00
995.3880, 11097.00
996.5010, 11718.00
997.6130, 12483.00
998.7250, 13415.00
999.8370, 14130.00
1000.949, 14685.00
1002.061, 14601.53
1003.173, 14708.00
1004.284, 13681.00
1005.396, 12557.00
1006.507, 11411.00
1007.618, 10539.00
1008.729, 9988.000
1009.839, 9519.000
1010.950, 9318.000
1012.060, 8951.000
1013.171, 8827.000
1014.281, 8589.000
1015.391, 8471.007
1016.500, 8324.000
1017.610, 8338.000
1018.719, 8301.000
1019.829, 8289.000
1020.938, 8301.000
1022.047, 8278.000
1023.156, 8328.000
1024.264, 8293.000
1025.373, 8055.000
1026.481, 8003.000
1027.589, 7997.000
1028.697, 7968.000
1029.805, 7732.000
1030.913, 7841.000
1032.020, 7657.000
1033.128, 7589.000
1034.235, 7622.000
1035.342, 7659.000
1036.449, 7488.000
1037.556, 7565.000
1038.663, 7489.000
1039.769, 7381.000
1040.875, 7452.000
1041.981, 7404.000
1043.087, 7464.000
1044.193, 7354.000
1045.299, 7407.000
1046.404, 7526.000
1047.510, 7491.000
1048.615, 7451.000
1049.720, 7405.000
1050.825, 7377.000
1051.930, 7372.639
1053.034, 7507.000
1054.139, 7376.000
1055.243, 7417.000
1056.347, 7405.000
1057.451, 7362.000
1058.555, 7439.000
1059.658, 7342.000
1060.762, 7440.000
1061.865, 7375.000
1062.968, 7338.000
1064.071, 7327.000
1065.174, 7450.000
1066.277, 7439.000
1067.380, 7477.000
1068.482, 7439.000
1069.584, 7492.000
1070.686, 7506.000
1071.788, 7537.062
1072.890, 7444.000
1073.992, 7598.000
1075.093, 7539.000
1076.194, 7502.000
1077.295, 7718.000
1078.396, 7677.000
1079.497, 7817.000
1080.598, 7859.000
1081.698, 7941.000
1082.799, 7874.000
1083.899, 7976.000
1084.999, 7973.000
1086.099, 7927.000
1087.199, 7759.000
1088.298, 7756.000
1089.398, 7755.000
1090.497, 7696.000
1091.596, 7673.000
1092.695, 7670.000
1093.794, 7588.000
1094.892, 7633.000
1095.991, 7528.000
1097.089, 7596.000
1098.187, 7626.000
1099.285, 7525.000
1100.383, 7466.000
1101.481, 7567.000
1102.579, 7537.000
1103.676, 7427.000
1104.773, 7472.000
1105.870, 7581.000
1106.967, 7564.000
1108.064, 7740.000
1109.161, 7718.000
1110.257, 7563.000
1111.353, 7706.000
1112.449, 7668.000
1113.545, 7570.000
1114.641, 7688.000
1115.737, 7719.000
1116.832, 7646.000
1117.928, 7655.000
1119.023, 7667.000
1120.118, 7671.000
1121.213, 7812.000
1122.308, 7662.000
1123.402, 7708.000
1124.497, 7766.000
1125.591, 7567.000
1126.685, 7709.000
1127.779, 7601.000
1128.873, 7583.000
1129.967, 7631.000
1131.060, 7522.000
1132.153, 7585.000
1133.247, 7610.000
1134.340, 7467.000
1135.433, 7488.000
1136.525, 7353.000
1137.618, 7521.000
1138.710, 7411.000
1139.802, 7421.000
1140.895, 7358.000
1141.987, 7439.000
1143.078, 7367.000
1144.170, 7426.000
1145.261, 7482.000
1146.353, 7478.000
1147.444, 7478.000
1148.535, 7551.000
1149.626, 7422.000
1150.716, 7578.000
1151.807, 7430.000
1152.897, 7401.000
1153.988, 7460.000
1155.078, 7562.000
1156.168, 7537.000
1157.257, 7566.000
1158.347, 7583.000
1159.436, 7590.101
1160.526, 7581.000
1161.615, 7614.000
1162.704, 7626.000
1163.793, 7612.000
1164.881, 7656.000
1165.970, 7513.000
1167.058, 7568.000
1168.147, 7588.000
1169.235, 7574.000
1170.323, 7683.000
1171.410, 7690.000
1172.498, 7666.000
1173.585, 7612.000
1174.673, 7622.000
1175.760, 7731.000
1176.847, 7745.000
1177.934, 7660.000
1179.020, 7732.000
1180.107, 7682.000
1181.193, 7550.000
1182.279, 7643.000
1183.365, 7551.000
1184.451, 7727.000
1185.537, 7637.000
1186.623, 7580.000
1187.708, 7612.000
1188.793, 7687.000
1189.878, 7659.000
1190.963, 7672.000
1192.048, 7556.000
1193.133, 7584.000
1194.217, 7568.000
1195.302, 7503.000
1196.386, 7594.000
1197.470, 7598.000
1198.554, 7519.000
1199.638, 7655.000
1200.721, 7751.000
1201.805, 7655.000
1202.888, 7614.000
1203.971, 7588.000
1205.054, 7573.000
1206.137, 7596.000
1207.219, 7606.000
1208.302, 7629.018
1209.384, 7666.000
1210.466, 7707.000
1211.548, 7670.000
1212.630, 7738.000
1213.712, 7753.000
1214.794, 7869.000
1215.875, 7750.000
1216.956, 7823.000
1218.037, 7794.000
1219.118, 7826.000
1220.199, 7808.179
1221.280, 7844.000
1222.360, 7774.000
1223.441, 7771.000
1224.521, 7802.000
1225.601, 7827.000
1226.681, 7770.000
1227.760, 7963.000
1228.840, 7859.000
1229.919, 7983.000
1230.999, 7859.000
1232.078, 8021.000
1233.157, 8022.000
1234.236, 8026.000
1235.314, 8098.000
1236.393, 8140.000
1237.471, 8153.000
1238.549, 8204.000
1239.627, 8231.000
1240.705, 8204.000
1241.783, 8184.000
1242.860, 8075.000
1243.938, 8260.000
1245.015, 8150.000
1246.092, 8326.000
1247.169, 8235.000
1248.246, 8268.000
1249.323, 8204.000
1250.399, 8166.000
1251.475, 8302.000
1252.552, 8244.000
1253.628, 8206.000
1254.703, 8281.000
1255.779, 8182.000
1256.855, 8293.000
1257.930, 8281.000
1259.005, 8301.000
1260.080, 8365.000
1261.155, 8426.000
1262.230, 8407.000
1263.305, 8494.000
1264.379, 8485.000
1265.454, 8437.000
1266.528, 8516.000
1267.602, 8522.000
1268.676, 8665.000
1269.750, 8657.000
1270.823, 8769.000
1271.897, 8669.000
1272.970, 8794.000
1274.043, 8737.000
1275.116, 8677.000
1276.189, 8740.000
1277.261, 8600.000
1278.334, 8598.000
1279.406, 8770.000
1280.478, 8523.000
1281.550, 8546.000
1282.622, 8569.000
1283.694, 8374.000
1284.766, 8488.000
1285.837, 8377.000
1286.908, 8414.000
1287.979, 8450.000
1289.050, 8416.000
1290.121, 8662.000
1291.192, 8534.000
1292.262, 8714.000
1293.333, 8781.000
1294.403, 8705.000
1295.473, 8762.000
1296.543, 8627.000
1297.613, 8712.000
1298.682, 8710.000
1299.752, 8690.000
1300.821, 8715.000
1301.890, 8663.000
1302.959, 8723.000
1304.028, 8682.000
1305.096, 8769.000
1306.165, 8707.000
1307.233, 8911.000
1308.301, 9035.000
1309.370, 8929.000
1310.437, 9012.000
1311.505, 8899.000
1312.573, 8909.000
1313.640, 9071.000
1314.708, 9036.000
1315.775, 9060.000
1316.842, 8977.000
1317.908, 9088.000
1318.975, 9027.000
1320.042, 8930.000
1321.108, 8962.000
1322.174, 8811.000
1323.240, 8768.000
1324.306, 8884.000
1325.372, 8837.000
1326.438, 8621.000
