##NAMES=Laumontite
##RRUFFID=R040020
##IDEAL CHEMISTRY=Ca(Si_4_Al_2_)O_12_&#183;4H_2_O
##LOCALITY=Pine Creek Tungsten mine, Bishop, Inyo County, California, USA
##OWNER=RRUFF
##SOURCE=University of Arizona Mineral Museum
##DESCRIPTION=Pale gray long prism coated with smaller crystals
##STATUS=The identification of this mineral has been confirmed by X-ray diffraction and chemical analysis
##URL=rruff.info/R040020
##MEASURED CHEMISTRY=(Ca_0.99_K_0.01_)_Σ=1_(Si_4.01_Al_1.99_)O_12_·4H_2_O; H_2_O estimated by difference
##PIN_ID=L00252
##ORIENTATION=Laser parallel to a [1 0 0]. Fiducial mark perpendicular to laser is parallel to b* (0 1 0)
53.70100, 4993.000
55.09500, 5024.000
56.48800, 4960.000
57.88200, 5012.000
59.27500, 5136.000
60.66800, 5130.000
62.06100, 5209.000
63.45400, 5314.000
64.84600, 5443.000
66.23800, 5587.000
67.63000, 5728.000
69.02200, 5750.000
70.41300, 5654.000
71.80500, 5476.000
73.19600, 5300.000
74.58700, 5352.000
75.97800, 5330.000
77.36800, 5671.000
78.75800, 5729.000
80.14900, 5683.000
81.53800, 5626.000
82.92800, 5601.000
84.31800, 5616.000
85.70700, 5598.000
87.09600, 5820.000
88.48500, 5897.000
89.87300, 6176.000
91.26200, 6503.000
92.65000, 6970.000
94.03800, 7508.000
95.42600, 8087.000
96.81300, 8680.000
98.20100, 9274.000
99.58800, 9767.000
100.9750, 10210.00
102.3620, 10890.00
103.7480, 11290.00
105.1350, 11930.00
106.5210, 12360.00
107.9070, 12990.00
109.2920, 13410.00
110.6780, 14030.00
112.0630, 14540.00
113.4480, 15040.00
114.8330, 15400.00
116.2180, 15630.00
117.6020, 15720.00
118.9870, 15680.00
120.3710, 15870.00
121.7550, 15890.00
123.1380, 15860.00
124.5220, 16110.00
125.9050, 16090.00
127.2880, 16140.00
128.6710, 16510.00
130.0530, 16380.00
131.4360, 16610.00
132.8180, 16660.00
134.2000, 16780.00
135.5820, 16610.00
136.9630, 16720.00
138.3450, 16450.00
139.7260, 16280.00
141.1070, 16260.00
142.4880, 16090.00
143.8680, 15980.00
145.2480, 15700.00
146.6290, 15750.00
148.0080, 15510.00
149.3880, 15470.00
150.7680, 15610.00
152.1470, 15500.00
153.5260, 15880.00
154.9050, 15970.00
156.2840, 16270.00
157.6620, 16640.00
159.0400, 17120.00
160.4180, 17510.00
161.7960, 17670.00
163.1740, 18370.00
164.5510, 18500.00
165.9290, 18970.00
167.3060, 19380.00
168.6830, 19340.00
170.0590, 19710.00
171.4360, 19493.23
172.8120, 19414.51
174.1880, 19168.31
175.5640, 18756.98
176.9390, 18057.42
178.3150, 17446.39
179.6900, 16900.00
181.0650, 16140.00
182.4400, 15660.00
183.8140, 15040.00
185.1880, 14780.00
186.5630, 14310.00
187.9370, 14020.00
189.3100, 13890.00
190.6840, 13620.00
192.0570, 13720.00
193.4300, 13620.00
194.8030, 13470.00
196.1760, 13870.00
197.5490, 13800.00
198.9210, 14130.00
200.2930, 14120.00
201.6650, 14450.00
203.0370, 14480.00
204.4080, 14890.00
205.7790, 14880.53
207.1500, 15568.85
208.5210, 16236.29
209.8920, 16887.44
211.2620, 17280.40
212.6330, 18320.00
214.0030, 18820.00
215.3730, 19040.00
216.7420, 18670.00
218.1120, 18520.00
219.4810, 17390.00
220.8500, 16590.00
222.2190, 15650.00
223.5880, 14660.00
224.9560, 14090.00
226.3240, 13390.00
227.6920, 13080.00
229.0600, 12610.00
230.4280, 12450.00
231.7950, 12160.00
233.1620, 11900.00
234.5290, 11910.00
235.8960, 11690.00
237.2630, 11600.00
238.6290, 11640.00
239.9950, 11520.00
241.3610, 11610.00
242.7270, 11510.00
244.0930, 11570.00
245.4580, 11450.00
246.8230, 11610.00
248.1880, 11640.00
249.5530, 11650.00
250.9170, 11640.00
252.2820, 11701.82
253.6460, 11720.00
255.0100, 11820.00
256.3740, 11880.00
257.7370, 11960.00
259.1010, 12030.00
260.4640, 12160.00
261.8270, 12230.00
263.1890, 12360.00
264.5520, 12410.00
265.9140, 12750.00
267.2760, 12650.00
268.6380, 12810.00
270.0000, 13030.00
271.3620, 13050.00
272.7230, 13140.00
274.0840, 13170.00
275.4450, 13260.00
276.8060, 13540.00
278.1660, 13270.00
279.5260, 13720.00
280.8870, 13690.00
282.2460, 13940.00
283.6060, 14100.00
284.9660, 14360.00
286.3250, 14650.00
287.6840, 14700.00
289.0430, 15020.00
290.4020, 15350.00
291.7600, 15730.00
293.1180, 16010.00
294.4770, 16190.00
295.8340, 16820.00
297.1920, 17280.00
298.5500, 18250.00
299.9070, 19050.00
301.2640, 20360.00
302.6210, 21920.00
303.9780, 23550.00
305.3340, 25740.00
306.6900, 27720.00
308.0460, 29500.00
309.4020, 30670.00
310.7580, 31890.00
312.1130, 32330.00
313.4690, 31450.00
314.8240, 30760.00
316.1790, 29040.00
317.5330, 27260.00
318.8880, 26050.00
320.2420, 25080.00
321.5960, 25190.00
322.9500, 25530.00
324.3040, 27270.00
325.6570, 28530.00
327.0100, 29940.00
328.3630, 30920.00
329.7160, 29990.00
331.0690, 28490.00
332.4210, 25960.00
333.7740, 23450.00
335.1260, 21270.00
336.4780, 19260.00
337.8290, 18230.00
339.1810, 16800.00
340.5320, 16220.00
341.8830, 15450.00
343.2340, 14950.00
344.5850, 14590.00
345.9350, 14340.00
347.2850, 14010.00
348.6350, 13910.00
349.9850, 13600.00
351.3350, 13660.00
352.6840, 13470.00
354.0340, 13290.00
355.3830, 13180.00
356.7310, 13230.00
358.0800, 13160.00
359.4290, 13080.00
360.7770, 13130.00
362.1250, 13030.00
363.4730, 13310.00
364.8200, 13150.00
366.1680, 13400.00
367.5150, 13570.00
368.8620, 13940.00
370.2090, 14150.00
371.5560, 14140.00
372.9020, 14990.00
374.2490, 15420.00
375.5950, 16190.00
376.9400, 17550.00
378.2860, 18560.00
379.6320, 20450.00
380.9770, 21640.00
382.3220, 22510.00
383.6670, 23110.00
385.0120, 22170.00
386.3560, 20970.00
387.7000, 18870.00
389.0440, 17300.00
390.3880, 16000.00
391.7320, 14800.00
393.0750, 14260.00
394.4190, 13580.00
395.7620, 13480.00
397.1050, 13060.00
398.4470, 12850.00
399.7900, 12950.00
401.1320, 12820.00
402.4740, 12920.00
403.8160, 12660.00
405.1580, 12930.00
406.4990, 13060.00
407.8410, 12900.00
409.1820, 13270.00
410.5230, 12990.00
411.8640, 13210.00
413.2040, 13130.00
414.5440, 13000.00
415.8840, 13150.00
417.2240, 12780.00
418.5640, 12950.00
419.9040, 12700.00
421.2430, 12710.00
422.5820, 12870.00
423.9210, 12560.00
425.2600, 12720.00
426.5980, 12570.00
427.9370, 12580.00
429.2750, 12630.00
430.6130, 12430.00
431.9510, 12750.00
433.2880, 12610.00
434.6250, 12640.00
435.9630, 12700.00
437.3000, 12620.00
438.6360, 12690.00
439.9730, 12800.00
441.3090, 12840.00
442.6460, 12770.00
443.9810, 12870.00
445.3170, 13000.00
446.6530, 12860.00
447.9880, 13010.00
449.3230, 12900.00
450.6580, 13240.00
451.9930, 13120.00
453.3280, 13260.00
454.6620, 13510.00
455.9960, 13480.00
457.3310, 13460.00
458.6640, 13750.00
459.9980, 13840.00
461.3310, 14080.00
462.6650, 14250.00
463.9980, 14650.00
465.3300, 14970.00
466.6630, 15310.00
467.9960, 15520.00
469.3280, 15750.00
470.6600, 15890.28
471.9920, 16050.00
473.3230, 16000.00
474.6550, 15850.00
475.9860, 15710.00
477.3170, 15940.00
478.6480, 16060.00
479.9790, 16570.00
481.3090, 17140.00
482.6400, 17780.00
483.9700, 19380.00
485.3000, 20500.00
486.6290, 23060.00
487.9590, 26330.00
489.2880, 29580.00
490.6170, 34350.00
491.9460, 37830.00
493.2750, 40450.00
494.6030, 39700.00
495.9320, 37230.00
497.2600, 33650.00
498.5880, 29790.00
499.9160, 27360.00
501.2430, 25420.00
502.5710, 24790.00
503.8980, 24770.00
505.2250, 24850.00
506.5520, 25940.00
507.8780, 26780.00
509.2050, 28440.00
510.5310, 30010.00
511.8570, 31190.00
513.1830, 33100.00
514.5080, 32760.00
515.8340, 33670.00
517.1590, 32670.00
518.4840, 31310.00
519.8090, 29340.00
521.1330, 27330.00
522.4580, 25590.00
523.7820, 23480.00
525.1060, 22050.00
526.4300, 20910.00
527.7540, 19730.00
529.0770, 18990.00
530.4000, 18060.00
531.7230, 17520.00
533.0460, 17110.00
534.3690, 16470.00
535.6920, 16450.00
537.0140, 16010.00
538.3360, 15830.00
539.6580, 15590.00
540.9800, 15400.00
542.3010, 15360.00
543.6230, 14950.00
544.9440, 15030.00
546.2650, 14910.00
547.5850, 14720.00
548.9060, 14750.00
550.2260, 14630.00
551.5470, 14640.00
552.8670, 14670.00
554.1860, 14310.00
555.5060, 14550.00
556.8250, 14400.00
558.1450, 14400.00
559.4640, 14490.00
560.7830, 14360.00
562.1010, 14410.00
563.4200, 14350.00
564.7380, 14650.00
566.0560, 14280.00
567.3740, 14430.00
568.6920, 14640.00
570.0090, 14480.00
571.3260, 14710.00
572.6430, 14570.00
573.9600, 14840.00
575.2770, 14930.00
576.5940, 14840.00
577.9100, 15210.00
579.2260, 15290.00
580.5420, 15600.00
581.8580, 15860.00
583.1730, 16210.00
584.4890, 16721.39
585.8040, 17190.04
587.1190, 17760.00
588.4340, 18340.00
589.7480, 18687.32
591.0630, 18973.72
592.3770, 19240.00
593.6910, 19120.00
595.0050, 19010.00
596.3180, 18660.00
597.6320, 18520.00
598.9450, 17700.00
600.2580, 17400.00
601.5710, 16980.00
602.8840, 16710.00
604.1960, 16500.00
605.5080, 16000.00
606.8210, 15900.00
608.1320, 15740.00
609.4440, 15510.00
610.7560, 15680.00
612.0670, 15300.00
613.3780, 15500.00
614.6890, 15180.00
616.0000, 15270.00
617.3110, 15250.00
618.6210, 14910.00
619.9310, 15130.00
621.2410, 15110.00
622.5510, 14920.00
623.8610, 15200.00
625.1700, 14840.00
626.4790, 15160.00
627.7880, 15030.00
629.0970, 15190.00
630.4060, 15070.00
631.7140, 14980.00
633.0230, 15180.00
634.3310, 15110.00
635.6390, 14980.00
636.9460, 15210.00
638.2540, 14890.00
639.5610, 15270.00
640.8680, 15060.00
642.1750, 15070.00
643.4820, 15130.00
644.7890, 15160.00
646.0950, 15530.00
647.4010, 15180.00
648.7070, 15200.00
650.0130, 15570.00
651.3190, 15340.00
652.6240, 15580.00
653.9290, 15423.14
655.2340, 15661.35
656.5390, 15847.46
657.8440, 15986.07
659.1480, 16157.20
660.4530, 16134.20
661.7570, 16470.00
663.0610, 16710.00
664.3640, 16970.00
665.6680, 17690.00
666.9710, 17810.00
668.2740, 18430.00
669.5770, 18870.00
670.8800, 19150.00
672.1830, 19870.00
673.4850, 19910.00
674.7870, 20020.00
676.0890, 19870.00
677.3910, 19160.00
678.6930, 18890.00
679.9940, 18140.00
681.2960, 17540.00
682.5970, 17370.00
683.8980, 16730.00
685.1980, 16680.00
686.4990, 16250.00
687.7990, 16230.00
689.0990, 16050.00
690.3990, 15810.00
691.6990, 16040.00
692.9980, 15600.00
694.2980, 15770.00
695.5970, 15740.00
696.8960, 15640.00
698.1950, 15990.00
699.4930, 15860.00
700.7920, 15770.00
702.0900, 16020.00
703.3880, 15940.00
704.6860, 16180.00
705.9840, 16150.00
707.2810, 16260.00
708.5780, 16670.00
709.8760, 16590.00
711.1720, 17100.00
712.4690, 16930.00
713.7660, 17130.00
715.0620, 17110.00
716.3580, 16780.00
717.6540, 16990.00
718.9500, 16550.00
720.2460, 16510.00
721.5410, 16410.00
722.8360, 16170.00
724.1310, 16240.00
725.4260, 16020.00
726.7210, 16120.00
728.0150, 15950.00
729.3100, 15930.00
730.6040, 16010.00
731.8980, 15770.00
733.1910, 15910.00
734.4850, 16090.00
735.7780, 16010.00
737.0710, 16010.00
738.3640, 15970.00
739.6570, 16010.00
740.9500, 16200.00
742.2420, 16010.00
743.5350, 16060.00
744.8270, 16190.00
746.1180, 15990.00
747.4100, 16280.00
748.7020, 16111.35
749.9930, 16090.00
751.2840, 16100.00
752.5750, 15890.00
753.8660, 16250.00
755.1560, 16060.00
756.4470, 16160.00
757.7370, 16290.00
759.0270, 16090.00
760.3160, 16350.00
761.6060, 16210.00
762.8960, 16440.00
764.1850, 16680.00
765.4740, 16520.00
766.7630, 16690.00
768.0510, 16540.00
769.3400, 16680.00
770.6280, 16810.00
771.9160, 16720.00
773.2040, 16660.00
774.4920, 16640.00
775.7800, 16630.00
777.0670, 16570.00
778.3540, 16260.00
779.6410, 16530.00
780.9280, 16350.00
782.2150, 16400.00
783.5010, 16460.00
784.7870, 16330.00
786.0730, 16680.00
787.3590, 16450.00
788.6450, 16400.00
789.9300, 16640.00
791.2160, 16270.00
792.5010, 16450.00
793.7860, 16510.00
795.0710, 16270.00
796.3550, 16500.00
797.6400, 16470.00
798.9240, 16590.00
800.2080, 16550.00
801.4920, 16530.00
802.7750, 16750.00
804.0590, 16570.00
805.3420, 16750.00
806.6250, 16690.00
807.9080, 16490.00
809.1910, 16850.00
810.4740, 16530.00
811.7560, 16630.00
813.0380, 16750.00
814.3200, 16660.00
815.6020, 17020.00
816.8840, 16660.00
818.1650, 16850.00
819.4460, 17090.00
820.7270, 16690.00
822.0080, 17060.00
823.2890, 16800.00
824.5690, 16930.00
825.8500, 16970.00
827.1300, 16890.00
828.4100, 16930.00
829.6900, 17110.00
830.9690, 17110.00
832.2490, 17220.00
833.5280, 16930.00
834.8070, 17250.00
836.0860, 17020.00
837.3640, 17030.00
838.6430, 17350.00
839.9210, 16990.00
841.1990, 17070.00
842.4770, 17190.00
843.7550, 17090.00
845.0330, 17430.00
846.3100, 17250.00
847.5870, 17330.00
848.8640, 17340.00
850.1410, 17320.00
851.4180, 17400.00
852.6940, 17220.00
853.9710, 17500.00
855.2470, 17500.00
856.5230, 17430.00
857.7980, 17680.00
859.0740, 17460.00
860.3490, 17590.00
861.6240, 17780.00
862.8990, 17640.00
864.1740, 17660.00
865.4490, 17840.00
866.7230, 17620.00
867.9980, 17880.00
869.2720, 17530.00
870.5450, 17830.00
871.8190, 17780.00
873.0930, 17710.00
874.3660, 17870.00
875.6390, 17700.00
876.9120, 17620.00
878.1850, 17950.00
879.4580, 17470.00
880.7300, 17780.00
882.0020, 17910.00
883.2740, 17750.00
884.5460, 17960.00
885.8180, 17610.00
887.0900, 18130.00
888.3610, 18040.00
889.6320, 17910.00
890.9030, 18240.00
892.1740, 17850.00
893.4440, 18100.00
894.7150, 17960.00
895.9850, 17880.00
897.2550, 18210.00
898.5250, 17980.00
899.7950, 18030.00
901.0640, 18190.00
902.3340, 18100.00
903.6030, 18370.00
904.8720, 18070.00
906.1400, 18220.00
907.4090, 18530.00
908.6770, 18070.00
909.9460, 18580.00
911.2140, 18280.00
912.4820, 18350.00
913.7490, 18440.00
915.0170, 18350.00
916.2840, 18550.00
917.5510, 18400.00
918.8180, 18450.00
920.0850, 18790.00
921.3520, 18670.00
922.6180, 18820.00
923.8840, 19090.00
925.1500, 18650.00
926.4160, 19210.00
927.6820, 19010.00
928.9470, 19080.00
930.2130, 19050.00
931.4780, 19110.00
932.7430, 19060.00
934.0080, 18910.00
935.2720, 18820.00
936.5370, 19070.00
937.8010, 18780.00
939.0650, 18850.00
940.3290, 19090.00
941.5930, 18580.00
942.8560, 19260.00
944.1190, 18890.00
945.3830, 18800.00
946.6460, 19310.00
947.9080, 18880.00
949.1710, 19420.00
950.4330, 19120.00
951.6960, 19090.00
952.9580, 19250.00
954.2200, 19070.00
955.4810, 19260.00
956.7430, 19620.00
958.0040, 19010.00
959.2650, 19330.00
960.5260, 18980.00
961.7870, 19300.00
963.0480, 19320.00
964.3080, 19140.00
965.5690, 19530.00
966.8290, 19180.00
968.0890, 19250.00
969.3480, 19540.00
970.6080, 19220.00
971.8670, 19360.00
973.1260, 19550.00
974.3850, 19350.00
975.6440, 19530.00
976.9030, 19460.00
978.1610, 19490.00
979.4200, 19420.00
980.6780, 19407.86
981.9360, 19450.00
983.1930, 19400.00
984.4510, 19500.00
985.7080, 19580.00
986.9660, 19650.00
988.2230, 19700.00
989.4790, 19660.00
990.7360, 19500.00
991.9930, 19930.00
993.2490, 19690.00
994.5050, 19830.00
995.7610, 20030.00
997.0170, 19860.00
998.2720, 20200.00
999.5280, 20220.00
1000.783, 20270.00
1002.038, 20560.00
1003.293, 20370.00
1004.548, 20370.00
1005.802, 20680.00
1007.057, 20580.00
1008.311, 20700.00
1009.565, 20120.00
1010.818, 20430.00
1012.072, 20580.00
1013.326, 20240.00
1014.579, 20700.00
1015.832, 20470.00
1017.085, 20470.00
1018.338, 20950.00
1019.590, 20550.00
1020.842, 20978.01
1022.095, 21027.95
1023.347, 21061.85
1024.599, 21080.60
1025.850, 21038.77
1027.102, 21075.16
1028.353, 21080.19
1029.604, 20650.00
1030.855, 21150.00
1032.106, 20630.00
1033.356, 20590.00
1034.607, 21060.00
1035.857, 20520.00
1037.107, 20660.00
1038.357, 20680.00
1039.607, 20620.00
1040.856, 21120.00
1042.106, 20640.00
1043.355, 20780.00
1044.604, 21120.00
1045.852, 20470.00
1047.101, 21020.00
1048.350, 20830.00
1049.598, 20950.00
1050.846, 21120.00
1052.094, 20630.00
1053.342, 21030.00
1054.589, 21100.00
1055.837, 20510.00
1057.084, 21300.00
1058.331, 20930.00
1059.578, 21030.00
1060.824, 21430.00
1062.071, 21040.00
1063.317, 21670.00
1064.563, 21530.00
1065.809, 21430.00
1067.055, 21880.00
1068.301, 21740.00
1069.546, 21780.00
1070.791, 22400.00
1072.036, 22080.00
1073.281, 22760.00
1074.526, 23000.00
1075.771, 22410.00
1077.015, 23210.00
1078.259, 22630.00
1079.503, 23010.00
1080.747, 22850.00
1081.991, 22380.00
1083.234, 22830.00
1084.478, 22420.00
1085.721, 22250.00
1086.964, 22780.00
1088.206, 22090.00
1089.449, 22390.00
1090.691, 22430.00
1091.934, 22150.00
1093.176, 22610.00
1094.418, 22350.00
1095.659, 22420.00
1096.901, 22540.00
1098.142, 22280.00
1099.384, 22630.00
1100.625, 22900.00
1101.865, 22430.00
1103.106, 23290.00
1104.347, 22930.00
1105.587, 22760.00
1106.827, 23450.00
1108.067, 22900.00
1109.307, 23090.00
1110.546, 22830.00
1111.786, 22560.00
1113.025, 23010.00
1114.264, 22190.00
1115.503, 22200.00
1116.742, 22560.00
1117.980, 21830.00
1119.219, 22120.00
1120.457, 22180.00
1121.695, 21760.00
1122.933, 22290.00
1124.171, 21700.00
1125.408, 21800.00
1126.645, 21960.00
1127.883, 21710.00
1129.120, 22160.00
1130.356, 21920.00
1131.593, 21810.00
1132.829, 22320.00
1134.066, 21850.00
1135.302, 21820.00
1136.538, 22290.00
1137.773, 21760.00
1139.009, 22140.00
1140.244, 21880.00
1141.480, 21860.00
1142.715, 22190.00
1143.950, 21960.00
1145.184, 21990.00
1146.419, 22110.00
1147.653, 21710.00
1148.887, 22510.00
1150.121, 21890.00
1151.355, 21940.00
1152.589, 22610.00
1153.822, 21770.00
1155.056, 22110.00
1156.289, 22330.00
1157.522, 22040.00
1158.755, 22370.00
1159.987, 22050.00
1161.220, 22150.00
1162.452, 22450.00
1163.684, 22020.00
1164.916, 22260.00
1166.148, 22410.00
1167.379, 21770.00
1168.611, 22520.00
1169.842, 22130.00
1171.073, 22170.00
1172.304, 22660.00
1173.534, 22020.00
1174.765, 22590.00
1175.995, 22520.00
1177.225, 22190.00
1178.455, 22630.00
1179.685, 22320.00
1180.915, 22450.00
1182.144, 22650.00
1183.374, 22320.00
1184.603, 22730.00
1185.832, 22800.00
1187.060, 22250.00
1188.289, 22820.00
1189.518, 22490.00
1190.746, 22560.00
1191.974, 22960.00
1193.202, 22430.00
1194.430, 23010.00
1195.657, 22750.00
1196.884, 22510.00
1198.112, 23120.00
1199.339, 22600.00
1200.566, 22760.00
1201.792, 23180.00
1203.019, 22850.00
1204.245, 22930.00
1205.471, 23230.00
1206.697, 22770.00
1207.923, 23390.00
1209.149, 22980.00
1210.374, 23010.00
1211.600, 23400.00
1212.825, 22750.00
1214.050, 23470.00
1215.275, 23240.00
1216.499, 22970.00
1217.724, 23520.00
1218.948, 23110.00
1220.172, 23350.00
1221.396, 23420.00
1222.620, 23170.00
1223.843, 23710.00
1225.067, 23350.00
1226.290, 23360.00
1227.513, 23840.00
1228.736, 23300.00
1229.959, 23710.00
1231.181, 24020.00
1232.404, 23190.00
1233.626, 23820.00
1234.848, 23450.00
1236.070, 23580.00
1237.291, 23980.00
1238.513, 23870.00
1239.734, 24520.00
1240.955, 24290.00
1242.177, 23490.00
1243.397, 23980.00
1244.618, 24110.00
1245.838, 23520.00
1247.059, 24100.00
1248.279, 23750.00
1249.499, 23900.00
1250.719, 24330.00
1251.938, 23960.00
1253.158, 23820.00
1254.377, 24430.00
1255.596, 23680.00
1256.815, 24380.00
1258.034, 24180.00
1259.253, 23990.00
1260.471, 24420.00
1261.689, 23860.00
1262.907, 24170.00
1264.125, 24560.00
1265.343, 24010.00
1266.561, 24410.00
1267.778, 24330.00
1268.995, 24060.00
1270.212, 24740.00
1271.429, 24140.00
1272.646, 24350.00
1273.862, 24530.00
1275.079, 24150.00
1276.295, 24680.00
1277.511, 24520.00
1278.727, 23890.00
1279.943, 25030.00
1281.158, 24050.00
1282.373, 23850.00
1283.589, 25080.00
1284.804, 24150.00
1286.019, 24460.00
1287.233, 24780.00
1288.448, 24380.00
1289.662, 24580.00
1290.876, 24790.00
1292.090, 24140.00
1293.304, 24980.00
1294.518, 24720.00
1295.731, 24700.00
1296.944, 24850.00
1298.158, 24220.00
1299.371, 25140.00
1300.583, 24690.00
1301.796, 24790.00
1303.008, 25100.00
1304.221, 24670.00
1305.433, 24750.00
1306.645, 25390.00
1307.856, 24650.00
1309.068, 25060.00
1310.280, 25450.00
1311.491, 24630.00
1312.702, 25320.00
1313.913, 25210.00
1315.124, 24750.00
1316.334, 25770.00
1317.545, 24830.00
1318.755, 25070.00
1319.965, 25600.00
1321.175, 25160.00
1322.385, 25480.00
1323.594, 25570.00
1324.804, 25140.00
1326.013, 25770.00
1327.222, 25420.00
1328.431, 25340.00
1329.639, 25630.00
1330.848, 25180.00
1332.056, 25480.00
1333.265, 25900.00
1334.473, 25200.00
1335.680, 25840.00
1336.888, 25430.00
1338.096, 25390.00
1339.303, 26000.00
1340.510, 25450.00
1341.717, 25590.00
1342.924, 26020.00
1344.131, 25310.00
1345.337, 25670.00
1346.544, 25980.00
1347.750, 25600.00
1348.956, 26170.00
1350.162, 25810.00
1351.367, 25770.00
1352.573, 26190.00
1353.778, 25510.00
1354.983, 26100.00
1356.188, 26350.00
1357.393, 25740.00
1358.598, 26210.00
1359.802, 26180.00
1361.007, 25810.00
1362.211, 26570.00
1363.415, 26120.00
1364.619, 26110.00
1365.822, 26720.00
1367.026, 26110.00
1368.229, 26470.00
1369.432, 26290.00
1370.635, 25980.00
