##NAMES=Laverovite
##RRUFFID=R060216
##IDEAL CHEMISTRY=K_2_NaMn^2+^_7_Zr^4+^_2_(Si_4_O_12_)_2_O_2_(OH)_4_F
##LOCALITY=Desourdy Quarry, Mont Saint-Hilaire, Rouville County, Quebec, Canada
##OWNER=RRUFF
##SOURCE=Royal Ontario Museum
##DESCRIPTION=Brown fragment showing lamellar habit. Type sample
##STATUS=The identification of this mineral has been confirmed by X-ray diffraction and chemical analysis
##URL=rruff.info/R060216
##MEASURED CHEMISTRY=(K_1.74_Na_0.18_[box]_0.08_)_Σ=2_(Na_0.92_Ca_0.08_)_Σ=1_(Mn_4.09_Fe^2+^_2.67_Mg_0.24_)_Σ=7_(Zr_1.42_Ti_0.58_)_Σ=2_(Si_7.86_Al_0.14_)_Σ=8_O_26_((OH)_3.14_O_0.86_)_Σ=4_
##PIN_ID=M00393
##ORIENTATION=Laser parallel to a* (1 0 0). Fiducial mark perpendicular to laser is parallel to b [0 1 0]
121.8270, 24362.71
123.0580, 24474.00
124.2880, 24406.00
125.5190, 24806.00
126.7490, 25094.00
127.9790, 25358.00
129.2090, 25560.00
130.4390, 24992.00
131.6680, 25070.00
132.8980, 25212.00
134.1270, 25143.00
135.3560, 25455.00
136.5850, 25536.00
137.8140, 25493.00
139.0430, 25170.00
140.2710, 24874.00
141.5000, 24952.00
142.7280, 24955.00
143.9560, 24849.00
145.1840, 24885.58
146.4120, 25129.00
147.6390, 24910.00
148.8670, 25260.00
150.0940, 25461.00
151.3210, 25205.00
152.5490, 25360.00
153.7750, 24967.00
155.0020, 25047.00
156.2290, 24925.00
157.4550, 25056.00
158.6810, 25102.00
159.9080, 25325.00
161.1340, 25749.00
162.3590, 25789.00
163.5850, 26109.00
164.8110, 26216.00
166.0360, 26250.00
167.2610, 26388.00
168.4860, 26427.42
169.7110, 26633.00
170.9360, 26540.00
172.1610, 26536.00
173.3850, 26596.00
174.6100, 26488.38
175.8340, 26372.00
177.0580, 26293.00
178.2820, 26339.00
179.5050, 26121.00
180.7290, 26159.00
181.9520, 26291.00
183.1760, 26329.00
184.3990, 26286.00
185.6220, 26091.00
186.8450, 26279.00
188.0670, 26584.00
189.2900, 26470.00
190.5120, 26691.00
191.7340, 26626.00
192.9560, 26727.00
194.1780, 27249.00
195.4000, 26947.00
196.6220, 27017.00
197.8430, 27591.00
199.0640, 27736.00
200.2860, 28022.00
201.5070, 27793.00
202.7270, 27126.00
203.9480, 26835.00
205.1690, 26541.00
206.3890, 26690.00
207.6090, 26632.00
208.8290, 27068.00
210.0490, 27126.00
211.2690, 27594.00
212.4890, 27930.00
213.7080, 27747.00
214.9280, 27810.00
216.1470, 28177.00
217.3660, 28425.00
218.5850, 28572.00
219.8030, 28704.00
221.0220, 28644.00
222.2400, 28689.00
223.4590, 28878.00
224.6770, 29054.00
225.8950, 29192.00
227.1120, 29036.00
228.3300, 29416.00
229.5480, 29448.00
230.7650, 29390.00
231.9820, 29599.00
233.1990, 29591.00
234.4160, 29407.00
235.6330, 29768.00
236.8490, 29532.00
238.0660, 29546.00
239.2820, 29486.00
240.4980, 29304.00
241.7140, 28911.00
242.9300, 28930.00
244.1460, 28653.00
245.3610, 28486.00
246.5770, 28475.00
247.7920, 27994.00
249.0070, 28076.00
250.2220, 27910.00
251.4370, 27669.97
252.6510, 27790.10
253.8660, 27834.27
255.0800, 27806.63
256.2940, 27491.96
257.5080, 27547.93
258.7220, 27455.36
259.9360, 27356.71
261.1490, 27464.89
262.3630, 27191.96
263.5760, 27296.87
264.7890, 27250.96
266.0020, 27131.00
267.2150, 27181.00
268.4270, 27132.48
269.6400, 26923.00
270.8520, 26962.00
272.0640, 27009.00
273.2760, 26965.00
274.4880, 27123.00
275.7000, 27045.00
276.9120, 27019.00
278.1230, 27038.00
279.3340, 26869.00
280.5450, 26889.00
281.7560, 26989.00
282.9670, 26909.00
284.1780, 27085.00
285.3880, 26981.00
286.5980, 26914.00
287.8090, 27036.00
289.0190, 27017.00
290.2290, 27038.00
291.4380, 27104.00
292.6480, 27004.00
293.8570, 27341.00
295.0670, 27325.00
296.2760, 27271.00
297.4850, 27487.00
298.6930, 27397.00
299.9020, 27596.00
301.1110, 27584.00
302.3190, 27417.00
303.5270, 27553.00
304.7350, 27388.00
305.9430, 27626.00
307.1510, 27505.00
308.3580, 27504.00
309.5660, 27814.00
310.7730, 27540.00
311.9800, 27748.00
313.1870, 28064.00
314.3940, 27936.00
315.6010, 28075.00
316.8070, 28315.00
318.0130, 28176.00
319.2200, 28386.00
320.4260, 28389.00
321.6310, 28455.00
322.8370, 28547.00
324.0430, 28693.00
325.2480, 28581.00
326.4540, 28863.00
327.6590, 28641.00
328.8640, 28668.00
330.0680, 28731.00
331.2730, 29024.00
332.4780, 28963.00
333.6820, 29081.00
334.8860, 29081.00
336.0900, 29008.00
337.2940, 29011.00
338.4980, 29232.00
339.7010, 29221.00
340.9050, 29013.00
342.1080, 29373.00
343.3110, 29546.00
344.5140, 29253.00
345.7170, 29324.00
346.9200, 29346.00
348.1220, 29160.00
349.3240, 29154.00
350.5270, 29149.00
351.7290, 29250.00
352.9310, 29235.00
354.1320, 29383.00
355.3340, 29328.68
356.5350, 29543.00
357.7370, 29295.00
358.9380, 29385.00
360.1390, 29468.00
361.3400, 29586.00
362.5400, 29555.00
363.7410, 29644.95
364.9410, 29458.00
366.1410, 29686.00
367.3410, 29628.00
368.5410, 29544.00
369.7410, 29649.00
370.9400, 29548.00
372.1400, 29865.00
373.3390, 29551.00
374.5380, 29915.00
375.7370, 29823.00
376.9360, 29614.00
378.1350, 29644.00
379.3330, 29871.00
380.5310, 29868.00
381.7300, 29891.00
382.9280, 29735.00
384.1260, 29805.00
385.3230, 29877.00
386.5210, 29651.00
387.7180, 29801.00
388.9160, 29593.00
390.1130, 29369.00
391.3100, 29631.00
392.5060, 29400.00
393.7030, 29414.00
394.9000, 29474.00
396.0960, 29215.00
397.2920, 29516.00
398.4880, 28999.00
399.6840, 29264.00
400.8800, 29146.00
402.0750, 29135.00
403.2710, 29327.00
404.4660, 29268.00
405.6610, 29281.00
406.8560, 29076.00
408.0510, 29293.00
409.2450, 29064.00
410.4400, 28994.00
411.6340, 29270.00
412.8280, 28956.00
414.0220, 29130.00
415.2160, 29050.00
416.4100, 29203.00
417.6030, 29244.00
418.7970, 29131.00
419.9900, 29251.00
421.1830, 29283.00
422.3760, 29326.00
423.5690, 29357.00
424.7610, 29387.00
425.9540, 29215.00
427.1460, 29180.00
428.3380, 29494.00
429.5300, 29280.00
430.7220, 29438.00
431.9140, 29331.00
433.1050, 29619.00
434.2970, 29337.00
435.4880, 29204.00
436.6790, 29531.00
437.8700, 29469.00
439.0610, 29403.00
440.2510, 29301.00
441.4420, 29350.64
442.6320, 29619.00
443.8220, 29478.00
445.0120, 29494.00
446.2020, 29615.00
447.3910, 29398.00
448.5810, 29888.00
449.7700, 29780.00
450.9600, 29888.00
452.1490, 29884.00
453.3370, 29929.00
454.5260, 29787.00
455.7150, 29733.00
456.9030, 29961.00
458.0910, 29873.00
459.2800, 29949.00
460.4670, 30000.00
461.6550, 30016.00
462.8430, 30172.00
464.0300, 30125.00
465.2180, 30157.00
466.4050, 30227.00
467.5920, 30185.00
468.7790, 30456.00
469.9650, 30450.63
471.1520, 30517.36
472.3380, 30626.00
473.5250, 30560.00
474.7110, 30678.00
475.8970, 30613.00
477.0820, 30655.00
478.2680, 30632.00
479.4540, 30703.31
480.6390, 30884.00
481.8240, 30905.00
483.0090, 30984.00
484.1940, 31145.00
485.3780, 30935.00
486.5630, 31071.00
487.7470, 31110.00
488.9320, 31351.00
490.1160, 31338.00
491.3000, 31397.08
492.4830, 31333.00
493.6670, 31416.00
494.8500, 31500.00
496.0340, 31516.00
497.2170, 31510.70
498.4000, 31481.00
499.5820, 31397.00
500.7650, 31414.00
501.9480, 31296.00
503.1300, 31398.00
504.3120, 31292.00
505.4940, 31530.00
506.6760, 31348.00
507.8580, 31504.00
509.0390, 31216.00
510.2210, 31512.00
511.4020, 31566.00
512.5830, 31614.00
513.7640, 31458.00
514.9450, 31673.00
516.1250, 31712.00
517.3060, 31370.00
518.4860, 31743.00
519.6660, 31520.00
520.8460, 31617.00
522.0260, 32227.00
523.2060, 31920.97
524.3850, 31854.00
525.5650, 31861.00
526.7440, 31850.00
527.9230, 31955.00
529.1020, 31831.00
530.2810, 32073.00
531.4590, 32053.00
532.6380, 32013.00
533.8160, 32039.00
534.9940, 32140.00
536.1720, 31948.00
537.3500, 32103.00
538.5270, 32364.00
539.7050, 32265.00
540.8820, 32612.00
542.0590, 32590.00
543.2360, 32627.00
544.4130, 32746.00
545.5900, 32762.00
546.7660, 32926.00
547.9430, 33021.00
549.1190, 33284.00
550.2950, 33591.00
551.4710, 33722.00
552.6470, 33868.11
553.8220, 34119.00
554.9980, 34061.00
556.1730, 34136.00
557.3480, 34323.00
558.5230, 34357.00
559.6980, 34428.66
560.8730, 34434.39
562.0470, 34424.00
563.2220, 34310.00
564.3960, 34292.13
565.5700, 33931.00
566.7440, 34135.00
567.9170, 33957.00
569.0910, 33800.00
570.2640, 33933.00
571.4380, 34092.00
572.6110, 33884.00
573.7840, 33809.00
574.9570, 33670.00
576.1290, 33672.00
577.3020, 33562.00
578.4740, 33544.36
579.6460, 33581.53
580.8180, 33570.00
581.9900, 33697.00
583.1620, 33839.00
584.3330, 33926.00
585.5040, 34019.00
586.6760, 33752.00
587.8470, 33991.00
589.0180, 33946.00
590.1880, 34370.00
591.3590, 34242.00
592.5290, 34160.00
593.7000, 34071.00
594.8700, 34157.00
596.0400, 34066.00
597.2090, 34098.66
598.3790, 34262.00
599.5490, 34145.00
600.7180, 34139.00
601.8870, 34179.00
603.0560, 34287.00
604.2250, 34312.57
605.3940, 34305.00
606.5620, 34455.00
607.7300, 34306.00
608.8990, 34389.00
610.0670, 34526.00
611.2350, 34684.00
612.4020, 34902.00
613.5700, 35133.00
614.7370, 34440.00
615.9050, 34717.00
617.0720, 34722.00
618.2390, 34812.00
619.4060, 34765.00
620.5720, 34866.13
621.7390, 35036.00
622.9050, 34980.00
624.0710, 35104.00
625.2370, 35065.00
626.4030, 35247.00
627.5690, 35304.94
628.7340, 35610.00
629.9000, 35534.00
631.0650, 35813.00
632.2300, 36015.00
633.3950, 35942.00
634.5600, 36149.00
635.7240, 36348.00
636.8890, 36569.00
638.0530, 36999.00
639.2170, 37034.00
640.3810, 37576.00
641.5450, 37696.00
642.7080, 38263.70
643.8720, 38818.00
645.0350, 39520.00
646.1980, 40245.00
647.3610, 41075.00
648.5240, 41638.00
649.6870, 42640.00
650.8490, 42712.00
652.0120, 43117.00
653.1740, 43463.00
654.3360, 43365.00
655.4980, 42944.00
656.6600, 42629.00
657.8210, 41995.00
658.9830, 41325.00
660.1440, 40739.00
661.3050, 39866.00
662.4660, 39476.00
663.6270, 38997.00
664.7870, 38460.00
665.9480, 38161.42
667.1080, 38134.00
668.2680, 37764.00
669.4280, 37732.00
670.5880, 37600.57
671.7480, 37504.49
672.9070, 37533.00
674.0670, 37485.00
675.2260, 37697.00
676.3850, 37787.00
677.5440, 37888.00
678.7030, 37778.00
679.8610, 37917.00
681.0200, 37978.00
682.1780, 38015.00
683.3360, 38277.00
684.4940, 38317.05
685.6520, 38264.00
686.8090, 38481.00
687.9670, 38650.00
689.1240, 38592.00
690.2810, 38737.00
691.4380, 39196.00
692.5950, 39131.00
693.7520, 38940.00
694.9080, 39185.00
696.0650, 39032.00
697.2210, 39281.00
698.3770, 38992.00
699.5330, 39359.00
700.6880, 38970.00
701.8440, 39107.00
702.9990, 39173.00
704.1550, 39303.00
705.3100, 39278.00
706.4650, 39406.00
707.6190, 39550.62
708.7740, 39840.00
709.9290, 39873.00
711.0830, 39666.00
712.2370, 39753.00
713.3910, 39597.00
714.5450, 39706.00
715.6980, 39684.00
716.8520, 39853.00
718.0050, 39673.00
719.1580, 39723.00
720.3110, 39418.00
721.4640, 39364.00
722.6170, 39142.00
723.7700, 39165.00
724.9220, 39209.00
726.0740, 38876.00
727.2260, 38765.00
728.3780, 38744.49
729.5300, 38568.00
730.6810, 38612.00
731.8330, 38353.00
732.9840, 38088.00
734.1350, 38153.27
735.2860, 38250.00
736.4370, 38131.00
737.5880, 38029.00
738.7380, 37948.00
739.8880, 37947.00
741.0390, 37692.00
742.1890, 37738.00
743.3380, 37579.00
744.4880, 37555.00
745.6380, 37612.00
746.7870, 37736.00
747.9360, 37584.00
749.0850, 37559.00
750.2340, 37515.00
751.3830, 37461.00
752.5310, 37470.00
753.6800, 37588.29
754.8280, 37508.89
755.9760, 37736.00
757.1240, 37605.00
758.2720, 37285.00
759.4190, 37639.00
760.5670, 37423.00
761.7140, 37219.00
762.8610, 37324.00
764.0080, 37325.00
765.1550, 37164.00
766.3020, 37313.00
767.4480, 37135.00
768.5950, 37158.00
769.7410, 37474.00
770.8870, 37100.00
772.0330, 37220.00
773.1780, 37141.00
774.3240, 37044.00
775.4690, 36782.00
776.6140, 36896.00
777.7590, 36743.25
778.9040, 37154.00
780.0490, 36736.00
781.1940, 36807.00
782.3380, 37033.00
783.4820, 36630.00
784.6260, 37031.00
785.7700, 36646.00
786.9140, 36761.00
788.0580, 36979.00
789.2010, 36877.00
790.3450, 36924.00
791.4880, 36768.00
792.6310, 37099.00
793.7730, 36836.00
794.9160, 37083.00
796.0590, 36859.00
797.2010, 36985.00
798.3430, 37191.00
799.4850, 36724.00
800.6270, 36824.00
801.7690, 36699.00
802.9100, 36927.00
804.0520, 36885.00
805.1930, 37034.00
806.3340, 36843.00
807.4750, 37022.00
808.6160, 37040.00
809.7560, 36836.00
810.8970, 36902.00
812.0370, 36652.00
813.1770, 36971.00
814.3170, 37102.00
815.4570, 37001.00
816.5960, 37208.00
817.7360, 37222.00
818.8750, 37357.00
820.0140, 37153.00
821.1530, 37138.00
822.2920, 37087.00
823.4310, 37056.70
824.5690, 37083.58
825.7070, 37118.00
826.8460, 37205.00
827.9840, 37298.00
829.1220, 37290.93
830.2590, 37299.00
831.3970, 37323.00
832.5340, 37272.00
833.6710, 37349.00
834.8080, 37338.00
835.9450, 37364.00
837.0820, 37476.00
838.2190, 37313.00
839.3550, 37746.00
840.4910, 37915.00
841.6270, 37446.00
842.7630, 37638.00
843.8990, 37950.00
845.0350, 38180.00
846.1700, 37944.00
847.3060, 38347.00
848.4410, 37961.00
849.5760, 37995.45
850.7100, 37799.00
851.8450, 37947.00
852.9800, 37733.00
854.1140, 37985.00
855.2480, 38057.00
856.3820, 38157.00
857.5160, 38195.00
858.6500, 38392.00
859.7830, 38288.00
860.9170, 38355.00
862.0500, 38227.00
863.1830, 38147.00
864.3160, 38512.00
865.4480, 38382.00
866.5810, 38650.00
867.7130, 38528.00
868.8460, 38459.00
869.9780, 38874.00
871.1100, 38745.00
872.2410, 38562.00
873.3730, 38870.00
874.5050, 38997.00
875.6360, 38987.00
876.7670, 38971.00
877.8980, 39092.80
879.0290, 39142.75
880.1590, 39240.62
881.2900, 39294.80
882.4200, 39294.00
883.5500, 39227.00
884.6800, 39200.00
885.8100, 39292.00
886.9400, 39212.00
888.0690, 39426.00
889.1990, 39372.00
890.3280, 39601.00
891.4570, 39552.01
892.5860, 39577.00
893.7140, 39517.19
894.8430, 39625.00
895.9710, 39686.00
897.1000, 39575.00
898.2280, 39653.00
899.3560, 39795.00
900.4830, 39967.00
901.6110, 39768.00
902.7380, 39679.00
903.8660, 40189.00
904.9930, 39784.00
906.1200, 40193.00
907.2460, 39844.00
908.3730, 40432.00
909.5000, 40252.00
910.6260, 40625.00
911.7520, 40499.00
912.8780, 40438.00
914.0040, 40429.00
915.1290, 40400.00
916.2550, 40424.65
917.3800, 40523.00
918.5050, 40511.00
919.6300, 40542.00
920.7550, 40603.00
921.8800, 40496.00
923.0040, 40988.00
924.1290, 40864.00
925.2530, 40845.00
926.3770, 40763.00
927.5010, 40763.00
928.6250, 40863.00
929.7480, 40728.00
930.8720, 40875.00
931.9950, 41050.00
933.1180, 40973.00
934.2410, 41160.00
935.3640, 40965.00
936.4860, 41196.00
937.6090, 41274.00
938.7310, 41125.00
939.8530, 41234.00
940.9750, 41372.00
942.0970, 41136.00
943.2180, 41205.00
944.3400, 41152.00
945.4610, 41273.00
946.5820, 41463.00
947.7030, 41130.00
948.8240, 41458.00
949.9450, 41527.00
951.0650, 41521.00
952.1860, 41340.00
953.3060, 41576.00
954.4260, 41183.00
955.5460, 41423.00
956.6650, 41373.00
957.7850, 41559.00
958.9040, 41273.00
960.0230, 41292.00
961.1420, 41345.00
962.2610, 41180.00
963.3800, 41320.00
964.4990, 41302.00
965.6170, 40970.00
966.7350, 41112.00
967.8530, 41252.00
968.9710, 41321.00
970.0890, 41433.00
971.2070, 41484.00
972.3240, 41515.00
973.4410, 41321.00
974.5580, 41556.00
975.6750, 41521.00
976.7920, 41354.00
977.9090, 41543.00
979.0250, 41695.00
980.1410, 41659.00
981.2580, 41724.00
982.3740, 41819.00
983.4890, 41628.00
984.6050, 41549.00
985.7200, 41846.00
986.8360, 42012.00
987.9510, 41830.00
989.0660, 41745.00
990.1810, 41934.00
991.2950, 41753.00
992.4100, 42056.00
993.5240, 42017.00
994.6390, 42116.00
995.7530, 42185.00
996.8660, 42347.00
997.9800, 42408.00
999.0940, 42359.00
1000.207, 42658.00
1001.320, 42499.00
1002.433, 42817.00
1003.546, 42908.00
1004.659, 42977.00
1005.772, 42844.00
1006.884, 43123.00
1007.996, 43167.00
1009.108, 43235.00
1010.220, 43562.00
1011.332, 43788.00
1012.444, 43810.00
1013.555, 43822.00
1014.666, 44036.00
1015.777, 43993.00
1016.888, 44264.00
1017.999, 44320.00
1019.110, 44423.00
1020.220, 44720.00
1021.331, 44743.00
1022.441, 44883.00
1023.551, 45111.00
1024.661, 45380.00
1025.770, 45330.00
1026.880, 45581.00
1027.989, 45460.00
1029.098, 45715.00
1030.207, 45609.00
1031.316, 45395.00
1032.425, 45417.00
1033.533, 45412.00
1034.642, 45198.00
1035.750, 45412.00
1036.858, 45150.00
1037.966, 44999.00
1039.073, 44812.00
1040.181, 44524.00
1041.288, 44581.00
1042.396, 44613.00
1043.503, 44351.00
1044.610, 44280.00
1045.716, 44179.00
1046.823, 44182.00
1047.929, 44100.00
1049.036, 44130.00
1050.142, 43995.00
1051.248, 44484.00
1052.353, 44189.00
1053.459, 44759.00
1054.564, 43780.00
1055.670, 43975.00
1056.775, 44042.00
1057.880, 43957.00
1058.985, 43870.00
1060.089, 43953.00
1061.194, 43730.00
1062.298, 43926.00
1063.402, 43764.00
1064.506, 43801.00
1065.610, 43760.00
1066.713, 43792.00
1067.817, 43869.00
1068.920, 43901.00
1070.023, 43706.00
1071.126, 43690.00
1072.229, 43898.00
1073.332, 44051.00
1074.435, 43718.00
1075.537, 44233.00
1076.639, 43944.00
1077.741, 43524.00
1078.843, 44193.00
1079.945, 44074.00
1081.046, 44197.00
1082.148, 44595.00
1083.249, 43956.00
1084.350, 43705.00
1085.451, 44352.00
1086.551, 44221.00
1087.652, 44362.00
1088.752, 44135.00
1089.853, 44403.00
1090.953, 44354.00
1092.053, 44533.00
1093.152, 44418.00
1094.252, 44389.00
1095.351, 44820.00
1096.451, 44556.86
1097.550, 44708.00
1098.649, 44391.00
1099.748, 44180.00
1100.846, 44134.00
1101.945, 44267.00
1103.043, 44342.00
1104.141, 44384.00
1105.239, 44281.00
1106.337, 44408.00
1107.434, 44094.00
1108.532, 44305.00
1109.629, 44061.00
1110.726, 44190.00
1111.823, 44451.00
1112.920, 44090.00
1114.017, 44103.00
1115.113, 44219.00
1116.210, 44452.00
1117.306, 44256.00
1118.402, 44362.00
1119.498, 44513.00
1120.593, 44172.00
1121.689, 44816.00
1122.784, 44441.00
1123.879, 44685.00
1124.974, 44516.00
1126.069, 44356.00
1127.164, 44603.00
1128.259, 44624.00
1129.353, 44498.00
1130.447, 44591.00
1131.541, 44797.00
1132.635, 44508.00
1133.729, 44666.00
1134.822, 45018.00
1135.916, 44713.00
1137.009, 44478.00
1138.102, 44681.00
1139.195, 44787.00
1140.288, 44723.00
1141.380, 44845.00
1142.473, 44849.00
1143.565, 44789.00
1144.657, 44712.00
1145.749, 44788.00
1146.841, 44786.00
1147.932, 44478.00
1149.024, 44813.00
1150.115, 44723.00
1151.206, 45182.00
1152.297, 44929.00
1153.388, 44871.00
1154.479, 45041.00
1155.569, 45030.00
1156.659, 45073.08
1157.750, 44789.00
1158.839, 45059.00
1159.929, 44972.00
1161.019, 44770.00
1162.108, 44915.00
1163.198, 44884.00
1164.287, 44847.00
1165.376, 44888.00
1166.465, 45018.00
1167.553, 45029.32
1168.642, 45084.91
1169.730, 45148.00
1170.818, 45148.00
1171.906, 45171.00
1172.994, 45200.00
1174.082, 45433.00
1175.170, 45403.00
1176.257, 45386.00
1177.344, 45452.26
1178.431, 45372.00
1179.518, 45478.00
1180.605, 45452.00
1181.691, 45537.00
1182.778, 45381.00
1183.864, 45529.00
1184.950, 45680.00
1186.036, 45377.00
1187.122, 45743.00
1188.207, 45308.00
1189.292, 45711.00
1190.378, 45370.00
1191.463, 45496.00
1192.548, 45737.00
1193.632, 45944.00
1194.717, 45874.00
1195.801, 45786.00
1196.886, 45457.00
1197.970, 45895.00
1199.054, 45762.00
1200.137, 45760.00
1201.221, 45854.00
1202.305, 45830.90
1203.388, 45923.00
1204.471, 45939.00
1205.554, 46056.00
1206.637, 46118.00
1207.719, 46067.00
1208.802, 45955.00
1209.884, 46397.00
1210.966, 46364.00
1212.048, 46239.00
1213.130, 46373.00
1214.212, 46157.00
1215.293, 46439.00
1216.374, 46140.00
1217.456, 46386.00
1218.536, 46347.00
1219.617, 46546.00
1220.698, 46564.21
1221.778, 46651.00
1222.859, 46555.00
1223.939, 46630.00
1225.019, 46531.00
1226.099, 46451.00
1227.178, 46517.00
1228.258, 46886.00
1229.337, 46581.00
1230.417, 46720.00
1231.496, 46808.00
1232.574, 46631.00
1233.653, 46865.00
1234.732, 46682.00
1235.810, 46905.00
1236.888, 46782.00
1237.966, 47130.00
1239.044, 47087.36
1240.122, 46829.00
1241.199, 47098.00
1242.277, 46940.00
1243.354, 46839.00
1244.431, 47354.00
1245.508, 47002.00
1246.585, 47123.00
1247.661, 47071.00
1248.738, 46939.00
1249.814, 47165.00
1250.890, 47212.00
1251.966, 47280.00
1253.042, 47214.00
1254.117, 47137.00
1255.193, 46994.00
1256.268, 47283.00
1257.343, 47487.00
1258.418, 47094.00
1259.493, 47226.00
1260.567, 47191.00
1261.642, 47451.00
1262.716, 47715.00
1263.790, 47384.00
1264.864, 47431.00
1265.938, 47639.00
1267.011, 47287.00
1268.085, 47485.00
1269.158, 47540.00
1270.231, 47580.00
1271.304, 47457.00
1272.377, 47565.00
1273.450, 47558.00
1274.522, 47531.00
1275.594, 47570.52
1276.666, 47559.00
1277.738, 47545.00
1278.810, 47735.00
1279.882, 47547.71
1280.953, 47747.55
1282.025, 47871.48
1283.096, 47923.54
1284.167, 47688.57
1285.238, 47824.25
1286.308, 47811.36
1287.379, 47792.41
