##NAMES=Laverovite
##RRUFFID=R060216
##IDEAL CHEMISTRY=K_2_NaMn^2+^_7_Zr^4+^_2_(Si_4_O_12_)_2_O_2_(OH)_4_F
##LOCALITY=Desourdy Quarry, Mont Saint-Hilaire, Rouville County, Quebec, Canada
##OWNER=RRUFF
##SOURCE=Royal Ontario Museum
##DESCRIPTION=Brown fragment showing lamellar habit. Type sample
##STATUS=The identification of this mineral has been confirmed by X-ray diffraction and chemical analysis
##URL=rruff.info/R060216
##MEASURED CHEMISTRY=(K_1.74_Na_0.18_[box]_0.08_)_Σ=2_(Na_0.92_Ca_0.08_)_Σ=1_(Mn_4.09_Fe^2+^_2.67_Mg_0.24_)_Σ=7_(Zr_1.42_Ti_0.58_)_Σ=2_(Si_7.86_Al_0.14_)_Σ=8_O_26_((OH)_3.14_O_0.86_)_Σ=4_
##PIN_ID=L00627
##ORIENTATION=Laser parallel to (1 0 1). Fiducial mark perpendicular to laser is parallel to b [0 1 0]
217.3660, 27382.00
218.5850, 27194.00
219.8030, 27158.00
221.0220, 27211.00
222.2400, 26842.00
223.4590, 27217.00
224.6770, 27243.00
225.8950, 27198.00
227.1120, 26860.00
228.3300, 26978.00
229.5480, 26914.00
230.7650, 26790.00
231.9820, 26796.00
233.1990, 26843.00
234.4160, 26556.00
235.6330, 26835.00
236.8490, 26622.00
238.0660, 26640.00
239.2820, 26558.00
240.4980, 26409.00
241.7140, 26493.00
242.9300, 26017.00
244.1460, 26110.00
245.3610, 25930.00
246.5770, 26148.00
247.7920, 26161.00
249.0070, 26082.00
250.2220, 26017.00
251.4370, 25953.89
252.6510, 26055.26
253.8660, 26104.55
255.0800, 26104.59
256.2940, 25907.80
257.5080, 25965.17
258.7220, 25920.69
259.9360, 25872.03
261.1490, 25965.19
262.3630, 25797.03
263.5760, 25887.95
264.7890, 25875.45
266.0020, 25910.28
267.2150, 25842.63
268.4270, 25614.00
269.6400, 26048.00
270.8520, 25742.00
272.0640, 25507.00
273.2760, 25840.00
274.4880, 25867.00
275.7000, 25860.85
276.9120, 26062.00
278.1230, 25913.00
279.3340, 25644.00
280.5450, 25641.00
281.7560, 25693.00
282.9670, 25864.00
284.1780, 25794.00
285.3880, 25861.00
286.5980, 25856.00
287.8090, 26001.00
289.0190, 25765.00
290.2290, 25972.00
291.4380, 26041.00
292.6480, 25842.00
293.8570, 25973.00
295.0670, 25856.00
296.2760, 25896.00
297.4850, 25952.00
298.6930, 25931.00
299.9020, 25991.68
301.1110, 25893.00
302.3190, 25998.00
303.5270, 26031.00
304.7350, 25884.00
305.9430, 26042.00
307.1510, 26158.00
308.3580, 26148.00
309.5660, 26093.00
310.7730, 26178.00
311.9800, 26183.00
313.1870, 25986.00
314.3940, 26148.00
315.6010, 26164.00
316.8070, 26217.00
318.0130, 26331.00
319.2200, 26149.00
320.4260, 25971.43
321.6310, 26098.54
322.8370, 26173.59
324.0430, 26199.38
325.2480, 26028.33
326.4540, 26111.45
327.6590, 26092.71
328.8640, 26069.79
330.0680, 26188.67
331.2730, 26046.25
332.4780, 26162.89
333.6820, 26176.11
334.8860, 26236.66
336.0900, 26194.72
337.2940, 26184.44
338.4980, 26276.67
339.7010, 26312.14
340.9050, 26258.40
342.1080, 26321.95
343.3110, 26175.94
344.5140, 26213.82
345.7170, 26331.04
346.9200, 26282.45
348.1220, 26347.87
349.3240, 26369.87
350.5270, 26194.53
351.7290, 26362.38
352.9310, 26381.80
354.1320, 26473.00
355.3340, 26348.00
356.5350, 26329.00
357.7370, 26449.00
358.9380, 26378.00
360.1390, 26330.70
361.3400, 26430.00
362.5400, 26249.00
363.7410, 26350.00
364.9410, 26548.00
366.1410, 26136.00
367.3410, 26058.00
368.5410, 26225.00
369.7410, 26151.00
370.9400, 26063.00
372.1400, 26250.00
373.3390, 26100.00
374.5380, 26062.00
375.7370, 26031.00
376.9360, 25967.00
378.1350, 26104.00
379.3330, 25868.00
380.5310, 25931.00
381.7300, 25714.00
382.9280, 25594.00
384.1260, 25758.00
385.3230, 25705.00
386.5210, 25678.00
387.7180, 25525.00
388.9160, 25405.00
390.1130, 25560.00
391.3100, 25483.00
392.5060, 25497.33
393.7030, 25464.00
394.9000, 25437.68
396.0960, 25413.60
397.2920, 25395.00
398.4880, 25375.99
399.6840, 25343.07
400.8800, 25399.00
402.0750, 25293.00
403.2710, 25228.00
404.4660, 24994.00
405.6610, 25110.00
406.8560, 24979.00
408.0510, 24938.52
409.2450, 24943.00
410.4400, 24904.00
411.6340, 24813.00
412.8280, 24867.00
414.0220, 24898.00
415.2160, 24827.00
416.4100, 24941.00
417.6030, 24808.00
418.7970, 24700.00
419.9900, 24727.00
421.1830, 24672.00
422.3760, 24749.00
423.5690, 24496.00
424.7610, 24635.00
425.9540, 24479.42
427.1460, 24590.76
428.3380, 24650.03
429.5300, 24660.04
430.7220, 24473.21
431.9140, 24540.55
433.1050, 24506.04
434.2970, 24467.35
435.4880, 24570.47
436.6790, 24412.28
437.8700, 24513.15
439.0610, 24510.60
440.2510, 24555.40
441.4420, 24497.70
442.6320, 24471.66
443.8220, 24548.14
445.0120, 24567.85
446.2020, 24498.36
447.3910, 24546.17
448.5810, 24384.41
449.7700, 24406.54
450.9600, 24420.00
452.1490, 24450.00
453.3370, 24500.49
454.5260, 24514.10
455.7150, 24642.98
456.9030, 24719.80
458.0910, 24747.34
459.2800, 24578.06
460.4670, 24662.94
461.6550, 24645.96
462.8430, 24624.80
464.0300, 24745.45
465.2180, 24604.79
466.4050, 24723.19
467.5920, 24738.17
468.7790, 24800.48
469.9650, 24760.30
471.1520, 24751.78
472.3380, 24845.77
473.5250, 24883.00
474.7110, 24831.02
475.8970, 24896.33
477.0820, 24752.07
478.2680, 24760.00
479.4540, 24780.00
480.6390, 24693.00
481.8240, 24802.00
483.0090, 24855.07
484.1940, 24787.00
485.3780, 24932.00
486.5630, 24976.14
487.7470, 24712.79
488.9320, 24963.00
490.1160, 24665.00
491.3000, 24639.00
492.4830, 24844.00
493.6670, 24720.00
494.8500, 24609.00
496.0340, 24732.00
497.2170, 24617.99
498.4000, 24741.00
499.5820, 24620.00
500.7650, 24647.00
501.9480, 24757.00
503.1300, 24629.00
504.3120, 24641.00
505.4940, 24625.00
506.6760, 24776.00
507.8580, 24596.00
509.0390, 24672.00
510.2210, 24615.00
511.4020, 24758.00
512.5830, 24691.00
513.7640, 24696.00
514.9450, 24637.00
516.1250, 24657.00
517.3060, 24581.00
518.4860, 24713.00
519.6660, 24702.00
520.8460, 24646.00
522.0260, 24675.00
523.2060, 24913.00
524.3850, 24747.00
525.5650, 24911.00
526.7440, 24878.00
527.9230, 24987.00
529.1020, 24852.00
530.2810, 24858.00
531.4590, 25045.00
532.6380, 25171.00
533.8160, 25314.00
534.9940, 25283.00
536.1720, 25176.00
537.3500, 25166.00
538.5270, 25371.00
539.7050, 25314.00
540.8820, 25432.00
542.0590, 25463.00
543.2360, 25558.00
544.4130, 25822.00
545.5900, 25799.00
546.7660, 25756.00
547.9430, 26138.00
549.1190, 26120.00
550.2950, 26037.00
551.4710, 26280.00
552.6470, 26129.00
553.8220, 26203.00
554.9980, 26379.00
556.1730, 26545.00
557.3480, 26433.00
558.5230, 26587.00
559.6980, 26492.00
560.8730, 26590.00
562.0470, 26739.00
563.2220, 26769.00
564.3960, 27080.00
565.5700, 27082.00
566.7440, 27067.74
567.9170, 26908.00
569.0910, 26918.00
570.2640, 26755.00
571.4380, 26678.00
572.6110, 26915.00
573.7840, 27001.00
574.9570, 26953.00
576.1290, 27107.00
577.3020, 27278.00
578.4740, 27219.20
579.6460, 27080.00
580.8180, 27254.00
581.9900, 26984.00
583.1620, 27106.00
584.3330, 27381.00
585.5040, 27041.00
586.6760, 27276.00
587.8470, 27059.00
589.0180, 27271.00
590.1880, 27328.00
591.3590, 27352.00
592.5290, 27299.00
593.7000, 27526.00
594.8700, 27382.00
596.0400, 27616.00
597.2090, 27465.00
598.3790, 27479.00
599.5490, 27690.00
600.7180, 27531.00
601.8870, 27571.00
603.0560, 27873.00
604.2250, 27873.00
605.3940, 27795.00
606.5620, 27705.00
607.7300, 27816.58
608.8990, 28265.00
610.0670, 28046.00
611.2350, 28155.00
612.4020, 28311.00
613.5700, 28192.00
614.7370, 28359.00
615.9050, 28445.00
617.0720, 28414.00
618.2390, 28512.00
619.4060, 28567.00
620.5720, 28781.00
621.7390, 28944.00
622.9050, 28946.00
624.0710, 28696.00
625.2370, 29032.00
626.4030, 29535.00
627.5690, 29269.00
628.7340, 29647.00
629.9000, 29763.00
631.0650, 29756.00
632.2300, 29864.00
633.3950, 30393.00
634.5600, 30346.00
635.7240, 30630.00
636.8890, 30855.00
638.0530, 31071.00
639.2170, 31444.00
640.3810, 31600.00
641.5450, 32142.00
642.7080, 32155.00
643.8720, 32148.00
645.0350, 32573.00
646.1980, 32976.00
647.3610, 33142.00
648.5240, 33431.00
649.6870, 33385.00
650.8490, 33628.00
652.0120, 34044.00
653.1740, 33577.00
654.3360, 33666.00
655.4980, 33268.00
656.6600, 33262.00
657.8210, 32891.00
658.9830, 32817.00
660.1440, 32443.00
661.3050, 32174.00
662.4660, 31967.00
663.6270, 31463.00
664.7870, 31388.00
665.9480, 31047.00
667.1080, 30957.00
668.2680, 30843.00
669.4280, 30664.00
670.5880, 30465.00
671.7480, 30443.00
672.9070, 30110.00
674.0670, 30324.00
675.2260, 30605.00
676.3850, 30325.00
677.5440, 29985.00
678.7030, 30231.00
679.8610, 29761.00
681.0200, 29719.00
682.1780, 29673.00
683.3360, 29625.00
684.4940, 29539.00
685.6520, 29434.00
686.8090, 29475.00
687.9670, 29504.00
689.1240, 29538.00
690.2810, 29411.00
691.4380, 29511.00
692.5950, 29387.00
693.7520, 29433.00
694.9080, 29372.00
696.0650, 29421.00
697.2210, 29216.00
698.3770, 29328.00
699.5330, 29203.00
700.6880, 29392.00
701.8440, 28891.00
702.9990, 28972.00
704.1550, 28988.00
705.3100, 28998.00
706.4650, 28859.00
707.6190, 28954.00
708.7740, 29026.00
709.9290, 28864.00
711.0830, 28641.00
712.2370, 28719.00
713.3910, 28467.00
714.5450, 28683.00
715.6980, 28575.00
716.8520, 28374.00
718.0050, 28475.00
719.1580, 28285.00
720.3110, 28473.00
721.4640, 28201.00
722.6170, 28127.00
723.7700, 28132.00
724.9220, 27908.00
726.0740, 27815.00
727.2260, 27879.00
728.3780, 27528.00
729.5300, 27596.00
730.6810, 27689.00
731.8330, 27754.00
732.9840, 27698.59
734.1350, 27697.00
735.2860, 27500.00
736.4370, 27449.00
737.5880, 27253.00
738.7380, 27247.00
739.8880, 27208.00
741.0390, 27052.00
742.1890, 27261.00
743.3380, 27175.00
744.4880, 27011.00
745.6380, 26670.00
746.7870, 27096.00
747.9360, 27020.00
749.0850, 26727.00
750.2340, 26738.00
751.3830, 26760.00
752.5310, 26458.00
753.6800, 26480.00
754.8280, 26518.00
755.9760, 26696.00
757.1240, 26637.00
758.2720, 26377.00
759.4190, 26753.00
760.5670, 26591.00
761.7140, 26306.00
762.8610, 26583.00
764.0080, 26399.00
765.1550, 26338.00
766.3020, 26326.00
767.4480, 26334.00
768.5950, 26214.00
769.7410, 26199.00
770.8870, 26166.00
772.0330, 26077.94
773.1780, 26191.00
774.3240, 25992.00
775.4690, 25955.00
776.6140, 26026.00
777.7590, 25823.00
778.9040, 25922.00
780.0490, 25498.00
781.1940, 25577.00
782.3380, 25394.00
783.4820, 25400.00
784.6260, 25404.00
785.7700, 25388.00
786.9140, 25336.00
788.0580, 25375.00
789.2010, 25293.66
790.3450, 25047.00
791.4880, 25151.00
792.6310, 24915.00
793.7730, 24795.00
794.9160, 24778.00
796.0590, 24886.00
797.2010, 24574.00
798.3430, 24700.00
799.4850, 24669.00
800.6270, 24484.00
801.7690, 24466.00
802.9100, 24407.00
804.0520, 24518.00
805.1930, 24587.00
806.3340, 24432.00
807.4750, 24254.00
808.6160, 24228.00
809.7560, 24218.00
810.8970, 24229.00
812.0370, 24157.00
813.1770, 24215.00
814.3170, 24213.00
815.4570, 24004.00
816.5960, 24007.00
817.7360, 24112.00
818.8750, 24011.00
820.0140, 24045.00
821.1530, 23946.00
822.2920, 23898.00
823.4310, 23872.00
824.5690, 24060.00
825.7070, 23929.00
826.8460, 23913.00
827.9840, 24125.00
829.1220, 23994.00
830.2590, 23877.00
831.3970, 23844.00
832.5340, 24083.00
833.6710, 23629.00
834.8080, 24066.00
835.9450, 23824.00
837.0820, 23815.00
838.2190, 23838.00
839.3550, 24058.00
840.4910, 24037.30
841.6270, 24123.00
842.7630, 24154.00
843.8990, 24097.00
845.0350, 24150.00
846.1700, 24134.00
847.3060, 24068.00
848.4410, 24118.00
849.5760, 24347.00
850.7100, 24290.00
851.8450, 24052.00
852.9800, 24370.00
854.1140, 24601.00
855.2480, 24335.00
856.3820, 24524.00
857.5160, 24771.00
858.6500, 24412.00
859.7830, 24419.00
860.9170, 24593.00
862.0500, 24527.00
863.1830, 24437.00
864.3160, 24863.00
865.4480, 24907.00
866.5810, 24810.00
867.7130, 25159.00
868.8460, 25102.00
869.9780, 25336.00
871.1100, 25337.11
872.2410, 24930.00
873.3730, 25266.00
874.5050, 25445.00
875.6360, 25356.00
876.7670, 25648.00
877.8980, 25531.00
879.0290, 25540.00
880.1590, 25637.00
881.2900, 25633.00
882.4200, 25700.00
883.5500, 25822.00
884.6800, 25692.00
885.8100, 25810.00
886.9400, 25743.00
888.0690, 25887.00
889.1990, 25878.00
890.3280, 26018.00
891.4570, 26135.00
892.5860, 26340.00
893.7140, 26415.05
894.8430, 26483.30
895.9710, 26584.00
897.1000, 26573.00
898.2280, 26605.00
899.3560, 26704.00
900.4830, 26850.00
901.6110, 26879.39
902.7380, 26865.00
903.8660, 26981.00
904.9930, 26958.00
906.1200, 26961.00
907.2460, 27207.00
908.3730, 27319.00
909.5000, 27233.00
910.6260, 27290.00
911.7520, 27313.00
912.8780, 27325.63
914.0040, 27261.00
915.1290, 27405.00
916.2550, 27550.00
917.3800, 27588.00
918.5050, 27774.00
919.6300, 27935.00
920.7550, 27694.00
921.8800, 27669.00
923.0040, 27796.00
924.1290, 27746.00
925.2530, 27787.00
926.3770, 27901.00
927.5010, 27837.00
928.6250, 28070.00
929.7480, 28248.00
930.8720, 28220.00
931.9950, 28162.00
933.1180, 28492.00
934.2410, 28364.00
935.3640, 28179.00
936.4860, 28494.00
937.6090, 28183.00
938.7310, 28658.00
939.8530, 28502.00
940.9750, 28503.00
942.0970, 28505.00
943.2180, 28464.00
944.3400, 28456.00
945.4610, 28546.00
946.5820, 28749.00
947.7030, 28680.00
948.8240, 28562.00
949.9450, 28374.00
951.0650, 28355.00
952.1860, 28357.00
953.3060, 28456.00
954.4260, 28237.00
955.5460, 28385.00
956.6650, 28182.00
957.7850, 28391.00
958.9040, 28268.00
960.0230, 28243.00
961.1420, 28282.00
962.2610, 28063.00
963.3800, 28129.89
964.4990, 28061.10
965.6170, 28181.00
966.7350, 27906.00
967.8530, 28034.00
968.9710, 27766.00
970.0890, 28212.00
971.2070, 28072.00
972.3240, 27930.00
973.4410, 28191.00
974.5580, 27999.00
975.6750, 27934.00
976.7920, 28198.00
977.9090, 28006.00
979.0250, 28221.00
980.1410, 28128.00
981.2580, 28088.00
982.3740, 28154.00
983.4890, 28239.00
984.6050, 28261.96
985.7200, 28411.00
986.8360, 28346.00
987.9510, 28447.00
989.0660, 28416.00
990.1810, 28566.00
991.2950, 28346.00
992.4100, 28764.00
993.5240, 28596.00
994.6390, 29027.00
995.7530, 28672.00
996.8660, 28617.00
997.9800, 28970.00
999.0940, 29000.00
1000.207, 28845.00
1001.320, 29069.00
1002.433, 28919.00
1003.546, 29597.00
1004.659, 29322.03
1005.772, 29441.00
1006.884, 29223.00
1007.996, 29180.00
1009.108, 29391.00
1010.220, 29418.00
1011.332, 29562.00
1012.444, 29619.00
1013.555, 29536.00
1014.666, 29781.00
1015.777, 29867.00
1016.888, 30009.00
1017.999, 29910.00
1019.110, 29650.00
1020.220, 29689.00
1021.331, 29702.00
1022.441, 29637.00
1023.551, 29851.00
1024.661, 29487.00
1025.770, 29696.00
1026.880, 29479.00
1027.989, 29486.00
1029.098, 29486.00
1030.207, 29353.24
1031.316, 29222.53
1032.425, 29113.00
1033.533, 28845.00
1034.642, 28530.00
1035.750, 28374.00
1036.858, 28441.00
1037.966, 27890.00
1039.073, 27791.00
1040.181, 27892.00
1041.288, 27664.00
1042.396, 27631.00
1043.503, 27208.00
1044.610, 27212.00
1045.716, 27042.00
1046.823, 26955.00
1047.929, 26802.00
1049.036, 26398.00
1050.142, 26615.00
1051.248, 26202.00
1052.353, 26232.00
1053.459, 26116.00
1054.564, 26213.00
1055.670, 25907.00
1056.775, 26018.00
1057.880, 25576.00
1058.985, 25438.00
1060.089, 25432.00
1061.194, 25326.00
1062.298, 25126.00
1063.402, 25382.00
1064.506, 25058.00
1065.610, 24997.00
1066.713, 24836.00
1067.817, 24663.00
1068.920, 24748.00
1070.023, 24655.00
1071.126, 24704.00
1072.229, 24639.00
1073.332, 24530.00
1074.435, 24388.00
1075.537, 24420.00
1076.639, 24105.00
1077.741, 24272.00
1078.843, 24322.00
1079.945, 24077.00
1081.046, 23863.00
1082.148, 23981.00
1083.249, 23926.00
1084.350, 23918.00
1085.451, 23680.00
1086.551, 23738.00
1087.652, 23764.00
1088.752, 23352.00
1089.853, 23658.00
1090.953, 23458.00
1092.053, 23417.00
1093.152, 23367.00
1094.252, 23215.00
1095.351, 23039.00
1096.451, 23097.00
1097.550, 23181.00
1098.649, 22947.00
1099.748, 22841.00
1100.846, 22661.00
1101.945, 22929.00
1103.043, 22689.00
1104.141, 22723.00
1105.239, 22552.00
1106.337, 22517.00
1107.434, 22758.00
1108.532, 22391.00
1109.629, 22508.00
1110.726, 22278.00
1111.823, 22385.00
1112.920, 22230.00
1114.017, 22178.00
1115.113, 22359.00
1116.210, 22193.00
1117.306, 22187.00
1118.402, 22337.00
1119.498, 22530.00
1120.593, 22378.00
1121.689, 22398.00
1122.784, 22308.00
1123.879, 22463.00
1124.974, 22144.00
1126.069, 22175.00
1127.164, 21974.00
1128.259, 21946.00
1129.353, 21739.00
1130.447, 21732.00
1131.541, 21615.00
1132.635, 21522.00
1133.729, 21543.91
1134.822, 21505.00
1135.916, 21538.00
1137.009, 21595.00
1138.102, 21533.00
1139.195, 21563.00
1140.288, 21459.00
1141.380, 21358.00
1142.473, 21339.00
1143.565, 21458.00
1144.657, 21380.00
1145.749, 21164.00
1146.841, 21498.00
1147.932, 21477.00
1149.024, 21278.00
1150.115, 21322.00
1151.206, 21137.00
1152.297, 21162.00
1153.388, 21142.00
1154.479, 21182.00
1155.569, 21120.00
1156.659, 21253.00
1157.750, 21059.00
1158.839, 20989.00
1159.929, 21178.00
1161.019, 21151.00
1162.108, 21145.00
1163.198, 21155.00
1164.287, 21122.73
1165.376, 21151.00
1166.465, 21077.00
1167.553, 21039.00
1168.642, 21014.00
1169.730, 21016.00
1170.818, 21009.00
1171.906, 20959.00
1172.994, 21112.00
1174.082, 21120.00
1175.170, 21172.00
1176.257, 20980.00
1177.344, 20921.00
1178.431, 20937.47
1179.518, 21077.00
1180.605, 21031.00
1181.691, 20935.00
1182.778, 21127.00
1183.864, 20880.00
1184.950, 20856.00
1186.036, 20891.33
1187.122, 20862.29
1188.207, 20917.00
1189.292, 20987.00
1190.378, 21029.00
1191.463, 21071.00
1192.548, 20858.00
1193.632, 20947.00
1194.717, 21101.00
1195.801, 20781.00
1196.886, 20850.00
1197.970, 20915.00
1199.054, 21073.00
1200.137, 20971.00
1201.221, 20938.00
1202.305, 21069.00
1203.388, 20862.00
1204.471, 20909.00
1205.554, 20994.00
1206.637, 20945.00
1207.719, 21050.00
1208.802, 20885.00
1209.884, 20752.00
1210.966, 20762.00
1212.048, 20836.00
1213.130, 20804.00
1214.212, 20902.00
1215.293, 20732.00
1216.374, 20906.00
1217.456, 20951.00
1218.536, 21047.00
1219.617, 20903.00
1220.698, 20935.00
1221.778, 21139.00
1222.859, 20814.00
1223.939, 20833.00
1225.019, 20991.00
1226.099, 21106.00
1227.178, 21002.00
1228.258, 20863.00
1229.337, 20919.00
1230.417, 20887.00
1231.496, 20810.00
1232.574, 20845.00
1233.653, 20952.00
1234.732, 20916.00
1235.810, 20836.00
1236.888, 20950.00
1237.966, 20868.00
1239.044, 20916.00
1240.122, 20967.00
1241.199, 20891.00
1242.277, 20828.00
1243.354, 20779.00
1244.431, 20948.00
1245.508, 20981.00
1246.585, 21101.00
1247.661, 21036.00
1248.738, 20890.00
1249.814, 20744.00
1250.890, 20834.00
1251.966, 21058.00
1253.042, 20919.00
1254.117, 20845.00
1255.193, 20997.00
1256.268, 20878.00
1257.343, 20953.00
1258.418, 20899.00
1259.493, 20781.00
1260.567, 21022.00
1261.642, 21051.00
1262.716, 21066.00
1263.790, 20964.00
1264.864, 20974.00
1265.938, 20966.00
1267.011, 20918.52
1268.085, 20910.00
1269.158, 20918.00
1270.231, 20743.00
1271.304, 20832.00
1272.377, 20646.00
1273.450, 20746.84
1274.522, 20877.37
1275.594, 20955.84
1276.666, 20985.04
1277.738, 20817.41
1278.810, 20903.95
1279.882, 20888.62
1280.953, 20869.11
1282.025, 20991.42
1283.096, 20852.41
1284.167, 20972.46
1285.238, 20989.09
1286.308, 21053.05
1287.379, 21014.53
1288.449, 21007.65
1289.519, 21103.29
1290.589, 21142.16
1291.659, 21091.83
1292.729, 21158.80
1293.798, 21016.18
1294.868, 21057.48
1295.937, 21178.10
1297.006, 21132.91
1298.075, 21201.74
1299.143, 21227.13
1300.212, 21055.20
1301.280, 21226.44
1302.348, 21249.27
1303.416, 21119.70
1304.484, 21279.18
1305.552, 21062.00
1306.620, 21089.00
1307.687, 21228.00
1308.754, 21246.00
1309.821, 21127.00
1310.888, 21260.00
1311.955, 21110.00
1313.021, 21113.00
1314.088, 21154.00
1315.154, 21084.00
1316.220, 21268.00
1317.286, 21232.00
1318.352, 21317.00
1319.417, 21144.00
1320.483, 21181.00
1321.548, 21234.00
1322.613, 21323.00
1323.678, 21170.00
1324.743, 21167.00
1325.807, 21168.00
1326.872, 21338.00
1327.936, 21336.00
1329.000, 21320.00
1330.064, 21195.00
1331.128, 21266.00
1332.191, 21105.00
1333.255, 21244.00
1334.318, 21102.00
1335.381, 21403.00
1336.444, 21328.29
1337.507, 21441.00
1338.569, 21303.00
1339.632, 21393.00
1340.694, 21316.00
1341.756, 21441.00
1342.818, 21425.00
1343.880, 21249.00
1344.941, 21280.00
1346.003, 21285.00
1347.064, 21415.00
1348.125, 21374.00
1349.186, 21247.00
1350.247, 21348.00
1351.308, 21301.00
1352.368, 21328.00
1353.428, 21304.00
1354.489, 21359.00
1355.549, 21267.00
1356.608, 21250.00
1357.668, 21279.19
1358.727, 21179.00
1359.787, 21380.00
1360.846, 21338.00
1361.905, 21499.00
1362.964, 21441.00
1364.022, 21280.00
1365.081, 21342.00
1366.139, 21341.00
1367.197, 21265.00
1368.255, 21450.00
1369.313, 21404.00
1370.371, 21595.00
1371.428, 21347.00
