##NAMES=Laverovite
##RRUFFID=R060216
##IDEAL CHEMISTRY=K_2_NaMn^2+^_7_Zr^4+^_2_(Si_4_O_12_)_2_O_2_(OH)_4_F
##LOCALITY=Desourdy Quarry, Mont Saint-Hilaire, Rouville County, Quebec, Canada
##OWNER=RRUFF
##SOURCE=Royal Ontario Museum
##DESCRIPTION=Brown fragment showing lamellar habit. Type sample
##STATUS=The identification of this mineral has been confirmed by X-ray diffraction and chemical analysis
##URL=rruff.info/R060216
##MEASURED CHEMISTRY=(K_1.74_Na_0.18_[box]_0.08_)_Σ=2_(Na_0.92_Ca_0.08_)_Σ=1_(Mn_4.09_Fe^2+^_2.67_Mg_0.24_)_Σ=7_(Zr_1.42_Ti_0.58_)_Σ=2_(Si_7.86_Al_0.14_)_Σ=8_O_26_((OH)_3.14_O_0.86_)_Σ=4_
##PIN_ID=L01980
##ORIENTATION=Laser parallel to (1 1 0). Fiducial mark perpendicular to laser is parallel to c [0 0 1]
117.7770, 30091.00
119.0130, 29438.00
120.2500, 29301.00
121.4870, 30110.00
122.7230, 30102.99
123.9590, 30558.58
125.1950, 31288.00
126.4310, 31681.00
127.6670, 32523.00
128.9030, 33706.00
130.1380, 34389.00
131.3730, 34810.00
132.6080, 35092.00
133.8430, 35623.00
135.0780, 36923.00
136.3120, 38418.00
137.5470, 40410.00
138.7810, 42857.00
140.0150, 44676.00
141.2480, 45451.00
142.4820, 46084.00
143.7160, 45916.00
144.9490, 45151.00
146.1820, 42847.00
147.4150, 40067.00
148.6480, 37491.00
149.8800, 35209.00
151.1130, 34469.00
152.3450, 33248.00
153.5770, 31765.00
154.8090, 30756.00
156.0410, 29565.00
157.2720, 29205.00
158.5040, 28903.00
159.7350, 29025.00
160.9660, 29557.00
162.1970, 30022.00
163.4270, 30708.00
164.6580, 30928.95
165.8880, 31739.00
167.1180, 31461.00
168.3480, 31347.00
169.5780, 31653.00
170.8080, 31437.00
172.0370, 30732.00
173.2670, 29881.00
174.4960, 29471.00
175.7250, 28681.00
176.9540, 28389.00
178.1820, 27935.50
179.4110, 27680.00
180.6390, 27273.00
181.8670, 27025.00
183.0950, 26797.00
184.3230, 26959.00
185.5500, 27143.00
186.7780, 27316.00
188.0050, 27021.00
189.2320, 27225.00
190.4590, 27493.00
191.6850, 27595.00
192.9120, 28016.00
194.1380, 28466.00
195.3650, 29114.00
196.5910, 29125.00
197.8160, 29365.00
199.0420, 29794.00
200.2680, 30801.00
201.4930, 31847.00
202.7180, 32296.00
203.9430, 30730.00
205.1680, 29172.00
206.3930, 28635.00
207.6170, 28544.00
208.8410, 28921.00
210.0660, 29232.00
211.2890, 29732.00
212.5130, 30636.00
213.7370, 31321.00
214.9600, 31878.00
216.1840, 32225.00
217.4070, 32412.00
218.6300, 32981.00
219.8520, 33044.00
221.0750, 33286.00
222.2970, 33400.00
223.5200, 33865.00
224.7420, 34245.00
225.9640, 34069.00
227.1850, 34928.00
228.4070, 34716.00
229.6280, 35499.00
230.8490, 35457.00
232.0700, 35863.00
233.2910, 35937.00
234.5120, 36002.00
235.7320, 36150.00
236.9530, 36381.00
238.1730, 36235.00
239.3930, 36250.47
240.6130, 35936.00
241.8320, 35912.00
243.0520, 35593.00
244.2710, 35212.00
245.4900, 35194.00
246.7090, 34723.00
247.9280, 34759.00
249.1470, 33995.92
250.3650, 34231.46
251.5840, 34219.65
252.8020, 33974.30
254.0200, 32794.90
255.2370, 32821.92
256.4550, 32365.29
257.6720, 31889.12
258.8900, 32085.61
260.1070, 31042.35
261.3240, 31228.44
262.5400, 30924.07
263.7570, 30844.03
264.9730, 30277.90
266.1900, 29861.72
267.4060, 29932.32
268.6220, 29733.54
269.8370, 29111.70
271.0530, 29046.20
272.2680, 27986.48
273.4830, 27799.44
274.6980, 27506.00
275.9130, 27324.00
277.1280, 26856.00
278.3420, 26790.00
279.5570, 26473.00
280.7710, 26085.00
281.9850, 26002.00
283.1990, 25896.00
284.4120, 25861.00
285.6260, 26033.00
286.8390, 26016.00
288.0520, 26178.00
289.2650, 26099.00
290.4780, 26394.00
291.6910, 26310.00
292.9030, 26524.00
294.1160, 26497.00
295.3280, 26867.00
296.5400, 27140.00
297.7510, 26860.00
298.9630, 27216.00
300.1740, 27121.00
301.3860, 27351.00
302.5970, 27185.00
303.8080, 27215.00
305.0180, 27402.00
306.2290, 27211.00
307.4390, 27365.00
308.6500, 27366.00
309.8600, 27191.00
311.0700, 27179.00
312.2790, 27220.00
313.4890, 26892.00
314.6980, 26890.00
315.9080, 26739.00
317.1170, 26678.00
318.3250, 26722.00
319.5340, 26626.00
320.7430, 26530.00
321.9510, 26690.00
323.1590, 26635.00
324.3670, 26685.00
325.5750, 26695.00
326.7830, 26660.00
327.9900, 26959.00
329.1980, 26573.00
330.4050, 27033.00
331.6120, 27120.00
332.8190, 27016.00
334.0250, 27541.00
335.2320, 27885.00
336.4380, 28094.00
337.6440, 28513.00
338.8500, 28501.00
340.0560, 28935.00
341.2620, 29047.00
342.4670, 29443.00
343.6730, 29269.00
344.8780, 29516.00
346.0830, 29381.00
347.2870, 29708.00
348.4920, 29683.00
349.6970, 29656.00
350.9010, 29533.00
352.1050, 29444.00
353.3090, 29635.00
354.5130, 29330.00
355.7160, 29382.00
356.9200, 29309.00
358.1230, 29076.00
359.3260, 29054.00
360.5290, 29399.00
361.7320, 29221.00
362.9340, 29022.00
364.1370, 29036.00
365.3390, 28844.00
366.5410, 28641.00
367.7430, 28629.00
368.9450, 28426.00
370.1460, 28229.00
371.3480, 28351.00
372.5490, 28342.00
373.7500, 28097.00
374.9510, 28163.00
376.1520, 28043.00
377.3520, 27959.00
378.5520, 28223.00
379.7530, 27953.00
380.9530, 28008.00
382.1530, 28180.00
383.3520, 28053.00
384.5520, 27843.00
385.7510, 27845.00
386.9500, 27826.00
388.1490, 27763.00
389.3480, 27785.00
390.5470, 27840.00
391.7450, 27304.00
392.9440, 27066.00
394.1420, 27124.00
395.3400, 26871.00
396.5380, 26685.00
397.7350, 26634.00
398.9330, 26417.00
400.1300, 26327.00
401.3270, 26005.00
402.5240, 25694.00
403.7210, 25664.00
404.9180, 25198.00
406.1140, 25281.00
407.3110, 24777.00
408.5070, 24816.00
409.7030, 24548.00
410.8990, 24482.00
412.0940, 24406.00
413.2900, 24363.00
414.4850, 24228.00
415.6800, 24462.00
416.8750, 24336.00
418.0700, 24365.00
419.2650, 24280.00
420.4590, 24262.00
421.6530, 24223.00
422.8470, 24373.00
424.0410, 24020.00
425.2350, 23723.00
426.4290, 23775.00
427.6220, 23298.00
428.8160, 23186.00
430.0090, 22806.00
431.2020, 22514.00
432.3940, 22332.00
433.5870, 22091.00
434.7790, 21612.00
435.9720, 21577.00
437.1640, 21088.00
438.3560, 20906.00
439.5470, 20613.00
440.7390, 20446.46
441.9300, 20299.12
443.1220, 20268.00
444.3130, 20092.00
445.5040, 20057.00
446.6940, 20027.00
447.8850, 19811.00
449.0750, 19814.00
450.2660, 19794.44
451.4560, 19775.39
452.6460, 19854.00
453.8350, 19902.00
455.0250, 19957.00
456.2140, 20109.00
457.4040, 20110.82
458.5930, 20160.09
459.7820, 20258.00
460.9700, 20196.00
462.1590, 20434.00
463.3470, 20492.00
464.5350, 20724.00
465.7240, 20807.28
466.9110, 20845.97
468.0990, 20927.00
469.2870, 20899.00
470.4740, 20816.00
471.6610, 20874.00
472.8480, 20893.00
474.0350, 20878.00
475.2220, 20879.00
476.4090, 20819.00
477.5950, 20833.00
478.7810, 20831.00
479.9670, 20824.27
481.1530, 20879.00
482.3390, 20857.00
483.5240, 20876.00
484.7100, 20923.00
485.8950, 20831.00
487.0800, 20367.93
488.2650, 20932.43
489.4490, 21249.85
490.6340, 21333.47
491.8180, 20483.03
493.0030, 20838.73
494.1870, 20711.07
495.3700, 20563.59
496.5540, 21089.05
497.7380, 20374.47
498.9210, 20889.26
500.1040, 20929.00
501.2870, 20866.00
502.4700, 20786.00
503.6530, 20879.00
504.8350, 20869.43
506.0180, 20967.00
507.2000, 20949.00
508.3820, 20951.06
509.5640, 20909.37
510.7450, 20932.00
511.9270, 20865.00
513.1080, 21057.00
514.2890, 20947.00
515.4700, 21056.00
516.6510, 20797.00
517.8320, 20654.00
519.0130, 20799.00
520.1930, 20689.00
521.3730, 20625.00
522.5530, 20663.00
523.7330, 20628.00
524.9130, 20717.00
526.0920, 20767.00
527.2710, 20745.57
528.4510, 20590.00
529.6300, 20805.00
530.8080, 20626.00
531.9870, 20805.00
533.1660, 20831.74
534.3440, 20947.00
535.5220, 20918.00
536.7000, 21116.00
537.8780, 21125.00
539.0560, 21505.00
540.2330, 21563.00
541.4110, 21767.00
542.5880, 22086.00
543.7650, 22301.00
544.9420, 22463.00
546.1180, 23041.00
547.2950, 23249.00
548.4710, 24029.00
549.6470, 24446.00
550.8230, 25041.00
551.9990, 25727.00
553.1750, 26213.00
554.3500, 26564.00
555.5260, 26864.00
556.7010, 27212.39
557.8760, 27739.00
559.0510, 27664.00
560.2250, 27940.00
561.4000, 27915.00
562.5740, 27574.00
563.7480, 27337.00
564.9220, 27139.00
566.0960, 26843.00
567.2700, 26244.00
568.4430, 26005.00
569.6170, 25713.00
570.7900, 25369.00
571.9630, 25061.00
573.1360, 24795.00
574.3080, 24625.00
575.4810, 24353.00
576.6530, 24248.00
577.8250, 24313.00
578.9980, 23923.00
580.1690, 23918.00
581.3410, 23967.00
582.5130, 23751.00
583.6840, 23998.00
584.8550, 24268.00
586.0260, 24695.00
587.1970, 24395.00
588.3680, 24585.00
589.5380, 24648.00
590.7080, 25099.00
591.8790, 25010.00
593.0490, 25186.00
594.2190, 25251.00
595.3880, 25143.00
596.5580, 25710.00
597.7270, 25513.00
598.8960, 24839.00
600.0650, 25087.00
601.2340, 25252.00
602.4030, 25273.00
603.5710, 25489.00
604.7400, 25261.00
605.9080, 25536.00
607.0760, 25565.00
608.2440, 25597.00
609.4120, 25764.00
610.5790, 25912.00
611.7460, 26021.00
612.9140, 26153.00
614.0810, 26263.00
615.2480, 26428.48
616.4140, 26555.00
617.5810, 26803.00
618.7470, 27075.00
619.9130, 27348.00
621.0790, 27726.00
622.2450, 27796.00
623.4110, 28198.74
624.5770, 28275.00
625.7420, 28808.00
626.9070, 29215.00
628.0720, 29431.00
629.2370, 29888.50
630.4020, 30235.00
631.5660, 30629.00
632.7310, 30948.00
633.8950, 31397.00
635.0590, 32068.00
636.2230, 32512.00
637.3870, 33125.00
638.5500, 33816.00
639.7140, 34704.00
640.8770, 35604.00
642.0400, 37070.00
643.2030, 38406.00
644.3660, 39764.00
645.5280, 41629.00
646.6910, 43291.00
647.8530, 45292.00
649.0150, 47265.00
650.1770, 49047.00
651.3390, 50543.00
652.5000, 51894.00
653.6620, 51922.00
654.8230, 51679.00
655.9840, 50651.00
657.1450, 49115.00
658.3060, 47961.00
659.4660, 45171.00
660.6270, 44996.00
661.7870, 43820.00
662.9470, 39440.00
664.1070, 38726.00
665.2670, 37204.00
666.4260, 36252.00
667.5860, 35842.00
668.7450, 35375.00
669.9040, 35179.00
671.0630, 35043.00
672.2220, 34937.00
673.3800, 34895.00
674.5390, 35199.00
675.6970, 35350.00
676.8550, 35664.00
678.0130, 35955.00
679.1710, 36375.00
680.3290, 36862.00
681.4860, 37238.00
682.6430, 37651.00
683.8000, 38238.00
684.9570, 38731.00
686.1140, 39083.94
687.2710, 39537.00
688.4270, 39833.00
689.5840, 40187.00
690.7400, 40682.00
691.8960, 41019.00
693.0520, 41344.00
694.2070, 41678.00
695.3630, 41881.00
696.5180, 42114.00
697.6730, 42021.00
698.8280, 42522.00
699.9830, 42366.00
701.1380, 42500.00
702.2920, 42668.00
703.4470, 42863.00
704.6010, 42967.00
705.7550, 43093.13
706.9090, 43351.00
708.0620, 43337.00
709.2160, 43372.00
710.3690, 43614.00
711.5220, 43462.00
712.6750, 43531.00
713.8280, 43467.00
714.9810, 43190.00
716.1340, 43024.00
717.2860, 42918.00
718.4380, 42533.00
719.5900, 42248.00
720.7420, 41795.00
721.8940, 41034.00
723.0450, 40699.00
724.1970, 40013.00
725.3480, 39494.00
726.4990, 39056.00
727.6500, 38796.00
728.8010, 37958.00
729.9510, 37496.29
731.1020, 36633.00
732.2520, 36232.00
733.4020, 35530.00
734.5520, 34934.00
735.7020, 34310.00
736.8510, 33702.00
738.0010, 33515.00
739.1500, 33018.00
740.2990, 32883.00
741.4480, 32277.00
742.5970, 32039.00
743.7450, 31505.00
744.8940, 31409.00
746.0420, 31239.00
747.1900, 31057.00
748.3380, 30723.00
749.4860, 30646.00
750.6330, 30720.00
751.7810, 30276.00
752.9280, 30346.00
754.0750, 30153.00
755.2220, 30040.00
756.3690, 29917.00
757.5160, 29941.00
758.6620, 29572.00
759.8090, 29551.00
760.9550, 29552.00
762.1010, 29270.00
763.2470, 29123.00
764.3920, 29003.00
765.5380, 28737.00
766.6830, 28555.12
767.8280, 28314.00
768.9730, 28013.00
770.1180, 27715.00
771.2630, 27283.00
772.4070, 27142.27
773.5520, 26901.10
774.6960, 26766.00
775.8400, 26589.00
776.9840, 26320.00
778.1280, 26145.00
779.2710, 26038.00
780.4140, 25729.00
781.5580, 25593.00
782.7010, 25561.00
783.8440, 25427.00
784.9860, 25196.00
786.1290, 25260.00
787.2710, 25059.00
788.4140, 25121.00
789.5560, 25020.00
790.6980, 24762.00
791.8390, 24721.00
792.9810, 24432.00
794.1220, 24313.57
795.2640, 24265.79
796.4050, 23822.00
797.5460, 24184.00
798.6860, 23560.96
799.8270, 23453.00
800.9680, 23256.00
802.1080, 23229.00
803.2480, 23123.00
804.3880, 22813.00
805.5280, 22722.00
806.6670, 22454.00
807.8070, 22282.74
808.9460, 22265.00
810.0850, 21996.00
811.2240, 21841.00
812.3630, 21830.00
813.5020, 21772.00
814.6400, 21876.00
815.7790, 21697.00
816.9170, 21537.00
818.0550, 21682.00
819.1930, 21609.00
820.3300, 21648.00
821.4680, 21653.57
822.6050, 21448.00
823.7430, 21575.00
824.8800, 21516.00
826.0170, 21372.00
827.1530, 21352.00
828.2900, 21314.00
829.4260, 21419.00
830.5620, 21419.00
831.6990, 21650.00
832.8340, 21554.71
833.9700, 21544.66
835.1060, 21538.00
836.2410, 21358.00
837.3760, 21547.00
838.5120, 21438.00
839.6470, 21572.00
840.7810, 21505.00
841.9160, 21537.53
843.0500, 21815.00
844.1850, 21712.00
845.3190, 21879.00
846.4530, 22239.00
847.5870, 22204.73
848.7200, 22221.00
849.8540, 22433.00
850.9870, 22375.00
852.1200, 22529.00
853.2530, 22688.00
854.3860, 22796.00
855.5190, 22926.00
856.6510, 23250.00
857.7840, 23199.00
858.9160, 23678.00
860.0480, 23651.00
861.1800, 23822.00
862.3110, 24130.00
863.4430, 24485.00
864.5740, 24601.00
865.7060, 24919.00
866.8370, 25241.00
867.9680, 25554.00
869.0980, 25908.00
870.2290, 26228.00
871.3590, 26498.00
872.4900, 26717.00
873.6200, 27063.00
874.7500, 27600.00
875.8790, 27691.00
877.0090, 28177.00
878.1380, 28430.00
879.2680, 28977.00
880.3970, 29293.00
881.5260, 29858.00
882.6550, 30101.00
883.7830, 30328.00
884.9120, 30571.00
886.0400, 31315.00
887.1680, 31588.00
888.2960, 32142.00
889.4240, 32363.00
890.5520, 32689.00
891.6790, 33258.00
892.8070, 33550.00
893.9340, 33968.00
895.0610, 34840.00
896.1880, 35783.00
897.3140, 36699.00
898.4410, 36278.00
899.5670, 36565.00
900.6940, 36938.00
901.8200, 38365.00
902.9450, 39251.00
904.0710, 39084.00
905.1970, 39548.00
906.3220, 39941.00
907.4470, 40374.40
908.5730, 40929.55
909.6980, 41572.00
910.8220, 42086.00
911.9470, 42613.00
913.0710, 43236.00
914.1960, 43730.00
915.3200, 43902.00
916.4440, 44473.00
917.5680, 44571.00
918.6910, 44664.00
919.8150, 45108.00
920.9380, 45104.77
922.0610, 45660.00
923.1840, 45457.00
924.3070, 45118.00
925.4300, 45527.00
926.5520, 45442.00
927.6750, 45043.00
928.7970, 45053.00
929.9190, 44739.00
931.0410, 44956.00
932.1630, 44241.00
933.2840, 44113.00
934.4060, 43780.00
935.5270, 43288.00
936.6480, 43135.00
937.7690, 42973.00
938.8900, 42642.00
940.0100, 42259.00
941.1310, 42196.00
942.2510, 43683.00
943.3710, 43122.00
944.4910, 43391.00
945.6110, 42842.00
946.7310, 40395.00
947.8500, 40183.00
948.9690, 39919.00
950.0890, 39542.00
951.2080, 39163.00
952.3260, 38532.84
953.4450, 37952.89
954.5640, 37050.00
955.6820, 36459.00
956.8000, 35552.00
957.9180, 34582.00
959.0360, 33816.06
960.1540, 33218.00
961.2710, 32216.00
962.3890, 31702.00
963.5060, 31261.00
964.6230, 30440.00
965.7400, 29799.00
966.8570, 29383.00
967.9730, 28909.00
969.0900, 28617.00
970.2060, 28237.00
971.3220, 27820.00
972.4380, 27635.00
973.5540, 27488.00
974.6700, 27304.00
975.7850, 26908.00
976.9010, 27059.00
978.0160, 26957.00
979.1310, 27168.00
980.2460, 26947.23
981.3600, 26752.00
982.4750, 26563.00
983.5890, 26737.00
984.7030, 26629.00
985.8170, 27008.00
986.9310, 26861.00
988.0450, 27139.00
989.1590, 27058.00
990.2720, 27100.00
991.3850, 27233.00
992.4980, 27356.88
993.6110, 27494.45
994.7240, 27701.00
995.8370, 27932.00
996.9490, 27948.00
998.0620, 28384.00
999.1740, 28680.00
1000.286, 28649.00
1001.398, 29289.00
1002.509, 29670.00
1003.621, 29954.00
1004.732, 31185.00
1005.843, 30796.00
1006.954, 31768.00
1008.065, 31980.00
1009.176, 32468.00
1010.286, 32908.00
1011.397, 33518.60
1012.507, 34196.00
1013.617, 34996.00
1014.727, 35681.42
1015.837, 36583.00
1016.946, 37310.00
1018.056, 38006.00
1019.165, 38827.00
1020.274, 39724.00
1021.383, 40494.00
1022.492, 40942.00
1023.601, 41527.00
1024.709, 42135.00
1025.817, 42750.00
1026.926, 43193.00
1028.034, 43910.00
1029.141, 43764.00
1030.249, 44072.00
1031.357, 43921.00
1032.464, 43716.00
1033.571, 43098.00
1034.678, 42864.00
1035.785, 42019.00
1036.892, 41146.00
1037.999, 40403.00
1039.105, 39483.00
1040.211, 38517.00
1041.317, 37544.00
1042.423, 36778.86
1043.529, 35924.20
1044.635, 35313.00
1045.740, 34463.00
1046.845, 33828.00
1047.951, 33256.00
1049.056, 32357.00
1050.160, 32106.00
1051.265, 31681.00
1052.370, 31234.00
1053.474, 31073.00
1054.578, 30690.00
1055.682, 30361.31
1056.786, 30079.79
1057.890, 29817.00
1058.993, 29393.00
1060.097, 29390.00
1061.200, 28984.34
1062.303, 28898.80
1063.406, 29066.00
1064.509, 28715.00
1065.612, 28720.00
1066.714, 28692.00
1067.816, 28628.35
1068.919, 28905.00
1070.021, 28682.00
1071.122, 28781.00
1072.224, 28782.00
1073.326, 28623.00
1074.427, 28581.00
1075.528, 28284.00
1076.629, 28278.44
1077.730, 28500.00
1078.831, 28279.00
1079.931, 28192.00
1081.032, 28432.00
1082.132, 28294.00
1083.232, 28373.00
1084.332, 28578.00
1085.432, 28034.00
1086.531, 28226.00
1087.631, 27937.00
1088.730, 27783.00
1089.829, 27722.00
1090.928, 27396.00
1092.027, 27404.00
1093.126, 27299.00
1094.224, 27183.00
1095.323, 27110.90
1096.421, 27055.00
1097.519, 26835.00
1098.617, 26703.00
1099.715, 26442.00
1100.812, 26313.00
1101.910, 26131.31
1103.007, 26389.00
1104.104, 25848.00
1105.201, 25958.00
1106.298, 25943.00
1107.394, 25726.00
1108.491, 25405.00
1109.587, 25364.00
1110.683, 25434.00
1111.779, 25060.00
1112.875, 25177.00
1113.971, 25047.00
1115.066, 24926.00
1116.162, 24803.00
1117.257, 24836.00
1118.352, 24866.00
1119.447, 24968.00
1120.542, 24973.00
1121.636, 24973.95
1122.731, 24979.00
1123.825, 24893.00
1124.919, 24872.00
1126.013, 24760.00
1127.107, 24543.00
1128.200, 24344.00
1129.294, 24397.00
1130.387, 24415.00
1131.480, 24444.00
1132.573, 24444.10
1133.666, 24332.00
1134.759, 24435.00
1135.851, 24464.00
1136.944, 24485.00
1138.036, 24242.00
1139.128, 24343.00
1140.220, 24294.00
1141.312, 24357.00
1142.403, 24321.00
1143.495, 24265.00
1144.586, 24364.00
1145.677, 24037.00
1146.768, 24129.00
1147.859, 24210.00
1148.950, 24099.00
1150.040, 24252.00
1151.130, 24417.00
1152.221, 24317.00
1153.311, 24415.12
1154.401, 24309.26
1155.490, 24442.00
1156.580, 24406.75
1157.669, 24234.00
1158.759, 24395.00
1159.848, 24358.00
1160.937, 24350.00
1162.025, 24093.00
1163.114, 24301.01
1164.202, 24281.62
1165.291, 24592.00
1166.379, 24403.00
1167.467, 24488.00
1168.555, 24380.00
1169.642, 24295.00
1170.730, 24239.00
1171.817, 24306.00
1172.905, 24545.00
1173.992, 24269.00
1175.078, 24431.00
1176.165, 24266.00
1177.252, 24395.00
1178.338, 24442.00
1179.425, 24425.00
1180.511, 24406.00
1181.597, 24547.00
1182.682, 24334.00
1183.768, 24489.00
1184.854, 24439.00
1185.939, 24344.00
1187.024, 24466.00
1188.109, 24408.00
1189.194, 24550.00
1190.279, 24476.00
1191.363, 24462.00
1192.448, 24700.00
1193.532, 24380.00
1194.616, 24471.00
1195.700, 24479.00
1196.784, 24718.00
1197.867, 24676.80
1198.951, 24567.00
1200.034, 24719.00
1201.117, 24588.00
1202.200, 24643.00
1203.283, 24601.00
1204.366, 24847.00
1205.448, 24660.00
1206.531, 24777.00
1207.613, 24747.00
1208.695, 24830.00
1209.777, 24592.00
1210.859, 24895.00
1211.940, 24727.00
1213.022, 24879.00
1214.103, 24880.00
1215.184, 24888.71
1216.265, 25046.00
1217.346, 24941.00
1218.427, 24900.00
1219.507, 24854.00
1220.587, 24775.46
1221.668, 24878.00
1222.748, 24724.00
1223.828, 24849.72
1224.907, 25003.00
1225.987, 24955.00
1227.066, 24883.00
1228.146, 24971.00
1229.225, 25071.00
1230.304, 24950.00
1231.382, 25051.00
1232.461, 24977.00
1233.540, 25182.00
1234.618, 25292.00
1235.696, 25093.00
1236.774, 25164.00
1237.852, 25036.00
1238.930, 25021.20
1240.007, 25153.00
1241.085, 25075.00
1242.162, 25067.00
1243.239, 25249.00
1244.316, 25169.00
1245.393, 25278.00
1246.469, 25394.00
1247.546, 25414.04
1248.622, 25379.75
1249.698, 25547.00
1250.774, 25270.00
1251.850, 25273.00
1252.926, 25361.00
1254.001, 25308.00
1255.077, 25355.00
1256.152, 25263.00
1257.227, 25420.00
1258.302, 25350.00
1259.377, 25323.00
1260.451, 25594.00
1261.526, 25437.00
1262.600, 25353.00
1263.674, 25678.00
1264.748, 25539.00
1265.822, 25593.00
1266.896, 25428.00
1267.969, 25658.00
1269.043, 25477.00
1270.116, 25529.00
1271.189, 25726.00
1272.262, 25698.00
1273.335, 25675.00
1274.407, 25797.00
1275.480, 25650.00
1276.552, 25611.00
1277.624, 25702.00
1278.696, 25700.00
1279.768, 25701.00
1280.840, 25583.00
1281.911, 25673.54
1282.982, 25701.00
1284.054, 25767.00
1285.125, 25970.00
