##NAMES=Laverovite
##RRUFFID=R060216
##IDEAL CHEMISTRY=K_2_NaMn^2+^_7_Zr^4+^_2_(Si_4_O_12_)_2_O_2_(OH)_4_F
##LOCALITY=Desourdy Quarry, Mont Saint-Hilaire, Rouville County, Quebec, Canada
##OWNER=RRUFF
##SOURCE=Royal Ontario Museum
##DESCRIPTION=Brown fragment showing lamellar habit. Type sample
##STATUS=The identification of this mineral has been confirmed by X-ray diffraction and chemical analysis
##URL=rruff.info/R060216
##MEASURED CHEMISTRY=(K_1.74_Na_0.18_[box]_0.08_)_Σ=2_(Na_0.92_Ca_0.08_)_Σ=1_(Mn_4.09_Fe^2+^_2.67_Mg_0.24_)_Σ=7_(Zr_1.42_Ti_0.58_)_Σ=2_(Si_7.86_Al_0.14_)_Σ=8_O_26_((OH)_3.14_O_0.86_)_Σ=4_
##PIN_ID=L01980
##ORIENTATION=Laser parallel to (1 1 0). Fiducial mark perpendicular to laser is parallel to c [0 0 1]
117.7770, 32298.00
119.0130, 31729.00
120.2500, 31791.00
121.4870, 31886.00
122.7230, 31951.87
123.9590, 32143.43
125.1950, 32771.00
126.4310, 32725.00
127.6670, 33623.00
128.9030, 34344.00
130.1380, 34424.71
131.3730, 34816.61
132.6080, 35039.00
133.8430, 35387.39
135.0780, 35690.00
136.3120, 36136.00
137.5470, 36619.00
138.7810, 36960.58
140.0150, 37211.82
141.2480, 37446.00
142.4820, 37453.00
143.7160, 37517.00
144.9490, 37365.00
146.1820, 36810.00
147.4150, 36425.00
148.6480, 35201.00
149.8800, 35063.00
151.1130, 34975.00
152.3450, 34989.00
153.5770, 34010.00
154.8090, 33922.00
156.0410, 33727.00
157.2720, 33612.00
158.5040, 33871.00
159.7350, 34301.00
160.9660, 34957.00
162.1970, 35267.00
163.4270, 36020.00
164.6580, 36872.00
165.8880, 37090.00
167.1180, 37163.00
168.3480, 36696.00
169.5780, 36657.00
170.8080, 36849.00
172.0370, 35850.00
173.2670, 35215.00
174.4960, 34215.00
175.7250, 33961.00
176.9540, 33565.00
178.1820, 33341.00
179.4110, 32763.00
180.6390, 32340.00
181.8670, 31767.00
183.0950, 31752.00
184.3230, 31620.00
185.5500, 31580.00
186.7780, 31504.37
188.0050, 31461.70
189.2320, 31462.00
190.4590, 31516.42
191.6850, 31604.13
192.9120, 31767.00
194.1380, 31921.00
195.3650, 32187.00
196.5910, 32465.00
197.8160, 32765.00
199.0420, 32822.00
200.2680, 33294.00
201.4930, 34365.00
202.7180, 34759.00
203.9430, 33831.00
205.1680, 33428.00
206.3930, 33030.00
207.6170, 32155.00
208.8410, 32251.00
210.0660, 32332.00
211.2890, 33027.00
212.5130, 33390.00
213.7370, 33710.00
214.9600, 33858.00
216.1840, 34099.00
217.4070, 34048.00
218.6300, 34042.00
219.8520, 34380.00
221.0750, 34354.00
222.2970, 34966.00
223.5200, 34648.00
224.7420, 34853.00
225.9640, 35334.00
227.1850, 35544.00
228.4070, 35752.00
229.6280, 35755.00
230.8490, 35877.00
232.0700, 36231.00
233.2910, 36220.00
234.5120, 36271.00
235.7320, 36615.00
236.9530, 36672.00
238.1730, 36464.00
239.3930, 36575.00
240.6130, 36744.00
241.8320, 36515.30
243.0520, 36305.00
244.2710, 36306.00
245.4900, 36122.00
246.7090, 36182.00
247.9280, 35842.00
249.1470, 35779.00
250.3650, 35760.00
251.5840, 36081.00
252.8020, 35941.00
254.0200, 35969.00
255.2370, 35705.00
256.4550, 36215.00
257.6720, 36148.00
258.8900, 37524.00
260.1070, 36582.23
261.3240, 37268.00
262.5400, 35414.00
263.7570, 34578.00
264.9730, 34526.00
266.1900, 34005.00
267.4060, 33911.00
268.6220, 33699.00
269.8370, 33429.00
271.0530, 32749.00
272.2680, 32707.00
273.4830, 32434.00
274.6980, 32191.00
275.9130, 32149.00
277.1280, 32146.00
278.3420, 31863.00
279.5570, 32063.00
280.7710, 31928.00
281.9850, 31843.00
283.1990, 31881.00
284.4120, 31651.00
285.6260, 31916.00
286.8390, 31923.00
288.0520, 31879.00
289.2650, 32143.00
290.4780, 32249.00
291.6910, 32147.00
292.9030, 32339.00
294.1160, 32358.00
295.3280, 32855.00
296.5400, 33192.00
297.7510, 32673.00
298.9630, 32415.00
300.1740, 32432.00
301.3860, 32198.00
302.5970, 32056.00
303.8080, 32029.00
305.0180, 32125.00
306.2290, 31978.00
307.4390, 31927.00
308.6500, 31868.92
309.8600, 31633.00
311.0700, 31668.00
312.2790, 31700.00
313.4890, 31575.00
314.6980, 31651.00
315.9080, 31440.00
317.1170, 31614.00
318.3250, 31228.00
319.5340, 31673.00
320.7430, 31504.00
321.9510, 31832.00
323.1590, 31878.27
324.3670, 31874.00
325.5750, 31982.00
326.7830, 32000.00
327.9900, 32045.00
329.1980, 32221.00
330.4050, 32715.00
331.6120, 32849.00
332.8190, 33107.00
334.0250, 33073.00
335.2320, 33474.00
336.4380, 33627.00
337.6440, 34207.00
338.8500, 34242.00
340.0560, 34442.00
341.2620, 34558.00
342.4670, 35027.00
343.6730, 35055.00
344.8780, 35068.00
346.0830, 35261.00
347.2870, 35127.44
348.4920, 35137.91
349.6970, 35021.00
350.9010, 34997.00
352.1050, 35109.00
353.3090, 35067.00
354.5130, 34836.00
355.7160, 34648.00
356.9200, 34613.00
358.1230, 34409.00
359.3260, 34436.00
360.5290, 34282.00
361.7320, 34345.00
362.9340, 34252.74
364.1370, 34359.00
365.3390, 34093.00
366.5410, 34015.00
367.7430, 33868.00
368.9450, 33563.00
370.1460, 33709.00
371.3480, 33613.00
372.5490, 33696.00
373.7500, 33350.00
374.9510, 33215.00
376.1520, 33216.00
377.3520, 33346.00
378.5520, 33344.00
379.7530, 32769.00
380.9530, 32978.00
382.1530, 32952.00
383.3520, 32784.00
384.5520, 32877.00
385.7510, 32555.00
386.9500, 32632.00
388.1490, 32385.00
389.3480, 32330.00
390.5470, 32338.00
391.7450, 32303.00
392.9440, 32072.00
394.1420, 32003.00
395.3400, 31860.00
396.5380, 31763.00
397.7350, 31768.00
398.9330, 31597.00
400.1300, 31567.00
401.3270, 31485.35
402.5240, 31215.00
403.7210, 31242.00
404.9180, 31056.00
406.1140, 30733.00
407.3110, 30822.00
408.5070, 30663.62
409.7030, 30634.01
410.8990, 30634.00
412.0940, 30681.00
413.2900, 30741.00
414.4850, 30865.00
415.6800, 30808.00
416.8750, 30784.00
418.0700, 30704.00
419.2650, 30967.00
420.4590, 30990.00
421.6530, 30826.00
422.8470, 30703.00
424.0410, 30592.00
425.2350, 30354.00
426.4290, 30308.00
427.6220, 29994.00
428.8160, 30142.00
430.0090, 29801.00
431.2020, 29151.00
432.3940, 29271.00
433.5870, 28769.00
434.7790, 28857.00
435.9720, 28822.00
437.1640, 28444.00
438.3560, 28481.00
439.5470, 28147.00
440.7390, 28151.00
441.9300, 28007.00
443.1220, 27996.00
444.3130, 27734.00
445.5040, 27880.00
446.6940, 28170.00
447.8850, 27823.00
449.0750, 27745.00
450.2660, 27646.00
451.4560, 27952.00
452.6460, 28008.00
453.8350, 28022.64
455.0250, 28391.00
456.2140, 28055.00
457.4040, 28067.00
458.5930, 28065.00
459.7820, 28376.00
460.9700, 28263.00
462.1590, 28542.00
463.3470, 28556.00
464.5350, 28634.00
465.7240, 28903.00
466.9110, 28755.00
468.0990, 28857.00
469.2870, 28745.00
470.4740, 28696.00
471.6610, 28910.00
472.8480, 28845.00
474.0350, 28822.00
475.2220, 28822.00
476.4090, 29044.00
477.5950, 28924.00
478.7810, 28980.00
479.9670, 28921.00
481.1530, 28840.00
482.3390, 29093.00
483.5240, 29043.00
484.7100, 29008.77
485.8950, 29084.00
487.0800, 28940.00
488.2650, 28833.00
489.4490, 28954.00
490.6340, 28800.00
491.8180, 28930.00
493.0030, 28810.00
494.1870, 28587.00
495.3700, 28751.00
496.5540, 28690.00
497.7380, 28669.00
498.9210, 28702.00
500.1040, 28608.00
501.2870, 28906.00
502.4700, 28923.00
503.6530, 28854.00
504.8350, 28935.00
506.0180, 28719.00
507.2000, 28730.00
508.3820, 28851.00
509.5640, 28863.00
510.7450, 29009.00
511.9270, 29019.00
513.1080, 28736.00
514.2890, 28993.00
515.4700, 28746.00
516.6510, 29096.00
517.8320, 28823.00
519.0130, 28891.00
520.1930, 28711.00
521.3730, 28940.00
522.5530, 28951.00
523.7330, 29085.00
524.9130, 29270.00
526.0920, 28972.00
527.2710, 29115.00
528.4510, 28994.00
529.6300, 29320.00
530.8080, 29431.00
531.9870, 29504.00
533.1660, 30186.00
534.3440, 29498.00
535.5220, 29422.00
536.7000, 29832.00
537.8780, 30080.00
539.0560, 30470.00
540.2330, 30290.00
541.4110, 30571.00
542.5880, 31005.00
543.7650, 31337.00
544.9420, 31822.00
546.1180, 31925.00
547.2950, 32799.00
548.4710, 33070.00
549.6470, 33371.00
550.8230, 33977.00
551.9990, 34254.03
553.1750, 34630.96
554.3500, 34986.00
555.5260, 35375.00
556.7010, 35608.00
557.8760, 35679.02
559.0510, 35660.00
560.2250, 35513.00
561.4000, 35540.00
562.5740, 35172.00
563.7480, 35226.00
564.9220, 35005.00
566.0960, 34609.00
567.2700, 34397.00
568.4430, 34204.00
569.6170, 34003.00
570.7900, 33727.00
571.9630, 33751.00
573.1360, 33404.00
574.3080, 33278.00
575.4810, 33335.00
576.6530, 33101.00
577.8250, 32965.00
578.9980, 33096.00
580.1690, 33170.00
581.3410, 33064.00
582.5130, 33405.00
583.6840, 33237.00
584.8550, 33332.00
586.0260, 33627.00
587.1970, 33575.00
588.3680, 33876.00
589.5380, 34072.00
590.7080, 33914.00
591.8790, 34152.00
593.0490, 34104.00
594.2190, 34458.00
595.3880, 34453.00
596.5580, 34439.00
597.7270, 34765.00
598.8960, 34548.00
600.0650, 34846.00
601.2340, 34764.00
602.4030, 34882.00
603.5710, 34852.00
604.7400, 35096.00
605.9080, 35015.00
607.0760, 35262.00
608.2440, 35569.00
609.4120, 35530.00
610.5790, 35764.00
611.7460, 35835.00
612.9140, 36036.00
614.0810, 36075.00
615.2480, 36365.00
616.4140, 36658.00
617.5810, 36660.00
618.7470, 37151.00
619.9130, 37186.00
621.0790, 37512.00
622.2450, 37867.00
623.4110, 38005.00
624.5770, 38254.00
625.7420, 38445.00
626.9070, 38699.00
628.0720, 39222.00
629.2370, 39420.00
630.4020, 39499.00
631.5660, 40373.00
632.7310, 40483.00
633.8950, 40823.00
635.0590, 41820.00
636.2230, 42066.00
637.3870, 42643.00
638.5500, 43513.00
639.7140, 44264.00
640.8770, 45079.00
642.0400, 46235.98
643.2030, 47340.00
644.3660, 48675.00
645.5280, 49979.00
646.6910, 51324.00
647.8530, 52819.00
649.0150, 54058.00
650.1770, 54965.00
651.3390, 55755.00
652.5000, 56202.00
653.6620, 55773.00
654.8230, 55813.00
655.9840, 54774.00
657.1450, 53752.00
658.3060, 52536.00
659.4660, 51136.00
660.6270, 49656.00
661.7870, 48767.00
662.9470, 47922.00
664.1070, 47111.00
665.2670, 46456.00
666.4260, 45990.52
667.5860, 45642.03
668.7450, 45495.00
669.9040, 45373.00
671.0630, 45594.00
672.2220, 45721.00
673.3800, 45925.00
674.5390, 46002.00
675.6970, 46140.00
676.8550, 46612.00
678.0130, 47086.00
679.1710, 47859.00
680.3290, 47789.00
681.4860, 48317.00
682.6430, 48823.94
683.8000, 48975.00
684.9570, 49758.00
686.1140, 50219.00
687.2710, 50453.00
688.4270, 50567.00
689.5840, 51306.00
690.7400, 51542.00
691.8960, 51791.00
693.0520, 52396.00
694.2070, 52231.00
695.3630, 52492.00
696.5180, 52853.00
697.6730, 52883.00
698.8280, 53134.00
699.9830, 53238.00
701.1380, 53271.00
702.2920, 53521.00
703.4470, 53391.00
704.6010, 53308.00
705.7550, 53926.00
706.9090, 54114.00
708.0620, 53892.00
709.2160, 54075.00
710.3690, 54052.00
711.5220, 54186.00
712.6750, 53737.00
713.8280, 53543.00
714.9810, 53211.00
716.1340, 53459.00
717.2860, 53099.00
718.4380, 52575.00
719.5900, 52712.00
720.7420, 52131.00
721.8940, 51981.00
723.0450, 51338.00
724.1970, 50722.00
725.3480, 50433.00
726.4990, 49762.00
727.6500, 49185.00
728.8010, 48741.00
729.9510, 48049.00
731.1020, 47892.00
732.2520, 47335.00
733.4020, 46988.00
734.5520, 46357.00
735.7020, 46195.00
736.8510, 45430.00
738.0010, 45192.00
739.1500, 44856.00
740.2990, 44600.00
741.4480, 44501.00
742.5970, 44170.00
743.7450, 43999.32
744.8940, 43772.00
746.0420, 43580.00
747.1900, 43453.00
748.3380, 43266.00
749.4860, 43115.00
750.6330, 42824.00
751.7810, 42973.00
752.9280, 42848.00
754.0750, 42467.00
755.2220, 42480.00
756.3690, 42599.00
757.5160, 42772.00
758.6620, 42330.00
759.8090, 42449.00
760.9550, 41989.00
762.1010, 42096.00
763.2470, 41769.00
764.3920, 41631.00
765.5380, 41480.00
766.6830, 41303.75
767.8280, 40945.00
768.9730, 41030.00
770.1180, 40739.00
771.2630, 40528.00
772.4070, 40534.00
773.5520, 39963.00
774.6960, 40170.00
775.8400, 39651.00
776.9840, 39240.00
778.1280, 39087.00
779.2710, 39151.00
780.4140, 38944.00
781.5580, 38914.00
782.7010, 38453.00
783.8440, 38791.00
784.9860, 38655.00
786.1290, 38148.00
787.2710, 38180.00
788.4140, 38395.00
789.5560, 38701.00
790.6980, 37760.00
791.8390, 37208.00
792.9810, 37259.00
794.1220, 37043.00
795.2640, 36886.00
796.4050, 36554.00
797.5460, 36404.00
798.6860, 36014.00
799.8270, 36077.00
800.9680, 36056.00
802.1080, 35427.00
803.2480, 35677.00
804.3880, 35251.00
805.5280, 35200.00
806.6670, 34703.00
807.8070, 34637.00
808.9460, 34379.00
810.0850, 34627.00
811.2240, 34221.00
812.3630, 34323.00
813.5020, 34080.00
814.6400, 34196.00
815.7790, 34276.00
816.9170, 34175.00
818.0550, 33858.00
819.1930, 33949.00
820.3300, 33875.00
821.4680, 33769.00
822.6050, 33793.00
823.7430, 33555.00
824.8800, 33790.00
826.0170, 33827.00
827.1530, 33651.00
828.2900, 33671.00
829.4260, 33630.00
830.5620, 33574.00
831.6990, 33563.00
832.8340, 33580.71
833.9700, 33711.00
835.1060, 33655.00
836.2410, 33759.00
837.3760, 33795.00
838.5120, 33855.00
839.6470, 33869.00
840.7810, 33829.00
841.9160, 33959.00
843.0500, 33918.00
844.1850, 33848.00
845.3190, 34140.00
846.4530, 34103.00
847.5870, 34425.00
848.7200, 34409.00
849.8540, 34451.00
850.9870, 34671.00
852.1200, 34409.00
853.2530, 34764.00
854.3860, 34944.00
855.5190, 34949.00
856.6510, 35287.00
857.7840, 35012.00
858.9160, 35243.00
860.0480, 35641.00
861.1800, 35541.00
862.3110, 35832.00
863.4430, 35895.00
864.5740, 36324.00
865.7060, 36475.00
866.8370, 36771.00
867.9680, 37265.00
869.0980, 38089.00
870.2290, 37852.63
871.3590, 38111.48
872.4900, 37674.00
873.6200, 38094.00
874.7500, 38272.00
875.8790, 38656.00
877.0090, 38742.00
878.1380, 39057.00
879.2680, 39302.00
880.3970, 39561.84
881.5260, 40084.00
882.6550, 40166.00
883.7830, 40495.00
884.9120, 40794.00
886.0400, 40945.00
887.1680, 41200.00
888.2960, 41471.63
889.4240, 42013.00
890.5520, 42124.00
891.6790, 42450.00
892.8070, 42995.00
893.9340, 43252.00
895.0610, 43320.00
896.1880, 43969.00
897.3140, 43949.00
898.4410, 44592.00
899.5670, 45181.00
900.6940, 45285.00
901.8200, 45775.63
902.9450, 46237.00
904.0710, 46419.00
905.1970, 46663.00
906.3220, 47157.00
907.4470, 47720.00
908.5730, 48373.00
909.6980, 48325.00
910.8220, 48789.00
911.9470, 48998.00
913.0710, 49113.00
914.1960, 49839.00
915.3200, 49851.00
916.4440, 50167.00
917.5680, 50596.00
918.6910, 50550.00
919.8150, 50379.00
920.9380, 50736.00
922.0610, 50868.00
923.1840, 50628.00
924.3070, 51038.00
925.4300, 50608.00
926.5520, 50400.00
927.6750, 50464.00
928.7970, 50441.00
929.9190, 50311.00
931.0410, 50243.00
932.1630, 49609.00
933.2840, 49800.00
934.4060, 49455.00
935.5270, 49490.00
936.6480, 49274.00
937.7690, 49054.00
938.8900, 48954.44
940.0100, 48738.27
941.1310, 48574.00
942.2510, 48440.00
943.3710, 48166.00
944.4910, 48108.00
945.6110, 47593.00
946.7310, 47666.00
947.8500, 47241.00
948.9690, 47227.00
950.0890, 46975.00
951.2080, 46662.00
952.3260, 46381.00
953.4450, 45622.00
954.5640, 45689.00
955.6820, 44755.00
956.8000, 44241.00
957.9180, 43979.00
959.0360, 43437.00
960.1540, 42917.00
961.2710, 42280.00
962.3890, 42078.00
963.5060, 41823.00
964.6230, 41394.00
965.7400, 41062.00
966.8570, 40669.00
967.9730, 40306.00
969.0900, 40262.00
970.2060, 39842.00
971.3220, 39955.00
972.4380, 39650.00
973.5540, 39805.00
974.6700, 39445.00
975.7850, 39635.00
976.9010, 39629.00
978.0160, 39503.00
979.1310, 39493.00
980.2460, 39626.00
981.3600, 39466.00
982.4750, 39511.00
983.5890, 39474.00
984.7030, 39963.00
985.8170, 39907.00
986.9310, 40263.00
988.0450, 40114.00
989.1590, 40096.00
990.2720, 40432.00
991.3850, 40690.00
992.4980, 40885.00
993.6110, 41255.00
994.7240, 41445.14
995.8370, 41427.00
996.9490, 41896.00
998.0620, 42180.00
999.1740, 42376.00
1000.286, 42942.00
1001.398, 43279.88
1002.509, 43774.64
1003.621, 44302.00
1004.732, 44813.00
1005.843, 45532.00
1006.954, 46044.00
1008.065, 46318.00
1009.176, 47465.00
1010.286, 47880.00
1011.397, 48415.00
1012.507, 49389.00
1013.617, 50316.00
1014.727, 51096.00
1015.837, 51934.00
1016.946, 52908.00
1018.056, 53720.56
1019.165, 54759.00
1020.274, 55494.00
1021.383, 56211.00
1022.492, 57117.00
1023.601, 57615.00
1024.709, 58282.00
1025.817, 58623.00
1026.926, 59214.00
1028.034, 59366.00
1029.141, 59571.00
1030.249, 59715.00
1031.357, 59098.00
1032.464, 58758.00
1033.571, 58291.00
1034.678, 57972.00
1035.785, 57226.47
1036.892, 55966.00
1037.999, 55464.00
1039.105, 54622.00
1040.211, 53251.00
1041.317, 52456.00
1042.423, 51559.00
1043.529, 50817.00
1044.635, 49917.00
1045.740, 49245.54
1046.845, 48467.01
1047.951, 47813.00
1049.056, 47219.00
1050.160, 46640.66
1051.265, 46128.00
1052.370, 45709.00
1053.474, 45451.00
1054.578, 45174.00
1055.682, 44695.00
1056.786, 44007.00
1057.890, 44119.00
1058.993, 43957.00
1060.097, 43531.00
1061.200, 43583.00
1062.303, 43160.00
1063.406, 43268.00
1064.509, 43305.00
1065.612, 43154.00
1066.714, 42966.00
1067.816, 43058.00
1068.919, 42617.00
1070.021, 42985.00
1071.122, 42976.00
1072.224, 42830.00
1073.326, 42677.00
1074.427, 42591.00
1075.528, 42456.00
1076.629, 42495.00
1077.730, 42464.00
1078.831, 42241.00
1079.931, 42440.00
1081.032, 42533.00
1082.132, 42516.00
1083.232, 42414.00
1084.332, 42673.43
1085.432, 42358.36
1086.531, 42896.00
1087.631, 42013.00
1088.730, 41538.00
1089.829, 41619.00
1090.928, 41645.00
1092.027, 41276.00
1093.126, 41255.00
1094.224, 41066.00
1095.323, 41142.00
1096.421, 41159.00
1097.519, 40783.00
1098.617, 41086.00
1099.715, 40744.00
1100.812, 40631.00
1101.910, 40115.00
1103.007, 40568.00
1104.104, 40860.00
1105.201, 40896.00
1106.298, 40442.00
1107.394, 40123.00
1108.491, 39608.00
1109.587, 39729.00
1110.683, 39815.00
1111.779, 39729.00
1112.875, 39536.00
1113.971, 39627.00
1115.066, 39429.00
1116.162, 39318.00
1117.257, 39443.00
1118.352, 39412.00
1119.447, 39325.00
1120.542, 39459.00
1121.636, 39382.00
1122.731, 39330.00
1123.825, 39342.00
1124.919, 39080.00
1126.013, 39015.00
1127.107, 39404.00
1128.200, 39151.00
1129.294, 39245.00
1130.387, 39191.00
1131.480, 39034.00
1132.573, 39193.00
1133.666, 39434.00
1134.759, 39159.00
1135.851, 38951.00
1136.944, 39230.00
1138.036, 39347.00
1139.128, 39148.00
1140.220, 39326.00
1141.312, 39041.00
1142.403, 39076.00
1143.495, 39237.00
1144.586, 39194.00
1145.677, 39061.00
1146.768, 39198.00
1147.859, 39421.00
1148.950, 39193.00
1150.040, 39162.00
1151.130, 39361.00
1152.221, 39202.00
1153.311, 39637.00
1154.401, 39443.24
1155.490, 40118.00
1156.580, 39421.00
1157.669, 39139.00
1158.759, 39483.00
1159.848, 39398.00
1160.937, 39420.00
1162.025, 39590.00
1163.114, 39432.00
1164.202, 39472.00
1165.291, 39699.00
1166.379, 39632.00
1167.467, 39472.00
1168.555, 39793.00
1169.642, 39351.00
1170.730, 39598.00
1171.817, 39817.00
1172.905, 39713.00
1173.992, 39899.00
1175.078, 39885.00
1176.165, 39697.00
1177.252, 39882.00
1178.338, 39957.00
1179.425, 39851.00
1180.511, 39872.00
1181.597, 40192.00
1182.682, 40069.95
1183.768, 40128.19
1184.854, 40129.00
1185.939, 40012.00
1187.024, 40102.00
1188.109, 39972.00
1189.194, 40181.00
1190.279, 40151.00
1191.363, 40333.00
1192.448, 40385.00
1193.532, 40129.00
1194.616, 40513.00
1195.700, 40122.00
1196.784, 40380.00
1197.867, 40229.00
1198.951, 40566.00
1200.034, 40364.00
1201.117, 40827.00
1202.200, 40349.00
1203.283, 40488.00
1204.366, 40547.00
1205.448, 40574.00
1206.531, 40654.00
1207.613, 40721.00
1208.695, 40793.00
1209.777, 40794.65
1210.859, 40783.00
1211.940, 40768.00
1213.022, 40824.00
1214.103, 40798.00
1215.184, 40968.00
1216.265, 40904.98
1217.346, 41161.00
1218.427, 41007.00
1219.507, 40762.00
1220.587, 41109.00
1221.668, 40871.00
1222.748, 41114.00
1223.828, 41053.00
1224.907, 41091.00
1225.987, 41053.00
1227.066, 41325.00
1228.146, 41304.00
1229.225, 41376.00
1230.304, 41264.00
1231.382, 41225.00
1232.461, 41375.00
1233.540, 41207.00
1234.618, 41256.00
1235.696, 41384.00
1236.774, 41647.00
1237.852, 41558.00
1238.930, 41787.00
1240.007, 41757.00
1241.085, 41590.00
1242.162, 41419.00
1243.239, 41681.00
1244.316, 41653.00
1245.393, 41571.00
1246.469, 41834.00
1247.546, 42065.00
1248.622, 41820.00
1249.698, 42021.00
1250.774, 41738.00
1251.850, 41498.00
1252.926, 41988.00
1254.001, 41909.00
1255.077, 41899.00
1256.152, 41967.00
1257.227, 42190.00
1258.302, 42008.00
1259.377, 42209.00
1260.451, 42116.00
1261.526, 41967.00
1262.600, 42255.00
1263.674, 42243.00
1264.748, 42089.00
1265.822, 42522.00
1266.896, 42356.00
1267.969, 42501.00
1269.043, 42550.00
1270.116, 42538.00
1271.189, 42624.60
1272.262, 42505.00
1273.335, 42721.00
1274.407, 42687.00
1275.480, 42778.00
1276.552, 42556.00
1277.624, 42479.00
1278.696, 42903.00
1279.768, 42673.00
1280.840, 42505.00
1281.911, 42822.00
1282.982, 42979.00
1284.054, 42758.00
1285.125, 42822.00
