##NAMES=Laverovite
##RRUFFID=R060216
##IDEAL CHEMISTRY=K_2_NaMn^2+^_7_Zr^4+^_2_(Si_4_O_12_)_2_O_2_(OH)_4_F
##LOCALITY=Desourdy Quarry, Mont Saint-Hilaire, Rouville County, Quebec, Canada
##OWNER=RRUFF
##SOURCE=Royal Ontario Museum
##DESCRIPTION=Brown fragment showing lamellar habit. Type sample
##STATUS=The identification of this mineral has been confirmed by X-ray diffraction and chemical analysis
##URL=rruff.info/R060216
##MEASURED CHEMISTRY=(K_1.74_Na_0.18_[box]_0.08_)_Σ=2_(Na_0.92_Ca_0.08_)_Σ=1_(Mn_4.09_Fe^2+^_2.67_Mg_0.24_)_Σ=7_(Zr_1.42_Ti_0.58_)_Σ=2_(Si_7.86_Al_0.14_)_Σ=8_O_26_((OH)_3.14_O_0.86_)_Σ=4_
##PIN_ID=L00587
##ORIENTATION=Laser parallel to -b* (0 -1 0). Fiducial mark perpendicular to laser is parallel to -c [0 0 -1]
159.7350, 21366.00
160.9660, 21940.00
162.1970, 22506.00
163.4270, 23510.00
164.6580, 24226.00
165.8880, 24588.00
167.1180, 24733.00
168.3480, 25467.00
169.5780, 24842.00
170.8080, 25097.00
172.0370, 24663.00
173.2670, 23845.00
174.4960, 23713.00
175.7250, 23548.00
176.9540, 23202.00
178.1820, 23190.00
179.4110, 23185.00
180.6390, 22700.00
181.8670, 22645.00
183.0950, 22675.00
184.3230, 22800.00
185.5500, 23099.00
186.7780, 23376.00
188.0050, 23367.00
189.2320, 23313.00
190.4590, 23801.00
191.6850, 23848.26
192.9120, 24165.00
194.1380, 24280.00
195.3650, 24759.00
196.5910, 24867.00
197.8160, 25102.00
199.0420, 25607.00
200.2680, 26628.00
201.4930, 27728.00
202.7180, 27614.00
203.9430, 25727.00
205.1680, 23366.00
206.3930, 21929.00
207.6170, 21659.00
208.8410, 21629.00
210.0660, 21731.00
211.2890, 21691.00
212.5130, 21958.00
213.7370, 22127.00
214.9600, 22350.00
216.1840, 22112.00
217.4070, 22196.00
218.6300, 22508.00
219.8520, 22439.00
221.0750, 22696.00
222.2970, 22683.00
223.5200, 22825.00
224.7420, 22988.00
225.9640, 22972.00
227.1850, 23243.58
228.4070, 23426.04
229.6280, 23713.00
230.8490, 23837.00
232.0700, 24100.00
233.2910, 24097.00
234.5120, 24349.00
235.7320, 24437.00
236.9530, 24716.00
238.1730, 24783.00
239.3930, 24930.00
240.6130, 25002.00
241.8320, 24850.00
243.0520, 24782.67
244.2710, 24456.00
245.4900, 24317.00
246.7090, 23948.00
247.9280, 23529.00
249.1470, 23067.00
250.3650, 22979.09
251.5840, 22677.44
252.8020, 22693.00
254.0200, 22474.00
255.2370, 21839.25
256.4550, 22041.97
257.6720, 22133.72
258.8900, 22120.39
260.1070, 21687.46
261.3240, 21796.41
262.5400, 21688.24
263.7570, 21571.12
264.9730, 21756.38
266.1900, 21593.00
267.4060, 21387.00
268.6220, 21307.00
269.8370, 21334.00
271.0530, 21128.00
272.2680, 20970.00
273.4830, 21198.00
274.6980, 21204.00
275.9130, 21270.00
277.1280, 21246.00
278.3420, 21219.00
279.5570, 20962.00
280.7710, 20803.00
281.9850, 20856.00
283.1990, 20669.00
284.4120, 20717.00
285.6260, 20628.00
286.8390, 20718.00
288.0520, 20765.00
289.2650, 20774.68
290.4780, 20718.00
291.6910, 20846.00
292.9030, 20818.00
294.1160, 20815.00
295.3280, 20907.00
296.5400, 20808.00
297.7510, 20973.00
298.9630, 20937.00
300.1740, 20869.00
301.3860, 20930.00
302.5970, 20944.00
303.8080, 20955.00
305.0180, 20967.00
306.2290, 20999.81
307.4390, 20971.00
308.6500, 21096.00
309.8600, 21150.00
311.0700, 21256.00
312.2790, 21199.00
313.4890, 21241.00
314.6980, 21136.00
315.9080, 21379.00
317.1170, 21434.00
318.3250, 21377.00
319.5340, 21407.00
320.7430, 21580.00
321.9510, 21521.00
323.1590, 21421.00
324.3670, 21638.00
325.5750, 21946.00
326.7830, 21757.00
327.9900, 21835.00
329.1980, 21892.22
330.4050, 21833.00
331.6120, 21864.00
332.8190, 22000.36
334.0250, 21843.33
335.2320, 22170.00
336.4380, 22045.00
337.6440, 22274.00
338.8500, 22390.00
340.0560, 22517.00
341.2620, 22464.00
342.4670, 22752.00
343.6730, 22529.00
344.8780, 23077.00
346.0830, 23169.00
347.2870, 22878.00
348.4920, 22771.00
349.6970, 22652.00
350.9010, 22748.00
352.1050, 22709.00
353.3090, 22704.32
354.5130, 22807.00
355.7160, 22773.00
356.9200, 22908.00
358.1230, 23082.00
359.3260, 23071.00
360.5290, 23064.00
361.7320, 22934.00
362.9340, 23131.00
364.1370, 23019.00
365.3390, 22997.00
366.5410, 23049.00
367.7430, 23005.00
368.9450, 23125.00
370.1460, 22856.46
371.3480, 23089.68
372.5490, 23211.91
373.7500, 23229.10
374.9510, 22826.64
376.1520, 22966.07
377.3520, 22888.35
378.5520, 22801.72
379.7530, 23019.00
380.9530, 23192.00
382.1530, 23084.00
383.3520, 23276.00
384.5520, 23375.00
385.7510, 23043.00
386.9500, 23117.00
388.1490, 23148.00
389.3480, 23110.00
390.5470, 22950.00
391.7450, 22989.00
392.9440, 22852.00
394.1420, 22909.00
395.3400, 22539.82
396.5380, 22792.41
397.7350, 22933.99
398.9330, 22970.53
400.1300, 22587.42
401.3270, 22746.20
402.5240, 22687.82
403.7210, 22620.53
404.9180, 22855.58
406.1140, 22537.00
407.3110, 22533.00
408.5070, 22528.00
409.7030, 22548.00
410.8990, 22434.00
412.0940, 22349.00
413.2900, 22672.00
414.4850, 22435.00
415.6800, 22597.00
416.8750, 22457.00
418.0700, 22465.00
419.2650, 22342.00
420.4590, 22622.00
421.6530, 22569.00
422.8470, 22489.00
424.0410, 22361.00
425.2350, 22502.00
426.4290, 22392.94
427.6220, 22341.89
428.8160, 22431.00
430.0090, 22189.00
431.2020, 22370.00
432.3940, 22323.00
433.5870, 22402.00
434.7790, 22440.00
435.9720, 22343.00
437.1640, 22444.00
438.3560, 22428.00
439.5470, 22499.00
440.7390, 22471.88
441.9300, 22397.00
443.1220, 22446.00
444.3130, 22415.00
445.5040, 22498.32
446.6940, 22531.33
447.8850, 22541.00
449.0750, 22645.00
450.2660, 22641.00
451.4560, 22693.00
452.6460, 22929.00
453.8350, 23161.00
455.0250, 23170.88
456.2140, 23049.00
457.4040, 23224.00
458.5930, 23298.00
459.7820, 23265.00
460.9700, 23495.00
462.1590, 23615.00
463.3470, 23636.00
464.5350, 24118.00
465.7240, 24193.00
466.9110, 24324.00
468.0990, 24351.00
469.2870, 24520.00
470.4740, 24727.00
471.6610, 24638.00
472.8480, 24420.00
474.0350, 24715.00
475.2220, 24508.00
476.4090, 24773.00
477.5950, 24491.00
478.7810, 24601.00
479.9670, 24524.00
481.1530, 24602.00
482.3390, 24638.00
483.5240, 24439.00
484.7100, 24460.00
485.8950, 24500.00
487.0800, 24571.00
488.2650, 24526.52
489.4490, 24604.00
490.6340, 24427.00
491.8180, 24329.00
493.0030, 24221.00
494.1870, 24235.25
495.3700, 24221.00
496.5540, 24305.00
497.7380, 24209.00
498.9210, 24162.00
500.1040, 24054.00
501.2870, 23899.00
502.4700, 23976.00
503.6530, 24056.00
504.8350, 24041.00
506.0180, 23963.00
507.2000, 23715.00
508.3820, 24014.00
509.5640, 23966.00
510.7450, 24043.00
511.9270, 23734.00
513.1080, 24042.00
514.2890, 23954.00
515.4700, 24219.00
516.6510, 23983.00
517.8320, 23855.00
519.0130, 23981.00
520.1930, 24123.00
521.3730, 23822.00
522.5530, 23989.00
523.7330, 24271.00
524.9130, 24137.00
526.0920, 24249.00
527.2710, 24060.00
528.4510, 24467.00
529.6300, 24328.00
530.8080, 24388.00
531.9870, 24491.00
533.1660, 24666.00
534.3440, 24685.33
535.5220, 24520.00
536.7000, 24750.00
537.8780, 24837.00
539.0560, 24798.00
540.2330, 25050.81
541.4110, 25467.00
542.5880, 25431.00
543.7650, 25618.00
544.9420, 25854.00
546.1180, 25874.00
547.2950, 26083.00
548.4710, 26563.00
549.6470, 27100.00
550.8230, 27269.00
551.9990, 27795.00
553.1750, 28139.00
554.3500, 28459.00
555.5260, 28920.00
556.7010, 29155.00
557.8760, 29260.00
559.0510, 29258.00
560.2250, 29505.00
561.4000, 29596.00
562.5740, 29534.00
563.7480, 29241.00
564.9220, 29152.00
566.0960, 28824.00
567.2700, 28953.00
568.4430, 28700.00
569.6170, 28532.00
570.7900, 28230.00
571.9630, 27983.00
573.1360, 27607.00
574.3080, 27739.00
575.4810, 27653.00
576.6530, 27645.00
577.8250, 27095.00
578.9980, 27272.00
580.1690, 26975.00
581.3410, 27177.00
582.5130, 27248.00
583.6840, 27096.00
584.8550, 27109.00
586.0260, 27388.00
587.1970, 27622.00
588.3680, 27617.00
589.5380, 27819.48
590.7080, 27605.00
591.8790, 27924.00
593.0490, 27901.00
594.2190, 27760.00
595.3880, 27814.00
596.5580, 27765.00
597.7270, 27927.00
598.8960, 27718.00
600.0650, 27702.00
601.2340, 27790.00
602.4030, 28015.00
603.5710, 27920.00
604.7400, 27915.00
605.9080, 27718.00
607.0760, 27923.00
608.2440, 27984.00
609.4120, 28123.00
610.5790, 28207.00
611.7460, 28274.00
612.9140, 27996.00
614.0810, 28167.00
615.2480, 28387.00
616.4140, 28298.00
617.5810, 28624.00
618.7470, 28779.00
619.9130, 28916.00
621.0790, 29103.00
622.2450, 29130.00
623.4110, 29091.00
624.5770, 29490.00
625.7420, 29440.00
626.9070, 29709.00
628.0720, 29696.00
629.2370, 29846.00
630.4020, 30050.00
631.5660, 30353.00
632.7310, 30415.00
633.8950, 30638.00
635.0590, 30653.00
636.2230, 31000.00
637.3870, 31433.00
638.5500, 31856.00
639.7140, 32086.00
640.8770, 32371.00
642.0400, 33042.00
643.2030, 33761.00
644.3660, 34586.00
645.5280, 35115.00
646.6910, 36041.00
647.8530, 37134.36
649.0150, 38302.00
650.1770, 39467.00
651.3390, 40465.00
652.5000, 41413.00
653.6620, 41804.00
654.8230, 41614.00
655.9840, 41035.00
657.1450, 40247.00
658.3060, 38916.00
659.4660, 38317.00
660.6270, 36829.00
661.7870, 36141.00
662.9470, 35457.00
664.1070, 34862.00
665.2670, 34099.00
666.4260, 34152.00
667.5860, 33592.00
668.7450, 33562.00
669.9040, 33488.00
671.0630, 33297.00
672.2220, 33579.00
673.3800, 33664.00
674.5390, 33633.00
675.6970, 33985.00
676.8550, 34219.00
678.0130, 34180.00
679.1710, 34734.00
680.3290, 35031.00
681.4860, 35285.00
682.6430, 35441.00
683.8000, 35739.00
684.9570, 36084.00
686.1140, 36566.00
687.2710, 36574.00
688.4270, 37152.00
689.5840, 37450.00
690.7400, 37874.00
691.8960, 37822.00
693.0520, 38144.00
694.2070, 38322.00
695.3630, 38281.00
696.5180, 38614.22
697.6730, 38877.00
698.8280, 39018.00
699.9830, 39255.00
701.1380, 39364.00
702.2920, 39370.00
703.4470, 39565.00
704.6010, 39498.00
705.7550, 39568.00
706.9090, 39645.00
708.0620, 39777.00
709.2160, 39670.00
710.3690, 39785.00
711.5220, 39801.00
712.6750, 39861.00
713.8280, 39785.00
714.9810, 39325.00
716.1340, 39827.00
717.2860, 39563.00
718.4380, 39712.00
719.5900, 39063.00
720.7420, 38940.00
721.8940, 38984.00
723.0450, 38566.00
724.1970, 38543.00
725.3480, 38238.00
726.4990, 37910.00
727.6500, 37531.00
728.8010, 37425.00
729.9510, 37122.00
731.1020, 36718.00
732.2520, 36375.00
733.4020, 36290.00
734.5520, 35909.00
735.7020, 35651.69
736.8510, 35162.00
738.0010, 35096.00
739.1500, 34505.00
740.2990, 34309.00
741.4480, 34233.00
742.5970, 33802.00
743.7450, 34008.00
744.8940, 33729.00
746.0420, 33662.00
747.1900, 33214.00
748.3380, 33267.00
749.4860, 33104.71
750.6330, 32964.33
751.7810, 32917.00
752.9280, 32859.00
754.0750, 32654.00
755.2220, 32697.00
756.3690, 32844.00
757.5160, 32713.00
758.6620, 32696.00
759.8090, 32392.00
760.9550, 32218.00
762.1010, 32397.00
763.2470, 32114.00
764.3920, 31972.81
765.5380, 31874.82
766.6830, 31555.00
767.8280, 31429.00
768.9730, 31341.00
770.1180, 30925.00
771.2630, 30810.00
772.4070, 30668.00
773.5520, 30737.00
774.6960, 30446.19
775.8400, 29998.00
776.9840, 29928.00
778.1280, 29682.00
779.2710, 29343.00
780.4140, 29417.00
781.5580, 29211.00
782.7010, 29040.00
783.8440, 28951.00
784.9860, 28951.00
786.1290, 28919.00
787.2710, 28829.00
788.4140, 28816.00
789.5560, 28732.00
790.6980, 28665.00
791.8390, 28598.00
792.9810, 28594.00
794.1220, 28441.00
795.2640, 28400.00
796.4050, 28522.00
797.5460, 28302.00
798.6860, 28267.00
799.8270, 28007.00
800.9680, 27983.23
802.1080, 27924.22
803.2480, 27902.00
804.3880, 27887.00
805.5280, 27863.00
806.6670, 27855.00
807.8070, 27672.00
808.9460, 27636.66
810.0850, 27587.89
811.2240, 27508.00
812.3630, 27543.00
813.5020, 27635.00
814.6400, 27679.00
815.7790, 27668.98
816.9170, 27538.00
818.0550, 27636.00
819.1930, 27463.00
820.3300, 27456.00
821.4680, 27588.00
822.6050, 27480.00
823.7430, 27441.00
824.8800, 27388.00
826.0170, 27525.00
827.1530, 27560.00
828.2900, 27574.00
829.4260, 27527.00
830.5620, 27536.00
831.6990, 27512.12
832.8340, 27509.31
833.9700, 27508.00
835.1060, 27521.00
836.2410, 27601.00
837.3760, 27629.00
838.5120, 27611.00
839.6470, 27774.00
840.7810, 27790.00
841.9160, 27485.00
843.0500, 27723.00
844.1850, 27608.00
845.3190, 27956.00
846.4530, 27543.00
847.5870, 27707.13
848.7200, 28189.00
849.8540, 27818.00
850.9870, 27670.00
852.1200, 27891.00
853.2530, 28033.00
854.3860, 27957.00
855.5190, 28037.00
856.6510, 27981.00
857.7840, 28126.00
858.9160, 28361.00
860.0480, 28172.00
861.1800, 28429.00
862.3110, 28374.00
863.4430, 28346.00
864.5740, 28479.00
865.7060, 28694.00
866.8370, 28667.00
867.9680, 28810.00
869.0980, 28689.00
870.2290, 28816.00
871.3590, 28735.00
872.4900, 28891.00
873.6200, 28922.00
874.7500, 29235.00
875.8790, 29125.00
877.0090, 29225.00
878.1380, 29354.00
879.2680, 29171.00
880.3970, 29499.00
881.5260, 29388.00
882.6550, 29183.00
883.7830, 29494.00
884.9120, 29420.10
886.0400, 29581.18
887.1680, 29639.00
888.2960, 29824.00
889.4240, 29971.00
890.5520, 29875.00
891.6790, 30048.00
892.8070, 29965.00
893.9340, 30213.00
895.0610, 30162.00
896.1880, 30271.00
897.3140, 30304.00
898.4410, 30298.00
899.5670, 30566.00
900.6940, 30747.00
901.8200, 30584.00
902.9450, 30691.00
904.0710, 31036.00
905.1970, 30890.21
906.3220, 30932.00
907.4470, 30976.00
908.5730, 30973.00
909.6980, 31198.00
910.8220, 30975.00
911.9470, 31337.00
913.0710, 31266.00
914.1960, 31344.00
915.3200, 31479.00
916.4440, 31541.00
917.5680, 31577.00
918.6910, 31765.00
919.8150, 31671.00
920.9380, 31515.00
922.0610, 31659.00
923.1840, 31545.00
924.3070, 31669.00
925.4300, 31680.00
926.5520, 31562.00
927.6750, 31719.00
928.7970, 31578.00
929.9190, 31598.00
931.0410, 31795.00
932.1630, 31473.00
933.2840, 31658.00
934.4060, 31471.00
935.5270, 31442.00
936.6480, 31600.00
937.7690, 31498.00
938.8900, 31593.44
940.0100, 31656.00
941.1310, 31647.00
942.2510, 31438.00
943.3710, 31327.49
944.4910, 31367.38
945.6110, 31304.00
946.7310, 31326.00
947.8500, 31336.28
948.9690, 31360.00
950.0890, 31316.00
951.2080, 31445.00
952.3260, 31329.00
953.4450, 31434.00
954.5640, 31118.00
955.6820, 31171.00
956.8000, 31166.00
957.9180, 30956.14
959.0360, 30956.00
960.1540, 30717.00
961.2710, 30745.00
962.3890, 30734.00
963.5060, 30562.00
964.6230, 30332.00
965.7400, 30437.00
966.8570, 30313.00
967.9730, 30283.00
969.0900, 30393.00
970.2060, 30422.00
971.3220, 30532.00
972.4380, 30404.00
973.5540, 30270.00
974.6700, 30381.00
975.7850, 30566.00
976.9010, 30528.00
978.0160, 30346.00
979.1310, 30452.00
980.2460, 30410.00
981.3600, 30559.00
982.4750, 30565.00
983.5890, 30400.00
984.7030, 30677.00
985.8170, 30550.00
986.9310, 30729.00
988.0450, 30564.00
989.1590, 30582.00
990.2720, 30674.19
991.3850, 30732.00
992.4980, 30818.00
993.6110, 30948.00
994.7240, 30999.00
995.8370, 31223.00
996.9490, 31107.00
998.0620, 31381.00
999.1740, 31256.00
1000.286, 31108.00
1001.398, 31795.00
1002.509, 31595.00
1003.621, 31769.00
1004.732, 31733.00
1005.843, 31757.00
1006.954, 32128.00
1008.065, 32168.00
1009.176, 32399.00
1010.286, 32409.00
1011.397, 32653.00
1012.507, 32650.00
1013.617, 32831.00
1014.727, 33003.00
1015.837, 33149.00
1016.946, 33200.00
1018.056, 33630.00
1019.165, 33725.00
1020.274, 34310.00
1021.383, 34037.00
1022.492, 34289.00
1023.601, 34142.00
1024.709, 33971.00
1025.817, 34000.00
1026.926, 34317.00
1028.034, 34124.00
1029.141, 34265.00
1030.249, 34185.00
1031.357, 34296.00
1032.464, 34200.00
1033.571, 34183.00
1034.678, 34132.60
1035.785, 33785.00
1036.892, 33895.00
1037.999, 33742.00
1039.105, 33470.00
1040.211, 33436.00
1041.317, 33248.50
1042.423, 33095.84
1043.529, 33021.00
1044.635, 32858.00
1045.740, 32804.00
1046.845, 32805.00
1047.951, 32502.00
1049.056, 32516.00
1050.160, 32694.00
1051.265, 32415.00
1052.370, 32070.00
1053.474, 32488.00
1054.578, 32348.00
1055.682, 32419.00
1056.786, 32306.00
1057.890, 32459.13
1058.993, 32711.64
1060.097, 32853.14
1061.200, 32889.60
1062.303, 32506.42
1063.406, 32665.12
1064.509, 32606.66
1065.612, 32539.30
1066.714, 32774.27
1067.816, 32452.12
1068.919, 32683.00
1070.021, 32686.00
1071.122, 32773.00
1072.224, 32645.00
1073.326, 32625.00
1074.427, 32812.00
1075.528, 32606.00
1076.629, 32929.00
1077.730, 32821.00
1078.831, 32709.00
1079.931, 32849.00
1081.032, 32487.00
1082.132, 32764.00
1083.232, 32302.00
1084.332, 32599.00
1085.432, 32238.00
1086.531, 32364.00
1087.631, 32278.00
1088.730, 32127.00
1089.829, 32203.00
1090.928, 31810.00
1092.027, 31968.00
1093.126, 31817.00
1094.224, 31715.00
1095.323, 31746.00
1096.421, 31580.00
1097.519, 31747.00
1098.617, 31359.00
1099.715, 31635.00
1100.812, 31409.00
1101.910, 31291.00
1103.007, 31169.00
1104.104, 31259.00
1105.201, 31387.00
1106.298, 31300.00
1107.394, 30980.00
1108.491, 31153.00
1109.587, 30898.00
1110.683, 31269.00
1111.779, 30999.00
1112.875, 31211.00
1113.971, 31121.00
1115.066, 30899.00
1116.162, 30983.00
1117.257, 31062.00
1118.352, 31188.00
1119.447, 31256.00
1120.542, 30970.00
1121.636, 31028.00
1122.731, 30875.00
1123.825, 30861.00
1124.919, 30943.00
1126.013, 31066.00
1127.107, 30915.00
1128.200, 30935.00
1129.294, 30956.55
1130.387, 30838.97
1131.480, 30932.00
1132.573, 30800.00
1133.666, 30657.00
1134.759, 30880.00
1135.851, 30617.00
1136.944, 30777.00
1138.036, 30984.00
1139.128, 30728.00
1140.220, 30940.00
1141.312, 30686.00
1142.403, 30706.00
1143.495, 30773.00
1144.586, 30861.00
1145.677, 30980.00
1146.768, 30739.00
1147.859, 30791.00
1148.950, 30869.00
1150.040, 30658.00
1151.130, 30802.70
1152.221, 30779.53
1153.311, 30986.00
1154.401, 30719.00
1155.490, 30941.00
1156.580, 30643.00
1157.669, 30695.00
1158.759, 30984.00
1159.848, 30507.00
1160.937, 30635.00
1162.025, 30760.00
1163.114, 30580.00
1164.202, 30907.00
1165.291, 30844.00
1166.379, 31015.00
1167.467, 30879.00
1168.555, 30875.77
1169.642, 30724.00
1170.730, 30809.00
1171.817, 30614.00
1172.905, 30687.00
1173.992, 30577.00
1175.078, 30682.00
1176.165, 30649.00
1177.252, 30674.00
1178.338, 30879.00
1179.425, 30858.00
1180.511, 30837.00
1181.597, 30984.00
1182.682, 30778.00
1183.768, 30880.00
1184.854, 30900.00
1185.939, 30692.00
1187.024, 30840.00
1188.109, 30853.00
1189.194, 30802.00
1190.279, 30890.00
1191.363, 30873.00
1192.448, 30800.00
1193.532, 30859.00
1194.616, 30841.00
1195.700, 30799.00
1196.784, 30871.00
1197.867, 31427.00
1198.951, 30851.00
1200.034, 31218.00
1201.117, 31378.00
1202.200, 30967.00
1203.283, 31122.00
1204.366, 31006.00
1205.448, 30931.00
1206.531, 30727.00
1207.613, 30983.00
1208.695, 30759.00
1209.777, 31061.00
1210.859, 30770.00
1211.940, 30590.00
1213.022, 30995.00
1214.103, 30918.00
1215.184, 30796.00
1216.265, 30804.00
1217.346, 30915.00
1218.427, 30942.00
1219.507, 30831.00
1220.587, 30955.00
1221.668, 30798.00
1222.748, 30939.00
1223.828, 31120.00
1224.907, 30892.00
1225.987, 31046.00
1227.066, 31066.00
1228.146, 31297.00
1229.225, 31655.00
1230.304, 30976.00
1231.382, 31126.00
1232.461, 30914.00
1233.540, 31104.00
1234.618, 31220.00
1235.696, 30861.00
1236.774, 31078.00
1237.852, 31013.00
1238.930, 31213.00
1240.007, 31043.00
1241.085, 30962.00
1242.162, 31031.00
1243.239, 31239.00
1244.316, 31123.00
1245.393, 31393.00
1246.469, 31649.00
1247.546, 31107.00
1248.622, 31156.00
1249.698, 31522.00
1250.774, 31142.00
1251.850, 31250.00
1252.926, 31469.00
1254.001, 31301.00
1255.077, 31151.00
1256.152, 31221.75
1257.227, 31167.26
1258.302, 31206.00
1259.377, 31234.00
1260.451, 31288.00
1261.526, 31271.00
1262.600, 31266.00
1263.674, 31478.00
1264.748, 31370.00
1265.822, 31509.00
1266.896, 31231.00
1267.969, 31301.00
1269.043, 31674.00
1270.116, 31174.00
1271.189, 31258.00
1272.262, 31178.00
1273.335, 31512.00
1274.407, 31371.00
1275.480, 31367.00
1276.552, 31478.00
1277.624, 31489.00
1278.696, 31450.00
1279.768, 31929.00
1280.840, 31382.00
1281.911, 31791.00
1282.982, 31509.00
1284.054, 31681.00
1285.125, 31604.00
1286.196, 31668.00
1287.266, 31684.00
1288.337, 31685.00
1289.407, 31469.00
1290.478, 31642.00
1291.548, 31479.00
1292.618, 31475.00
1293.688, 31771.00
1294.757, 31589.76
1295.827, 32055.00
1296.896, 31585.00
1297.965, 31365.00
1299.034, 31507.00
1300.103, 31498.00
1301.172, 31658.00
1302.241, 31803.00
1303.309, 31702.00
1304.377, 31644.00
1305.445, 31791.00
1306.513, 31681.00
1307.581, 31809.00
1308.649, 31711.00
1309.716, 31808.00
1310.784, 31658.00
1311.851, 31660.00
1312.918, 31622.00
1313.985, 31597.00
1315.052, 31813.00
1316.118, 31703.00
1317.185, 32008.00
1318.251, 31706.00
1319.317, 31949.00
1320.383, 31804.00
