##NAMES=Laverovite
##RRUFFID=R060216
##IDEAL CHEMISTRY=K_2_NaMn^2+^_7_Zr^4+^_2_(Si_4_O_12_)_2_O_2_(OH)_4_F
##LOCALITY=Desourdy Quarry, Mont Saint-Hilaire, Rouville County, Quebec, Canada
##OWNER=RRUFF
##SOURCE=Royal Ontario Museum
##DESCRIPTION=Brown fragment showing lamellar habit. Type sample
##STATUS=The identification of this mineral has been confirmed by X-ray diffraction and chemical analysis
##URL=rruff.info/R060216
##MEASURED CHEMISTRY=(K_1.74_Na_0.18_[box]_0.08_)_Σ=2_(Na_0.92_Ca_0.08_)_Σ=1_(Mn_4.09_Fe^2+^_2.67_Mg_0.24_)_Σ=7_(Zr_1.42_Ti_0.58_)_Σ=2_(Si_7.86_Al_0.14_)_Σ=8_O_26_((OH)_3.14_O_0.86_)_Σ=4_
##PIN_ID=L00587
##ORIENTATION=Laser parallel to -b* (0 -1 0). Fiducial mark perpendicular to laser is parallel to -c [0 0 -1]
225.9640, 17619.00
227.1850, 18160.00
228.4070, 18011.00
229.6280, 18306.00
230.8490, 18502.00
232.0700, 18617.13
233.2910, 18689.00
234.5120, 18828.88
235.7320, 18982.00
236.9530, 18987.00
238.1730, 19062.00
239.3930, 19049.00
240.6130, 19252.00
241.8320, 19204.00
243.0520, 19455.00
244.2710, 19384.00
245.4900, 19262.00
246.7090, 19293.00
247.9280, 19312.19
249.1470, 19365.00
250.3650, 19450.00
251.5840, 19484.00
252.8020, 19516.00
254.0200, 19837.00
255.2370, 19886.38
256.4550, 20179.16
257.6720, 20322.91
258.8900, 20325.56
260.1070, 19764.72
261.3240, 19931.57
262.5400, 19806.83
263.7570, 19670.09
264.9730, 19939.40
266.1900, 19678.00
267.4060, 19338.00
268.6220, 19107.00
269.8370, 18873.00
271.0530, 18855.00
272.2680, 18432.00
273.4830, 18540.00
274.6980, 18275.00
275.9130, 18273.00
277.1280, 18517.00
278.3420, 18337.00
279.5570, 18181.00
280.7710, 18185.00
281.9850, 18235.00
283.1990, 18097.00
284.4120, 18138.00
285.6260, 18344.00
286.8390, 18096.00
288.0520, 18363.00
289.2650, 18281.00
290.4780, 18406.00
291.6910, 18346.00
292.9030, 18540.00
294.1160, 18714.00
295.3280, 18559.00
296.5400, 18448.00
297.7510, 18602.00
298.9630, 18540.00
300.1740, 18560.00
301.3860, 18326.00
302.5970, 18341.00
303.8080, 18256.00
305.0180, 18230.00
306.2290, 18175.00
307.4390, 18021.00
308.6500, 17885.00
309.8600, 17928.73
311.0700, 17787.09
312.2790, 17941.00
313.4890, 17738.00
314.6980, 17568.00
315.9080, 17729.00
317.1170, 17670.00
318.3250, 17621.00
319.5340, 17579.00
320.7430, 17709.00
321.9510, 17671.00
323.1590, 17839.00
324.3670, 17701.00
325.5750, 17654.00
326.7830, 17875.00
327.9900, 17939.00
329.1980, 18009.00
330.4050, 18044.00
331.6120, 18000.00
332.8190, 18344.00
334.0250, 18295.00
335.2320, 18481.00
336.4380, 18406.00
337.6440, 18769.00
338.8500, 18782.00
340.0560, 18944.00
341.2620, 19016.00
342.4670, 19242.00
343.6730, 19400.00
344.8780, 19323.00
346.0830, 19525.00
347.2870, 19574.00
348.4920, 19509.00
349.6970, 19587.00
350.9010, 19553.00
352.1050, 19659.00
353.3090, 19807.00
354.5130, 19622.00
355.7160, 19803.00
356.9200, 19948.00
358.1230, 19978.00
359.3260, 19986.00
360.5290, 20072.00
361.7320, 20109.00
362.9340, 20152.00
364.1370, 20195.00
365.3390, 20042.00
366.5410, 19981.00
367.7430, 20369.00
368.9450, 19942.00
370.1460, 20079.00
371.3480, 20602.00
372.5490, 20572.00
373.7500, 19865.00
374.9510, 19729.00
376.1520, 19712.00
377.3520, 19376.00
378.5520, 19525.00
379.7530, 19347.00
380.9530, 19250.00
382.1530, 19166.00
383.3520, 18948.00
384.5520, 18953.00
385.7510, 18951.00
386.9500, 18960.00
388.1490, 18952.60
389.3480, 18782.00
390.5470, 18974.00
391.7450, 18809.64
392.9440, 18880.00
394.1420, 18753.00
395.3400, 18914.00
396.5380, 18911.00
397.7350, 18909.00
398.9330, 18787.00
400.1300, 18801.00
401.3270, 18897.00
402.5240, 18704.00
403.7210, 18591.00
404.9180, 18926.00
406.1140, 18729.00
407.3110, 18524.00
408.5070, 18581.00
409.7030, 18771.00
410.8990, 18542.00
412.0940, 18646.00
413.2900, 18812.00
414.4850, 18688.00
415.6800, 18808.00
416.8750, 18942.00
418.0700, 18965.00
419.2650, 18936.00
420.4590, 18875.00
421.6530, 18898.00
422.8470, 18869.00
424.0410, 18984.00
425.2350, 18848.00
426.4290, 18741.10
427.6220, 18606.14
428.8160, 18442.00
430.0090, 18212.00
431.2020, 18188.00
432.3940, 18052.00
433.5870, 17872.00
434.7790, 17866.41
435.9720, 17871.00
437.1640, 17784.00
438.3560, 17597.00
439.5470, 17550.00
440.7390, 17344.00
441.9300, 17430.00
443.1220, 17320.00
444.3130, 17314.03
445.5040, 17333.33
446.6940, 17302.00
447.8850, 17340.00
449.0750, 17280.00
450.2660, 17254.00
451.4560, 17351.00
452.6460, 17186.00
453.8350, 17384.00
455.0250, 17292.00
456.2140, 17435.00
457.4040, 17569.00
458.5930, 17364.00
459.7820, 17498.00
460.9700, 17376.00
462.1590, 17541.14
463.3470, 17611.00
464.5350, 17853.00
465.7240, 17752.00
466.9110, 17749.00
468.0990, 17752.00
469.2870, 17743.00
470.4740, 17715.00
471.6610, 17925.00
472.8480, 17971.00
474.0350, 17958.00
475.2220, 18075.00
476.4090, 17988.00
477.5950, 17977.00
478.7810, 18000.00
479.9670, 17932.00
481.1530, 18176.00
482.3390, 18122.00
483.5240, 18189.00
484.7100, 18140.00
485.8950, 18117.00
487.0800, 18125.00
488.2650, 18167.00
489.4490, 18189.00
490.6340, 18087.00
491.8180, 17993.00
493.0030, 18162.00
494.1870, 18134.00
495.3700, 17991.00
496.5540, 18120.00
497.7380, 18150.00
498.9210, 18223.00
500.1040, 18180.00
501.2870, 17907.00
502.4700, 18002.00
503.6530, 18052.00
504.8350, 18053.00
506.0180, 18180.00
507.2000, 18102.00
508.3820, 18052.00
509.5640, 18138.00
510.7450, 18045.00
511.9270, 18122.00
513.1080, 18176.00
514.2890, 18262.00
515.4700, 18197.00
516.6510, 18073.00
517.8320, 18013.00
519.0130, 18092.94
520.1930, 18289.00
521.3730, 18228.00
522.5530, 18224.00
523.7330, 18101.00
524.9130, 18164.00
526.0920, 18148.00
527.2710, 18216.00
528.4510, 18238.00
529.6300, 18345.00
530.8080, 18188.00
531.9870, 18193.00
533.1660, 18248.58
534.3440, 18467.00
535.5220, 18377.00
536.7000, 18431.00
537.8780, 18537.00
539.0560, 18557.00
540.2330, 18652.00
541.4110, 18751.00
542.5880, 18957.00
543.7650, 18974.00
544.9420, 19086.00
546.1180, 19355.00
547.2950, 19605.00
548.4710, 19794.00
549.6470, 19918.00
550.8230, 20019.00
551.9990, 20147.00
553.1750, 20533.00
554.3500, 20556.00
555.5260, 20915.00
556.7010, 20996.00
557.8760, 21018.00
559.0510, 21023.00
560.2250, 21037.00
561.4000, 20920.00
562.5740, 20804.00
563.7480, 20762.47
564.9220, 20604.00
566.0960, 20552.00
567.2700, 20484.00
568.4430, 20251.00
569.6170, 20172.00
570.7900, 20178.00
571.9630, 20114.00
573.1360, 20086.00
574.3080, 19896.00
575.4810, 19842.00
576.6530, 19741.00
577.8250, 19741.00
578.9980, 19586.00
580.1690, 19649.67
581.3410, 19715.00
582.5130, 19833.00
583.6840, 19757.00
584.8550, 20025.00
586.0260, 19815.00
587.1970, 20095.00
588.3680, 20103.00
589.5380, 20103.00
590.7080, 20195.00
591.8790, 20169.00
593.0490, 20364.00
594.2190, 20275.00
595.3880, 20387.00
596.5580, 20458.00
597.7270, 20263.00
598.8960, 20378.00
600.0650, 20461.00
601.2340, 20338.00
602.4030, 20217.00
603.5710, 20256.00
604.7400, 20512.00
605.9080, 20405.00
607.0760, 20459.00
608.2440, 20503.00
609.4120, 20553.00
610.5790, 20650.00
611.7460, 20633.00
612.9140, 20641.00
614.0810, 20866.00
615.2480, 20943.00
616.4140, 20977.00
617.5810, 20924.00
618.7470, 21260.00
619.9130, 21095.00
621.0790, 21321.00
622.2450, 21442.00
623.4110, 21478.00
624.5770, 21475.00
625.7420, 21584.74
626.9070, 21691.11
628.0720, 21767.00
629.2370, 21908.00
630.4020, 22068.00
631.5660, 22158.95
632.7310, 22291.70
633.8950, 22403.00
635.0590, 22562.00
636.2230, 22725.00
637.3870, 22971.94
638.5500, 23179.52
639.7140, 23477.44
640.8770, 23762.00
642.0400, 24155.00
643.2030, 24654.00
644.3660, 25098.00
645.5280, 25927.00
646.6910, 26382.00
647.8530, 26896.00
649.0150, 27778.00
650.1770, 28416.00
651.3390, 29133.00
652.5000, 29549.00
653.6620, 29586.00
654.8230, 29339.00
655.9840, 29002.00
657.1450, 28497.00
658.3060, 27650.00
659.4660, 26954.00
660.6270, 26403.00
661.7870, 25810.00
662.9470, 25105.00
664.1070, 24751.00
665.2670, 24684.00
666.4260, 24329.00
667.5860, 24417.00
668.7450, 24218.46
669.9040, 24121.00
671.0630, 24080.00
672.2220, 23996.00
673.3800, 24107.00
674.5390, 24209.00
675.6970, 24468.00
676.8550, 24555.00
678.0130, 24756.00
679.1710, 24660.00
680.3290, 25253.00
681.4860, 25135.00
682.6430, 25320.00
683.8000, 25589.00
684.9570, 25747.00
686.1140, 25918.00
687.2710, 26113.00
688.4270, 26249.00
689.5840, 26328.00
690.7400, 26549.00
691.8960, 26540.00
693.0520, 26729.00
694.2070, 26765.00
695.3630, 27090.00
696.5180, 27076.00
697.6730, 27173.00
698.8280, 27377.00
699.9830, 27242.00
701.1380, 27542.00
702.2920, 27523.00
703.4470, 27386.00
704.6010, 27510.00
705.7550, 27615.19
706.9090, 27567.00
708.0620, 27869.00
709.2160, 27749.00
710.3690, 27566.00
711.5220, 28047.00
712.6750, 27995.00
713.8280, 27971.04
714.9810, 28051.11
716.1340, 27798.00
717.2860, 27924.00
718.4380, 27756.00
719.5900, 27714.00
720.7420, 27491.00
721.8940, 27472.00
723.0450, 27285.00
724.1970, 27005.00
725.3480, 27053.00
726.4990, 26857.00
727.6500, 26791.00
728.8010, 26477.00
729.9510, 26240.00
731.1020, 26077.00
732.2520, 25975.00
733.4020, 26083.00
734.5520, 25739.00
735.7020, 25789.00
736.8510, 25219.00
738.0010, 25215.00
739.1500, 25007.00
740.2990, 24921.00
741.4480, 24925.00
742.5970, 24577.00
743.7450, 24668.00
744.8940, 24583.00
746.0420, 24457.00
747.1900, 24404.96
748.3380, 24390.00
749.4860, 24174.00
750.6330, 24406.00
751.7810, 24347.00
752.9280, 24292.00
754.0750, 24431.00
755.2220, 24396.00
756.3690, 24353.00
757.5160, 24433.00
758.6620, 24187.00
759.8090, 24134.00
760.9550, 24515.00
762.1010, 24066.00
763.2470, 24441.00
764.3920, 24208.00
765.5380, 24369.00
766.6830, 23974.00
767.8280, 23911.00
768.9730, 23557.00
770.1180, 23266.00
771.2630, 23518.00
772.4070, 23339.00
773.5520, 23375.00
774.6960, 22968.00
775.8400, 23037.00
776.9840, 22911.00
778.1280, 22797.00
779.2710, 22614.00
780.4140, 22805.00
781.5580, 22623.00
782.7010, 22376.00
783.8440, 22533.00
784.9860, 22354.00
786.1290, 22579.00
787.2710, 22195.00
788.4140, 22351.00
789.5560, 22524.00
790.6980, 22393.00
791.8390, 22298.58
792.9810, 21981.00
794.1220, 21898.00
795.2640, 21773.00
796.4050, 21731.00
797.5460, 21643.00
798.6860, 21539.00
799.8270, 21513.00
800.9680, 21438.00
802.1080, 21318.00
803.2480, 21348.00
804.3880, 21182.00
805.5280, 21427.00
806.6670, 21263.00
807.8070, 21039.00
808.9460, 21226.00
810.0850, 21043.00
811.2240, 21103.00
812.3630, 20941.00
813.5020, 20896.00
814.6400, 20934.00
815.7790, 20941.00
816.9170, 20868.00
818.0550, 21051.00
819.1930, 20923.00
820.3300, 21011.00
821.4680, 21090.00
822.6050, 21189.00
823.7430, 20831.00
824.8800, 20899.00
826.0170, 20924.00
827.1530, 21001.00
828.2900, 21004.00
829.4260, 21070.00
830.5620, 20946.00
831.6990, 20958.00
832.8340, 21221.00
833.9700, 21102.00
835.1060, 21184.00
836.2410, 21185.22
837.3760, 21132.86
838.5120, 21171.00
839.6470, 21125.00
840.7810, 21243.00
841.9160, 21373.00
843.0500, 21199.00
844.1850, 21453.00
845.3190, 21509.00
846.4530, 21449.00
847.5870, 21586.00
848.7200, 21506.00
849.8540, 21486.00
850.9870, 21626.00
852.1200, 21599.00
853.2530, 21901.00
854.3860, 21951.00
855.5190, 22417.00
856.6510, 22262.00
857.7840, 22363.32
858.9160, 22312.00
860.0480, 22349.00
861.1800, 22560.00
862.3110, 22697.00
863.4430, 22708.00
864.5740, 22811.00
865.7060, 22969.00
866.8370, 22969.00
867.9680, 23024.00
869.0980, 23180.00
870.2290, 23368.00
871.3590, 23485.16
872.4900, 23659.00
873.6200, 23807.00
874.7500, 24066.00
875.8790, 24249.00
877.0090, 24139.00
878.1380, 24282.00
879.2680, 24538.00
880.3970, 24667.00
881.5260, 24867.00
882.6550, 25019.00
883.7830, 25046.00
884.9120, 25089.00
886.0400, 25483.00
887.1680, 25508.00
888.2960, 25597.00
889.4240, 25798.00
890.5520, 25837.00
891.6790, 25809.00
892.8070, 25994.00
893.9340, 26363.00
895.0610, 26518.28
896.1880, 26523.00
897.3140, 26759.00
898.4410, 26853.75
899.5670, 26978.00
900.6940, 27137.00
901.8200, 27339.00
902.9450, 27486.00
904.0710, 27762.00
905.1970, 27829.00
906.3220, 27915.00
907.4470, 28228.00
908.5730, 28295.00
909.6980, 28504.00
910.8220, 28474.00
911.9470, 28553.00
913.0710, 28868.00
914.1960, 29159.00
915.3200, 28993.00
916.4440, 29507.00
917.5680, 29349.00
918.6910, 29202.00
919.8150, 29432.00
920.9380, 29339.78
922.0610, 29499.00
923.1840, 29474.00
924.3070, 29431.00
925.4300, 29529.00
926.5520, 29446.00
927.6750, 29398.00
928.7970, 29380.00
929.9190, 29422.00
931.0410, 29335.54
932.1630, 29090.00
933.2840, 29144.00
934.4060, 29217.00
935.5270, 28992.00
936.6480, 29078.00
937.7690, 28834.00
938.8900, 28757.00
940.0100, 28879.00
941.1310, 28639.00
942.2510, 28701.00
943.3710, 28697.00
944.4910, 28792.00
945.6110, 28825.00
946.7310, 28831.00
947.8500, 28628.00
948.9690, 28483.00
950.0890, 28499.00
951.2080, 28460.00
952.3260, 28172.00
953.4450, 28202.00
954.5640, 28092.00
955.6820, 27767.00
956.8000, 27534.00
957.9180, 27111.00
959.0360, 26846.00
960.1540, 26591.00
961.2710, 26288.00
962.3890, 26175.00
963.5060, 25908.00
964.6230, 25583.00
965.7400, 25540.00
966.8570, 25529.00
967.9730, 25275.49
969.0900, 25146.00
970.2060, 24999.00
971.3220, 24870.00
972.4380, 24890.00
973.5540, 24770.00
974.6700, 24961.00
975.7850, 24818.00
976.9010, 24636.00
978.0160, 24925.00
979.1310, 24721.00
980.2460, 24747.00
981.3600, 24877.00
982.4750, 24971.00
983.5890, 24896.00
984.7030, 24838.00
985.8170, 24862.00
986.9310, 24958.00
988.0450, 25065.00
989.1590, 25039.00
990.2720, 25386.00
991.3850, 25292.00
992.4980, 25419.00
993.6110, 25341.00
994.7240, 25466.58
995.8370, 25579.51
996.9490, 25697.00
998.0620, 25916.00
999.1740, 26005.00
1000.286, 26272.00
1001.398, 26406.00
1002.509, 26337.00
1003.621, 26400.00
1004.732, 26963.00
1005.843, 26789.00
1006.954, 27341.00
1008.065, 27419.00
1009.176, 27589.00
1010.286, 27962.00
1011.397, 28231.00
1012.507, 28462.00
1013.617, 28987.00
1014.727, 29218.00
1015.837, 29462.00
1016.946, 29864.00
1018.056, 30290.00
1019.165, 30538.00
1020.274, 31100.00
1021.383, 31511.00
1022.492, 31556.00
1023.601, 31726.00
1024.709, 32175.00
1025.817, 32472.00
1026.926, 32766.00
1028.034, 32964.43
1029.141, 33170.00
1030.249, 33119.00
1031.357, 33223.00
1032.464, 33054.00
1033.571, 32641.00
1034.678, 32719.00
1035.785, 32142.00
1036.892, 31896.00
1037.999, 31694.00
1039.105, 30863.00
1040.211, 30741.00
1041.317, 30204.27
1042.423, 29776.00
1043.529, 29473.00
1044.635, 28708.00
1045.740, 28663.00
1046.845, 28240.00
1047.951, 28141.00
1049.056, 27958.00
1050.160, 27743.00
1051.265, 27569.00
1052.370, 27337.00
1053.474, 27288.00
1054.578, 27279.00
1055.682, 27139.00
1056.786, 26810.00
1057.890, 26699.00
1058.993, 26878.00
1060.097, 26671.00
1061.200, 26820.00
1062.303, 26701.00
1063.406, 26587.00
1064.509, 26806.00
1065.612, 26750.00
1066.714, 26533.00
1067.816, 26584.00
1068.919, 26630.00
1070.021, 26539.00
1071.122, 26543.00
1072.224, 26429.00
1073.326, 26514.00
1074.427, 26447.00
1075.528, 26551.00
1076.629, 26555.00
1077.730, 26395.00
1078.831, 26430.00
1079.931, 26355.59
1081.032, 26488.00
1082.132, 26281.00
1083.232, 26267.00
1084.332, 26270.00
1085.432, 26174.00
1086.531, 26012.00
1087.631, 26182.21
1088.730, 26191.32
1089.829, 26177.00
1090.928, 26444.00
1092.027, 25813.00
1093.126, 25852.00
1094.224, 25588.00
1095.323, 25642.00
1096.421, 25389.00
1097.519, 25365.53
1098.617, 25442.50
1099.715, 25297.00
1100.812, 25493.00
1101.910, 25507.00
1103.007, 25199.00
1104.104, 25104.00
1105.201, 25365.00
1106.298, 25159.00
1107.394, 25072.00
1108.491, 25259.00
1109.587, 24961.00
1110.683, 25062.00
1111.779, 25077.00
1112.875, 24949.00
1113.971, 24988.58
1115.066, 25043.00
1116.162, 24892.00
1117.257, 25097.00
1118.352, 25029.00
1119.447, 25056.00
1120.542, 25078.00
1121.636, 25042.00
1122.731, 25085.00
1123.825, 24933.00
1124.919, 25060.00
1126.013, 24754.00
1127.107, 24830.00
1128.200, 24998.00
1129.294, 25021.00
1130.387, 24769.00
1131.480, 24862.00
1132.573, 24819.00
1133.666, 24678.00
1134.759, 24877.00
1135.851, 24684.00
1136.944, 24846.00
1138.036, 24872.00
1139.128, 25023.00
1140.220, 24923.00
1141.312, 24869.00
1142.403, 24807.00
1143.495, 24798.00
1144.586, 24914.00
1145.677, 24940.00
1146.768, 24822.00
1147.859, 24758.00
1148.950, 24663.00
1150.040, 24656.99
1151.130, 24651.19
1152.221, 24680.00
1153.311, 24699.00
1154.401, 24727.00
1155.490, 24733.00
1156.580, 25002.00
1157.669, 24762.00
1158.759, 24850.00
1159.848, 25034.00
1160.937, 24785.00
1162.025, 24848.00
1163.114, 24907.00
1164.202, 24818.00
1165.291, 24918.00
1166.379, 24631.00
1167.467, 24993.00
1168.555, 25112.00
1169.642, 25026.96
1170.730, 25336.00
1171.817, 24985.00
1172.905, 24943.00
1173.992, 24895.00
1175.078, 24848.00
1176.165, 24934.00
1177.252, 24862.00
1178.338, 24938.00
1179.425, 25247.00
1180.511, 25012.00
1181.597, 25043.00
1182.682, 24861.00
1183.768, 25082.00
1184.854, 25206.00
1185.939, 25169.00
1187.024, 25090.00
1188.109, 25111.67
1189.194, 25012.00
1190.279, 25005.00
1191.363, 25119.00
1192.448, 25022.00
1193.532, 25169.00
1194.616, 24886.00
1195.700, 25303.00
1196.784, 25225.00
1197.867, 25030.00
1198.951, 24913.00
1200.034, 25343.00
1201.117, 24997.00
1202.200, 25105.00
1203.283, 25192.00
1204.366, 25021.00
1205.448, 25071.00
1206.531, 25386.17
1207.613, 25615.00
1208.695, 26034.00
1209.777, 25152.00
1210.859, 25162.00
1211.940, 25215.00
1213.022, 25235.00
1214.103, 25203.00
1215.184, 25304.00
1216.265, 25214.00
1217.346, 25447.00
1218.427, 25191.00
1219.507, 25282.00
1220.587, 25384.00
1221.668, 25213.00
1222.748, 25374.00
1223.828, 25430.00
1224.907, 25214.00
1225.987, 25440.00
1227.066, 25392.00
1228.146, 25198.00
1229.225, 25369.00
1230.304, 25403.00
1231.382, 25554.00
1232.461, 25341.00
1233.540, 25347.00
1234.618, 25318.00
1235.696, 25251.00
1236.774, 25450.00
1237.852, 25379.00
1238.930, 25485.00
1240.007, 25313.00
1241.085, 25570.00
1242.162, 25899.00
1243.239, 25655.68
1244.316, 25616.00
1245.393, 25437.00
1246.469, 25607.00
1247.546, 25642.00
1248.622, 25594.87
1249.698, 25636.67
1250.774, 25567.00
1251.850, 25623.00
1252.926, 25590.00
1254.001, 25694.00
1255.077, 25666.00
1256.152, 25764.00
1257.227, 25775.00
1258.302, 25686.00
1259.377, 25499.00
1260.451, 25643.00
1261.526, 25737.00
1262.600, 26168.00
1263.674, 25911.00
1264.748, 25525.00
1265.822, 25796.00
1266.896, 25602.00
1267.969, 25944.00
1269.043, 26047.00
1270.116, 25956.00
1271.189, 25657.00
1272.262, 25680.00
1273.335, 25913.00
1274.407, 25831.00
1275.480, 25837.00
1276.552, 25891.00
1277.624, 25853.00
1278.696, 25902.54
1279.768, 26007.00
1280.840, 25944.00
1281.911, 26011.00
1282.982, 25991.00
1284.054, 26165.00
1285.125, 25758.00
1286.196, 26059.00
1287.266, 25988.00
1288.337, 26168.00
1289.407, 26136.00
1290.478, 26009.00
1291.548, 26051.00
1292.618, 26048.00
1293.688, 26118.00
1294.757, 26131.00
1295.827, 26233.00
1296.896, 26320.00
1297.965, 26294.00
1299.034, 26271.00
1300.103, 26200.00
1301.172, 26235.00
1302.241, 26221.00
1303.309, 26260.00
1304.377, 26205.00
1305.445, 26163.00
1306.513, 26161.00
1307.581, 26156.66
1308.649, 26444.00
1309.716, 26242.00
1310.784, 26302.00
1311.851, 26447.00
1312.918, 26303.00
1313.985, 26563.00
1315.052, 26586.00
1316.118, 26614.00
1317.185, 26442.00
1318.251, 26297.00
1319.317, 26487.00
1320.383, 26576.00
1321.449, 26494.00
1322.514, 26333.00
1323.580, 26329.00
1324.645, 26271.00
1325.711, 26318.00
1326.776, 26335.00
1327.840, 26419.00
1328.905, 26419.00
1329.970, 26482.75
1331.034, 26650.00
1332.099, 26586.00
1333.163, 26578.00
1334.227, 26621.00
1335.290, 26523.00
1336.354, 26648.00
1337.418, 26477.00
1338.481, 26564.00
1339.544, 26647.00
1340.607, 26591.00
1341.670, 26742.00
1342.733, 26729.00
1343.795, 26606.00
1344.858, 26691.00
1345.920, 26508.00
1346.982, 26744.00
1348.044, 26704.00
1349.106, 26884.00
1350.168, 26862.00
1351.229, 26875.74
1352.291, 26765.00
1353.352, 26805.00
1354.413, 26767.00
1355.474, 26615.00
1356.534, 26690.62
1357.595, 26781.00
1358.656, 26744.00
1359.716, 26961.00
1360.776, 27025.00
1361.836, 26985.43
1362.896, 26927.00
1363.955, 26914.00
1365.015, 26814.00
1366.074, 26809.00
1367.134, 27065.00
1368.193, 26995.00
1369.252, 27180.00
1370.310, 26953.00
1371.369, 26872.00
1372.427, 27120.00
1373.486, 27109.00
1374.544, 27147.00
1375.602, 27013.00
1376.660, 26891.00
1377.717, 27150.00
