##NAMES=Laverovite
##RRUFFID=R060216
##IDEAL CHEMISTRY=K_2_NaMn^2+^_7_Zr^4+^_2_(Si_4_O_12_)_2_O_2_(OH)_4_F
##LOCALITY=Desourdy Quarry, Mont Saint-Hilaire, Rouville County, Quebec, Canada
##OWNER=RRUFF
##SOURCE=Royal Ontario Museum
##DESCRIPTION=Brown fragment showing lamellar habit. Type sample
##STATUS=The identification of this mineral has been confirmed by X-ray diffraction and chemical analysis
##URL=rruff.info/R060216
##MEASURED CHEMISTRY=(K_1.74_Na_0.18_[box]_0.08_)_Σ=2_(Na_0.92_Ca_0.08_)_Σ=1_(Mn_4.09_Fe^2+^_2.67_Mg_0.24_)_Σ=7_(Zr_1.42_Ti_0.58_)_Σ=2_(Si_7.86_Al_0.14_)_Σ=8_O_26_((OH)_3.14_O_0.86_)_Σ=4_
##PIN_ID=L00725
##ORIENTATION=Laser parallel to c* (0 0 1). Fiducial mark perpendicular to laser is parallel to a [1 0 0]
143.9560, 29304.00
145.1840, 28921.00
146.4120, 29266.00
147.6390, 29113.00
148.8670, 29222.00
150.0940, 29016.00
151.3210, 29119.00
152.5490, 29928.00
153.7750, 30160.00
155.0020, 30128.29
156.2290, 30298.00
157.4550, 30002.00
158.6810, 29916.00
159.9080, 30083.00
161.1340, 30694.00
162.3590, 31254.00
163.5850, 31934.00
164.8110, 33083.00
166.0360, 33974.00
167.2610, 34391.00
168.4860, 34665.00
169.7110, 34635.00
170.9360, 34841.00
172.1610, 34864.00
173.3850, 34097.00
174.6100, 33261.00
175.8340, 32774.00
177.0580, 32398.00
178.2820, 31789.00
179.5050, 31519.00
180.7290, 31186.00
181.9520, 30953.00
183.1760, 30822.05
184.3990, 30694.33
185.6220, 30641.00
186.8450, 30700.00
188.0670, 30617.00
189.2900, 30814.00
190.5120, 30686.00
191.7340, 30675.00
192.9560, 30956.00
194.1780, 31488.00
195.4000, 31612.00
196.6220, 31840.00
197.8430, 32286.00
199.0640, 32443.00
200.2860, 32807.00
201.5070, 33739.00
202.7270, 34987.00
203.9480, 34825.00
205.1690, 33565.00
206.3890, 31699.00
207.6090, 30837.00
208.8290, 30466.00
210.0490, 30630.00
211.2690, 30777.00
212.4890, 31002.00
213.7080, 31639.00
214.9280, 32113.00
216.1470, 32238.00
217.3660, 32438.00
218.5850, 32849.00
219.8030, 32807.00
221.0220, 33384.00
222.2400, 33473.00
223.4590, 33949.00
224.6770, 34201.00
225.8950, 34638.00
227.1120, 34952.00
228.3300, 35447.00
229.5480, 35744.00
230.7650, 36146.03
231.9820, 36676.00
233.1990, 36922.00
234.4160, 37257.00
235.6330, 37687.00
236.8490, 38178.00
238.0660, 38542.00
239.2820, 38732.00
240.4980, 38820.00
241.7140, 38900.00
242.9300, 38801.74
244.1460, 38440.00
245.3610, 38384.00
246.5770, 37993.00
247.7920, 37550.00
249.0070, 37181.00
250.2220, 36703.00
251.4370, 36437.00
252.6510, 36393.00
253.8660, 36259.00
255.0800, 36470.00
256.2940, 36565.00
257.5080, 36480.00
258.7220, 36887.00
259.9360, 38533.00
261.1490, 39562.00
262.3630, 38367.00
263.5760, 36561.00
264.7890, 35819.00
266.0020, 35217.00
267.2150, 34511.00
268.4270, 33739.00
269.6400, 32923.00
270.8520, 32275.00
272.0640, 31340.00
273.2760, 30666.00
274.4880, 30156.00
275.7000, 29477.00
276.9120, 29075.34
278.1230, 28719.00
279.3340, 28324.00
280.5450, 28052.00
281.7560, 27773.00
282.9670, 27547.62
284.1780, 27505.00
285.3880, 27286.00
286.5980, 27148.00
287.8090, 27236.00
289.0190, 27052.00
290.2290, 26962.00
291.4380, 27026.74
292.6480, 27011.00
293.8570, 27110.00
295.0670, 27043.00
296.2760, 27081.00
297.4850, 26983.00
298.6930, 27187.00
299.9020, 27015.00
301.1110, 26933.00
302.3190, 26927.00
303.5270, 27168.00
304.7350, 26864.00
305.9430, 26942.00
307.1510, 26785.00
308.3580, 27059.00
309.5660, 26499.00
310.7730, 26607.00
311.9800, 26856.00
313.1870, 26827.00
314.3940, 26917.00
315.6010, 26966.00
316.8070, 27044.00
318.0130, 27178.00
319.2200, 27159.00
320.4260, 27345.17
321.6310, 27450.00
322.8370, 27651.00
324.0430, 27786.00
325.2480, 27929.00
326.4540, 28046.30
327.6590, 28090.00
328.8640, 28224.00
330.0680, 28307.00
331.2730, 28364.00
332.4780, 28546.00
333.6820, 28349.00
334.8860, 28437.00
336.0900, 28664.00
337.2940, 28634.00
338.4980, 28830.00
339.7010, 28988.25
340.9050, 29095.00
342.1080, 29088.91
343.3110, 28875.00
344.5140, 28999.00
345.7170, 28880.00
346.9200, 28888.00
348.1220, 29003.00
349.3240, 28687.00
350.5270, 29213.00
351.7290, 28974.29
352.9310, 28828.00
354.1320, 28900.00
355.3340, 28827.00
356.5350, 28891.00
357.7370, 28952.00
358.9380, 28918.00
360.1390, 29182.00
361.3400, 29170.00
362.5400, 29470.00
363.7410, 29436.00
364.9410, 29578.00
366.1410, 29507.00
367.3410, 29408.00
368.5410, 29343.00
369.7410, 29288.00
370.9400, 29118.00
372.1400, 29033.00
373.3390, 29219.00
374.5380, 29352.00
375.7370, 29282.00
376.9360, 29355.00
378.1350, 29605.00
379.3330, 29518.00
380.5310, 29535.00
381.7300, 29566.00
382.9280, 29446.00
384.1260, 29666.00
385.3230, 29542.00
386.5210, 29386.00
387.7180, 29350.00
388.9160, 29148.00
390.1130, 29003.00
391.3100, 28757.00
392.5060, 28770.00
393.7030, 28623.00
394.9000, 28494.00
396.0960, 28502.00
397.2920, 28556.00
398.4880, 28263.00
399.6840, 28273.86
400.8800, 28356.00
402.0750, 28180.00
403.2710, 28153.00
404.4660, 28373.00
405.6610, 28111.00
406.8560, 27829.00
408.0510, 27987.00
409.2450, 28019.00
410.4400, 28094.00
411.6340, 28060.87
412.8280, 28095.00
414.0220, 28166.88
415.2160, 28225.00
416.4100, 28255.00
417.6030, 28321.00
418.7970, 28236.00
419.9900, 28201.00
421.1830, 28197.00
422.3760, 28090.00
423.5690, 28102.00
424.7610, 27928.21
425.9540, 27810.38
427.1460, 27591.00
428.3380, 27475.00
429.5300, 27328.00
430.7220, 27143.00
431.9140, 26941.74
433.1050, 26709.00
434.2970, 26475.00
435.4880, 26302.00
436.6790, 26070.00
437.8700, 25970.00
439.0610, 25967.00
440.2510, 25582.00
441.4420, 25705.00
442.6320, 25629.00
443.8220, 25513.00
445.0120, 25798.00
446.2020, 25402.00
447.3910, 25303.00
448.5810, 25380.00
449.7700, 25556.00
450.9600, 25371.00
452.1490, 25892.00
453.3370, 25696.00
454.5260, 25669.00
455.7150, 25795.00
456.9030, 26013.00
458.0910, 25994.00
459.2800, 26371.00
460.4670, 26286.00
461.6550, 26837.00
462.8430, 26912.00
464.0300, 27119.00
465.2180, 27284.00
466.4050, 27509.00
467.5920, 27596.00
468.7790, 27652.00
469.9650, 27742.00
471.1520, 27847.00
472.3380, 27841.00
473.5250, 27958.00
474.7110, 27635.00
475.8970, 27682.00
477.0820, 27731.00
478.2680, 27848.00
479.4540, 27727.00
480.6390, 27709.00
481.8240, 27762.00
483.0090, 27471.00
484.1940, 27625.00
485.3780, 27756.00
486.5630, 27555.00
487.7470, 27705.00
488.9320, 27534.00
490.1160, 27632.00
491.3000, 27656.00
492.4830, 27494.00
493.6670, 27509.00
494.8500, 27585.00
496.0340, 27370.00
497.2170, 27345.00
498.4000, 27127.00
499.5820, 27232.00
500.7650, 27079.00
501.9480, 27142.00
503.1300, 27032.00
504.3120, 27095.00
505.4940, 27335.00
506.6760, 27170.22
507.8580, 27260.00
509.0390, 26949.00
510.2210, 26934.00
511.4020, 26656.00
512.5830, 27067.00
513.7640, 26920.00
514.9450, 26928.00
516.1250, 26673.00
517.3060, 26864.00
518.4860, 26585.00
519.6660, 26606.00
520.8460, 26643.00
522.0260, 26681.00
523.2060, 26740.00
524.3850, 26652.00
525.5650, 26651.00
526.7440, 26757.00
527.9230, 26726.00
529.1020, 26886.00
530.2810, 26894.99
531.4590, 27036.00
532.6380, 27016.00
533.8160, 26981.00
534.9940, 27127.00
536.1720, 27246.00
537.3500, 27326.00
538.5270, 27578.00
539.7050, 27801.00
540.8820, 27988.62
542.0590, 28231.00
543.2360, 28449.00
544.4130, 28879.00
545.5900, 29144.00
546.7660, 29618.00
547.9430, 30160.00
549.1190, 30751.00
550.2950, 31152.00
551.4710, 31703.00
552.6470, 32641.00
553.8220, 33089.00
554.9980, 33652.23
556.1730, 33981.00
557.3480, 34510.00
558.5230, 34349.00
559.6980, 34577.00
560.8730, 34244.00
562.0470, 34164.00
563.2220, 33812.00
564.3960, 33697.00
565.5700, 33187.00
566.7440, 33167.00
567.9170, 32957.00
569.0910, 32355.00
570.2640, 32347.00
571.4380, 32001.00
572.6110, 31760.00
573.7840, 31451.00
574.9570, 31267.28
576.1290, 31006.00
577.3020, 30966.00
578.4740, 30814.00
579.6460, 30733.00
580.8180, 30837.00
581.9900, 30774.00
583.1620, 30758.20
584.3330, 30621.00
585.5040, 30670.00
586.6760, 30708.00
587.8470, 30614.00
589.0180, 30941.00
590.1880, 30957.00
591.3590, 31045.00
592.5290, 30823.00
593.7000, 30962.00
594.8700, 30926.00
596.0400, 30943.00
597.2090, 30952.00
598.3790, 30921.04
599.5490, 30935.00
600.7180, 30908.00
601.8870, 30908.00
603.0560, 30971.00
604.2250, 31015.00
605.3940, 31267.00
606.5620, 31181.00
607.7300, 31506.00
608.8990, 31440.00
610.0670, 31607.00
611.2350, 31519.00
612.4020, 31699.00
613.5700, 31894.00
614.7370, 31953.00
615.9050, 32164.00
617.0720, 32316.36
618.2390, 32503.69
619.4060, 32698.00
620.5720, 32966.00
621.7390, 33232.00
622.9050, 33544.00
624.0710, 33762.00
625.2370, 34031.00
626.4030, 34299.46
627.5690, 34635.00
628.7340, 34931.00
629.9000, 35201.00
631.0650, 35746.00
632.2300, 36053.00
633.3950, 36661.00
634.5600, 37090.00
635.7240, 37771.00
636.8890, 38458.00
638.0530, 39170.00
639.2170, 39987.00
640.3810, 41116.82
641.5450, 42533.00
642.7080, 43721.00
643.8720, 45292.00
645.0350, 46932.00
646.1980, 49615.00
647.3610, 51587.00
648.5240, 54092.00
649.6870, 56665.00
650.8490, 59045.00
652.0120, 61335.00
653.1740, 61891.00
654.3360, 62789.00
655.4980, 61857.00
656.6600, 60362.00
657.8210, 58033.00
658.9830, 56067.00
660.1440, 53724.00
661.3050, 51798.00
662.4660, 49744.00
663.6270, 48279.00
664.7870, 46935.54
665.9480, 45826.00
667.1080, 45047.00
668.2680, 44474.00
669.4280, 44146.00
670.5880, 44091.00
671.7480, 44235.00
672.9070, 44230.32
674.0670, 44354.00
675.2260, 44661.00
676.3850, 45027.00
677.5440, 45469.00
678.7030, 45941.27
679.8610, 46347.64
681.0200, 47226.00
682.1780, 47221.00
683.3360, 48284.00
684.4940, 48766.00
685.6520, 48990.00
686.8090, 49551.00
687.9670, 49873.00
689.1240, 50503.00
690.2810, 50564.00
691.4380, 50929.00
692.5950, 50809.00
693.7520, 50949.00
694.9080, 51275.00
696.0650, 51192.00
697.2210, 51057.00
698.3770, 50933.00
699.5330, 50956.00
700.6880, 50586.00
701.8440, 50868.00
702.9990, 50425.00
704.1550, 50281.00
705.3100, 50361.00
706.4650, 50268.00
707.6190, 50021.00
708.7740, 49632.00
709.9290, 49757.00
711.0830, 49845.00
712.2370, 49446.00
713.3910, 48945.00
714.5450, 48667.00
715.6980, 48276.00
716.8520, 47871.00
718.0050, 47192.00
719.1580, 46508.00
720.3110, 46062.00
721.4640, 45464.00
722.6170, 45039.00
723.7700, 44010.00
724.9220, 43577.00
726.0740, 42992.00
727.2260, 42538.00
728.3780, 41700.00
729.5300, 41056.00
730.6810, 40546.00
731.8330, 39977.00
732.9840, 40009.00
734.1350, 39191.00
735.2860, 38611.00
736.4370, 38096.00
737.5880, 37524.27
738.7380, 37269.00
739.8880, 36687.70
741.0390, 36416.00
742.1890, 36224.00
743.3380, 35479.00
744.4880, 35579.00
745.6380, 35125.00
746.7870, 34946.00
747.9360, 34879.00
749.0850, 34508.00
750.2340, 34265.00
751.3830, 33962.00
752.5310, 34079.00
753.6800, 33795.00
754.8280, 33767.00
755.9760, 33298.00
757.1240, 33461.00
758.2720, 33089.25
759.4190, 33132.00
760.5670, 32605.00
761.7140, 32543.00
762.8610, 32449.00
764.0080, 32225.00
765.1550, 32090.00
766.3020, 31866.00
767.4480, 31481.00
768.5950, 31216.00
769.7410, 31048.66
770.8870, 31243.00
772.0330, 30591.00
773.1780, 30425.00
774.3240, 29853.00
775.4690, 30063.00
776.6140, 29643.00
777.7590, 29502.00
778.9040, 29372.00
780.0490, 29141.00
781.1940, 29071.00
782.3380, 28870.00
783.4820, 28854.00
784.6260, 28686.00
785.7700, 28476.00
786.9140, 28455.00
788.0580, 28401.00
789.2010, 28151.00
790.3450, 28102.00
791.4880, 28014.00
792.6310, 27948.00
793.7730, 27852.00
794.9160, 27696.80
796.0590, 27364.00
797.2010, 27315.00
798.3430, 27256.00
799.4850, 26986.00
800.6270, 26987.00
801.7690, 27029.00
802.9100, 26888.00
804.0520, 26752.00
805.1930, 26644.43
806.3340, 26493.95
807.4750, 26285.00
808.6160, 26307.00
809.7560, 26069.00
810.8970, 26167.00
812.0370, 25901.00
813.1770, 25906.53
814.3170, 25884.21
815.4570, 25902.00
816.5960, 25818.00
817.7360, 25925.00
818.8750, 25813.00
820.0140, 25712.00
821.1530, 25586.00
822.2920, 25654.00
823.4310, 25685.00
824.5690, 25541.69
825.7070, 25543.34
826.8460, 25414.00
827.9840, 25429.00
829.1220, 25613.00
830.2590, 25671.00
831.3970, 25610.00
832.5340, 25678.00
833.6710, 25718.00
834.8080, 25516.00
835.9450, 25667.00
837.0820, 25672.00
838.2190, 25836.00
839.3550, 25867.29
840.4910, 25845.00
841.6270, 25953.00
842.7630, 25766.00
843.8990, 25781.00
845.0350, 25656.00
846.1700, 26022.00
847.3060, 25921.00
848.4410, 26006.00
849.5760, 25978.00
850.7100, 26110.00
851.8450, 26223.00
852.9800, 26392.00
854.1140, 26320.00
855.2480, 26558.00
856.3820, 26557.00
857.5160, 26668.00
858.6500, 26759.00
859.7830, 26842.11
860.9170, 27048.00
862.0500, 27060.00
863.1830, 27472.00
864.3160, 27604.00
865.4480, 27683.00
866.5810, 27739.00
867.7130, 27873.00
868.8460, 27919.00
869.9780, 28125.89
871.1100, 28663.00
872.2410, 28622.00
873.3730, 28999.00
874.5050, 29426.00
875.6360, 29502.00
876.7670, 29788.00
877.8980, 29945.00
879.0290, 30356.00
880.1590, 30450.00
881.2900, 31091.00
882.4200, 31702.00
883.5500, 31341.00
884.6800, 31485.00
885.8100, 31677.00
886.9400, 31946.00
888.0690, 32162.00
889.1990, 32518.00
890.3280, 32783.00
891.4570, 33047.00
892.5860, 33477.00
893.7140, 33622.00
894.8430, 33903.00
895.9710, 34213.00
897.1000, 34597.00
898.2280, 34708.00
899.3560, 34967.00
900.4830, 35330.00
901.6110, 36037.00
902.7380, 36279.00
903.8660, 36958.00
904.9930, 36989.00
906.1200, 37600.00
907.2460, 37838.00
908.3730, 38172.00
909.5000, 38561.00
910.6260, 39020.39
911.7520, 39516.00
912.8780, 40014.00
914.0040, 40604.00
915.1290, 40974.00
916.2550, 41225.00
917.3800, 41551.00
918.5050, 42149.00
919.6300, 42271.00
920.7550, 42875.00
921.8800, 42819.00
923.0040, 43433.00
924.1290, 43520.00
925.2530, 43863.00
926.3770, 43789.00
927.5010, 43851.00
928.6250, 44083.00
929.7480, 43989.00
930.8720, 44396.00
931.9950, 44213.00
933.1180, 44222.00
934.2410, 44117.00
935.3640, 43829.00
936.4860, 44058.00
937.6090, 43876.00
938.7310, 43973.00
939.8530, 43847.00
940.9750, 43823.00
942.0970, 43752.00
943.2180, 43360.00
944.3400, 43505.00
945.4610, 43319.00
946.5820, 43519.00
947.7030, 43701.00
948.8240, 43002.00
949.9450, 43028.00
951.0650, 42371.00
952.1860, 42309.00
953.3060, 41887.00
954.4260, 41250.00
955.5460, 40507.00
956.6650, 39650.00
957.7850, 38936.00
958.9040, 37824.00
960.0230, 37007.00
961.1420, 35963.00
962.2610, 35409.00
963.3800, 34684.00
964.4990, 33918.00
965.6170, 33309.00
966.7350, 32827.00
967.8530, 32269.00
968.9710, 31856.00
970.0890, 31373.00
971.2070, 30969.94
972.3240, 30555.00
973.4410, 30261.00
974.5580, 30188.00
975.6750, 29966.00
976.7920, 29482.00
977.9090, 29539.00
979.0250, 29297.00
980.1410, 29324.00
981.2580, 29249.00
982.3740, 29112.00
983.4890, 28898.00
984.6050, 28718.00
985.7200, 28626.00
986.8360, 28587.06
987.9510, 28520.14
989.0660, 28667.00
990.1810, 28638.00
991.2950, 28747.00
992.4100, 29132.00
993.5240, 28971.00
994.6390, 28722.00
995.7530, 29051.00
996.8660, 28919.84
997.9800, 29524.00
999.0940, 29058.00
1000.207, 29288.00
1001.320, 29374.00
1002.433, 29430.00
1003.546, 29606.00
1004.659, 29859.00
1005.772, 30140.00
1006.884, 30348.00
1007.996, 30445.00
1009.108, 30571.00
1010.220, 30732.00
1011.332, 31208.00
1012.444, 31929.00
1013.555, 31937.00
1014.666, 32291.00
1015.777, 32729.00
1016.888, 32865.00
1017.999, 33274.00
1019.110, 33534.00
1020.220, 33954.00
1021.331, 34233.00
1022.441, 34464.21
1023.551, 34518.00
1024.661, 34815.00
1025.770, 34944.00
1026.880, 34971.00
1027.989, 35075.00
1029.098, 35005.00
1030.207, 34950.00
1031.316, 35169.00
1032.425, 34881.75
1033.533, 34797.00
1034.642, 34518.00
1035.750, 34135.00
1036.858, 34060.00
1037.966, 33602.00
1039.073, 33450.00
1040.181, 32795.00
1041.288, 32225.00
1042.396, 31997.00
1043.503, 31673.00
1044.610, 31363.17
1045.716, 31067.00
1046.823, 30927.00
1047.929, 30507.00
1049.036, 30375.00
1050.142, 30253.00
1051.248, 30004.50
1052.353, 29818.00
1053.459, 29783.00
1054.564, 29545.00
1055.670, 29654.00
1056.775, 29428.00
1057.880, 29593.00
1058.985, 29412.00
1060.089, 29259.00
1061.194, 29344.00
1062.298, 29250.00
1063.402, 29106.00
1064.506, 29136.00
1065.610, 29030.00
1066.713, 29051.76
1067.817, 28930.00
1068.920, 29080.00
1070.023, 29062.00
1071.126, 29011.00
1072.229, 29049.00
1073.332, 29034.00
1074.435, 28994.00
1075.537, 28969.00
1076.639, 29024.00
1077.741, 28707.00
1078.843, 29044.00
1079.945, 28855.00
1081.046, 28685.00
1082.148, 28802.00
1083.249, 28744.00
1084.350, 28645.00
1085.451, 28792.00
1086.551, 28830.00
1087.652, 28421.00
1088.752, 28585.00
1089.853, 28410.00
1090.953, 28262.00
1092.053, 28501.00
1093.152, 28165.00
1094.252, 28095.00
1095.351, 28123.00
1096.451, 28116.00
1097.550, 27897.00
1098.649, 27759.00
1099.748, 27600.00
1100.846, 27508.72
1101.945, 27437.00
1103.043, 27372.73
1104.141, 27247.00
1105.239, 27166.00
1106.337, 26932.00
1107.434, 26875.00
1108.532, 26797.00
1109.629, 26576.00
1110.726, 26761.00
1111.823, 26319.00
1112.920, 26153.00
1114.017, 26034.00
1115.113, 26304.00
1116.210, 25990.00
1117.306, 26009.00
1118.402, 25917.00
1119.498, 25959.00
1120.593, 25927.00
1121.689, 25796.00
1122.784, 25879.72
1123.879, 25831.51
1124.974, 25997.00
1126.069, 25762.00
1127.164, 25890.00
1128.259, 25679.00
1129.353, 25729.00
1130.447, 25651.00
1131.541, 25604.00
1132.635, 25556.00
1133.729, 25285.00
1134.822, 25544.00
1135.916, 25647.00
1137.009, 25744.00
1138.102, 25571.00
1139.195, 25634.00
1140.288, 25557.00
1141.380, 25372.00
1142.473, 25416.00
1143.565, 25549.00
1144.657, 25624.00
1145.749, 25558.76
1146.841, 25493.00
1147.932, 25405.00
1149.024, 25293.00
1150.115, 25236.00
1151.206, 25089.00
1152.297, 25258.00
1153.388, 25008.00
1154.479, 25208.00
1155.569, 25168.00
1156.659, 25276.00
1157.750, 25254.00
1158.839, 25470.00
1159.929, 25782.00
1161.019, 25469.80
1162.108, 25992.00
1163.198, 25121.00
1164.287, 25104.00
1165.376, 25335.00
1166.465, 25276.00
1167.553, 25230.00
1168.642, 24932.00
1169.730, 25228.00
1170.818, 25344.00
1171.906, 25137.00
1172.994, 25366.00
1174.082, 25177.00
1175.170, 25256.00
1176.257, 25136.00
1177.344, 25337.00
1178.431, 25370.00
1179.518, 25131.00
1180.605, 25278.00
1181.691, 25283.00
1182.778, 25257.57
1183.864, 25001.00
1184.950, 25184.00
1186.036, 25391.00
1187.122, 25088.00
1188.207, 25051.00
1189.292, 25185.00
1190.378, 25232.00
1191.463, 25185.00
1192.548, 25174.00
1193.632, 25182.97
1194.717, 25210.20
1195.801, 25154.00
1196.886, 25285.00
1197.970, 25228.00
1199.054, 25196.00
1200.137, 25249.00
1201.221, 25375.00
1202.305, 25252.00
1203.388, 25171.00
1204.471, 25421.00
1205.554, 25197.00
1206.637, 25255.00
1207.719, 25374.00
1208.802, 25239.00
1209.884, 25476.00
1210.966, 25267.00
1212.048, 25741.00
1213.130, 25267.00
1214.212, 25337.00
1215.293, 25456.00
1216.374, 25191.00
1217.456, 25028.00
1218.536, 25264.00
1219.617, 25237.00
1220.698, 25393.00
1221.778, 25170.00
1222.859, 25451.00
1223.939, 25279.00
1225.019, 25479.00
1226.099, 25443.00
1227.178, 25296.00
1228.258, 25418.00
1229.337, 25552.00
1230.417, 25289.00
1231.496, 25313.00
1232.574, 25343.00
1233.653, 25267.56
1234.732, 25366.10
1235.810, 25279.00
1236.888, 25479.00
1237.966, 25483.00
1239.044, 25475.00
1240.122, 25303.00
1241.199, 25425.00
1242.277, 25363.00
1243.354, 25493.00
1244.431, 25442.00
1245.508, 25464.00
1246.585, 25442.00
1247.661, 25468.00
1248.738, 25441.00
1249.814, 25346.00
1250.890, 25463.00
1251.966, 25416.00
1253.042, 25487.00
1254.117, 25528.00
1255.193, 25484.00
1256.268, 25526.83
1257.343, 25535.68
1258.418, 25518.00
1259.493, 25570.00
1260.567, 25544.00
1261.642, 25548.00
1262.716, 25551.27
1263.790, 25528.00
1264.864, 25493.00
1265.938, 25568.00
1267.011, 25455.00
1268.085, 25568.00
1269.158, 25462.00
1270.231, 25613.00
1271.304, 25626.00
1272.377, 25631.00
1273.450, 25491.00
1274.522, 25530.00
1275.594, 25754.00
1276.666, 25616.00
1277.738, 25650.00
1278.810, 25407.42
1279.882, 25571.58
1280.953, 25672.24
1282.025, 25712.86
1283.096, 25513.47
1284.167, 25623.97
1285.238, 25610.28
1286.308, 25591.48
1287.379, 25745.60
1288.449, 25581.10
1289.519, 25732.46
1290.589, 25757.73
1291.659, 25840.71
1292.729, 25798.73
1293.798, 25795.33
1294.868, 25916.94
1295.937, 25969.32
1297.006, 25662.00
1298.075, 25619.00
1299.143, 25721.00
1300.212, 25716.00
1301.280, 25775.00
1302.348, 25690.00
1303.416, 25753.00
1304.484, 25632.00
1305.552, 25558.00
1306.620, 25898.00
