##NAMES=Laverovite
##RRUFFID=R060216
##IDEAL CHEMISTRY=K_2_NaMn^2+^_7_Zr^4+^_2_(Si_4_O_12_)_2_O_2_(OH)_4_F
##LOCALITY=Desourdy Quarry, Mont Saint-Hilaire, Rouville County, Quebec, Canada
##OWNER=RRUFF
##SOURCE=Royal Ontario Museum
##DESCRIPTION=Brown fragment showing lamellar habit. Type sample
##STATUS=The identification of this mineral has been confirmed by X-ray diffraction and chemical analysis
##URL=rruff.info/R060216
##MEASURED CHEMISTRY=(K_1.74_Na_0.18_[box]_0.08_)_Σ=2_(Na_0.92_Ca_0.08_)_Σ=1_(Mn_4.09_Fe^2+^_2.67_Mg_0.24_)_Σ=7_(Zr_1.42_Ti_0.58_)_Σ=2_(Si_7.86_Al_0.14_)_Σ=8_O_26_((OH)_3.14_O_0.86_)_Σ=4_
##PIN_ID=L00627
##ORIENTATION=Laser parallel to (1 0 1). Fiducial mark perpendicular to laser is parallel to b [0 1 0]
217.3660, 26749.00
218.5850, 26525.00
219.8030, 26601.00
221.0220, 26438.00
222.2400, 26598.00
223.4590, 26590.00
224.6770, 26309.39
225.8950, 26170.00
227.1120, 25784.00
228.3300, 26003.00
229.5480, 25904.00
230.7650, 25562.00
231.9820, 25673.00
233.1990, 25346.00
234.4160, 25551.00
235.6330, 25362.00
236.8490, 25501.00
238.0660, 24955.00
239.2820, 25151.00
240.4980, 24985.00
241.7140, 25005.00
242.9300, 24983.00
244.1460, 24514.00
245.3610, 24715.00
246.5770, 24477.00
247.7920, 24331.00
249.0070, 24368.73
250.2220, 24444.36
251.4370, 24467.91
252.6510, 24442.24
253.8660, 24219.70
255.0800, 24251.37
256.2940, 24181.17
257.5080, 24106.80
258.7220, 24174.23
259.9360, 23980.36
261.1490, 24045.58
262.3630, 24007.35
263.5760, 24016.49
264.7890, 23923.15
266.0020, 23861.45
267.2150, 23902.28
268.4270, 23886.38
269.6400, 23781.23
270.8520, 23793.42
272.0640, 23596.04
273.2760, 23582.55
274.4880, 23648.41
275.7000, 23548.45
276.9120, 23562.51
278.1230, 23533.18
279.3340, 23306.52
280.5450, 23423.04
281.7560, 23417.00
282.9670, 23307.00
284.1780, 23351.00
285.3880, 23304.00
286.5980, 23254.00
287.8090, 23460.00
289.0190, 23525.00
290.2290, 23537.00
291.4380, 23309.00
292.6480, 23425.00
293.8570, 23377.90
295.0670, 23615.00
296.2760, 23422.00
297.4850, 23498.00
298.6930, 23520.00
299.9020, 23488.00
301.1110, 23421.00
302.3190, 23302.00
303.5270, 23481.00
304.7350, 23188.00
305.9430, 23357.00
307.1510, 23368.00
308.3580, 23339.00
309.5660, 23539.00
310.7730, 23700.00
311.9800, 23568.00
313.1870, 23697.00
314.3940, 23550.00
315.6010, 23563.00
316.8070, 23607.00
318.0130, 23577.00
319.2200, 23606.00
320.4260, 23735.00
321.6310, 23645.00
322.8370, 23942.00
324.0430, 23778.00
325.2480, 23714.00
326.4540, 23954.00
327.6590, 24013.00
328.8640, 24174.00
330.0680, 24225.00
331.2730, 24308.00
332.4780, 24221.00
333.6820, 24331.00
334.8860, 24288.00
336.0900, 24327.38
337.2940, 24489.00
338.4980, 24389.00
339.7010, 24504.00
340.9050, 24504.00
342.1080, 24643.00
343.3110, 24582.00
344.5140, 24589.00
345.7170, 24568.00
346.9200, 24384.00
348.1220, 24435.00
349.3240, 24411.98
350.5270, 24399.51
351.7290, 24442.00
352.9310, 24444.89
354.1320, 24393.45
355.3340, 24376.00
356.5350, 24316.00
357.7370, 24321.73
358.9380, 24242.25
360.1390, 24420.00
361.3400, 24148.00
362.5400, 24366.00
363.7410, 24449.00
364.9410, 23856.00
366.1410, 23988.00
367.3410, 23922.00
368.5410, 24062.00
369.7410, 23821.00
370.9400, 23728.00
372.1400, 23684.00
373.3390, 23808.00
374.5380, 23680.00
375.7370, 23676.00
376.9360, 23573.00
378.1350, 23663.00
379.3330, 23417.00
380.5310, 23446.00
381.7300, 23264.00
382.9280, 23354.00
384.1260, 23311.00
385.3230, 23347.00
386.5210, 22953.00
387.7180, 23212.00
388.9160, 22932.00
390.1130, 23088.00
391.3100, 23141.00
392.5060, 23049.00
393.7030, 22740.00
394.9000, 22962.00
396.0960, 22590.00
397.2920, 22637.00
398.4880, 22730.00
399.6840, 22554.15
400.8800, 22578.00
402.0750, 22459.00
403.2710, 22536.00
404.4660, 22498.00
405.6610, 22288.00
406.8560, 22228.00
408.0510, 22451.00
409.2450, 22220.00
410.4400, 22573.00
411.6340, 22481.37
412.8280, 22412.66
414.0220, 22396.00
415.2160, 22245.00
416.4100, 22047.00
417.6030, 21989.00
418.7970, 22026.00
419.9900, 22044.00
421.1830, 22076.00
422.3760, 22114.00
423.5690, 22048.00
424.7610, 21825.00
425.9540, 21838.00
427.1460, 21774.00
428.3380, 21920.00
429.5300, 21680.00
430.7220, 22019.00
431.9140, 21726.00
433.1050, 21808.00
434.2970, 21770.15
435.4880, 21734.92
436.6790, 21703.00
437.8700, 21705.00
439.0610, 21866.00
440.2510, 21667.00
441.4420, 21724.00
442.6320, 21587.00
443.8220, 21669.00
445.0120, 21591.00
446.2020, 21637.00
447.3910, 21703.00
448.5810, 21619.00
449.7700, 21711.00
450.9600, 21875.00
452.1490, 21585.00
453.3370, 21758.00
454.5260, 21639.00
455.7150, 21619.00
456.9030, 21742.00
458.0910, 21662.00
459.2800, 21730.00
460.4670, 21686.00
461.6550, 21801.00
462.8430, 21838.00
464.0300, 21904.00
465.2180, 21904.00
466.4050, 21846.00
467.5920, 21708.00
468.7790, 21828.00
469.9650, 21672.63
471.1520, 21811.37
472.3380, 21898.03
473.5250, 21935.44
474.7110, 21776.01
475.8970, 21870.74
477.0820, 21863.59
478.2680, 21852.28
479.4540, 21982.79
480.6390, 21851.96
481.8240, 21980.20
483.0090, 22005.02
484.1940, 22077.17
485.3780, 22046.82
486.5630, 22048.14
487.7470, 22151.96
488.9320, 22199.04
490.1160, 22156.89
491.3000, 22232.03
492.4830, 22097.59
493.6670, 22147.07
494.8500, 21965.00
496.0340, 21816.00
497.2170, 21965.00
498.4000, 22061.00
499.5820, 22077.00
500.7650, 22006.00
501.9480, 21968.00
503.1300, 22003.00
504.3120, 21769.00
505.4940, 21911.00
506.6760, 21856.00
507.8580, 22132.00
509.0390, 21997.00
510.2210, 22015.00
511.4020, 21928.00
512.5830, 22001.00
513.7640, 22076.00
514.9450, 22025.00
516.1250, 22107.00
517.3060, 22347.00
518.4860, 22319.00
519.6660, 22209.00
520.8460, 22348.00
522.0260, 22284.00
523.2060, 22501.00
524.3850, 22338.00
525.5650, 22241.00
526.7440, 22379.00
527.9230, 22641.00
529.1020, 22637.08
530.2810, 22750.00
531.4590, 22835.00
532.6380, 22825.00
533.8160, 22900.00
534.9940, 22840.00
536.1720, 23005.00
537.3500, 23245.00
538.5270, 23142.00
539.7050, 23553.00
540.8820, 23124.00
542.0590, 23570.00
543.2360, 23656.00
544.4130, 24024.00
545.5900, 23784.00
546.7660, 24203.00
547.9430, 24335.00
549.1190, 24317.00
550.2950, 24618.00
551.4710, 24771.00
552.6470, 25034.00
553.8220, 25049.54
554.9980, 25016.00
556.1730, 25059.00
557.3480, 25110.00
558.5230, 25185.00
559.6980, 25229.00
560.8730, 25507.00
562.0470, 25488.00
563.2220, 25575.00
564.3960, 25713.00
565.5700, 25512.00
566.7440, 25612.00
567.9170, 25800.00
569.0910, 26014.00
570.2640, 25936.00
571.4380, 25979.00
572.6110, 26126.00
573.7840, 26015.00
574.9570, 26215.00
576.1290, 26268.00
577.3020, 26292.00
578.4740, 26354.00
579.6460, 26321.00
580.8180, 26628.00
581.9900, 26710.00
583.1620, 26770.00
584.3330, 26544.00
585.5040, 26959.00
586.6760, 27010.00
587.8470, 26874.00
589.0180, 27120.00
590.1880, 27342.00
591.3590, 27533.00
592.5290, 27602.00
593.7000, 27722.00
594.8700, 27819.00
596.0400, 27770.00
597.2090, 27760.00
598.3790, 27863.00
599.5490, 28467.00
600.7180, 28280.00
601.8870, 28678.00
603.0560, 28509.00
604.2250, 28595.00
605.3940, 28707.00
606.5620, 28825.02
607.7300, 29088.00
608.8990, 29211.00
610.0670, 29470.00
611.2350, 29565.00
612.4020, 29660.00
613.5700, 29911.00
614.7370, 29945.00
615.9050, 30148.00
617.0720, 30295.00
618.2390, 30538.00
619.4060, 30621.00
620.5720, 30605.00
621.7390, 31081.00
622.9050, 31440.00
624.0710, 31180.00
625.2370, 31515.00
626.4030, 31664.00
627.5690, 31925.00
628.7340, 32031.00
629.9000, 32253.00
631.0650, 32470.07
632.2300, 32739.00
633.3950, 32957.00
634.5600, 33385.00
635.7240, 33736.00
636.8890, 33850.00
638.0530, 34375.00
639.2170, 34818.00
640.3810, 35114.00
641.5450, 35606.00
642.7080, 35939.00
643.8720, 36083.00
645.0350, 36688.00
646.1980, 36965.00
647.3610, 37201.00
648.5240, 37279.00
649.6870, 37638.00
650.8490, 37687.00
652.0120, 37763.00
653.1740, 37527.00
654.3360, 37654.00
655.4980, 37685.00
656.6600, 37310.00
657.8210, 36692.00
658.9830, 36792.00
660.1440, 36256.00
661.3050, 36315.00
662.4660, 35902.00
663.6270, 35472.00
664.7870, 35386.00
665.9480, 35164.00
667.1080, 34937.00
668.2680, 34726.00
669.4280, 34422.00
670.5880, 34215.00
671.7480, 34401.00
672.9070, 34024.00
674.0670, 34058.00
675.2260, 34000.00
676.3850, 33700.00
677.5440, 34076.00
678.7030, 33806.00
679.8610, 33689.00
681.0200, 33770.00
682.1780, 33731.00
683.3360, 33475.00
684.4940, 33450.00
685.6520, 33478.00
686.8090, 33502.00
687.9670, 33645.00
689.1240, 33190.00
690.2810, 33373.00
691.4380, 33343.00
692.5950, 32975.00
693.7520, 33243.00
694.9080, 32722.00
696.0650, 32760.00
697.2210, 32879.00
698.3770, 32798.00
699.5330, 32736.00
700.6880, 32644.00
701.8440, 32542.00
702.9990, 32456.54
704.1550, 32284.00
705.3100, 32258.00
706.4650, 31974.00
707.6190, 31855.00
708.7740, 31834.00
709.9290, 31758.00
711.0830, 31526.00
712.2370, 31559.00
713.3910, 31215.00
714.5450, 31104.00
715.6980, 30903.00
716.8520, 30979.00
718.0050, 30739.00
719.1580, 30550.00
720.3110, 30560.00
721.4640, 30377.00
722.6170, 30279.00
723.7700, 29997.00
724.9220, 30034.00
726.0740, 29755.60
727.2260, 29458.00
728.3780, 29332.00
729.5300, 29247.00
730.6810, 29087.00
731.8330, 28724.00
732.9840, 28820.00
734.1350, 28600.00
735.2860, 28680.00
736.4370, 28397.00
737.5880, 28190.00
738.7380, 28082.00
739.8880, 28058.00
741.0390, 27896.00
742.1890, 27856.00
743.3380, 27698.74
744.4880, 27519.00
745.6380, 27371.00
746.7870, 27346.00
747.9360, 27166.00
749.0850, 27049.00
750.2340, 26935.48
751.3830, 26803.00
752.5310, 26647.00
753.6800, 26424.00
754.8280, 26226.00
755.9760, 26507.00
757.1240, 26427.00
758.2720, 26061.00
759.4190, 26179.00
760.5670, 25943.00
761.7140, 25961.00
762.8610, 25693.00
764.0080, 25523.00
765.1550, 25549.00
766.3020, 25522.00
767.4480, 25383.18
768.5950, 25364.71
769.7410, 25107.00
770.8870, 25188.00
772.0330, 24963.00
773.1780, 24811.00
774.3240, 24691.00
775.4690, 24658.00
776.6140, 24489.48
777.7590, 24417.76
778.9040, 24211.00
780.0490, 24223.00
781.1940, 24064.00
782.3380, 23963.00
783.4820, 23746.00
784.6260, 23656.00
785.7700, 23698.00
786.9140, 23395.00
788.0580, 23427.00
789.2010, 23255.00
790.3450, 23235.00
791.4880, 23138.00
792.6310, 22927.00
793.7730, 22909.00
794.9160, 22930.00
796.0590, 22931.00
797.2010, 22864.76
798.3430, 22521.00
799.4850, 22627.00
800.6270, 22532.00
801.7690, 22209.00
802.9100, 22364.00
804.0520, 22175.00
805.1930, 22405.00
806.3340, 21834.00
807.4750, 21741.00
808.6160, 22105.00
809.7560, 21727.00
810.8970, 21634.00
812.0370, 21579.00
813.1770, 21594.00
814.3170, 21677.00
815.4570, 21466.00
816.5960, 21483.00
817.7360, 21478.00
818.8750, 21274.00
820.0140, 20978.00
821.1530, 21073.34
822.2920, 21276.00
823.4310, 21090.00
824.5690, 21214.00
825.7070, 21125.00
826.8460, 21052.00
827.9840, 21016.00
829.1220, 20972.19
830.2590, 20918.63
831.3970, 20938.00
832.5340, 20834.00
833.6710, 20827.00
834.8080, 20805.23
835.9450, 20935.00
837.0820, 20828.00
838.2190, 20782.00
839.3550, 20833.00
840.4910, 20707.00
841.6270, 20879.00
842.7630, 20807.00
843.8990, 20745.00
845.0350, 20775.00
846.1700, 20841.00
847.3060, 20806.00
848.4410, 20902.00
849.5760, 21070.00
850.7100, 20913.00
851.8450, 20950.00
852.9800, 20835.00
854.1140, 21134.00
855.2480, 21005.00
856.3820, 20947.00
857.5160, 21167.00
858.6500, 20970.00
859.7830, 21015.00
860.9170, 21252.00
862.0500, 21093.00
863.1830, 21325.00
864.3160, 21326.00
865.4480, 21446.00
866.5810, 21474.00
867.7130, 21593.00
868.8460, 21631.57
869.9780, 21573.00
871.1100, 21721.00
872.2410, 21558.00
873.3730, 21593.00
874.5050, 21640.00
875.6360, 21673.00
876.7670, 21738.97
877.8980, 21811.13
879.0290, 21882.00
880.1590, 21961.00
881.2900, 22052.00
882.4200, 22085.82
883.5500, 22112.00
884.6800, 22080.00
885.8100, 22088.00
886.9400, 22116.00
888.0690, 22158.00
889.1990, 22219.00
890.3280, 22325.00
891.4570, 22448.00
892.5860, 22387.00
893.7140, 22378.12
894.8430, 22581.00
895.9710, 22417.00
897.1000, 22572.00
898.2280, 22585.03
899.3560, 22792.00
900.4830, 22737.00
901.6110, 22610.88
902.7380, 22786.52
903.8660, 22910.15
904.9930, 22984.45
906.1200, 22861.93
907.2460, 22993.52
908.3730, 23023.31
909.5000, 23048.92
910.6260, 23216.28
911.7520, 23122.34
912.8780, 23287.46
914.0040, 23349.16
915.1290, 23458.15
916.2550, 23464.69
917.3800, 23502.85
918.5050, 23666.00
919.6300, 23531.00
920.7550, 23850.00
921.8800, 23957.00
923.0040, 24114.00
924.1290, 24136.59
925.2530, 24192.65
926.3770, 24239.18
927.5010, 24215.00
928.6250, 24222.00
929.7480, 24237.00
930.8720, 24118.00
931.9950, 24413.00
933.1180, 24438.00
934.2410, 24296.00
935.3640, 24468.00
936.4860, 24456.00
937.6090, 24621.00
938.7310, 24641.00
939.8530, 24847.00
940.9750, 24682.00
942.0970, 24774.00
943.2180, 24740.00
944.3400, 25037.00
945.4610, 25186.00
946.5820, 25196.00
947.7030, 25062.00
948.8240, 25214.00
949.9450, 25165.22
951.0650, 25332.62
952.1860, 25448.00
953.3060, 25514.07
954.4260, 25383.30
955.5460, 25506.71
956.6650, 25528.21
957.7850, 25545.57
958.9040, 25704.71
960.0230, 25602.53
961.1420, 25759.41
962.2610, 25812.88
963.3800, 25913.68
964.4990, 25911.99
965.6170, 25941.92
966.7350, 26074.36
967.8530, 26150.04
968.9710, 26136.51
970.0890, 26240.28
971.2070, 26134.47
972.3240, 26427.00
973.4410, 26370.00
974.5580, 26601.00
975.6750, 26704.00
976.7920, 27045.00
977.9090, 26951.00
979.0250, 27039.00
980.1410, 27211.00
981.2580, 27466.00
982.3740, 27486.00
983.4890, 27637.00
984.6050, 27983.00
985.7200, 27974.00
986.8360, 28078.00
987.9510, 28348.00
989.0660, 28562.00
990.1810, 28508.00
991.2950, 28859.00
992.4100, 28973.00
993.5240, 29138.00
994.6390, 29362.17
995.7530, 29129.00
996.8660, 29640.00
997.9800, 29764.00
999.0940, 29731.00
1000.207, 30165.00
1001.320, 30121.00
1002.433, 30454.00
1003.546, 30588.00
1004.659, 30822.00
1005.772, 30966.59
1006.884, 30953.00
1007.996, 31206.00
1009.108, 31169.00
1010.220, 31289.00
1011.332, 31817.00
1012.444, 32036.00
1013.555, 32167.00
1014.666, 31978.00
1015.777, 32625.00
1016.888, 32252.00
1017.999, 32364.00
1019.110, 32462.00
1020.220, 32436.00
1021.331, 32586.00
1022.441, 32655.00
1023.551, 32110.00
1024.661, 32363.00
1025.770, 31993.00
1026.880, 32207.00
1027.989, 31950.00
1029.098, 31884.00
1030.207, 31960.00
1031.316, 31146.00
1032.425, 30614.00
1033.533, 30367.00
1034.642, 30014.00
1035.750, 29815.00
1036.858, 29222.00
1037.966, 29099.00
1039.073, 28857.00
1040.181, 28322.00
1041.288, 28164.00
1042.396, 27517.00
1043.503, 27268.00
1044.610, 26883.00
1045.716, 26506.00
1046.823, 26271.00
1047.929, 25967.00
1049.036, 25650.73
1050.142, 25496.00
1051.248, 25055.00
1052.353, 24909.00
1053.459, 24654.00
1054.564, 24273.00
1055.670, 23949.00
1056.775, 23752.20
1057.880, 23562.00
1058.985, 23309.00
1060.089, 23140.00
1061.194, 22804.00
1062.298, 22817.00
1063.402, 22848.00
1064.506, 22468.00
1065.610, 22384.00
1066.713, 22333.00
1067.817, 21915.00
1068.920, 21936.00
1070.023, 21783.00
1071.126, 21446.00
1072.229, 21374.00
1073.332, 21358.00
1074.435, 21307.00
1075.537, 21139.00
1076.639, 20873.00
1077.741, 20727.00
1078.843, 20718.00
1079.945, 20499.00
1081.046, 20468.00
1082.148, 20347.00
1083.249, 20159.00
1084.350, 20200.00
1085.451, 19992.00
1086.551, 19858.00
1087.652, 19764.00
1088.752, 19734.00
1089.853, 19457.00
1090.953, 19279.00
1092.053, 19201.00
1093.152, 19340.00
1094.252, 19020.00
1095.351, 19028.00
1096.451, 18790.00
1097.550, 18767.00
1098.649, 18729.00
1099.748, 18564.00
1100.846, 18368.00
1101.945, 18449.00
1103.043, 18288.00
1104.141, 18042.00
1105.239, 18091.00
1106.337, 17991.24
1107.434, 18062.67
1108.532, 18081.98
1109.629, 18052.07
1110.726, 17825.33
1111.823, 17852.75
1112.920, 17778.31
1114.017, 17699.71
1115.113, 17762.94
1116.210, 17564.83
1117.306, 17625.82
1118.402, 17583.40
1119.498, 17588.31
1120.593, 17490.77
1121.689, 17424.85
1122.784, 17461.48
1123.879, 17441.36
1124.974, 17332.03
1126.069, 17339.99
1127.164, 17138.38
1128.259, 17120.67
1129.353, 17182.34
1130.447, 17078.21
1131.541, 17088.08
1132.635, 17054.54
1133.729, 16823.65
1134.822, 16936.00
1135.916, 16842.00
1137.009, 16664.00
1138.102, 16612.00
1139.195, 16601.00
1140.288, 16531.00
1141.380, 16645.00
1142.473, 16395.00
1143.565, 16516.00
1144.657, 16431.00
1145.749, 16543.00
1146.841, 16528.00
1147.932, 16405.00
1149.024, 16365.00
1150.115, 16234.00
1151.206, 16290.00
1152.297, 16201.00
1153.388, 16147.00
1154.479, 16287.00
1155.569, 16119.00
1156.659, 16070.00
1157.750, 16316.00
1158.839, 16153.00
1159.929, 16270.00
1161.019, 16296.00
1162.108, 16123.00
1163.198, 16166.00
1164.287, 16037.00
1165.376, 15984.00
1166.465, 16130.00
1167.553, 16018.00
1168.642, 16053.00
1169.730, 15960.00
1170.818, 15923.00
1171.906, 15936.00
1172.994, 15917.71
1174.082, 15963.00
1175.170, 15950.00
1176.257, 15992.00
1177.344, 15988.00
1178.431, 15983.73
1179.518, 16058.00
1180.605, 15954.00
1181.691, 16002.00
1182.778, 15966.00
1183.864, 15941.00
1184.950, 15822.00
1186.036, 15801.00
1187.122, 15846.00
1188.207, 15923.00
1189.292, 15954.00
1190.378, 15815.00
1191.463, 15815.00
1192.548, 15889.00
1193.632, 15680.00
1194.717, 15863.00
1195.801, 15739.00
1196.886, 15847.00
1197.970, 15765.00
1199.054, 15790.00
1200.137, 15767.00
1201.221, 15862.00
1202.305, 15931.00
1203.388, 15882.68
1204.471, 15729.00
1205.554, 15870.00
1206.637, 15740.00
1207.719, 15856.00
1208.802, 15793.00
1209.884, 15745.00
1210.966, 15515.00
1212.048, 15720.00
1213.130, 15908.00
1214.212, 15638.00
1215.293, 15659.00
1216.374, 15840.00
1217.456, 15694.00
1218.536, 15760.00
1219.617, 15861.00
1220.698, 15671.00
1221.778, 15682.00
1222.859, 15875.00
1223.939, 15769.39
1225.019, 16088.00
1226.099, 15718.00
1227.178, 15787.00
1228.258, 15596.00
1229.337, 15787.00
1230.417, 15709.00
1231.496, 15765.00
1232.574, 15620.00
1233.653, 15660.00
1234.732, 15669.00
1235.810, 15732.00
1236.888, 15675.00
1237.966, 15642.00
1239.044, 15787.00
1240.122, 15683.00
1241.199, 15744.00
1242.277, 15767.00
1243.354, 15663.00
1244.431, 15573.00
1245.508, 15468.00
1246.585, 15740.00
1247.661, 15652.00
1248.738, 15659.00
1249.814, 15702.96
1250.890, 15636.00
1251.966, 15636.00
1253.042, 15592.00
1254.117, 15517.00
1255.193, 15598.00
1256.268, 15661.00
1257.343, 15836.00
1258.418, 15719.68
1259.493, 15384.00
1260.567, 15683.00
1261.642, 15394.00
1262.716, 15725.00
1263.790, 15719.00
1264.864, 15677.00
1265.938, 15687.00
1267.011, 15737.00
1268.085, 15408.00
1269.158, 15651.00
1270.231, 15447.00
1271.304, 15567.00
1272.377, 15576.00
1273.450, 15432.00
1274.522, 15585.00
1275.594, 15481.20
1276.666, 15487.00
1277.738, 15417.00
1278.810, 15509.00
1279.882, 15521.00
1280.953, 15627.00
1282.025, 15596.00
1283.096, 15593.59
1284.167, 15510.00
1285.238, 15519.00
1286.308, 15555.00
1287.379, 15516.00
1288.449, 15466.00
1289.519, 15544.00
1290.589, 15589.00
1291.659, 15486.00
1292.729, 15488.00
1293.798, 15495.00
1294.868, 15515.00
1295.937, 15574.00
1297.006, 15592.00
1298.075, 15587.00
1299.143, 15448.00
1300.212, 15456.00
1301.280, 15590.00
1302.348, 15393.00
1303.416, 15515.00
1304.484, 15532.00
1305.552, 15533.00
1306.620, 15673.00
1307.687, 15528.00
1308.754, 15581.00
1309.821, 15531.00
1310.888, 15610.00
1311.955, 15569.00
1313.021, 15430.00
1314.088, 15470.00
1315.154, 15674.00
1316.220, 15420.00
1317.286, 15637.00
1318.352, 15603.00
1319.417, 15761.00
1320.483, 15648.00
1321.548, 15635.00
1322.613, 15568.00
1323.678, 15615.00
1324.743, 15421.00
1325.807, 15475.00
1326.872, 15700.00
1327.936, 15447.00
1329.000, 15553.00
1330.064, 15538.00
1331.128, 15595.00
1332.191, 15466.00
1333.255, 15769.00
1334.318, 15592.00
1335.381, 15533.00
1336.444, 15661.00
1337.507, 15556.00
1338.569, 15500.00
1339.632, 15613.00
1340.694, 15616.00
1341.756, 15669.00
1342.818, 15657.93
1343.880, 15559.00
1344.941, 15618.00
1346.003, 15595.00
1347.064, 15623.00
1348.125, 15668.00
1349.186, 15637.00
1350.247, 15716.00
1351.308, 15722.17
1352.368, 15736.63
1353.428, 15701.00
1354.489, 15731.00
1355.549, 15563.00
1356.608, 15464.00
1357.668, 15594.00
1358.727, 15604.00
1359.787, 15371.00
1360.846, 15530.00
1361.905, 15411.00
1362.964, 15656.00
1364.022, 15534.00
1365.081, 15469.00
1366.139, 15554.00
1367.197, 15535.00
1368.255, 15551.00
1369.313, 15560.00
1370.371, 15470.00
1371.428, 15514.61
