##NAMES=Laverovite
##RRUFFID=R060216
##IDEAL CHEMISTRY=K_2_NaMn^2+^_7_Zr^4+^_2_(Si_4_O_12_)_2_O_2_(OH)_4_F
##LOCALITY=Desourdy Quarry, Mont Saint-Hilaire, Rouville County, Quebec, Canada
##OWNER=RRUFF
##SOURCE=Royal Ontario Museum
##DESCRIPTION=Brown fragment showing lamellar habit. Type sample
##STATUS=The identification of this mineral has been confirmed by X-ray diffraction and chemical analysis
##URL=rruff.info/R060216
##MEASURED CHEMISTRY=(K_1.74_Na_0.18_[box]_0.08_)_Σ=2_(Na_0.92_Ca_0.08_)_Σ=1_(Mn_4.09_Fe^2+^_2.67_Mg_0.24_)_Σ=7_(Zr_1.42_Ti_0.58_)_Σ=2_(Si_7.86_Al_0.14_)_Σ=8_O_26_((OH)_3.14_O_0.86_)_Σ=4_
##PIN_ID=L00627
##ORIENTATION=Laser parallel to (1 0 1). Fiducial mark perpendicular to laser is parallel to b [0 1 0]
217.3660, 24607.98
218.5850, 24899.79
219.8030, 25056.25
221.0220, 25084.59
222.2400, 24601.19
223.4590, 25026.00
224.6770, 24824.00
225.8950, 25138.00
227.1120, 25077.00
228.3300, 24909.00
229.5480, 24906.00
230.7650, 24928.00
231.9820, 24838.00
233.1990, 24973.00
234.4160, 24631.00
235.6330, 24826.00
236.8490, 24974.00
238.0660, 24650.00
239.2820, 24800.00
240.4980, 24628.00
241.7140, 24495.00
242.9300, 24447.00
244.1460, 24367.63
245.3610, 24291.00
246.5770, 24282.00
247.7920, 24239.00
249.0070, 24132.00
250.2220, 24122.00
251.4370, 24442.00
252.6510, 24229.00
253.8660, 24368.00
255.0800, 24684.00
256.2940, 24087.61
257.5080, 24301.99
258.7220, 24381.00
259.9360, 24331.92
261.1490, 23771.16
262.3630, 23871.14
263.5760, 23706.38
264.7890, 23596.00
266.0020, 23390.00
267.2150, 23373.00
268.4270, 23390.00
269.6400, 23454.00
270.8520, 23281.00
272.0640, 23245.00
273.2760, 23288.00
274.4880, 23265.00
275.7000, 23296.00
276.9120, 23081.00
278.1230, 23072.00
279.3340, 23229.00
280.5450, 22984.23
281.7560, 23054.00
282.9670, 22678.00
284.1780, 22877.00
285.3880, 22716.00
286.5980, 22881.00
287.8090, 22725.00
289.0190, 22544.00
290.2290, 22737.00
291.4380, 22826.00
292.6480, 22668.00
293.8570, 22842.00
295.0670, 22594.00
296.2760, 22691.00
297.4850, 22637.00
298.6930, 22653.00
299.9020, 22669.00
301.1110, 22931.00
302.3190, 22736.00
303.5270, 22626.00
304.7350, 22910.00
305.9430, 22835.00
307.1510, 23076.00
308.3580, 22793.00
309.5660, 22778.00
310.7730, 23059.00
311.9800, 23118.00
313.1870, 23013.00
314.3940, 23019.00
315.6010, 22920.00
316.8070, 23093.00
318.0130, 22923.00
319.2200, 23125.00
320.4260, 22994.00
321.6310, 23011.00
322.8370, 23126.00
324.0430, 22971.00
325.2480, 23048.00
326.4540, 23065.00
327.6590, 23107.00
328.8640, 23080.00
330.0680, 23151.00
331.2730, 23197.00
332.4780, 23152.00
333.6820, 23279.00
334.8860, 23114.00
336.0900, 22952.00
337.2940, 23230.00
338.4980, 22936.00
339.7010, 23101.00
340.9050, 23113.00
342.1080, 23113.00
343.3110, 23133.00
344.5140, 23080.00
345.7170, 23125.00
346.9200, 23112.67
348.1220, 23048.00
349.3240, 23114.00
350.5270, 23153.00
351.7290, 23139.00
352.9310, 23067.00
354.1320, 23090.00
355.3340, 22993.00
356.5350, 23127.00
357.7370, 23164.00
358.9380, 23196.00
360.1390, 23186.00
361.3400, 23066.00
362.5400, 23256.00
363.7410, 23322.00
364.9410, 23093.00
366.1410, 23219.00
367.3410, 23186.21
368.5410, 23220.00
369.7410, 23225.00
370.9400, 23250.00
372.1400, 23245.00
373.3390, 23291.00
374.5380, 23170.00
375.7370, 23344.00
376.9360, 23286.00
378.1350, 23173.00
379.3330, 23325.00
380.5310, 23325.00
381.7300, 23262.57
382.9280, 23071.00
384.1260, 23204.00
385.3230, 23106.00
386.5210, 23194.00
387.7180, 23169.00
388.9160, 23335.00
390.1130, 23209.00
391.3100, 23139.00
392.5060, 23205.00
393.7030, 23045.00
394.9000, 22967.00
396.0960, 23130.00
397.2920, 23208.00
398.4880, 23120.00
399.6840, 23096.00
400.8800, 23295.00
402.0750, 23051.00
403.2710, 23319.00
404.4660, 23318.00
405.6610, 23146.00
406.8560, 22997.00
408.0510, 23057.00
409.2450, 23124.00
410.4400, 23143.00
411.6340, 23227.00
412.8280, 23202.00
414.0220, 23221.00
415.2160, 23365.00
416.4100, 23335.44
417.6030, 23393.00
418.7970, 23403.00
419.9900, 23127.00
421.1830, 23172.00
422.3760, 23096.00
423.5690, 23350.00
424.7610, 23222.00
425.9540, 23066.00
427.1460, 23228.00
428.3380, 23106.00
429.5300, 23208.00
430.7220, 23143.00
431.9140, 23234.00
433.1050, 23283.00
434.2970, 23183.00
435.4880, 22959.00
436.6790, 23021.87
437.8700, 22981.06
439.0610, 23014.00
440.2510, 23098.00
441.4420, 23137.00
442.6320, 23243.00
443.8220, 23204.11
445.0120, 23263.00
446.2020, 23154.00
447.3910, 22991.00
448.5810, 23015.00
449.7700, 23236.00
450.9600, 23120.00
452.1490, 23306.00
453.3370, 23459.00
454.5260, 23422.00
455.7150, 23453.00
456.9030, 23414.00
458.0910, 23324.00
459.2800, 23478.00
460.4670, 23596.00
461.6550, 23491.00
462.8430, 23613.00
464.0300, 23651.71
465.2180, 23833.00
466.4050, 23789.00
467.5920, 23862.00
468.7790, 23940.00
469.9650, 23732.00
471.1520, 23922.00
472.3380, 23849.77
473.5250, 23769.00
474.7110, 23858.00
475.8970, 24009.00
477.0820, 24057.00
478.2680, 23805.00
479.4540, 24084.00
480.6390, 23946.42
481.8240, 24188.00
483.0090, 23984.00
484.1940, 24027.00
485.3780, 24246.00
486.5630, 24485.00
487.7470, 24319.16
488.9320, 24253.00
490.1160, 24120.00
491.3000, 24104.00
492.4830, 24225.00
493.6670, 24113.00
494.8500, 24322.00
496.0340, 24271.15
497.2170, 24279.24
498.4000, 24240.00
499.5820, 24187.00
500.7650, 24108.88
501.9480, 24111.99
503.1300, 24081.42
504.3120, 24123.00
505.4940, 24075.00
506.6760, 24116.00
507.8580, 24115.00
509.0390, 24172.00
510.2210, 23987.00
511.4020, 24057.00
512.5830, 24030.00
513.7640, 24277.00
514.9450, 24025.00
516.1250, 24084.00
517.3060, 23995.00
518.4860, 24198.00
519.6660, 24111.00
520.8460, 24111.24
522.0260, 24138.01
523.2060, 24122.00
524.3850, 24075.00
525.5650, 24254.00
526.7440, 24204.00
527.9230, 24258.00
529.1020, 24173.00
530.2810, 24285.00
531.4590, 24315.61
532.6380, 24478.00
533.8160, 24412.00
534.9940, 24590.00
536.1720, 24546.00
537.3500, 24563.00
538.5270, 24594.00
539.7050, 24654.00
540.8820, 24776.00
542.0590, 24871.00
543.2360, 24953.00
544.4130, 25089.25
545.5900, 25089.00
546.7660, 25333.00
547.9430, 25282.00
549.1190, 25364.00
550.2950, 25699.00
551.4710, 25386.00
552.6470, 25758.00
553.8220, 25827.00
554.9980, 25831.00
556.1730, 25851.00
557.3480, 25762.00
558.5230, 25699.00
559.6980, 25903.00
560.8730, 26481.00
562.0470, 26172.00
563.2220, 26032.00
564.3960, 26196.00
565.5700, 25831.00
566.7440, 26206.00
567.9170, 26125.00
569.0910, 26371.00
570.2640, 25999.00
571.4380, 26201.00
572.6110, 26183.00
573.7840, 25948.00
574.9570, 26203.00
576.1290, 26261.00
577.3020, 26207.00
578.4740, 26190.00
579.6460, 26009.00
580.8180, 26059.00
581.9900, 26013.00
583.1620, 26184.00
584.3330, 26062.00
585.5040, 26128.00
586.6760, 26192.00
587.8470, 26320.00
589.0180, 26308.15
590.1880, 26278.00
591.3590, 26295.00
592.5290, 26148.00
593.7000, 26094.00
594.8700, 26147.00
596.0400, 26094.00
597.2090, 26156.00
598.3790, 26104.00
599.5490, 26262.00
600.7180, 26233.00
601.8870, 26304.00
603.0560, 26533.00
604.2250, 26392.81
605.3940, 26174.00
606.5620, 26312.00
607.7300, 26175.00
608.8990, 26278.00
610.0670, 26396.00
611.2350, 26541.00
612.4020, 26530.55
613.5700, 26766.00
614.7370, 26596.00
615.9050, 26478.00
617.0720, 26692.00
618.2390, 26523.00
619.4060, 26715.00
620.5720, 26734.00
621.7390, 26979.00
622.9050, 26914.00
624.0710, 27095.00
625.2370, 27097.00
626.4030, 27474.00
627.5690, 27487.00
628.7340, 27607.00
629.9000, 27949.00
631.0650, 27966.00
632.2300, 28204.00
633.3950, 28641.00
634.5600, 28814.00
635.7240, 29216.00
636.8890, 29362.00
638.0530, 29506.00
639.2170, 30081.00
640.3810, 30623.00
641.5450, 30962.00
642.7080, 31496.00
643.8720, 31759.00
645.0350, 32227.00
646.1980, 32406.00
647.3610, 32696.00
648.5240, 33187.00
649.6870, 33391.00
650.8490, 33464.00
652.0120, 33689.00
653.1740, 33656.00
654.3360, 33414.00
655.4980, 33213.00
656.6600, 32802.00
657.8210, 32617.00
658.9830, 32078.00
660.1440, 31612.00
661.3050, 31279.00
662.4660, 30868.00
663.6270, 30605.00
664.7870, 30190.00
665.9480, 29907.27
667.1080, 29402.00
668.2680, 29286.00
669.4280, 29135.00
670.5880, 28757.00
671.7480, 28383.00
672.9070, 28227.00
674.0670, 28143.00
675.2260, 27954.00
676.3850, 27970.00
677.5440, 27822.00
678.7030, 27695.00
679.8610, 27739.00
681.0200, 27670.00
682.1780, 27607.00
683.3360, 27507.00
684.4940, 27464.00
685.6520, 27413.93
686.8090, 27343.83
687.9670, 27307.00
689.1240, 27268.00
690.2810, 27253.47
691.4380, 27173.00
692.5950, 27240.00
693.7520, 27222.00
694.9080, 27191.00
696.0650, 27090.00
697.2210, 26996.00
698.3770, 26961.51
699.5330, 26978.00
700.6880, 26863.00
701.8440, 26908.00
702.9990, 26856.00
704.1550, 26715.00
705.3100, 26741.00
706.4650, 26982.00
707.6190, 27004.00
708.7740, 26845.00
709.9290, 26879.00
711.0830, 26813.00
712.2370, 26795.00
713.3910, 26728.15
714.5450, 26723.00
715.6980, 26579.00
716.8520, 26543.20
718.0050, 26488.90
719.1580, 26441.00
720.3110, 26371.00
721.4640, 26403.00
722.6170, 26309.00
723.7700, 26188.00
724.9220, 26096.00
726.0740, 26117.00
727.2260, 26029.99
728.3780, 25912.00
729.5300, 25862.00
730.6810, 25826.03
731.8330, 25717.00
732.9840, 25795.96
734.1350, 25731.00
735.2860, 25693.00
736.4370, 25817.00
737.5880, 25643.00
738.7380, 25442.00
739.8880, 25503.00
741.0390, 25426.00
742.1890, 25564.00
743.3380, 25270.00
744.4880, 25132.00
745.6380, 25355.00
746.7870, 25763.00
747.9360, 25469.32
749.0850, 25457.00
750.2340, 25231.00
751.3830, 25076.00
752.5310, 25177.00
753.6800, 25258.00
754.8280, 24992.00
755.9760, 25272.00
757.1240, 24905.00
758.2720, 24929.00
759.4190, 25089.00
760.5670, 25028.00
761.7140, 25025.00
762.8610, 24970.00
764.0080, 24817.00
765.1550, 24787.94
766.3020, 25003.00
767.4480, 24710.00
768.5950, 24737.00
769.7410, 24880.00
770.8870, 24694.00
772.0330, 24495.00
773.1780, 24490.00
774.3240, 24493.00
775.4690, 24628.00
776.6140, 24476.00
777.7590, 24468.00
778.9040, 24265.00
780.0490, 24260.00
781.1940, 24051.00
782.3380, 23981.00
783.4820, 24091.00
784.6260, 24104.00
785.7700, 24193.00
786.9140, 23795.00
788.0580, 23818.00
789.2010, 23735.00
790.3450, 23673.00
791.4880, 23606.00
792.6310, 23551.00
793.7730, 23604.00
794.9160, 23652.00
796.0590, 23312.00
797.2010, 23288.00
798.3430, 23072.00
799.4850, 23336.00
800.6270, 23225.00
801.7690, 23158.00
802.9100, 23102.00
804.0520, 23070.00
805.1930, 22939.00
806.3340, 22951.82
807.4750, 22827.00
808.6160, 22918.00
809.7560, 22805.30
810.8970, 22750.75
812.0370, 22730.00
813.1770, 22552.00
814.3170, 22520.00
815.4570, 22630.00
816.5960, 22653.00
817.7360, 22564.00
818.8750, 22609.90
820.0140, 22354.00
821.1530, 22545.00
822.2920, 22390.00
823.4310, 22300.00
824.5690, 22468.00
825.7070, 22444.00
826.8460, 22598.00
827.9840, 22488.00
829.1220, 22407.00
830.2590, 22246.00
831.3970, 22194.00
832.5340, 22206.62
833.6710, 22051.00
834.8080, 22286.00
835.9450, 22323.00
837.0820, 22325.00
838.2190, 22339.00
839.3550, 22440.00
840.4910, 22512.00
841.6270, 22385.00
842.7630, 22212.00
843.8990, 22375.00
845.0350, 22627.00
846.1700, 22353.00
847.3060, 22560.00
848.4410, 22494.00
849.5760, 22721.00
850.7100, 22465.00
851.8450, 22565.00
852.9800, 22628.00
854.1140, 22813.00
855.2480, 22754.71
856.3820, 23046.00
857.5160, 22607.00
858.6500, 22985.00
859.7830, 22805.00
860.9170, 22832.00
862.0500, 22998.00
863.1830, 23105.00
864.3160, 23037.00
865.4480, 23121.00
866.5810, 23125.00
867.7130, 23177.00
868.8460, 23193.00
869.9780, 23240.00
871.1100, 23300.00
872.2410, 23274.00
873.3730, 23210.00
874.5050, 23280.57
875.6360, 23284.67
876.7670, 23393.00
877.8980, 23429.00
879.0290, 23554.00
880.1590, 23728.00
881.2900, 23941.00
882.4200, 23752.00
883.5500, 23822.00
884.6800, 23990.00
885.8100, 23903.00
886.9400, 23978.00
888.0690, 24194.00
889.1990, 24061.00
890.3280, 24185.73
891.4570, 24251.73
892.5860, 24253.00
893.7140, 24370.00
894.8430, 24422.00
895.9710, 24432.00
897.1000, 24480.46
898.2280, 24534.00
899.3560, 24541.00
900.4830, 24640.00
901.6110, 24761.00
902.7380, 24771.00
903.8660, 24926.97
904.9930, 24977.00
906.1200, 25216.00
907.2460, 24952.00
908.3730, 25140.00
909.5000, 25168.00
910.6260, 25113.31
911.7520, 25458.90
912.8780, 25669.12
914.0040, 25751.24
915.1290, 25321.58
916.2550, 25552.77
917.3800, 25519.10
918.5050, 25474.58
919.6300, 25798.75
920.7550, 25443.52
921.8800, 25761.84
923.0040, 25811.26
924.1290, 25983.77
925.2530, 25599.00
926.3770, 25849.00
927.5010, 25948.00
928.6250, 25990.00
929.7480, 26104.00
930.8720, 25964.00
931.9950, 26292.00
933.1180, 26051.00
934.2410, 26203.00
935.3640, 26065.00
936.4860, 26153.00
937.6090, 26427.00
938.7310, 26446.00
939.8530, 26213.00
940.9750, 26320.00
942.0970, 26265.00
943.2180, 26119.00
944.3400, 26162.00
945.4610, 26159.00
946.5820, 26138.00
947.7030, 26161.00
948.8240, 26051.00
949.9450, 26031.00
951.0650, 26064.00
952.1860, 25798.00
953.3060, 25805.00
954.4260, 25628.00
955.5460, 25423.00
956.6650, 25421.00
957.7850, 25358.00
958.9040, 25240.00
960.0230, 25393.00
961.1420, 25265.00
962.2610, 25004.00
963.3800, 25173.00
964.4990, 24936.00
965.6170, 25010.00
966.7350, 24743.00
967.8530, 24755.00
968.9710, 24791.00
970.0890, 24538.00
971.2070, 24815.00
972.3240, 24853.00
973.4410, 24492.00
974.5580, 24615.00
975.6750, 24586.00
976.7920, 24808.00
977.9090, 24480.00
979.0250, 24602.00
980.1410, 24429.00
981.2580, 24385.00
982.3740, 24542.00
983.4890, 24368.00
984.6050, 24345.00
985.7200, 24415.00
986.8360, 24445.00
987.9510, 24429.00
989.0660, 24472.00
990.1810, 24509.00
991.2950, 24590.00
992.4100, 24524.54
993.5240, 24524.66
994.6390, 24389.00
995.7530, 24400.00
996.8660, 24323.00
997.9800, 24204.00
999.0940, 24465.00
1000.207, 24278.00
1001.320, 24542.00
1002.433, 24574.00
1003.546, 24515.00
1004.659, 24597.00
1005.772, 24475.00
1006.884, 24511.64
1007.996, 24723.00
1009.108, 24562.00
1010.220, 24509.00
1011.332, 24627.00
1012.444, 24765.00
1013.555, 24635.00
1014.666, 24711.00
1015.777, 24500.00
1016.888, 24547.00
1017.999, 24518.00
1019.110, 24664.00
1020.220, 24562.00
1021.331, 24477.00
1022.441, 24498.00
1023.551, 24476.00
1024.661, 24553.00
1025.770, 24260.00
1026.880, 24078.00
1027.989, 24165.00
1029.098, 24202.00
1030.207, 24123.00
1031.316, 23940.00
1032.425, 23739.00
1033.533, 23849.00
1034.642, 23747.00
1035.750, 23611.00
1036.858, 23837.00
1037.966, 23429.00
1039.073, 23290.00
1040.181, 23268.00
1041.288, 23182.00
1042.396, 23132.00
1043.503, 23166.00
1044.610, 23061.86
1045.716, 23002.00
1046.823, 22940.00
1047.929, 22755.00
1049.036, 22714.00
1050.142, 22612.00
1051.248, 22594.00
1052.353, 22426.00
1053.459, 22513.00
1054.564, 22266.00
1055.670, 22328.00
1056.775, 22375.00
1057.880, 22106.00
1058.985, 22099.00
1060.089, 22041.00
1061.194, 22069.00
1062.298, 21988.16
1063.402, 21898.00
1064.506, 21846.00
1065.610, 21806.00
1066.713, 21728.00
1067.817, 21797.00
1068.920, 21745.00
1070.023, 21758.00
1071.126, 21650.15
1072.229, 21531.00
1073.332, 21513.00
1074.435, 21316.00
1075.537, 21298.12
1076.639, 21242.71
1077.741, 21249.00
1078.843, 21175.00
1079.945, 21259.00
1081.046, 21222.00
1082.148, 21072.00
1083.249, 21202.00
1084.350, 20964.00
1085.451, 20977.00
1086.551, 20860.00
1087.652, 20997.00
1088.752, 20983.00
1089.853, 20809.00
1090.953, 20852.00
1092.053, 20701.00
1093.152, 20691.00
1094.252, 20554.00
1095.351, 20569.94
1096.451, 20547.42
1097.550, 20564.00
1098.649, 20513.00
1099.748, 20409.00
1100.846, 20282.00
1101.945, 20165.00
1103.043, 20095.00
1104.141, 20115.00
1105.239, 20030.00
1106.337, 20038.00
1107.434, 19981.00
1108.532, 19929.00
1109.629, 20009.00
1110.726, 19933.00
1111.823, 19878.00
1112.920, 19791.00
1114.017, 19795.00
1115.113, 19827.00
1116.210, 19776.00
1117.306, 19913.00
1118.402, 19758.00
1119.498, 19889.00
1120.593, 19877.00
1121.689, 19922.00
1122.784, 19842.00
1123.879, 19816.12
1124.974, 19565.00
1126.069, 19655.00
1127.164, 19423.00
1128.259, 19249.00
1129.353, 19233.00
1130.447, 19252.00
1131.541, 19067.00
1132.635, 19192.00
1133.729, 19034.00
1134.822, 19120.00
1135.916, 19103.61
1137.009, 19208.00
1138.102, 19106.00
1139.195, 19020.00
1140.288, 19030.00
1141.380, 18906.00
1142.473, 18930.00
1143.565, 18865.00
1144.657, 18845.00
1145.749, 18734.00
1146.841, 18907.00
1147.932, 18906.00
1149.024, 18999.00
1150.115, 18898.00
1151.206, 18848.00
1152.297, 18772.00
1153.388, 18617.00
1154.479, 18669.00
1155.569, 18725.00
1156.659, 18656.00
1157.750, 18760.00
1158.839, 18621.00
1159.929, 18477.00
1161.019, 18789.00
1162.108, 18640.12
1163.198, 18657.00
1164.287, 18548.00
1165.376, 18751.00
1166.465, 18448.00
1167.553, 18627.00
1168.642, 18449.00
1169.730, 18568.00
1170.818, 18545.00
1171.906, 18505.00
1172.994, 18581.00
1174.082, 18628.00
1175.170, 18611.00
1176.257, 18640.30
1177.344, 18558.00
1178.431, 18626.00
1179.518, 18535.00
1180.605, 18517.00
1181.691, 18335.00
1182.778, 18475.00
1183.864, 18425.00
1184.950, 18266.00
1186.036, 18377.00
1187.122, 18571.00
1188.207, 18282.00
1189.292, 18479.00
1190.378, 18544.00
1191.463, 18368.00
1192.548, 18357.00
1193.632, 18349.00
1194.717, 18319.00
1195.801, 18391.00
1196.886, 18402.00
1197.970, 18457.00
1199.054, 18497.00
1200.137, 18511.00
1201.221, 18463.73
1202.305, 18325.00
1203.388, 18356.00
1204.471, 18298.00
1205.554, 18327.00
1206.637, 18296.79
1207.719, 18293.00
1208.802, 18278.00
1209.884, 18315.00
1210.966, 18374.00
1212.048, 18510.00
1213.130, 18283.00
1214.212, 18349.00
1215.293, 18481.00
1216.374, 18218.00
1217.456, 18302.00
1218.536, 18255.00
1219.617, 18385.00
1220.698, 18375.00
1221.778, 18200.00
1222.859, 18073.00
1223.939, 18134.00
1225.019, 18205.00
1226.099, 18310.00
1227.178, 18303.00
1228.258, 18344.00
1229.337, 18303.00
1230.417, 18381.00
1231.496, 18346.00
1232.574, 18307.00
1233.653, 18382.00
1234.732, 18411.00
1235.810, 18241.00
1236.888, 18106.00
1237.966, 18134.00
1239.044, 18252.00
1240.122, 18374.00
1241.199, 18218.00
1242.277, 18335.00
1243.354, 18274.00
1244.431, 18367.00
1245.508, 18273.00
1246.585, 18193.00
1247.661, 18174.00
1248.738, 18303.00
1249.814, 18123.00
1250.890, 18192.00
1251.966, 18059.00
1253.042, 18277.00
1254.117, 18360.00
1255.193, 18276.00
1256.268, 18412.00
1257.343, 18182.00
1258.418, 18241.00
1259.493, 18132.00
1260.567, 18398.00
1261.642, 18306.00
1262.716, 18196.00
1263.790, 18061.00
1264.864, 18212.00
1265.938, 18323.00
1267.011, 18141.00
1268.085, 18269.00
1269.158, 18281.00
1270.231, 18309.00
1271.304, 18288.00
1272.377, 18123.00
1273.450, 18224.00
1274.522, 18292.00
1275.594, 18100.00
1276.666, 18284.00
1277.738, 18206.00
1278.810, 18173.00
1279.882, 18206.00
1280.953, 18188.00
1282.025, 18124.00
1283.096, 18334.00
1284.167, 18241.00
1285.238, 18243.00
1286.308, 18453.00
1287.379, 18327.00
1288.449, 18285.00
1289.519, 18249.00
1290.589, 18221.00
1291.659, 18410.00
1292.729, 18329.00
1293.798, 18458.00
1294.868, 18204.00
1295.937, 18424.00
1297.006, 18026.17
1298.075, 18341.79
1299.143, 18522.04
1300.212, 18574.20
1301.280, 18114.59
1302.348, 18315.81
1303.416, 18252.21
1304.484, 18177.74
1305.552, 18471.97
1306.620, 18086.79
1307.687, 18375.17
1308.754, 18394.68
1309.821, 18537.24
1310.888, 18413.34
1311.955, 18371.74
1313.021, 18596.68
1314.088, 18674.04
1315.154, 18519.46
1316.220, 18669.83
1317.286, 18275.34
1318.352, 18358.98
1319.417, 18648.90
1320.483, 18507.72
1321.548, 18662.96
1322.613, 18705.30
1323.678, 18234.57
1324.743, 18656.13
1325.807, 18691.80
1326.872, 18331.25
1327.936, 18331.00
1329.000, 18386.00
1330.064, 18405.00
1331.128, 18524.00
1332.191, 18330.00
1333.255, 18423.00
1334.318, 18330.00
1335.381, 18402.00
1336.444, 18650.05
1337.507, 18526.23
1338.569, 18532.27
1339.632, 18530.00
1340.694, 18326.00
1341.756, 18443.00
1342.818, 18360.00
1343.880, 18368.00
1344.941, 18295.00
1346.003, 18418.00
1347.064, 18515.00
1348.125, 18452.00
1349.186, 18544.00
1350.247, 18450.00
1351.308, 18463.00
1352.368, 18509.00
1353.428, 18623.00
1354.489, 18365.00
1355.549, 18457.00
1356.608, 18244.00
1357.668, 18327.00
1358.727, 18352.00
1359.787, 18477.00
1360.846, 18446.00
1361.905, 18564.00
1362.964, 18672.00
1364.022, 18524.00
1365.081, 18505.00
1366.139, 18573.00
1367.197, 18546.00
1368.255, 18526.00
1369.313, 18365.00
1370.371, 18188.81
1371.428, 18502.60
