##NAMES=Laverovite
##RRUFFID=R060216
##IDEAL CHEMISTRY=K_2_NaMn^2+^_7_Zr^4+^_2_(Si_4_O_12_)_2_O_2_(OH)_4_F
##LOCALITY=Desourdy Quarry, Mont Saint-Hilaire, Rouville County, Quebec, Canada
##OWNER=RRUFF
##SOURCE=Royal Ontario Museum
##DESCRIPTION=Brown fragment showing lamellar habit. Type sample
##STATUS=The identification of this mineral has been confirmed by X-ray diffraction and chemical analysis
##URL=rruff.info/R060216
##MEASURED CHEMISTRY=(K_1.74_Na_0.18_[box]_0.08_)_Σ=2_(Na_0.92_Ca_0.08_)_Σ=1_(Mn_4.09_Fe^2+^_2.67_Mg_0.24_)_Σ=7_(Zr_1.42_Ti_0.58_)_Σ=2_(Si_7.86_Al_0.14_)_Σ=8_O_26_((OH)_3.14_O_0.86_)_Σ=4_
##PIN_ID=L00627
##ORIENTATION=Laser parallel to (1 0 1). Fiducial mark perpendicular to laser is parallel to b [0 1 0]
217.3660, 28446.60
218.5850, 28389.14
219.8030, 28308.00
221.0220, 28399.00
222.2400, 28142.00
223.4590, 27927.00
224.6770, 28072.00
225.8950, 28047.00
227.1120, 28099.00
228.3300, 27999.00
229.5480, 28001.00
230.7650, 27801.00
231.9820, 27721.00
233.1990, 27938.00
234.4160, 27661.00
235.6330, 27621.00
236.8490, 27747.00
238.0660, 27473.00
239.2820, 27649.00
240.4980, 27378.00
241.7140, 27347.00
242.9300, 27411.00
244.1460, 27023.00
245.3610, 27216.00
246.5770, 27019.00
247.7920, 27157.00
249.0070, 27179.00
250.2220, 27194.00
251.4370, 27014.00
252.6510, 27072.00
253.8660, 26840.64
255.0800, 26930.69
256.2940, 26968.68
257.5080, 26957.40
258.7220, 26749.29
259.9360, 26795.34
261.1490, 26739.56
262.3630, 26679.58
263.5760, 26761.43
264.7890, 26581.97
266.0020, 26827.00
267.2150, 26676.00
268.4270, 26703.00
269.6400, 26554.00
270.8520, 26589.00
272.0640, 26387.00
273.2760, 26380.00
274.4880, 26471.00
275.7000, 26665.00
276.9120, 26852.00
278.1230, 26542.00
279.3340, 26520.00
280.5450, 26425.00
281.7560, 26292.00
282.9670, 26436.00
284.1780, 26353.00
285.3880, 26428.00
286.5980, 26485.00
287.8090, 26433.00
289.0190, 26455.65
290.2290, 26338.00
291.4380, 26433.00
292.6480, 26427.00
293.8570, 26489.00
295.0670, 26475.00
296.2760, 26330.00
297.4850, 26546.00
298.6930, 26352.00
299.9020, 26521.00
301.1110, 26523.00
302.3190, 26404.00
303.5270, 26492.00
304.7350, 26427.00
305.9430, 26645.00
307.1510, 26512.00
308.3580, 26542.00
309.5660, 26482.00
310.7730, 26667.00
311.9800, 26551.00
313.1870, 26636.00
314.3940, 26404.00
315.6010, 26578.00
316.8070, 26335.00
318.0130, 26885.00
319.2200, 26630.00
320.4260, 26820.00
321.6310, 26764.00
322.8370, 26749.00
324.0430, 26780.34
325.2480, 26774.41
326.4540, 26740.00
327.6590, 26798.00
328.8640, 26803.00
330.0680, 26752.00
331.2730, 27085.00
332.4780, 26993.00
333.6820, 27203.00
334.8860, 27103.00
336.0900, 27100.39
337.2940, 27074.00
338.4980, 27053.71
339.7010, 27071.83
340.9050, 27069.00
342.1080, 27117.00
343.3110, 27156.42
344.5140, 27200.00
345.7170, 27197.00
346.9200, 27136.00
348.1220, 27100.00
349.3240, 27134.00
350.5270, 26979.00
351.7290, 26957.00
352.9310, 27171.00
354.1320, 26967.00
355.3340, 26980.00
356.5350, 27114.00
357.7370, 27099.00
358.9380, 27101.00
360.1390, 26997.00
361.3400, 26986.00
362.5400, 27143.00
363.7410, 27045.00
364.9410, 26874.00
366.1410, 26993.00
367.3410, 27107.00
368.5410, 26932.00
369.7410, 26862.00
370.9400, 26796.00
372.1400, 26920.00
373.3390, 26920.00
374.5380, 27071.00
375.7370, 26805.00
376.9360, 26946.00
378.1350, 26836.00
379.3330, 26720.00
380.5310, 26733.00
381.7300, 26570.00
382.9280, 26720.00
384.1260, 26613.00
385.3230, 26565.00
386.5210, 26515.00
387.7180, 26457.84
388.9160, 26478.00
390.1130, 26446.00
391.3100, 26390.00
392.5060, 26526.00
393.7030, 26393.00
394.9000, 26626.00
396.0960, 26592.00
397.2920, 26287.00
398.4880, 26142.00
399.6840, 26239.00
400.8800, 26378.00
402.0750, 26132.00
403.2710, 26176.00
404.4660, 26245.00
405.6610, 26087.00
406.8560, 26275.00
408.0510, 26250.00
409.2450, 26350.00
410.4400, 26344.00
411.6340, 26291.00
412.8280, 26214.00
414.0220, 26339.00
415.2160, 26308.00
416.4100, 26196.00
417.6030, 26222.00
418.7970, 26029.00
419.9900, 26164.00
421.1830, 26315.00
422.3760, 25906.00
423.5690, 25971.00
424.7610, 26047.00
425.9540, 25983.00
427.1460, 26239.00
428.3380, 26106.00
429.5300, 25886.00
430.7220, 26018.00
431.9140, 25828.00
433.1050, 25904.00
434.2970, 26090.00
435.4880, 25961.00
436.6790, 25811.00
437.8700, 25977.00
439.0610, 25904.00
440.2510, 26204.00
441.4420, 25883.00
442.6320, 25923.00
443.8220, 25751.00
445.0120, 25821.00
446.2020, 25894.00
447.3910, 25838.00
448.5810, 25968.00
449.7700, 25916.00
450.9600, 26053.00
452.1490, 25896.00
453.3370, 26158.00
454.5260, 26122.00
455.7150, 26042.00
456.9030, 26103.00
458.0910, 26061.00
459.2800, 26245.00
460.4670, 26113.00
461.6550, 25961.00
462.8430, 26246.00
464.0300, 26145.57
465.2180, 26325.00
466.4050, 26264.00
467.5920, 26291.00
468.7790, 26339.00
469.9650, 26415.00
471.1520, 26298.00
472.3380, 26357.00
473.5250, 26494.00
474.7110, 26361.00
475.8970, 26488.00
477.0820, 26365.00
478.2680, 26486.00
479.4540, 26637.00
480.6390, 26663.00
481.8240, 26753.00
483.0090, 26726.00
484.1940, 26551.00
485.3780, 26783.00
486.5630, 26510.00
487.7470, 26729.00
488.9320, 26853.00
490.1160, 26736.00
491.3000, 26544.00
492.4830, 26683.00
493.6670, 26561.00
494.8500, 26649.00
496.0340, 26639.00
497.2170, 26693.00
498.4000, 26680.00
499.5820, 26512.00
500.7650, 26585.00
501.9480, 26566.00
503.1300, 26679.00
504.3120, 26730.00
505.4940, 26800.00
506.6760, 26803.27
507.8580, 26770.00
509.0390, 26698.00
510.2210, 26786.00
511.4020, 26587.00
512.5830, 26801.00
513.7640, 26705.00
514.9450, 26823.00
516.1250, 26751.00
517.3060, 27013.00
518.4860, 27025.64
519.6660, 26865.00
520.8460, 27048.00
522.0260, 27085.00
523.2060, 26782.00
524.3850, 26873.00
525.5650, 26850.00
526.7440, 26939.00
527.9230, 27033.00
529.1020, 27044.00
530.2810, 27105.00
531.4590, 27336.00
532.6380, 27194.00
533.8160, 27499.00
534.9940, 27485.00
536.1720, 27371.00
537.3500, 27625.00
538.5270, 27637.00
539.7050, 27790.00
540.8820, 27770.00
542.0590, 27958.00
543.2360, 28018.00
544.4130, 28138.00
545.5900, 28320.00
546.7660, 28506.00
547.9430, 28548.00
549.1190, 28681.36
550.2950, 28645.00
551.4710, 28753.00
552.6470, 28791.00
553.8220, 28867.82
554.9980, 28997.00
556.1730, 29015.00
557.3480, 29152.00
558.5230, 29137.00
559.6980, 29273.00
560.8730, 29327.00
562.0470, 29386.00
563.2220, 29332.00
564.3960, 29424.00
565.5700, 29591.00
566.7440, 29591.00
567.9170, 29799.00
569.0910, 29518.00
570.2640, 29699.00
571.4380, 29618.00
572.6110, 29619.00
573.7840, 29778.00
574.9570, 29715.00
576.1290, 29789.00
577.3020, 29751.00
578.4740, 29723.00
579.6460, 29722.00
580.8180, 29779.71
581.9900, 29661.00
583.1620, 29910.00
584.3330, 29904.00
585.5040, 29890.00
586.6760, 30180.00
587.8470, 30088.00
589.0180, 30072.00
590.1880, 30397.00
591.3590, 30006.00
592.5290, 30314.00
593.7000, 30181.00
594.8700, 30250.00
596.0400, 30564.00
597.2090, 30417.00
598.3790, 30442.00
599.5490, 30667.00
600.7180, 30580.00
601.8870, 30613.00
603.0560, 30854.00
604.2250, 30915.00
605.3940, 30725.00
606.5620, 31041.00
607.7300, 30942.00
608.8990, 31217.00
610.0670, 31296.00
611.2350, 31458.00
612.4020, 31498.00
613.5700, 31383.00
614.7370, 31674.00
615.9050, 31501.00
617.0720, 31687.00
618.2390, 31812.00
619.4060, 32049.00
620.5720, 31873.00
621.7390, 32096.00
622.9050, 32572.00
624.0710, 32407.00
625.2370, 32456.00
626.4030, 32836.00
627.5690, 32691.00
628.7340, 33022.00
629.9000, 33510.00
631.0650, 33380.92
632.2300, 33805.39
633.3950, 34177.80
634.5600, 34500.93
635.7240, 34626.97
636.8890, 35007.43
638.0530, 35285.78
639.2170, 35559.95
640.3810, 35975.93
641.5450, 36130.59
642.7080, 36544.06
643.8720, 36567.00
645.0350, 36705.00
646.1980, 37143.00
647.3610, 37199.00
648.5240, 37544.00
649.6870, 37574.00
650.8490, 37895.00
652.0120, 37965.00
653.1740, 38005.00
654.3360, 37827.00
655.4980, 37296.00
656.6600, 37220.00
657.8210, 37069.00
658.9830, 36802.00
660.1440, 36661.00
661.3050, 36091.34
662.4660, 36003.73
663.6270, 35864.05
664.7870, 35675.29
665.9480, 35289.51
667.1080, 35158.08
668.2680, 34924.77
669.4280, 34687.30
670.5880, 34591.63
671.7480, 34205.00
672.9070, 34150.00
674.0670, 34160.00
675.2260, 33861.00
676.3850, 34035.00
677.5440, 34055.00
678.7030, 33893.00
679.8610, 33605.00
681.0200, 33696.00
682.1780, 33784.00
683.3360, 33708.00
684.4940, 33782.00
685.6520, 33684.00
686.8090, 33687.60
687.9670, 33579.02
689.1240, 33649.00
690.2810, 33391.00
691.4380, 33350.00
692.5950, 33416.00
693.7520, 33361.00
694.9080, 33343.00
696.0650, 33114.00
697.2210, 33193.00
698.3770, 33026.00
699.5330, 32979.00
700.6880, 32900.00
701.8440, 32923.00
702.9990, 32878.48
704.1550, 33001.00
705.3100, 32920.00
706.4650, 32959.00
707.6190, 33129.00
708.7740, 32906.59
709.9290, 32771.00
711.0830, 32557.00
712.2370, 32593.00
713.3910, 32402.00
714.5450, 32461.00
715.6980, 32152.00
716.8520, 32355.00
718.0050, 32289.00
719.1580, 31931.00
720.3110, 32129.00
721.4640, 31972.00
722.6170, 32019.00
723.7700, 32012.00
724.9220, 31618.00
726.0740, 31400.00
727.2260, 31687.00
728.3780, 31357.00
729.5300, 31144.00
730.6810, 31250.00
731.8330, 31001.00
732.9840, 31183.00
734.1350, 31032.00
735.2860, 31020.00
736.4370, 30871.00
737.5880, 30650.00
738.7380, 30562.00
739.8880, 30789.00
741.0390, 30529.00
742.1890, 30580.00
743.3380, 30614.00
744.4880, 30269.00
745.6380, 30261.00
746.7870, 30345.00
747.9360, 30060.00
749.0850, 30170.00
750.2340, 29981.00
751.3830, 30076.00
752.5310, 30002.00
753.6800, 30037.00
754.8280, 29913.00
755.9760, 29654.00
757.1240, 29729.00
758.2720, 29548.00
759.4190, 29842.00
760.5670, 29439.00
761.7140, 29908.00
762.8610, 29618.00
764.0080, 29365.00
765.1550, 29468.00
766.3020, 29462.00
767.4480, 29149.00
768.5950, 29147.00
769.7410, 29119.00
770.8870, 29070.00
772.0330, 29050.69
773.1780, 29018.00
774.3240, 28890.00
775.4690, 29058.00
776.6140, 28799.00
777.7590, 28780.00
778.9040, 28880.00
780.0490, 28576.00
781.1940, 28502.00
782.3380, 28657.00
783.4820, 28366.00
784.6260, 28400.00
785.7700, 28426.00
786.9140, 28114.00
788.0580, 28185.00
789.2010, 28263.00
790.3450, 27810.00
791.4880, 27873.00
792.6310, 27729.00
793.7730, 27634.00
794.9160, 27874.00
796.0590, 27488.00
797.2010, 27448.00
798.3430, 27770.00
799.4850, 27627.00
800.6270, 27408.00
801.7690, 27624.00
802.9100, 27332.00
804.0520, 27475.00
805.1930, 27145.00
806.3340, 27170.00
807.4750, 27088.00
808.6160, 27213.00
809.7560, 26887.00
810.8970, 27125.00
812.0370, 26959.00
813.1770, 26716.00
814.3170, 27068.00
815.4570, 26981.00
816.5960, 26762.00
817.7360, 26893.00
818.8750, 26954.00
820.0140, 26774.00
821.1530, 26640.00
822.2920, 26798.00
823.4310, 26649.00
824.5690, 26789.00
825.7070, 26680.00
826.8460, 26513.00
827.9840, 26690.00
829.1220, 26668.00
830.2590, 26648.00
831.3970, 26554.00
832.5340, 26570.00
833.6710, 26541.32
834.8080, 26535.00
835.9450, 26571.00
837.0820, 26566.00
838.2190, 26663.00
839.3550, 26536.00
840.4910, 26699.00
841.6270, 26845.00
842.7630, 26889.00
843.8990, 26720.00
845.0350, 26789.00
846.1700, 26716.00
847.3060, 26689.00
848.4410, 26829.00
849.5760, 26700.00
850.7100, 26792.00
851.8450, 26950.00
852.9800, 26918.00
854.1140, 26862.00
855.2480, 27127.00
856.3820, 26981.00
857.5160, 27094.00
858.6500, 27217.82
859.7830, 27132.00
860.9170, 27331.00
862.0500, 27500.00
863.1830, 27303.00
864.3160, 27205.00
865.4480, 27379.00
866.5810, 27619.00
867.7130, 27626.00
868.8460, 27546.00
869.9780, 27483.00
871.1100, 27627.00
872.2410, 27704.00
873.3730, 27864.00
874.5050, 27895.94
875.6360, 28040.00
876.7670, 27984.54
877.8980, 27969.45
879.0290, 28051.00
880.1590, 28027.00
881.2900, 28140.00
882.4200, 28202.28
883.5500, 28296.38
884.6800, 28343.00
885.8100, 28459.00
886.9400, 28453.00
888.0690, 28364.00
889.1990, 28467.00
890.3280, 28653.00
891.4570, 28498.00
892.5860, 28593.00
893.7140, 28756.00
894.8430, 29002.00
895.9710, 28993.00
897.1000, 28798.00
898.2280, 28721.00
899.3560, 28957.00
900.4830, 29031.00
901.6110, 29148.00
902.7380, 29271.00
903.8660, 29232.00
904.9930, 29414.00
906.1200, 29447.00
907.2460, 29387.00
908.3730, 29391.00
909.5000, 29690.00
910.6260, 29567.00
911.7520, 29700.00
912.8780, 29582.00
914.0040, 29666.00
915.1290, 29628.00
916.2550, 29963.00
917.3800, 30071.00
918.5050, 29959.00
919.6300, 30209.00
920.7550, 29893.00
921.8800, 30170.00
923.0040, 30209.00
924.1290, 30372.00
925.2530, 30004.00
926.3770, 30371.00
927.5010, 30343.00
928.6250, 30503.00
929.7480, 30613.00
930.8720, 30484.00
931.9950, 30632.00
933.1180, 30647.00
934.2410, 30725.00
935.3640, 30645.00
936.4860, 30706.00
937.6090, 30760.00
938.7310, 30692.00
939.8530, 30843.00
940.9750, 30873.00
942.0970, 30973.00
943.2180, 30659.00
944.3400, 30931.00
945.4610, 30914.00
946.5820, 31119.00
947.7030, 30908.00
948.8240, 30774.00
949.9450, 30907.00
951.0650, 30734.00
952.1860, 30956.00
953.3060, 30830.00
954.4260, 30694.00
955.5460, 30627.00
956.6650, 30574.16
957.7850, 30552.89
958.9040, 30569.00
960.0230, 30603.00
961.1420, 30680.00
962.2610, 30763.00
963.3800, 30691.00
964.4990, 30567.00
965.6170, 30274.00
966.7350, 30302.00
967.8530, 30215.00
968.9710, 30581.00
970.0890, 30458.00
971.2070, 30656.00
972.3240, 30366.00
973.4410, 30361.00
974.5580, 30394.91
975.6750, 30305.29
976.7920, 30451.00
977.9090, 30383.00
979.0250, 30448.00
980.1410, 30619.00
981.2580, 30642.00
982.3740, 30770.00
983.4890, 30787.11
984.6050, 30913.00
985.7200, 30811.00
986.8360, 30724.00
987.9510, 30754.00
989.0660, 31134.00
990.1810, 30856.00
991.2950, 31103.00
992.4100, 31105.00
993.5240, 31162.00
994.6390, 31086.00
995.7530, 31306.00
996.8660, 31413.00
997.9800, 31346.00
999.0940, 31531.00
1000.207, 31756.00
1001.320, 31530.00
1002.433, 31663.00
1003.546, 31840.00
1004.659, 31806.00
1005.772, 31909.00
1006.884, 32083.00
1007.996, 31976.00
1009.108, 32001.00
1010.220, 32170.00
1011.332, 32157.00
1012.444, 32182.00
1013.555, 32461.00
1014.666, 32466.00
1015.777, 32353.00
1016.888, 32230.00
1017.999, 32396.00
1019.110, 32583.00
1020.220, 32391.00
1021.331, 32431.00
1022.441, 32557.00
1023.551, 32517.00
1024.661, 32201.00
1025.770, 32541.00
1026.880, 32468.00
1027.989, 32062.00
1029.098, 32013.00
1030.207, 31701.00
1031.316, 31837.00
1032.425, 31451.00
1033.533, 31519.00
1034.642, 31061.00
1035.750, 31158.00
1036.858, 31011.00
1037.966, 30747.00
1039.073, 30583.00
1040.181, 30586.00
1041.288, 29973.00
1042.396, 30157.00
1043.503, 29877.00
1044.610, 29717.00
1045.716, 29296.00
1046.823, 29357.00
1047.929, 28967.00
1049.036, 28964.00
1050.142, 28915.00
1051.248, 28685.00
1052.353, 28544.00
1053.459, 28556.00
1054.564, 28325.00
1055.670, 28362.00
1056.775, 28061.00
1057.880, 28178.00
1058.985, 27844.00
1060.089, 27873.00
1061.194, 27636.00
1062.298, 27513.00
1063.402, 27521.00
1064.506, 27527.00
1065.610, 27366.00
1066.713, 27274.00
1067.817, 27357.00
1068.920, 26992.00
1070.023, 27214.00
1071.126, 27057.00
1072.229, 26864.00
1073.332, 26943.00
1074.435, 26635.00
1075.537, 26667.00
1076.639, 26672.00
1077.741, 26427.00
1078.843, 26315.00
1079.945, 26540.00
1081.046, 26307.00
1082.148, 26317.00
1083.249, 25983.00
1084.350, 26107.00
1085.451, 26043.00
1086.551, 25854.00
1087.652, 25957.00
1088.752, 25818.00
1089.853, 25958.00
1090.953, 25785.92
1092.053, 25448.00
1093.152, 25565.00
1094.252, 25522.00
1095.351, 25606.00
1096.451, 25180.00
1097.550, 25458.00
1098.649, 25167.00
1099.748, 25471.00
1100.846, 25153.00
1101.945, 25020.00
1103.043, 25058.00
1104.141, 24836.00
1105.239, 25075.00
1106.337, 24703.00
1107.434, 24689.00
1108.532, 24885.00
1109.629, 24546.00
1110.726, 24737.00
1111.823, 24509.00
1112.920, 24503.00
1114.017, 24466.00
1115.113, 24544.00
1116.210, 24538.87
1117.306, 24530.00
1118.402, 24596.68
1119.498, 24577.00
1120.593, 24592.00
1121.689, 24530.00
1122.784, 24600.00
1123.879, 24568.00
1124.974, 24401.00
1126.069, 24431.00
1127.164, 24159.00
1128.259, 23931.00
1129.353, 24090.00
1130.447, 23910.00
1131.541, 24061.00
1132.635, 23909.00
1133.729, 24011.00
1134.822, 23955.00
1135.916, 23890.00
1137.009, 23891.00
1138.102, 23794.00
1139.195, 23754.00
1140.288, 23756.29
1141.380, 23753.59
1142.473, 23743.00
1143.565, 23735.15
1144.657, 23751.00
1145.749, 23699.00
1146.841, 23695.00
1147.932, 23656.25
1149.024, 23661.00
1150.115, 23619.00
1151.206, 23452.00
1152.297, 23434.00
1153.388, 23411.00
1154.479, 23765.00
1155.569, 23538.00
1156.659, 23622.00
1157.750, 23535.00
1158.839, 23482.00
1159.929, 23398.26
1161.019, 23431.86
1162.108, 23407.82
1163.198, 23560.00
1164.287, 23512.00
1165.376, 23652.00
1166.465, 23866.00
1167.553, 23685.46
1168.642, 23634.50
1169.730, 23432.00
1170.818, 23363.00
1171.906, 23260.00
1172.994, 23433.00
1174.082, 23457.00
1175.170, 23406.00
1176.257, 23575.00
1177.344, 23501.59
1178.431, 23330.00
1179.518, 23380.00
1180.605, 23505.00
1181.691, 23281.00
1182.778, 23256.00
1183.864, 23544.00
1184.950, 23190.00
1186.036, 23373.00
1187.122, 23424.00
1188.207, 23271.00
1189.292, 23318.00
1190.378, 23271.00
1191.463, 23312.00
1192.548, 23236.00
1193.632, 23170.00
1194.717, 23290.00
1195.801, 23260.00
1196.886, 23452.00
1197.970, 23378.00
1199.054, 23028.00
1200.137, 23423.00
1201.221, 23176.00
1202.305, 23315.00
1203.388, 23193.00
1204.471, 23062.00
1205.554, 23249.00
1206.637, 23323.00
1207.719, 23225.00
1208.802, 23196.00
1209.884, 23352.00
1210.966, 23223.00
1212.048, 23380.00
1213.130, 23236.00
1214.212, 23234.00
1215.293, 23439.00
1216.374, 23304.00
1217.456, 23467.00
1218.536, 23140.00
1219.617, 23349.00
1220.698, 23261.00
1221.778, 23268.00
1222.859, 23199.00
1223.939, 23063.00
1225.019, 23135.00
1226.099, 23324.00
1227.178, 23152.00
1228.258, 23343.00
1229.337, 23336.00
1230.417, 23290.00
1231.496, 23313.00
1232.574, 23307.00
1233.653, 23250.00
1234.732, 23122.00
1235.810, 23276.00
1236.888, 23401.00
1237.966, 23323.00
1239.044, 23097.00
1240.122, 23410.00
1241.199, 23144.00
1242.277, 23285.00
1243.354, 23084.00
1244.431, 23248.00
1245.508, 23152.00
1246.585, 23116.00
1247.661, 23324.00
1248.738, 23258.00
1249.814, 23263.00
1250.890, 23235.00
1251.966, 23245.00
1253.042, 23258.10
1254.117, 23330.00
1255.193, 23268.00
1256.268, 23387.00
1257.343, 23329.87
1258.418, 23322.66
1259.493, 23307.00
1260.567, 23348.00
1261.642, 23190.00
1262.716, 23366.00
1263.790, 23198.00
1264.864, 23309.00
1265.938, 23363.00
1267.011, 23358.00
1268.085, 23433.26
1269.158, 23266.00
1270.231, 23395.00
1271.304, 23397.00
1272.377, 23134.00
1273.450, 23098.00
1274.522, 23294.00
1275.594, 23248.08
1276.666, 23327.90
1277.738, 23411.00
1278.810, 23424.00
1279.882, 23473.30
1280.953, 23478.55
1282.025, 23487.00
1283.096, 23463.00
1284.167, 23409.00
1285.238, 23388.00
1286.308, 23438.00
1287.379, 23555.00
1288.449, 23524.84
1289.519, 23492.00
1290.589, 23485.00
1291.659, 23484.00
1292.729, 23343.00
1293.798, 23315.00
1294.868, 23399.00
1295.937, 23256.00
1297.006, 23211.00
1298.075, 23406.00
1299.143, 23331.00
1300.212, 23524.00
1301.280, 23520.06
1302.348, 23496.23
1303.416, 23561.00
1304.484, 23467.00
1305.552, 23505.00
1306.620, 23583.00
1307.687, 23660.00
1308.754, 23632.00
1309.821, 23595.00
1310.888, 23541.00
1311.955, 23548.00
1313.021, 23404.00
1314.088, 23635.00
1315.154, 23586.00
1316.220, 23511.00
1317.286, 23681.00
1318.352, 23559.00
1319.417, 23559.00
1320.483, 23597.00
1321.548, 23600.00
1322.613, 23758.00
1323.678, 23665.00
1324.743, 23579.00
1325.807, 23484.00
1326.872, 23633.00
1327.936, 23560.00
1329.000, 23652.00
1330.064, 23474.00
1331.128, 23560.00
1332.191, 23567.00
1333.255, 23666.00
1334.318, 23575.00
1335.381, 23545.00
1336.444, 23705.00
1337.507, 23671.00
1338.569, 23768.00
1339.632, 23636.00
1340.694, 23600.00
1341.756, 23533.00
1342.818, 23699.00
1343.880, 23569.00
1344.941, 23765.00
1346.003, 23910.00
1347.064, 23727.00
1348.125, 23861.00
1349.186, 24090.00
1350.247, 24004.00
1351.308, 23773.00
1352.368, 23671.00
1353.428, 23695.00
1354.489, 23806.00
1355.549, 23757.00
1356.608, 23841.00
1357.668, 23747.00
1358.727, 23717.00
1359.787, 23953.00
1360.846, 23715.00
1361.905, 23813.00
1362.964, 23982.00
1364.022, 23817.83
1365.081, 23747.00
1366.139, 23815.00
1367.197, 23596.00
1368.255, 23828.00
1369.313, 23639.00
1370.371, 23578.00
1371.428, 23814.00
