##NAMES=Laverovite
##RRUFFID=R060216
##IDEAL CHEMISTRY=K_2_NaMn^2+^_7_Zr^4+^_2_(Si_4_O_12_)_2_O_2_(OH)_4_F
##LOCALITY=Desourdy Quarry, Mont Saint-Hilaire, Rouville County, Quebec, Canada
##OWNER=RRUFF
##SOURCE=Royal Ontario Museum
##DESCRIPTION=Brown fragment showing lamellar habit. Type sample
##STATUS=The identification of this mineral has been confirmed by X-ray diffraction and chemical analysis
##URL=rruff.info/R060216
##MEASURED CHEMISTRY=(K_1.74_Na_0.18_[box]_0.08_)_Σ=2_(Na_0.92_Ca_0.08_)_Σ=1_(Mn_4.09_Fe^2+^_2.67_Mg_0.24_)_Σ=7_(Zr_1.42_Ti_0.58_)_Σ=2_(Si_7.86_Al_0.14_)_Σ=8_O_26_((OH)_3.14_O_0.86_)_Σ=4_
##PIN_ID=L00725
##ORIENTATION=Laser parallel to c* (0 0 1). Fiducial mark perpendicular to laser is parallel to a [1 0 0]
148.8670, 26648.00
150.0940, 26418.00
151.3210, 26885.00
152.5490, 27451.00
153.7750, 27266.00
155.0020, 26665.00
156.2290, 26982.00
157.4550, 26578.00
158.6810, 26485.00
159.9080, 26749.00
161.1340, 26983.00
162.3590, 27268.00
163.5850, 28135.00
164.8110, 28965.00
166.0360, 29647.00
167.2610, 30037.00
168.4860, 30127.00
169.7110, 30234.00
170.9360, 30163.00
172.1610, 29920.45
173.3850, 29536.00
174.6100, 29247.00
175.8340, 28862.00
177.0580, 28566.00
178.2820, 28005.00
179.5050, 28233.00
180.7290, 27905.00
181.9520, 27578.00
183.1760, 27077.00
184.3990, 27038.00
185.6220, 27448.00
186.8450, 27907.00
188.0670, 28091.00
189.2900, 27603.00
190.5120, 27445.00
191.7340, 27468.00
192.9560, 27764.00
194.1780, 28170.00
195.4000, 28225.00
196.6220, 28428.00
197.8430, 28996.00
199.0640, 29079.00
200.2860, 29442.00
201.5070, 30337.00
202.7270, 31619.00
203.9480, 32540.00
205.1690, 30863.00
206.3890, 28414.00
207.6090, 27576.00
208.8290, 27750.00
210.0490, 27949.00
211.2690, 29272.00
212.4890, 28858.00
213.7080, 29726.00
214.9280, 30243.00
216.1470, 30580.00
217.3660, 30795.00
218.5850, 31341.00
219.8030, 31602.00
221.0220, 32041.00
222.2400, 32215.00
223.4590, 32898.00
224.6770, 32944.00
225.8950, 33226.00
227.1120, 33588.00
228.3300, 33671.00
229.5480, 34112.40
230.7650, 34421.00
231.9820, 34750.00
233.1990, 34857.00
234.4160, 34913.00
235.6330, 35057.00
236.8490, 34968.00
238.0660, 34688.00
239.2820, 34721.00
240.4980, 34470.00
241.7140, 33988.00
242.9300, 33674.00
244.1460, 33011.00
245.3610, 32249.00
246.5770, 31773.00
247.7920, 30899.95
249.0070, 30282.07
250.2220, 29425.00
251.4370, 28903.00
252.6510, 28519.00
253.8660, 27846.00
255.0800, 27695.00
256.2940, 27127.00
257.5080, 27075.00
258.7220, 27072.00
259.9360, 28197.00
261.1490, 27306.57
262.3630, 27208.00
263.5760, 26295.00
264.7890, 25668.00
266.0020, 25428.00
267.2150, 25307.00
268.4270, 24831.00
269.6400, 24816.00
270.8520, 24323.00
272.0640, 24147.00
273.2760, 23913.00
274.4880, 23922.00
275.7000, 23757.95
276.9120, 23686.00
278.1230, 23604.00
279.3340, 23500.00
280.5450, 23454.00
281.7560, 23152.00
282.9670, 23418.00
284.1780, 23130.00
285.3880, 23231.00
286.5980, 23336.00
287.8090, 23283.00
289.0190, 23236.00
290.2290, 23507.00
291.4380, 23385.00
292.6480, 23507.00
293.8570, 23483.00
295.0670, 23513.00
296.2760, 23524.00
297.4850, 23637.00
298.6930, 23681.19
299.9020, 23858.00
301.1110, 23909.00
302.3190, 23753.00
303.5270, 23993.00
304.7350, 23755.00
305.9430, 23973.00
307.1510, 23945.00
308.3580, 23812.00
309.5660, 23762.00
310.7730, 23965.00
311.9800, 24046.00
313.1870, 24132.00
314.3940, 24376.00
315.6010, 24565.00
316.8070, 24739.00
318.0130, 24891.00
319.2200, 25053.00
320.4260, 25310.00
321.6310, 25616.00
322.8370, 26070.00
324.0430, 26472.00
325.2480, 26413.00
326.4540, 26459.00
327.6590, 26376.00
328.8640, 26499.00
330.0680, 26487.60
331.2730, 26604.00
332.4780, 26570.00
333.6820, 26716.00
334.8860, 26811.00
336.0900, 26885.00
337.2940, 26904.00
338.4980, 26945.00
339.7010, 27108.00
340.9050, 27066.00
342.1080, 27304.00
343.3110, 27238.00
344.5140, 27238.00
345.7170, 26922.00
346.9200, 26787.00
348.1220, 26723.00
349.3240, 26765.00
350.5270, 26566.00
351.7290, 26793.00
352.9310, 26648.00
354.1320, 26431.00
355.3340, 26717.00
356.5350, 26749.00
357.7370, 26903.00
358.9380, 26915.00
360.1390, 26942.00
361.3400, 27304.00
362.5400, 27321.00
363.7410, 27297.00
364.9410, 27467.00
366.1410, 27491.00
367.3410, 27385.00
368.5410, 27426.00
369.7410, 27235.00
370.9400, 27370.00
372.1400, 27064.00
373.3390, 27261.00
374.5380, 27161.00
375.7370, 27175.00
376.9360, 27162.00
378.1350, 27192.00
379.3330, 27208.00
380.5310, 27354.00
381.7300, 27123.00
382.9280, 27259.00
384.1260, 26937.19
385.3230, 26610.00
386.5210, 26281.00
387.7180, 26138.00
388.9160, 25803.95
390.1130, 25698.00
391.3100, 25442.00
392.5060, 25174.41
393.7030, 24963.00
394.9000, 24784.00
396.0960, 24415.00
397.2920, 24521.00
398.4880, 24371.00
399.6840, 24050.00
400.8800, 23923.00
402.0750, 23746.00
403.2710, 23852.00
404.4660, 23600.52
405.6610, 23475.00
406.8560, 23301.00
408.0510, 23145.86
409.2450, 22896.00
410.4400, 22903.00
411.6340, 22722.00
412.8280, 22654.00
414.0220, 22653.00
415.2160, 22547.00
416.4100, 22398.00
417.6030, 22616.00
418.7970, 22436.00
419.9900, 22298.00
421.1830, 22191.00
422.3760, 22358.00
423.5690, 22385.00
424.7610, 22607.00
425.9540, 22402.00
427.1460, 22314.84
428.3380, 22238.47
429.5300, 21910.00
430.7220, 21977.00
431.9140, 21871.00
433.1050, 21865.00
434.2970, 21997.00
435.4880, 21930.00
436.6790, 21732.00
437.8700, 21953.00
439.0610, 21727.00
440.2510, 21724.00
441.4420, 21655.00
442.6320, 21795.00
443.8220, 21639.00
445.0120, 21935.00
446.2020, 21845.00
447.3910, 21877.00
448.5810, 21768.00
449.7700, 21912.00
450.9600, 21694.00
452.1490, 21925.00
453.3370, 21911.00
454.5260, 21830.00
455.7150, 21927.00
456.9030, 21920.00
458.0910, 22004.00
459.2800, 22092.00
460.4670, 22396.00
461.6550, 22447.00
462.8430, 22481.00
464.0300, 22375.00
465.2180, 22644.00
466.4050, 22755.00
467.5920, 22594.00
468.7790, 23093.00
469.9650, 22972.00
471.1520, 22990.00
472.3380, 23171.00
473.5250, 23292.00
474.7110, 23326.17
475.8970, 23196.00
477.0820, 23420.00
478.2680, 23285.00
479.4540, 23313.00
480.6390, 23440.00
481.8240, 23448.52
483.0090, 23423.09
484.1940, 23699.00
485.3780, 23618.00
486.5630, 23849.00
487.7470, 23875.98
488.9320, 23714.00
490.1160, 23866.00
491.3000, 23896.00
492.4830, 23710.00
493.6670, 24042.00
494.8500, 24279.00
496.0340, 23898.00
497.2170, 24267.00
498.4000, 24104.00
499.5820, 24008.00
500.7650, 23823.00
501.9480, 23841.00
503.1300, 24123.00
504.3120, 23907.00
505.4940, 24148.00
506.6760, 24080.00
507.8580, 23817.00
509.0390, 24002.00
510.2210, 24052.00
511.4020, 24055.00
512.5830, 23776.00
513.7640, 23917.00
514.9450, 23964.00
516.1250, 23860.00
517.3060, 23970.00
518.4860, 23765.00
519.6660, 23811.00
520.8460, 23716.00
522.0260, 23739.00
523.2060, 23941.00
524.3850, 23758.00
525.5650, 23934.00
526.7440, 23924.00
527.9230, 23825.00
529.1020, 23969.00
530.2810, 24046.00
531.4590, 23860.00
532.6380, 24037.00
533.8160, 24137.00
534.9940, 24430.00
536.1720, 24361.00
537.3500, 24507.00
538.5270, 24716.00
539.7050, 24722.00
540.8820, 24954.00
542.0590, 25070.00
543.2360, 25435.00
544.4130, 25769.00
545.5900, 25899.00
546.7660, 26479.00
547.9430, 26977.00
549.1190, 27360.00
550.2950, 27845.00
551.4710, 28477.00
552.6470, 28697.00
553.8220, 29204.00
554.9980, 29745.00
556.1730, 29936.00
557.3480, 30391.00
558.5230, 30294.00
559.6980, 30422.00
560.8730, 30226.00
562.0470, 29975.00
563.2220, 29948.00
564.3960, 29460.00
565.5700, 29598.00
566.7440, 29224.00
567.9170, 28787.00
569.0910, 28602.00
570.2640, 28253.00
571.4380, 28188.00
572.6110, 28050.00
573.7840, 27523.00
574.9570, 27548.00
576.1290, 27521.00
577.3020, 27252.00
578.4740, 27409.00
579.6460, 27402.00
580.8180, 27197.13
581.9900, 27231.85
583.1620, 26935.00
584.3330, 27170.00
585.5040, 27237.00
586.6760, 27463.00
587.8470, 27260.00
589.0180, 28083.00
590.1880, 27490.00
591.3590, 27684.00
592.5290, 27630.00
593.7000, 27393.00
594.8700, 27417.00
596.0400, 27412.00
597.2090, 27396.76
598.3790, 27452.00
599.5490, 27520.00
600.7180, 27335.00
601.8870, 27400.00
603.0560, 27309.00
604.2250, 27368.00
605.3940, 27100.00
606.5620, 27346.00
607.7300, 27297.00
608.8990, 27456.00
610.0670, 27386.00
611.2350, 27416.00
612.4020, 27661.00
613.5700, 27718.00
614.7370, 27920.00
615.9050, 28031.00
617.0720, 27943.00
618.2390, 28224.00
619.4060, 28287.00
620.5720, 28426.00
621.7390, 28681.00
622.9050, 28945.00
624.0710, 29225.00
625.2370, 29755.00
626.4030, 30379.00
627.5690, 30426.00
628.7340, 30833.00
629.9000, 30975.00
631.0650, 31502.00
632.2300, 31074.00
633.3950, 32112.00
634.5600, 32095.00
635.7240, 32973.00
636.8890, 33532.00
638.0530, 34280.00
639.2170, 35266.61
640.3810, 36277.00
641.5450, 37674.00
642.7080, 39136.00
643.8720, 41232.00
645.0350, 43102.00
646.1980, 45346.00
647.3610, 47851.00
648.5240, 50507.00
649.6870, 53700.00
650.8490, 56046.00
652.0120, 58442.00
653.1740, 59561.00
654.3360, 59667.00
655.4980, 58656.00
656.6600, 56821.00
657.8210, 54328.00
658.9830, 51624.00
660.1440, 48904.00
661.3050, 46365.00
662.4660, 43993.00
663.6270, 42182.00
664.7870, 40702.00
665.9480, 39269.90
667.1080, 38381.00
668.2680, 37376.00
669.4280, 36990.00
670.5880, 36648.00
671.7480, 36097.00
672.9070, 36144.00
674.0670, 35919.00
675.2260, 36035.00
676.3850, 35942.00
677.5440, 35805.00
678.7030, 36337.00
679.8610, 36658.00
681.0200, 36813.00
682.1780, 37161.00
683.3360, 37531.00
684.4940, 37863.99
685.6520, 37989.00
686.8090, 38600.00
687.9670, 38997.00
689.1240, 39212.01
690.2810, 38705.00
691.4380, 39382.00
692.5950, 39184.00
693.7520, 39060.00
694.9080, 39194.00
696.0650, 39483.00
697.2210, 39323.61
698.3770, 39664.00
699.5330, 39004.00
700.6880, 39669.00
701.8440, 39113.00
702.9990, 39004.00
704.1550, 38875.00
705.3100, 39495.00
706.4650, 39174.00
707.6190, 39353.00
708.7740, 39604.00
709.9290, 39653.00
711.0830, 39715.75
712.2370, 39762.00
713.3910, 39684.00
714.5450, 39688.00
715.6980, 39656.00
716.8520, 39207.00
718.0050, 38660.00
719.1580, 38219.00
720.3110, 37816.00
721.4640, 36881.00
722.6170, 36449.00
723.7700, 35699.00
724.9220, 35153.00
726.0740, 34590.00
727.2260, 33981.00
728.3780, 33744.00
729.5300, 32808.00
730.6810, 32342.00
731.8330, 32140.00
732.9840, 31458.00
734.1350, 31184.00
735.2860, 30764.00
736.4370, 30699.00
737.5880, 30337.00
738.7380, 29896.00
739.8880, 29481.00
741.0390, 29274.00
742.1890, 29088.00
743.3380, 28808.81
744.4880, 28873.00
745.6380, 28385.00
746.7870, 28196.00
747.9360, 27983.00
749.0850, 28056.00
750.2340, 27721.00
751.3830, 27641.00
752.5310, 27475.00
753.6800, 27328.62
754.8280, 27366.00
755.9760, 27190.00
757.1240, 27030.00
758.2720, 27094.00
759.4190, 27106.00
760.5670, 26752.00
761.7140, 26981.00
762.8610, 26494.00
764.0080, 26471.00
765.1550, 26405.00
766.3020, 26386.00
767.4480, 26192.00
768.5950, 26042.00
769.7410, 25947.00
770.8870, 25706.00
772.0330, 25579.00
773.1780, 25606.00
774.3240, 25298.00
775.4690, 25078.00
776.6140, 25035.00
777.7590, 25000.00
778.9040, 24870.00
780.0490, 24891.00
781.1940, 24649.00
782.3380, 24475.00
783.4820, 24499.00
784.6260, 24206.00
785.7700, 24197.00
786.9140, 24113.00
788.0580, 24002.00
789.2010, 24099.00
790.3450, 23821.00
791.4880, 23633.00
792.6310, 23768.00
793.7730, 23665.00
794.9160, 23517.00
796.0590, 23482.00
797.2010, 23447.00
798.3430, 23264.00
799.4850, 23110.00
800.6270, 23007.00
801.7690, 23004.00
802.9100, 22785.00
804.0520, 22861.00
805.1930, 22763.00
806.3340, 22668.00
807.4750, 22445.00
808.6160, 22504.00
809.7560, 22543.00
810.8970, 22436.00
812.0370, 22160.00
813.1770, 22321.00
814.3170, 22232.00
815.4570, 22148.00
816.5960, 22175.00
817.7360, 22157.00
818.8750, 22081.00
820.0140, 22048.00
821.1530, 22034.00
822.2920, 21990.18
823.4310, 21904.00
824.5690, 21961.00
825.7070, 22033.00
826.8460, 22066.00
827.9840, 21975.00
829.1220, 22084.00
830.2590, 21968.00
831.3970, 21830.00
832.5340, 21917.00
833.6710, 21946.00
834.8080, 21869.46
835.9450, 21871.00
837.0820, 21811.00
838.2190, 21842.00
839.3550, 21881.00
840.4910, 21776.00
841.6270, 22136.00
842.7630, 22001.00
843.8990, 21943.00
845.0350, 22234.00
846.1700, 22180.00
847.3060, 22149.00
848.4410, 22122.00
849.5760, 22188.00
850.7100, 22248.47
851.8450, 22231.00
852.9800, 22383.00
854.1140, 22469.00
855.2480, 22363.00
856.3820, 22759.00
857.5160, 22575.00
858.6500, 22495.00
859.7830, 22714.00
860.9170, 22819.00
862.0500, 22757.00
863.1830, 22949.00
864.3160, 23155.00
865.4480, 23136.00
866.5810, 23156.00
867.7130, 23154.00
868.8460, 23220.00
869.9780, 23504.00
871.1100, 23446.00
872.2410, 23781.00
873.3730, 23936.00
874.5050, 24015.00
875.6360, 24173.00
876.7670, 24246.00
877.8980, 24333.00
879.0290, 24421.10
880.1590, 24434.00
881.2900, 24527.00
882.4200, 24768.00
883.5500, 24776.00
884.6800, 25005.00
885.8100, 25076.00
886.9400, 25201.00
888.0690, 25216.00
889.1990, 25315.00
890.3280, 25407.00
891.4570, 25644.00
892.5860, 25730.81
893.7140, 25870.31
894.8430, 26020.00
895.9710, 26027.00
897.1000, 26191.00
898.2280, 26286.19
899.3560, 26442.00
900.4830, 26577.00
901.6110, 26688.23
902.7380, 26955.23
903.8660, 26940.00
904.9930, 27399.00
906.1200, 27445.00
907.2460, 27729.00
908.3730, 27772.00
909.5000, 28012.00
910.6260, 28337.00
911.7520, 28370.00
912.8780, 28525.00
914.0040, 28632.00
915.1290, 28993.00
916.2550, 29028.00
917.3800, 29340.00
918.5050, 29491.00
919.6300, 29712.00
920.7550, 29961.82
921.8800, 30235.98
923.0040, 30376.24
924.1290, 30339.00
925.2530, 30406.00
926.3770, 30406.00
927.5010, 30625.00
928.6250, 30602.00
929.7480, 30646.00
930.8720, 30896.00
931.9950, 30788.00
933.1180, 30754.00
934.2410, 30944.00
935.3640, 31036.00
936.4860, 30828.00
937.6090, 30722.00
938.7310, 30860.00
939.8530, 30672.00
940.9750, 30718.00
942.0970, 30688.00
943.2180, 30665.00
944.3400, 30717.01
945.4610, 30708.92
946.5820, 30798.00
947.7030, 30742.00
948.8240, 30778.00
949.9450, 30764.00
951.0650, 30876.00
952.1860, 30656.00
953.3060, 30290.00
954.4260, 29879.00
955.5460, 29543.00
956.6650, 29211.00
957.7850, 28847.00
958.9040, 28511.00
960.0230, 28122.00
961.1420, 27808.00
962.2610, 27229.00
963.3800, 26912.00
964.4990, 26515.00
965.6170, 26591.00
966.7350, 26261.00
967.8530, 25935.00
968.9710, 25890.00
970.0890, 25468.00
971.2070, 25481.00
972.3240, 25176.00
973.4410, 25272.00
974.5580, 25141.00
975.6750, 24955.00
976.7920, 24795.00
977.9090, 24893.00
979.0250, 24808.00
980.1410, 24618.00
981.2580, 24648.00
982.3740, 24539.00
983.4890, 24581.00
984.6050, 24472.00
985.7200, 24654.00
986.8360, 24709.00
987.9510, 24741.00
989.0660, 24657.00
990.1810, 24586.00
991.2950, 24782.00
992.4100, 24666.00
993.5240, 25000.00
994.6390, 24925.00
995.7530, 25048.00
996.8660, 25166.00
997.9800, 25223.02
999.0940, 25334.00
1000.207, 25460.00
1001.320, 25623.00
1002.433, 25770.00
1003.546, 25708.00
1004.659, 25931.00
1005.772, 26105.00
1006.884, 26356.00
1007.996, 26706.00
1009.108, 27019.00
1010.220, 27139.00
1011.332, 27285.00
1012.444, 27648.00
1013.555, 27900.00
1014.666, 28150.00
1015.777, 28573.88
1016.888, 29102.00
1017.999, 29362.00
1019.110, 29844.00
1020.220, 30185.00
1021.331, 30625.00
1022.441, 30793.00
1023.551, 31533.00
1024.661, 31716.00
1025.770, 32123.00
1026.880, 32264.00
1027.989, 32661.00
1029.098, 32793.00
1030.207, 32876.00
1031.316, 32896.00
1032.425, 32780.00
1033.533, 32643.00
1034.642, 32390.00
1035.750, 31998.11
1036.858, 31526.00
1037.966, 30969.00
1039.073, 30530.00
1040.181, 29845.00
1041.288, 29467.00
1042.396, 29237.00
1043.503, 28529.00
1044.610, 28322.00
1045.716, 27917.00
1046.823, 27487.00
1047.929, 27081.00
1049.036, 26911.00
1050.142, 26633.00
1051.248, 26316.00
1052.353, 26076.00
1053.459, 25831.00
1054.564, 25731.00
1055.670, 25532.00
1056.775, 25325.00
1057.880, 25433.00
1058.985, 25067.00
1060.089, 25115.00
1061.194, 25044.00
1062.298, 24751.00
1063.402, 24896.00
1064.506, 24750.00
1065.610, 24789.00
1066.713, 24462.00
1067.817, 24763.00
1068.920, 24740.00
1070.023, 24492.00
1071.126, 24724.00
1072.229, 24653.00
1073.332, 24594.00
1074.435, 24587.00
1075.537, 24563.03
1076.639, 24482.00
1077.741, 24494.00
1078.843, 24607.00
1079.945, 24418.00
1081.046, 24531.00
1082.148, 24470.00
1083.249, 24467.66
1084.350, 24835.00
1085.451, 24546.00
1086.551, 24565.00
1087.652, 24689.00
1088.752, 24265.00
1089.853, 24721.00
1090.953, 24602.00
1092.053, 24619.00
1093.152, 24535.00
1094.252, 24610.00
1095.351, 24879.00
1096.451, 24883.00
1097.550, 24634.00
1098.649, 24465.00
1099.748, 24336.00
1100.846, 24244.00
1101.945, 24047.00
1103.043, 23958.57
1104.141, 23783.00
1105.239, 23708.00
1106.337, 23612.00
1107.434, 23442.00
1108.532, 23380.00
1109.629, 23398.00
1110.726, 23235.23
1111.823, 23098.00
1112.920, 23024.00
1114.017, 22786.00
1115.113, 22688.00
1116.210, 22589.76
1117.306, 22690.00
1118.402, 22523.00
1119.498, 22635.59
1120.593, 22833.00
1121.689, 22679.00
1122.784, 22598.00
1123.879, 22562.00
1124.974, 22369.00
1126.069, 22330.00
1127.164, 22344.00
1128.259, 22213.00
1129.353, 22257.00
1130.447, 22145.00
1131.541, 22157.00
1132.635, 22115.00
1133.729, 21955.00
1134.822, 21914.00
1135.916, 22003.00
1137.009, 21787.00
1138.102, 21922.00
1139.195, 22072.00
1140.288, 21938.00
1141.380, 21782.00
1142.473, 21908.00
1143.565, 21768.00
1144.657, 21921.00
1145.749, 21945.00
1146.841, 21883.00
1147.932, 21952.26
1149.024, 21936.74
1150.115, 21805.00
1151.206, 21968.00
1152.297, 21592.00
1153.388, 21337.62
1154.479, 21669.06
1155.569, 21852.53
1156.659, 21895.97
1157.750, 21379.97
1158.839, 21586.37
1159.929, 21503.27
1161.019, 21408.29
1162.108, 21716.37
1163.198, 21281.74
1164.287, 21583.43
1165.376, 21591.20
1166.465, 21730.00
1167.553, 21714.00
1168.642, 21645.00
1169.730, 21695.00
1170.818, 21642.00
1171.906, 21708.00
1172.994, 21713.00
1174.082, 21699.00
1175.170, 21687.22
1176.257, 21619.00
1177.344, 21613.00
1178.431, 21754.00
1179.518, 21750.01
1180.605, 21660.00
1181.691, 21718.00
1182.778, 21669.00
1183.864, 21640.00
1184.950, 21678.00
1186.036, 21679.55
1187.122, 21634.00
1188.207, 21732.00
1189.292, 21679.00
1190.378, 21652.00
1191.463, 21670.00
1192.548, 21562.00
1193.632, 21659.00
1194.717, 21528.00
1195.801, 21593.58
1196.886, 21572.39
1197.970, 21750.00
1199.054, 21523.00
1200.137, 21718.00
1201.221, 21650.00
1202.305, 21579.00
1203.388, 21539.00
1204.471, 21524.64
1205.554, 21563.00
1206.637, 21590.00
1207.719, 21626.65
1208.802, 21631.07
1209.884, 21637.00
1210.966, 21627.00
1212.048, 21636.00
1213.130, 21620.00
1214.212, 21654.00
1215.293, 21677.00
1216.374, 21697.45
1217.456, 21670.00
1218.536, 21744.00
1219.617, 21636.00
1220.698, 21613.00
1221.778, 21667.00
1222.859, 21768.00
1223.939, 21293.26
1225.019, 21635.48
1226.099, 21829.71
1227.178, 21883.91
1228.258, 21378.68
1229.337, 21595.84
1230.417, 21523.50
1231.496, 21439.29
1232.574, 21758.12
1233.653, 21334.25
1234.732, 21856.00
1235.810, 21769.00
1236.888, 21525.00
1237.966, 21889.00
1239.044, 21604.00
1240.122, 21631.00
1241.199, 21659.00
1242.277, 21640.00
1243.354, 21825.00
1244.431, 21585.00
1245.508, 21808.00
1246.585, 21730.00
1247.661, 21746.00
1248.738, 21719.00
1249.814, 21798.00
1250.890, 21739.00
1251.966, 21909.00
1253.042, 21780.00
1254.117, 21639.00
1255.193, 21747.00
1256.268, 21707.00
1257.343, 21841.00
1258.418, 21622.00
1259.493, 21780.00
1260.567, 21639.00
1261.642, 21695.00
1262.716, 21827.00
1263.790, 21606.00
1264.864, 21797.00
1265.938, 21878.00
1267.011, 21871.00
1268.085, 21806.00
1269.158, 21712.00
1270.231, 21840.00
1271.304, 21763.00
1272.377, 21647.00
1273.450, 21813.00
1274.522, 21791.00
1275.594, 21748.00
1276.666, 21975.00
1277.738, 21893.00
1278.810, 21774.00
1279.882, 21886.00
1280.953, 21795.00
1282.025, 21828.00
1283.096, 21958.00
1284.167, 21806.98
1285.238, 21851.00
1286.308, 21688.00
1287.379, 21680.00
1288.449, 21789.00
1289.519, 21932.00
1290.589, 21936.00
1291.659, 21845.00
1292.729, 21915.00
1293.798, 21925.00
1294.868, 21905.00
1295.937, 21887.00
1297.006, 22012.00
1298.075, 21741.00
1299.143, 21933.00
1300.212, 22006.00
1301.280, 21856.00
1302.348, 21924.00
1303.416, 21844.00
1304.484, 21813.00
1305.552, 21763.00
1306.620, 21734.59
1307.687, 21747.00
1308.754, 21738.00
1309.821, 21821.00
1310.888, 21919.00
