##NAMES=Laverovite
##RRUFFID=R060216
##IDEAL CHEMISTRY=K_2_NaMn^2+^_7_Zr^4+^_2_(Si_4_O_12_)_2_O_2_(OH)_4_F
##LOCALITY=Desourdy Quarry, Mont Saint-Hilaire, Rouville County, Quebec, Canada
##OWNER=RRUFF
##SOURCE=Royal Ontario Museum
##DESCRIPTION=Brown fragment showing lamellar habit. Type sample
##STATUS=The identification of this mineral has been confirmed by X-ray diffraction and chemical analysis
##URL=rruff.info/R060216
##MEASURED CHEMISTRY=(K_1.74_Na_0.18_[box]_0.08_)_Σ=2_(Na_0.92_Ca_0.08_)_Σ=1_(Mn_4.09_Fe^2+^_2.67_Mg_0.24_)_Σ=7_(Zr_1.42_Ti_0.58_)_Σ=2_(Si_7.86_Al_0.14_)_Σ=8_O_26_((OH)_3.14_O_0.86_)_Σ=4_
##PIN_ID=L01980
##ORIENTATION=Laser parallel to (1 1 0). Fiducial mark perpendicular to laser is parallel to c [0 0 1]
159.7350, 25202.00
160.9660, 25979.00
162.1970, 26866.00
163.4270, 27780.00
164.6580, 28542.00
165.8880, 29462.00
167.1180, 28999.00
168.3480, 28907.00
169.5780, 29046.00
170.8080, 29115.00
172.0370, 28092.00
173.2670, 27215.00
174.4960, 26889.00
175.7250, 26505.00
176.9540, 25773.00
178.1820, 25673.00
179.4110, 25026.00
180.6390, 24727.00
181.8670, 24377.00
183.0950, 24257.00
184.3230, 24636.00
185.5500, 25053.00
186.7780, 24246.00
188.0050, 24072.00
189.2320, 23713.00
190.4590, 23351.16
191.6850, 23908.96
192.9120, 24255.00
194.1380, 24400.55
195.3650, 23745.41
196.5910, 24124.21
197.8160, 24088.57
199.0420, 24036.01
200.2680, 24560.34
201.4930, 24021.54
202.7180, 24536.67
203.9430, 24631.09
205.1680, 24918.06
206.3930, 24788.09
207.6170, 24786.83
208.8410, 25202.65
210.0660, 25387.59
211.2890, 25209.50
212.5130, 25508.65
213.7370, 24955.23
214.9600, 25149.89
216.1840, 25667.39
217.4070, 25510.26
218.6300, 25751.00
219.8520, 26192.00
221.0750, 26262.00
222.2970, 26328.00
223.5200, 26525.00
224.7420, 27123.00
225.9640, 27595.00
227.1850, 27691.00
228.4070, 27851.00
229.6280, 28019.00
230.8490, 28162.00
232.0700, 28391.00
233.2910, 28569.16
234.5120, 28722.32
235.7320, 28903.00
236.9530, 28990.00
238.1730, 28979.00
239.3930, 29015.00
240.6130, 28735.00
241.8320, 28772.00
243.0520, 28853.00
244.2710, 28530.00
245.4900, 28053.53
246.7090, 28360.32
247.9280, 28455.30
249.1470, 28349.85
250.3650, 27443.78
251.5840, 27571.58
252.8020, 27285.14
254.0200, 26981.71
255.2370, 27255.34
256.4550, 26465.74
257.6720, 26730.21
258.8900, 26573.83
260.1070, 26610.15
261.3240, 26229.52
262.5400, 25977.81
263.7570, 26143.04
264.9730, 26077.48
266.1900, 25648.85
267.4060, 25697.55
268.6220, 24893.68
269.8370, 24838.10
271.0530, 25105.15
272.2680, 24697.78
273.4830, 24170.00
274.6980, 24119.00
275.9130, 24015.00
277.1280, 23844.00
278.3420, 23677.00
279.5570, 23584.00
280.7710, 23429.00
281.9850, 23332.00
283.1990, 23934.00
284.4120, 23967.00
285.6260, 23883.00
286.8390, 23738.00
288.0520, 23605.00
289.2650, 23792.00
290.4780, 23871.00
291.6910, 24042.00
292.9030, 24010.00
294.1160, 24213.39
295.3280, 24254.70
296.5400, 24413.00
297.7510, 24375.00
298.9630, 24187.00
300.1740, 24183.00
301.3860, 24140.00
302.5970, 24186.00
303.8080, 23727.00
305.0180, 23716.00
306.2290, 23531.00
307.4390, 23390.00
308.6500, 23274.00
309.8600, 23128.00
311.0700, 22963.00
312.2790, 22822.00
313.4890, 22336.00
314.6980, 22562.00
315.9080, 22431.00
317.1170, 22165.00
318.3250, 22345.00
319.5340, 22223.40
320.7430, 22340.00
321.9510, 22288.00
323.1590, 22234.00
324.3670, 22327.00
325.5750, 22462.00
326.7830, 22403.00
327.9900, 22494.00
329.1980, 22748.00
330.4050, 22790.00
331.6120, 23370.00
332.8190, 23137.00
334.0250, 23614.00
335.2320, 23875.00
336.4380, 23818.00
337.6440, 24263.00
338.8500, 24535.00
340.0560, 24751.00
341.2620, 24988.00
342.4670, 25180.00
343.6730, 25183.00
344.8780, 25458.00
346.0830, 25349.00
347.2870, 25525.00
348.4920, 25678.00
349.6970, 25501.00
350.9010, 25722.00
352.1050, 25676.00
353.3090, 25627.00
354.5130, 25869.00
355.7160, 25665.00
356.9200, 25810.00
358.1230, 25655.00
359.3260, 25874.00
360.5290, 25800.00
361.7320, 26109.00
362.9340, 25933.36
364.1370, 25877.00
365.3390, 25600.00
366.5410, 25633.00
367.7430, 25386.00
368.9450, 25426.00
370.1460, 25169.00
371.3480, 25058.00
372.5490, 25084.00
373.7500, 24837.00
374.9510, 24836.00
376.1520, 24662.00
377.3520, 24521.79
378.5520, 24189.00
379.7530, 24163.00
380.9530, 24045.00
382.1530, 23698.00
383.3520, 23600.00
384.5520, 23613.00
385.7510, 23333.00
386.9500, 22861.00
388.1490, 23134.00
389.3480, 22787.00
390.5470, 22777.00
391.7450, 22649.00
392.9440, 22554.00
394.1420, 22372.00
395.3400, 22132.00
396.5380, 22226.00
397.7350, 22051.00
398.9330, 21844.00
400.1300, 21901.00
401.3270, 21900.00
402.5240, 21761.14
403.7210, 21547.00
404.9180, 21532.00
406.1140, 21428.00
407.3110, 21238.00
408.5070, 21207.00
409.7030, 21160.00
410.8990, 21382.00
412.0940, 21465.00
413.2900, 21493.00
414.4850, 21516.00
415.6800, 21623.00
416.8750, 21626.00
418.0700, 21659.00
419.2650, 21701.00
420.4590, 21743.00
421.6530, 21676.00
422.8470, 21489.00
424.0410, 21272.00
425.2350, 20845.00
426.4290, 20481.00
427.6220, 20264.00
428.8160, 20091.00
430.0090, 19627.00
431.2020, 19381.00
432.3940, 18970.00
433.5870, 18541.00
434.7790, 18317.00
435.9720, 18005.00
437.1640, 17354.25
438.3560, 17688.70
439.5470, 17811.45
440.7390, 17733.65
441.9300, 16855.22
443.1220, 17010.67
444.3130, 16751.87
445.5040, 16476.07
446.6940, 16484.00
447.8850, 16515.00
449.0750, 16557.00
450.2660, 16426.00
451.4560, 16301.00
452.6460, 16830.00
453.8350, 16533.14
455.0250, 16597.35
456.2140, 16381.00
457.4040, 16501.00
458.5930, 16435.00
459.7820, 16534.00
460.9700, 16544.00
462.1590, 16641.00
463.3470, 16703.34
464.5350, 16887.00
465.7240, 16821.00
466.9110, 16862.00
468.0990, 16864.00
469.2870, 17084.00
470.4740, 17162.00
471.6610, 17178.00
472.8480, 17168.11
474.0350, 16990.00
475.2220, 17025.00
476.4090, 16994.00
477.5950, 17012.00
478.7810, 17050.00
479.9670, 16978.00
481.1530, 17053.00
482.3390, 17066.00
483.5240, 17050.00
484.7100, 17010.00
485.8950, 17039.37
487.0800, 16962.00
488.2650, 17063.00
489.4490, 16920.00
490.6340, 16898.00
491.8180, 16801.00
493.0030, 16875.00
494.1870, 16847.00
495.3700, 16663.00
496.5540, 16653.00
497.7380, 16744.00
498.9210, 16852.00
500.1040, 16577.00
501.2870, 16635.00
502.4700, 16505.00
503.6530, 16738.00
504.8350, 16642.00
506.0180, 16753.00
507.2000, 16631.00
508.3820, 16609.00
509.5640, 16657.00
510.7450, 16694.00
511.9270, 16650.00
513.1080, 16659.00
514.2890, 16936.00
515.4700, 16718.74
516.6510, 16770.00
517.8320, 16488.00
519.0130, 16570.00
520.1930, 16531.00
521.3730, 16625.00
522.5530, 16837.00
523.7330, 16810.00
524.9130, 16569.00
526.0920, 16787.00
527.2710, 16616.00
528.4510, 16702.00
529.6300, 16770.00
530.8080, 16898.00
531.9870, 16950.00
533.1660, 17167.00
534.3440, 17065.00
535.5220, 17335.00
536.7000, 17262.00
537.8780, 17564.00
539.0560, 17621.00
540.2330, 17936.00
541.4110, 18181.00
542.5880, 18427.00
543.7650, 18833.00
544.9420, 19417.00
546.1180, 19836.97
547.2950, 20394.00
548.4710, 20971.00
549.6470, 21327.00
550.8230, 21990.00
551.9990, 22591.00
553.1750, 22830.00
554.3500, 23228.00
555.5260, 23575.00
556.7010, 23838.00
557.8760, 23760.00
559.0510, 23720.00
560.2250, 23515.00
561.4000, 23375.00
562.5740, 23258.00
563.7480, 22959.37
564.9220, 22672.00
566.0960, 22358.00
567.2700, 21901.00
568.4430, 21534.00
569.6170, 21131.00
570.7900, 21048.00
571.9630, 20927.00
573.1360, 21057.00
574.3080, 21182.00
575.4810, 20819.00
576.6530, 20675.00
577.8250, 20412.14
578.9980, 20914.10
580.1690, 21204.22
581.3410, 21293.92
582.5130, 20582.87
583.6840, 20905.81
584.8550, 20814.37
586.0260, 20705.93
587.1970, 21174.40
588.3680, 20579.80
589.5380, 21039.11
590.7080, 21077.71
591.8790, 21308.87
593.0490, 21123.07
594.2190, 21166.00
595.3880, 21223.00
596.5580, 20922.00
597.7270, 21066.00
598.8960, 20993.00
600.0650, 21201.00
601.2340, 21392.00
602.4030, 21187.00
603.5710, 21251.00
604.7400, 21338.00
605.9080, 21434.00
607.0760, 21535.00
608.2440, 21836.00
609.4120, 21833.00
610.5790, 21772.00
611.7460, 22089.00
612.9140, 22084.00
614.0810, 22491.00
615.2480, 22601.00
616.4140, 22743.00
617.5810, 23266.00
618.7470, 23215.00
619.9130, 23361.00
621.0790, 23550.00
622.2450, 23904.00
623.4110, 23924.00
624.5770, 23968.00
625.7420, 24641.00
626.9070, 24947.00
628.0720, 25347.00
629.2370, 25511.00
630.4020, 25869.00
631.5660, 26332.00
632.7310, 26757.00
633.8950, 27244.00
635.0590, 27775.00
636.2230, 28361.00
637.3870, 29257.00
638.5500, 29926.00
639.7140, 31057.00
640.8770, 32126.00
642.0400, 33386.00
643.2030, 34826.00
644.3660, 36454.00
645.5280, 39062.00
646.6910, 40879.00
647.8530, 42096.00
649.0150, 44042.94
650.1770, 45520.00
651.3390, 46921.00
652.5000, 47067.00
653.6620, 46877.93
654.8230, 46497.00
655.9840, 44722.00
657.1450, 43208.00
658.3060, 41229.00
659.4660, 39528.00
660.6270, 37749.00
661.7870, 35996.00
662.9470, 34527.00
664.1070, 33678.00
665.2670, 32850.00
666.4260, 32231.00
667.5860, 32504.00
668.7450, 32350.00
669.9040, 32065.00
671.0630, 31475.00
672.2220, 31427.00
673.3800, 31738.00
674.5390, 31875.00
675.6970, 32352.00
676.8550, 32597.00
678.0130, 33063.88
679.1710, 33551.12
680.3290, 34053.00
681.4860, 34607.00
682.6430, 35113.00
683.8000, 35662.00
684.9570, 35961.00
686.1140, 36695.00
687.2710, 37246.00
688.4270, 37340.00
689.5840, 37645.00
690.7400, 38031.00
691.8960, 38712.00
693.0520, 38650.00
694.2070, 38817.00
695.3630, 39182.00
696.5180, 39208.00
697.6730, 39479.00
698.8280, 39665.00
699.9830, 39913.00
701.1380, 39634.00
702.2920, 40256.00
703.4470, 40521.00
704.6010, 40185.00
705.7550, 40324.00
706.9090, 40849.00
708.0620, 40788.00
709.2160, 40841.00
710.3690, 41010.00
711.5220, 41194.00
712.6750, 41068.00
713.8280, 41123.00
714.9810, 40952.00
716.1340, 40510.00
717.2860, 40495.00
718.4380, 39837.00
719.5900, 39648.00
720.7420, 38971.00
721.8940, 38342.00
723.0450, 37942.00
724.1970, 37156.00
725.3480, 36800.00
726.4990, 36082.00
727.6500, 35613.00
728.8010, 35040.34
729.9510, 34680.00
731.1020, 33822.00
732.2520, 33455.00
733.4020, 32751.00
734.5520, 32145.00
735.7020, 31804.00
736.8510, 31151.00
738.0010, 30714.00
739.1500, 30390.00
740.2990, 29986.00
741.4480, 29640.61
742.5970, 29207.00
743.7450, 29017.00
744.8940, 28736.00
746.0420, 28550.00
747.1900, 28198.00
748.3380, 28159.38
749.4860, 27569.22
750.6330, 27868.98
751.7810, 27956.75
752.9280, 27844.25
754.0750, 26930.99
755.2220, 27051.75
756.3690, 26758.11
757.5160, 26447.50
758.6620, 26713.94
759.8090, 25917.15
760.9550, 26174.45
762.1010, 26011.04
763.2470, 26040.18
764.3920, 25652.53
765.5380, 25393.51
766.6830, 25551.72
767.8280, 25479.00
768.9730, 25043.35
770.1180, 25084.90
771.2630, 24273.87
772.4070, 24211.14
773.5520, 24471.04
774.6960, 24056.52
775.8400, 24105.84
776.9840, 23978.51
778.1280, 23048.35
779.2710, 23514.55
780.4140, 22873.00
781.5580, 22958.00
782.7010, 22723.00
783.8440, 22524.00
784.9860, 22662.00
786.1290, 22139.00
787.2710, 22104.00
788.4140, 21989.00
789.5560, 21712.00
790.6980, 21673.00
791.8390, 21185.00
792.9810, 21211.00
794.1220, 20803.00
795.2640, 20566.00
796.4050, 20172.00
797.5460, 20252.00
798.6860, 19972.00
799.8270, 19693.00
800.9680, 19367.00
802.1080, 19271.00
803.2480, 19036.00
804.3880, 18902.00
805.5280, 18670.00
806.6670, 18423.00
807.8070, 18378.00
808.9460, 18192.00
810.0850, 17859.00
811.2240, 17887.00
812.3630, 17547.00
813.5020, 17478.00
814.6400, 17566.00
815.7790, 17473.00
816.9170, 17404.00
818.0550, 17284.00
819.1930, 17177.00
820.3300, 17196.00
821.4680, 17045.00
822.6050, 17070.00
823.7430, 17042.00
824.8800, 16972.00
826.0170, 16903.00
827.1530, 16937.00
828.2900, 16841.00
829.4260, 16824.00
830.5620, 16854.00
831.6990, 16897.00
832.8340, 17029.00
833.9700, 17039.38
835.1060, 16858.00
836.2410, 17077.00
837.3760, 17014.00
838.5120, 16918.00
839.6470, 17074.00
840.7810, 17053.00
841.9160, 17224.00
843.0500, 17277.00
844.1850, 17191.00
845.3190, 17359.00
846.4530, 17462.00
847.5870, 17522.00
848.7200, 17587.00
849.8540, 17650.00
850.9870, 17697.00
852.1200, 17956.00
853.2530, 18022.00
854.3860, 18128.00
855.5190, 18431.00
856.6510, 18517.00
857.7840, 18729.18
858.9160, 18869.00
860.0480, 19084.00
861.1800, 19242.00
862.3110, 19380.00
863.4430, 19863.00
864.5740, 19833.00
865.7060, 20011.00
866.8370, 20516.00
867.9680, 20775.00
869.0980, 21069.00
870.2290, 21403.00
871.3590, 21762.00
872.4900, 22237.00
873.6200, 22461.00
874.7500, 22780.00
875.8790, 23223.00
877.0090, 23308.00
878.1380, 23650.00
879.2680, 24235.00
880.3970, 24663.00
881.5260, 25271.00
882.6550, 25566.34
883.7830, 25811.00
884.9120, 26145.00
886.0400, 26422.00
887.1680, 26695.00
888.2960, 27222.00
889.4240, 27626.00
890.5520, 27884.00
891.6790, 28614.00
892.8070, 28652.00
893.9340, 29417.00
895.0610, 29584.00
896.1880, 30522.00
897.3140, 30588.00
898.4410, 31123.00
899.5670, 31721.00
900.6940, 32179.19
901.8200, 32608.00
902.9450, 33367.00
904.0710, 33842.63
905.1970, 34695.00
906.3220, 34989.00
907.4470, 35579.00
908.5730, 36062.82
909.6980, 36496.00
910.8220, 36971.88
911.9470, 37488.00
913.0710, 37775.00
914.1960, 38151.00
915.3200, 38466.56
916.4440, 38895.00
917.5680, 39044.00
918.6910, 39284.00
919.8150, 39462.00
920.9380, 39385.00
922.0610, 39248.00
923.1840, 39573.00
924.3070, 39577.00
925.4300, 39341.00
926.5520, 39728.00
927.6750, 39003.00
928.7970, 38932.00
929.9190, 38545.00
931.0410, 38725.00
932.1630, 38173.00
933.2840, 37915.00
934.4060, 37742.00
935.5270, 37398.00
936.6480, 37017.00
937.7690, 36698.00
938.8900, 36463.39
940.0100, 36103.12
941.1310, 36009.00
942.2510, 35546.00
943.3710, 35204.00
944.4910, 35073.00
945.6110, 34919.00
946.7310, 34845.00
947.8500, 34371.00
948.9690, 33898.00
950.0890, 33382.00
951.2080, 33112.00
952.3260, 32593.00
953.4450, 31997.00
954.5640, 30868.00
955.6820, 30425.00
956.8000, 29443.00
957.9180, 28586.00
959.0360, 27700.00
960.1540, 26997.68
961.2710, 26622.00
962.3890, 25724.00
963.5060, 25212.00
964.6230, 24651.00
965.7400, 24064.00
966.8570, 23631.00
967.9730, 23209.97
969.0900, 22881.00
970.2060, 22570.00
971.3220, 22278.51
972.4380, 21960.00
973.5540, 21778.00
974.6700, 21563.00
975.7850, 21416.42
976.9010, 21399.00
978.0160, 21242.00
979.1310, 21166.00
980.2460, 21174.00
981.3600, 21096.63
982.4750, 21219.00
983.5890, 21111.00
984.7030, 21326.00
985.8170, 21467.00
986.9310, 21515.00
988.0450, 21476.00
989.1590, 21796.00
990.2720, 21899.00
991.3850, 22064.22
992.4980, 22427.00
993.6110, 22458.00
994.7240, 22583.00
995.8370, 22825.70
996.9490, 22999.00
998.0620, 23489.00
999.1740, 23806.00
1000.286, 24186.00
1001.398, 24693.00
1002.509, 25105.00
1003.621, 25580.00
1004.732, 26065.00
1005.843, 26548.00
1006.954, 27045.00
1008.065, 27784.00
1009.176, 28737.00
1010.286, 29347.00
1011.397, 30242.00
1012.507, 31502.00
1013.617, 32024.00
1014.727, 33377.00
1015.837, 34076.00
1016.946, 34870.00
1018.056, 35955.00
1019.165, 36863.00
1020.274, 37900.00
1021.383, 38879.00
1022.492, 39881.00
1023.601, 40691.61
1024.709, 41493.00
1025.817, 42139.00
1026.926, 42823.00
1028.034, 43304.00
1029.141, 43285.00
1030.249, 43477.00
1031.357, 43111.00
1032.464, 42640.00
1033.571, 41967.00
1034.678, 41379.00
1035.785, 40608.00
1036.892, 39340.00
1037.999, 38400.00
1039.105, 37212.00
1040.211, 36629.00
1041.317, 35042.00
1042.423, 33615.00
1043.529, 32718.00
1044.635, 31942.00
1045.740, 30812.00
1046.845, 29822.00
1047.951, 28892.00
1049.056, 28365.00
1050.160, 27757.00
1051.265, 27145.00
1052.370, 26405.00
1053.474, 25854.00
1054.578, 25509.00
1055.682, 25134.00
1056.786, 24916.00
1057.890, 24554.00
1058.993, 24189.00
1060.097, 23971.00
1061.200, 23706.00
1062.303, 23683.00
1063.406, 23632.00
1064.509, 23413.00
1065.612, 23086.00
1066.714, 23040.00
1067.816, 22943.00
1068.919, 22789.87
1070.021, 22712.00
1071.122, 22689.00
1072.224, 22774.00
1073.326, 22916.00
1074.427, 22705.00
1075.528, 22578.00
1076.629, 22318.00
1077.730, 22439.00
1078.831, 22073.00
1079.931, 22152.00
1081.032, 22134.00
1082.132, 21921.42
1083.232, 21850.00
1084.332, 21630.00
1085.432, 21491.00
1086.531, 21308.00
1087.631, 21464.00
1088.730, 21295.00
1089.829, 21103.00
1090.928, 20838.00
1092.027, 20770.00
1093.126, 20779.00
1094.224, 20525.00
1095.323, 20481.00
1096.421, 20187.00
1097.519, 20059.00
1098.617, 20087.00
1099.715, 19844.00
1100.812, 19536.00
1101.910, 19401.00
1103.007, 19269.00
1104.104, 19025.00
1105.201, 18976.00
1106.298, 18814.00
1107.394, 18672.00
1108.491, 18358.00
1109.587, 18331.00
1110.683, 18245.00
1111.779, 18215.00
1112.875, 17932.00
1113.971, 17878.00
1115.066, 17813.00
1116.162, 17821.00
1117.257, 17753.88
1118.352, 17703.00
1119.447, 17675.00
1120.542, 17652.00
1121.636, 17634.00
1122.731, 17318.00
1123.825, 17507.00
1124.919, 17626.00
1126.013, 17354.00
1127.107, 17193.00
1128.200, 17153.00
1129.294, 17224.00
1130.387, 16987.00
1131.480, 16995.00
1132.573, 17169.00
1133.666, 16833.00
1134.759, 17040.00
1135.851, 16745.00
1136.944, 16726.00
1138.036, 16884.00
1139.128, 16781.00
1140.220, 16809.00
1141.312, 16831.00
1142.403, 16913.00
1143.495, 16662.00
1144.586, 16725.00
1145.677, 16642.00
1146.768, 16718.00
1147.859, 16886.00
1148.950, 16715.00
1150.040, 16672.00
1151.130, 16730.00
1152.221, 16599.00
1153.311, 16529.00
1154.401, 16629.00
1155.490, 16376.00
1156.580, 16598.00
1157.669, 16499.00
1158.759, 16507.00
1159.848, 16526.00
1160.937, 16415.00
1162.025, 16397.00
1163.114, 16420.78
1164.202, 16450.00
1165.291, 16452.00
1166.379, 16523.00
1167.467, 16472.00
1168.555, 16563.00
1169.642, 16433.00
1170.730, 16507.09
1171.817, 16461.18
1172.905, 16553.00
1173.992, 16453.00
1175.078, 16402.00
1176.165, 16522.00
1177.252, 16377.00
1178.338, 16634.00
1179.425, 16552.00
1180.511, 16482.00
1181.597, 16356.00
1182.682, 16326.00
1183.768, 16569.00
1184.854, 16373.00
1185.939, 16538.00
1187.024, 16418.00
1188.109, 16429.00
1189.194, 16477.00
1190.279, 16449.00
1191.363, 16382.00
1192.448, 16383.00
1193.532, 16363.51
1194.616, 16254.00
1195.700, 16341.00
1196.784, 16314.00
1197.867, 16258.00
1198.951, 16466.00
1200.034, 16427.00
1201.117, 16487.00
1202.200, 16261.00
1203.283, 16354.00
1204.366, 16242.00
1205.448, 16441.00
1206.531, 16267.00
1207.613, 16463.00
1208.695, 16505.00
1209.777, 16465.00
1210.859, 16528.00
1211.940, 16496.54
1213.022, 16410.00
1214.103, 16407.00
1215.184, 16524.00
1216.265, 16382.93
1217.346, 16493.00
1218.427, 16421.00
1219.507, 16486.00
1220.587, 16530.00
1221.668, 16411.00
1222.748, 16554.00
1223.828, 16383.00
1224.907, 16326.00
1225.987, 16392.00
1227.066, 16333.00
1228.146, 16768.00
1229.225, 16594.12
1230.304, 16891.00
1231.382, 16578.00
1232.461, 16259.00
1233.540, 16396.00
1234.618, 16428.00
1235.696, 16306.00
1236.774, 16465.00
1237.852, 16551.00
1238.930, 16410.00
1240.007, 16271.00
1241.085, 16464.00
1242.162, 16459.00
1243.239, 16377.00
1244.316, 16541.00
1245.393, 16342.00
1246.469, 16374.00
1247.546, 16584.00
1248.622, 16352.00
1249.698, 16352.00
1250.774, 16433.00
1251.850, 16375.00
1252.926, 16429.00
1254.001, 16358.00
1255.077, 16616.00
1256.152, 16357.00
1257.227, 16467.00
1258.302, 16547.00
1259.377, 16187.00
1260.451, 16377.00
1261.526, 16418.00
1262.600, 16684.00
1263.674, 16982.42
1264.748, 16635.00
1265.822, 16683.83
1266.896, 16439.00
1267.969, 16357.00
1269.043, 16417.00
1270.116, 16480.00
1271.189, 16400.00
1272.262, 16516.00
1273.335, 16504.00
1274.407, 16451.00
1275.480, 16420.00
1276.552, 16514.00
1277.624, 16413.00
1278.696, 16581.00
1279.768, 16429.00
1280.840, 16448.00
1281.911, 16478.00
1282.982, 16544.00
1284.054, 16389.00
1285.125, 16717.00
1286.196, 16568.00
1287.266, 16458.00
1288.337, 16579.00
1289.407, 16562.00
1290.478, 16467.00
1291.548, 16420.00
1292.618, 16522.00
1293.688, 16835.00
1294.757, 16718.00
1295.827, 16670.00
1296.896, 16898.00
1297.965, 16633.00
1299.034, 16647.00
1300.103, 16701.00
1301.172, 16633.00
1302.241, 16769.00
1303.309, 16694.00
1304.377, 16748.00
1305.445, 16906.00
1306.513, 16642.00
1307.581, 16917.00
1308.649, 16680.00
1309.716, 16718.00
1310.784, 16587.00
1311.851, 16791.00
1312.918, 16727.00
1313.985, 16515.00
1315.052, 16690.00
1316.118, 16623.00
1317.185, 16545.00
1318.251, 16905.00
1319.317, 16551.00
1320.383, 16544.00
1321.449, 16636.00
