##NAMES=Laverovite
##RRUFFID=R060216
##IDEAL CHEMISTRY=K_2_NaMn^2+^_7_Zr^4+^_2_(Si_4_O_12_)_2_O_2_(OH)_4_F
##LOCALITY=Desourdy Quarry, Mont Saint-Hilaire, Rouville County, Quebec, Canada
##OWNER=RRUFF
##SOURCE=Royal Ontario Museum
##DESCRIPTION=Brown fragment showing lamellar habit. Type sample
##STATUS=The identification of this mineral has been confirmed by X-ray diffraction and chemical analysis
##URL=rruff.info/R060216
##MEASURED CHEMISTRY=(K_1.74_Na_0.18_[box]_0.08_)_Σ=2_(Na_0.92_Ca_0.08_)_Σ=1_(Mn_4.09_Fe^2+^_2.67_Mg_0.24_)_Σ=7_(Zr_1.42_Ti_0.58_)_Σ=2_(Si_7.86_Al_0.14_)_Σ=8_O_26_((OH)_3.14_O_0.86_)_Σ=4_
##PIN_ID=L00587
##ORIENTATION=Laser parallel to -b* (0 -1 0). Fiducial mark perpendicular to laser is parallel to -c [0 0 -1]
159.7350, 20769.00
160.9660, 21374.00
162.1970, 22391.00
163.4270, 23062.00
164.6580, 23966.00
165.8880, 24170.00
167.1180, 24219.00
168.3480, 23851.00
169.5780, 23843.89
170.8080, 23519.15
172.0370, 23368.00
173.2670, 22864.00
174.4960, 22525.98
175.7250, 22185.00
176.9540, 21799.00
178.1820, 21570.00
179.4110, 21105.00
180.6390, 21036.00
181.8670, 20674.00
183.0950, 20786.00
184.3230, 20667.00
185.5500, 20952.00
186.7780, 20993.00
188.0050, 20571.00
189.2320, 20500.00
190.4590, 20582.00
191.6850, 20662.00
192.9120, 20613.00
194.1380, 20715.00
195.3650, 20985.00
196.5910, 21049.00
197.8160, 21231.00
199.0420, 21390.00
200.2680, 21957.00
201.4930, 22932.00
202.7180, 22883.00
203.9430, 21335.00
205.1680, 19203.00
206.3930, 18573.00
207.6170, 18137.00
208.8410, 17952.00
210.0660, 18131.00
211.2890, 18345.00
212.5130, 18613.00
213.7370, 18688.14
214.9600, 19020.00
216.1840, 18827.00
217.4070, 18920.00
218.6300, 18905.00
219.8520, 19273.00
221.0750, 19224.00
222.2970, 19466.00
223.5200, 19432.00
224.7420, 19578.00
225.9640, 19800.00
227.1850, 19977.00
228.4070, 20143.22
229.6280, 20307.54
230.8490, 20471.00
232.0700, 20557.00
233.2910, 20697.00
234.5120, 20740.00
235.7320, 20835.38
236.9530, 21001.00
238.1730, 20974.00
239.3930, 20815.00
240.6130, 20854.00
241.8320, 20658.00
243.0520, 20599.00
244.2710, 20651.00
245.4900, 20448.00
246.7090, 20242.00
247.9280, 20277.00
249.1470, 20023.00
250.3650, 20096.00
251.5840, 19901.00
252.8020, 20172.00
254.0200, 19681.88
255.2370, 19907.69
256.4550, 20018.13
257.6720, 20019.46
258.8900, 19584.73
260.1070, 19713.08
261.3240, 19615.78
262.5400, 19509.26
263.7570, 19716.85
264.9730, 19529.00
266.1900, 19387.00
267.4060, 19160.00
268.6220, 19147.94
269.8370, 19095.00
271.0530, 18981.00
272.2680, 18876.00
273.4830, 18655.00
274.6980, 18834.00
275.9130, 18945.00
277.1280, 18920.00
278.3420, 18835.00
279.5570, 18810.00
280.7710, 18825.00
281.9850, 18746.59
283.1990, 18800.80
284.4120, 18681.00
285.6260, 18851.00
286.8390, 18912.00
288.0520, 18884.00
289.2650, 18944.00
290.4780, 18895.00
291.6910, 18945.00
292.9030, 19089.00
294.1160, 18921.00
295.3280, 19009.00
296.5400, 18963.00
297.7510, 18824.00
298.9630, 19038.00
300.1740, 18688.00
301.3860, 18735.00
302.5970, 18736.00
303.8080, 18601.00
305.0180, 18491.00
306.2290, 18434.00
307.4390, 18070.00
308.6500, 18215.00
309.8600, 18351.00
311.0700, 18102.00
312.2790, 18224.00
313.4890, 17892.00
314.6980, 17926.00
315.9080, 17869.00
317.1170, 18150.00
318.3250, 17976.00
319.5340, 18009.00
320.7430, 18091.00
321.9510, 18148.00
323.1590, 18142.86
324.3670, 18169.66
325.5750, 18188.00
326.7830, 18241.85
327.9900, 18323.00
329.1980, 18363.00
330.4050, 18434.00
331.6120, 18477.00
332.8190, 18592.48
334.0250, 18816.00
335.2320, 18836.00
336.4380, 19080.00
337.6440, 19215.00
338.8500, 18960.00
340.0560, 19362.00
341.2620, 19475.00
342.4670, 19499.00
343.6730, 19785.00
344.8780, 19626.00
346.0830, 19690.00
347.2870, 19841.00
348.4920, 19998.00
349.6970, 19908.00
350.9010, 20204.00
352.1050, 19966.00
353.3090, 20294.00
354.5130, 20508.00
355.7160, 20636.00
356.9200, 20363.00
358.1230, 20958.00
359.3260, 20891.00
360.5290, 20567.00
361.7320, 20960.00
362.9340, 20920.00
364.1370, 20913.00
365.3390, 20876.00
366.5410, 20759.00
367.7430, 20674.00
368.9450, 20558.00
370.1460, 20524.14
371.3480, 20436.26
372.5490, 20479.00
373.7500, 20339.00
374.9510, 20331.00
376.1520, 20354.00
377.3520, 20074.00
378.5520, 20116.00
379.7530, 19924.00
380.9530, 19777.00
382.1530, 19843.00
383.3520, 19582.00
384.5520, 19454.00
385.7510, 19504.00
386.9500, 19499.00
388.1490, 19304.00
389.3480, 19168.00
390.5470, 19353.00
391.7450, 19105.00
392.9440, 19349.00
394.1420, 19072.00
395.3400, 19099.00
396.5380, 19109.00
397.7350, 19230.00
398.9330, 19097.00
400.1300, 19225.00
401.3270, 18857.00
402.5240, 18847.00
403.7210, 18883.00
404.9180, 19013.00
406.1140, 18560.00
407.3110, 18567.00
408.5070, 18377.00
409.7030, 18421.00
410.8990, 18373.00
412.0940, 18447.00
413.2900, 18428.00
414.4850, 18462.00
415.6800, 18532.00
416.8750, 18449.00
418.0700, 18475.00
419.2650, 18569.00
420.4590, 18472.79
421.6530, 18478.00
422.8470, 18357.00
424.0410, 18366.00
425.2350, 18280.00
426.4290, 18153.00
427.6220, 17996.00
428.8160, 18082.00
430.0090, 17656.00
431.2020, 17520.00
432.3940, 17658.00
433.5870, 17418.00
434.7790, 17512.00
435.9720, 17450.00
437.1640, 17231.00
438.3560, 17317.00
439.5470, 17088.00
440.7390, 17166.00
441.9300, 17220.00
443.1220, 17130.00
444.3130, 17116.00
445.5040, 17129.00
446.6940, 16907.00
447.8850, 17150.00
449.0750, 17369.00
450.2660, 17049.00
451.4560, 17095.00
452.6460, 17297.00
453.8350, 17222.00
455.0250, 17311.00
456.2140, 17247.00
457.4040, 17385.00
458.5930, 17543.00
459.7820, 17749.00
460.9700, 17629.00
462.1590, 17772.00
463.3470, 17841.00
464.5350, 17804.00
465.7240, 17997.00
466.9110, 17890.00
468.0990, 17864.00
469.2870, 18052.00
470.4740, 18055.00
471.6610, 18137.00
472.8480, 18253.00
474.0350, 18306.00
475.2220, 18591.00
476.4090, 18492.00
477.5950, 18059.00
478.7810, 18409.00
479.9670, 18205.00
481.1530, 18180.00
482.3390, 18381.00
483.5240, 18384.00
484.7100, 18254.00
485.8950, 18233.00
487.0800, 18235.00
488.2650, 18377.00
489.4490, 18357.00
490.6340, 18222.00
491.8180, 18329.00
493.0030, 18160.00
494.1870, 18226.88
495.3700, 18346.00
496.5540, 18231.00
497.7380, 18235.00
498.9210, 18070.00
500.1040, 18163.00
501.2870, 17932.00
502.4700, 17971.00
503.6530, 18065.00
504.8350, 17972.00
506.0180, 18011.00
507.2000, 18045.00
508.3820, 17901.00
509.5640, 18042.00
510.7450, 17996.00
511.9270, 18096.00
513.1080, 17986.00
514.2890, 17981.00
515.4700, 17992.00
516.6510, 18155.00
517.8320, 18077.00
519.0130, 17970.00
520.1930, 18175.00
521.3730, 18179.00
522.5530, 18126.00
523.7330, 18187.00
524.9130, 18194.56
526.0920, 18225.09
527.2710, 18315.00
528.4510, 18264.00
529.6300, 18410.00
530.8080, 18329.00
531.9870, 18323.00
533.1660, 18271.00
534.3440, 18336.83
535.5220, 18631.00
536.7000, 18557.00
537.8780, 18788.00
539.0560, 19027.00
540.2330, 18965.00
541.4110, 19329.00
542.5880, 19591.00
543.7650, 19669.00
544.9420, 19939.90
546.1180, 20053.00
547.2950, 20403.00
548.4710, 20734.00
549.6470, 21243.00
550.8230, 21277.00
551.9990, 21876.00
553.1750, 22133.00
554.3500, 22152.00
555.5260, 22459.55
556.7010, 22506.00
557.8760, 22604.00
559.0510, 22629.00
560.2250, 22524.00
561.4000, 22517.00
562.5740, 22188.00
563.7480, 22125.00
564.9220, 21745.00
566.0960, 21663.00
567.2700, 21642.00
568.4430, 21375.00
569.6170, 21115.00
570.7900, 21076.00
571.9630, 20867.00
573.1360, 20587.66
574.3080, 20795.30
575.4810, 20887.54
576.6530, 20870.69
577.8250, 20417.82
578.9980, 20527.94
580.1690, 20412.51
581.3410, 20287.78
582.5130, 21082.00
583.6840, 20646.00
584.8550, 20842.00
586.0260, 20968.00
587.1970, 20825.00
588.3680, 21046.00
589.5380, 20979.00
590.7080, 20914.00
591.8790, 21274.00
593.0490, 21308.00
594.2190, 21224.00
595.3880, 21332.00
596.5580, 21191.00
597.7270, 21369.00
598.8960, 21287.00
600.0650, 21300.00
601.2340, 21442.00
602.4030, 21284.00
603.5710, 21449.00
604.7400, 21404.00
605.9080, 21524.00
607.0760, 21647.00
608.2440, 21683.00
609.4120, 21716.00
610.5790, 21662.00
611.7460, 21826.00
612.9140, 21755.00
614.0810, 22037.00
615.2480, 22083.00
616.4140, 22195.00
617.5810, 22313.00
618.7470, 22410.00
619.9130, 22540.00
621.0790, 22733.00
622.2450, 22671.00
623.4110, 22869.00
624.5770, 22842.00
625.7420, 23093.00
626.9070, 23451.00
628.0720, 23548.00
629.2370, 23804.00
630.4020, 24070.00
631.5660, 24227.00
632.7310, 25038.00
633.8950, 25416.00
635.0590, 25762.00
636.2230, 25208.00
637.3870, 25686.00
638.5500, 26138.00
639.7140, 26660.00
640.8770, 27336.00
642.0400, 28091.00
643.2030, 28783.00
644.3660, 29558.00
645.5280, 30764.00
646.6910, 32015.00
647.8530, 32848.00
649.0150, 33839.00
650.1770, 34678.00
651.3390, 35153.00
652.5000, 35125.00
653.6620, 35475.00
654.8230, 34517.68
655.9840, 34577.00
657.1450, 32365.00
658.3060, 31361.00
659.4660, 30406.00
660.6270, 29593.00
661.7870, 28817.00
662.9470, 28047.00
664.1070, 27651.00
665.2670, 27102.00
666.4260, 26967.00
667.5860, 26775.00
668.7450, 26683.00
669.9040, 26590.00
671.0630, 26785.00
672.2220, 26825.00
673.3800, 27099.00
674.5390, 27344.00
675.6970, 27508.00
676.8550, 27378.00
678.0130, 27720.00
679.1710, 27908.00
680.3290, 28377.00
681.4860, 28632.00
682.6430, 29121.00
683.8000, 29143.00
684.9570, 29400.00
686.1140, 29767.00
687.2710, 30175.00
688.4270, 30178.00
689.5840, 30840.00
690.7400, 30763.00
691.8960, 30821.00
693.0520, 31101.00
694.2070, 31148.80
695.3630, 31490.00
696.5180, 31538.00
697.6730, 31674.00
698.8280, 31955.00
699.9830, 32249.00
701.1380, 31853.00
702.2920, 32195.00
703.4470, 31930.00
704.6010, 32037.00
705.7550, 32359.00
706.9090, 33036.00
708.0620, 32366.00
709.2160, 32604.00
710.3690, 32574.00
711.5220, 32457.00
712.6750, 32549.00
713.8280, 32357.00
714.9810, 32556.00
716.1340, 32414.00
717.2860, 32175.00
718.4380, 32194.00
719.5900, 32153.00
720.7420, 31807.00
721.8940, 31553.00
723.0450, 31163.00
724.1970, 30869.35
725.3480, 30684.00
726.4990, 30333.00
727.6500, 30142.59
728.8010, 29851.00
729.9510, 29697.00
731.1020, 29376.59
732.2520, 29116.90
733.4020, 28758.00
734.5520, 28454.00
735.7020, 28169.65
736.8510, 27767.00
738.0010, 27623.00
739.1500, 27429.00
740.2990, 27225.00
741.4480, 27150.00
742.5970, 26773.00
743.7450, 26697.00
744.8940, 26425.00
746.0420, 26469.00
747.1900, 26451.00
748.3380, 26385.00
749.4860, 26142.00
750.6330, 27235.00
751.7810, 27386.00
752.9280, 26926.00
754.0750, 26098.00
755.2220, 26165.00
756.3690, 25870.00
757.5160, 26054.00
758.6620, 25856.00
759.8090, 25678.00
760.9550, 25920.00
762.1010, 25694.00
763.2470, 25470.00
764.3920, 25538.00
765.5380, 25066.00
766.6830, 24894.00
767.8280, 24730.00
768.9730, 24631.00
770.1180, 24382.00
771.2630, 24162.00
772.4070, 23756.00
773.5520, 23709.00
774.6960, 23696.00
775.8400, 23226.00
776.9840, 23194.00
778.1280, 23034.00
779.2710, 22874.00
780.4140, 22922.00
781.5580, 22798.00
782.7010, 22673.00
783.8440, 22584.00
784.9860, 22448.00
786.1290, 22323.00
787.2710, 22141.00
788.4140, 22041.00
789.5560, 21974.00
790.6980, 21842.00
791.8390, 21839.00
792.9810, 21707.00
794.1220, 21607.00
795.2640, 21433.00
796.4050, 21472.00
797.5460, 21097.00
798.6860, 21258.00
799.8270, 21095.00
800.9680, 20917.00
802.1080, 20993.00
803.2480, 20811.00
804.3880, 20683.00
805.5280, 20624.00
806.6670, 20543.00
807.8070, 20345.00
808.9460, 20432.00
810.0850, 20454.00
811.2240, 20366.00
812.3630, 20483.00
813.5020, 20129.00
814.6400, 20106.00
815.7790, 20147.00
816.9170, 20146.00
818.0550, 20092.00
819.1930, 20081.67
820.3300, 20067.88
821.4680, 20012.00
822.6050, 20012.00
823.7430, 20025.00
824.8800, 19923.00
826.0170, 20018.00
827.1530, 20002.00
828.2900, 19889.00
829.4260, 19946.00
830.5620, 19826.00
831.6990, 20016.00
832.8340, 19948.00
833.9700, 19931.00
835.1060, 20299.00
836.2410, 20197.00
837.3760, 20172.00
838.5120, 19980.00
839.6470, 20009.00
840.7810, 20089.00
841.9160, 20277.00
843.0500, 20235.53
844.1850, 20244.00
845.3190, 20193.00
846.4530, 20239.00
847.5870, 20130.00
848.7200, 20369.00
849.8540, 20388.00
850.9870, 20735.00
852.1200, 20903.00
853.2530, 20742.00
854.3860, 20541.00
855.5190, 20759.00
856.6510, 20923.00
857.7840, 20715.00
858.9160, 20973.48
860.0480, 20912.27
861.1800, 21168.00
862.3110, 21115.00
863.4430, 21123.00
864.5740, 21633.00
865.7060, 21469.00
866.8370, 21625.00
867.9680, 21607.00
869.0980, 21683.00
870.2290, 21910.00
871.3590, 22052.00
872.4900, 22393.00
873.6200, 22448.00
874.7500, 22387.00
875.8790, 22335.00
877.0090, 22696.00
878.1380, 22698.00
879.2680, 22720.00
880.3970, 22905.00
881.5260, 22888.00
882.6550, 23273.00
883.7830, 23173.00
884.9120, 23426.00
886.0400, 23545.00
887.1680, 23723.00
888.2960, 23739.00
889.4240, 23904.00
890.5520, 24043.00
891.6790, 24105.00
892.8070, 24207.00
893.9340, 24371.00
895.0610, 24525.00
896.1880, 24576.00
897.3140, 24822.00
898.4410, 24853.00
899.5670, 25092.00
900.6940, 25013.00
901.8200, 25263.00
902.9450, 25366.33
904.0710, 25515.90
905.1970, 25659.00
906.3220, 25885.00
907.4470, 26056.26
908.5730, 26206.00
909.6980, 26330.00
910.8220, 26361.00
911.9470, 26427.36
913.0710, 26364.00
914.1960, 26509.00
915.3200, 26469.00
916.4440, 26611.00
917.5680, 26766.00
918.6910, 26713.00
919.8150, 26947.00
920.9380, 26866.00
922.0610, 27081.00
923.1840, 26815.00
924.3070, 26832.00
925.4300, 26676.00
926.5520, 26745.00
927.6750, 26692.00
928.7970, 26629.44
929.9190, 26559.00
931.0410, 26561.00
932.1630, 26552.00
933.2840, 26586.00
934.4060, 26429.00
935.5270, 26452.00
936.6480, 26496.00
937.7690, 26285.00
938.8900, 26466.00
940.0100, 26554.00
941.1310, 26290.00
942.2510, 26268.00
943.3710, 26300.00
944.4910, 26267.00
945.6110, 26272.00
946.7310, 26194.00
947.8500, 26341.00
948.9690, 26076.00
950.0890, 26190.00
951.2080, 25748.00
952.3260, 25884.00
953.4450, 25568.00
954.5640, 25388.00
955.6820, 25306.00
956.8000, 25113.00
957.9180, 24951.00
959.0360, 24587.00
960.1540, 24549.00
961.2710, 24473.00
962.3890, 23971.00
963.5060, 23882.00
964.6230, 23744.00
965.7400, 23579.00
966.8570, 23331.00
967.9730, 23509.00
969.0900, 23289.00
970.2060, 23315.00
971.3220, 23135.00
972.4380, 23043.00
973.5540, 23240.00
974.6700, 23225.00
975.7850, 23141.00
976.9010, 23242.00
978.0160, 23359.00
979.1310, 23196.00
980.2460, 23345.00
981.3600, 23259.00
982.4750, 23174.00
983.5890, 23219.00
984.7030, 23482.00
985.8170, 23535.00
986.9310, 23639.00
988.0450, 23663.00
989.1590, 23791.19
990.2720, 23940.20
991.3850, 24036.04
992.4980, 24113.00
993.6110, 24248.00
994.7240, 24396.00
995.8370, 24545.43
996.9490, 24753.88
998.0620, 24899.00
999.1740, 25162.00
1000.286, 25352.00
1001.398, 25481.00
1002.509, 25636.00
1003.621, 25819.00
1004.732, 26043.62
1005.843, 26370.39
1006.954, 26559.00
1008.065, 27084.00
1009.176, 27387.00
1010.286, 27682.93
1011.397, 28221.00
1012.507, 28507.00
1013.617, 29105.00
1014.727, 29608.00
1015.837, 30041.00
1016.946, 30000.00
1018.056, 30852.00
1019.165, 31599.00
1020.274, 31593.00
1021.383, 32409.00
1022.492, 32499.00
1023.601, 33203.00
1024.709, 33739.00
1025.817, 33805.00
1026.926, 34014.00
1028.034, 34276.00
1029.141, 34168.00
1030.249, 34243.00
1031.357, 34119.00
1032.464, 33748.00
1033.571, 33440.00
1034.678, 33030.00
1035.785, 32496.00
1036.892, 31979.57
1037.999, 31422.08
1039.105, 30815.00
1040.211, 30224.00
1041.317, 29761.00
1042.423, 29157.00
1043.529, 28675.62
1044.635, 28386.00
1045.740, 27920.00
1046.845, 27620.17
1047.951, 27307.00
1049.056, 27028.00
1050.160, 26775.27
1051.265, 26535.04
1052.370, 26308.00
1053.474, 26139.00
1054.578, 25925.00
1055.682, 25796.29
1056.786, 25844.00
1057.890, 25520.00
1058.993, 25520.00
1060.097, 25474.00
1061.200, 25257.00
1062.303, 25428.00
1063.406, 25314.00
1064.509, 25617.00
1065.612, 25393.00
1066.714, 25104.00
1067.816, 25313.00
1068.919, 25366.00
1070.021, 25196.00
1071.122, 25252.00
1072.224, 25017.00
1073.326, 25151.00
1074.427, 25208.00
1075.528, 25185.00
1076.629, 25125.96
1077.730, 25090.47
1078.831, 24908.00
1079.931, 24901.00
1081.032, 24888.00
1082.132, 24723.00
1083.232, 24516.00
1084.332, 24333.00
1085.432, 24380.00
1086.531, 24387.00
1087.631, 24498.00
1088.730, 24151.00
1089.829, 24271.00
1090.928, 23852.00
1092.027, 23859.00
1093.126, 24009.00
1094.224, 23783.00
1095.323, 23667.00
1096.421, 23687.00
1097.519, 23590.00
1098.617, 23735.00
1099.715, 23327.00
1100.812, 23422.00
1101.910, 23347.25
1103.007, 23148.00
1104.104, 23200.00
1105.201, 23219.00
1106.298, 22966.00
1107.394, 23303.00
1108.491, 23046.00
1109.587, 22784.00
1110.683, 22767.00
1111.779, 22689.00
1112.875, 22914.00
1113.971, 22763.00
1115.066, 23042.00
1116.162, 22760.00
1117.257, 22805.00
1118.352, 22670.00
1119.447, 22708.00
1120.542, 22693.83
1121.636, 22802.00
1122.731, 22645.00
1123.825, 22710.00
1124.919, 22564.00
1126.013, 22475.00
1127.107, 22534.00
1128.200, 22595.00
1129.294, 22543.00
1130.387, 22694.00
1131.480, 22562.00
1132.573, 22540.00
1133.666, 22394.00
1134.759, 22495.00
1135.851, 22584.00
1136.944, 22367.00
1138.036, 22391.00
1139.128, 22656.00
1140.220, 22450.00
1141.312, 22369.00
1142.403, 22314.00
1143.495, 22448.00
1144.586, 22454.00
1145.677, 22549.00
1146.768, 22468.00
1147.859, 22419.00
1148.950, 22442.00
1150.040, 22422.00
1151.130, 22403.00
1152.221, 22625.00
1153.311, 22396.00
1154.401, 22284.00
1155.490, 22547.00
1156.580, 22542.00
1157.669, 22298.00
1158.759, 22554.00
1159.848, 22283.00
1160.937, 22491.00
1162.025, 22334.00
1163.114, 22487.00
1164.202, 22324.00
1165.291, 22450.00
1166.379, 22530.00
1167.467, 22495.00
1168.555, 22413.00
1169.642, 22545.00
1170.730, 22534.00
1171.817, 22429.00
1172.905, 22420.00
1173.992, 22488.00
1175.078, 22445.00
1176.165, 22624.00
1177.252, 22431.00
1178.338, 22393.00
1179.425, 22524.00
1180.511, 22434.00
1181.597, 22578.00
1182.682, 22421.00
1183.768, 22679.00
1184.854, 22364.00
1185.939, 22542.00
1187.024, 22566.00
1188.109, 22581.00
1189.194, 22608.00
1190.279, 22522.00
1191.363, 22476.00
1192.448, 22397.00
1193.532, 22389.90
1194.616, 22370.00
1195.700, 22399.00
1196.784, 22356.00
1197.867, 22381.00
1198.951, 22457.00
1200.034, 22433.39
1201.117, 22450.00
1202.200, 22436.00
1203.283, 22609.00
1204.366, 22579.00
1205.448, 22600.00
1206.531, 22470.00
1207.613, 22498.00
1208.695, 22631.00
1209.777, 22462.00
1210.859, 22582.00
1211.940, 22406.00
1213.022, 22717.00
1214.103, 22607.00
1215.184, 22427.00
1216.265, 22746.00
1217.346, 22512.00
1218.427, 22756.00
1219.507, 22593.00
1220.587, 22538.00
1221.668, 22708.00
1222.748, 22656.00
1223.828, 22540.00
1224.907, 22749.00
1225.987, 22587.00
1227.066, 22919.00
1228.146, 22747.00
1229.225, 22799.00
1230.304, 22571.00
1231.382, 22920.00
1232.461, 22783.00
1233.540, 22884.00
1234.618, 22742.00
1235.696, 22742.00
1236.774, 22631.00
1237.852, 22697.00
1238.930, 22700.87
1240.007, 22630.00
1241.085, 22784.00
1242.162, 22811.00
1243.239, 22828.00
1244.316, 22768.00
1245.393, 22805.00
1246.469, 22983.00
1247.546, 22706.00
1248.622, 22858.00
1249.698, 22699.00
1250.774, 22922.00
1251.850, 22919.00
1252.926, 22992.00
1254.001, 23066.49
1255.077, 22737.00
1256.152, 23074.00
1257.227, 22946.00
1258.302, 22793.00
1259.377, 22980.00
1260.451, 22965.00
1261.526, 22964.00
1262.600, 23020.00
1263.674, 22817.00
1264.748, 22908.00
1265.822, 22869.00
1266.896, 22919.00
1267.969, 23124.00
1269.043, 22999.00
1270.116, 23175.00
1271.189, 23142.00
1272.262, 23097.00
1273.335, 23188.00
1274.407, 23160.00
1275.480, 22995.00
1276.552, 23012.00
1277.624, 23062.00
1278.696, 22970.00
1279.768, 22971.36
1280.840, 23025.85
1281.911, 22977.00
1282.982, 23057.00
1284.054, 23050.07
1285.125, 23119.00
1286.196, 23066.00
1287.266, 23085.00
1288.337, 23078.00
1289.407, 23101.93
1290.478, 23113.96
1291.548, 23190.00
1292.618, 23136.00
1293.688, 23194.00
1294.757, 23181.87
1295.827, 23111.00
1296.896, 23191.00
1297.965, 23317.00
1299.034, 23186.00
1300.103, 23267.00
1301.172, 23505.00
1302.241, 23373.00
1303.309, 23294.00
1304.377, 23387.00
1305.445, 23296.00
1306.513, 23243.00
1307.581, 23222.00
1308.649, 23254.00
1309.716, 23193.00
1310.784, 23422.00
1311.851, 23250.00
1312.918, 23438.00
1313.985, 23386.00
1315.052, 23211.00
1316.118, 23207.00
1317.185, 23459.00
1318.251, 23463.00
1319.317, 23321.00
1320.383, 23343.00
