##NAMES=Laverovite
##RRUFFID=R060216
##IDEAL CHEMISTRY=K_2_NaMn^2+^_7_Zr^4+^_2_(Si_4_O_12_)_2_O_2_(OH)_4_F
##LOCALITY=Desourdy Quarry, Mont Saint-Hilaire, Rouville County, Quebec, Canada
##OWNER=RRUFF
##SOURCE=Royal Ontario Museum
##DESCRIPTION=Brown fragment showing lamellar habit. Type sample
##STATUS=The identification of this mineral has been confirmed by X-ray diffraction and chemical analysis
##URL=rruff.info/R060216
##MEASURED CHEMISTRY=(K_1.74_Na_0.18_[box]_0.08_)_Σ=2_(Na_0.92_Ca_0.08_)_Σ=1_(Mn_4.09_Fe^2+^_2.67_Mg_0.24_)_Σ=7_(Zr_1.42_Ti_0.58_)_Σ=2_(Si_7.86_Al_0.14_)_Σ=8_O_26_((OH)_3.14_O_0.86_)_Σ=4_
##PIN_ID=L01980
##ORIENTATION=Laser parallel to (1 1 0). Fiducial mark perpendicular to laser is parallel to c [0 0 1]
116.5390, 27478.00
117.7770, 27345.00
119.0130, 26993.00
120.2500, 26788.00
121.4870, 27495.00
122.7230, 28183.00
123.9590, 28339.00
125.1950, 28198.00
126.4310, 28515.00
127.6670, 28853.00
128.9030, 29249.00
130.1380, 29723.00
131.3730, 30192.00
132.6080, 30294.00
133.8430, 30864.00
135.0780, 31537.00
136.3120, 32386.00
137.5470, 33783.00
138.7810, 35246.00
140.0150, 36119.00
141.2480, 36982.30
142.4820, 37064.00
143.7160, 37947.00
144.9490, 37819.00
146.1820, 37775.00
147.4150, 36589.00
148.6480, 36350.00
149.8800, 34923.00
151.1130, 34175.00
152.3450, 33621.00
153.5770, 32833.00
154.8090, 32682.00
156.0410, 32368.00
157.2720, 31929.00
158.5040, 32308.00
159.7350, 32322.00
160.9660, 32610.00
162.1970, 33326.00
163.4270, 33843.00
164.6580, 34159.00
165.8880, 34334.00
167.1180, 34154.00
168.3480, 33809.00
169.5780, 33424.00
170.8080, 33096.00
172.0370, 32271.00
173.2670, 31309.00
174.4960, 30703.00
175.7250, 30330.00
176.9540, 29592.00
178.1820, 29218.00
179.4110, 28935.00
180.6390, 28269.00
181.8670, 27868.00
183.0950, 27612.00
184.3230, 27490.00
185.5500, 27553.00
186.7780, 27451.00
188.0050, 27228.00
189.2320, 27157.00
190.4590, 27569.00
191.6850, 27393.00
192.9120, 27614.00
194.1380, 28068.00
195.3650, 28074.00
196.5910, 28155.00
197.8160, 28438.00
199.0420, 28665.00
200.2680, 29239.00
201.4930, 29785.00
202.7180, 29793.00
203.9430, 29188.00
205.1680, 28624.00
206.3930, 28225.00
207.6170, 28276.00
208.8410, 28224.00
210.0660, 28315.00
211.2890, 28354.00
212.5130, 28963.00
213.7370, 28948.00
214.9600, 29212.00
216.1840, 29190.00
217.4070, 28867.00
218.6300, 28954.00
219.8520, 28915.00
221.0750, 28846.00
222.2970, 29047.00
223.5200, 28847.00
224.7420, 29067.00
225.9640, 28852.00
227.1850, 29115.00
228.4070, 29239.00
229.6280, 29234.00
230.8490, 29432.00
232.0700, 29367.00
233.2910, 29493.00
234.5120, 29299.00
235.7320, 29446.00
236.9530, 29715.00
238.1730, 29714.00
239.3930, 29606.00
240.6130, 29570.00
241.8320, 29526.00
243.0520, 29805.00
244.2710, 29492.00
245.4900, 29642.00
246.7090, 29700.00
247.9280, 29603.00
249.1470, 29611.70
250.3650, 29320.00
251.5840, 29465.00
252.8020, 29298.00
254.0200, 29270.00
255.2370, 29319.00
256.4550, 28684.00
257.6720, 28968.73
258.8900, 29093.26
260.1070, 29066.34
261.3240, 28434.07
262.5400, 28583.55
263.7570, 28419.70
264.9730, 28039.00
266.1900, 27932.00
267.4060, 27678.00
268.6220, 27741.00
269.8370, 27572.00
271.0530, 27471.00
272.2680, 27415.00
273.4830, 27346.16
274.6980, 27308.00
275.9130, 27269.00
277.1280, 27337.00
278.3420, 27250.00
279.5570, 27246.69
280.7710, 27159.00
281.9850, 27222.00
283.1990, 27264.00
284.4120, 27350.91
285.6260, 27387.28
286.8390, 27487.00
288.0520, 27520.00
289.2650, 27618.00
290.4780, 27779.00
291.6910, 27801.00
292.9030, 27750.00
294.1160, 28072.00
295.3280, 27666.00
296.5400, 28042.00
297.7510, 27833.00
298.9630, 27825.00
300.1740, 27823.00
301.3860, 27714.00
302.5970, 27721.00
303.8080, 27525.00
305.0180, 27491.00
306.2290, 27394.96
307.4390, 27393.59
308.6500, 27260.00
309.8600, 27351.00
311.0700, 27400.00
312.2790, 27144.00
313.4890, 27319.00
314.6980, 27137.13
315.9080, 27036.00
317.1170, 26991.00
318.3250, 26973.53
319.5340, 27212.00
320.7430, 27110.00
321.9510, 27261.00
323.1590, 27456.00
324.3670, 27529.00
325.5750, 27633.00
326.7830, 27893.78
327.9900, 28116.00
329.1980, 28441.00
330.4050, 28503.00
331.6120, 28838.45
332.8190, 29170.00
334.0250, 29557.00
335.2320, 29669.00
336.4380, 29829.00
337.6440, 30497.00
338.8500, 30804.00
340.0560, 30838.00
341.2620, 30962.00
342.4670, 31191.00
343.6730, 31214.00
344.8780, 31460.00
346.0830, 31506.00
347.2870, 31592.00
348.4920, 31552.37
349.6970, 31423.00
350.9010, 31276.00
352.1050, 31183.00
353.3090, 30892.00
354.5130, 30664.00
355.7160, 30272.00
356.9200, 30088.00
358.1230, 30103.00
359.3260, 29751.00
360.5290, 29705.00
361.7320, 29219.00
362.9340, 29106.00
364.1370, 29017.00
365.3390, 28856.00
366.5410, 28534.00
367.7430, 28256.00
368.9450, 28270.00
370.1460, 28048.00
371.3480, 28007.29
372.5490, 27870.00
373.7500, 27830.00
374.9510, 27759.00
376.1520, 27710.71
377.3520, 27633.61
378.5520, 27622.00
379.7530, 27461.00
380.9530, 27337.00
382.1530, 27219.00
383.3520, 27205.00
384.5520, 26995.00
385.7510, 26949.00
386.9500, 26965.00
388.1490, 26759.00
389.3480, 26752.00
390.5470, 26646.00
391.7450, 26566.45
392.9440, 26644.00
394.1420, 26398.00
395.3400, 26258.00
396.5380, 26059.00
397.7350, 26177.00
398.9330, 25886.00
400.1300, 25954.00
401.3270, 25791.00
402.5240, 25694.00
403.7210, 25565.00
404.9180, 25436.00
406.1140, 25266.00
407.3110, 25339.00
408.5070, 25190.00
409.7030, 25261.00
410.8990, 25030.00
412.0940, 25075.94
413.2900, 25092.69
414.4850, 25105.00
415.6800, 25120.00
416.8750, 25108.88
418.0700, 25038.00
419.2650, 25091.00
420.4590, 25087.00
421.6530, 25103.00
422.8470, 25176.00
424.0410, 24929.00
425.2350, 24554.00
426.4290, 24626.00
427.6220, 24657.00
428.8160, 24292.00
430.0090, 24307.00
431.2020, 24024.00
432.3940, 24321.00
433.5870, 24076.00
434.7790, 23954.00
435.9720, 23762.00
437.1640, 23681.00
438.3560, 23671.00
439.5470, 23628.00
440.7390, 23675.00
441.9300, 23624.00
443.1220, 23522.00
444.3130, 23568.16
445.5040, 23521.14
446.6940, 23571.00
447.8850, 23521.00
449.0750, 23494.00
450.2660, 23501.00
451.4560, 23510.00
452.6460, 23575.00
453.8350, 23638.00
455.0250, 23589.00
456.2140, 23859.00
457.4040, 23808.00
458.5930, 24016.00
459.7820, 23891.00
460.9700, 24117.00
462.1590, 24128.00
463.3470, 24238.00
464.5350, 24237.55
465.7240, 23998.00
466.9110, 24139.00
468.0990, 24128.00
469.2870, 24028.00
470.4740, 24100.00
471.6610, 24225.00
472.8480, 23988.00
474.0350, 24301.00
475.2220, 24143.00
476.4090, 24389.00
477.5950, 24700.00
478.7810, 25119.00
479.9670, 24114.00
481.1530, 24371.00
482.3390, 24243.00
483.5240, 24249.00
484.7100, 24302.00
485.8950, 24189.00
487.0800, 24052.00
488.2650, 24301.00
489.4490, 24012.00
490.6340, 24225.00
491.8180, 24048.00
493.0030, 24125.00
494.1870, 24024.00
495.3700, 24221.00
496.5540, 23994.00
497.7380, 24117.00
498.9210, 24053.00
500.1040, 24300.00
501.2870, 24173.05
502.4700, 23987.00
503.6530, 24105.00
504.8350, 24081.00
506.0180, 24258.00
507.2000, 24166.00
508.3820, 24276.00
509.5640, 24172.00
510.7450, 24218.00
511.9270, 24162.00
513.1080, 24427.00
514.2890, 24335.79
515.4700, 24369.68
516.6510, 24338.00
517.8320, 24275.00
519.0130, 24323.00
520.1930, 24165.00
521.3730, 24092.00
522.5530, 24311.00
523.7330, 24465.00
524.9130, 24355.00
526.0920, 24546.00
527.2710, 24437.00
528.4510, 24593.00
529.6300, 24795.00
530.8080, 24699.00
531.9870, 24756.00
533.1660, 24809.00
534.3440, 24871.00
535.5220, 25139.00
536.7000, 25270.00
537.8780, 25509.00
539.0560, 25532.00
540.2330, 25775.00
541.4110, 25937.00
542.5880, 26174.00
543.7650, 26504.00
544.9420, 26908.00
546.1180, 26880.00
547.2950, 27492.00
548.4710, 27753.00
549.6470, 28281.00
550.8230, 28303.00
551.9990, 28958.00
553.1750, 29175.00
554.3500, 29233.00
555.5260, 29533.65
556.7010, 29415.00
557.8760, 29638.00
559.0510, 29509.00
560.2250, 29309.00
561.4000, 29379.00
562.5740, 29265.00
563.7480, 28991.00
564.9220, 28990.00
566.0960, 28781.00
567.2700, 28715.00
568.4430, 28621.00
569.6170, 28435.00
570.7900, 28129.00
571.9630, 28120.00
573.1360, 27968.00
574.3080, 28026.00
575.4810, 28133.00
576.6530, 27797.00
577.8250, 28145.00
578.9980, 27941.00
580.1690, 28019.00
581.3410, 28382.00
582.5130, 28594.00
583.6840, 28307.00
584.8550, 28554.00
586.0260, 28558.00
587.1970, 28438.00
588.3680, 28698.00
589.5380, 28896.00
590.7080, 28889.00
591.8790, 29067.00
593.0490, 29232.00
594.2190, 29489.00
595.3880, 29456.00
596.5580, 29663.00
597.7270, 29661.00
598.8960, 29501.00
600.0650, 29943.00
601.2340, 29934.00
602.4030, 29932.00
603.5710, 30295.00
604.7400, 30453.00
605.9080, 30488.00
607.0760, 30688.00
608.2440, 30816.00
609.4120, 30824.00
610.5790, 30994.00
611.7460, 31277.00
612.9140, 31354.00
614.0810, 31519.00
615.2480, 31719.00
616.4140, 32179.00
617.5810, 32428.00
618.7470, 32663.00
619.9130, 32785.00
621.0790, 33055.00
622.2450, 33342.00
623.4110, 33564.00
624.5770, 33783.00
625.7420, 34241.00
626.9070, 34592.00
628.0720, 34526.00
629.2370, 35017.00
630.4020, 35203.00
631.5660, 35614.00
632.7310, 36009.00
633.8950, 36394.00
635.0590, 36740.00
636.2230, 37174.00
637.3870, 37479.00
638.5500, 38115.00
639.7140, 38672.00
640.8770, 39217.33
642.0400, 40413.00
643.2030, 40546.00
644.3660, 41614.00
645.5280, 42528.00
646.6910, 43162.00
647.8530, 44221.00
649.0150, 44966.00
650.1770, 45303.00
651.3390, 45819.00
652.5000, 45355.00
653.6620, 45218.00
654.8230, 44752.00
655.9840, 44167.00
657.1450, 43774.00
658.3060, 42813.00
659.4660, 42448.00
660.6270, 41695.00
661.7870, 40882.00
662.9470, 40538.00
664.1070, 40355.00
665.2670, 40354.00
666.4260, 39924.00
667.5860, 39908.00
668.7450, 39875.00
669.9040, 39948.71
671.0630, 40372.00
672.2220, 40449.00
673.3800, 40785.00
674.5390, 41188.00
675.6970, 41365.00
676.8550, 41737.00
678.0130, 41805.00
679.1710, 42264.86
680.3290, 42850.00
681.4860, 43081.00
682.6430, 43576.00
683.8000, 43924.00
684.9570, 44075.00
686.1140, 44342.00
687.2710, 44717.00
688.4270, 44691.00
689.5840, 45126.00
690.7400, 45479.00
691.8960, 45934.00
693.0520, 45654.00
694.2070, 46083.00
695.3630, 46161.00
696.5180, 46281.00
697.6730, 46381.00
698.8280, 46665.00
699.9830, 46779.00
701.1380, 46738.00
702.2920, 47109.00
703.4470, 47017.00
704.6010, 47037.00
705.7550, 46980.00
706.9090, 46870.00
708.0620, 46868.28
709.2160, 46810.17
710.3690, 46751.00
711.5220, 46741.00
712.6750, 46605.00
713.8280, 46538.00
714.9810, 46375.00
716.1340, 45969.00
717.2860, 45682.00
718.4380, 45384.00
719.5900, 44814.00
720.7420, 44765.00
721.8940, 44645.00
723.0450, 44344.00
724.1970, 44438.00
725.3480, 43675.00
726.4990, 42910.00
727.6500, 42997.00
728.8010, 42451.00
729.9510, 41971.00
731.1020, 41301.00
732.2520, 41091.00
733.4020, 40558.00
734.5520, 40403.00
735.7020, 39969.00
736.8510, 39860.00
738.0010, 39686.00
739.1500, 39439.00
740.2990, 39168.00
741.4480, 39046.00
742.5970, 38759.00
743.7450, 38464.00
744.8940, 38520.00
746.0420, 38301.00
747.1900, 38029.00
748.3380, 38169.00
749.4860, 38031.00
750.6330, 37823.00
751.7810, 37972.00
752.9280, 37911.00
754.0750, 38034.00
755.2220, 37733.00
756.3690, 37549.00
757.5160, 37407.00
758.6620, 37329.00
759.8090, 37202.75
760.9550, 37148.00
762.1010, 37042.00
763.2470, 36848.00
764.3920, 36785.00
765.5380, 36514.00
766.6830, 36440.00
767.8280, 36478.00
768.9730, 35946.00
770.1180, 35702.00
771.2630, 35893.00
772.4070, 35612.00
773.5520, 35462.00
774.6960, 35355.00
775.8400, 35138.00
776.9840, 35258.00
778.1280, 35027.00
779.2710, 34724.00
780.4140, 35129.00
781.5580, 34648.00
782.7010, 34298.00
783.8440, 34232.00
784.9860, 34374.00
786.1290, 33730.00
787.2710, 33891.00
788.4140, 33672.00
789.5560, 33238.00
790.6980, 33147.00
791.8390, 33129.00
792.9810, 32850.00
794.1220, 32601.00
795.2640, 32142.00
796.4050, 32112.00
797.5460, 31873.00
798.6860, 31801.00
799.8270, 31212.00
800.9680, 31023.00
802.1080, 30846.00
803.2480, 30705.20
804.3880, 30515.46
805.5280, 30612.00
806.6670, 30264.00
807.8070, 29975.00
808.9460, 30046.00
810.0850, 29793.00
811.2240, 29703.00
812.3630, 29467.00
813.5020, 29431.00
814.6400, 29329.00
815.7790, 29253.74
816.9170, 29394.00
818.0550, 29169.00
819.1930, 29240.00
820.3300, 29188.00
821.4680, 28989.00
822.6050, 29163.00
823.7430, 28993.00
824.8800, 29005.00
826.0170, 28972.00
827.1530, 28749.00
828.2900, 28842.28
829.4260, 28782.00
830.5620, 28832.00
831.6990, 28794.00
832.8340, 28659.00
833.9700, 28746.00
835.1060, 28704.00
836.2410, 28764.00
837.3760, 28688.00
838.5120, 28626.00
839.6470, 28513.00
840.7810, 28711.00
841.9160, 28693.00
843.0500, 28777.00
844.1850, 28711.00
845.3190, 28769.99
846.4530, 28873.00
847.5870, 28848.00
848.7200, 28894.00
849.8540, 28954.00
850.9870, 28998.71
852.1200, 29167.00
853.2530, 29141.00
854.3860, 29209.00
855.5190, 29270.00
856.6510, 29535.00
857.7840, 29575.00
858.9160, 29770.00
860.0480, 29909.00
861.1800, 29842.00
862.3110, 30055.00
863.4430, 30172.00
864.5740, 30120.00
865.7060, 30359.00
866.8370, 30486.00
867.9680, 30697.00
869.0980, 30847.00
870.2290, 30819.00
871.3590, 31029.00
872.4900, 31410.00
873.6200, 31235.00
874.7500, 31952.00
875.8790, 32067.00
877.0090, 32002.00
878.1380, 32038.00
879.2680, 32181.00
880.3970, 32449.00
881.5260, 32774.00
882.6550, 33005.00
883.7830, 33118.00
884.9120, 33336.00
886.0400, 33524.00
887.1680, 33706.28
888.2960, 34105.00
889.4240, 34098.00
890.5520, 34359.00
891.6790, 34535.00
892.8070, 34610.00
893.9340, 34661.00
895.0610, 35026.00
896.1880, 35370.00
897.3140, 35458.00
898.4410, 35848.00
899.5670, 36127.00
900.6940, 36351.00
901.8200, 36689.00
902.9450, 36711.00
904.0710, 36898.00
905.1970, 37220.00
906.3220, 37517.00
907.4470, 37679.00
908.5730, 37885.00
909.6980, 38057.00
910.8220, 38303.00
911.9470, 38456.91
913.0710, 38636.56
914.1960, 38798.00
915.3200, 38968.00
916.4440, 39151.00
917.5680, 39335.00
918.6910, 39291.00
919.8150, 39268.00
920.9380, 39319.00
922.0610, 39458.00
923.1840, 39409.43
924.3070, 39425.00
925.4300, 39369.00
926.5520, 39365.00
927.6750, 39275.00
928.7970, 39351.00
929.9190, 39166.00
931.0410, 39221.00
932.1630, 39052.00
933.2840, 39049.00
934.4060, 39002.00
935.5270, 38802.00
936.6480, 38694.00
937.7690, 38466.00
938.8900, 38394.74
940.0100, 38318.44
941.1310, 38261.00
942.2510, 38266.00
943.3710, 38264.00
944.4910, 38296.00
945.6110, 38053.29
946.7310, 38176.00
947.8500, 37483.00
948.9690, 37449.00
950.0890, 37088.00
951.2080, 36906.00
952.3260, 36682.00
953.4450, 36421.45
954.5640, 36203.49
955.6820, 35907.00
956.8000, 35757.00
957.9180, 35374.00
959.0360, 35231.00
960.1540, 34957.00
961.2710, 34991.00
962.3890, 34549.00
963.5060, 34472.00
964.6230, 34098.00
965.7400, 34206.00
966.8570, 33991.00
967.9730, 33697.00
969.0900, 33763.00
970.2060, 33856.00
971.3220, 33573.00
972.4380, 33471.00
973.5540, 33442.00
974.6700, 33460.00
975.7850, 33360.00
976.9010, 33540.00
978.0160, 33542.00
979.1310, 33795.00
980.2460, 33725.00
981.3600, 33806.00
982.4750, 33949.00
983.5890, 33905.00
984.7030, 34105.00
985.8170, 34312.00
986.9310, 34457.00
988.0450, 34554.00
989.1590, 34765.00
990.2720, 35192.00
991.3850, 35346.00
992.4980, 35669.00
993.6110, 36201.00
994.7240, 35901.00
995.8370, 36639.00
996.9490, 36732.00
998.0620, 37040.00
999.1740, 37224.00
1000.286, 37882.00
1001.398, 38508.00
1002.509, 38679.00
1003.621, 39365.00
1004.732, 39616.00
1005.843, 40539.00
1006.954, 41161.00
1008.065, 42073.00
1009.176, 42678.00
1010.286, 43502.00
1011.397, 44056.00
1012.507, 44655.00
1013.617, 45728.00
1014.727, 46568.00
1015.837, 47644.00
1016.946, 48341.00
1018.056, 49522.00
1019.165, 50363.00
1020.274, 51142.00
1021.383, 52099.00
1022.492, 52621.00
1023.601, 52958.00
1024.709, 53686.00
1025.817, 54059.00
1026.926, 54042.00
1028.034, 54392.00
1029.141, 54731.00
1030.249, 54215.00
1031.357, 54305.00
1032.464, 53627.00
1033.571, 53033.00
1034.678, 52540.00
1035.785, 51471.00
1036.892, 50777.00
1037.999, 49857.00
1039.105, 48911.00
1040.211, 47969.00
1041.317, 47219.00
1042.423, 46025.00
1043.529, 45113.00
1044.635, 44523.00
1045.740, 43854.00
1046.845, 42852.00
1047.951, 42495.00
1049.056, 41776.00
1050.160, 41352.00
1051.265, 41030.00
1052.370, 40535.14
1053.474, 39973.00
1054.578, 39757.00
1055.682, 39312.00
1056.786, 38825.00
1057.890, 38523.00
1058.993, 38708.00
1060.097, 38966.00
1061.200, 38583.00
1062.303, 38097.00
1063.406, 37681.00
1064.509, 37673.00
1065.612, 37364.50
1066.714, 37623.00
1067.816, 37272.00
1068.919, 37199.00
1070.021, 37475.00
1071.122, 37183.00
1072.224, 37050.00
1073.326, 36987.00
1074.427, 37178.00
1075.528, 37000.00
1076.629, 36845.00
1077.730, 36959.00
1078.831, 36817.00
1079.931, 36627.00
1081.032, 36374.00
1082.132, 36507.00
1083.232, 36427.00
1084.332, 36482.00
1085.432, 36516.00
1086.531, 36226.00
1087.631, 36242.00
1088.730, 36209.00
1089.829, 35779.00
1090.928, 35513.00
1092.027, 35645.00
1093.126, 35328.00
1094.224, 35315.00
1095.323, 35223.00
1096.421, 34939.00
1097.519, 34877.00
1098.617, 34818.00
1099.715, 34793.00
1100.812, 34632.00
1101.910, 34472.00
1103.007, 34499.00
1104.104, 34265.00
1105.201, 34042.00
1106.298, 34182.00
1107.394, 33934.00
1108.491, 33964.00
1109.587, 33760.00
1110.683, 33629.00
1111.779, 33671.00
1112.875, 33911.00
1113.971, 33720.00
1115.066, 33784.00
1116.162, 33820.00
1117.257, 33603.00
1118.352, 33489.00
1119.447, 33489.00
1120.542, 33599.00
1121.636, 33570.74
1122.731, 33300.00
1123.825, 33589.00
1124.919, 33665.00
1126.013, 33514.93
1127.107, 33817.00
1128.200, 33651.00
1129.294, 33538.00
1130.387, 33408.00
1131.480, 33347.02
1132.573, 33435.00
1133.666, 33300.00
1134.759, 33352.00
1135.851, 33420.00
1136.944, 33408.00
1138.036, 33328.00
1139.128, 33425.00
1140.220, 33690.00
1141.312, 33352.00
1142.403, 33864.00
1143.495, 33512.00
1144.586, 33630.00
1145.677, 33590.00
1146.768, 33650.00
1147.859, 33425.00
1148.950, 33593.00
1150.040, 33636.00
1151.130, 33750.00
1152.221, 33505.00
1153.311, 33753.00
1154.401, 33881.00
1155.490, 33954.00
1156.580, 33625.00
1157.669, 33769.00
1158.759, 33880.00
1159.848, 33637.00
1160.937, 33758.00
1162.025, 33791.00
1163.114, 33825.00
1164.202, 33942.00
1165.291, 34071.00
1166.379, 33984.00
1167.467, 33861.00
1168.555, 34048.00
1169.642, 33959.00
1170.730, 34198.00
1171.817, 34212.00
1172.905, 34053.00
1173.992, 34205.00
1175.078, 34041.00
1176.165, 34082.00
1177.252, 34246.00
1178.338, 34049.00
1179.425, 34203.00
1180.511, 34248.00
1181.597, 34504.00
1182.682, 34441.00
1183.768, 34356.00
1184.854, 34366.00
1185.939, 34399.00
1187.024, 34241.00
1188.109, 34404.00
1189.194, 34351.00
1190.279, 34641.00
1191.363, 34553.00
1192.448, 34878.00
1193.532, 34637.00
1194.616, 34725.00
1195.700, 34794.97
1196.784, 34611.00
1197.867, 34750.00
1198.951, 34869.00
1200.034, 34575.00
1201.117, 34725.00
1202.200, 34703.00
1203.283, 34721.00
1204.366, 34659.00
1205.448, 34772.00
1206.531, 34918.00
1207.613, 34923.85
1208.695, 34977.00
1209.777, 35047.00
1210.859, 35132.00
1211.940, 35190.00
1213.022, 35268.00
1214.103, 35328.00
1215.184, 35049.00
1216.265, 35290.00
1217.346, 34992.00
1218.427, 35240.00
1219.507, 35280.00
1220.587, 35237.00
1221.668, 35593.00
1222.748, 35610.00
1223.828, 35564.00
1224.907, 35417.00
1225.987, 35503.00
1227.066, 35520.00
1228.146, 35351.00
1229.225, 35197.00
1230.304, 35734.00
1231.382, 35625.00
1232.461, 35644.00
1233.540, 35728.00
1234.618, 35655.00
1235.696, 35868.00
1236.774, 36009.00
1237.852, 35635.00
1238.930, 35724.00
1240.007, 35757.52
1241.085, 35817.01
1242.162, 35865.00
1243.239, 36083.00
1244.316, 36015.00
1245.393, 35884.00
1246.469, 36069.00
1247.546, 36251.00
1248.622, 36067.00
1249.698, 36141.00
1250.774, 36064.00
1251.850, 36305.00
1252.926, 36338.00
1254.001, 35972.00
1255.077, 36347.00
1256.152, 36041.00
1257.227, 36592.00
1258.302, 36534.00
1259.377, 36227.00
1260.451, 36369.00
1261.526, 36424.00
1262.600, 36640.00
1263.674, 36634.00
1264.748, 36576.00
1265.822, 36639.00
1266.896, 36710.00
1267.969, 36635.00
1269.043, 36754.00
1270.116, 36478.00
1271.189, 36776.00
1272.262, 37168.00
1273.335, 36855.00
1274.407, 36971.00
1275.480, 36959.00
1276.552, 37024.00
1277.624, 36929.00
1278.696, 37026.00
1279.768, 36933.00
1280.840, 36918.00
1281.911, 37312.00
1282.982, 37127.00
1284.054, 37411.00
