##NAMES=Laverovite
##RRUFFID=R060216
##IDEAL CHEMISTRY=K_2_NaMn^2+^_7_Zr^4+^_2_(Si_4_O_12_)_2_O_2_(OH)_4_F
##LOCALITY=Desourdy Quarry, Mont Saint-Hilaire, Rouville County, Quebec, Canada
##OWNER=RRUFF
##SOURCE=Royal Ontario Museum
##DESCRIPTION=Brown fragment showing lamellar habit. Type sample
##STATUS=The identification of this mineral has been confirmed by X-ray diffraction and chemical analysis
##URL=rruff.info/R060216
##MEASURED CHEMISTRY=(K_1.74_Na_0.18_[box]_0.08_)_Σ=2_(Na_0.92_Ca_0.08_)_Σ=1_(Mn_4.09_Fe^2+^_2.67_Mg_0.24_)_Σ=7_(Zr_1.42_Ti_0.58_)_Σ=2_(Si_7.86_Al_0.14_)_Σ=8_O_26_((OH)_3.14_O_0.86_)_Σ=4_
##PIN_ID=L00725
##ORIENTATION=Laser parallel to c* (0 0 1). Fiducial mark perpendicular to laser is parallel to a [1 0 0]
114.4400, 27861.00
115.6710, 27969.00
116.9030, 28978.00
118.1340, 28438.00
119.3650, 27835.00
120.5960, 27085.00
121.8270, 26708.00
123.0580, 26896.00
124.2880, 27692.00
125.5190, 28280.00
126.7490, 27681.00
127.9790, 27541.00
129.2090, 27827.00
130.4390, 28103.00
131.6680, 27700.00
132.8980, 27294.00
134.1270, 26745.00
135.3560, 26072.00
136.5850, 25830.00
137.8140, 25524.00
139.0430, 25441.00
140.2710, 25287.27
141.5000, 25091.82
142.7280, 25243.00
143.9560, 24722.00
145.1840, 24881.00
146.4120, 24623.00
147.6390, 24910.00
148.8670, 25784.00
150.0940, 24453.00
151.3210, 24505.00
152.5490, 24700.00
153.7750, 25515.00
155.0020, 25141.00
156.2290, 25192.00
157.4550, 25128.00
158.6810, 25208.00
159.9080, 25343.00
161.1340, 25737.00
162.3590, 25889.00
163.5850, 26999.00
164.8110, 27469.00
166.0360, 28129.00
167.2610, 28782.00
168.4860, 28645.00
169.7110, 28945.00
170.9360, 28915.00
172.1610, 29193.00
173.3850, 28360.00
174.6100, 28117.00
175.8340, 28934.00
177.0580, 26999.00
178.2820, 26500.00
179.5050, 26812.00
180.7290, 26232.00
181.9520, 26170.00
183.1760, 25824.00
184.3990, 25736.00
185.6220, 25980.00
186.8450, 25853.00
188.0670, 25928.00
189.2900, 25986.08
190.5120, 26140.00
191.7340, 26171.00
192.9560, 26514.00
194.1780, 26889.00
195.4000, 27113.00
196.6220, 27261.00
197.8430, 27828.00
199.0640, 28063.00
200.2860, 28360.00
201.5070, 29079.00
202.7270, 30291.00
203.9480, 30364.00
205.1690, 29015.00
206.3890, 27070.00
207.6090, 25840.00
208.8290, 25635.00
210.0490, 25594.00
211.2690, 25805.00
212.4890, 26227.00
213.7080, 26487.00
214.9280, 26848.00
216.1470, 27288.00
217.3660, 27174.00
218.5850, 27596.00
219.8030, 27725.00
221.0220, 28049.00
222.2400, 28372.00
223.4590, 28510.00
224.6770, 29092.00
225.8950, 29119.00
227.1120, 29639.00
228.3300, 29752.00
229.5480, 30357.00
230.7650, 30958.00
231.9820, 30972.00
233.1990, 31668.00
234.4160, 31844.00
235.6330, 32462.00
236.8490, 32680.00
238.0660, 33448.00
239.2820, 33710.00
240.4980, 34208.00
241.7140, 34603.00
242.9300, 34622.00
244.1460, 34662.00
245.3610, 35084.00
246.5770, 35209.00
247.7920, 35253.00
249.0070, 35343.00
250.2220, 35439.00
251.4370, 35941.00
252.6510, 35956.00
253.8660, 36731.00
255.0800, 37091.00
256.2940, 37755.00
257.5080, 38798.00
258.7220, 39112.00
259.9360, 40830.00
261.1490, 42602.00
262.3630, 41493.00
263.5760, 40459.00
264.7890, 38830.00
266.0020, 37682.00
267.2150, 36728.00
268.4270, 35829.00
269.6400, 34241.00
270.8520, 32888.00
272.0640, 31519.00
273.2760, 30273.00
274.4880, 29285.00
275.7000, 28655.00
276.9120, 27961.00
278.1230, 26944.00
279.3340, 26723.00
280.5450, 26140.00
281.7560, 25435.00
282.9670, 25370.00
284.1780, 24966.00
285.3880, 24864.00
286.5980, 24623.00
287.8090, 24282.00
289.0190, 24175.00
290.2290, 24216.00
291.4380, 24117.00
292.6480, 23956.00
293.8570, 24066.00
295.0670, 24088.00
296.2760, 23792.00
297.4850, 23806.00
298.6930, 23658.00
299.9020, 23685.00
301.1110, 23857.00
302.3190, 23745.00
303.5270, 23841.00
304.7350, 23532.00
305.9430, 23490.00
307.1510, 23445.00
308.3580, 23418.00
309.5660, 23352.45
310.7730, 23301.00
311.9800, 23244.00
313.1870, 23239.00
314.3940, 23225.00
315.6010, 23264.00
316.8070, 23220.00
318.0130, 23311.00
319.2200, 23148.00
320.4260, 23326.00
321.6310, 23391.00
322.8370, 23525.00
324.0430, 23422.00
325.2480, 23524.00
326.4540, 23683.00
327.6590, 23682.00
328.8640, 23846.00
330.0680, 24078.00
331.2730, 24047.00
332.4780, 23921.00
333.6820, 24400.00
334.8860, 24059.00
336.0900, 24131.00
337.2940, 24141.00
338.4980, 24236.00
339.7010, 24266.75
340.9050, 24394.00
342.1080, 24340.00
343.3110, 24246.00
344.5140, 24238.63
345.7170, 24478.00
346.9200, 24232.00
348.1220, 24276.00
349.3240, 24323.00
350.5270, 24152.00
351.7290, 24327.00
352.9310, 24293.00
354.1320, 24352.00
355.3340, 24528.00
356.5350, 24381.00
357.7370, 24663.00
358.9380, 24633.00
360.1390, 24547.00
361.3400, 24728.00
362.5400, 24714.75
363.7410, 24805.00
364.9410, 24819.00
366.1410, 24772.00
367.3410, 24711.00
368.5410, 24843.00
369.7410, 24527.00
370.9400, 24611.00
372.1400, 24550.00
373.3390, 24757.00
374.5380, 24607.00
375.7370, 24665.00
376.9360, 24917.00
378.1350, 25063.00
379.3330, 25141.19
380.5310, 25097.00
381.7300, 25268.00
382.9280, 25228.00
384.1260, 25203.00
385.3230, 25192.00
386.5210, 25091.00
387.7180, 25216.00
388.9160, 25309.00
390.1130, 25214.00
391.3100, 25319.00
392.5060, 25292.00
393.7030, 25380.00
394.9000, 25087.00
396.0960, 25443.00
397.2920, 25603.00
398.4880, 25358.00
399.6840, 25219.00
400.8800, 25698.00
402.0750, 25837.00
403.2710, 25654.00
404.4660, 25622.00
405.6610, 25667.00
406.8560, 25699.23
408.0510, 25798.00
409.2450, 25938.00
410.4400, 26071.86
411.6340, 26291.00
412.8280, 26446.00
414.0220, 26668.52
415.2160, 26908.00
416.4100, 27011.00
417.6030, 27303.00
418.7970, 27305.00
419.9900, 27324.20
421.1830, 27336.03
422.3760, 27136.00
423.5690, 27144.00
424.7610, 26908.00
425.9540, 26718.00
427.1460, 26543.00
428.3380, 26360.00
429.5300, 25923.00
430.7220, 25398.00
431.9140, 25248.00
433.1050, 24771.00
434.2970, 24513.00
435.4880, 24116.00
436.6790, 23747.00
437.8700, 23832.00
439.0610, 23123.00
440.2510, 22955.00
441.4420, 22581.00
442.6320, 22726.00
443.8220, 22309.00
445.0120, 22218.00
446.2020, 22118.00
447.3910, 22108.00
448.5810, 22007.00
449.7700, 21897.00
450.9600, 21988.00
452.1490, 21856.00
453.3370, 21755.00
454.5260, 22125.00
455.7150, 22046.00
456.9030, 22043.00
458.0910, 22321.00
459.2800, 22278.00
460.4670, 22442.00
461.6550, 22672.00
462.8430, 22952.00
464.0300, 23004.00
465.2180, 23242.00
466.4050, 23216.00
467.5920, 23430.00
468.7790, 23367.00
469.9650, 23617.00
471.1520, 23589.00
472.3380, 23484.00
473.5250, 23709.00
474.7110, 23479.00
475.8970, 23529.00
477.0820, 23480.00
478.2680, 23398.00
479.4540, 23360.00
480.6390, 23344.00
481.8240, 23239.00
483.0090, 23233.91
484.1940, 23247.00
485.3780, 23204.00
486.5630, 23180.16
487.7470, 23180.65
488.9320, 23104.00
490.1160, 23134.00
491.3000, 23124.00
492.4830, 23024.40
493.6670, 23045.00
494.8500, 22880.00
496.0340, 22850.00
497.2170, 22821.36
498.4000, 22873.00
499.5820, 22753.00
500.7650, 22574.00
501.9480, 22480.00
503.1300, 22522.00
504.3120, 22462.00
505.4940, 22354.00
506.6760, 22589.00
507.8580, 22618.00
509.0390, 22493.00
510.2210, 22561.00
511.4020, 22526.00
512.5830, 22534.00
513.7640, 22366.00
514.9450, 22307.00
516.1250, 22344.00
517.3060, 22468.00
518.4860, 22373.00
519.6660, 22349.00
520.8460, 22418.00
522.0260, 22352.00
523.2060, 22223.00
524.3850, 22359.00
525.5650, 22199.00
526.7440, 22188.00
527.9230, 22203.00
529.1020, 22252.00
530.2810, 22205.00
531.4590, 22087.00
532.6380, 22211.00
533.8160, 22282.00
534.9940, 22194.00
536.1720, 22340.00
537.3500, 22405.00
538.5270, 22395.20
539.7050, 23026.00
540.8820, 22764.00
542.0590, 22891.00
543.2360, 23795.00
544.4130, 23610.00
545.5900, 23480.00
546.7660, 23829.00
547.9430, 24164.00
549.1190, 24627.00
550.2950, 25252.00
551.4710, 25716.00
552.6470, 26110.00
553.8220, 26516.00
554.9980, 26745.00
556.1730, 27073.00
557.3480, 27237.60
558.5230, 27442.00
559.6980, 27440.00
560.8730, 27310.00
562.0470, 27248.00
563.2220, 26989.00
564.3960, 26711.00
565.5700, 26663.00
566.7440, 26480.00
567.9170, 26285.00
569.0910, 26136.00
570.2640, 25810.00
571.4380, 25529.00
572.6110, 25387.00
573.7840, 25189.00
574.9570, 25152.00
576.1290, 25063.00
577.3020, 24852.00
578.4740, 24773.00
579.6460, 24841.00
580.8180, 24616.00
581.9900, 24612.00
583.1620, 24802.00
584.3330, 24693.00
585.5040, 24770.00
586.6760, 24702.00
587.8470, 24713.00
589.0180, 24831.00
590.1880, 24773.00
591.3590, 25065.00
592.5290, 24844.00
593.7000, 24992.00
594.8700, 25087.00
596.0400, 25048.00
597.2090, 24696.00
598.3790, 24841.00
599.5490, 24940.00
600.7180, 24786.00
601.8870, 24985.00
603.0560, 24933.00
604.2250, 25198.00
605.3940, 25154.00
606.5620, 25404.00
607.7300, 25351.00
608.8990, 25319.00
610.0670, 25648.00
611.2350, 25434.00
612.4020, 25376.00
613.5700, 25683.00
614.7370, 25928.00
615.9050, 26106.00
617.0720, 26017.00
618.2390, 26419.00
619.4060, 26409.00
620.5720, 26472.00
621.7390, 26746.00
622.9050, 26976.00
624.0710, 27161.00
625.2370, 27194.00
626.4030, 27558.00
627.5690, 27808.00
628.7340, 27709.00
629.9000, 28231.00
631.0650, 28649.00
632.2300, 28721.00
633.3950, 29204.00
634.5600, 29525.00
635.7240, 29881.00
636.8890, 30490.00
638.0530, 30860.00
639.2170, 31673.00
640.3810, 32291.00
641.5450, 32953.00
642.7080, 34190.00
643.8720, 35304.00
645.0350, 36691.00
646.1980, 38234.00
647.3610, 39757.00
648.5240, 41639.00
649.6870, 44043.00
650.8490, 45608.00
652.0120, 47502.00
653.1740, 48029.00
654.3360, 48547.00
655.4980, 47836.00
656.6600, 46721.00
657.8210, 45309.00
658.9830, 43460.00
660.1440, 41983.00
661.3050, 40154.00
662.4660, 38948.00
663.6270, 37658.00
664.7870, 36735.00
665.9480, 36126.00
667.1080, 35517.00
668.2680, 35131.00
669.4280, 34665.00
670.5880, 35061.00
671.7480, 34670.00
672.9070, 35046.00
674.0670, 35008.00
675.2260, 35007.00
676.3850, 35422.00
677.5440, 35762.00
678.7030, 36076.00
679.8610, 36754.00
681.0200, 36837.00
682.1780, 37361.00
683.3360, 37888.00
684.4940, 38178.00
685.6520, 38662.00
686.8090, 38949.00
687.9670, 39326.00
689.1240, 39559.98
690.2810, 39637.00
691.4380, 39875.00
692.5950, 39996.00
693.7520, 39987.00
694.9080, 40213.00
696.0650, 40318.00
697.2210, 40247.89
698.3770, 39943.00
699.5330, 40093.00
700.6880, 39902.00
701.8440, 39800.00
702.9990, 39759.00
704.1550, 39623.00
705.3100, 39428.00
706.4650, 39415.00
707.6190, 39271.00
708.7740, 39126.36
709.9290, 39132.00
711.0830, 38834.00
712.2370, 38669.00
713.3910, 38534.00
714.5450, 38374.00
715.6980, 38132.14
716.8520, 37640.00
718.0050, 37481.00
719.1580, 37030.00
720.3110, 36384.00
721.4640, 36064.00
722.6170, 35523.00
723.7700, 35106.00
724.9220, 34530.79
726.0740, 34099.13
727.2260, 33482.00
728.3780, 33056.00
729.5300, 32902.00
730.6810, 32102.00
731.8330, 31925.00
732.9840, 31676.00
734.1350, 31000.00
735.2860, 30797.00
736.4370, 30480.00
737.5880, 30093.00
738.7380, 29772.00
739.8880, 29402.00
741.0390, 29098.00
742.1890, 28892.88
743.3380, 28634.00
744.4880, 28507.00
745.6380, 28353.00
746.7870, 28090.00
747.9360, 27909.00
749.0850, 27679.33
750.2340, 27493.01
751.3830, 27197.00
752.5310, 27225.00
753.6800, 26964.00
754.8280, 27010.00
755.9760, 26765.00
757.1240, 26885.00
758.2720, 26667.00
759.4190, 26742.00
760.5670, 26960.00
761.7140, 26256.00
762.8610, 25979.00
764.0080, 26046.00
765.1550, 25896.00
766.3020, 25739.00
767.4480, 25526.00
768.5950, 25363.40
769.7410, 25144.00
770.8870, 24979.16
772.0330, 24805.74
773.1780, 24590.00
774.3240, 24433.00
775.4690, 24361.00
776.6140, 24170.00
777.7590, 24561.00
778.9040, 24072.00
780.0490, 23512.00
781.1940, 25446.00
782.3380, 23983.00
783.4820, 24092.33
784.6260, 23206.00
785.7700, 23227.00
786.9140, 23125.00
788.0580, 23221.00
789.2010, 22993.00
790.3450, 22746.00
791.4880, 22785.00
792.6310, 22640.00
793.7730, 22641.00
794.9160, 22485.49
796.0590, 22400.00
797.2010, 22153.00
798.3430, 22170.00
799.4850, 22010.00
800.6270, 22159.00
801.7690, 21963.00
802.9100, 21837.00
804.0520, 21823.00
805.1930, 21542.00
806.3340, 21557.00
807.4750, 21570.00
808.6160, 21398.00
809.7560, 21617.00
810.8970, 21505.00
812.0370, 21316.00
813.1770, 21294.00
814.3170, 21139.00
815.4570, 21239.00
816.5960, 21192.00
817.7360, 21150.00
818.8750, 21225.00
820.0140, 21212.00
821.1530, 21206.00
822.2920, 21051.00
823.4310, 21224.00
824.5690, 21352.00
825.7070, 21158.86
826.8460, 21280.00
827.9840, 20971.00
829.1220, 21056.00
830.2590, 21208.00
831.3970, 21138.00
832.5340, 21142.00
833.6710, 21155.00
834.8080, 21240.00
835.9450, 21275.00
837.0820, 21258.00
838.2190, 21503.00
839.3550, 21247.00
840.4910, 21380.00
841.6270, 21514.00
842.7630, 21654.00
843.8990, 21638.00
845.0350, 21492.00
846.1700, 21812.00
847.3060, 21695.00
848.4410, 21768.00
849.5760, 22080.00
850.7100, 22049.00
851.8450, 22291.00
852.9800, 22382.00
854.1140, 22535.00
855.2480, 22676.00
856.3820, 22695.00
857.5160, 22964.00
858.6500, 23217.00
859.7830, 23375.00
860.9170, 23385.00
862.0500, 23643.00
863.1830, 23797.00
864.3160, 24291.00
865.4480, 24445.00
866.5810, 24744.00
867.7130, 25010.00
868.8460, 25164.00
869.9780, 25428.24
871.1100, 25652.00
872.2410, 25889.00
873.3730, 26280.00
874.5050, 26606.00
875.6360, 26906.00
876.7670, 27335.00
877.8980, 27593.00
879.0290, 27833.00
880.1590, 28300.00
881.2900, 28913.00
882.4200, 29127.00
883.5500, 29583.00
884.6800, 29822.33
885.8100, 30477.00
886.9400, 30460.00
888.0690, 30747.00
889.1990, 31586.00
890.3280, 31678.00
891.4570, 32164.00
892.5860, 32167.00
893.7140, 32845.00
894.8430, 33133.00
895.9710, 33712.00
897.1000, 34198.00
898.2280, 34762.00
899.3560, 35285.00
900.4830, 35893.05
901.6110, 36247.00
902.7380, 37108.00
903.8660, 37476.00
904.9930, 37989.00
906.1200, 38680.00
907.2460, 39330.00
908.3730, 39832.00
909.5000, 40623.00
910.6260, 41228.00
911.7520, 41822.00
912.8780, 43030.00
914.0040, 44002.00
915.1290, 44274.00
916.2550, 44394.00
917.3800, 45033.00
918.5050, 45360.00
919.6300, 45855.00
920.7550, 46593.00
921.8800, 46962.00
923.0040, 47303.00
924.1290, 47771.00
925.2530, 47855.00
926.3770, 48192.00
927.5010, 48389.04
928.6250, 48417.00
929.7480, 48696.00
930.8720, 48627.00
931.9950, 48659.00
933.1180, 48682.00
934.2410, 48658.00
935.3640, 48549.00
936.4860, 48462.75
937.6090, 48317.46
938.7310, 48217.00
939.8530, 47996.00
940.9750, 47945.00
942.0970, 47833.00
943.2180, 47601.00
944.3400, 47795.00
945.4610, 47506.00
946.5820, 47494.00
947.7030, 47239.00
948.8240, 47115.93
949.9450, 46837.43
951.0650, 46589.00
952.1860, 45968.00
953.3060, 45112.00
954.4260, 44113.00
955.5460, 43217.00
956.6650, 41841.00
957.7850, 40458.00
958.9040, 38955.00
960.0230, 38121.00
961.1420, 36644.00
962.2610, 35463.78
963.3800, 34489.00
964.4990, 33170.00
965.6170, 32127.00
966.7350, 31391.00
967.8530, 30540.00
968.9710, 30089.00
970.0890, 29208.00
971.2070, 28575.00
972.3240, 27849.00
973.4410, 27731.00
974.5580, 27334.00
975.6750, 27080.00
976.7920, 26428.00
977.9090, 26418.00
979.0250, 25869.00
980.1410, 25868.00
981.2580, 25427.00
982.3740, 25176.00
983.4890, 25101.00
984.6050, 24954.00
985.7200, 25016.00
986.8360, 24915.00
987.9510, 25092.00
989.0660, 24925.80
990.1810, 24906.15
991.2950, 24694.00
992.4100, 24759.00
993.5240, 24702.00
994.6390, 24653.00
995.7530, 24562.00
996.8660, 24680.00
997.9800, 24791.00
999.0940, 24799.00
1000.207, 24911.00
1001.320, 24938.00
1002.433, 25063.00
1003.546, 25125.00
1004.659, 25273.67
1005.772, 25475.00
1006.884, 25587.00
1007.996, 25766.00
1009.108, 25905.44
1010.220, 26185.00
1011.332, 26278.00
1012.444, 26767.00
1013.555, 27006.00
1014.666, 27438.00
1015.777, 27525.00
1016.888, 27773.00
1017.999, 27797.00
1019.110, 28222.00
1020.220, 28456.00
1021.331, 28517.00
1022.441, 28664.00
1023.551, 29013.00
1024.661, 29058.00
1025.770, 29142.00
1026.880, 29116.00
1027.989, 29102.00
1029.098, 29161.00
1030.207, 29051.00
1031.316, 29226.00
1032.425, 28899.00
1033.533, 28942.00
1034.642, 28326.00
1035.750, 28465.00
1036.858, 28251.00
1037.966, 27615.00
1039.073, 27225.00
1040.181, 27291.00
1041.288, 26904.00
1042.396, 26732.00
1043.503, 26162.00
1044.610, 26060.00
1045.716, 25817.00
1046.823, 25618.00
1047.929, 25321.00
1049.036, 25293.00
1050.142, 25350.00
1051.248, 24919.00
1052.353, 24726.00
1053.459, 24907.00
1054.564, 24582.00
1055.670, 24672.00
1056.775, 24618.00
1057.880, 24408.00
1058.985, 24096.00
1060.089, 24419.00
1061.194, 24202.00
1062.298, 24246.00
1063.402, 24140.00
1064.506, 24107.00
1065.610, 24043.00
1066.713, 24112.00
1067.817, 24080.00
1068.920, 23980.00
1070.023, 24194.00
1071.126, 24170.00
1072.229, 23857.00
1073.332, 23980.00
1074.435, 24055.00
1075.537, 24144.00
1076.639, 24095.26
1077.741, 24196.00
1078.843, 24046.00
1079.945, 23876.00
1081.046, 24060.00
1082.148, 24003.00
1083.249, 24008.00
1084.350, 24053.00
1085.451, 23699.00
1086.551, 23827.00
1087.652, 23699.00
1088.752, 23718.00
1089.853, 23724.00
1090.953, 23619.00
1092.053, 23472.00
1093.152, 23482.00
1094.252, 23413.00
1095.351, 23158.00
1096.451, 23035.00
1097.550, 23011.00
1098.649, 22886.00
1099.748, 22833.00
1100.846, 22811.00
1101.945, 22539.00
1103.043, 22538.00
1104.141, 22389.00
1105.239, 22278.00
1106.337, 22335.00
1107.434, 22184.00
1108.532, 22084.00
1109.629, 21959.00
1110.726, 21943.00
1111.823, 21760.00
1112.920, 21549.00
1114.017, 21746.00
1115.113, 21524.00
1116.210, 21656.00
1117.306, 21481.00
1118.402, 21535.00
1119.498, 21244.00
1120.593, 21602.00
1121.689, 21777.00
1122.784, 21422.00
1123.879, 21307.00
1124.974, 21464.00
1126.069, 21414.00
1127.164, 21433.00
1128.259, 21278.00
1129.353, 21190.00
1130.447, 21150.00
1131.541, 20987.00
1132.635, 21013.00
1133.729, 20953.00
1134.822, 20965.00
1135.916, 21058.00
1137.009, 20882.00
1138.102, 20746.00
1139.195, 21091.00
1140.288, 20811.00
1141.380, 20886.00
1142.473, 20829.00
1143.565, 20850.00
1144.657, 20868.69
1145.749, 20768.00
1146.841, 20841.00
1147.932, 20824.00
1149.024, 20692.00
1150.115, 20628.00
1151.206, 20755.00
1152.297, 20669.00
1153.388, 20723.52
1154.479, 20737.53
1155.569, 20758.00
1156.659, 20744.00
1157.750, 20702.00
1158.839, 20682.00
1159.929, 20645.99
1161.019, 20610.00
1162.108, 20590.00
1163.198, 20564.00
1164.287, 20573.00
1165.376, 20719.00
1166.465, 20456.00
1167.553, 20684.00
1168.642, 20730.00
1169.730, 20579.00
1170.818, 20799.00
1171.906, 20761.00
1172.994, 20592.00
1174.082, 20616.00
1175.170, 20384.00
1176.257, 20624.00
1177.344, 20618.00
1178.431, 20755.00
1179.518, 20573.00
1180.605, 20516.00
1181.691, 20572.00
1182.778, 20680.00
1183.864, 20624.00
1184.950, 20463.00
1186.036, 20660.00
1187.122, 20575.00
1188.207, 20600.76
1189.292, 20630.94
1190.378, 20639.00
1191.463, 20607.00
1192.548, 20622.00
1193.632, 20596.00
1194.717, 20482.00
1195.801, 20698.00
1196.886, 20718.00
1197.970, 20506.00
1199.054, 20536.00
1200.137, 20456.00
1201.221, 20476.38
1202.305, 20647.00
1203.388, 20627.00
1204.471, 20608.00
1205.554, 20746.00
1206.637, 20611.00
1207.719, 20639.00
1208.802, 20661.00
1209.884, 20672.00
1210.966, 20711.56
1212.048, 20648.00
1213.130, 20736.00
1214.212, 20718.00
1215.293, 20625.00
1216.374, 20671.00
1217.456, 20627.00
1218.536, 20810.00
1219.617, 20764.00
1220.698, 20577.00
1221.778, 20853.00
1222.859, 20692.00
1223.939, 20785.00
1225.019, 20744.00
1226.099, 20650.00
1227.178, 20695.00
1228.258, 20799.00
1229.337, 20659.00
1230.417, 20646.00
1231.496, 20675.00
1232.574, 20943.00
1233.653, 20812.51
1234.732, 21006.00
1235.810, 20699.00
1236.888, 20773.00
1237.966, 20690.00
1239.044, 20893.00
1240.122, 20884.00
1241.199, 20752.00
1242.277, 20472.00
1243.354, 20676.00
1244.431, 20620.00
1245.508, 20782.00
1246.585, 20536.00
1247.661, 20717.00
1248.738, 20734.00
1249.814, 20865.00
1250.890, 20892.22
1251.966, 20813.00
1253.042, 20915.00
1254.117, 20783.00
1255.193, 20762.00
1256.268, 20832.00
1257.343, 20864.00
1258.418, 20815.00
1259.493, 20796.00
1260.567, 20734.00
1261.642, 20775.00
1262.716, 20757.67
1263.790, 20740.00
1264.864, 20752.00
1265.938, 20952.00
1267.011, 20901.00
1268.085, 20865.00
1269.158, 20724.00
1270.231, 20802.00
1271.304, 20880.00
1272.377, 20871.00
1273.450, 20839.00
1274.522, 20755.00
1275.594, 20832.00
1276.666, 20745.00
1277.738, 20769.00
1278.810, 20889.00
1279.882, 20874.00
1280.953, 20897.00
