##NAMES=Laverovite
##RRUFFID=R060216
##IDEAL CHEMISTRY=K_2_NaMn^2+^_7_Zr^4+^_2_(Si_4_O_12_)_2_O_2_(OH)_4_F
##LOCALITY=Desourdy Quarry, Mont Saint-Hilaire, Rouville County, Quebec, Canada
##OWNER=RRUFF
##SOURCE=Royal Ontario Museum
##DESCRIPTION=Brown fragment showing lamellar habit. Type sample
##STATUS=The identification of this mineral has been confirmed by X-ray diffraction and chemical analysis
##URL=rruff.info/R060216
##MEASURED CHEMISTRY=(K_1.74_Na_0.18_[box]_0.08_)_Σ=2_(Na_0.92_Ca_0.08_)_Σ=1_(Mn_4.09_Fe^2+^_2.67_Mg_0.24_)_Σ=7_(Zr_1.42_Ti_0.58_)_Σ=2_(Si_7.86_Al_0.14_)_Σ=8_O_26_((OH)_3.14_O_0.86_)_Σ=4_
##PIN_ID=M00393
##ORIENTATION=Laser parallel to a* (1 0 0). Fiducial mark perpendicular to laser is parallel to b [0 1 0]
121.8270, 24113.00
123.0580, 23684.00
124.2880, 23682.00
125.5190, 23857.00
126.7490, 23779.00
127.9790, 23897.00
129.2090, 23866.00
130.4390, 23698.00
131.6680, 23835.00
132.8980, 23904.00
134.1270, 24160.00
135.3560, 24146.00
136.5850, 24429.00
137.8140, 24396.00
139.0430, 24492.00
140.2710, 24064.00
141.5000, 24224.00
142.7280, 23976.00
143.9560, 24437.00
145.1840, 24311.00
146.4120, 24366.00
147.6390, 24736.00
148.8670, 25047.00
150.0940, 25339.00
151.3210, 25470.00
152.5490, 25461.00
153.7750, 25660.00
155.0020, 25668.00
156.2290, 26013.00
157.4550, 26565.00
158.6810, 26654.00
159.9080, 27359.00
161.1340, 28105.00
162.3590, 28638.00
163.5850, 29285.00
164.8110, 29832.00
166.0360, 30219.00
167.2610, 30928.00
168.4860, 31049.34
169.7110, 31371.00
170.9360, 31253.00
172.1610, 31237.00
173.3850, 31103.00
174.6100, 30340.00
175.8340, 29926.00
177.0580, 29506.00
178.2820, 29104.00
179.5050, 28668.54
180.7290, 28339.94
181.9520, 27990.74
183.1760, 27708.00
184.3990, 27411.00
185.6220, 27139.00
186.8450, 26938.00
188.0670, 26678.00
189.2900, 26837.00
190.5120, 26830.00
191.7340, 26692.07
192.9560, 26582.00
194.1780, 26724.00
195.4000, 26403.00
196.6220, 26885.00
197.8430, 26866.00
199.0640, 26921.00
200.2860, 27280.00
201.5070, 26960.00
202.7270, 26177.00
203.9480, 26085.00
205.1690, 25888.00
206.3890, 25882.00
207.6090, 25932.00
208.8290, 25838.00
210.0490, 26161.00
211.2690, 26167.00
212.4890, 26337.00
213.7080, 26321.00
214.9280, 26204.00
216.1470, 26085.00
217.3660, 26135.00
218.5850, 26105.00
219.8030, 26165.00
221.0220, 26059.00
222.2400, 25958.00
223.4590, 26022.00
224.6770, 25858.00
225.8950, 25900.00
227.1120, 25722.00
228.3300, 25536.00
229.5480, 25766.00
230.7650, 25616.00
231.9820, 25684.00
233.1990, 25739.00
234.4160, 25643.00
235.6330, 25566.00
236.8490, 25528.71
238.0660, 25471.32
239.2820, 25431.00
240.4980, 25427.00
241.7140, 25487.99
242.9300, 25524.00
244.1460, 25524.00
245.3610, 25544.00
246.5770, 25532.00
247.7920, 25370.45
249.0070, 25536.60
250.2220, 25626.82
251.4370, 25645.20
252.6510, 25376.55
253.8660, 25478.54
255.0800, 25431.99
256.2940, 25379.36
257.5080, 25533.52
258.7220, 25306.62
259.9360, 25457.50
261.1490, 25457.58
262.3630, 25526.67
263.5760, 25446.32
264.7890, 25412.13
266.0020, 25527.44
267.2150, 25559.97
268.4270, 25462.42
269.6400, 25524.00
270.8520, 25407.00
272.0640, 25436.00
273.2760, 25362.00
274.4880, 25565.00
275.7000, 25495.00
276.9120, 25386.00
278.1230, 25366.00
279.3340, 25142.00
280.5450, 25431.00
281.7560, 25231.00
282.9670, 24960.00
284.1780, 25371.00
285.3880, 25216.00
286.5980, 25215.00
287.8090, 25174.00
289.0190, 25095.00
290.2290, 25130.00
291.4380, 25250.00
292.6480, 25215.00
293.8570, 24995.00
295.0670, 25249.00
296.2760, 25006.00
297.4850, 25395.00
298.6930, 24956.00
299.9020, 25079.00
301.1110, 25164.00
302.3190, 24993.00
303.5270, 25408.00
304.7350, 25370.00
305.9430, 25306.00
307.1510, 25470.00
308.3580, 25402.00
309.5660, 25562.00
310.7730, 25572.31
311.9800, 25761.00
313.1870, 25498.00
314.3940, 25526.00
315.6010, 25213.00
316.8070, 25538.00
318.0130, 25388.00
319.2200, 25703.00
320.4260, 25667.00
321.6310, 25756.00
322.8370, 25685.00
324.0430, 25706.00
325.2480, 25728.00
326.4540, 25904.00
327.6590, 25781.00
328.8640, 25935.00
330.0680, 26069.00
331.2730, 26056.00
332.4780, 26154.00
333.6820, 26168.00
334.8860, 26418.00
336.0900, 26387.00
337.2940, 26445.00
338.4980, 26533.65
339.7010, 26552.40
340.9050, 26596.00
342.1080, 26660.00
343.3110, 26642.00
344.5140, 26685.38
345.7170, 26696.74
346.9200, 26637.00
348.1220, 26698.00
349.3240, 26786.00
350.5270, 26751.00
351.7290, 26916.00
352.9310, 26910.00
354.1320, 26847.00
355.3340, 26790.00
356.5350, 26748.00
357.7370, 26705.00
358.9380, 26921.00
360.1390, 26778.00
361.3400, 26891.00
362.5400, 26785.00
363.7410, 26591.00
364.9410, 26895.00
366.1410, 26517.00
367.3410, 26654.00
368.5410, 26664.00
369.7410, 26827.00
370.9400, 26553.00
372.1400, 26782.00
373.3390, 26660.00
374.5380, 26619.00
375.7370, 26662.00
376.9360, 26614.82
378.1350, 26635.00
379.3330, 26494.00
380.5310, 26842.00
381.7300, 26508.00
382.9280, 26701.00
384.1260, 26495.00
385.3230, 26768.00
386.5210, 26630.00
387.7180, 26593.00
388.9160, 26603.00
390.1130, 26419.00
391.3100, 26564.00
392.5060, 26712.00
393.7030, 26431.00
394.9000, 26587.00
396.0960, 26438.00
397.2920, 26426.00
398.4880, 26431.00
399.6840, 26392.00
400.8800, 26470.00
402.0750, 26524.00
403.2710, 26343.00
404.4660, 26519.00
405.6610, 26435.00
406.8560, 26485.00
408.0510, 26613.00
409.2450, 26571.00
410.4400, 26680.00
411.6340, 26637.00
412.8280, 26641.29
414.0220, 26677.00
415.2160, 26645.00
416.4100, 26731.00
417.6030, 26813.00
418.7970, 26847.00
419.9900, 26873.65
421.1830, 26922.00
422.3760, 26909.00
423.5690, 26851.00
424.7610, 26937.00
425.9540, 26987.00
427.1460, 26887.00
428.3380, 27115.00
429.5300, 27241.00
430.7220, 27118.00
431.9140, 26922.00
433.1050, 27141.00
434.2970, 27322.00
435.4880, 27213.00
436.6790, 27386.83
437.8700, 27450.00
439.0610, 27436.00
440.2510, 27405.00
441.4420, 27301.00
442.6320, 27391.00
443.8220, 27648.00
445.0120, 27494.00
446.2020, 27634.00
447.3910, 27562.00
448.5810, 27680.00
449.7700, 27672.00
450.9600, 27689.00
452.1490, 27880.00
453.3370, 27869.00
454.5260, 27813.00
455.7150, 27732.00
456.9030, 27846.00
458.0910, 27845.73
459.2800, 28004.00
460.4670, 27964.00
461.6550, 28069.00
462.8430, 28068.00
464.0300, 28061.00
465.2180, 28150.00
466.4050, 28241.00
467.5920, 28248.00
468.7790, 28338.00
469.9650, 28330.00
471.1520, 28322.00
472.3380, 28343.36
473.5250, 28431.00
474.7110, 28392.00
475.8970, 28290.00
477.0820, 28443.00
478.2680, 28333.00
479.4540, 28647.00
480.6390, 28291.00
481.8240, 28625.00
483.0090, 28579.00
484.1940, 28413.00
485.3780, 28472.00
486.5630, 28571.00
487.7470, 28707.00
488.9320, 28421.00
490.1160, 28723.00
491.3000, 28448.00
492.4830, 28689.00
493.6670, 28712.00
494.8500, 28559.00
496.0340, 28695.00
497.2170, 28661.00
498.4000, 28724.00
499.5820, 28637.00
500.7650, 28660.42
501.9480, 28776.00
503.1300, 28685.00
504.3120, 28701.00
505.4940, 28788.00
506.6760, 28781.00
507.8580, 28735.00
509.0390, 28902.00
510.2210, 28685.00
511.4020, 28827.00
512.5830, 29099.00
513.7640, 28756.00
514.9450, 28886.00
516.1250, 28921.00
517.3060, 28950.00
518.4860, 28962.00
519.6660, 29050.00
520.8460, 29077.00
522.0260, 29080.71
523.2060, 29079.00
524.3850, 29091.00
525.5650, 29358.00
526.7440, 29426.00
527.9230, 29158.00
529.1020, 29588.00
530.2810, 29422.00
531.4590, 29528.00
532.6380, 29605.00
533.8160, 29543.00
534.9940, 29812.00
536.1720, 29830.00
537.3500, 29798.00
538.5270, 29824.00
539.7050, 30075.00
540.8820, 30145.00
542.0590, 30178.00
543.2360, 30248.00
544.4130, 30311.00
545.5900, 30619.00
546.7660, 30602.00
547.9430, 30562.00
549.1190, 30682.00
550.2950, 31131.00
551.4710, 31217.00
552.6470, 31217.00
553.8220, 31429.00
554.9980, 31508.00
556.1730, 31568.00
557.3480, 31802.47
558.5230, 32089.00
559.6980, 32258.00
560.8730, 32216.00
562.0470, 32530.00
563.2220, 32007.00
564.3960, 31656.00
565.5700, 31393.00
566.7440, 31440.00
567.9170, 31509.00
569.0910, 31527.00
570.2640, 31312.00
571.4380, 31534.00
572.6110, 31308.00
573.7840, 31551.00
574.9570, 31473.00
576.1290, 31589.00
577.3020, 31561.00
578.4740, 31505.00
579.6460, 31669.00
580.8180, 31634.00
581.9900, 31718.00
583.1620, 31774.00
584.3330, 31872.17
585.5040, 31887.00
586.6760, 32055.00
587.8470, 32170.00
589.0180, 32098.00
590.1880, 32213.00
591.3590, 32446.00
592.5290, 32565.00
593.7000, 32466.00
594.8700, 32566.00
596.0400, 32787.00
597.2090, 32650.00
598.3790, 32944.00
599.5490, 33473.00
600.7180, 33026.00
601.8870, 34095.00
603.0560, 33576.00
604.2250, 33208.00
605.3940, 33328.00
606.5620, 33442.00
607.7300, 33863.00
608.8990, 33769.00
610.0670, 33775.00
611.2350, 33625.00
612.4020, 33863.00
613.5700, 34209.00
614.7370, 34215.00
615.9050, 34636.00
617.0720, 34666.00
618.2390, 34639.00
619.4060, 34769.00
620.5720, 34862.00
621.7390, 35026.00
622.9050, 35153.00
624.0710, 35240.00
625.2370, 35418.00
626.4030, 35518.00
627.5690, 35631.00
628.7340, 35858.00
629.9000, 35894.00
631.0650, 36187.00
632.2300, 36262.00
633.3950, 36240.00
634.5600, 36400.00
635.7240, 36666.00
636.8890, 36994.00
638.0530, 37227.00
639.2170, 37405.00
640.3810, 37319.00
641.5450, 37574.00
642.7080, 37851.00
643.8720, 38035.00
645.0350, 38346.08
646.1980, 38860.00
647.3610, 38999.00
648.5240, 39468.00
649.6870, 39973.00
650.8490, 40002.00
652.0120, 40624.00
653.1740, 40025.00
654.3360, 40456.00
655.4980, 40226.00
656.6600, 39943.00
657.8210, 39767.00
658.9830, 39672.00
660.1440, 39454.00
661.3050, 39281.00
662.4660, 39452.00
663.6270, 38978.00
664.7870, 39563.00
665.9480, 38748.00
667.1080, 39131.00
668.2680, 39005.00
669.4280, 38902.00
670.5880, 38951.00
671.7480, 38937.15
672.9070, 39275.00
674.0670, 39147.00
675.2260, 39428.00
676.3850, 39738.00
677.5440, 39782.29
678.7030, 40020.00
679.8610, 40131.00
681.0200, 40307.00
682.1780, 40538.00
683.3360, 40482.00
684.4940, 40984.00
685.6520, 41244.00
686.8090, 41018.00
687.9670, 41484.00
689.1240, 41686.00
690.2810, 41636.00
691.4380, 41807.00
692.5950, 42142.00
693.7520, 42172.00
694.9080, 42275.00
696.0650, 42706.00
697.2210, 42642.00
698.3770, 42802.00
699.5330, 42905.00
700.6880, 42900.00
701.8440, 42920.00
702.9990, 42958.00
704.1550, 43047.00
705.3100, 42941.00
706.4650, 43132.19
707.6190, 43265.00
708.7740, 43260.00
709.9290, 43545.00
711.0830, 43256.00
712.2370, 43289.00
713.3910, 43635.00
714.5450, 43566.18
715.6980, 43684.17
716.8520, 43639.00
718.0050, 43799.00
719.1580, 43387.00
720.3110, 43481.00
721.4640, 43222.00
722.6170, 43181.00
723.7700, 43045.00
724.9220, 42729.00
726.0740, 42621.11
727.2260, 42585.00
728.3780, 42287.00
729.5300, 42273.00
730.6810, 42274.00
731.8330, 42241.00
732.9840, 42184.00
734.1350, 41798.00
735.2860, 41613.00
736.4370, 41963.00
737.5880, 41299.00
738.7380, 41521.00
739.8880, 41272.00
741.0390, 41198.00
742.1890, 41312.00
743.3380, 41094.00
744.4880, 40999.00
745.6380, 41059.00
746.7870, 40955.00
747.9360, 41053.00
749.0850, 41011.00
750.2340, 41022.00
751.3830, 40754.00
752.5310, 40731.00
753.6800, 40601.00
754.8280, 40989.00
755.9760, 40994.00
757.1240, 40819.00
758.2720, 40958.00
759.4190, 40800.00
760.5670, 41266.00
761.7140, 41255.00
762.8610, 40942.00
764.0080, 41051.00
765.1550, 40807.00
766.3020, 40862.00
767.4480, 40829.00
768.5950, 40708.93
769.7410, 40677.00
770.8870, 40599.00
772.0330, 40520.00
773.1780, 40551.00
774.3240, 40416.00
775.4690, 40313.00
776.6140, 40240.00
777.7590, 40280.00
778.9040, 40266.00
780.0490, 39891.00
781.1940, 40116.00
782.3380, 39933.00
783.4820, 39671.00
784.6260, 39805.00
785.7700, 39965.00
786.9140, 39606.00
788.0580, 39255.00
789.2010, 39045.00
790.3450, 38774.00
791.4880, 38603.00
792.6310, 38488.46
793.7730, 38247.00
794.9160, 38374.00
796.0590, 38131.00
797.2010, 38149.00
798.3430, 37940.00
799.4850, 37812.00
800.6270, 37332.00
801.7690, 37551.00
802.9100, 37228.00
804.0520, 37261.00
805.1930, 37131.00
806.3340, 36844.00
807.4750, 36962.00
808.6160, 36755.00
809.7560, 36914.00
810.8970, 36705.00
812.0370, 36589.00
813.1770, 36568.00
814.3170, 36722.00
815.4570, 36462.00
816.5960, 36513.00
817.7360, 36195.00
818.8750, 36364.00
820.0140, 36294.00
821.1530, 36406.00
822.2920, 36353.00
823.4310, 36373.50
824.5690, 36282.00
825.7070, 36342.00
826.8460, 36277.00
827.9840, 36151.00
829.1220, 36103.00
830.2590, 36151.00
831.3970, 36113.00
832.5340, 35878.00
833.6710, 35933.00
834.8080, 35864.00
835.9450, 35891.00
837.0820, 36199.00
838.2190, 36188.00
839.3550, 35964.00
840.4910, 36155.00
841.6270, 36004.00
842.7630, 36127.00
843.8990, 35910.00
845.0350, 36061.00
846.1700, 35855.00
847.3060, 35995.00
848.4410, 36224.00
849.5760, 36062.00
850.7100, 36204.00
851.8450, 36075.00
852.9800, 36220.00
854.1140, 36431.00
855.2480, 36105.00
856.3820, 36291.00
857.5160, 36467.00
858.6500, 36400.00
859.7830, 37044.00
860.9170, 36763.52
862.0500, 37009.00
863.1830, 36479.00
864.3160, 36514.00
865.4480, 36313.00
866.5810, 36431.00
867.7130, 36479.00
868.8460, 36806.00
869.9780, 37015.00
871.1100, 36738.00
872.2410, 36772.00
873.3730, 36769.00
874.5050, 36835.00
875.6360, 36841.84
876.7670, 36933.00
877.8980, 36896.00
879.0290, 36991.00
880.1590, 37049.00
881.2900, 36971.00
882.4200, 36863.00
883.5500, 37260.00
884.6800, 37036.00
885.8100, 37312.00
886.9400, 37145.00
888.0690, 37231.00
889.1990, 37284.00
890.3280, 37112.00
891.4570, 37264.00
892.5860, 37398.00
893.7140, 37459.00
894.8430, 37513.00
895.9710, 37413.00
897.1000, 37394.00
898.2280, 37440.00
899.3560, 37493.00
900.4830, 37782.00
901.6110, 37687.00
902.7380, 37729.00
903.8660, 37852.00
904.9930, 37793.00
906.1200, 37632.00
907.2460, 37733.00
908.3730, 37943.00
909.5000, 37788.00
910.6260, 37931.00
911.7520, 37876.00
912.8780, 37988.00
914.0040, 37915.00
915.1290, 37950.00
916.2550, 38088.00
917.3800, 38031.00
918.5050, 38251.00
919.6300, 37910.00
920.7550, 38321.00
921.8800, 38326.00
923.0040, 38655.00
924.1290, 38341.00
925.2530, 38381.00
926.3770, 38396.00
927.5010, 38341.00
928.6250, 38517.00
929.7480, 38659.00
930.8720, 38631.00
931.9950, 38486.00
933.1180, 38972.00
934.2410, 39150.00
935.3640, 39083.00
936.4860, 38688.00
937.6090, 38835.00
938.7310, 39082.00
939.8530, 38947.00
940.9750, 39160.00
942.0970, 39265.00
943.2180, 39093.00
944.3400, 39363.00
945.4610, 39255.00
946.5820, 39146.00
947.7030, 39131.00
948.8240, 39413.00
949.9450, 39541.00
951.0650, 39390.00
952.1860, 39261.00
953.3060, 39493.00
954.4260, 39544.00
955.5460, 39757.00
956.6650, 39396.00
957.7850, 39712.00
958.9040, 39608.00
960.0230, 39442.00
961.1420, 39557.00
962.2610, 39465.00
963.3800, 39747.00
964.4990, 39527.00
965.6170, 39637.00
966.7350, 39807.00
967.8530, 39779.00
968.9710, 39918.00
970.0890, 39850.00
971.2070, 40078.00
972.3240, 40037.00
973.4410, 40251.00
974.5580, 40130.00
975.6750, 40104.00
976.7920, 40398.00
977.9090, 40326.00
979.0250, 40771.00
980.1410, 40736.00
981.2580, 40606.00
982.3740, 40744.00
983.4890, 40656.00
984.6050, 41175.00
985.7200, 41060.00
986.8360, 41478.00
987.9510, 41493.00
989.0660, 41883.00
990.1810, 41988.00
991.2950, 42031.00
992.4100, 42108.00
993.5240, 42398.66
994.6390, 42603.67
995.7530, 43062.00
996.8660, 43167.00
997.9800, 43557.00
999.0940, 43717.00
1000.207, 43909.00
1001.320, 44368.00
1002.433, 44662.05
1003.546, 45354.00
1004.659, 45594.00
1005.772, 46046.00
1006.884, 46727.00
1007.996, 46910.00
1009.108, 47656.00
1010.220, 48143.00
1011.332, 49213.00
1012.444, 49414.00
1013.555, 50261.00
1014.666, 51224.00
1015.777, 51782.00
1016.888, 52806.00
1017.999, 53233.00
1019.110, 53711.00
1020.220, 54407.00
1021.331, 55357.00
1022.441, 55938.00
1023.551, 56704.00
1024.661, 57205.00
1025.770, 57612.70
1026.880, 58194.00
1027.989, 58249.00
1029.098, 58674.00
1030.207, 58967.00
1031.316, 58852.00
1032.425, 58324.00
1033.533, 57576.00
1034.642, 57375.00
1035.750, 56542.00
1036.858, 55672.00
1037.966, 54230.00
1039.073, 53833.00
1040.181, 52951.00
1041.288, 52284.00
1042.396, 51540.00
1043.503, 50807.00
1044.610, 49902.00
1045.716, 49283.00
1046.823, 48614.00
1047.929, 48216.00
1049.036, 47823.00
1050.142, 47383.00
1051.248, 46865.00
1052.353, 46603.00
1053.459, 46231.00
1054.564, 45827.00
1055.670, 45678.67
1056.775, 45448.00
1057.880, 45341.00
1058.985, 45270.00
1060.089, 45108.00
1061.194, 45030.00
1062.298, 45197.00
1063.402, 44805.00
1064.506, 44947.00
1065.610, 44802.00
1066.713, 44589.00
1067.817, 44381.00
1068.920, 44375.00
1070.023, 44449.00
1071.126, 44308.00
1072.229, 44158.00
1073.332, 44443.00
1074.435, 44106.00
1075.537, 44189.00
1076.639, 44039.00
1077.741, 44040.00
1078.843, 43982.00
1079.945, 43951.00
1081.046, 43810.00
1082.148, 43871.00
1083.249, 43708.00
1084.350, 43530.00
1085.451, 43330.00
1086.551, 43284.44
1087.652, 43198.83
1088.752, 43240.00
1089.853, 43161.00
1090.953, 43220.00
1092.053, 43218.00
1093.152, 43252.00
1094.252, 43232.00
1095.351, 43213.37
1096.451, 42989.00
1097.550, 43132.00
1098.649, 42785.00
1099.748, 42686.00
1100.846, 42476.00
1101.945, 42639.00
1103.043, 42469.00
1104.141, 42411.00
1105.239, 42438.00
1106.337, 42280.00
1107.434, 42567.00
1108.532, 42267.00
1109.629, 42136.00
1110.726, 42361.00
1111.823, 42189.00
1112.920, 42224.00
1114.017, 42220.00
1115.113, 42342.00
1116.210, 42275.00
1117.306, 42628.00
1118.402, 42139.00
1119.498, 42429.00
1120.593, 42598.00
1121.689, 42229.00
1122.784, 42302.00
1123.879, 42538.00
1124.974, 42463.00
1126.069, 42543.00
1127.164, 42399.00
1128.259, 42432.00
1129.353, 42296.00
1130.447, 42275.00
1131.541, 42244.00
1132.635, 42410.00
1133.729, 42321.00
1134.822, 42430.00
1135.916, 42383.00
1137.009, 42569.00
1138.102, 42579.00
1139.195, 42390.00
1140.288, 42513.00
1141.380, 42606.00
1142.473, 42531.00
1143.565, 42689.02
1144.657, 42702.00
1145.749, 42836.00
1146.841, 42844.00
1147.932, 42822.00
1149.024, 42432.00
1150.115, 42528.00
1151.206, 42675.00
1152.297, 42517.00
1153.388, 42658.00
1154.479, 42762.00
1155.569, 42739.00
1156.659, 42718.00
1157.750, 42629.00
1158.839, 42936.00
1159.929, 42691.00
1161.019, 42873.00
1162.108, 43097.00
1163.198, 43111.00
1164.287, 42880.00
1165.376, 42965.00
1166.465, 43037.00
1167.553, 43197.00
1168.642, 43186.11
1169.730, 43152.50
1170.818, 43172.00
1171.906, 43080.00
1172.994, 43005.00
1174.082, 43209.00
1175.170, 43157.00
1176.257, 43245.00
1177.344, 43079.00
1178.431, 43190.00
1179.518, 43298.00
1180.605, 43141.00
1181.691, 43039.00
1182.778, 43291.00
1183.864, 43335.00
1184.950, 43137.89
1186.036, 43338.09
1187.122, 43462.35
1188.207, 43514.74
1189.292, 43280.10
1190.378, 43416.13
1191.463, 43403.59
1192.548, 43384.96
1193.632, 43573.11
1194.717, 43380.22
1195.801, 43565.09
1196.886, 43599.17
1197.970, 43702.25
1199.054, 43655.88
1200.137, 43655.64
1201.221, 43804.93
1202.305, 43871.44
1203.388, 43807.84
1204.471, 43915.28
1205.554, 43717.12
1206.637, 43787.12
1207.719, 43972.82
1208.802, 43916.73
1209.884, 44026.88
1210.966, 44073.71
1212.048, 43832.76
1213.130, 44092.29
1214.212, 44135.37
1215.293, 43956.20
1216.374, 44198.55
1217.456, 44050.04
1218.536, 44041.00
1219.617, 44136.99
1220.698, 44123.52
1221.778, 44282.59
1222.859, 44275.45
1223.939, 44253.41
1225.019, 44296.21
1226.099, 44155.32
1227.178, 44355.18
1228.258, 44322.28
1229.337, 44405.07
1230.417, 44514.11
1231.496, 44422.30
1232.574, 44543.08
1233.653, 44334.18
1234.732, 44401.15
1235.810, 44438.39
1236.888, 44640.00
1237.966, 44981.00
1239.044, 44857.00
1240.122, 44930.00
1241.199, 44926.00
1242.277, 44936.00
1243.354, 44862.00
1244.431, 44825.00
1245.508, 44868.37
1246.585, 44887.00
1247.661, 44928.00
1248.738, 45051.00
1249.814, 45027.00
1250.890, 45104.00
1251.966, 44913.00
1253.042, 45351.00
1254.117, 44972.00
1255.193, 45183.00
1256.268, 45365.00
1257.343, 45391.00
1258.418, 45351.31
1259.493, 45251.00
1260.567, 45285.00
1261.642, 45049.00
1262.716, 45444.00
1263.790, 45224.00
1264.864, 45374.00
1265.938, 45261.00
1267.011, 45736.00
1268.085, 45209.00
1269.158, 45655.00
1270.231, 45775.00
1271.304, 45686.00
1272.377, 45757.00
1273.450, 45669.00
1274.522, 45572.00
1275.594, 45668.00
1276.666, 45515.00
1277.738, 45512.00
1278.810, 45858.00
1279.882, 45561.21
1280.953, 45766.88
1282.025, 45896.66
1283.096, 45954.55
1284.167, 45725.41
1285.238, 45866.91
1286.308, 45859.85
1287.379, 45846.73
