##NAMES=Lazulite
##RRUFFID=R060494
##IDEAL CHEMISTRY=MgAl_2_(PO_4_)_2_(OH)_2_
##LOCALITY=Champion mine, White Mountains, Mono County, California, USA
##OWNER=RRUFF
##SOURCE=Michael Scott
##DESCRIPTION=Dark-blue coarsely crystalline mass
##STATUS=The identification of this mineral has been confirmed by X-ray diffraction and chemical analysis
##URL=rruff.info/R060494
##MEASURED CHEMISTRY=(Mg_0.67_Fe^2+^_0.33_)_Î£=1_Al_2.00_(P_1.00_O_4_)_2_(OH)_2_
##PIN_ID=M01822
##ORIENTATION=Laser parallel to a* (1 0 0). Fiducial mark perpendicular to laser is parallel to b [0 1 0]
60.30200, 7398.000
61.54400, 7203.000
62.78600, 6905.000
64.02800, 6482.000
65.26900, 6011.000
66.51100, 5514.000
67.75200, 5011.000
68.99300, 4739.000
70.23400, 4353.000
71.47500, 3983.000
72.71600, 3778.000
73.95600, 3484.000
75.19700, 3338.000
76.43700, 3295.000
77.67700, 3229.000
78.91700, 3025.000
80.15600, 2809.000
81.39600, 2680.000
82.63500, 2581.000
83.87400, 2587.000
85.11300, 2579.000
86.35200, 2513.000
87.59100, 2517.000
88.83000, 2391.000
90.06800, 2397.000
91.30600, 2370.000
92.54400, 2400.000
93.78200, 2410.000
95.02000, 2327.000
96.25700, 2394.000
97.49400, 2351.000
98.73200, 2388.000
99.96900, 2380.000
101.2060, 2413.000
102.4420, 2388.000
103.6790, 2402.000
104.9150, 2440.000
106.1510, 2559.000
107.3870, 2679.000
108.6230, 2831.000
109.8590, 2993.000
111.0940, 3108.273
112.3300, 3054.000
113.5650, 3365.000
114.8000, 3599.000
116.0350, 3751.000
117.2700, 3560.000
118.5040, 3590.000
119.7390, 3588.000
120.9730, 3533.000
122.2070, 3741.000
123.4410, 3907.000
124.6740, 4048.000
125.9080, 3996.000
127.1410, 4118.000
128.3740, 4189.000
129.6080, 4296.000
130.8400, 4345.000
132.0730, 4488.000
133.3060, 4398.000
134.5380, 4403.000
135.7700, 4500.000
137.0020, 4492.000
138.2340, 4567.000
139.4660, 4675.000
140.6980, 4771.000
141.9290, 4634.000
143.1600, 4596.000
144.3910, 4605.000
145.6220, 4698.000
146.8530, 4640.000
148.0830, 4723.000
149.3140, 4779.000
150.5440, 4692.000
151.7740, 4672.000
153.0040, 4806.000
154.2340, 4705.000
155.4630, 4767.000
156.6930, 4826.000
157.9220, 4756.000
159.1510, 4773.000
160.3800, 4845.000
161.6090, 4881.000
162.8370, 4877.000
164.0660, 4977.000
165.2940, 5074.000
166.5220, 5055.000
167.7500, 5068.000
168.9780, 5069.000
170.2050, 5143.070
171.4330, 5184.216
172.6600, 5331.000
173.8870, 5367.000
175.1140, 5482.000
176.3410, 5672.000
177.5670, 5881.000
178.7940, 6383.000
180.0200, 6867.000
181.2460, 7536.000
182.4720, 8388.000
183.6980, 9353.000
184.9230, 10532.00
186.1490, 12127.00
187.3740, 14761.00
188.5990, 17795.00
189.8240, 20840.00
191.0490, 22828.00
192.2730, 22579.00
193.4980, 19674.00
194.7220, 16105.00
195.9460, 13032.00
197.1700, 12303.00
198.3940, 9594.000
199.6180, 8103.000
200.8410, 7570.000
202.0640, 7042.000
203.2870, 6557.000
204.5100, 6114.000
205.7330, 5745.191
206.9560, 5472.000
208.1780, 5262.000
209.4000, 5207.000
210.6230, 5103.455
211.8450, 5110.466
213.0660, 5112.000
214.2880, 5249.000
215.5090, 5334.000
216.7310, 5495.000
217.9520, 5604.000
219.1730, 5673.000
220.3940, 5978.000
221.6140, 6238.000
222.8350, 6346.000
224.0550, 6460.000
225.2750, 6382.000
226.4950, 6259.000
227.7150, 6065.000
228.9350, 5851.000
230.1540, 5681.000
231.3730, 5486.000
232.5930, 5480.000
233.8120, 5522.000
235.0300, 5374.000
236.2490, 5393.000
237.4680, 5446.000
238.6860, 5448.000
239.9040, 5584.000
241.1220, 5824.000
242.3400, 6048.000
243.5580, 6402.000
244.7750, 6816.000
245.9920, 7268.000
247.2100, 7852.000
248.4270, 8775.000
249.6430, 9991.000
250.8600, 11117.00
252.0770, 12639.00
253.2930, 13513.00
254.5090, 13183.00
255.7250, 12028.00
256.9410, 10442.00
258.1570, 9007.000
259.3720, 8068.000
260.5880, 7264.000
261.8030, 6930.000
263.0180, 6681.000
264.2330, 6502.000
265.4470, 6550.000
266.6620, 6751.000
267.8760, 6955.000
269.0900, 7276.000
270.3040, 7592.000
271.5180, 8167.000
272.7320, 8749.000
273.9460, 9549.000
275.1590, 10442.00
276.3720, 11443.00
277.5850, 12836.00
278.7980, 13738.00
280.0110, 14583.00
281.2230, 14762.54
282.4360, 15050.00
283.6480, 14121.00
284.8600, 13107.00
286.0720, 11749.00
287.2840, 10448.00
288.4950, 9187.000
289.7070, 8331.590
290.9180, 7597.000
292.1290, 6993.000
293.3400, 6483.000
294.5500, 6246.000
295.7610, 5994.000
296.9710, 5720.000
298.1820, 5550.000
299.3920, 5416.000
300.6020, 5410.000
301.8110, 5177.000
303.0210, 5225.000
304.2300, 5141.000
305.4400, 5161.000
306.6490, 4987.000
307.8580, 5096.000
309.0660, 5110.000
310.2750, 5145.000
311.4830, 5249.000
312.6920, 5367.000
313.9000, 5477.000
315.1080, 5651.000
316.3160, 5932.000
317.5230, 6161.000
318.7310, 6362.000
319.9380, 6570.000
321.1450, 6660.000
322.3520, 6625.000
323.5590, 6358.000
324.7650, 6030.000
325.9720, 5783.000
327.1780, 5656.000
328.3840, 5534.000
329.5900, 5397.853
330.7960, 5333.372
332.0020, 5254.000
333.2070, 5208.000
334.4120, 5241.000
335.6170, 5178.000
336.8220, 5304.000
338.0270, 5305.000
339.2320, 5274.000
340.4360, 5271.000
341.6410, 5222.000
342.8450, 5340.000
344.0490, 5244.000
345.2530, 5367.000
346.4560, 5338.000
347.6600, 5336.000
348.8630, 5397.000
350.0660, 5386.000
351.2690, 5371.000
352.4720, 5404.000
353.6750, 5397.000
354.8770, 5466.000
356.0790, 5477.000
357.2820, 5554.000
358.4840, 5690.000
359.6860, 5687.000
360.8870, 5787.000
362.0890, 5959.000
363.2900, 6213.000
364.4910, 6362.000
365.6920, 6670.000
366.8930, 7147.000
368.0940, 7446.000
369.2940, 8006.000
370.4950, 8675.000
371.6950, 9426.000
372.8950, 10200.00
374.0950, 10942.00
375.2940, 11900.00
376.4940, 12620.00
377.6930, 12976.00
378.8930, 12999.00
380.0920, 12508.00
381.2910, 11821.00
382.4890, 10680.00
383.6880, 9680.000
384.8860, 8869.000
386.0840, 8159.000
387.2820, 7626.000
388.4800, 7177.000
389.6780, 7000.000
390.8760, 6755.000
392.0730, 6698.000
393.2700, 6620.000
394.4670, 6549.000
395.6640, 6492.000
396.8610, 6663.000
398.0580, 6787.000
399.2540, 7029.000
400.4500, 7591.000
401.6460, 8487.000
402.8420, 9664.000
404.0380, 11412.00
405.2340, 13666.00
406.4290, 15895.00
407.6240, 18677.00
408.8190, 23530.00
410.0140, 29603.00
411.2090, 36756.00
412.4040, 42465.00
413.5980, 42378.00
414.7920, 36526.00
415.9870, 28928.00
417.1810, 22248.00
418.3740, 17257.00
419.5680, 14390.00
420.7610, 12774.00
421.9550, 12008.00
423.1480, 16197.00
424.3410, 17703.00
425.5340, 12926.00
426.7260, 11349.00
427.9190, 10806.00
429.1110, 10052.00
430.3030, 9186.000
431.4950, 8254.000
432.6870, 7618.000
433.8790, 7127.000
435.0700, 6791.000
436.2610, 6368.000
437.4530, 6287.000
438.6440, 5994.000
439.8340, 5934.000
441.0250, 5786.000
442.2160, 5663.000
443.4060, 5576.000
444.5960, 5640.000
445.7860, 5645.000
446.9760, 5626.000
448.1660, 5640.000
449.3550, 5694.000
450.5450, 5678.000
451.7340, 5666.000
452.9230, 5630.000
454.1120, 5762.000
455.3000, 5675.000
456.4890, 5740.000
457.6770, 5784.000
458.8650, 5945.000
460.0530, 5976.000
461.2410, 6027.000
462.4290, 6048.000
463.6170, 6270.000
464.8040, 6360.000
465.9910, 6571.000
467.1780, 6997.000
468.3650, 7386.000
469.5520, 7855.000
470.7390, 8601.000
471.9250, 9367.000
473.1110, 10113.00
474.2970, 11068.00
475.4830, 11940.00
476.6690, 12611.00
477.8540, 12752.00
479.0400, 12643.00
480.2250, 11932.00
481.4100, 11014.00
482.5950, 9908.000
483.7800, 8951.000
484.9650, 8109.000
486.1490, 7427.000
487.3330, 6953.000
488.5170, 6569.000
489.7010, 6231.000
490.8850, 6122.000
492.0690, 5894.000
493.2520, 5689.000
494.4350, 5678.000
495.6190, 5589.000
496.8020, 5447.000
497.9840, 5380.000
499.1670, 5303.375
500.3490, 5283.000
501.5320, 5206.000
502.7140, 5227.000
503.8960, 5226.000
505.0780, 5106.000
506.2590, 5115.000
507.4410, 5216.000
508.6220, 5082.000
509.8030, 5112.000
510.9840, 5053.000
512.1650, 5124.000
513.3460, 5151.000
514.5260, 5211.000
515.7070, 5234.000
516.8870, 5162.000
518.0670, 5169.000
519.2470, 5238.000
520.4260, 5356.000
521.6060, 5237.000
522.7850, 5340.000
523.9650, 5404.000
525.1440, 5437.000
526.3220, 5494.000
527.5010, 5466.000
528.6800, 5576.000
529.8580, 5593.000
531.0360, 5765.000
532.2140, 5805.000
533.3920, 5867.000
534.5700, 5982.000
535.7480, 6026.000
536.9250, 6002.000
538.1020, 5970.000
539.2790, 6043.000
540.4560, 6052.000
541.6330, 5961.000
542.8100, 5905.000
543.9860, 5842.000
545.1620, 5711.000
546.3380, 5764.000
547.5140, 5616.000
548.6900, 5559.000
549.8660, 5600.000
551.0410, 5468.000
552.2160, 5406.000
553.3910, 5401.000
554.5660, 5367.000
555.7410, 5376.000
556.9160, 5350.000
558.0900, 5406.000
559.2650, 5354.000
560.4390, 5308.000
561.6130, 5376.000
562.7860, 5326.000
563.9600, 5348.000
565.1340, 5262.000
566.3070, 5259.000
567.4800, 5296.000
568.6530, 5317.000
569.8260, 5300.000
570.9980, 5284.000
572.1710, 5342.000
573.3430, 5287.000
574.5150, 5250.000
575.6870, 5202.000
576.8590, 5231.000
578.0310, 5293.000
579.2030, 5219.000
580.3740, 5228.000
581.5450, 5229.000
582.7160, 5187.000
583.8870, 5167.000
585.0580, 5200.000
586.2280, 5251.000
587.3990, 5280.000
588.5690, 5281.000
589.7390, 5384.000
590.9090, 5368.000
592.0780, 5366.000
593.2480, 5503.000
594.4170, 5580.522
595.5870, 5798.000
596.7560, 5929.000
597.9250, 6072.000
599.0930, 6377.000
600.2620, 6614.000
601.4300, 6992.000
602.5990, 7380.000
603.7670, 7951.000
604.9350, 8597.000
606.1020, 9238.000
607.2700, 10150.00
608.4370, 10952.00
609.6050, 11919.00
610.7720, 12774.00
611.9390, 13283.00
613.1060, 13730.00
614.2720, 13461.00
615.4390, 13156.00
616.6050, 12661.00
617.7710, 12033.00
618.9370, 11762.00
620.1030, 11406.00
621.2680, 11389.00
622.4340, 11469.00
623.5990, 11698.00
624.7640, 12118.00
625.9290, 12941.00
627.0940, 13563.00
628.2590, 14481.00
629.4230, 15558.00
630.5880, 16663.00
631.7520, 17501.00
632.9160, 18274.80
634.0800, 19074.00
635.2440, 19438.00
636.4070, 19835.00
637.5700, 20135.39
638.7340, 20223.00
639.8970, 20521.00
641.0600, 20805.00
642.2220, 20909.00
643.3850, 21270.00
644.5470, 21068.00
645.7090, 20696.00
646.8710, 19862.95
648.0330, 19024.00
649.1950, 17300.00
650.3570, 16714.00
651.5180, 14976.00
652.6790, 12945.00
653.8400, 11643.00
655.0010, 10228.00
656.1620, 9816.000
657.3230, 8647.000
658.4830, 7869.000
659.6430, 7523.000
660.8030, 7027.000
661.9630, 6771.000
663.1230, 6494.767
664.2830, 6424.000
665.4420, 6100.000
666.6020, 5891.000
667.7610, 5746.000
668.9200, 5508.000
670.0780, 5511.000
671.2370, 5405.000
672.3960, 5256.000
673.5540, 5212.000
674.7120, 5111.000
675.8700, 5104.000
677.0280, 4957.000
678.1860, 5054.000
679.3430, 4993.000
680.5000, 4905.000
681.6580, 4868.000
682.8150, 4791.134
683.9710, 4785.000
685.1280, 4692.000
686.2850, 4721.000
687.4410, 4748.000
688.5970, 4742.000
689.7530, 4679.000
690.9090, 4659.000
692.0650, 4682.000
693.2200, 4692.000
694.3760, 4617.000
695.5310, 4647.000
696.6860, 4670.000
697.8410, 4609.084
698.9960, 4633.438
700.1500, 4577.000
701.3050, 4589.000
702.4590, 4680.000
703.6130, 4609.000
704.7670, 4714.000
705.9210, 4688.000
707.0740, 4714.000
708.2280, 4911.000
709.3810, 4796.825
710.5340, 4804.725
711.6870, 4689.000
712.8400, 4698.000
713.9930, 4638.000
715.1450, 4675.000
716.2970, 4602.000
717.4490, 4595.000
718.6010, 4542.000
719.7530, 4647.000
720.9050, 4609.169
722.0560, 4614.788
723.2080, 4686.000
724.3590, 4563.000
725.5100, 4724.000
726.6610, 4632.000
727.8110, 4670.000
728.9620, 4685.000
730.1120, 4777.000
731.2620, 4743.000
732.4120, 4755.000
733.5620, 4719.000
734.7120, 4719.000
735.8620, 4787.000
737.0110, 4766.000
738.1600, 4840.000
739.3090, 4809.000
740.4580, 4858.000
741.6070, 4796.000
742.7550, 4870.000
743.9040, 4795.000
745.0520, 4809.000
746.2000, 4847.000
747.3480, 4891.000
748.4960, 4816.000
749.6430, 4877.000
750.7910, 4788.000
751.9380, 4788.000
753.0850, 4730.000
754.2320, 4656.000
755.3790, 4778.000
756.5260, 4738.000
757.6720, 4765.000
758.8180, 4751.000
759.9650, 4704.000
761.1110, 4721.000
762.2560, 4758.000
763.4020, 4767.000
764.5470, 4803.000
765.6930, 4717.000
766.8380, 4676.000
767.9830, 4754.000
769.1280, 4804.000
770.2720, 4728.000
771.4170, 4756.000
772.5610, 4839.000
773.7060, 4789.000
774.8500, 4848.000
775.9930, 4800.000
777.1370, 4807.000
778.2810, 4787.000
779.4240, 4813.920
780.5670, 4897.000
781.7100, 4881.000
782.8530, 4962.000
783.9960, 4981.000
785.1390, 4928.000
786.2810, 4916.000
787.4230, 4792.000
788.5650, 4905.000
789.7070, 4934.000
790.8490, 5014.000
791.9910, 4919.000
793.1320, 4918.000
794.2730, 4948.000
795.4140, 4932.000
796.5550, 4924.000
797.6960, 5006.000
798.8370, 4957.000
799.9770, 5009.000
801.1180, 4955.000
802.2580, 5086.000
803.3980, 4910.000
804.5380, 4980.000
805.6770, 4997.000
806.8170, 4918.000
807.9560, 4960.000
809.0950, 5000.000
810.2340, 5040.000
811.3730, 5011.000
812.5120, 5049.000
813.6500, 4919.000
814.7890, 4980.000
815.9270, 5014.000
817.0650, 4955.000
818.2030, 5023.000
819.3400, 5010.000
820.4780, 5041.000
821.6150, 5069.000
822.7530, 5091.729
823.8900, 5073.000
825.0270, 5139.000
826.1630, 5175.000
827.3000, 5149.000
828.4360, 5190.000
829.5730, 5280.000
830.7090, 5175.000
831.8450, 5338.000
832.9800, 5293.000
834.1160, 5318.000
835.2520, 5368.000
836.3870, 5468.000
837.5220, 5465.000
838.6570, 5515.000
839.7920, 5499.000
840.9260, 5628.000
842.0610, 5706.000
843.1950, 5778.000
844.3290, 5847.669
845.4630, 5891.561
846.5970, 5931.000
847.7310, 5962.000
848.8640, 5969.000
849.9980, 5992.000
851.1310, 5932.000
852.2640, 5952.000
853.3970, 6049.000
854.5300, 5940.000
855.6620, 6050.000
856.7940, 6073.000
857.9270, 6044.000
859.0590, 5937.000
860.1910, 5945.000
861.3220, 5872.000
862.4540, 5853.000
863.5850, 5933.000
864.7170, 5757.000
865.8480, 5786.000
866.9790, 5624.000
868.1090, 5545.000
869.2400, 5559.000
870.3710, 5496.000
871.5010, 5465.000
872.6310, 5386.000
873.7610, 5416.000
874.8910, 5273.000
876.0200, 5194.000
877.1500, 5230.000
878.2790, 5198.000
879.4080, 5157.000
880.5370, 5165.000
881.6660, 5074.000
882.7950, 5180.000
883.9230, 5151.000
885.0520, 5110.000
886.1800, 5158.000
887.3080, 5094.000
888.4360, 5129.000
889.5640, 5074.000
890.6910, 5047.000
891.8180, 5072.000
892.9460, 5053.000
894.0730, 4990.000
895.2000, 5094.000
896.3260, 4996.000
897.4530, 5150.000
898.5790, 5104.000
899.7060, 5010.000
900.8320, 5051.000
901.9580, 5118.000
903.0830, 5091.000
904.2090, 5058.000
905.3340, 4998.000
906.4600, 5063.000
907.5850, 5063.000
908.7100, 5110.000
909.8350, 5095.000
910.9590, 5021.000
912.0840, 5120.000
913.2080, 5072.000
914.3320, 5161.000
915.4560, 5058.000
916.5800, 5116.000
917.7040, 5113.000
918.8270, 5148.000
919.9510, 5120.000
921.0740, 5131.000
922.1970, 5131.000
923.3200, 5177.000
924.4430, 5145.000
925.5650, 5148.000
926.6870, 5246.000
927.8100, 5287.000
928.9320, 5226.000
930.0540, 5203.000
931.1750, 5153.000
932.2970, 5177.000
933.4180, 5222.000
934.5400, 5166.000
935.6610, 5253.000
936.7820, 5254.000
937.9030, 5249.000
939.0230, 5320.000
940.1440, 5426.000
941.2640, 5381.000
942.3840, 5315.000
943.5040, 5299.000
944.6240, 5389.000
945.7440, 5357.000
946.8630, 5369.000
947.9820, 5358.000
949.1020, 5361.228
950.2210, 5417.000
951.3390, 5395.000
952.4580, 5335.000
953.5770, 5383.000
954.6950, 5395.000
955.8130, 5538.000
956.9310, 5487.000
958.0490, 5550.000
959.1670, 5555.000
960.2840, 5488.000
961.4020, 5650.000
962.5190, 5638.000
963.6360, 5637.000
964.7530, 5724.000
965.8700, 5691.000
966.9860, 5673.000
968.1030, 5769.000
969.2190, 5730.000
970.3350, 5917.000
971.4510, 5811.000
972.5670, 5912.000
973.6830, 5932.000
974.7980, 6070.000
975.9140, 6009.000
977.0290, 6079.000
978.1440, 6338.000
979.2590, 6344.578
980.3730, 6459.510
981.4880, 6571.000
982.6020, 6651.000
983.7160, 6766.000
984.8300, 6992.000
985.9440, 7082.000
987.0580, 7236.000
988.1710, 7591.000
989.2850, 7817.000
990.3980, 8030.000
991.5110, 8339.000
992.6240, 8532.000
993.7370, 8789.000
994.8490, 9311.000
995.9620, 9640.000
997.0740, 9923.000
998.1860, 10141.00
999.2980, 10416.00
1000.410, 10494.00
1001.522, 10548.00
1002.633, 10543.00
1003.744, 10259.00
1004.856, 10045.00
1005.966, 9865.000
1007.077, 9531.000
1008.188, 9281.000
1009.298, 9164.000
1010.409, 9007.116
1011.519, 8867.000
1012.629, 8918.000
1013.739, 8882.000
1014.849, 8940.000
1015.958, 9027.000
1017.068, 9098.000
1018.177, 8947.000
1019.286, 8897.000
1020.395, 8674.000
1021.503, 8610.000
1022.612, 8489.000
1023.720, 8294.000
1024.829, 8313.000
1025.937, 8330.000
1027.045, 8394.000
1028.153, 8439.000
1029.260, 8528.000
1030.368, 8662.114
1031.475, 8809.532
1032.582, 9017.000
1033.689, 9207.000
1034.796, 9482.000
1035.903, 9742.000
1037.009, 10270.00
1038.115, 10731.82
1039.222, 11369.00
1040.328, 12120.00
1041.433, 13068.00
1042.539, 14275.00
1043.645, 15540.00
1044.750, 17224.00
1045.855, 19134.00
1046.960, 21942.00
1048.065, 25075.00
1049.170, 29079.00
1050.275, 33913.00
1051.379, 39080.00
1052.483, 44849.00
1053.587, 50664.00
1054.691, 55801.00
1055.795, 59511.00
1056.899, 61128.00
1058.002, 60512.00
1059.105, 57536.00
1060.209, 52471.00
1061.312, 46455.00
1062.414, 39971.00
1063.517, 34141.00
1064.620, 28735.00
1065.722, 24316.00
1066.824, 20846.00
1067.926, 18259.00
1069.028, 16153.00
1070.130, 14618.00
1071.231, 13401.00
1072.333, 12487.00
1073.434, 11768.00
1074.535, 11270.00
1075.636, 10869.00
1076.737, 10675.00
1077.837, 10590.00
1078.938, 10370.00
1080.038, 10345.00
1081.138, 10551.00
1082.238, 10569.00
1083.338, 10784.00
1084.437, 11001.00
1085.537, 11480.00
1086.636, 12024.00
1087.735, 12579.00
1088.834, 13348.00
1089.933, 14057.00
1091.032, 15171.00
1092.130, 16516.37
1093.228, 18073.66
1094.327, 19774.00
1095.425, 21679.00
1096.523, 23650.00
1097.620, 25330.00
1098.718, 26760.00
1099.815, 27433.00
1100.912, 27089.00
1102.009, 25910.00
1103.106, 24110.00
1104.203, 21873.00
1105.300, 20813.00
1106.396, 17702.00
1107.492, 15640.00
1108.589, 14171.00
1109.685, 12988.00
1110.780, 11966.00
1111.876, 11179.00
1112.971, 10594.00
1114.067, 10056.00
1115.162, 10062.00
1116.257, 9598.602
1117.352, 9347.000
1118.446, 9216.000
1119.541, 9070.000
1120.635, 9082.000
1121.729, 9148.000
1122.823, 9271.000
1123.917, 9289.000
1125.011, 9472.000
1126.105, 9716.000
1127.198, 10181.00
1128.291, 10615.00
1129.384, 11328.00
1130.477, 11857.00
1131.570, 12840.00
1132.663, 13586.00
1133.755, 14094.00
1134.847, 14385.71
1135.940, 14317.66
1137.031, 14177.00
1138.123, 13519.00
1139.215, 12619.00
1140.306, 11745.00
1141.398, 10907.00
1142.489, 10095.00
1143.580, 9503.000
1144.671, 9037.000
1145.761, 8651.000
1146.852, 8316.000
1147.942, 8020.000
1149.033, 7796.000
1150.123, 7638.000
1151.213, 7525.000
1152.302, 7450.000
1153.392, 7432.000
1154.481, 7232.000
1155.571, 7167.000
1156.660, 7180.000
1157.749, 7110.000
1158.837, 7098.000
1159.926, 7016.000
1161.014, 6999.000
1162.103, 6999.000
1163.191, 6949.000
1164.279, 6872.000
1165.367, 6862.000
1166.454, 6833.000
1167.542, 6726.000
1168.629, 6749.000
1169.716, 6752.000
1170.803, 6651.000
1171.890, 6568.000
1172.977, 6502.000
1174.064, 6548.000
1175.150, 6448.000
1176.236, 6352.000
1177.322, 6421.000
1178.408, 6367.000
1179.494, 6157.000
1180.580, 6334.000
1181.665, 6201.000
1182.750, 6233.000
1183.835, 6140.000
1184.920, 6039.000
1186.005, 6063.000
1187.090, 6094.000
1188.174, 6060.000
1189.259, 6067.000
1190.343, 6034.000
1191.427, 5933.000
1192.511, 5973.000
1193.594, 5980.000
1194.678, 5863.000
1195.761, 5917.000
1196.844, 5873.000
1197.928, 5968.000
1199.010, 5918.000
1200.093, 5880.000
1201.176, 5907.000
1202.258, 5928.000
1203.340, 6004.000
1204.423, 6034.000
1205.504, 6049.000
1206.586, 6078.933
1207.668, 6092.000
1208.749, 6100.000
1209.831, 6110.000
1210.912, 6127.000
1211.993, 6131.106
1213.074, 6162.191
1214.154, 6146.000
1215.235, 6212.000
1216.315, 6228.000
1217.395, 6228.000
1218.475, 6206.122
1219.555, 6176.000
1220.635, 6124.000
1221.715, 6098.000
1222.794, 6094.000
1223.873, 6087.000
1224.952, 5999.000
1226.031, 6011.000
1227.110, 6033.000
1228.189, 6059.000
1229.267, 5952.000
1230.345, 5937.000
1231.424, 5923.000
1232.502, 5811.000
1233.579, 5826.000
1234.657, 5877.000
1235.735, 5838.000
1236.812, 5645.000
1237.889, 5723.000
1238.966, 5681.000
1240.043, 5731.000
1241.120, 5719.000
1242.196, 5750.000
1243.273, 5706.000
