##NAMES=Lazulite
##RRUFFID=R060494
##IDEAL CHEMISTRY=MgAl_2_(PO_4_)_2_(OH)_2_
##LOCALITY=Champion mine, White Mountains, Mono County, California, USA
##OWNER=RRUFF
##SOURCE=Michael Scott
##DESCRIPTION=Dark-blue coarsely crystalline mass
##STATUS=The identification of this mineral has been confirmed by X-ray diffraction and chemical analysis
##URL=rruff.info/R060494
##MEASURED CHEMISTRY=(Mg_0.67_Fe^2+^_0.33_)_Î£=1_Al_2.00_(P_1.00_O_4_)_2_(OH)_2_
##PIN_ID=M01007
##ORIENTATION=Laser parallel to c* (0 0 1). Fiducial mark perpendicular to laser is parallel to -a [-1 0 0]
60.30200, 5083.000
61.54400, 5333.000
62.78600, 4913.000
64.02800, 4974.000
65.26900, 4682.000
66.51100, 4225.000
67.75200, 3701.000
68.99300, 3890.000
70.23400, 4131.000
71.47500, 4034.000
72.71600, 4151.000
73.95600, 4303.000
75.19700, 4098.000
76.43700, 3509.000
77.67700, 3297.000
78.91700, 3531.000
80.15600, 3837.000
81.39600, 4015.000
82.63500, 4088.000
83.87400, 4114.000
85.11300, 4014.000
86.35200, 4102.221
87.59100, 4012.000
88.83000, 4078.000
90.06800, 3860.000
91.30600, 3630.000
92.54400, 3505.000
93.78200, 3615.000
95.02000, 3765.000
96.25700, 3959.000
97.49400, 4432.000
98.73200, 4424.000
99.96900, 4482.000
101.2060, 4740.000
102.4420, 4454.000
103.6790, 3990.000
104.9150, 4079.000
106.1510, 4138.000
107.3870, 4340.000
108.6230, 4664.000
109.8590, 4941.000
111.0940, 5190.000
112.3300, 5515.000
113.5650, 5953.000
114.8000, 6558.000
116.0350, 7058.000
117.2700, 7437.000
118.5040, 7605.000
119.7390, 7524.000
120.9730, 7876.000
122.2070, 8207.000
123.4410, 8531.000
124.6740, 9012.000
125.9080, 9530.000
127.1410, 9834.000
128.3740, 10131.00
129.6080, 10721.00
130.8400, 10817.00
132.0730, 11142.00
133.3060, 11408.00
134.5380, 11756.00
135.7700, 11923.00
137.0020, 12256.00
138.2340, 12664.74
139.4660, 13179.00
140.6980, 13414.00
141.9290, 13572.00
143.1600, 13641.00
144.3910, 13909.00
145.6220, 14114.00
146.8530, 14404.00
148.0830, 14316.00
149.3140, 14448.00
150.5440, 14337.00
151.7740, 14247.00
153.0040, 14262.00
154.2340, 14246.00
155.4630, 14332.00
156.6930, 14295.00
157.9220, 14033.00
159.1510, 14167.00
160.3800, 14399.00
161.6090, 14594.00
162.8370, 14929.00
164.0660, 15263.33
165.2940, 15529.51
166.5220, 16012.54
167.7500, 16197.00
168.9780, 16482.00
170.2050, 16942.00
171.4330, 17848.00
172.6600, 18445.00
173.8870, 18616.00
175.1140, 18496.00
176.3410, 17705.00
177.5670, 17533.00
178.7940, 17790.00
180.0200, 18770.00
181.2460, 20446.00
182.4720, 22708.00
183.6980, 24687.00
184.9230, 25859.00
186.1490, 25843.00
187.3740, 26695.00
188.5990, 28799.00
189.8240, 31635.00
191.0490, 33760.00
192.2730, 34112.00
193.4980, 32283.00
194.7220, 28284.00
195.9460, 24391.00
197.1700, 20937.00
198.3940, 19002.00
199.6180, 18079.00
200.8410, 17442.00
202.0640, 17034.00
203.2870, 16737.00
204.5100, 16538.00
205.7330, 16191.00
206.9560, 15986.00
208.1780, 16341.00
209.4000, 16550.00
210.6230, 17194.00
211.8450, 17880.00
213.0660, 18745.00
214.2880, 19798.00
215.5090, 20845.00
216.7310, 21653.00
217.9520, 22334.00
219.1730, 22983.00
220.3940, 23423.00
221.6140, 24153.00
222.8350, 24349.00
224.0550, 24052.00
225.2750, 22933.00
226.4950, 21218.00
227.7150, 19332.00
228.9350, 17580.00
230.1540, 16252.00
231.3730, 15145.00
232.5930, 14475.00
233.8120, 13994.00
235.0300, 13783.00
236.2490, 13742.00
237.4680, 13623.00
238.6860, 13771.00
239.9040, 14073.00
241.1220, 14357.00
242.3400, 15205.00
243.5580, 16134.00
244.7750, 17542.00
245.9920, 18766.00
247.2100, 19332.00
248.4270, 19703.00
249.6430, 20199.00
250.8600, 21072.00
252.0770, 22336.00
253.2930, 23481.00
254.5090, 23280.00
255.7250, 22266.00
256.9410, 20259.00
258.1570, 18351.00
259.3720, 16579.00
260.5880, 15414.00
261.8030, 14745.00
263.0180, 14342.00
264.2330, 14123.00
265.4470, 13883.00
266.6620, 13937.00
267.8760, 13616.00
269.0900, 13631.00
270.3040, 13473.00
271.5180, 13541.00
272.7320, 13626.00
273.9460, 13864.00
275.1590, 13982.00
276.3720, 14180.00
277.5850, 14156.00
278.7980, 14068.00
280.0110, 14337.00
281.2230, 14159.00
282.4360, 14042.00
283.6480, 13551.00
284.8600, 13168.00
286.0720, 12490.00
287.2840, 11878.00
288.4950, 11555.00
289.7070, 11113.00
290.9180, 11020.00
292.1290, 10616.00
293.3400, 10595.00
294.5500, 10551.00
295.7610, 10568.00
296.9710, 10571.00
298.1820, 10534.00
299.3920, 10539.07
300.6020, 10375.00
301.8110, 10526.00
303.0210, 10488.00
304.2300, 10512.00
305.4400, 10611.00
306.6490, 10845.00
307.8580, 10843.00
309.0660, 10996.00
310.2750, 11343.00
311.4830, 11458.00
312.6920, 11726.00
313.9000, 12167.00
315.1080, 12413.00
316.3160, 12689.00
317.5230, 12950.00
318.7310, 13380.00
319.9380, 13563.00
321.1450, 14054.00
322.3520, 14317.00
323.5590, 14339.00
324.7650, 14350.00
325.9720, 14355.00
327.1780, 14555.00
328.3840, 14720.00
329.5900, 14933.00
330.7960, 15479.00
332.0020, 15810.00
333.2070, 16256.00
334.4120, 16913.00
335.6170, 17568.00
336.8220, 18200.75
338.0270, 19170.00
339.2320, 19731.00
340.4360, 20559.00
341.6410, 21617.00
342.8450, 22115.00
344.0490, 22630.00
345.2530, 23095.00
346.4560, 23125.00
347.6600, 22685.00
348.8630, 21674.00
350.0660, 20475.00
351.2690, 19117.00
352.4720, 18181.00
353.6750, 17420.00
354.8770, 16638.00
356.0790, 15901.00
357.2820, 15731.00
358.4840, 15298.00
359.6860, 15078.00
360.8870, 14813.00
362.0890, 14684.00
363.2900, 14588.00
364.4910, 14397.00
365.6920, 14476.00
366.8930, 14352.00
368.0940, 14500.00
369.2940, 14676.00
370.4950, 14780.00
371.6950, 14931.00
372.8950, 15100.00
374.0950, 15340.00
375.2940, 15574.00
376.4940, 15397.00
377.6930, 15569.00
378.8930, 15406.49
380.0920, 15218.79
381.2910, 14927.50
382.4890, 14534.87
383.6880, 13940.13
384.8860, 13583.00
386.0840, 13145.00
387.2820, 12928.00
388.4800, 12692.00
389.6780, 12652.00
390.8760, 12538.00
392.0730, 12454.00
393.2700, 12362.00
394.4670, 12341.00
395.6640, 12189.00
396.8610, 12309.00
398.0580, 12263.00
399.2540, 12391.00
400.4500, 12724.00
401.6460, 13070.00
402.8420, 13864.00
404.0380, 15184.00
405.2340, 17125.00
406.4290, 18703.00
407.6240, 19397.00
408.8190, 19158.00
410.0140, 19920.00
411.2090, 21479.00
412.4040, 22633.00
413.5980, 22668.00
414.7920, 20905.00
415.9870, 17917.00
417.1810, 15077.00
418.3740, 12910.00
419.5680, 11850.00
420.7610, 11403.00
421.9550, 11041.00
423.1480, 11047.00
424.3410, 11147.00
425.5340, 11006.00
426.7260, 11227.00
427.9190, 11128.00
429.1110, 11093.00
430.3030, 10926.00
431.4950, 10903.00
432.6870, 10601.00
433.8790, 10597.00
435.0700, 10572.00
436.2610, 10608.00
437.4530, 10424.00
438.6440, 10437.00
439.8340, 10436.00
441.0250, 10523.00
442.2160, 10423.00
443.4060, 10373.00
444.5960, 10456.00
445.7860, 10364.00
446.9760, 10418.00
448.1660, 10590.00
449.3550, 10513.00
450.5450, 10458.00
451.7340, 10521.00
452.9230, 10794.00
454.1120, 10990.00
455.3000, 11513.00
456.4890, 11521.00
457.6770, 11743.00
458.8650, 11989.00
460.0530, 12640.00
461.2410, 12870.00
462.4290, 13663.00
463.6170, 14129.00
464.8040, 14685.00
465.9910, 15581.00
467.1780, 16806.00
468.3650, 17787.00
469.5520, 19343.00
470.7390, 20910.00
471.9250, 22105.00
473.1110, 23150.00
474.2970, 24315.00
475.4830, 25179.00
476.6690, 25629.00
477.8540, 25238.00
479.0400, 24524.00
480.2250, 22945.00
481.4100, 21312.00
482.5950, 18880.00
483.7800, 17012.00
484.9650, 15372.00
486.1490, 14169.00
487.3330, 13287.00
488.5170, 12556.00
489.7010, 12004.00
490.8850, 11758.00
492.0690, 11726.00
493.2520, 11281.00
494.4350, 11431.00
495.6190, 11213.00
496.8020, 11226.00
497.9840, 11253.00
499.1670, 11198.00
500.3490, 11177.00
501.5320, 11364.00
502.7140, 11445.00
503.8960, 11413.00
505.0780, 11648.00
506.2590, 11722.00
507.4410, 11876.00
508.6220, 12006.00
509.8030, 12207.00
510.9840, 12356.00
512.1650, 12466.13
513.3460, 12490.00
514.5260, 12663.00
515.7070, 12652.00
516.8870, 12721.00
518.0670, 12634.00
519.2470, 12712.00
520.4260, 12701.00
521.6060, 12784.00
522.7850, 12582.00
523.9650, 12683.00
525.1440, 12561.00
526.3220, 12458.00
527.5010, 12431.00
528.6800, 12212.00
529.8580, 12156.00
531.0360, 12105.00
532.2140, 11890.78
533.3920, 11899.26
534.5700, 11846.75
535.7480, 11736.86
536.9250, 11378.59
538.1020, 11355.90
539.2790, 11207.71
540.4560, 11060.53
541.6330, 11103.42
542.8100, 10814.31
543.9860, 10867.19
545.1620, 10792.56
546.3380, 10785.62
547.5140, 10652.36
548.6900, 10566.50
549.8660, 10619.82
551.0410, 10606.07
552.2160, 10405.00
553.3910, 10629.00
554.5660, 10455.00
555.7410, 10610.00
556.9160, 10546.00
558.0900, 10708.00
559.2650, 10683.00
560.4390, 10839.00
561.6130, 10977.33
562.7860, 11078.57
563.9600, 11299.00
565.1340, 11418.00
566.3070, 11563.00
567.4800, 11825.00
568.6530, 12086.31
569.8260, 12481.00
570.9980, 12791.00
572.1710, 13218.00
573.3430, 13683.00
574.5150, 14043.00
575.6870, 14453.00
576.8590, 15057.00
578.0310, 15320.00
579.2030, 15487.00
580.3740, 15169.00
581.5450, 14645.00
582.7160, 14093.00
583.8870, 13216.00
585.0580, 12416.00
586.2280, 11903.00
587.3990, 11449.00
588.5690, 11214.00
589.7390, 11113.00
590.9090, 11154.00
592.0780, 11366.00
593.2480, 11722.00
594.4170, 12114.00
595.5870, 12790.00
596.7560, 13825.00
597.9250, 14634.00
599.0930, 15673.00
600.2620, 17023.00
601.4300, 18030.00
602.5990, 19018.00
603.7670, 20029.00
604.9350, 20669.00
606.1020, 20743.00
607.2700, 20022.00
608.4370, 19019.00
609.6050, 17698.00
610.7720, 16798.00
611.9390, 15875.00
613.1060, 15218.00
614.2720, 14830.00
615.4390, 14618.00
616.6050, 14148.00
617.7710, 13958.00
618.9370, 13803.00
620.1030, 13569.00
621.2680, 13677.00
622.4340, 13483.00
623.5990, 13486.00
624.7640, 13534.00
625.9290, 13429.00
627.0940, 13547.00
628.2590, 13644.00
629.4230, 13974.00
630.5880, 13991.00
631.7520, 14189.00
632.9160, 14365.00
634.0800, 14616.18
635.2440, 14985.00
636.4070, 15325.00
637.5700, 15574.00
638.7340, 16113.00
639.8970, 16421.00
641.0600, 16999.00
642.2220, 17298.61
643.3850, 17908.48
644.5470, 18444.40
645.7090, 18910.73
646.8710, 19033.00
648.0330, 17597.00
649.1950, 17109.00
650.3570, 16293.00
651.5180, 15828.00
652.6790, 15436.00
653.8400, 14317.00
655.0010, 13641.00
656.1620, 13087.00
657.3230, 12602.00
658.4830, 12230.00
659.6430, 11945.00
660.8030, 11611.00
661.9630, 11251.00
663.1230, 11104.00
664.2830, 10790.00
665.4420, 10914.00
666.6020, 10718.00
667.7610, 10578.00
668.9200, 10480.00
670.0780, 10291.00
671.2370, 10014.00
672.3960, 10008.00
673.5540, 9791.000
674.7120, 9579.000
675.8700, 9551.000
677.0280, 9250.000
678.1860, 9202.000
679.3430, 9191.000
680.5000, 8986.000
681.6580, 8807.000
682.8150, 8725.000
683.9710, 8645.000
685.1280, 8664.000
686.2850, 8559.000
687.4410, 8553.000
688.5970, 8511.000
689.7530, 8452.000
690.9090, 8437.000
692.0650, 8442.000
693.2200, 8431.000
694.3760, 8514.000
695.5310, 8619.000
696.6860, 8608.000
697.8410, 8636.000
698.9960, 8883.000
700.1500, 8880.000
701.3050, 9040.000
702.4590, 9160.000
703.6130, 9360.000
704.7670, 9435.000
705.9210, 9562.000
707.0740, 9758.000
708.2280, 10029.00
709.3810, 10049.00
710.5340, 10173.00
711.6870, 10201.00
712.8400, 10118.00
713.9930, 10168.00
715.1450, 10336.00
716.2970, 10393.00
717.4490, 10518.00
718.6010, 10558.00
719.7530, 10531.00
720.9050, 10643.00
722.0560, 10715.00
723.2080, 10832.00
724.3590, 10968.00
725.5100, 11235.00
726.6610, 11640.00
727.8110, 11790.00
728.9620, 12074.00
730.1120, 12415.00
731.2620, 12988.00
732.4120, 13365.00
733.5620, 14015.00
734.7120, 14462.00
735.8620, 14974.00
737.0110, 15653.00
738.1600, 16175.00
739.3090, 16599.00
740.4580, 16794.00
741.6070, 16938.00
742.7550, 16862.00
743.9040, 16973.00
745.0520, 16927.00
746.2000, 16457.00
747.3480, 15009.00
748.4960, 14390.00
749.6430, 13791.00
750.7910, 13063.00
751.9380, 12711.00
753.0850, 12111.00
754.2320, 11747.00
755.3790, 11285.00
756.5260, 10941.00
757.6720, 10571.00
758.8180, 10307.00
759.9650, 10107.00
761.1110, 9936.000
762.2560, 9765.000
763.4020, 9611.000
764.5470, 9595.000
765.6930, 9383.000
766.8380, 9396.000
767.9830, 9467.000
769.1280, 9272.000
770.2720, 9294.000
771.4170, 9132.000
772.5610, 9066.000
773.7060, 9146.000
774.8500, 9077.000
775.9930, 9072.000
777.1370, 8897.000
778.2810, 9059.000
779.4240, 9071.000
780.5670, 9096.000
781.7100, 8931.000
782.8530, 9030.000
783.9960, 9028.000
785.1390, 9082.000
786.2810, 8931.000
787.4230, 8940.000
788.5650, 8957.000
789.7070, 8929.000
790.8490, 8907.000
791.9910, 8894.000
793.1320, 8774.000
794.2730, 8776.000
795.4140, 8788.000
796.5550, 8831.000
797.6960, 8670.000
798.8370, 8798.000
799.9770, 8659.000
801.1180, 8707.000
802.2580, 8553.000
803.3980, 8664.000
804.5380, 8516.000
805.6770, 8602.000
806.8170, 8513.000
807.9560, 8614.000
809.0950, 8553.000
810.2340, 8505.000
811.3730, 8491.000
812.5120, 8484.000
813.6500, 8392.000
814.7890, 8404.000
815.9270, 8398.000
817.0650, 8313.000
818.2030, 8356.000
819.3400, 8385.000
820.4780, 8346.000
821.6150, 8373.000
822.7530, 8353.338
823.8900, 8327.150
825.0270, 8309.000
826.1630, 8269.000
827.3000, 8216.000
828.4360, 8181.000
829.5730, 8185.000
830.7090, 8249.000
831.8450, 8221.000
832.9800, 8242.000
834.1160, 8197.000
835.2520, 8108.000
836.3870, 8160.000
837.5220, 8063.000
838.6570, 8110.000
839.7920, 8075.000
840.9260, 8124.000
842.0610, 8141.000
843.1950, 8166.000
844.3290, 8189.000
845.4630, 8185.360
846.5970, 8146.000
847.7310, 8157.000
848.8640, 8126.207
849.9980, 8072.000
851.1310, 8114.000
852.2640, 8059.000
853.3970, 8091.000
854.5300, 8026.000
855.6620, 8037.000
856.7940, 8038.000
857.9270, 8209.000
859.0590, 8218.000
860.1910, 8059.000
861.3220, 8132.000
862.4540, 8033.000
863.5850, 8028.000
864.7170, 8085.000
865.8480, 8032.000
866.9790, 7988.000
868.1090, 8024.000
869.2400, 7981.000
870.3710, 7916.000
871.5010, 7991.000
872.6310, 7999.000
873.7610, 8011.000
874.8910, 7994.918
876.0200, 7946.000
877.1500, 7882.000
878.2790, 7878.000
879.4080, 7754.000
880.5370, 7774.000
881.6660, 7891.000
882.7950, 7790.000
883.9230, 7871.000
885.0520, 7782.000
886.1800, 7763.000
887.3080, 7916.000
888.4360, 7860.000
889.5640, 7938.000
890.6910, 7866.000
891.8180, 7871.000
892.9460, 7737.000
894.0730, 7708.000
895.2000, 7822.000
896.3260, 7832.000
897.4530, 7905.000
898.5790, 7821.000
899.7060, 7924.000
900.8320, 7858.000
901.9580, 7961.000
903.0830, 7776.000
904.2090, 7865.000
905.3340, 7846.000
906.4600, 7811.000
907.5850, 7863.000
908.7100, 7834.617
909.8350, 7840.000
910.9590, 7833.000
912.0840, 7801.000
913.2080, 7797.000
914.3320, 7903.000
915.4560, 7931.000
916.5800, 7938.000
917.7040, 7889.000
918.8270, 7951.000
919.9510, 7829.000
921.0740, 7893.000
922.1970, 7877.000
923.3200, 7785.000
924.4430, 7863.000
925.5650, 7845.000
926.6870, 7900.000
927.8100, 7969.000
928.9320, 7896.000
930.0540, 7934.000
931.1750, 7921.000
932.2970, 7917.000
933.4180, 7936.202
934.5400, 7895.000
935.6610, 7970.000
936.7820, 7918.000
937.9030, 7960.905
939.0230, 7972.000
940.1440, 7920.000
941.2640, 7908.000
942.3840, 7852.000
943.5040, 7942.000
944.6240, 7922.000
945.7440, 7992.000
946.8630, 7800.000
947.9820, 7887.000
949.1020, 7909.000
950.2210, 7873.000
951.3390, 8012.000
952.4580, 7986.000
953.5770, 7978.000
954.6950, 7997.000
955.8130, 8002.370
956.9310, 8002.000
958.0490, 8057.221
959.1670, 8043.000
960.2840, 8086.000
961.4020, 8083.000
962.5190, 8079.000
963.6360, 8161.000
964.7530, 8181.000
965.8700, 8114.000
966.9860, 8141.000
968.1030, 8116.000
969.2190, 8159.000
970.3350, 8187.000
971.4510, 8190.496
972.5670, 8176.000
973.6830, 8214.000
974.7980, 8239.000
975.9140, 8235.000
977.0290, 8516.000
978.1440, 8561.000
979.2590, 8464.000
980.3730, 8591.000
981.4880, 8533.000
982.6020, 8580.000
983.7160, 8733.000
984.8300, 8851.000
985.9440, 8777.000
987.0580, 9016.000
988.1710, 9049.000
989.2850, 9231.000
990.3980, 9395.000
991.5110, 9641.000
992.6240, 9632.000
993.7370, 9795.000
994.8490, 10021.00
995.9620, 10102.00
997.0740, 10350.00
998.1860, 10589.00
999.2980, 10605.00
1000.410, 10942.00
1001.522, 11026.00
1002.633, 11224.00
1003.744, 11280.00
1004.856, 11495.00
1005.966, 11680.00
1007.077, 11748.00
1008.188, 11918.00
1009.298, 12195.00
1010.409, 12129.00
1011.519, 12403.00
1012.629, 12483.00
1013.739, 12647.00
1014.849, 12673.00
1015.958, 12823.00
1017.068, 12893.00
1018.177, 12985.57
1019.286, 12999.00
1020.395, 13167.00
1021.503, 13162.00
1022.612, 13217.00
1023.720, 13396.00
1024.829, 13188.00
1025.937, 13153.00
1027.045, 13168.00
1028.153, 13149.07
1029.260, 13160.00
1030.368, 13301.00
1031.475, 13474.00
1032.582, 13631.00
1033.689, 13652.00
1034.796, 13682.00
1035.903, 14074.00
1037.009, 14431.00
1038.115, 14729.00
1039.222, 15448.00
1040.328, 16179.00
1041.433, 16955.00
1042.539, 18226.00
1043.645, 19789.00
1044.750, 21631.00
1045.855, 23998.00
1046.960, 26616.00
1048.065, 30096.00
1049.170, 33627.00
1050.275, 37991.00
1051.379, 42201.00
1052.483, 46500.00
1053.587, 50415.00
1054.691, 53643.00
1055.795, 55146.00
1056.899, 55101.00
1058.002, 53692.00
1059.105, 50899.00
1060.209, 46691.00
1061.312, 41707.00
1062.414, 36795.00
1063.517, 32593.00
1064.620, 28620.00
1065.722, 25448.00
1066.824, 23009.00
1067.926, 21052.00
1069.028, 19422.00
1070.130, 18177.00
1071.231, 17465.00
1072.333, 16906.00
1073.434, 16300.00
1074.535, 15880.00
1075.636, 15507.00
1076.737, 15253.00
1077.837, 15027.00
1078.938, 15020.00
1080.038, 14825.00
1081.138, 14691.00
1082.238, 14608.00
1083.338, 14834.00
1084.437, 14810.00
1085.537, 14777.00
1086.636, 15192.00
1087.735, 15507.00
1088.834, 15849.00
1089.933, 16340.00
1091.032, 17274.00
1092.130, 18134.00
1093.228, 19378.00
1094.327, 20492.00
1095.425, 21810.00
1096.523, 22923.00
1097.620, 23826.00
1098.718, 24495.00
1099.815, 24263.00
1100.912, 23560.00
1102.009, 22421.00
1103.106, 21245.00
1104.203, 20019.00
1105.300, 18642.00
1106.396, 17826.00
1107.492, 16993.00
1108.589, 16400.00
1109.685, 16003.00
1110.780, 15684.00
1111.876, 15408.00
1112.971, 15322.00
1114.067, 15346.00
1115.162, 15218.00
1116.257, 15118.00
1117.352, 15313.00
1118.446, 15395.00
1119.541, 15364.00
1120.635, 15486.75
1121.729, 15528.00
1122.823, 15651.00
1123.917, 15694.00
1125.011, 15920.00
1126.105, 16272.00
1127.198, 16577.00
1128.291, 17158.00
1129.384, 17730.00
1130.477, 18553.00
1131.570, 19257.00
1132.663, 19989.00
1133.755, 20635.00
1134.847, 21321.00
1135.940, 21534.00
1137.031, 21869.00
1138.123, 21759.00
1139.215, 21287.00
1140.306, 20770.00
1141.398, 20181.00
1142.489, 19599.00
1143.580, 18920.00
1144.671, 18386.00
1145.761, 18008.00
1146.852, 17495.00
1147.942, 17196.00
1149.033, 16903.00
1150.123, 16628.00
1151.213, 16417.88
1152.302, 16390.00
1153.392, 16053.00
1154.481, 15992.00
1155.571, 15857.00
1156.660, 15695.00
1157.749, 15722.00
1158.837, 15480.00
1159.926, 15419.00
1161.014, 15444.00
1162.103, 15367.00
1163.191, 15404.00
1164.279, 15213.00
1165.367, 15137.00
1166.454, 15207.00
1167.542, 15232.00
1168.629, 15163.00
1169.716, 15459.00
1170.803, 15419.00
1171.890, 15552.00
1172.977, 15606.00
1174.064, 15678.00
1175.150, 15777.00
1176.236, 15948.00
1177.322, 15924.00
1178.408, 15891.00
1179.494, 15746.00
1180.580, 15588.45
1181.665, 15415.00
1182.750, 15127.00
1183.835, 14806.00
1184.920, 14511.00
1186.005, 13994.00
1187.090, 13800.00
1188.174, 13419.00
1189.259, 13252.00
1190.343, 12998.00
1191.427, 12751.00
1192.511, 12457.00
1193.594, 12262.00
1194.678, 12179.00
1195.761, 12191.00
1196.844, 12084.00
1197.928, 12083.00
1199.010, 12035.00
1200.093, 12054.00
1201.176, 12321.00
1202.258, 12297.00
1203.340, 12427.00
1204.423, 12586.00
1205.504, 12696.00
1206.586, 12822.00
1207.668, 12883.20
1208.749, 12883.00
1209.831, 13000.00
1210.912, 12909.00
1211.993, 13015.00
1213.074, 12921.00
1214.154, 12886.00
1215.235, 12766.00
1216.315, 12840.00
1217.395, 12655.00
1218.475, 12661.00
1219.555, 12679.00
1220.635, 12436.00
1221.715, 12275.00
1222.794, 12120.00
1223.873, 11921.00
1224.952, 11544.00
1226.031, 11467.00
1227.110, 11019.00
1228.189, 10993.00
1229.267, 10685.00
1230.345, 10403.00
1231.424, 10213.00
1232.502, 10045.00
1233.579, 9847.201
1234.657, 9713.000
1235.735, 9563.000
1236.812, 9457.000
1237.889, 9396.000
1238.966, 9136.000
1240.043, 9197.000
1241.120, 9142.000
1242.196, 8980.000
1243.273, 9030.000
