##NAMES=Lazulite
##RRUFFID=R060494
##IDEAL CHEMISTRY=MgAl_2_(PO_4_)_2_(OH)_2_
##LOCALITY=Champion mine, White Mountains, Mono County, California, USA
##OWNER=RRUFF
##SOURCE=Michael Scott
##DESCRIPTION=Dark-blue coarsely crystalline mass
##STATUS=The identification of this mineral has been confirmed by X-ray diffraction and chemical analysis
##URL=rruff.info/R060494
##MEASURED CHEMISTRY=(Mg_0.67_Fe^2+^_0.33_)_Î£=1_Al_2.00_(P_1.00_O_4_)_2_(OH)_2_
##PIN_ID=M01551
##ORIENTATION=Laser parallel to (1 0 1). Fiducial mark perpendicular to laser is parallel to b [0 1 0]
60.30200, 570.0000
61.54400, 568.0000
62.78600, 564.0000
64.02800, 569.0000
65.26900, 546.0000
66.51100, 578.0000
67.75200, 551.0000
68.99300, 553.0000
70.23400, 574.0000
71.47500, 532.0000
72.71600, 525.0000
73.95600, 517.0000
75.19700, 535.0000
76.43700, 523.0000
77.67700, 505.0000
78.91700, 503.0000
80.15600, 480.0000
81.39600, 479.0000
82.63500, 488.0000
83.87400, 483.0000
85.11300, 494.0000
86.35200, 480.0000
87.59100, 514.0000
88.83000, 526.0000
90.06800, 545.0000
91.30600, 578.0000
92.54400, 643.0000
93.78200, 684.0000
95.02000, 811.0000
96.25700, 960.0000
97.49400, 1094.000
98.73200, 1173.000
99.96900, 1113.000
101.2060, 1145.000
102.4420, 1092.000
103.6790, 1072.000
104.9150, 1117.000
106.1510, 1087.000
107.3870, 1179.000
108.6230, 1308.000
109.8590, 1340.000
111.0940, 1443.000
112.3300, 1532.000
113.5650, 1690.000
114.8000, 1824.000
116.0350, 1933.000
117.2700, 2126.000
118.5040, 2147.000
119.7390, 2146.000
120.9730, 2341.000
122.2070, 2396.000
123.4410, 2540.000
124.6740, 2731.000
125.9080, 2733.000
127.1410, 2784.000
128.3740, 2907.000
129.6080, 3001.000
130.8400, 3073.000
132.0730, 3186.000
133.3060, 3289.000
134.5380, 3293.000
135.7700, 3412.000
137.0020, 3359.000
138.2340, 3485.000
139.4660, 3634.000
140.6980, 3613.000
141.9290, 3650.000
143.1600, 3714.000
144.3910, 3758.000
145.6220, 3766.000
146.8530, 3878.000
148.0830, 3814.000
149.3140, 3895.000
150.5440, 3878.000
151.7740, 3825.000
153.0040, 3955.000
154.2340, 4000.000
155.4630, 3973.000
156.6930, 4064.000
157.9220, 4093.000
159.1510, 4096.000
160.3800, 4283.000
161.6090, 4352.000
162.8370, 4691.000
164.0660, 4963.000
165.2940, 5039.000
166.5220, 5260.000
167.7500, 5412.000
168.9780, 5648.000
170.2050, 6072.000
171.4330, 6511.000
172.6600, 6848.000
173.8870, 7083.000
175.1140, 7046.000
176.3410, 7053.000
177.5670, 7172.000
178.7940, 7446.000
180.0200, 8467.000
181.2460, 9695.000
182.4720, 11356.00
183.6980, 13280.00
184.9230, 14403.00
186.1490, 15133.00
187.3740, 16913.00
188.5990, 20144.00
189.8240, 23058.00
191.0490, 24588.00
192.2730, 24504.00
193.4980, 23439.00
194.7220, 20070.00
195.9460, 15972.00
197.1700, 12179.00
198.3940, 9613.000
199.6180, 7684.000
200.8410, 6697.000
202.0640, 6212.000
203.2870, 5800.000
204.5100, 5471.000
205.7330, 5248.000
206.9560, 5187.000
208.1780, 5129.000
209.4000, 5046.000
210.6230, 5066.000
211.8450, 5101.000
213.0660, 5024.000
214.2880, 5205.000
215.5090, 5202.000
216.7310, 5303.000
217.9520, 5309.000
219.1730, 5333.000
220.3940, 5366.000
221.6140, 5484.000
222.8350, 5571.000
224.0550, 5482.000
225.2750, 5463.000
226.4950, 5169.000
227.7150, 5112.000
228.9350, 4897.000
230.1540, 4628.000
231.3730, 4480.000
232.5930, 4332.000
233.8120, 4352.000
235.0300, 4298.000
236.2490, 4366.000
237.4680, 4319.000
238.6860, 4453.000
239.9040, 4586.000
241.1220, 4756.000
242.3400, 5090.000
243.5580, 5393.000
244.7750, 5882.000
245.9920, 6289.000
247.2100, 6742.000
248.4270, 7253.298
249.6430, 7543.000
250.8600, 8273.000
252.0770, 8950.000
253.2930, 9455.000
254.5090, 9611.000
255.7250, 9316.000
256.9410, 8623.000
258.1570, 7709.000
259.3720, 6696.000
260.5880, 6122.000
261.8030, 5531.000
263.0180, 5186.000
264.2330, 5005.000
265.4470, 4907.000
266.6620, 4851.000
267.8760, 4739.000
269.0900, 4703.000
270.3040, 4704.000
271.5180, 4728.000
272.7320, 4738.000
273.9460, 4771.000
275.1590, 4769.000
276.3720, 4827.000
277.5850, 4891.000
278.7980, 4882.000
280.0110, 4972.000
281.2230, 4920.000
282.4360, 4869.000
283.6480, 4738.000
284.8600, 4631.166
286.0720, 4565.000
287.2840, 4340.000
288.4950, 4267.000
289.7070, 4117.000
290.9180, 4024.000
292.1290, 4098.000
293.3400, 4018.000
294.5500, 4015.000
295.7610, 4027.000
296.9710, 4156.000
298.1820, 4017.000
299.3920, 4145.000
300.6020, 4163.000
301.8110, 4099.000
303.0210, 4223.000
304.2300, 4267.000
305.4400, 4284.000
306.6490, 4395.000
307.8580, 4424.000
309.0660, 4550.000
310.2750, 4729.000
311.4830, 4860.000
312.6920, 5097.000
313.9000, 5331.000
315.1080, 5569.000
316.3160, 5757.000
317.5230, 6029.000
318.7310, 6331.000
319.9380, 6670.000
321.1450, 7100.000
322.3520, 7367.000
323.5590, 7424.000
324.7650, 7513.000
325.9720, 7641.000
327.1780, 7651.000
328.3840, 8032.000
329.5900, 8175.000
330.7960, 8823.000
332.0020, 9266.000
333.2070, 10136.00
334.4120, 11056.00
335.6170, 12161.00
336.8220, 13563.00
338.0270, 15002.00
339.2320, 16528.00
340.4360, 17849.00
341.6410, 19235.00
342.8450, 20538.00
344.0490, 21727.00
345.2530, 22530.00
346.4560, 22675.00
347.6600, 21959.00
348.8630, 20224.00
350.0660, 18391.00
351.2690, 16310.00
352.4720, 14172.00
353.6750, 12442.00
354.8770, 11016.00
356.0790, 9964.000
357.2820, 9114.000
358.4840, 8578.000
359.6860, 8291.000
360.8870, 8050.000
362.0890, 8064.000
363.2900, 8047.000
364.4910, 8240.000
365.6920, 8459.000
366.8930, 8864.000
368.0940, 9315.000
369.2940, 9948.000
370.4950, 10674.00
371.6950, 11340.00
372.8950, 12049.00
374.0950, 12782.00
375.2940, 13376.00
376.4940, 13872.00
377.6930, 13982.00
378.8930, 13945.00
380.0920, 13538.00
381.2910, 12435.00
382.4890, 11087.00
383.6880, 9895.000
384.8860, 8842.000
386.0840, 7876.327
387.2820, 7105.429
388.4800, 6391.000
389.6780, 5928.000
390.8760, 5606.000
392.0730, 5336.000
393.2700, 5097.000
394.4670, 4981.000
395.6640, 4749.000
396.8610, 4619.000
398.0580, 4621.000
399.2540, 4462.000
400.4500, 4449.000
401.6460, 4362.000
402.8420, 4291.000
404.0380, 4470.000
405.2340, 4435.000
406.4290, 4464.000
407.6240, 4595.000
408.8190, 4579.000
410.0140, 4657.000
411.2090, 4845.000
412.4040, 4903.000
413.5980, 4868.000
414.7920, 4737.000
415.9870, 4612.000
417.1810, 4321.000
418.3740, 4178.000
419.5680, 3928.000
420.7610, 3827.000
421.9550, 3671.000
423.1480, 3719.000
424.3410, 3807.000
425.5340, 3723.000
426.7260, 3742.000
427.9190, 3793.000
429.1110, 3735.000
430.3030, 3728.000
431.4950, 3705.000
432.6870, 3793.000
433.8790, 3817.000
435.0700, 3806.000
436.2610, 3829.000
437.4530, 3826.000
438.6440, 3834.000
439.8340, 3919.000
441.0250, 3862.000
442.2160, 3952.000
443.4060, 3907.000
444.5960, 4029.000
445.7860, 4005.000
446.9760, 4128.000
448.1660, 4021.000
449.3550, 4184.000
450.5450, 4276.000
451.7340, 4370.000
452.9230, 4512.000
454.1120, 4715.000
455.3000, 4813.000
456.4890, 5077.000
457.6770, 5232.000
458.8650, 5403.000
460.0530, 5556.000
461.2410, 5794.000
462.4290, 5867.000
463.6170, 6065.000
464.8040, 6112.000
465.9910, 6371.000
467.1780, 6380.000
468.3650, 6556.000
469.5520, 6835.000
470.7390, 6951.000
471.9250, 7191.000
473.1110, 7475.000
474.2970, 7685.000
475.4830, 7785.000
476.6690, 7901.000
477.8540, 7958.000
479.0400, 7687.000
480.2250, 7379.000
481.4100, 6699.000
482.5950, 6107.000
483.7800, 5743.000
484.9650, 5224.000
486.1490, 4824.000
487.3330, 4617.000
488.5170, 4308.000
489.7010, 4185.000
490.8850, 4101.000
492.0690, 3961.000
493.2520, 3976.000
494.4350, 3930.000
495.6190, 3933.000
496.8020, 3890.000
497.9840, 3900.000
499.1670, 3868.000
500.3490, 3910.000
501.5320, 3894.000
502.7140, 3946.000
503.8960, 3923.000
505.0780, 3936.000
506.2590, 3994.000
507.4410, 3957.000
508.6220, 3955.000
509.8030, 4024.000
510.9840, 4068.000
512.1650, 4132.000
513.3460, 4095.000
514.5260, 4138.000
515.7070, 4130.000
516.8870, 4137.000
518.0670, 4230.000
519.2470, 4194.000
520.4260, 4232.000
521.6060, 4276.000
522.7850, 4254.000
523.9650, 4235.000
525.1440, 4271.000
526.3220, 4307.000
527.5010, 4404.000
528.6800, 4390.000
529.8580, 4439.000
531.0360, 4407.000
532.2140, 4532.000
533.3920, 4362.000
534.5700, 4456.000
535.7480, 4391.000
536.9250, 4470.000
538.1020, 4434.000
539.2790, 4412.000
540.4560, 4365.000
541.6330, 4322.000
542.8100, 4281.000
543.9860, 4213.000
545.1620, 4135.000
546.3380, 4083.000
547.5140, 4059.000
548.6900, 4004.681
549.8660, 3972.544
551.0410, 3934.000
552.2160, 3902.000
553.3910, 3868.000
554.5660, 3831.865
555.7410, 3806.000
556.9160, 3817.000
558.0900, 3802.000
559.2650, 3812.942
560.4390, 3787.000
561.6130, 3844.000
562.7860, 3884.000
563.9600, 3910.000
565.1340, 3885.000
566.3070, 3885.000
567.4800, 3885.000
568.6530, 3924.000
569.8260, 3932.000
570.9980, 4066.000
572.1710, 3907.000
573.3430, 3957.000
574.5150, 4030.000
575.6870, 3947.000
576.8590, 3973.000
578.0310, 4026.000
579.2030, 3980.000
580.3740, 3925.000
581.5450, 4000.000
582.7160, 3888.000
583.8870, 3831.000
585.0580, 3890.000
586.2280, 3923.000
587.3990, 3935.000
588.5690, 3902.000
589.7390, 3896.000
590.9090, 3983.000
592.0780, 4051.000
593.2480, 4076.000
594.4170, 4164.000
595.5870, 4146.000
596.7560, 4377.000
597.9250, 4500.000
599.0930, 4684.000
600.2620, 4994.000
601.4300, 5178.000
602.5990, 5547.000
603.7670, 5900.000
604.9350, 6219.000
606.1020, 6600.000
607.2700, 6847.000
608.4370, 7421.000
609.6050, 7778.000
610.7720, 7943.000
611.9390, 8248.000
613.1060, 8362.000
614.2720, 8268.000
615.4390, 8247.000
616.6050, 8016.000
617.7710, 7783.000
618.9370, 7478.000
620.1030, 7554.000
621.2680, 7625.000
622.4340, 7758.000
623.5990, 8010.000
624.7640, 8394.000
625.9290, 8711.000
627.0940, 9209.000
628.2590, 9532.000
629.4230, 9811.000
630.5880, 10346.00
631.7520, 10499.00
632.9160, 10438.00
634.0800, 10282.00
635.2440, 9972.000
636.4070, 9617.000
637.5700, 9043.000
638.7340, 8688.000
639.8970, 8409.000
641.0600, 7781.000
642.2220, 7607.000
643.3850, 7125.000
644.5470, 6710.000
645.7090, 6504.000
646.8710, 6146.000
648.0330, 5821.000
649.1950, 5596.000
650.3570, 5286.000
651.5180, 5033.192
652.6790, 4762.000
653.8400, 4577.000
655.0010, 4444.000
656.1620, 4339.000
657.3230, 4235.000
658.4830, 4125.000
659.6430, 4098.000
660.8030, 3957.000
661.9630, 4022.000
663.1230, 3996.000
664.2830, 3933.000
665.4420, 3970.000
666.6020, 3904.000
667.7610, 3915.000
668.9200, 3897.000
670.0780, 3922.000
671.2370, 3823.000
672.3960, 3873.000
673.5540, 3755.000
674.7120, 3790.000
675.8700, 3799.000
677.0280, 3742.000
678.1860, 3739.000
679.3430, 3744.000
680.5000, 3733.000
681.6580, 3756.000
682.8150, 3778.000
683.9710, 3705.000
685.1280, 3628.000
686.2850, 3710.000
687.4410, 3691.000
688.5970, 3698.000
689.7530, 3704.000
690.9090, 3707.000
692.0650, 3744.000
693.2200, 3726.000
694.3760, 3745.000
695.5310, 3810.000
696.6860, 3872.000
697.8410, 3942.000
698.9960, 3944.000
700.1500, 3930.000
701.3050, 4022.000
702.4590, 4073.000
703.6130, 4151.000
704.7670, 4267.000
705.9210, 4253.000
707.0740, 4284.000
708.2280, 4354.000
709.3810, 4518.000
710.5340, 4569.000
711.6870, 4641.000
712.8400, 4846.000
713.9930, 4870.000
715.1450, 5039.000
716.2970, 5064.000
717.4490, 5260.000
718.6010, 5338.000
719.7530, 5587.000
720.9050, 5789.000
722.0560, 6034.000
723.2080, 6164.000
724.3590, 6468.000
725.5100, 6773.000
726.6610, 7116.000
727.8110, 7576.000
728.9620, 7949.000
730.1120, 8448.000
731.2620, 9079.000
732.4120, 9606.000
733.5620, 10307.00
734.7120, 11020.00
735.8620, 11565.00
737.0110, 12341.00
738.1600, 12929.00
739.3090, 13543.00
740.4580, 13873.00
741.6070, 13994.00
742.7550, 14091.00
743.9040, 13826.00
745.0520, 13360.00
746.2000, 12693.00
747.3480, 12242.00
748.4960, 11352.00
749.6430, 10673.00
750.7910, 9855.000
751.9380, 9180.000
753.0850, 8518.000
754.2320, 7996.384
755.3790, 7503.000
756.5260, 7171.000
757.6720, 6770.000
758.8180, 6520.000
759.9650, 6153.000
761.1110, 5982.000
762.2560, 5588.000
763.4020, 5542.000
764.5470, 5350.000
765.6930, 5107.000
766.8380, 5057.000
767.9830, 4930.000
769.1280, 4838.000
770.2720, 4755.000
771.4170, 4628.000
772.5610, 4607.000
773.7060, 4521.000
774.8500, 4464.000
775.9930, 4384.000
777.1370, 4387.000
778.2810, 4302.000
779.4240, 4251.000
780.5670, 4177.000
781.7100, 4161.442
782.8530, 4233.000
783.9960, 4142.000
785.1390, 4146.000
786.2810, 4131.000
787.4230, 4080.000
788.5650, 4070.760
789.7070, 4042.000
790.8490, 4014.000
791.9910, 4000.182
793.1320, 3967.892
794.2730, 3957.000
795.4140, 3919.000
796.5550, 3881.000
797.6960, 3868.000
798.8370, 3908.000
799.9770, 3806.000
801.1180, 3786.000
802.2580, 3905.000
803.3980, 3816.000
804.5380, 3796.000
805.6770, 3876.000
806.8170, 3804.000
807.9560, 3778.000
809.0950, 3760.000
810.2340, 3731.000
811.3730, 3766.000
812.5120, 3732.277
813.6500, 3776.000
814.7890, 3712.000
815.9270, 3725.000
817.0650, 3735.000
818.2030, 3666.000
819.3400, 3711.000
820.4780, 3679.000
821.6150, 3681.000
822.7530, 3718.000
823.8900, 3675.000
825.0270, 3684.208
826.1630, 3625.000
827.3000, 3655.000
828.4360, 3663.000
829.5730, 3640.000
830.7090, 3674.000
831.8450, 3677.000
832.9800, 3576.000
834.1160, 3673.000
835.2520, 3588.000
836.3870, 3646.000
837.5220, 3618.000
838.6570, 3708.000
839.7920, 3575.000
840.9260, 3594.000
842.0610, 3603.000
843.1950, 3679.000
844.3290, 3637.000
845.4630, 3679.000
846.5970, 3651.000
847.7310, 3702.000
848.8640, 3628.000
849.9980, 3654.000
851.1310, 3622.000
852.2640, 3633.000
853.3970, 3648.000
854.5300, 3637.000
855.6620, 3619.000
856.7940, 3639.000
857.9270, 3634.000
859.0590, 3617.000
860.1910, 3623.000
861.3220, 3572.000
862.4540, 3621.000
863.5850, 3616.000
864.7170, 3604.000
865.8480, 3508.000
866.9790, 3539.000
868.1090, 3561.000
869.2400, 3613.000
870.3710, 3519.000
871.5010, 3519.000
872.6310, 3542.000
873.7610, 3495.000
874.8910, 3519.000
876.0200, 3516.000
877.1500, 3483.000
878.2790, 3470.000
879.4080, 3470.000
880.5370, 3480.000
881.6660, 3545.000
882.7950, 3538.000
883.9230, 3535.000
885.0520, 3510.000
886.1800, 3482.000
887.3080, 3508.000
888.4360, 3486.077
889.5640, 3487.000
890.6910, 3498.000
891.8180, 3451.000
892.9460, 3488.000
894.0730, 3512.000
895.2000, 3472.000
896.3260, 3525.000
897.4530, 3508.000
898.5790, 3514.000
899.7060, 3516.200
900.8320, 3490.000
901.9580, 3501.000
903.0830, 3485.000
904.2090, 3488.000
905.3340, 3460.000
906.4600, 3502.000
907.5850, 3495.507
908.7100, 3458.000
909.8350, 3497.000
910.9590, 3504.000
912.0840, 3457.000
913.2080, 3425.000
914.3320, 3460.000
915.4560, 3433.618
916.5800, 3503.000
917.7040, 3441.000
918.8270, 3530.000
919.9510, 3539.000
921.0740, 3479.000
922.1970, 3534.000
923.3200, 3551.000
924.4430, 3547.000
925.5650, 3463.000
926.6870, 3475.000
927.8100, 3489.000
928.9320, 3537.000
930.0540, 3552.000
931.1750, 3509.000
932.2970, 3470.000
933.4180, 3516.000
934.5400, 3562.000
935.6610, 3556.000
936.7820, 3532.000
937.9030, 3486.000
939.0230, 3552.000
940.1440, 3580.000
941.2640, 3558.000
942.3840, 3577.627
943.5040, 3596.000
944.6240, 3554.000
945.7440, 3523.000
946.8630, 3513.000
947.9820, 3515.325
949.1020, 3601.000
950.2210, 3556.000
951.3390, 3569.000
952.4580, 3599.000
953.5770, 3583.000
954.6950, 3602.000
955.8130, 3644.000
956.9310, 3628.000
958.0490, 3700.000
959.1670, 3590.000
960.2840, 3603.000
961.4020, 3692.000
962.5190, 3678.000
963.6360, 3708.374
964.7530, 3697.000
965.8700, 3707.000
966.9860, 3684.000
968.1030, 3634.000
969.2190, 3685.000
970.3350, 3659.000
971.4510, 3763.000
972.5670, 3720.000
973.6830, 3737.000
974.7980, 3789.000
975.9140, 3768.000
977.0290, 3802.948
978.1440, 3730.000
979.2590, 3815.000
980.3730, 3831.000
981.4880, 3788.000
982.6020, 3845.000
983.7160, 3922.000
984.8300, 3975.000
985.9440, 3939.000
987.0580, 4007.000
988.1710, 4034.176
989.2850, 4034.000
990.3980, 4114.000
991.5110, 4141.000
992.6240, 4162.000
993.7370, 4232.000
994.8490, 4273.000
995.9620, 4242.000
997.0740, 4397.000
998.1860, 4365.000
999.2980, 4519.000
1000.410, 4575.000
1001.522, 4604.000
1002.633, 4816.000
1003.744, 4746.000
1004.856, 4837.000
1005.966, 4982.000
1007.077, 4993.000
1008.188, 5182.000
1009.298, 5223.000
1010.409, 5366.000
1011.519, 5478.000
1012.629, 5684.000
1013.739, 5768.000
1014.849, 5922.000
1015.958, 6035.000
1017.068, 6198.000
1018.177, 6228.000
1019.286, 6254.000
1020.395, 6181.000
1021.503, 6008.000
1022.612, 5907.000
1023.720, 5668.000
1024.829, 5768.000
1025.937, 5608.000
1027.045, 5689.000
1028.153, 5749.000
1029.260, 5584.000
1030.368, 5588.000
1031.475, 5622.000
1032.582, 5578.000
1033.689, 5694.000
1034.796, 5805.000
1035.903, 5923.000
1037.009, 6091.000
1038.115, 6234.000
1039.222, 6509.000
1040.328, 6865.000
1041.433, 7193.000
1042.539, 7668.000
1043.645, 8277.000
1044.750, 8940.000
1045.855, 9875.000
1046.960, 10971.00
1048.065, 12444.00
1049.170, 14065.00
1050.275, 16115.00
1051.379, 18434.00
1052.483, 20717.00
1053.587, 22998.00
1054.691, 25396.00
1055.795, 27050.00
1056.899, 27941.00
1058.002, 28039.00
1059.105, 27182.00
1060.209, 25108.00
1061.312, 22656.00
1062.414, 20027.00
1063.517, 17366.00
1064.620, 14930.00
1065.722, 12833.00
1066.824, 11193.00
1067.926, 9885.000
1069.028, 8822.000
1070.130, 8166.000
1071.231, 7561.000
1072.333, 7037.000
1073.434, 6758.000
1074.535, 6536.000
1075.636, 6334.000
1076.737, 6072.000
1077.837, 6063.000
1078.938, 5904.000
1080.038, 5788.000
1081.138, 5910.000
1082.238, 5733.000
1083.338, 5825.000
1084.437, 5796.000
1085.537, 5888.000
1086.636, 5902.000
1087.735, 5997.000
1088.834, 6048.000
1089.933, 6182.000
1091.032, 6229.000
1092.130, 6255.000
1093.228, 6465.000
1094.327, 6527.000
1095.425, 6582.000
1096.523, 6701.000
1097.620, 6840.000
1098.718, 6871.000
1099.815, 6942.000
1100.912, 6851.000
1102.009, 6615.000
1103.106, 6517.000
1104.203, 6285.000
1105.300, 6101.000
1106.396, 5924.000
1107.492, 5779.000
1108.589, 5718.000
1109.685, 5571.000
1110.780, 5495.000
1111.876, 5570.000
1112.971, 5486.000
1114.067, 5479.000
1115.162, 5422.000
1116.257, 5566.000
1117.352, 5557.000
1118.446, 5654.000
1119.541, 5666.000
1120.635, 5883.000
1121.729, 6081.000
1122.823, 6125.000
1123.917, 6414.000
1125.011, 6642.561
1126.105, 6862.000
1127.198, 7250.000
1128.291, 7848.000
1129.384, 8231.000
1130.477, 9050.000
1131.570, 9761.000
1132.663, 10534.00
1133.755, 11133.00
1134.847, 11781.00
1135.940, 11830.00
1137.031, 11786.00
1138.123, 11370.00
1139.215, 10683.00
1140.306, 9951.000
1141.398, 9182.000
1142.489, 8515.000
1143.580, 7754.000
1144.671, 7196.000
1145.761, 6937.000
1146.852, 6512.000
1147.942, 6293.000
1149.033, 6087.000
1150.123, 5910.761
1151.213, 5772.588
1152.302, 5723.000
1153.392, 5555.000
1154.481, 5470.000
1155.571, 5387.000
1156.660, 5197.000
1157.749, 5238.000
1158.837, 5290.000
1159.926, 5177.000
1161.014, 5164.000
1162.103, 5166.000
1163.191, 5110.000
1164.279, 5043.000
1165.367, 4912.000
1166.454, 4950.000
1167.542, 4981.000
1168.629, 4875.000
1169.716, 4986.000
1170.803, 4943.000
1171.890, 4951.000
1172.977, 4966.000
1174.064, 4937.000
1175.150, 4881.000
1176.236, 4937.000
1177.322, 4852.000
1178.408, 4906.000
1179.494, 4935.000
1180.580, 4911.000
1181.665, 4874.000
1182.750, 4842.070
1183.835, 4783.650
1184.920, 4723.000
1186.005, 4670.000
1187.090, 4593.000
1188.174, 4564.000
1189.259, 4498.000
1190.343, 4528.000
1191.427, 4483.000
1192.511, 4423.000
1193.594, 4437.000
1194.678, 4387.000
1195.761, 4416.000
1196.844, 4303.000
1197.928, 4387.000
1199.010, 4322.000
1200.093, 4400.000
1201.176, 4330.000
1202.258, 4365.000
1203.340, 4369.000
1204.423, 4399.000
1205.504, 4409.000
1206.586, 4465.000
1207.668, 4417.000
1208.749, 4532.000
1209.831, 4606.000
1210.912, 4497.000
1211.993, 4529.000
1213.074, 4536.000
1214.154, 4401.000
1215.235, 4440.000
1216.315, 4384.000
1217.395, 4392.000
1218.475, 4401.000
1219.555, 4378.000
1220.635, 4329.000
1221.715, 4240.000
1222.794, 4272.000
1223.873, 4185.000
1224.952, 4241.000
1226.031, 4144.000
1227.110, 4093.000
1228.189, 4134.000
1229.267, 4129.000
1230.345, 4112.386
1231.424, 4085.000
1232.502, 4085.000
1233.579, 4032.000
1234.657, 4000.000
1235.735, 3968.000
1236.812, 3944.042
1237.889, 3920.616
1238.966, 3919.000
1240.043, 3878.000
1241.120, 3878.000
1242.196, 3850.000
1243.273, 3858.787
