##NAMES=Lazulite
##RRUFFID=R060494
##IDEAL CHEMISTRY=MgAl_2_(PO_4_)_2_(OH)_2_
##LOCALITY=Champion mine, White Mountains, Mono County, California, USA
##OWNER=RRUFF
##SOURCE=Michael Scott
##DESCRIPTION=Dark-blue coarsely crystalline mass
##STATUS=The identification of this mineral has been confirmed by X-ray diffraction and chemical analysis
##URL=rruff.info/R060494
##MEASURED CHEMISTRY=(Mg_0.67_Fe^2+^_0.33_)_Î£=1_Al_2.00_(P_1.00_O_4_)_2_(OH)_2_
##PIN_ID=M01822
##ORIENTATION=Laser parallel to a* (1 0 0). Fiducial mark perpendicular to laser is parallel to b [0 1 0]
60.30200, 4387.000
61.54400, 4438.000
62.78600, 4192.000
64.02800, 4054.000
65.26900, 3920.000
66.51100, 3761.000
67.75200, 3757.000
68.99300, 3651.501
70.23400, 3685.000
71.47500, 3555.000
72.71600, 3565.000
73.95600, 3528.000
75.19700, 3467.000
76.43700, 3404.000
77.67700, 3253.000
78.91700, 3089.000
80.15600, 3083.000
81.39600, 3058.000
82.63500, 2949.000
83.87400, 2995.000
85.11300, 2980.000
86.35200, 2974.000
87.59100, 2969.000
88.83000, 2824.000
90.06800, 2746.000
91.30600, 2760.000
92.54400, 2731.000
93.78200, 2761.000
95.02000, 2895.000
96.25700, 2956.000
97.49400, 3049.000
98.73200, 3081.000
99.96900, 3174.000
101.2060, 3248.000
102.4420, 3175.000
103.6790, 3235.000
104.9150, 3244.000
106.1510, 3394.000
107.3870, 3487.000
108.6230, 3713.000
109.8590, 4042.000
111.0940, 4212.000
112.3300, 4341.000
113.5650, 4692.000
114.8000, 4848.000
116.0350, 5210.000
117.2700, 5173.000
118.5040, 5274.000
119.7390, 5330.000
120.9730, 5621.000
122.2070, 5824.000
123.4410, 6101.000
124.6740, 6368.000
125.9080, 6427.000
127.1410, 6518.000
128.3740, 6785.000
129.6080, 7067.000
130.8400, 7040.000
132.0730, 7254.000
133.3060, 7308.000
134.5380, 7450.000
135.7700, 7442.000
137.0020, 7515.000
138.2340, 7607.000
139.4660, 7924.000
140.6980, 7995.000
141.9290, 7989.000
143.1600, 8076.000
144.3910, 8125.000
145.6220, 8172.000
146.8530, 8119.000
148.0830, 8141.000
149.3140, 8163.000
150.5440, 8160.000
151.7740, 8269.000
153.0040, 8217.000
154.2340, 8109.000
155.4630, 8238.000
156.6930, 8298.000
157.9220, 8245.000
159.1510, 8314.000
160.3800, 8409.000
161.6090, 8503.000
162.8370, 8673.000
164.0660, 8835.000
165.2940, 8899.000
166.5220, 9120.000
167.7500, 9205.000
168.9780, 9542.000
170.2050, 10127.00
171.4330, 10728.00
172.6600, 11457.00
173.8870, 11586.00
175.1140, 11393.00
176.3410, 11020.00
177.5670, 10919.00
178.7940, 11121.00
180.0200, 11466.00
181.2460, 12134.00
182.4720, 12922.00
183.6980, 13833.00
184.9230, 15121.00
186.1490, 16945.00
187.3740, 19929.00
188.5990, 24319.00
189.8240, 30366.00
191.0490, 35299.00
192.2730, 35636.00
193.4980, 30839.00
194.7220, 24023.00
195.9460, 19064.00
197.1700, 15550.00
198.3940, 13222.00
199.6180, 12001.00
200.8410, 11070.00
202.0640, 10756.00
203.2870, 10382.00
204.5100, 9648.000
205.7330, 9284.000
206.9560, 9100.000
208.1780, 8992.000
209.4000, 8951.000
210.6230, 8866.217
211.8450, 8784.000
213.0660, 8844.000
214.2880, 8858.000
215.5090, 8939.000
216.7310, 9039.000
217.9520, 9114.000
219.1730, 9196.000
220.3940, 9239.000
221.6140, 9323.000
222.8350, 9151.000
224.0550, 9091.000
225.2750, 8682.000
226.4950, 8583.000
227.7150, 8117.000
228.9350, 7934.000
230.1540, 7845.000
231.3730, 7716.000
232.5930, 7726.000
233.8120, 7741.000
235.0300, 7591.000
236.2490, 7746.000
237.4680, 7802.000
238.6860, 7681.000
239.9040, 7811.000
241.1220, 7979.000
242.3400, 8107.000
243.5580, 8322.000
244.7750, 8633.000
245.9920, 8714.000
247.2100, 9150.000
248.4270, 9781.000
249.6430, 10541.00
250.8600, 11714.00
252.0770, 13231.00
253.2930, 14490.00
254.5090, 14422.00
255.7250, 13420.00
256.9410, 11958.00
258.1570, 10889.00
259.3720, 9931.000
260.5880, 9286.000
261.8030, 9097.000
263.0180, 8918.000
264.2330, 8606.000
265.4470, 8476.000
266.6620, 8188.000
267.8760, 8195.000
269.0900, 8104.000
270.3040, 7946.000
271.5180, 8024.000
272.7320, 7882.000
273.9460, 7846.000
275.1590, 7774.000
276.3720, 7871.000
277.5850, 7916.000
278.7980, 7958.000
280.0110, 7995.000
281.2230, 8085.000
282.4360, 7979.000
283.6480, 7879.000
284.8600, 7726.000
286.0720, 7430.000
287.2840, 7194.000
288.4950, 7199.000
289.7070, 7191.000
290.9180, 7090.000
292.1290, 7151.000
293.3400, 7060.000
294.5500, 7187.000
295.7610, 7136.000
296.9710, 7183.000
298.1820, 7211.000
299.3920, 7149.000
300.6020, 7186.000
301.8110, 7164.000
303.0210, 7362.000
304.2300, 7372.000
305.4400, 7399.000
306.6490, 7403.000
307.8580, 7574.000
309.0660, 7606.000
310.2750, 7816.000
311.4830, 7957.000
312.6920, 8130.000
313.9000, 8325.000
315.1080, 8392.000
316.3160, 8675.000
317.5230, 8916.000
318.7310, 9284.000
319.9380, 9842.000
321.1450, 10333.00
322.3520, 10564.00
323.5590, 10693.00
324.7650, 10799.00
325.9720, 10865.00
327.1780, 11103.00
328.3840, 11392.00
329.5900, 11673.00
330.7960, 12134.00
332.0020, 12654.00
333.2070, 13336.00
334.4120, 13997.00
335.6170, 14911.00
336.8220, 15936.00
338.0270, 17343.00
339.2320, 18538.00
340.4360, 20481.00
341.6410, 22475.00
342.8450, 24833.00
344.0490, 26765.00
345.2530, 28094.00
346.4560, 27997.00
347.6600, 27222.00
348.8630, 24777.00
350.0660, 22068.00
351.2690, 19723.00
352.4720, 17701.00
353.6750, 15944.00
354.8770, 14372.00
356.0790, 13604.00
357.2820, 12767.00
358.4840, 12229.00
359.6860, 11889.00
360.8870, 11733.00
362.0890, 11266.00
363.2900, 11340.00
364.4910, 11371.00
365.6920, 11497.00
366.8930, 11814.00
368.0940, 12066.00
369.2940, 12530.00
370.4950, 13146.00
371.6950, 13806.00
372.8950, 14665.00
374.0950, 15602.00
375.2940, 16627.00
376.4940, 17483.00
377.6930, 17853.00
378.8930, 17842.00
380.0920, 17067.00
381.2910, 15866.00
382.4890, 14405.00
383.6880, 13098.00
384.8860, 11853.00
386.0840, 10980.00
387.2820, 10270.00
388.4800, 9939.000
389.6780, 9401.000
390.8760, 8978.000
392.0730, 8827.000
393.2700, 8652.000
394.4670, 8327.000
395.6640, 8147.000
396.8610, 8020.000
398.0580, 7899.000
399.2540, 7769.000
400.4500, 7637.000
401.6460, 7617.000
402.8420, 7503.000
404.0380, 7460.000
405.2340, 7411.000
406.4290, 7515.000
407.6240, 7591.848
408.8190, 7750.000
410.0140, 7926.000
411.2090, 8164.000
412.4040, 8423.000
413.5980, 8483.000
414.7920, 8109.000
415.9870, 7757.000
417.1810, 7322.000
418.3740, 7077.000
419.5680, 6961.000
420.7610, 6745.000
421.9550, 6821.000
423.1480, 6830.000
424.3410, 6652.000
425.5340, 6771.000
426.7260, 6688.000
427.9190, 6861.000
429.1110, 6745.000
430.3030, 6776.000
431.4950, 6747.000
432.6870, 6699.000
433.8790, 6766.000
435.0700, 6889.000
436.2610, 6914.000
437.4530, 6924.000
438.6440, 6882.000
439.8340, 6979.000
441.0250, 6974.000
442.2160, 7122.000
443.4060, 7130.000
444.5960, 7070.000
445.7860, 7058.000
446.9760, 7103.000
448.1660, 7122.000
449.3550, 7183.000
450.5450, 7166.000
451.7340, 7206.000
452.9230, 7404.000
454.1120, 7423.000
455.3000, 7640.000
456.4890, 7841.000
457.6770, 8063.000
458.8650, 8222.000
460.0530, 8429.000
461.2410, 8506.000
462.4290, 8671.713
463.6170, 8818.000
464.8040, 8940.000
465.9910, 9047.000
467.1780, 9204.000
468.3650, 9191.000
469.5520, 9509.000
470.7390, 9686.000
471.9250, 10028.00
473.1110, 10420.00
474.2970, 10858.00
475.4830, 11326.00
476.6690, 11606.00
477.8540, 11467.00
479.0400, 11282.00
480.2250, 10751.00
481.4100, 9960.000
482.5950, 9389.000
483.7800, 8859.000
484.9650, 8289.000
486.1490, 7821.000
487.3330, 7574.000
488.5170, 7502.000
489.7010, 7269.000
490.8850, 7077.000
492.0690, 7135.000
493.2520, 7115.000
494.4350, 7025.000
495.6190, 7118.000
496.8020, 7060.000
497.9840, 7084.000
499.1670, 7100.000
500.3490, 7236.000
501.5320, 7246.000
502.7140, 7204.000
503.8960, 7356.000
505.0780, 7300.000
506.2590, 7372.000
507.4410, 7465.000
508.6220, 7511.000
509.8030, 7607.000
510.9840, 7678.283
512.1650, 7770.000
513.3460, 7826.000
514.5260, 7903.000
515.7070, 7962.000
516.8870, 7960.000
518.0670, 7996.000
519.2470, 8027.000
520.4260, 7994.000
521.6060, 8091.000
522.7850, 8104.000
523.9650, 8078.000
525.1440, 8107.000
526.3220, 8059.000
527.5010, 8014.000
528.6800, 7984.000
529.8580, 8057.000
531.0360, 8016.000
532.2140, 7904.000
533.3920, 8013.000
534.5700, 7837.000
535.7480, 7981.000
536.9250, 7994.000
538.1020, 7969.000
539.2790, 7939.000
540.4560, 7933.000
541.6330, 7919.000
542.8100, 7715.000
543.9860, 7619.000
545.1620, 7441.000
546.3380, 7447.000
547.5140, 7353.623
548.6900, 7296.708
549.8660, 7305.000
551.0410, 7227.000
552.2160, 7275.000
553.3910, 7271.000
554.5660, 7196.000
555.7410, 7161.000
556.9160, 7229.000
558.0900, 7201.000
559.2650, 7200.000
560.4390, 7254.000
561.6130, 7340.000
562.7860, 7302.000
563.9600, 7330.000
565.1340, 7447.000
566.3070, 7406.000
567.4800, 7399.000
568.6530, 7407.000
569.8260, 7487.000
570.9980, 7508.000
572.1710, 7565.000
573.3430, 7576.000
574.5150, 7636.000
575.6870, 7591.000
576.8590, 7582.000
578.0310, 7635.000
579.2030, 7548.000
580.3740, 7507.000
581.5450, 7445.000
582.7160, 7170.000
583.8870, 7158.000
585.0580, 6970.000
586.2280, 6872.000
587.3990, 6819.000
588.5690, 6793.000
589.7390, 6762.000
590.9090, 6793.000
592.0780, 6818.000
593.2480, 6923.000
594.4170, 6956.000
595.5870, 7218.000
596.7560, 7350.000
597.9250, 7486.000
599.0930, 7713.000
600.2620, 8083.000
601.4300, 8287.000
602.5990, 8728.000
603.7670, 9113.000
604.9350, 9482.000
606.1020, 9878.000
607.2700, 10185.00
608.4370, 10661.00
609.6050, 11028.00
610.7720, 11330.00
611.9390, 11500.00
613.1060, 11659.00
614.2720, 11516.00
615.4390, 11293.00
616.6050, 11070.00
617.7710, 10773.00
618.9370, 10525.00
620.1030, 10493.00
621.2680, 10400.00
622.4340, 10392.00
623.5990, 10571.00
624.7640, 11047.00
625.9290, 11221.00
627.0940, 11659.00
628.2590, 12136.00
629.4230, 12526.00
630.5880, 12876.00
631.7520, 13220.00
632.9160, 13295.00
634.0800, 13070.00
635.2440, 12837.00
636.4070, 12373.00
637.5700, 11874.00
638.7340, 11403.00
639.8970, 11106.00
641.0600, 10663.00
642.2220, 10412.00
643.3850, 10117.00
644.5470, 9765.000
645.7090, 9471.660
646.8710, 9152.000
648.0330, 8816.000
649.1950, 8479.000
650.3570, 8155.000
651.5180, 7905.000
652.6790, 7703.000
653.8400, 7472.000
655.0010, 7329.000
656.1620, 7247.000
657.3230, 7167.000
658.4830, 7065.000
659.6430, 6921.000
660.8030, 6903.000
661.9630, 6861.000
663.1230, 6849.000
664.2830, 6907.000
665.4420, 6854.000
666.6020, 6976.000
667.7610, 6796.000
668.9200, 6951.000
670.0780, 6816.000
671.2370, 6824.000
672.3960, 6717.000
673.5540, 6680.000
674.7120, 6620.200
675.8700, 6561.343
677.0280, 6514.000
678.1860, 6445.000
679.3430, 6448.000
680.5000, 6345.000
681.6580, 6368.000
682.8150, 6353.000
683.9710, 6418.000
685.1280, 6297.000
686.2850, 6327.000
687.4410, 6269.000
688.5970, 6240.000
689.7530, 6246.000
690.9090, 6421.000
692.0650, 6274.000
693.2200, 6196.000
694.3760, 6429.000
695.5310, 6476.000
696.6860, 6466.000
697.8410, 6378.000
698.9960, 6537.000
700.1500, 6582.000
701.3050, 6568.000
702.4590, 6664.000
703.6130, 6751.000
704.7670, 6775.000
705.9210, 6906.000
707.0740, 6994.000
708.2280, 6968.000
709.3810, 7162.000
710.5340, 7197.000
711.6870, 7340.000
712.8400, 7341.000
713.9930, 7584.000
715.1450, 7638.000
716.2970, 7757.000
717.4490, 7815.000
718.6010, 7972.000
719.7530, 8188.000
720.9050, 8220.000
722.0560, 8316.000
723.2080, 8689.000
724.3590, 8701.000
725.5100, 8953.000
726.6610, 9327.000
727.8110, 9742.000
728.9620, 10091.00
730.1120, 10547.00
731.2620, 10782.00
732.4120, 11319.00
733.5620, 11907.00
734.7120, 12435.00
735.8620, 13110.00
737.0110, 13817.00
738.1600, 14368.00
739.3090, 14978.00
740.4580, 15495.00
741.6070, 15856.00
742.7550, 15702.00
743.9040, 15729.00
745.0520, 15259.00
746.2000, 14798.00
747.3480, 14192.00
748.4960, 13516.00
749.6430, 12802.00
750.7910, 12069.00
751.9380, 11495.00
753.0850, 10812.00
754.2320, 10479.00
755.3790, 9862.000
756.5260, 9469.000
757.6720, 9210.000
758.8180, 8829.000
759.9650, 8737.000
761.1110, 8368.000
762.2560, 8240.000
763.4020, 7986.000
764.5470, 7886.000
765.6930, 7683.000
766.8380, 7543.000
767.9830, 7477.000
769.1280, 7353.000
770.2720, 7296.409
771.4170, 7364.000
772.5610, 7186.000
773.7060, 7135.000
774.8500, 7067.000
775.9930, 6923.000
777.1370, 6932.000
778.2810, 6845.000
779.4240, 6865.000
780.5670, 6772.000
781.7100, 6839.000
782.8530, 6756.615
783.9960, 6797.000
785.1390, 6656.000
786.2810, 6750.000
787.4230, 6752.000
788.5650, 6689.000
789.7070, 6638.000
790.8490, 6582.000
791.9910, 6550.509
793.1320, 6550.000
794.2730, 6546.000
795.4140, 6458.000
796.5550, 6556.000
797.6960, 6539.000
798.8370, 6448.000
799.9770, 6466.000
801.1180, 6465.000
802.2580, 6401.000
803.3980, 6349.000
804.5380, 6371.000
805.6770, 6329.000
806.8170, 6350.000
807.9560, 6337.000
809.0950, 6327.000
810.2340, 6321.000
811.3730, 6249.000
812.5120, 6362.000
813.6500, 6323.000
814.7890, 6220.000
815.9270, 6302.000
817.0650, 6158.000
818.2030, 6150.000
819.3400, 6224.000
820.4780, 6128.000
821.6150, 6091.000
822.7530, 6281.000
823.8900, 6215.000
825.0270, 6188.000
826.1630, 6120.000
827.3000, 6179.000
828.4360, 6143.000
829.5730, 6166.000
830.7090, 6170.543
831.8450, 6169.389
832.9800, 6164.000
834.1160, 6183.000
835.2520, 6168.000
836.3870, 6165.000
837.5220, 6100.000
838.6570, 6098.000
839.7920, 6109.000
840.9260, 6106.000
842.0610, 6147.000
843.1950, 6186.000
844.3290, 6093.000
845.4630, 5975.000
846.5970, 6120.000
847.7310, 6233.000
848.8640, 6086.000
849.9980, 6122.000
851.1310, 6033.000
852.2640, 5986.000
853.3970, 6146.000
854.5300, 6039.000
855.6620, 6109.000
856.7940, 6058.000
857.9270, 6023.000
859.0590, 6073.000
860.1910, 6033.000
861.3220, 5920.000
862.4540, 6056.000
863.5850, 6099.000
864.7170, 5956.000
865.8480, 5971.000
866.9790, 6003.000
868.1090, 5974.000
869.2400, 6040.000
870.3710, 6023.000
871.5010, 6011.440
872.6310, 6007.626
873.7610, 5971.000
874.8910, 5943.000
876.0200, 5923.000
877.1500, 5872.000
878.2790, 5976.000
879.4080, 5859.000
880.5370, 5922.000
881.6660, 5860.000
882.7950, 5970.000
883.9230, 5875.000
885.0520, 5844.000
886.1800, 5850.000
887.3080, 5879.000
888.4360, 5929.000
889.5640, 5873.000
890.6910, 5872.000
891.8180, 5830.000
892.9460, 5920.000
894.0730, 5927.000
895.2000, 5935.000
896.3260, 6042.000
897.4530, 5896.000
898.5790, 5831.000
899.7060, 5903.000
900.8320, 5964.000
901.9580, 5877.000
903.0830, 5868.000
904.2090, 5904.000
905.3340, 5827.000
906.4600, 5862.000
907.5850, 5913.000
908.7100, 5926.000
909.8350, 5797.000
910.9590, 5899.000
912.0840, 5823.000
913.2080, 5851.000
914.3320, 5789.000
915.4560, 5873.000
916.5800, 5940.000
917.7040, 5932.000
918.8270, 5925.000
919.9510, 5874.000
921.0740, 5882.000
922.1970, 5932.000
923.3200, 5951.000
924.4430, 5927.000
925.5650, 5956.000
926.6870, 5898.000
927.8100, 5916.000
928.9320, 6011.000
930.0540, 5950.000
931.1750, 5864.000
932.2970, 6016.000
933.4180, 6007.000
934.5400, 5919.000
935.6610, 5916.000
936.7820, 5916.000
937.9030, 5875.000
939.0230, 5959.000
940.1440, 5977.000
941.2640, 5926.000
942.3840, 5904.000
943.5040, 6026.000
944.6240, 6003.000
945.7440, 5931.000
946.8630, 6025.000
947.9820, 5954.000
949.1020, 6051.000
950.2210, 5950.000
951.3390, 5972.000
952.4580, 6008.000
953.5770, 5994.000
954.6950, 6022.000
955.8130, 6044.955
956.9310, 6062.000
958.0490, 6067.000
959.1670, 6109.000
960.2840, 6055.000
961.4020, 6125.000
962.5190, 6053.000
963.6360, 6020.000
964.7530, 6033.000
965.8700, 6115.000
966.9860, 6028.000
968.1030, 6066.000
969.2190, 6171.000
970.3350, 6169.000
971.4510, 6146.000
972.5670, 6187.000
973.6830, 6095.000
974.7980, 6141.000
975.9140, 6163.000
977.0290, 6260.000
978.1440, 6216.000
979.2590, 6251.000
980.3730, 6246.000
981.4880, 6261.000
982.6020, 6333.000
983.7160, 6402.000
984.8300, 6388.000
985.9440, 6522.000
987.0580, 6595.000
988.1710, 6506.000
989.2850, 6595.000
990.3980, 6655.000
991.5110, 6746.000
992.6240, 6754.000
993.7370, 6884.000
994.8490, 6929.000
995.9620, 7119.000
997.0740, 7135.000
998.1860, 7213.000
999.2980, 7254.000
1000.410, 7436.000
1001.522, 7393.000
1002.633, 7561.000
1003.744, 7705.000
1004.856, 7725.000
1005.966, 7915.000
1007.077, 8062.000
1008.188, 8071.000
1009.298, 8239.000
1010.409, 8367.000
1011.519, 8580.000
1012.629, 8708.000
1013.739, 8917.000
1014.849, 9139.000
1015.958, 9293.000
1017.068, 9407.000
1018.177, 9273.000
1019.286, 9313.000
1020.395, 9299.000
1021.503, 9042.000
1022.612, 8934.000
1023.720, 8812.000
1024.829, 8831.000
1025.937, 8620.000
1027.045, 8673.000
1028.153, 8580.000
1029.260, 8507.000
1030.368, 8605.000
1031.475, 8571.000
1032.582, 8526.000
1033.689, 8523.000
1034.796, 8634.000
1035.903, 8817.000
1037.009, 8928.000
1038.115, 9115.000
1039.222, 9338.000
1040.328, 9697.000
1041.433, 9949.000
1042.539, 10508.00
1043.645, 11221.00
1044.750, 11809.00
1045.855, 12740.00
1046.960, 13984.00
1048.065, 15478.00
1049.170, 17197.74
1050.275, 19184.00
1051.379, 21441.00
1052.483, 24142.00
1053.587, 26945.00
1054.691, 29373.00
1055.795, 30960.00
1056.899, 31727.00
1058.002, 31472.00
1059.105, 30070.00
1060.209, 27750.00
1061.312, 25247.00
1062.414, 22443.00
1063.517, 19642.00
1064.620, 17331.00
1065.722, 15463.00
1066.824, 14027.00
1067.926, 12890.00
1069.028, 11935.00
1070.130, 11220.00
1071.231, 10746.00
1072.333, 10167.00
1073.434, 9939.000
1074.535, 9701.000
1075.636, 9592.000
1076.737, 9378.000
1077.837, 9351.000
1078.938, 9238.000
1080.038, 9121.000
1081.138, 9146.000
1082.238, 8936.000
1083.338, 8982.943
1084.437, 9011.330
1085.537, 9075.000
1086.636, 9098.000
1087.735, 9299.000
1088.834, 9216.000
1089.933, 9464.000
1091.032, 9421.000
1092.130, 9604.000
1093.228, 9746.000
1094.327, 9927.000
1095.425, 10124.00
1096.523, 10432.00
1097.620, 10606.00
1098.718, 10786.00
1099.815, 10836.00
1100.912, 10719.13
1102.009, 10573.00
1103.106, 10319.00
1104.203, 9905.000
1105.300, 9689.000
1106.396, 9417.000
1107.492, 9227.000
1108.589, 9152.000
1109.685, 8996.000
1110.780, 8858.000
1111.876, 8765.000
1112.971, 8812.000
1114.067, 8750.000
1115.162, 8778.000
1116.257, 8769.000
1117.352, 8919.000
1118.446, 8999.000
1119.541, 8982.000
1120.635, 9087.000
1121.729, 9151.000
1122.823, 9294.595
1123.917, 9441.922
1125.011, 9709.000
1126.105, 9889.000
1127.198, 10239.00
1128.291, 10691.00
1129.384, 11106.00
1130.477, 11841.00
1131.570, 12674.00
1132.663, 13378.00
1133.755, 14109.00
1134.847, 14620.00
1135.940, 14908.00
1137.031, 14765.00
1138.123, 14360.00
1139.215, 13521.00
1140.306, 12838.00
1141.398, 12103.00
1142.489, 11473.00
1143.580, 10780.00
1144.671, 10499.00
1145.761, 10037.00
1146.852, 9678.000
1147.942, 9502.000
1149.033, 9259.000
1150.123, 9129.000
1151.213, 9063.000
1152.302, 8844.000
1153.392, 8933.000
1154.481, 8682.000
1155.571, 8561.000
1156.660, 8508.000
1157.749, 8367.000
1158.837, 8319.000
1159.926, 8312.000
1161.014, 8257.000
1162.103, 8236.000
1163.191, 8178.000
1164.279, 8152.000
1165.367, 8120.000
1166.454, 8042.960
1167.542, 7988.000
1168.629, 7901.000
1169.716, 7868.000
1170.803, 7818.000
1171.890, 7784.115
1172.977, 7765.358
1174.064, 7752.000
1175.150, 7758.000
1176.236, 7771.000
1177.322, 7816.000
1178.408, 7759.248
1179.494, 7709.000
1180.580, 7645.000
1181.665, 7684.000
1182.750, 7610.000
1183.835, 7607.000
1184.920, 7572.000
1186.005, 7556.000
1187.090, 7409.000
1188.174, 7343.000
1189.259, 7346.000
1190.343, 7186.000
1191.427, 7186.000
1192.511, 7141.015
1193.594, 7097.560
1194.678, 7083.000
1195.761, 7079.000
1196.844, 7037.000
1197.928, 7038.000
1199.010, 7117.000
1200.093, 7072.000
1201.176, 7188.000
1202.258, 7216.000
1203.340, 7321.000
1204.423, 7304.000
1205.504, 7367.000
1206.586, 7349.000
1207.668, 7523.000
1208.749, 7448.000
1209.831, 7509.000
1210.912, 7416.000
1211.993, 7396.000
1213.074, 7448.000
1214.154, 7370.000
1215.235, 7388.000
1216.315, 7238.000
1217.395, 7216.000
1218.475, 7201.000
1219.555, 7147.000
1220.635, 7095.000
1221.715, 6981.000
1222.794, 7002.000
1223.873, 6944.000
1224.952, 6800.000
1226.031, 6748.000
1227.110, 6798.000
1228.189, 6706.000
1229.267, 6652.000
1230.345, 6537.000
1231.424, 6513.000
1232.502, 6443.000
1233.579, 6379.000
1234.657, 6287.000
1235.735, 6358.000
1236.812, 6281.000
1237.889, 6291.000
1238.966, 6280.000
1240.043, 6178.000
1241.120, 6107.000
1242.196, 6185.000
1243.273, 6124.000
