##NAMES=Lazulite
##RRUFFID=R060494
##IDEAL CHEMISTRY=MgAl_2_(PO_4_)_2_(OH)_2_
##LOCALITY=Champion mine, White Mountains, Mono County, California, USA
##OWNER=RRUFF
##SOURCE=Michael Scott
##DESCRIPTION=Dark-blue coarsely crystalline mass
##STATUS=The identification of this mineral has been confirmed by X-ray diffraction and chemical analysis
##URL=rruff.info/R060494
##MEASURED CHEMISTRY=(Mg_0.67_Fe^2+^_0.33_)_Î£=1_Al_2.00_(P_1.00_O_4_)_2_(OH)_2_
##PIN_ID=M01007
##ORIENTATION=Laser parallel to c* (0 0 1). Fiducial mark perpendicular to laser is parallel to -a [-1 0 0]
60.30200, 2091.000
61.54400, 2180.000
62.78600, 2037.000
64.02800, 1884.000
65.26900, 1846.000
66.51100, 1774.000
67.75200, 1682.000
68.99300, 1690.000
70.23400, 1664.000
71.47500, 1700.000
72.71600, 1770.000
73.95600, 1852.000
75.19700, 1700.000
76.43700, 1451.000
77.67700, 1468.000
78.91700, 1450.000
80.15600, 1536.000
81.39600, 1512.000
82.63500, 1561.000
83.87400, 1566.000
85.11300, 1560.000
86.35200, 1576.266
87.59100, 1583.000
88.83000, 1579.000
90.06800, 1546.000
91.30600, 1555.000
92.54400, 1565.000
93.78200, 1720.000
95.02000, 1773.000
96.25700, 1912.000
97.49400, 2036.000
98.73200, 2075.000
99.96900, 2087.000
101.2060, 2071.000
102.4420, 2060.000
103.6790, 2074.000
104.9150, 2183.000
106.1510, 2263.000
107.3870, 2392.000
108.6230, 2593.000
109.8590, 2816.000
111.0940, 3057.000
112.3300, 3297.000
113.5650, 3610.000
114.8000, 4078.000
116.0350, 4485.000
117.2700, 4598.000
118.5040, 4668.000
119.7390, 4924.000
120.9730, 5037.000
122.2070, 5432.000
123.4410, 5690.000
124.6740, 6026.000
125.9080, 6242.000
127.1410, 6345.000
128.3740, 6611.000
129.6080, 6904.000
130.8400, 7273.000
132.0730, 7616.000
133.3060, 7774.000
134.5380, 7876.000
135.7700, 8167.000
137.0020, 8485.000
138.2340, 8852.000
139.4660, 8963.000
140.6980, 9340.000
141.9290, 9392.000
143.1600, 9416.000
144.3910, 9633.000
145.6220, 9697.000
146.8530, 9864.000
148.0830, 9900.605
149.3140, 9904.170
150.5440, 9932.000
151.7740, 9891.000
153.0040, 9882.000
154.2340, 9982.000
155.4630, 9941.000
156.6930, 9868.000
157.9220, 10031.00
159.1510, 10117.00
160.3800, 10160.00
161.6090, 10860.00
162.8370, 11339.00
164.0660, 12190.00
165.2940, 12854.00
166.5220, 13058.00
167.7500, 12952.00
168.9780, 13309.00
170.2050, 13914.00
171.4330, 14776.00
172.6600, 15243.00
173.8870, 15441.00
175.1140, 14903.00
176.3410, 14395.00
177.5670, 13877.00
178.7940, 13848.00
180.0200, 14586.00
181.2460, 15853.00
182.4720, 17702.00
183.6980, 19651.00
184.9230, 20520.00
186.1490, 20257.00
187.3740, 20878.00
188.5990, 22364.00
189.8240, 24319.00
191.0490, 25638.00
192.2730, 25878.00
193.4980, 24282.00
194.7220, 21433.00
195.9460, 18387.00
197.1700, 16162.00
198.3940, 14698.00
199.6180, 13995.00
200.8410, 13513.00
202.0640, 13483.00
203.2870, 13024.00
204.5100, 13053.00
205.7330, 12990.00
206.9560, 13102.00
208.1780, 13411.00
209.4000, 14160.00
210.6230, 15052.00
211.8450, 16356.00
213.0660, 17716.00
214.2880, 19434.00
215.5090, 20856.00
216.7310, 22234.00
217.9520, 23104.00
219.1730, 24306.00
220.3940, 24953.00
221.6140, 25826.00
222.8350, 26342.00
224.0550, 25834.00
225.2750, 24767.00
226.4950, 22312.00
227.7150, 19726.00
228.9350, 17223.00
230.1540, 15172.00
231.3730, 13512.00
232.5930, 12390.00
233.8120, 11711.00
235.0300, 11331.00
236.2490, 10938.00
237.4680, 10876.00
238.6860, 10918.00
239.9040, 11211.00
241.1220, 11646.00
242.3400, 12376.00
243.5580, 13493.00
244.7750, 15044.00
245.9920, 16519.00
247.2100, 17290.00
248.4270, 17594.00
249.6430, 19029.00
250.8600, 19461.00
252.0770, 20831.00
253.2930, 21769.00
254.5090, 21600.00
255.7250, 20481.00
256.9410, 18238.00
258.1570, 15847.00
259.3720, 14047.00
260.5880, 12852.00
261.8030, 12168.00
263.0180, 11519.00
264.2330, 11334.00
265.4470, 11177.00
266.6620, 11020.00
267.8760, 10996.00
269.0900, 11110.00
270.3040, 11256.00
271.5180, 11511.00
272.7320, 11892.00
273.9460, 12341.00
275.1590, 12556.00
276.3720, 12708.00
277.5850, 13049.00
278.7980, 13142.00
280.0110, 13393.00
281.2230, 13147.00
282.4360, 13084.00
283.6480, 12478.00
284.8600, 11932.00
286.0720, 11078.00
287.2840, 10431.00
288.4950, 9732.000
289.7070, 9303.000
290.9180, 8834.000
292.1290, 8512.000
293.3400, 8318.000
294.5500, 8173.000
295.7610, 8005.000
296.9710, 7964.000
298.1820, 7866.000
299.3920, 7711.000
300.6020, 7752.000
301.8110, 7748.000
303.0210, 7726.000
304.2300, 7844.000
305.4400, 7815.000
306.6490, 7934.000
307.8580, 8054.000
309.0660, 8242.000
310.2750, 8424.000
311.4830, 8594.000
312.6920, 8974.000
313.9000, 9475.000
315.1080, 9665.000
316.3160, 9882.000
317.5230, 10046.00
318.7310, 10641.00
319.9380, 10832.00
321.1450, 10916.00
322.3520, 11025.00
323.5590, 10991.00
324.7650, 10695.00
325.9720, 10615.00
327.1780, 10398.00
328.3840, 10206.00
329.5900, 10229.00
330.7960, 10151.00
332.0020, 10359.00
333.2070, 10336.00
334.4120, 10376.00
335.6170, 10468.00
336.8220, 10534.00
338.0270, 10702.00
339.2320, 10743.00
340.4360, 10936.00
341.6410, 11077.00
342.8450, 11117.00
344.0490, 11168.44
345.2530, 11134.38
346.4560, 11097.00
347.6600, 10966.00
348.8630, 10830.00
350.0660, 10692.00
351.2690, 10498.00
352.4720, 10394.00
353.6750, 10433.00
354.8770, 10324.00
356.0790, 10155.00
357.2820, 10152.00
358.4840, 9933.000
359.6860, 9909.000
360.8870, 9832.000
362.0890, 9744.000
363.2900, 9875.000
364.4910, 9627.000
365.6920, 9594.000
366.8930, 9381.000
368.0940, 9250.000
369.2940, 9152.000
370.4950, 9044.679
371.6950, 8940.000
372.8950, 8937.000
374.0950, 8813.000
375.2940, 8801.000
376.4940, 8636.000
377.6930, 8639.000
378.8930, 8678.000
380.0920, 8636.000
381.2910, 8685.000
382.4890, 8690.000
383.6880, 8792.000
384.8860, 8675.000
386.0840, 8804.000
387.2820, 8794.000
388.4800, 8981.000
389.6780, 8880.000
390.8760, 9091.000
392.0730, 9195.000
393.2700, 9222.000
394.4670, 9161.000
395.6640, 9324.000
396.8610, 9396.000
398.0580, 9789.000
399.2540, 11243.00
400.4500, 10516.00
401.6460, 11544.00
402.8420, 13179.00
404.0380, 15193.00
405.2340, 17961.00
406.4290, 20428.00
407.6240, 21253.00
408.8190, 21449.00
410.0140, 22862.00
411.2090, 25135.00
412.4040, 26754.00
413.5980, 26495.00
414.7920, 23885.00
415.9870, 19844.00
417.1810, 15834.00
418.3740, 12879.00
419.5680, 11243.00
420.7610, 10279.00
421.9550, 10150.00
423.1480, 9869.000
424.3410, 9738.000
425.5340, 9968.000
426.7260, 10053.00
427.9190, 9897.000
429.1110, 9980.000
430.3030, 9728.000
431.4950, 9506.000
432.6870, 9080.000
433.8790, 8879.000
435.0700, 8653.000
436.2610, 8497.000
437.4530, 8338.000
438.6440, 8344.000
439.8340, 8400.000
441.0250, 8189.000
442.2160, 8389.000
443.4060, 8322.000
444.5960, 8302.000
445.7860, 8303.000
446.9760, 8183.000
448.1660, 8211.000
449.3550, 8213.000
450.5450, 8361.000
451.7340, 8444.000
452.9230, 8520.000
454.1120, 8725.542
455.3000, 8781.000
456.4890, 9167.000
457.6770, 9385.000
458.8650, 9710.000
460.0530, 10242.00
461.2410, 10802.00
462.4290, 11637.00
463.6170, 12288.00
464.8040, 13306.00
465.9910, 14640.00
467.1780, 16253.00
468.3650, 17948.00
469.5520, 19979.00
470.7390, 22079.00
471.9250, 23794.00
473.1110, 25367.00
474.2970, 26677.00
475.4830, 27695.00
476.6690, 28329.00
477.8540, 27965.00
479.0400, 27191.00
480.2250, 25074.00
481.4100, 22553.00
482.5950, 19897.00
483.7800, 17593.00
484.9650, 15307.00
486.1490, 13831.00
487.3330, 12327.00
488.5170, 11459.00
489.7010, 10730.00
490.8850, 10221.00
492.0690, 9814.000
493.2520, 9698.000
494.4350, 9380.000
495.6190, 9184.000
496.8020, 9134.000
497.9840, 8984.000
499.1670, 8924.000
500.3490, 9037.000
501.5320, 9026.000
502.7140, 8825.000
503.8960, 9049.000
505.0780, 9148.000
506.2590, 8956.000
507.4410, 9113.000
508.6220, 9237.000
509.8030, 9365.000
510.9840, 9429.000
512.1650, 9469.000
513.3460, 9414.000
514.5260, 9491.000
515.7070, 9631.000
516.8870, 9514.000
518.0670, 9659.000
519.2470, 9701.000
520.4260, 9561.000
521.6060, 9636.000
522.7850, 9444.000
523.9650, 9398.000
525.1440, 9359.000
526.3220, 9271.000
527.5010, 9249.000
528.6800, 9248.000
529.8580, 9146.000
531.0360, 9071.000
532.2140, 9197.000
533.3920, 9123.000
534.5700, 8981.000
535.7480, 8994.000
536.9250, 8860.000
538.1020, 8903.000
539.2790, 8827.000
540.4560, 8711.000
541.6330, 8678.008
542.8100, 8641.000
543.9860, 8470.000
545.1620, 8402.000
546.3380, 8205.000
547.5140, 8122.000
548.6900, 8133.000
549.8660, 8112.000
551.0410, 8096.000
552.2160, 7945.000
553.3910, 8070.000
554.5660, 7893.000
555.7410, 8068.000
556.9160, 8042.000
558.0900, 8098.000
559.2650, 8104.000
560.4390, 8266.000
561.6130, 8279.000
562.7860, 8304.000
563.9600, 8399.000
565.1340, 8347.000
566.3070, 8370.000
567.4800, 8405.000
568.6530, 8571.000
569.8260, 8627.000
570.9980, 8705.000
572.1710, 8694.000
573.3430, 8897.000
574.5150, 8794.000
575.6870, 8809.000
576.8590, 8862.000
578.0310, 8745.000
579.2030, 8756.000
580.3740, 8592.679
581.5450, 8478.000
582.7160, 8229.000
583.8870, 8065.000
585.0580, 7870.000
586.2280, 7842.000
587.3990, 7664.000
588.5690, 7642.000
589.7390, 7679.000
590.9090, 7525.000
592.0780, 7667.000
593.2480, 7738.000
594.4170, 7929.000
595.5870, 8155.000
596.7560, 8333.000
597.9250, 8644.000
599.0930, 9043.000
600.2620, 9311.000
601.4300, 9535.000
602.5990, 9820.000
603.7670, 10013.00
604.9350, 10116.00
606.1020, 10025.00
607.2700, 10018.00
608.4370, 9906.000
609.6050, 9485.000
610.7720, 9287.000
611.9390, 9331.000
613.1060, 9122.000
614.2720, 9144.000
615.4390, 9078.000
616.6050, 8993.000
617.7710, 9016.000
618.9370, 9173.000
620.1030, 9139.000
621.2680, 9239.000
622.4340, 9197.000
623.5990, 9292.000
624.7640, 9208.000
625.9290, 9383.000
627.0940, 9418.000
628.2590, 9506.000
629.4230, 9465.000
630.5880, 9754.000
631.7520, 9842.000
632.9160, 10039.00
634.0800, 10523.00
635.2440, 10797.00
636.4070, 11462.00
637.5700, 12096.00
638.7340, 12860.83
639.8970, 13747.00
641.0600, 14608.00
642.2220, 15384.00
643.3850, 16150.00
644.5470, 16928.00
645.7090, 17107.00
646.8710, 17376.00
648.0330, 17220.00
649.1950, 16615.00
650.3570, 16097.00
651.5180, 15415.00
652.6790, 14485.00
653.8400, 13644.00
655.0010, 12982.00
656.1620, 12080.00
657.3230, 11561.00
658.4830, 11004.00
659.6430, 10577.00
660.8030, 10181.00
661.9630, 10055.00
663.1230, 9656.000
664.2830, 9589.000
665.4420, 9210.000
666.6020, 9041.000
667.7610, 8778.000
668.9200, 8655.000
670.0780, 8561.000
671.2370, 8328.000
672.3960, 8219.000
673.5540, 8061.000
674.7120, 7870.000
675.8700, 7879.000
677.0280, 7600.000
678.1860, 7539.000
679.3430, 7486.000
680.5000, 7459.000
681.6580, 7286.000
682.8150, 7199.000
683.9710, 7224.000
685.1280, 7062.000
686.2850, 7086.000
687.4410, 7055.000
688.5970, 7043.000
689.7530, 6982.000
690.9090, 7066.000
692.0650, 7045.000
693.2200, 7030.000
694.3760, 7136.000
695.5310, 7081.000
696.6860, 7170.000
697.8410, 7227.842
698.9960, 7258.139
700.1500, 7377.000
701.3050, 7393.000
702.4590, 7475.000
703.6130, 7579.000
704.7670, 7613.000
705.9210, 7823.000
707.0740, 7807.000
708.2280, 7988.000
709.3810, 8015.000
710.5340, 8279.000
711.6870, 8242.000
712.8400, 8331.000
713.9930, 8334.000
715.1450, 8464.000
716.2970, 8416.000
717.4490, 8469.000
718.6010, 8735.000
719.7530, 8591.000
720.9050, 8726.000
722.0560, 8947.000
723.2080, 9057.000
724.3590, 9340.000
725.5100, 9378.000
726.6610, 9545.000
727.8110, 9975.000
728.9620, 10147.00
730.1120, 10536.00
731.2620, 10972.00
732.4120, 11429.00
733.5620, 11905.00
734.7120, 12293.00
735.8620, 12826.00
737.0110, 13392.00
738.1600, 13604.00
739.3090, 13987.00
740.4580, 14142.00
741.6070, 14266.00
742.7550, 13970.00
743.9040, 14005.00
745.0520, 13647.00
746.2000, 13101.00
747.3480, 12636.00
748.4960, 12107.20
749.6430, 11473.00
750.7910, 10975.00
751.9380, 10465.00
753.0850, 10038.45
754.2320, 9572.000
755.3790, 9353.000
756.5260, 9070.000
757.6720, 8880.000
758.8180, 8606.000
759.9650, 8533.000
761.1110, 8271.000
762.2560, 8230.000
763.4020, 8095.000
764.5470, 7989.000
765.6930, 7792.000
766.8380, 7782.000
767.9830, 7649.000
769.1280, 7622.000
770.2720, 7638.000
771.4170, 7593.000
772.5610, 7464.000
773.7060, 7465.000
774.8500, 7506.000
775.9930, 7374.000
777.1370, 7438.000
778.2810, 7400.000
779.4240, 7316.000
780.5670, 7378.000
781.7100, 7375.000
782.8530, 7248.000
783.9960, 7301.000
785.1390, 7320.000
786.2810, 7403.000
787.4230, 7287.000
788.5650, 7360.000
789.7070, 7231.000
790.8490, 7135.347
791.9910, 7223.913
793.1320, 7266.240
794.2730, 7264.799
795.4140, 7088.498
796.5550, 7137.992
797.6960, 7096.998
798.8370, 7052.293
799.9770, 7133.582
801.1180, 6982.714
802.2580, 7062.005
803.3980, 7049.427
804.5380, 7078.895
805.6770, 7017.331
806.8170, 6946.313
807.9560, 6958.401
809.0950, 6898.000
810.2340, 6882.000
811.3730, 6922.000
812.5120, 6860.000
813.6500, 6954.000
814.7890, 6872.000
815.9270, 6783.000
817.0650, 6870.000
818.2030, 6802.000
819.3400, 6758.000
820.4780, 6808.000
821.6150, 6887.000
822.7530, 6713.000
823.8900, 6841.000
825.0270, 6785.000
826.1630, 6822.000
827.3000, 6768.000
828.4360, 6669.000
829.5730, 6730.000
830.7090, 6684.000
831.8450, 6641.000
832.9800, 6697.000
834.1160, 6712.000
835.2520, 6779.000
836.3870, 6668.000
837.5220, 6674.000
838.6570, 6691.000
839.7920, 6727.000
840.9260, 6640.000
842.0610, 6686.000
843.1950, 6670.000
844.3290, 6687.000
845.4630, 6617.000
846.5970, 6602.000
847.7310, 6804.000
848.8640, 6708.000
849.9980, 6689.000
851.1310, 6559.000
852.2640, 6742.000
853.3970, 6629.000
854.5300, 6668.000
855.6620, 6624.000
856.7940, 6568.000
857.9270, 6572.000
859.0590, 6597.000
860.1910, 6531.000
861.3220, 6574.585
862.4540, 6592.000
863.5850, 6597.000
864.7170, 6608.000
865.8480, 6584.000
866.9790, 6565.000
868.1090, 6641.000
869.2400, 6549.000
870.3710, 6505.000
871.5010, 6606.000
872.6310, 6585.000
873.7610, 6582.000
874.8910, 6562.000
876.0200, 6539.000
877.1500, 6599.000
878.2790, 6585.000
879.4080, 6529.000
880.5370, 6596.000
881.6660, 6479.000
882.7950, 6603.000
883.9230, 6531.000
885.0520, 6580.000
886.1800, 6387.000
887.3080, 6481.000
888.4360, 6499.000
889.5640, 6529.000
890.6910, 6503.000
891.8180, 6543.000
892.9460, 6502.000
894.0730, 6505.000
895.2000, 6572.000
896.3260, 6436.000
897.4530, 6555.000
898.5790, 6510.000
899.7060, 6497.000
900.8320, 6530.140
901.9580, 6606.000
903.0830, 6525.000
904.2090, 6590.000
905.3340, 6581.000
906.4600, 6496.000
907.5850, 6554.000
908.7100, 6543.000
909.8350, 6594.000
910.9590, 6591.244
912.0840, 6649.000
913.2080, 6543.000
914.3320, 6587.000
915.4560, 6471.000
916.5800, 6626.000
917.7040, 6645.000
918.8270, 6530.000
919.9510, 6542.000
921.0740, 6583.000
922.1970, 6531.000
923.3200, 6605.000
924.4430, 6606.000
925.5650, 6591.000
926.6870, 6606.000
927.8100, 6593.000
928.9320, 6642.000
930.0540, 6664.000
931.1750, 6622.000
932.2970, 6606.000
933.4180, 6498.000
934.5400, 6536.000
935.6610, 6625.000
936.7820, 6525.000
937.9030, 6641.000
939.0230, 6554.000
940.1440, 6519.000
941.2640, 6720.000
942.3840, 6726.000
943.5040, 6771.000
944.6240, 6633.000
945.7440, 6671.000
946.8630, 6608.000
947.9820, 6655.000
949.1020, 6630.000
950.2210, 6644.000
951.3390, 6730.000
952.4580, 6770.000
953.5770, 6692.000
954.6950, 6718.000
955.8130, 6691.000
956.9310, 6781.000
958.0490, 6692.000
959.1670, 6806.000
960.2840, 6804.000
961.4020, 6803.000
962.5190, 6853.000
963.6360, 6893.870
964.7530, 6911.000
965.8700, 6997.000
966.9860, 7022.000
968.1030, 7011.000
969.2190, 6993.000
970.3350, 6954.000
971.4510, 6998.000
972.5670, 6990.447
973.6830, 6956.000
974.7980, 7026.000
975.9140, 7086.000
977.0290, 7097.000
978.1440, 7123.327
979.2590, 7171.430
980.3730, 7204.000
981.4880, 7246.000
982.6020, 7322.204
983.7160, 7491.000
984.8300, 7456.000
985.9440, 7588.000
987.0580, 7603.000
988.1710, 7839.000
989.2850, 7794.000
990.3980, 7933.000
991.5110, 8086.000
992.6240, 8194.000
993.7370, 8331.499
994.8490, 8387.000
995.9620, 8557.000
997.0740, 8746.000
998.1860, 8818.000
999.2980, 9146.000
1000.410, 9206.163
1001.522, 9319.095
1002.633, 9370.000
1003.744, 9564.000
1004.856, 9513.522
1005.966, 9842.000
1007.077, 9916.000
1008.188, 9988.000
1009.298, 10013.00
1010.409, 10242.00
1011.519, 10203.00
1012.629, 10325.00
1013.739, 10312.00
1014.849, 10494.00
1015.958, 10537.00
1017.068, 10580.00
1018.177, 10857.00
1019.286, 10786.00
1020.395, 10822.00
1021.503, 10995.00
1022.612, 10828.00
1023.720, 10975.00
1024.829, 11041.00
1025.937, 10942.00
1027.045, 11011.00
1028.153, 11109.00
1029.260, 11206.00
1030.368, 11118.00
1031.475, 11344.00
1032.582, 11430.00
1033.689, 11448.00
1034.796, 11693.00
1035.903, 12003.00
1037.009, 12357.00
1038.115, 12757.00
1039.222, 13199.00
1040.328, 13933.00
1041.433, 14952.00
1042.539, 15998.00
1043.645, 17610.00
1044.750, 19376.00
1045.855, 21526.00
1046.960, 24154.00
1048.065, 27334.00
1049.170, 30928.00
1050.275, 35072.00
1051.379, 39243.00
1052.483, 43217.00
1053.587, 47196.00
1054.691, 49634.00
1055.795, 51386.00
1056.899, 51274.00
1058.002, 49503.00
1059.105, 46864.00
1060.209, 42819.00
1061.312, 37886.00
1062.414, 33336.00
1063.517, 29003.00
1064.620, 25370.00
1065.722, 22278.00
1066.824, 19925.00
1067.926, 17976.00
1069.028, 16530.00
1070.130, 15526.00
1071.231, 14497.00
1072.333, 13722.45
1073.434, 13097.00
1074.535, 12709.00
1075.636, 12475.00
1076.737, 12431.00
1077.837, 12048.00
1078.938, 11925.00
1080.038, 11691.00
1081.138, 11662.00
1082.238, 11536.00
1083.338, 11452.00
1084.437, 11428.00
1085.537, 11317.00
1086.636, 11347.00
1087.735, 11438.00
1088.834, 11467.00
1089.933, 11917.00
1091.032, 12281.00
1092.130, 12735.00
1093.228, 13078.00
1094.327, 13722.00
1095.425, 14324.00
1096.523, 14660.00
1097.620, 15239.00
1098.718, 15501.00
1099.815, 15435.00
1100.912, 15149.00
1102.009, 14915.00
1103.106, 14204.00
1104.203, 13790.00
1105.300, 13327.00
1106.396, 12864.00
1107.492, 12521.00
1108.589, 12128.00
1109.685, 11890.00
1110.780, 11877.00
1111.876, 11671.00
1112.971, 11609.00
1114.067, 11542.00
1115.162, 11544.00
1116.257, 11592.00
1117.352, 11734.00
1118.446, 11531.00
1119.541, 11577.00
1120.635, 11745.00
1121.729, 11852.00
1122.823, 11774.00
1123.917, 11910.00
1125.011, 11988.00
1126.105, 12228.00
1127.198, 12589.00
1128.291, 12788.00
1129.384, 13266.00
1130.477, 13744.00
1131.570, 14158.00
1132.663, 14680.00
1133.755, 15084.00
1134.847, 15463.00
1135.940, 15596.00
1137.031, 15953.00
1138.123, 15792.00
1139.215, 15620.00
1140.306, 15207.00
1141.398, 14790.00
1142.489, 14511.00
1143.580, 14124.00
1144.671, 14060.00
1145.761, 13700.00
1146.852, 13388.00
1147.942, 13319.00
1149.033, 13343.00
1150.123, 13228.00
1151.213, 13107.00
1152.302, 12914.00
1153.392, 12912.00
1154.481, 12879.00
1155.571, 13042.00
1156.660, 12997.00
1157.749, 12875.00
1158.837, 12908.00
1159.926, 12713.00
1161.014, 12944.00
1162.103, 12609.87
1163.191, 13051.80
1164.279, 13364.21
1165.367, 13554.07
1166.454, 13254.19
1167.542, 13586.68
1168.629, 13665.67
1169.716, 13734.25
1170.803, 14155.59
1171.890, 13926.93
1172.977, 14342.68
1174.064, 14501.17
1175.150, 14762.00
1176.236, 14924.00
1177.322, 14993.00
1178.408, 14956.23
1179.494, 14985.00
1180.580, 14539.00
1181.665, 14268.00
1182.750, 13788.00
1183.835, 13424.00
1184.920, 13187.00
1186.005, 12649.00
1187.090, 12123.00
1188.174, 11825.00
1189.259, 11441.00
1190.343, 11084.00
1191.427, 10769.00
1192.511, 10673.00
1193.594, 10343.00
1194.678, 10324.00
1195.761, 10218.00
1196.844, 9965.000
1197.928, 9954.000
1199.010, 9879.000
1200.093, 9837.000
1201.176, 9905.000
1202.258, 9867.000
1203.340, 10090.00
1204.423, 10034.00
1205.504, 10163.00
1206.586, 10380.00
1207.668, 10235.00
1208.749, 10200.00
1209.831, 10224.00
1210.912, 10204.00
1211.993, 10047.00
1213.074, 10085.00
1214.154, 10047.00
1215.235, 9814.000
1216.315, 9667.000
1217.395, 9578.000
1218.475, 9561.000
1219.555, 9518.000
1220.635, 9446.000
1221.715, 9305.000
1222.794, 9242.000
1223.873, 9142.000
1224.952, 8932.000
1226.031, 8904.000
1227.110, 8530.000
1228.189, 8663.000
1229.267, 8562.000
1230.345, 8266.000
1231.424, 8273.000
1232.502, 8168.000
1233.579, 7967.000
1234.657, 8000.000
1235.735, 7917.000
1236.812, 7822.000
1237.889, 7749.000
1238.966, 7607.000
1240.043, 7530.000
1241.120, 7523.000
1242.196, 7411.000
1243.273, 7505.000
