##NAMES=Legrandite
##RRUFFID=R040151
##IDEAL CHEMISTRY=Zn^2+^_2_As^5+^O_4_(OH)&#183;H_2_O
##LOCALITY=Mapimi, Durango, Mexico
##OWNER=RRUFF
##SOURCE=University of Arizona Mineral Museum
##DESCRIPTION=Yellow crystal fragments; same material used in McLean et al. (1971) study
##STATUS=The identification of this mineral has been confirmed by X-ray diffraction and chemical analysis
##URL=rruff.info/R040151
##MEASURED CHEMISTRY=Zn_1.88_Fe^2+^_0.04_As_1.03_O_4_(OH)Â·H_2_O
##PIN_ID=M01002
##ORIENTATION=Laser parallel to a* (1 0 0). Fiducial mark perpendicular to laser is parallel to -c [0 0 -1]
62.17000, 1260.000
63.41600, 1620.000
64.66100, 2010.000
65.90700, 2325.000
67.15200, 2820.000
68.39700, 3457.000
69.64100, 4398.804
70.88600, 5473.000
72.13000, 6843.000
73.37400, 8448.000
74.61800, 10188.00
75.86200, 11329.00
77.10600, 11665.00
78.34900, 11632.00
79.59300, 11841.00
80.83600, 12052.00
82.07900, 12820.00
83.32100, 13634.00
84.56400, 14465.00
85.80600, 14549.00
87.04800, 14537.00
88.29000, 14629.00
89.53200, 14584.00
90.77400, 14459.00
92.01500, 14539.00
93.25700, 14465.00
94.49800, 14688.00
95.73900, 14903.00
96.98000, 15438.00
98.22000, 15635.00
99.46100, 15938.00
100.7010, 16413.00
101.9410, 16690.00
103.1810, 16546.00
104.4210, 16578.00
105.6600, 16263.00
106.9000, 15740.00
108.1390, 15095.00
109.3780, 14339.00
110.6170, 13616.00
111.8550, 12895.00
113.0940, 12441.00
114.3320, 12116.00
115.5700, 11832.00
116.8080, 11826.00
118.0460, 11882.00
119.2830, 11904.00
120.5210, 11981.00
121.7580, 11570.00
122.9950, 11423.00
124.2320, 11137.00
125.4690, 11046.00
126.7050, 10797.00
127.9410, 10535.00
129.1780, 10340.00
130.4140, 10343.00
131.6490, 10430.00
132.8850, 10582.00
134.1200, 10784.48
135.3560, 11106.00
136.5910, 11348.00
137.8260, 11608.00
139.0610, 11943.00
140.2950, 12063.00
141.5290, 12402.00
142.7640, 12663.00
143.9980, 12684.00
145.2320, 12809.00
146.4650, 12967.00
147.6990, 12974.00
148.9320, 13008.00
150.1650, 13229.00
151.3980, 13522.00
152.6310, 14014.00
153.8640, 14445.00
155.0960, 15003.00
156.3280, 15787.00
157.5600, 17051.00
158.7920, 18044.00
160.0240, 19495.00
161.2560, 20672.00
162.4870, 21394.00
163.7180, 21139.00
164.9490, 20473.00
166.1800, 19783.00
167.4110, 18475.00
168.6410, 17286.00
169.8720, 16461.00
171.1020, 15717.00
172.3320, 15012.00
173.5620, 14454.00
174.7910, 14348.00
176.0210, 14174.00
177.2500, 14092.00
178.4790, 14214.00
179.7080, 14494.00
180.9370, 14809.00
182.1650, 15148.00
183.3940, 15322.00
184.6220, 15472.00
185.8500, 15563.00
187.0780, 15858.00
188.3050, 16257.00
189.5330, 16736.00
190.7600, 17004.00
191.9870, 17290.00
193.2140, 17352.00
194.4410, 17794.00
195.6680, 17665.00
196.8940, 17880.00
198.1200, 17494.00
199.3470, 17142.00
200.5720, 16618.00
201.7980, 16251.00
203.0240, 15993.00
204.2490, 15515.00
205.4740, 15446.00
206.6990, 15325.00
207.9240, 15522.00
209.1490, 15394.00
210.3740, 15653.00
211.5980, 15641.00
212.8220, 15851.00
214.0460, 15935.00
215.2700, 15801.00
216.4930, 15871.00
217.7170, 16176.00
218.9400, 16287.00
220.1630, 16481.25
221.3860, 16768.42
222.6090, 16909.00
223.8320, 17251.00
225.0540, 17594.00
226.2760, 17694.00
227.4980, 17902.00
228.7200, 17952.00
229.9420, 17488.00
231.1630, 17442.00
232.3850, 16929.00
233.6060, 16740.00
234.8270, 16499.00
236.0480, 16437.00
237.2690, 16298.00
238.4890, 16530.00
239.7090, 16422.00
240.9290, 16444.00
242.1490, 16573.00
243.3690, 16516.00
244.5890, 16493.00
245.8080, 16160.00
247.0270, 15868.00
248.2470, 15988.00
249.4650, 15619.00
250.6840, 15529.00
251.9030, 15663.00
253.1210, 15556.00
254.3390, 15778.00
255.5570, 15914.00
256.7750, 16185.00
257.9930, 16410.00
259.2100, 16728.00
260.4280, 17171.00
261.6450, 17627.00
262.8620, 18019.00
264.0790, 18858.00
265.2950, 19611.00
266.5120, 20324.00
267.7280, 21025.00
268.9440, 21540.00
270.1600, 22246.00
271.3760, 22682.00
272.5920, 22334.00
273.8070, 22236.00
275.0220, 21561.00
276.2370, 20978.00
277.4520, 20257.00
278.6670, 19660.00
279.8820, 18835.00
281.0960, 18317.00
282.3100, 17700.00
283.5240, 17328.00
284.7380, 16954.00
285.9520, 16658.00
287.1650, 16220.00
288.3780, 16076.00
289.5920, 15765.00
290.8050, 15529.00
292.0170, 15431.00
293.2300, 15060.00
294.4430, 14760.00
295.6550, 14608.00
296.8670, 14401.00
298.0790, 14242.00
299.2910, 14012.00
300.5020, 13875.00
301.7140, 13919.00
302.9250, 13714.00
304.1360, 13682.00
305.3470, 13803.00
306.5580, 13746.00
307.7680, 13718.00
308.9780, 13654.00
310.1890, 13647.00
311.3990, 13698.00
312.6090, 13815.00
313.8180, 13836.00
315.0280, 13732.00
316.2370, 13683.00
317.4460, 13818.00
318.6550, 13677.00
319.8640, 13647.00
321.0730, 13743.00
322.2810, 13780.00
323.4890, 13755.36
324.6980, 13591.00
325.9060, 13703.00
327.1130, 13669.00
328.3210, 13614.00
329.5280, 13679.00
330.7360, 13506.00
331.9430, 13746.00
333.1500, 13689.00
334.3560, 13748.00
335.5630, 14026.00
336.7690, 13854.00
337.9760, 14047.00
339.1820, 14081.00
340.3870, 14415.00
341.5930, 14619.00
342.7990, 14724.00
344.0040, 15204.00
345.2090, 15680.00
346.4140, 15836.00
347.6190, 16292.00
348.8240, 16837.00
350.0280, 17322.00
351.2330, 17819.00
352.4370, 18217.00
353.6410, 18499.10
354.8440, 18711.61
356.0480, 18831.00
357.2520, 18843.00
358.4550, 18750.00
359.6580, 18595.00
360.8610, 18042.00
362.0640, 17727.00
363.2660, 17215.00
364.4690, 16949.00
365.6710, 16396.00
366.8730, 16060.00
368.0750, 15846.00
369.2770, 15579.00
370.4780, 15503.00
371.6800, 15347.00
372.8810, 15395.40
374.0820, 15382.00
375.2830, 15691.00
376.4830, 15906.00
377.6840, 16276.00
378.8840, 16581.00
380.0840, 17043.00
381.2840, 17394.00
382.4840, 17806.91
383.6840, 18401.00
384.8830, 18639.00
386.0830, 19071.00
387.2820, 19480.00
388.4810, 19593.00
389.6800, 19686.00
390.8780, 19724.89
392.0770, 19564.67
393.2750, 19414.00
394.4730, 19093.00
395.6710, 18579.00
396.8690, 18246.00
398.0660, 17754.00
399.2640, 17392.00
400.4610, 16910.00
401.6580, 16597.00
402.8550, 16243.00
404.0520, 16048.00
405.2490, 15886.00
406.4450, 15884.00
407.6410, 15839.00
408.8370, 15735.00
410.0330, 15843.00
411.2290, 15850.00
412.4240, 15794.00
413.6200, 16049.00
414.8150, 16302.00
416.0100, 16441.00
417.2050, 16801.00
418.4000, 17128.00
419.5940, 17475.00
420.7880, 17798.21
421.9830, 18195.00
423.1770, 18505.00
424.3700, 18716.00
425.5640, 19207.00
426.7580, 19384.00
427.9510, 19698.00
429.1440, 19884.00
430.3370, 20088.00
431.5300, 20184.00
432.7220, 20203.00
433.9150, 19925.00
435.1070, 20024.00
436.2990, 19489.00
437.4910, 19075.00
438.6830, 18976.00
439.8750, 18603.00
441.0660, 18722.00
442.2570, 18525.00
443.4480, 18290.00
444.6390, 18599.00
445.8300, 18523.00
447.0210, 18648.00
448.2110, 18957.00
449.4010, 19127.00
450.5910, 19302.00
451.7810, 19541.00
452.9710, 19682.00
454.1610, 20079.00
455.3500, 20178.00
456.5390, 20236.00
457.7280, 20085.00
458.9170, 20065.00
460.1060, 19858.00
461.2940, 19943.00
462.4830, 19587.00
463.6710, 19521.00
464.8590, 19615.00
466.0470, 19526.00
467.2350, 19303.00
468.4220, 19035.00
469.6090, 18844.65
470.7970, 18735.00
471.9840, 18322.00
473.1700, 18079.00
474.3570, 17759.00
475.5440, 17374.00
476.7300, 16990.00
477.9160, 16883.00
479.1020, 16382.00
480.2880, 16546.00
481.4740, 16000.00
482.6590, 16056.00
483.8440, 16043.00
485.0300, 15818.00
486.2140, 15733.00
487.3990, 15896.00
488.5840, 15568.00
489.7680, 15427.00
490.9530, 15650.00
492.1370, 15746.00
493.3210, 15570.00
494.5040, 15486.00
495.6880, 15723.00
496.8720, 15900.00
498.0550, 15736.00
499.2380, 15839.00
500.4210, 15955.00
501.6040, 16345.00
502.7860, 16172.00
503.9690, 16358.00
505.1510, 16455.00
506.3330, 16544.00
507.5150, 16269.00
508.6970, 16181.00
509.8780, 16059.00
511.0600, 15906.00
512.2410, 15878.00
513.4220, 15619.00
514.6030, 15547.00
515.7840, 15216.00
516.9640, 15420.00
518.1440, 15246.00
519.3250, 15239.00
520.5050, 15359.00
521.6850, 15283.00
522.8640, 15354.00
524.0440, 15286.00
525.2230, 15228.00
526.4020, 15227.00
527.5820, 15381.00
528.7600, 15653.00
529.9390, 15528.00
531.1180, 15633.00
532.2960, 15775.00
533.4740, 15805.00
534.6520, 15861.29
535.8300, 15873.46
537.0080, 15903.00
538.1850, 15751.00
539.3630, 15777.00
540.5400, 15533.00
541.7170, 15569.00
542.8940, 15488.00
544.0700, 15435.00
545.2470, 15445.00
546.4230, 15215.00
547.5990, 15116.00
548.7750, 15055.00
549.9510, 14837.00
551.1270, 14751.00
552.3020, 14990.00
553.4780, 15104.00
554.6530, 14876.00
555.8280, 14903.00
557.0030, 14821.00
558.1770, 14956.00
559.3520, 15088.00
560.5260, 14773.00
561.7000, 14914.00
562.8740, 14938.00
564.0480, 14979.00
565.2220, 14981.00
566.3950, 14946.00
567.5680, 14885.00
568.7420, 14844.00
569.9150, 14885.00
571.0870, 14832.00
572.2600, 14934.00
573.4320, 14808.00
574.6050, 14945.00
575.7770, 15004.00
576.9490, 15018.00
578.1210, 15050.00
579.2920, 14848.00
580.4640, 14861.00
581.6350, 14834.00
582.8060, 14943.00
583.9770, 14947.00
585.1480, 14984.50
586.3190, 14898.00
587.4890, 15031.00
588.6590, 14957.00
589.8290, 14921.00
590.9990, 15146.00
592.1690, 14944.00
593.3390, 14875.00
594.5080, 15013.00
595.6770, 15077.00
596.8470, 15040.00
598.0160, 15122.35
599.1840, 15028.00
600.3530, 15128.00
601.5210, 15009.00
602.6900, 14915.00
603.8580, 15000.00
605.0260, 15073.00
606.1930, 14999.00
607.3610, 14980.00
608.5280, 14910.00
609.6960, 14939.00
610.8630, 15128.00
612.0300, 15221.00
613.1970, 15170.00
614.3630, 15159.00
615.5300, 15145.00
616.6960, 15140.25
617.8620, 15180.00
619.0280, 15160.00
620.1940, 15207.00
621.3590, 15227.00
622.5250, 15245.25
623.6900, 15293.00
624.8550, 15349.00
626.0200, 15251.00
627.1850, 15399.00
628.3490, 15459.00
629.5140, 15281.00
630.6780, 15417.00
631.8420, 15460.00
633.0060, 15577.00
634.1700, 15496.00
635.3330, 15795.00
636.4970, 15648.00
637.6600, 15635.00
638.8230, 15779.00
639.9860, 15652.00
641.1490, 15883.00
642.3110, 15867.00
643.4740, 16049.00
644.6360, 15901.00
645.7980, 16172.00
646.9600, 16157.00
648.1220, 16327.00
649.2840, 16401.00
650.4450, 16539.00
651.6060, 16646.00
652.7670, 16820.00
653.9280, 16951.00
655.0890, 17156.00
656.2500, 16992.00
657.4100, 17104.00
658.5700, 17011.00
659.7300, 17067.00
660.8900, 17077.00
662.0500, 16833.00
663.2100, 16874.00
664.3690, 16614.00
665.5280, 16577.00
666.6880, 16592.00
667.8460, 16552.00
669.0050, 16630.00
670.1640, 16533.00
671.3220, 16393.00
672.4810, 16310.00
673.6390, 16369.00
674.7970, 16283.44
675.9540, 16403.00
677.1120, 16288.00
678.2690, 16364.00
679.4270, 16445.00
680.5840, 16379.00
681.7410, 16341.00
682.8980, 16582.00
684.0540, 16330.00
685.2110, 16546.00
686.3670, 16510.00
687.5230, 16538.00
688.6790, 16530.00
689.8350, 16647.00
690.9900, 16669.00
692.1460, 16602.00
693.3010, 16759.00
694.4560, 16754.25
695.6110, 16665.00
696.7660, 16853.00
697.9210, 16968.00
699.0750, 16992.42
700.2290, 16724.00
701.3840, 17027.00
702.5370, 16866.00
703.6910, 16965.42
704.8450, 17169.00
705.9980, 17010.00
707.1520, 16855.00
708.3050, 17021.00
709.4580, 17066.00
710.6110, 17042.00
711.7630, 17242.00
712.9160, 17290.00
714.0680, 17260.00
715.2200, 17188.00
716.3720, 17095.00
717.5240, 17160.00
718.6760, 17270.00
719.8270, 17235.00
720.9780, 17267.00
722.1300, 17348.00
723.2810, 17409.00
724.4310, 17419.00
725.5820, 17340.00
726.7330, 17574.00
727.8830, 17445.00
729.0330, 17538.00
730.1830, 17517.00
731.3330, 17490.00
732.4830, 17602.00
733.6320, 17649.00
734.7810, 17595.00
735.9310, 17787.00
737.0800, 17758.00
738.2290, 17990.00
739.3770, 17894.00
740.5260, 17900.00
741.6740, 17943.00
742.8220, 17958.00
743.9700, 18105.00
745.1180, 18085.00
746.2660, 18219.00
747.4130, 18187.00
748.5610, 18290.00
749.7080, 18099.00
750.8550, 18384.00
752.0020, 18317.00
753.1490, 18517.00
754.2950, 18635.00
755.4420, 18616.00
756.5880, 18639.00
757.7340, 18551.00
758.8800, 18771.00
760.0250, 18850.00
761.1710, 18657.00
762.3160, 18917.00
763.4620, 19245.00
764.6070, 19299.00
765.7520, 19288.00
766.8960, 19222.00
768.0410, 19428.00
769.1850, 19578.00
770.3300, 19644.00
771.4740, 19941.00
772.6180, 20115.00
773.7610, 20530.00
774.9050, 20516.00
776.0480, 20755.00
777.1920, 20892.00
778.3350, 21204.00
779.4780, 21516.00
780.6200, 21686.00
781.7630, 21852.00
782.9060, 22021.00
784.0480, 22179.00
785.1900, 22362.48
786.3320, 22511.00
787.4740, 22670.00
788.6150, 22583.00
789.7570, 22592.00
790.8980, 22819.00
792.0390, 22657.00
793.1800, 23081.00
794.3210, 22905.00
795.4620, 22917.00
796.6020, 22966.00
797.7420, 23093.00
798.8830, 23153.00
800.0230, 23091.00
801.1620, 23077.00
802.3020, 23164.00
803.4420, 23340.00
804.5810, 23362.57
805.7200, 23584.00
806.8590, 23615.00
807.9980, 23711.00
809.1370, 24032.00
810.2750, 24393.00
811.4140, 24745.00
812.5520, 24766.00
813.6900, 25483.00
814.8280, 25572.00
815.9650, 26315.00
817.1030, 26995.00
818.2400, 27362.00
819.3780, 28378.00
820.5150, 28833.00
821.6520, 29713.00
822.7880, 29925.00
823.9250, 30501.00
825.0610, 31170.00
826.1980, 31449.00
827.3340, 31591.00
828.4700, 31909.00
829.6050, 32344.00
830.7410, 32629.00
831.8760, 33507.00
833.0120, 34002.00
834.1470, 34913.00
835.2820, 35638.00
836.4160, 36588.00
837.5510, 37971.00
838.6860, 38841.00
839.8200, 40395.00
840.9540, 41774.00
842.0880, 43549.00
843.2220, 45213.00
844.3550, 47294.00
845.4890, 49609.00
846.6220, 52896.00
847.7550, 56393.00
848.8880, 60508.00
850.0210, 65735.00
851.1540, 72549.00
852.2860, 80192.00
853.4190, 90183.00
854.5510, 101103.0
855.6830, 113008.0
856.8150, 124995.0
857.9460, 136371.0
859.0780, 144584.0
860.2090, 147869.0
861.3410, 145502.0
862.4720, 136682.0
863.6020, 125614.0
864.7330, 112083.0
865.8640, 99373.00
866.9940, 87907.00
868.1240, 79351.00
869.2540, 72758.00
870.3840, 67980.00
871.5140, 64316.00
872.6440, 61419.00
873.7730, 59911.00
874.9020, 58337.00
876.0320, 56476.00
877.1600, 55228.00
878.2890, 53516.00
879.4180, 51888.00
880.5460, 49788.00
881.6750, 48149.00
882.8030, 46062.00
883.9310, 44567.00
885.0590, 43367.00
886.1860, 42992.00
887.3140, 42476.00
888.4410, 42774.00
889.5680, 44087.00
890.6950, 45428.00
891.8220, 48080.00
892.9490, 51475.00
894.0750, 55756.00
895.2020, 61263.00
896.3280, 66802.00
897.4540, 74022.00
898.5800, 80427.00
899.7050, 86374.00
900.8310, 90537.00
901.9560, 91574.00
903.0820, 89444.00
904.2070, 85612.00
905.3320, 79167.00
906.4560, 72207.00
907.5810, 65318.00
908.7050, 59591.00
909.8300, 53600.00
910.9540, 49447.00
912.0780, 45663.00
913.2010, 43039.00
914.3250, 40759.00
915.4480, 38815.00
916.5720, 37323.00
917.6950, 36357.00
918.8180, 35638.00
919.9410, 34757.00
921.0630, 33961.00
922.1860, 33609.00
923.3080, 33223.00
924.4300, 33156.00
925.5520, 32804.00
926.6740, 32297.00
927.7960, 32100.00
928.9170, 31385.00
930.0390, 30615.00
931.1600, 30014.00
932.2810, 29456.00
933.4020, 28766.00
934.5230, 28087.00
935.6430, 27578.00
936.7640, 27301.00
937.8840, 26769.00
939.0040, 26205.00
940.1240, 26039.00
941.2440, 25402.00
942.3630, 25276.00
943.4830, 24849.00
944.6020, 24544.00
945.7210, 24218.00
946.8400, 24109.00
947.9590, 23785.00
949.0770, 23676.00
950.1960, 23460.00
951.3140, 23248.00
952.4320, 23318.00
953.5500, 22750.00
954.6680, 22690.00
955.7860, 22658.00
956.9030, 22645.00
958.0210, 22582.00
959.1380, 22420.00
960.2550, 22436.00
961.3720, 22306.00
962.4890, 22228.03
963.6050, 22202.00
964.7220, 22039.00
965.8380, 22040.00
966.9540, 21910.00
968.0700, 21994.00
969.1860, 21972.00
970.3010, 21892.00
971.4170, 21864.00
972.5320, 21815.79
973.6470, 21779.00
974.7620, 21758.00
975.8770, 21714.00
976.9910, 21751.00
978.1060, 21588.00
979.2200, 21769.00
980.3340, 21738.00
981.4480, 21501.00
982.5620, 21410.00
983.6760, 21680.00
984.7890, 21555.00
985.9030, 21310.00
987.0160, 21732.00
988.1290, 21622.00
989.2420, 21450.00
990.3550, 21736.00
991.4670, 21497.00
992.5800, 21597.00
993.6920, 21623.00
994.8040, 21441.00
995.9160, 21445.00
997.0280, 21524.00
998.1390, 21302.00
999.2510, 21489.00
1000.362, 21638.00
1001.473, 21479.00
1002.584, 21511.00
1003.695, 21615.00
1004.805, 21547.00
1005.916, 21498.00
1007.026, 21374.00
1008.136, 21277.00
1009.246, 21330.00
1010.356, 21580.00
1011.466, 21517.00
1012.576, 21561.00
1013.685, 21529.00
1014.794, 21445.00
1015.903, 21496.00
1017.012, 21702.00
1018.121, 21589.00
1019.229, 21679.00
1020.338, 21941.00
1021.446, 21595.00
1022.554, 21810.00
1023.662, 21953.00
1024.770, 22026.00
1025.878, 22044.00
1026.985, 22182.00
1028.092, 22296.00
1029.200, 22208.00
1030.307, 22263.00
1031.413, 22398.00
1032.520, 22172.00
1033.627, 22020.00
1034.733, 22022.00
1035.839, 21862.71
1036.945, 21840.13
1038.051, 21758.00
1039.157, 21847.00
1040.262, 21921.00
1041.368, 22094.00
1042.473, 21737.00
1043.578, 21737.00
1044.683, 21959.00
1045.788, 21633.00
1046.893, 21679.00
1047.997, 21656.00
1049.101, 21827.00
1050.205, 21545.00
1051.309, 21610.00
1052.413, 21954.00
1053.517, 21785.00
1054.621, 21578.00
1055.724, 21656.00
1056.827, 21568.00
1057.930, 21586.69
1059.033, 21538.00
1060.136, 21655.00
1061.238, 21762.00
1062.341, 21756.00
1063.443, 21908.00
1064.545, 21676.00
1065.647, 21706.00
1066.749, 21804.00
1067.850, 21758.00
1068.952, 21767.00
1070.053, 21740.00
1071.154, 21668.00
1072.255, 21978.00
1073.356, 21866.00
1074.457, 21911.00
1075.557, 22133.00
1076.658, 21936.00
1077.758, 22002.00
1078.858, 22341.00
1079.958, 22411.00
1081.057, 22772.00
1082.157, 22486.00
1083.256, 21934.00
1084.356, 22025.00
1085.455, 22148.00
1086.554, 22005.00
1087.653, 22161.00
1088.751, 21914.00
1089.850, 22092.00
1090.948, 22114.00
1092.046, 21851.00
1093.144, 22198.00
1094.242, 22139.00
1095.340, 22019.00
1096.437, 22070.00
1097.534, 22051.00
1098.632, 22214.00
1099.729, 22263.00
1100.826, 22043.00
1101.922, 22318.00
1103.019, 22131.00
1104.115, 22176.00
1105.212, 22208.00
1106.308, 22386.00
1107.404, 22521.00
1108.499, 22467.00
1109.595, 22028.00
1110.691, 22347.00
1111.786, 22140.00
1112.881, 22253.00
1113.976, 22121.00
1115.071, 22329.00
1116.166, 22226.00
1117.260, 22224.00
1118.355, 22335.00
1119.449, 22442.00
1120.543, 22526.00
1121.637, 22504.00
1122.731, 22447.00
1123.824, 22368.00
1124.918, 22629.00
1126.011, 22642.00
1127.104, 22475.00
1128.197, 22587.00
1129.290, 22276.00
1130.382, 22413.00
1131.475, 22668.00
1132.567, 22564.00
1133.659, 22403.00
1134.751, 22459.00
1135.843, 22693.00
1136.935, 22536.00
1138.027, 22724.00
1139.118, 22506.00
1140.209, 22640.00
1141.300, 22622.00
1142.391, 22667.00
1143.482, 22694.68
1144.573, 22682.12
1145.663, 22696.00
1146.754, 22746.00
1147.844, 22727.00
1148.934, 22917.00
1150.024, 22816.00
1151.113, 22708.00
1152.203, 22947.00
1153.292, 22954.00
1154.381, 23085.00
1155.470, 22814.00
1156.559, 22951.00
1157.648, 22986.00
1158.737, 22927.00
1159.825, 22983.00
1160.913, 22953.00
1162.001, 22966.00
1163.089, 23070.00
1164.177, 23146.00
1165.265, 23129.00
1166.352, 23146.00
1167.440, 23234.00
1168.527, 22954.00
1169.614, 23208.00
1170.701, 23357.00
1171.788, 23220.00
1172.874, 23423.00
1173.961, 23284.00
1175.047, 23175.00
1176.133, 23333.00
1177.219, 23320.00
1178.305, 23321.00
1179.390, 23209.00
1180.476, 23336.00
1181.561, 23195.00
1182.646, 23431.00
1183.731, 23427.00
1184.816, 23452.00
1185.901, 23440.00
1186.985, 23410.00
1188.070, 23469.00
1189.154, 23325.00
1190.238, 23317.00
1191.322, 23353.67
1192.406, 23375.00
1193.489, 23434.00
1194.573, 23602.00
1195.656, 23644.00
1196.739, 23691.00
1197.822, 23748.86
1198.905, 23755.00
1199.988, 23783.00
1201.070, 23735.00
1202.153, 23735.00
1203.235, 23697.00
1204.317, 23715.00
1205.399, 23660.00
1206.481, 23746.00
1207.562, 23571.00
1208.644, 23662.00
1209.725, 23855.00
1210.806, 23903.00
1211.887, 23790.00
1212.968, 23985.00
1214.049, 23848.00
1215.129, 23843.00
1216.209, 23820.00
1217.290, 23799.18
1218.370, 23849.72
1219.450, 23849.00
1220.529, 23966.00
1221.609, 24044.00
1222.688, 24119.00
1223.768, 24036.00
1224.847, 24149.00
1225.926, 24068.00
1227.005, 24018.00
1228.083, 24082.00
1229.162, 24060.00
1230.240, 24048.00
1231.318, 24060.00
1232.396, 24125.00
1233.474, 24355.00
1234.552, 24216.00
1235.629, 24300.00
1236.707, 24169.00
1237.784, 24043.00
1238.861, 24359.00
1239.938, 24221.00
1241.015, 24390.00
1242.092, 24343.00
1243.168, 24500.00
1244.244, 24462.00
