##NAMES=Leucite
##RRUFFID=R060300
##IDEAL CHEMISTRY=K(Si_2_Al)O_6_
##LOCALITY=Alban Hills, Rome Province, Latium, Italy
##OWNER=RRUFF
##SOURCE=Herb Obodda
##DESCRIPTION=Colorless complete pseudocubic crystal showing trapezohedral faces
##STATUS=The identification of this mineral has been confirmed by X-ray diffraction and chemical analysis
##URL=rruff.info/R060300
##MEASURED CHEMISTRY=(K_0.98_Na_0.02_)_Î£=1_Al_1.00_Si_2.00_O_6_
##PIN_ID=M01338
##ORIENTATION=Laser parallel to a* (1 0 0). Fiducial mark perpendicular to laser is parallel to c [0 0 1]
66.51000, 14558.00
67.75400, 15288.00
68.99800, 15569.00
70.24100, 15665.00
71.48500, 15964.00
72.72800, 16475.00
73.97100, 17309.00
75.21400, 18039.00
76.45600, 18674.00
77.69900, 19107.82
78.94100, 19248.00
80.18300, 19563.00
81.42500, 19772.00
82.66700, 19566.00
83.90800, 19205.00
85.15000, 18776.00
86.39100, 18563.00
87.63200, 18021.00
88.87300, 17682.00
90.11400, 17435.00
91.35400, 17349.00
92.59500, 17307.00
93.83500, 17201.00
95.07500, 17001.00
96.31500, 16755.00
97.55400, 16701.00
98.79400, 16560.00
100.0330, 16504.00
101.2720, 16591.00
102.5110, 16271.00
103.7500, 16523.00
104.9890, 16389.00
106.2270, 16639.00
107.4650, 16558.00
108.7040, 16598.00
109.9420, 16669.00
111.1790, 16739.00
112.4170, 16759.00
113.6540, 16765.00
114.8920, 16932.00
116.1290, 16787.00
117.3650, 16607.00
118.6020, 16583.00
119.8390, 16633.00
121.0750, 16495.00
122.3110, 16357.00
123.5470, 16147.00
124.7830, 16149.00
126.0190, 16056.00
127.2540, 15998.00
128.4900, 16187.00
129.7250, 16252.00
130.9600, 16492.00
132.1950, 16801.00
133.4290, 17114.00
134.6640, 17697.00
135.8980, 18109.00
137.1320, 18536.00
138.3660, 18988.00
139.6000, 19463.54
140.8340, 19963.00
142.0670, 20433.44
143.3000, 21014.00
144.5330, 21459.00
145.7660, 21913.00
146.9990, 22164.00
148.2320, 22693.00
149.4640, 22907.00
150.6960, 23301.00
151.9280, 23281.00
153.1600, 23649.00
154.3920, 23371.00
155.6230, 23470.00
156.8550, 23012.00
158.0860, 22886.00
159.3170, 22834.00
160.5480, 22430.00
161.7780, 21809.00
163.0090, 21297.00
164.2390, 20680.00
165.4690, 20575.00
166.6990, 20052.00
167.9290, 19871.00
169.1590, 19677.00
170.3880, 19507.00
171.6180, 19603.00
172.8470, 19953.00
174.0760, 20078.00
175.3040, 20597.00
176.5330, 21152.00
177.7610, 21651.00
178.9900, 21921.00
180.2180, 22154.00
181.4460, 22181.00
182.6730, 22051.00
183.9010, 21902.00
185.1280, 21609.00
186.3560, 21003.00
187.5830, 20452.00
188.8100, 20001.00
190.0360, 19553.00
191.2630, 19139.00
192.4890, 18603.00
193.7150, 18087.00
194.9410, 17722.00
196.1670, 17374.00
197.3930, 17171.00
198.6180, 16860.00
199.8440, 16473.00
201.0690, 16167.00
202.2940, 16083.00
203.5190, 15861.00
204.7430, 15573.00
205.9680, 15353.00
207.1920, 15661.00
208.4160, 15441.00
209.6400, 15359.00
210.8640, 15234.00
212.0880, 15282.00
213.3110, 15132.00
214.5340, 15057.00
215.7570, 14920.00
216.9800, 14830.00
218.2030, 14694.00
219.4260, 14626.00
220.6480, 14441.00
221.8700, 14248.00
223.0920, 14110.00
224.3140, 14011.00
225.5360, 13874.00
226.7580, 13692.00
227.9790, 13713.00
229.2000, 13501.00
230.4210, 13324.00
231.6420, 13463.00
232.8630, 13214.00
234.0830, 13265.00
235.3040, 13178.00
236.5240, 13271.00
237.7440, 13093.00
238.9640, 12932.00
240.1830, 13003.00
241.4030, 12850.00
242.6220, 12752.00
243.8410, 12870.00
245.0600, 12752.00
246.2790, 12862.00
247.4980, 12764.00
248.7160, 12752.00
249.9340, 12812.00
251.1530, 12771.00
252.3710, 12824.00
253.5880, 12859.00
254.8060, 12890.00
256.0230, 12932.17
257.2410, 12975.09
258.4580, 13017.31
259.6750, 13070.00
260.8910, 13109.80
262.1080, 13157.55
263.3240, 13204.00
264.5410, 13194.00
265.7570, 13248.00
266.9730, 13232.00
268.1880, 13250.00
269.4040, 13227.00
270.6190, 13216.00
271.8350, 13175.16
273.0500, 13248.84
274.2650, 13299.24
275.4790, 13328.00
276.6940, 13247.49
277.9080, 13325.57
279.1220, 13350.77
280.3360, 13381.12
281.5500, 13503.34
282.7640, 13477.97
283.9770, 13614.05
285.1910, 13696.39
286.4040, 13814.40
287.6170, 13788.00
288.8300, 13960.00
290.0420, 14057.00
291.2550, 14271.00
292.4670, 14409.62
293.6790, 14607.00
294.8910, 14757.00
296.1030, 15038.00
297.3150, 15271.00
298.5260, 15378.00
299.7380, 15470.00
300.9490, 15656.00
302.1600, 15558.00
303.3710, 15649.00
304.5810, 15733.00
305.7920, 15562.00
307.0020, 15497.00
308.2120, 15177.00
309.4220, 15101.00
310.6320, 15078.00
311.8410, 14861.00
313.0510, 14875.00
314.2600, 14674.00
315.4690, 14544.00
316.6780, 14565.00
317.8870, 14487.00
319.0950, 14545.00
320.3040, 14383.00
321.5120, 14564.00
322.7200, 14475.00
323.9280, 14570.00
325.1360, 14418.00
326.3430, 14473.00
327.5510, 14562.00
328.7580, 14445.00
329.9650, 14533.00
331.1720, 14725.00
332.3790, 14669.00
333.5850, 14745.00
334.7910, 14844.00
335.9980, 14964.00
337.2040, 14792.00
338.4100, 14881.00
339.6150, 14876.00
340.8210, 14743.00
342.0260, 14866.00
343.2310, 14682.00
344.4360, 14736.00
345.6410, 14515.00
346.8460, 14629.00
348.0500, 14489.00
349.2550, 14510.00
350.4590, 14250.00
351.6630, 14329.00
352.8670, 14220.00
354.0700, 14301.00
355.2740, 14236.00
356.4770, 14388.00
357.6800, 14336.00
358.8830, 14432.00
360.0860, 14394.00
361.2890, 14391.00
362.4910, 14479.00
363.6930, 14488.00
364.8960, 14501.00
366.0980, 14586.00
367.2990, 14583.00
368.5010, 14661.00
369.7020, 14740.00
370.9040, 14819.00
372.1050, 14759.00
373.3060, 14816.00
374.5070, 14726.00
375.7070, 14793.00
376.9080, 14644.00
378.1080, 14977.00
379.3080, 14796.00
380.5080, 15041.00
381.7080, 15031.00
382.9070, 14902.00
384.1070, 15145.00
385.3060, 14996.00
386.5050, 14947.00
387.7040, 15026.00
388.9030, 15093.00
390.1010, 15152.00
391.3000, 15150.00
392.4980, 15235.00
393.6960, 15282.00
394.8940, 15239.50
396.0920, 15051.00
397.2890, 15129.00
398.4870, 15118.00
399.6840, 15016.00
400.8810, 15085.00
402.0780, 14905.00
403.2750, 14849.00
404.4710, 14912.00
405.6680, 14725.00
406.8640, 14714.00
408.0600, 14799.00
409.2560, 14868.00
410.4520, 14847.00
411.6470, 14805.00
412.8430, 14838.00
414.0380, 14809.00
415.2330, 15012.00
416.4280, 15097.00
417.6220, 15121.00
418.8170, 14984.00
420.0110, 15309.00
421.2050, 15291.00
422.4000, 15458.00
423.5930, 15522.00
424.7870, 15708.00
425.9810, 15861.00
427.1740, 15895.00
428.3670, 15988.00
429.5600, 16223.00
430.7530, 16287.00
431.9460, 16181.00
433.1380, 16257.00
434.3310, 16138.00
435.5230, 16064.00
436.7150, 15891.00
437.9070, 16037.00
439.0980, 15687.00
440.2900, 15807.00
441.4810, 15650.00
442.6720, 15671.00
443.8630, 15632.00
445.0540, 15604.00
446.2450, 15639.00
447.4350, 15631.00
448.6260, 15702.00
449.8160, 15815.00
451.0060, 15751.00
452.1960, 16019.00
453.3850, 16078.00
454.5750, 16147.00
455.7640, 16196.00
456.9530, 16359.00
458.1420, 16636.00
459.3310, 16784.00
460.5200, 17072.00
461.7080, 17185.00
462.8970, 17631.00
464.0850, 17803.00
465.2730, 18300.00
466.4610, 18470.00
467.6480, 19399.00
468.8360, 19903.00
470.0230, 20681.00
471.2100, 21569.00
472.3970, 22787.26
473.5840, 24162.00
474.7710, 25806.00
475.9570, 27533.00
477.1440, 29512.00
478.3300, 31481.00
479.5160, 34202.00
480.7020, 36170.00
481.8870, 38265.00
483.0730, 39985.00
484.2580, 42143.00
485.4430, 43709.75
486.6280, 46013.00
487.8130, 47102.00
488.9980, 49038.00
490.1820, 51242.00
491.3660, 53289.00
492.5510, 55292.00
493.7350, 57822.00
494.9180, 58875.00
496.1020, 59310.00
497.2860, 58922.00
498.4690, 57608.00
499.6520, 56189.00
500.8350, 54647.00
502.0180, 53323.00
503.2000, 52226.00
504.3830, 51849.00
505.5650, 51246.00
506.7470, 50671.00
507.9290, 49658.00
509.1110, 48835.00
510.2930, 46617.00
511.4740, 45186.00
512.6560, 43063.00
513.8370, 41662.00
515.0180, 40158.00
516.1980, 38974.00
517.3790, 38212.00
518.5600, 38136.00
519.7400, 38223.00
520.9200, 39187.00
522.1000, 40106.00
523.2800, 41831.00
524.4590, 43555.00
525.6390, 45291.00
526.8180, 46544.00
527.9970, 47309.00
529.1760, 47121.71
530.3550, 46915.00
531.5340, 44916.00
532.7120, 42302.00
533.8910, 39361.00
535.0690, 36235.00
536.2470, 34041.00
537.4250, 31061.00
538.6020, 28840.00
539.7800, 27405.00
540.9570, 25737.00
542.1340, 24219.00
543.3110, 23388.00
544.4880, 22694.00
545.6650, 22039.00
546.8410, 21436.00
548.0170, 20923.00
549.1940, 20453.00
550.3690, 20043.00
551.5450, 19753.00
552.7210, 19427.38
553.8960, 19281.00
555.0720, 18957.00
556.2470, 18772.00
557.4220, 18608.00
558.5970, 18424.00
559.7710, 18219.00
560.9460, 18026.00
562.1200, 18022.00
563.2940, 17883.00
564.4680, 17672.00
565.6420, 17631.00
566.8160, 17393.00
567.9890, 17310.00
569.1630, 17183.00
570.3360, 17287.00
571.5090, 17220.00
572.6820, 17158.00
573.8540, 16877.00
575.0270, 16782.00
576.1990, 16813.00
577.3710, 16932.00
578.5430, 16900.00
579.7150, 16684.00
580.8870, 16790.00
582.0580, 16715.00
583.2300, 16827.00
584.4010, 16774.00
585.5720, 16871.00
586.7430, 16596.00
587.9130, 16660.00
589.0840, 16946.00
590.2540, 16767.60
591.4240, 17066.00
592.5940, 16805.00
593.7640, 16727.00
594.9340, 16880.00
596.1030, 16837.00
597.2730, 16843.00
598.4420, 16842.00
599.6110, 16717.00
600.7800, 16844.00
601.9490, 16876.00
603.1170, 16755.00
604.2850, 16731.00
605.4540, 16773.00
606.6220, 16778.00
607.7900, 16734.00
608.9570, 16661.00
610.1250, 16760.00
611.2920, 16692.00
612.4590, 16804.00
613.6260, 16774.00
614.7930, 16949.00
615.9600, 16897.00
617.1270, 16748.00
618.2930, 16785.00
619.4590, 16845.00
620.6250, 16906.00
621.7910, 16999.00
622.9570, 16986.00
624.1220, 16838.00
625.2880, 17190.00
626.4530, 16814.00
627.6180, 17010.00
628.7830, 16949.00
629.9480, 17025.00
631.1120, 17042.00
632.2770, 16893.00
633.4410, 16986.00
634.6050, 16949.00
635.7690, 17049.00
636.9330, 16920.00
638.0960, 16973.00
639.2600, 17240.00
640.4230, 16980.00
641.5860, 17113.00
642.7490, 17073.00
643.9120, 17079.00
645.0740, 17167.00
646.2370, 16977.00
647.3990, 16957.00
648.5610, 17068.00
649.7230, 17138.00
650.8850, 17056.00
652.0460, 17153.00
653.2080, 17086.00
654.3690, 17125.00
655.5300, 17212.00
656.6910, 17206.00
657.8520, 17268.83
659.0130, 17306.00
660.1730, 17313.00
661.3330, 17431.00
662.4930, 17377.00
663.6530, 17373.00
664.8130, 17492.00
665.9730, 17617.00
667.1320, 17623.00
668.2920, 17401.00
669.4510, 17483.00
670.6100, 17567.00
671.7680, 17617.00
672.9270, 17712.00
674.0860, 17658.00
675.2440, 17679.00
676.4020, 17574.00
677.5600, 17743.00
678.7180, 17661.00
679.8760, 17902.00
681.0330, 17911.00
682.1900, 17816.00
683.3480, 17630.00
684.5050, 17751.00
685.6610, 17662.00
686.8180, 17775.00
687.9750, 17643.00
689.1310, 17623.00
690.2870, 17818.00
691.4430, 17617.00
692.5990, 17659.00
693.7550, 17612.00
694.9100, 17689.00
696.0660, 17454.00
697.2210, 17441.00
698.3760, 17513.00
699.5310, 17642.00
700.6860, 17717.00
701.8400, 17542.00
702.9940, 17446.00
704.1490, 17741.00
705.3030, 17592.00
706.4570, 17897.00
707.6100, 17706.00
708.7640, 17892.00
709.9170, 17798.00
711.0710, 18003.00
712.2240, 17833.00
713.3770, 17861.00
714.5290, 17874.00
715.6820, 18015.00
716.8340, 17902.00
717.9870, 17973.00
719.1390, 18056.00
720.2910, 18054.00
721.4430, 18047.00
722.5940, 18087.39
723.7460, 18018.00
724.8970, 18092.00
726.0480, 18043.00
727.1990, 17983.00
728.3500, 17966.00
729.5000, 18094.00
730.6510, 18150.00
731.8010, 18007.00
732.9510, 18152.00
734.1010, 17880.00
735.2510, 18035.00
736.4010, 18094.00
737.5500, 18079.00
738.7000, 18221.00
739.8490, 18249.00
740.9980, 18252.79
742.1470, 18252.00
743.2950, 18266.00
744.4440, 18143.00
745.5920, 18183.00
746.7400, 18061.00
747.8880, 18140.00
749.0360, 18118.00
750.1840, 18160.00
751.3310, 18159.00
752.4790, 18112.00
753.6260, 18008.00
754.7730, 18220.00
755.9200, 17885.00
757.0670, 18176.00
758.2130, 17916.00
759.3600, 18142.00
760.5060, 18140.00
761.6520, 18306.00
762.7980, 18157.00
763.9440, 18110.00
765.0890, 18287.00
766.2350, 18006.00
767.3800, 18260.00
768.5250, 18171.00
769.6700, 18445.00
770.8150, 18099.00
771.9590, 18325.00
773.1040, 18395.00
774.2480, 18314.00
775.3920, 18302.00
776.5360, 18356.00
777.6800, 18436.00
778.8240, 18440.70
779.9670, 18479.00
781.1100, 18499.00
782.2540, 18539.00
783.3970, 18565.00
784.5390, 18448.00
785.6820, 18649.00
786.8240, 18738.00
787.9670, 18566.00
789.1090, 18662.00
790.2510, 18555.00
791.3930, 18663.00
792.5350, 18538.00
793.6760, 18713.00
794.8170, 18414.00
795.9590, 18402.00
797.1000, 18580.00
798.2410, 18458.00
799.3810, 18571.00
800.5220, 18647.00
801.6620, 18637.00
802.8030, 18677.47
803.9430, 18641.48
805.0820, 18654.00
806.2220, 18563.00
807.3620, 18529.00
808.5010, 18534.00
809.6410, 18596.00
810.7800, 18270.00
811.9190, 18510.00
813.0570, 18564.00
814.1960, 18402.00
815.3340, 18559.00
816.4730, 18746.00
817.6110, 18511.00
818.7490, 18399.00
819.8870, 18465.00
821.0240, 18447.00
822.1620, 18590.00
823.2990, 18566.00
824.4360, 18477.00
825.5730, 18644.00
826.7100, 18499.00
827.8470, 18550.00
828.9830, 18683.00
830.1200, 18757.00
831.2560, 18551.00
832.3920, 18538.00
833.5280, 18550.00
834.6630, 18694.00
835.7990, 18770.00
836.9340, 18635.00
838.0700, 18690.00
839.2050, 18538.00
840.3400, 18612.00
841.4740, 18705.00
842.6090, 18692.00
843.7430, 18785.00
844.8780, 18746.00
846.0120, 18898.00
847.1460, 18692.00
848.2790, 18671.00
849.4130, 18917.00
850.5460, 18883.00
851.6800, 19031.00
852.8130, 18935.00
853.9460, 18835.00
855.0790, 18897.00
856.2110, 19148.00
857.3440, 18944.00
858.4760, 19048.00
859.6080, 18984.00
860.7400, 18986.00
861.8720, 19030.00
863.0040, 18943.00
864.1350, 19033.00
865.2670, 19080.00
866.3980, 19057.00
867.5290, 19195.00
868.6600, 19160.00
869.7900, 19108.00
870.9210, 19302.00
872.0510, 19308.00
873.1820, 19295.00
874.3120, 19252.00
875.4420, 19355.00
876.5710, 19196.00
877.7010, 19146.00
878.8300, 19426.00
879.9600, 19304.00
881.0890, 19389.00
882.2180, 19442.00
883.3460, 19505.00
884.4750, 19510.79
885.6040, 19478.00
886.7320, 19465.00
887.8600, 19391.00
888.9880, 19434.60
890.1160, 19431.42
891.2430, 19486.00
892.3710, 19489.00
893.4980, 19473.00
894.6260, 19497.19
895.7530, 19508.00
896.8790, 19654.00
898.0060, 19592.00
899.1330, 19725.00
900.2590, 19643.00
901.3850, 19781.00
902.5110, 19583.00
903.6370, 19720.00
904.7630, 19664.00
905.8890, 19668.00
907.0140, 19740.00
908.1390, 19858.00
909.2640, 19807.00
910.3890, 19704.00
911.5140, 19803.00
912.6390, 19810.00
913.7630, 20010.00
914.8870, 19900.00
916.0120, 20134.00
917.1360, 20105.00
918.2590, 20108.00
919.3830, 20309.00
920.5070, 20044.00
921.6300, 20269.00
922.7530, 20245.00
923.8760, 20330.00
924.9990, 20375.00
926.1220, 20321.00
927.2440, 20254.00
928.3670, 20422.00
929.4890, 20294.00
930.6110, 20537.00
931.7330, 20525.00
932.8540, 20554.00
933.9760, 20624.53
935.0980, 20859.67
936.2190, 21019.67
937.3400, 21108.61
938.4610, 20913.69
939.5820, 21085.32
940.7020, 21110.00
941.8230, 21128.71
942.9430, 21351.88
944.0630, 21198.18
945.1830, 21418.11
946.3030, 21488.89
947.4230, 21627.93
948.5420, 21619.11
949.6610, 21655.94
950.7810, 21840.68
951.9000, 21943.50
953.0190, 21917.66
954.1370, 22060.93
955.2560, 21791.00
956.3740, 22061.00
957.4920, 21966.00
958.6110, 22053.00
959.7280, 22033.00
960.8460, 22146.00
961.9640, 22316.00
963.0810, 22030.00
964.1990, 22357.00
965.3160, 22213.00
966.4330, 22227.00
967.5490, 22393.00
968.6660, 22249.00
969.7830, 22624.00
970.8990, 22441.00
972.0150, 22550.00
973.1310, 22514.00
974.2470, 22625.00
975.3630, 22493.00
976.4780, 22612.00
977.5930, 22606.00
978.7090, 22667.00
979.8240, 22585.00
980.9390, 22546.00
982.0530, 22630.00
983.1680, 22884.00
984.2820, 22648.00
985.3970, 23042.00
986.5110, 23187.00
987.6250, 22775.00
988.7380, 22757.00
989.8520, 22843.00
990.9660, 22670.00
992.0790, 22764.00
993.1920, 22915.00
994.3050, 22772.00
995.4180, 22976.00
996.5300, 22878.00
997.6430, 22989.00
998.7550, 23157.00
999.8680, 23024.00
1000.980, 23098.00
1002.091, 23047.00
1003.203, 23019.76
1004.315, 23170.00
1005.426, 23013.00
1006.537, 23100.00
1007.648, 23165.00
1008.759, 23309.00
1009.870, 23288.00
1010.981, 23192.00
1012.091, 23475.00
1013.201, 23365.00
1014.312, 23375.00
1015.422, 23461.00
1016.531, 23368.00
1017.641, 23449.48
1018.751, 23469.00
1019.860, 23557.00
1020.969, 23566.00
1022.078, 23676.00
1023.187, 23664.24
1024.296, 23429.00
1025.404, 23694.00
1026.513, 23621.00
1027.621, 23708.00
1028.729, 23817.60
1029.837, 23836.00
1030.945, 23931.00
1032.052, 23962.00
1033.160, 23918.00
1034.267, 23971.00
1035.374, 24034.00
1036.481, 24070.13
1037.588, 24280.00
1038.695, 24183.00
1039.801, 24204.00
1040.907, 24198.00
1042.014, 24100.00
1043.120, 24095.00
1044.225, 24138.58
1045.331, 24479.00
1046.437, 24323.00
1047.542, 24511.00
1048.647, 24729.00
1049.752, 24501.00
1050.857, 24672.00
1051.962, 24707.00
1053.067, 24727.00
1054.171, 24939.00
1055.275, 25122.00
1056.380, 24950.00
1057.484, 24896.00
1058.587, 25047.00
1059.691, 25044.00
1060.795, 24979.00
1061.898, 24977.00
1063.001, 24795.00
1064.104, 24815.18
1065.207, 24979.00
1066.310, 24796.00
1067.412, 24949.00
1068.515, 25010.00
1069.617, 24887.00
1070.719, 25021.00
1071.821, 25099.00
1072.923, 24987.00
1074.024, 24933.00
1075.126, 24763.00
1076.227, 24999.00
1077.328, 24767.00
1078.429, 24834.00
1079.530, 24806.00
1080.631, 24662.00
1081.731, 24816.00
1082.831, 24771.00
1083.932, 24642.00
1085.032, 24733.00
1086.132, 25008.00
1087.231, 24953.00
1088.331, 24897.00
1089.430, 24833.00
1090.530, 24891.00
1091.629, 24837.00
1092.728, 24650.00
1093.826, 24772.00
1094.925, 24708.00
1096.023, 24896.00
1097.122, 24838.00
1098.220, 24806.00
1099.318, 24737.00
1100.416, 24983.00
1101.513, 24888.00
1102.611, 25116.00
1103.708, 24839.00
1104.806, 25144.00
1105.903, 25003.00
1107.000, 24792.00
1108.096, 24821.00
1109.193, 25043.00
1110.289, 24966.00
1111.386, 24914.00
1112.482, 24931.00
1113.578, 24889.00
1114.673, 25035.00
1115.769, 24839.00
1116.865, 25038.00
1117.960, 24763.00
1119.055, 24964.00
1120.150, 24799.00
1121.245, 24593.00
1122.340, 24874.00
1123.434, 24886.00
1124.529, 24772.00
1125.623, 24675.00
1126.717, 24660.13
1127.811, 24616.00
1128.905, 24559.00
1129.998, 24572.00
1131.092, 24472.00
1132.185, 24564.70
1133.278, 24691.00
1134.371, 24669.00
1135.464, 24595.00
1136.557, 24496.00
1137.649, 24525.00
1138.742, 24575.00
1139.834, 24655.00
1140.926, 24798.00
1142.018, 24588.00
1143.109, 24421.00
1144.201, 24393.00
1145.292, 24437.00
1146.384, 24408.00
1147.475, 24281.00
1148.566, 24252.00
1149.657, 24213.00
1150.747, 24196.00
1151.838, 24288.00
1152.928, 23996.00
1154.018, 24237.00
1155.108, 24170.00
1156.198, 24153.00
1157.288, 23939.00
1158.377, 24261.00
1159.467, 24114.00
1160.556, 24001.00
1161.645, 23920.00
1162.734, 23787.00
1163.823, 23785.00
1164.911, 23729.49
1166.000, 23813.00
1167.088, 23654.00
1168.176, 23676.00
1169.264, 23542.00
1170.352, 23652.00
1171.440, 23753.00
1172.527, 23556.00
1173.615, 23576.00
1174.702, 23684.00
1175.789, 23647.00
1176.876, 23710.00
1177.963, 23628.00
1179.049, 23680.07
1180.136, 23710.00
1181.222, 23706.00
1182.308, 23743.00
1183.394, 23682.00
1184.480, 23565.00
1185.566, 23766.00
1186.651, 23621.00
1187.736, 23846.00
1188.822, 23639.00
1189.907, 23822.00
1190.992, 23926.00
1192.076, 23858.00
1193.161, 23788.00
1194.245, 23882.00
1195.330, 23702.00
1196.414, 23659.00
1197.498, 23668.00
1198.581, 23906.00
1199.665, 23769.00
1200.749, 23812.00
1201.832, 23835.00
1202.915, 23874.00
1203.998, 23935.00
1205.081, 23821.00
1206.164, 23838.00
1207.246, 23954.00
1208.329, 23814.00
1209.411, 23996.00
1210.493, 23945.00
1211.575, 23943.00
1212.657, 24131.00
1213.738, 23951.00
1214.820, 24090.00
1215.901, 24104.00
1216.982, 24150.00
1218.063, 24071.00
1219.144, 24167.00
1220.225, 24087.00
1221.305, 24106.33
1222.386, 24010.00
1223.466, 24132.00
1224.546, 24139.00
1225.626, 24195.00
1226.706, 24144.00
1227.785, 24409.00
1228.865, 24231.00
1229.944, 24063.00
1231.023, 24313.00
1232.102, 24176.00
1233.181, 24151.00
1234.260, 24449.00
1235.338, 24242.00
1236.417, 24318.00
1237.495, 24294.00
1238.573, 24184.00
1239.651, 24418.00
1240.729, 24388.00
1241.806, 24262.00
1242.884, 24397.00
1243.961, 24526.00
1245.038, 24468.00
1246.115, 24492.00
1247.192, 24413.00
1248.269, 24418.00
1249.345, 24402.00
1250.421, 24453.00
