##NAMES=Leucite
##RRUFFID=R060300
##IDEAL CHEMISTRY=K(Si_2_Al)O_6_
##LOCALITY=Alban Hills, Rome Province, Latium, Italy
##OWNER=RRUFF
##SOURCE=Herb Obodda
##DESCRIPTION=Colorless complete pseudocubic crystal showing trapezohedral faces
##STATUS=The identification of this mineral has been confirmed by X-ray diffraction and chemical analysis
##URL=rruff.info/R060300
##MEASURED CHEMISTRY=(K_0.98_Na_0.02_)_Î£=1_Al_1.00_Si_2.00_O_6_
##PIN_ID=M01338
##ORIENTATION=Laser parallel to a* (1 0 0). Fiducial mark perpendicular to laser is parallel to c [0 0 1]
66.51000, 11810.00
67.75400, 12303.00
68.99800, 12569.00
70.24100, 12688.00
71.48500, 12971.00
72.72800, 13386.00
73.97100, 14074.00
75.21400, 14798.00
76.45600, 15218.00
77.69900, 15604.00
78.94100, 15928.00
80.18300, 16468.00
81.42500, 16594.00
82.66700, 16472.00
83.90800, 16091.00
85.15000, 15655.00
86.39100, 15563.00
87.63200, 15184.08
88.87300, 14710.00
90.11400, 14674.00
91.35400, 14555.00
92.59500, 14345.00
93.83500, 14336.00
95.07500, 14230.00
96.31500, 14092.00
97.55400, 14153.00
98.79400, 13926.00
100.0330, 13864.00
101.2720, 13846.00
102.5110, 13634.00
103.7500, 13440.00
104.9890, 13977.00
106.2270, 13939.00
107.4650, 13960.00
108.7040, 13877.00
109.9420, 13874.00
111.1790, 14020.00
112.4170, 14176.00
113.6540, 14144.00
114.8920, 14015.00
116.1290, 14142.00
117.3650, 13943.00
118.6020, 13824.00
119.8390, 13865.00
121.0750, 13751.00
122.3110, 13813.00
123.5470, 13595.00
124.7830, 13259.00
126.0190, 13486.00
127.2540, 13290.00
128.4900, 13597.00
129.7250, 13763.00
130.9600, 13855.00
132.1950, 14169.00
133.4290, 14463.00
134.6640, 15033.00
135.8980, 15403.00
137.1320, 15796.00
138.3660, 16243.90
139.6000, 16677.00
140.8340, 17058.00
142.0670, 17506.00
143.3000, 17949.00
144.5330, 18381.00
145.7660, 18796.48
146.9990, 19266.00
148.2320, 19602.00
149.4640, 19893.00
150.6960, 20271.00
151.9280, 20231.00
153.1600, 20180.00
154.3920, 20124.00
155.6230, 20397.00
156.8550, 20191.00
158.0860, 19998.00
159.3170, 19696.00
160.5480, 19383.00
161.7780, 18681.00
163.0090, 18369.00
164.2390, 18143.00
165.4690, 17738.00
166.6990, 17452.00
167.9290, 17017.00
169.1590, 16849.00
170.3880, 16742.00
171.6180, 16745.00
172.8470, 17075.00
174.0760, 17365.00
175.3040, 17749.00
176.5330, 18196.00
177.7610, 18575.00
178.9900, 18711.00
180.2180, 19089.00
181.4460, 19108.00
182.6730, 18846.00
183.9010, 18820.00
185.1280, 18216.00
186.3560, 17981.00
187.5830, 17608.00
188.8100, 17189.00
190.0360, 17277.00
191.2630, 16394.00
192.4890, 15796.00
193.7150, 15298.00
194.9410, 15172.00
196.1670, 14720.84
197.3930, 14772.00
198.6180, 14214.00
199.8440, 14062.00
201.0690, 13908.00
202.2940, 13626.00
203.5190, 13396.00
204.7430, 13336.00
205.9680, 13408.00
207.1920, 13217.00
208.4160, 12976.00
209.6400, 13087.00
210.8640, 12956.00
212.0880, 12878.00
213.3110, 12955.00
214.5340, 12526.00
215.7570, 12575.00
216.9800, 12561.00
218.2030, 12305.00
219.4260, 12423.00
220.6480, 12308.00
221.8700, 12032.00
223.0920, 11870.00
224.3140, 11929.00
225.5360, 11759.00
226.7580, 11597.00
227.9790, 11506.00
229.2000, 11436.00
230.4210, 11295.00
231.6420, 11323.00
232.8630, 11362.00
234.0830, 11185.00
235.3040, 11186.00
236.5240, 11031.00
237.7440, 10884.00
238.9640, 11007.00
240.1830, 10741.00
241.4030, 10871.00
242.6220, 10739.00
243.8410, 10810.00
245.0600, 10968.00
246.2790, 10905.00
247.4980, 10780.00
248.7160, 10733.00
249.9340, 10874.00
251.1530, 10677.00
252.3710, 10832.00
253.5880, 10833.00
254.8060, 10892.00
256.0230, 10935.00
257.2410, 10919.00
258.4580, 10921.00
259.6750, 10939.00
260.8910, 10965.19
262.1080, 11001.26
263.3240, 11031.00
264.5410, 11102.00
265.7570, 11102.00
266.9730, 11164.00
268.1880, 11202.31
269.4040, 11191.70
270.6190, 11260.00
271.8350, 11212.00
273.0500, 11175.00
274.2650, 11260.00
275.4790, 11224.00
276.6940, 11255.00
277.9080, 11432.00
279.1220, 11298.00
280.3360, 11323.00
281.5500, 11258.00
282.7640, 11386.00
283.9770, 11399.00
285.1910, 11623.00
286.4040, 11498.00
287.6170, 11654.00
288.8300, 11719.00
290.0420, 11897.00
291.2550, 12056.31
292.4670, 12230.00
293.6790, 12472.00
294.8910, 12650.00
296.1030, 12965.00
297.3150, 12943.00
298.5260, 13072.00
299.7380, 13334.00
300.9490, 13401.00
302.1600, 13365.00
303.3710, 13395.00
304.5810, 13361.00
305.7920, 13388.00
307.0020, 13257.00
308.2120, 13158.00
309.4220, 12962.00
310.6320, 12853.18
311.8410, 12771.00
313.0510, 12607.00
314.2600, 12541.00
315.4690, 12476.00
316.6780, 12527.00
317.8870, 12310.00
319.0950, 12221.00
320.3040, 12424.00
321.5120, 12248.00
322.7200, 12269.00
323.9280, 12355.00
325.1360, 12524.00
326.3430, 12437.00
327.5510, 12482.00
328.7580, 12473.00
329.9650, 12566.00
331.1720, 12608.00
332.3790, 12684.00
333.5850, 12763.00
334.7910, 12690.00
335.9980, 12774.00
337.2040, 12812.00
338.4100, 12935.00
339.6150, 12818.00
340.8210, 12685.00
342.0260, 12969.00
343.2310, 12781.00
344.4360, 12595.00
345.6410, 12527.00
346.8460, 12486.00
348.0500, 12274.00
349.2550, 12271.00
350.4590, 12145.00
351.6630, 12261.00
352.8670, 12129.00
354.0700, 12268.00
355.2740, 12245.00
356.4770, 12265.00
357.6800, 12372.00
358.8830, 12127.00
360.0860, 12446.00
361.2890, 12194.00
362.4910, 12471.00
363.6930, 12401.00
364.8960, 12541.00
366.0980, 12516.00
367.2990, 12554.00
368.5010, 12523.00
369.7020, 12632.00
370.9040, 12667.00
372.1050, 12717.00
373.3060, 12750.12
374.5070, 12798.36
375.7070, 12782.00
376.9080, 12829.00
378.1080, 12857.00
379.3080, 12736.00
380.5080, 12917.00
381.7080, 12750.00
382.9070, 13079.00
384.1070, 12964.00
385.3060, 12819.00
386.5050, 13023.00
387.7040, 13041.00
388.9030, 13022.00
390.1010, 13006.00
391.3000, 13083.00
392.4980, 13082.00
393.6960, 13044.00
394.8940, 13171.00
396.0920, 12992.00
397.2890, 12923.00
398.4870, 12988.00
399.6840, 12905.00
400.8810, 12883.00
402.0780, 12814.00
403.2750, 12751.00
404.4710, 12743.00
405.6680, 12612.00
406.8640, 12659.00
408.0600, 12606.80
409.2560, 12737.00
410.4520, 12585.00
411.6470, 12666.00
412.8430, 12691.00
414.0380, 12635.00
415.2330, 12727.00
416.4280, 12936.00
417.6220, 12987.00
418.8170, 12974.00
420.0110, 12992.00
421.2050, 13086.00
422.4000, 13244.00
423.5930, 13317.00
424.7870, 13510.00
425.9810, 13662.00
427.1740, 13661.00
428.3670, 13655.00
429.5600, 13929.00
430.7530, 14059.00
431.9460, 13972.89
433.1380, 14025.25
434.3310, 13799.00
435.5230, 13789.00
436.7150, 13729.00
437.9070, 13473.00
439.0980, 13548.00
440.2900, 13302.00
441.4810, 13521.00
442.6720, 13428.00
443.8630, 13410.00
445.0540, 13376.00
446.2450, 13433.00
447.4350, 13501.00
448.6260, 13519.00
449.8160, 13356.00
451.0060, 13704.00
452.1960, 13770.00
453.3850, 13592.00
454.5750, 14080.00
455.7640, 14080.00
456.9530, 14143.00
458.1420, 14156.00
459.3310, 14507.00
460.5200, 14764.00
461.7080, 14913.00
462.8970, 15052.00
464.0850, 15426.00
465.2730, 15699.58
466.4610, 16008.00
467.6480, 16597.00
468.8360, 17284.00
470.0230, 18078.00
471.2100, 18928.00
472.3970, 20251.00
473.5840, 21409.00
474.7710, 22954.00
475.9570, 24514.00
477.1440, 26299.00
478.3300, 28193.00
479.5160, 30120.00
480.7020, 32080.00
481.8870, 34256.00
483.0730, 35898.00
484.2580, 37770.00
485.4430, 38908.00
486.6280, 40882.00
487.8130, 42371.00
488.9980, 44404.00
490.1820, 46112.00
491.3660, 48680.00
492.5510, 50543.00
493.7350, 52136.00
494.9180, 53036.10
496.1020, 53347.63
497.2860, 53197.00
498.4690, 52546.00
499.6520, 50980.00
500.8350, 49591.00
502.0180, 48255.00
503.2000, 47264.00
504.3830, 46656.00
505.5650, 46187.00
506.7470, 45832.00
507.9290, 44748.00
509.1110, 43753.00
510.2930, 42095.00
511.4740, 40292.00
512.6560, 38486.00
513.8370, 37176.00
515.0180, 35891.00
516.1980, 35087.00
517.3790, 34338.00
518.5600, 34144.00
519.7400, 34355.00
520.9200, 35259.00
522.1000, 36009.00
523.2800, 37517.00
524.4590, 39157.00
525.6390, 40593.00
526.8180, 41999.00
527.9970, 43093.00
529.1760, 42698.00
530.3550, 42011.00
531.5340, 40468.00
532.7120, 37828.00
533.8910, 35009.00
535.0690, 32372.00
536.2470, 29938.44
537.4250, 27685.00
538.6020, 25768.60
539.7800, 23887.00
540.9570, 22618.00
542.1340, 21361.00
543.3110, 20429.00
544.4880, 19849.00
545.6650, 19207.00
546.8410, 18607.00
548.0170, 18252.00
549.1940, 17956.00
550.3690, 17530.72
551.5450, 17254.00
552.7210, 16873.00
553.8960, 16674.00
555.0720, 16364.00
556.2470, 16431.00
557.4220, 16117.00
558.5970, 15909.00
559.7710, 15852.00
560.9460, 15602.00
562.1200, 15337.00
563.2940, 15129.00
564.4680, 15242.00
565.6420, 15136.00
566.8160, 15138.00
567.9890, 14937.00
569.1630, 14848.00
570.3360, 14823.00
571.5090, 14872.00
572.6820, 14479.00
573.8540, 14522.00
575.0270, 14429.00
576.1990, 14506.00
577.3710, 14367.00
578.5430, 14340.00
579.7150, 14478.00
580.8870, 14531.00
582.0580, 14422.00
583.2300, 14533.00
584.4010, 14408.00
585.5720, 14346.00
586.7430, 14433.00
587.9130, 14458.00
589.0840, 14488.00
590.2540, 14501.11
591.4240, 14504.85
592.5940, 14487.00
593.7640, 14482.00
594.9340, 14475.75
596.1030, 14433.00
597.2730, 14381.00
598.4420, 14450.00
599.6110, 14370.00
600.7800, 14526.00
601.9490, 14495.00
603.1170, 14282.00
604.2850, 14355.00
605.4540, 14298.00
606.6220, 14438.00
607.7900, 14256.00
608.9570, 14518.00
610.1250, 14388.00
611.2920, 14355.00
612.4590, 14495.00
613.6260, 14378.00
614.7930, 14515.74
615.9600, 14620.00
617.1270, 14682.00
618.2930, 14583.00
619.4590, 14577.00
620.6250, 14521.00
621.7910, 14568.00
622.9570, 14568.00
624.1220, 14718.00
625.2880, 14613.00
626.4530, 14702.00
627.6180, 14643.00
628.7830, 14675.00
629.9480, 14718.00
631.1120, 14736.00
632.2770, 14659.00
633.4410, 14546.39
634.6050, 14774.21
635.7690, 14905.76
636.9330, 14946.22
638.0960, 14622.74
639.2600, 14769.21
640.4230, 14727.34
641.5860, 14677.75
642.7490, 14890.35
643.9120, 14619.80
645.0740, 14828.25
646.2370, 14845.49
647.3990, 14950.23
648.5610, 14865.48
649.7230, 14839.26
650.8850, 15002.59
652.0460, 15060.96
653.2080, 14954.40
654.3690, 14685.00
655.5300, 14712.00
656.6910, 14787.00
657.8520, 14893.00
659.0130, 15050.00
660.1730, 14874.00
661.3330, 15095.00
662.4930, 14864.00
663.6530, 14951.00
664.8130, 15028.00
665.9730, 15116.00
667.1320, 15030.00
668.2920, 15126.00
669.4510, 15031.00
670.6100, 15179.00
671.7680, 15165.00
672.9270, 15250.00
674.0860, 15171.00
675.2440, 15268.00
676.4020, 15187.00
677.5600, 15191.00
678.7180, 15285.00
679.8760, 15261.00
681.0330, 15215.00
682.1900, 15422.00
683.3480, 15377.00
684.5050, 15261.00
685.6610, 15108.00
686.8180, 15107.58
687.9750, 15242.00
689.1310, 15113.00
690.2870, 15132.00
691.4430, 15249.00
692.5990, 15128.00
693.7550, 15181.00
694.9100, 15112.00
696.0660, 15004.00
697.2210, 15049.00
698.3760, 15037.00
699.5310, 14941.00
700.6860, 15036.00
701.8400, 15005.00
702.9940, 15084.00
704.1490, 15026.00
705.3030, 15009.00
706.4570, 15187.00
707.6100, 15249.00
708.7640, 15139.00
709.9170, 15168.00
711.0710, 15235.00
712.2240, 15324.00
713.3770, 15293.00
714.5290, 15402.00
715.6820, 15348.00
716.8340, 15400.00
717.9870, 15465.00
719.1390, 15360.00
720.2910, 15383.00
721.4430, 15454.00
722.5940, 15262.00
723.7460, 15524.00
724.8970, 15481.00
726.0480, 15551.00
727.1990, 15521.00
728.3500, 15493.00
729.5000, 15348.00
730.6510, 15462.00
731.8010, 15520.00
732.9510, 15666.00
734.1010, 15499.00
735.2510, 15617.00
736.4010, 15412.00
737.5500, 15539.00
738.7000, 15611.00
739.8490, 15516.00
740.9980, 15608.00
742.1470, 15613.00
743.2950, 15621.00
744.4440, 15595.00
745.5920, 15608.06
746.7400, 15570.00
747.8880, 15597.00
749.0360, 15603.00
750.1840, 15565.00
751.3310, 15504.00
752.4790, 15458.00
753.6260, 15494.00
754.7730, 15562.00
755.9200, 15556.00
757.0670, 15555.00
758.2130, 15565.29
759.3600, 15553.00
760.5060, 15573.00
761.6520, 15555.48
762.7980, 15472.00
763.9440, 15513.00
765.0890, 15562.00
766.2350, 15514.00
767.3800, 15594.00
768.5250, 15652.00
769.6700, 15553.00
770.8150, 15647.00
771.9590, 15882.00
773.1040, 15690.00
774.2480, 15841.00
775.3920, 15902.00
776.5360, 15870.00
777.6800, 15930.00
778.8240, 15844.00
779.9670, 15866.00
781.1100, 15725.00
782.2540, 15920.00
783.3970, 15837.00
784.5390, 15999.00
785.6820, 15836.00
786.8240, 16085.00
787.9670, 15963.00
789.1090, 15915.00
790.2510, 15947.00
791.3930, 15824.00
792.5350, 16043.00
793.6760, 16061.00
794.8170, 15870.00
795.9590, 15953.00
797.1000, 15882.00
798.2410, 15704.00
799.3810, 15820.00
800.5220, 15793.00
801.6620, 15837.00
802.8030, 15918.00
803.9430, 15833.00
805.0820, 15903.00
806.2220, 15830.00
807.3620, 15904.00
808.5010, 15750.00
809.6410, 15934.00
810.7800, 15741.00
811.9190, 15909.00
813.0570, 15884.00
814.1960, 15767.00
815.3340, 15788.00
816.4730, 15788.75
817.6110, 15814.00
818.7490, 15889.00
819.8870, 15897.91
821.0240, 15897.66
822.1620, 15903.00
823.2990, 15867.00
824.4360, 15843.00
825.5730, 15837.00
826.7100, 15872.00
827.8470, 15782.00
828.9830, 15892.00
830.1200, 15866.00
831.2560, 16000.00
832.3920, 16087.00
833.5280, 16054.64
834.6630, 15773.00
835.7990, 16005.00
836.9340, 15920.00
838.0700, 15858.00
839.2050, 16008.00
840.3400, 15985.00
841.4740, 15960.00
842.6090, 16159.00
843.7430, 16068.00
844.8780, 16062.00
846.0120, 16055.00
847.1460, 16059.99
848.2790, 15949.00
849.4130, 16157.00
850.5460, 16154.00
851.6800, 16260.00
852.8130, 16199.00
853.9460, 16116.00
855.0790, 16239.00
856.2110, 16179.17
857.3440, 16217.00
858.4760, 16209.00
859.6080, 16276.00
860.7400, 16308.00
861.8720, 16355.00
863.0040, 16397.00
864.1350, 16343.00
865.2670, 16243.00
866.3980, 16416.00
867.5290, 16438.00
868.6600, 16269.00
869.7900, 16359.00
870.9210, 16294.00
872.0510, 16460.00
873.1820, 16376.00
874.3120, 16398.00
875.4420, 16551.00
876.5710, 16378.00
877.7010, 16487.00
878.8300, 16364.00
879.9600, 16432.00
881.0890, 16690.00
882.2180, 16582.00
883.3460, 16606.00
884.4750, 16657.00
885.6040, 16634.00
886.7320, 16608.00
887.8600, 16565.00
888.9880, 16610.00
890.1160, 16628.00
891.2430, 16684.00
892.3710, 16754.00
893.4980, 16789.00
894.6260, 16804.00
895.7530, 16464.00
896.8790, 16747.00
898.0060, 16618.00
899.1330, 16694.00
900.2590, 16798.00
901.3850, 16818.00
902.5110, 16794.00
903.6370, 16966.00
904.7630, 16859.00
905.8890, 16931.00
907.0140, 17089.00
908.1390, 16847.00
909.2640, 17040.00
910.3890, 16832.00
911.5140, 17187.00
912.6390, 17116.00
913.7630, 17153.00
914.8870, 17221.00
916.0120, 17174.00
917.1360, 17210.00
918.2590, 17227.00
919.3830, 17295.00
920.5070, 17228.00
921.6300, 17197.00
922.7530, 17437.00
923.8760, 17310.00
924.9990, 17419.00
926.1220, 17388.00
927.2440, 17401.00
928.3670, 17376.00
929.4890, 17503.00
930.6110, 17585.00
931.7330, 17369.00
932.8540, 17674.00
933.9760, 17637.00
935.0980, 17630.00
936.2190, 17769.00
937.3400, 17841.00
938.4610, 17727.00
939.5820, 17817.00
940.7020, 18091.00
941.8230, 17859.00
942.9430, 17969.00
944.0630, 17928.00
945.1830, 18212.00
946.3030, 18370.00
947.4230, 18400.00
948.5420, 18296.00
949.6610, 18481.00
950.7810, 18396.00
951.9000, 18569.00
953.0190, 18655.00
954.1370, 18649.00
955.2560, 18617.00
956.3740, 18981.00
957.4920, 18766.00
958.6110, 18990.00
959.7280, 18930.00
960.8460, 18780.00
961.9640, 19131.00
963.0810, 19027.00
964.1990, 19085.00
965.3160, 19063.00
966.4330, 19222.00
967.5490, 19247.00
968.6660, 19207.00
969.7830, 19380.00
970.8990, 19266.00
972.0150, 19251.00
973.1310, 19191.00
974.2470, 19307.00
975.3630, 19388.00
976.4780, 19412.00
977.5930, 19472.00
978.7090, 19489.00
979.8240, 19488.00
980.9390, 19221.00
982.0530, 19408.00
983.1680, 19355.00
984.2820, 19604.00
985.3970, 19549.00
986.5110, 19674.00
987.6250, 19665.00
988.7380, 19531.00
989.8520, 19662.00
990.9660, 19555.00
992.0790, 19402.00
993.1920, 19442.00
994.3050, 19520.00
995.4180, 19708.00
996.5300, 19718.00
997.6430, 19654.00
998.7550, 19884.00
999.8680, 19706.00
1000.980, 19786.00
1002.091, 19990.00
1003.203, 19830.00
1004.315, 19825.00
1005.426, 19886.00
1006.537, 20035.00
1007.648, 20002.00
1008.759, 20110.00
1009.870, 20003.00
1010.981, 20220.00
1012.091, 20068.00
1013.201, 20025.00
1014.312, 20070.00
1015.422, 20205.00
1016.531, 19990.00
1017.641, 20283.00
1018.751, 20287.00
1019.860, 19978.00
1020.969, 20403.00
1022.078, 20301.00
1023.187, 20396.00
1024.296, 20361.00
1025.404, 20394.00
1026.513, 20538.00
1027.621, 20572.00
1028.729, 20497.00
1029.837, 20651.00
1030.945, 20526.00
1032.052, 20507.00
1033.160, 20623.00
1034.267, 20499.00
1035.374, 20582.00
1036.481, 20824.00
1037.588, 20710.00
1038.695, 20720.00
1039.801, 20698.00
1040.907, 20753.00
1042.014, 20691.00
1043.120, 20859.00
1044.225, 20799.00
1045.331, 20835.00
1046.437, 21101.00
1047.542, 21241.00
1048.647, 21082.00
1049.752, 21057.00
1050.857, 21294.00
1051.962, 21236.00
1053.067, 21262.00
1054.171, 21494.00
1055.275, 21421.00
1056.380, 21440.00
1057.484, 21389.00
1058.587, 21666.00
1059.691, 21729.00
1060.795, 21569.00
1061.898, 21626.00
1063.001, 21568.00
1064.104, 21646.00
1065.207, 21708.00
1066.310, 21454.00
1067.412, 21563.00
1068.515, 21487.00
1069.617, 21484.00
1070.719, 21308.00
1071.821, 21462.00
1072.923, 21408.00
1074.024, 21449.00
1075.126, 21359.00
1076.227, 21376.00
1077.328, 21361.00
1078.429, 21292.94
1079.530, 21319.00
1080.631, 21199.00
1081.731, 21187.00
1082.831, 21178.00
1083.932, 21163.66
1085.032, 21309.00
1086.132, 21214.00
1087.231, 21394.00
1088.331, 21444.00
1089.430, 21614.00
1090.530, 21479.00
1091.629, 21217.00
1092.728, 21367.00
1093.826, 21332.00
1094.925, 21319.00
1096.023, 21489.00
1097.122, 21386.00
1098.220, 21335.00
1099.318, 21428.00
1100.416, 21651.00
1101.513, 21379.00
1102.611, 21512.00
1103.708, 21472.00
1104.806, 21460.75
1105.903, 21581.31
1107.000, 21400.00
1108.096, 21751.00
1109.193, 21439.00
1110.289, 21451.00
1111.386, 21540.00
1112.482, 21521.00
1113.578, 21483.00
1114.673, 21449.00
1115.769, 21431.00
1116.865, 21410.00
1117.960, 21356.00
1119.055, 21482.00
1120.150, 21497.00
1121.245, 21319.00
1122.340, 21321.00
1123.434, 21093.00
1124.529, 21324.00
1125.623, 21231.00
1126.717, 21364.00
1127.811, 21119.00
1128.905, 21196.00
1129.998, 21152.00
1131.092, 21160.00
1132.185, 21279.00
1133.278, 21210.00
1134.371, 20981.00
1135.464, 21024.00
1136.557, 21152.00
1137.649, 21016.00
1138.742, 21162.00
1139.834, 20983.00
1140.926, 21032.00
1142.018, 21148.00
1143.109, 21084.00
1144.201, 20885.00
1145.292, 20850.00
1146.384, 20769.00
1147.475, 20786.00
1148.566, 20894.00
1149.657, 20681.00
1150.747, 20684.00
1151.838, 20843.00
1152.928, 20885.00
1154.018, 20731.00
1155.108, 20576.00
1156.198, 20571.00
1157.288, 20471.00
1158.377, 20419.22
1159.467, 20473.00
1160.556, 20413.00
1161.645, 20346.00
1162.734, 20511.00
1163.823, 20246.00
1164.911, 20405.00
1166.000, 20335.00
1167.088, 20289.00
1168.176, 20313.00
1169.264, 20327.00
1170.352, 20388.00
1171.440, 20362.00
1172.527, 20133.00
1173.615, 20272.00
1174.702, 20357.00
1175.789, 20140.00
1176.876, 20493.00
1177.963, 20359.00
1179.049, 20183.00
1180.136, 20095.00
1181.222, 20071.13
1182.308, 20192.00
1183.394, 20177.00
1184.480, 20252.00
1185.566, 20477.00
1186.651, 20351.00
1187.736, 20433.00
1188.822, 20070.00
1189.907, 20299.00
1190.992, 20347.00
1192.076, 20192.00
1193.161, 20370.00
1194.245, 20388.00
1195.330, 20324.00
1196.414, 20466.00
1197.498, 20417.00
1198.581, 20443.00
1199.665, 20202.00
1200.749, 20422.00
1201.832, 20330.00
1202.915, 20351.00
1203.998, 20497.00
1205.081, 20450.00
1206.164, 20566.00
1207.246, 20265.00
1208.329, 20604.00
1209.411, 20422.00
1210.493, 20365.00
1211.575, 20506.00
1212.657, 20470.00
1213.738, 20676.00
1214.820, 20490.00
1215.901, 20537.00
1216.982, 20484.00
1218.063, 20627.00
1219.144, 20534.00
1220.225, 20567.00
1221.305, 20432.00
1222.386, 20458.00
1223.466, 20589.00
1224.546, 20473.00
1225.626, 20477.00
1226.706, 20503.00
1227.785, 20559.00
1228.865, 20744.00
1229.944, 20645.00
1231.023, 20761.00
1232.102, 20504.00
1233.181, 20851.00
1234.260, 20567.00
1235.338, 20635.00
1236.417, 20758.00
1237.495, 20835.00
1238.573, 20838.83
1239.651, 20725.00
1240.729, 20803.00
1241.806, 20688.00
1242.884, 20627.00
1243.961, 20785.00
1245.038, 20666.00
1246.115, 20902.00
1247.192, 20898.00
1248.269, 21078.00
1249.345, 21037.00
1250.421, 21186.00
