##NAMES=Leucite
##RRUFFID=R040107
##IDEAL CHEMISTRY=K(Si_2_Al)O_6_
##LOCALITY=Roccamonfina, Italy
##OWNER=RRUFF
##SOURCE=University of Arizona Mineral Museum
##DESCRIPTION=Rounded colorless crystals embedded in an ash matrix
##STATUS=The identification of this mineral has been confirmed by X-ray diffraction and chemical analysis
##URL=rruff.info/R040107
##MEASURED CHEMISTRY=(K_0.95_Na_0.03_)Al_0.99_Si_2.01_O_6_
##PIN_ID=L00276
##ORIENTATION=Laser parallel to -a* (-1 0 0). Fiducial mark perpendicular to laser is parallel to c [0 0 1]
75.80300, 36571.00
77.04300, 36876.00
78.28300, 37687.00
79.52300, 38047.00
80.76300, 38825.00
82.00300, 39977.00
83.24300, 42795.00
84.48300, 43507.00
85.72200, 43582.00
86.96100, 39948.00
88.20000, 36666.00
89.43900, 34668.00
90.67800, 34048.00
91.91600, 33876.00
93.15500, 33467.00
94.39300, 33049.00
95.63100, 32494.00
96.86900, 31985.00
98.10600, 31781.00
99.34400, 31864.00
100.5810, 31401.00
101.8190, 31503.00
103.0560, 30897.00
104.2930, 31025.00
105.5290, 30810.00
106.7660, 31096.00
108.0020, 30675.00
109.2390, 30926.00
110.4750, 30643.00
111.7110, 31170.00
112.9460, 31106.00
114.1820, 31603.00
115.4170, 31931.00
116.6530, 32118.00
117.8880, 32522.00
119.1230, 32711.00
120.3580, 33286.00
121.5920, 36122.00
122.8270, 39519.00
124.0610, 41375.00
125.2950, 40792.00
126.5290, 36412.00
127.7630, 32196.00
128.9970, 30489.00
130.2300, 30645.00
131.4640, 30913.00
132.6970, 32316.00
133.9300, 32067.00
135.1630, 33015.00
136.3950, 33982.00
137.6280, 34809.00
138.8600, 35693.00
140.0920, 36698.00
141.3240, 37759.00
142.5560, 38890.00
143.7880, 39849.00
145.0190, 40829.00
146.2510, 42348.00
147.4820, 43119.00
148.7130, 44064.00
149.9440, 45214.00
151.1750, 45719.00
152.4050, 46456.00
153.6360, 46867.00
154.8660, 47161.00
156.0960, 47339.00
157.3260, 46859.00
158.5560, 46690.00
159.7850, 46404.00
161.0150, 45399.00
162.2440, 44468.00
163.4730, 43434.00
164.7020, 42851.00
165.9310, 41720.00
167.1590, 41142.00
168.3880, 39994.00
169.6160, 39093.00
170.8440, 38574.00
172.0720, 38034.00
173.3000, 38549.00
174.5280, 38454.00
175.7550, 39014.00
176.9820, 39553.00
178.2100, 40239.73
179.4370, 40940.09
180.6630, 41823.00
181.8900, 42080.00
183.1170, 42295.00
184.3430, 41968.00
185.5690, 41645.00
186.7950, 40739.00
188.0210, 39885.00
189.2470, 38517.00
190.4720, 37409.00
191.6970, 36119.00
192.9230, 35091.00
194.1480, 34028.00
195.3730, 32917.00
196.5970, 32026.00
197.8220, 31041.00
199.0460, 30443.00
200.2700, 29723.00
201.4940, 29520.00
202.7180, 28871.27
203.9420, 28495.00
205.1660, 27998.00
206.3890, 27516.00
207.6120, 27304.44
208.8350, 27366.00
210.0580, 27221.00
211.2810, 27183.00
212.5040, 27020.00
213.7260, 26990.00
214.9480, 26698.00
216.1700, 26491.00
217.3920, 26254.00
218.6140, 25904.00
219.8360, 25427.00
221.0570, 25117.00
222.2790, 24713.00
223.5000, 24083.00
224.7210, 23817.00
225.9410, 23260.00
227.1620, 23035.00
228.3820, 22475.00
229.6030, 22203.00
230.8230, 21633.59
232.0430, 21614.10
233.2630, 21486.42
234.4820, 21257.64
235.7020, 20565.37
236.9210, 20516.21
238.1400, 20236.70
239.3590, 19966.44
240.5780, 20063.48
241.7970, 19539.08
243.0150, 19669.68
244.2340, 19566.01
245.4520, 19597.98
246.6700, 19398.03
247.8880, 19230.00
249.1060, 19331.00
250.3230, 19349.00
251.5400, 19367.00
252.7580, 19227.00
253.9750, 19275.00
255.1920, 19291.00
256.4080, 19411.00
257.6250, 19430.16
258.8410, 19456.48
260.0580, 19552.00
261.2740, 19482.00
262.4900, 19591.00
263.7050, 19616.00
264.9210, 19445.00
266.1360, 19369.00
267.3520, 19432.02
268.5670, 19583.00
269.7820, 19637.00
270.9960, 19831.00
272.2110, 20116.00
273.4250, 19985.00
274.6400, 20220.00
275.8540, 19938.00
277.0680, 19918.00
278.2810, 19795.00
279.4950, 19802.00
280.7090, 19842.00
281.9220, 19933.00
283.1350, 20024.05
284.3480, 20181.00
285.5610, 20328.00
286.7730, 20566.18
287.9860, 20832.77
289.1980, 21131.00
290.4100, 21571.00
291.6220, 21987.00
292.8340, 22507.00
294.0460, 22867.00
295.2570, 23407.00
296.4690, 23970.28
297.6800, 24580.00
298.8910, 25118.00
300.1020, 25364.00
301.3120, 25786.00
302.5230, 26148.00
303.7330, 26066.00
304.9440, 25844.00
306.1540, 26008.00
307.3630, 25739.00
308.5730, 25418.00
309.7830, 25087.00
310.9920, 24841.00
312.2010, 24526.00
313.4100, 24314.63
314.6190, 24137.00
315.8280, 23861.00
317.0370, 23666.00
318.2450, 23529.89
319.4530, 23362.00
320.6610, 23327.00
321.8690, 23192.00
323.0770, 23174.00
324.2850, 23066.00
325.4920, 23109.00
326.6990, 23244.00
327.9060, 23402.00
329.1130, 23575.00
330.3200, 23726.00
331.5270, 23840.00
332.7330, 24294.00
333.9390, 24434.00
335.1450, 24527.00
336.3510, 24550.00
337.5570, 24883.00
338.7630, 24680.00
339.9680, 24652.00
341.1740, 24505.00
342.3790, 24220.00
343.5840, 23973.00
344.7890, 23849.00
345.9930, 23607.00
347.1980, 23596.00
348.4020, 23490.00
349.6060, 22887.00
350.8100, 22775.00
352.0140, 22373.00
353.2180, 22729.00
354.4210, 22460.00
355.6250, 22417.73
356.8280, 22432.00
358.0310, 22314.00
359.2340, 22322.00
360.4360, 22360.00
361.6390, 22457.00
362.8410, 22499.57
364.0430, 22589.19
365.2450, 22639.00
366.4470, 22772.00
367.6490, 22824.00
368.8510, 22926.00
370.0520, 23152.00
371.2530, 23184.00
372.4540, 23207.00
373.6550, 23188.00
374.8560, 23290.00
376.0560, 23289.00
377.2570, 23591.00
378.4570, 23575.00
379.6570, 23773.00
380.8570, 23796.00
382.0570, 23798.00
383.2560, 23871.00
384.4560, 23987.00
385.6550, 23974.00
386.8540, 23978.00
388.0530, 24312.00
389.2520, 24231.00
390.4510, 24402.00
391.6490, 24466.00
392.8470, 24515.00
394.0450, 24326.00
395.2430, 24366.00
396.4410, 24255.45
397.6390, 24310.00
398.8360, 24084.00
400.0340, 23884.00
401.2310, 23830.00
402.4280, 23622.00
403.6250, 23459.00
404.8210, 23235.00
406.0180, 23062.00
407.2140, 22954.00
408.4100, 22856.84
409.6060, 22799.00
410.8020, 22719.00
411.9980, 22743.00
413.1930, 22584.00
414.3890, 22755.00
415.5840, 22856.00
416.7790, 22791.00
417.9740, 22882.00
419.1680, 23144.00
420.3630, 23120.00
421.5570, 23487.00
422.7510, 23724.00
423.9450, 23959.00
425.1390, 24091.00
426.3330, 24359.00
427.5270, 24493.72
428.7200, 24904.00
429.9130, 24802.00
431.1060, 25175.00
432.2990, 25361.00
433.4920, 25224.00
434.6840, 25195.00
435.8770, 25028.00
437.0690, 25127.00
438.2610, 24692.00
439.4530, 24460.00
440.6450, 24113.00
441.8360, 24184.00
443.0280, 23822.00
444.2190, 23905.00
445.4100, 23928.00
446.6010, 23980.00
447.7920, 23761.00
448.9820, 24033.29
450.1730, 24118.00
451.3630, 24453.00
452.5530, 24507.00
453.7430, 24705.00
454.9330, 25116.00
456.1230, 25414.00
457.3120, 26159.00
458.5010, 26486.06
459.6910, 26980.90
460.8800, 27551.00
462.0680, 28018.00
463.2570, 28868.00
464.4460, 29681.00
465.6340, 30816.00
466.8220, 32389.00
468.0100, 32697.00
469.1980, 34339.00
470.3860, 36469.00
471.5730, 39053.00
472.7600, 41695.00
473.9480, 45328.00
475.1350, 47949.00
476.3210, 52134.00
477.5080, 56810.00
478.6950, 61898.00
479.8810, 66980.00
481.0670, 72698.00
482.2530, 78240.00
483.4390, 83994.00
484.6250, 89046.00
485.8100, 93959.00
486.9960, 99206.00
488.1810, 103812.0
489.3660, 109032.0
490.5510, 114294.0
491.7360, 119802.0
492.9200, 125845.0
494.1050, 130613.0
495.2890, 135303.0
496.4730, 137520.0
497.6570, 139181.0
498.8400, 138310.0
500.0240, 136306.0
501.2070, 132687.0
502.3910, 129642.0
503.5740, 126708.0
504.7570, 123278.0
505.9400, 121346.0
507.1220, 119164.0
508.3050, 117125.0
509.4870, 114071.0
510.6690, 110562.0
511.8510, 106651.0
513.0330, 101963.0
514.2140, 97474.00
515.3960, 93568.00
516.5770, 89899.00
517.7580, 87655.00
518.9390, 86146.00
520.1200, 85600.00
521.3010, 86059.00
522.4810, 87618.00
523.6610, 90655.00
524.8420, 93469.00
526.0220, 96919.00
527.2010, 100243.0
528.3810, 103128.0
529.5610, 104945.0
530.7400, 104314.0
531.9190, 102064.0
533.0980, 96836.00
534.2770, 91218.00
535.4560, 84540.00
536.6340, 77599.00
537.8120, 70687.00
538.9910, 64452.00
540.1690, 58899.00
541.3460, 53986.00
542.5240, 50060.00
543.7020, 46773.00
544.8790, 44027.00
546.0560, 41746.00
547.2330, 40074.00
548.4100, 38527.00
549.5870, 37011.00
550.7630, 36064.00
551.9400, 34816.00
553.1160, 34265.00
554.2920, 33223.00
555.4680, 32416.00
556.6440, 31722.00
557.8190, 31255.00
558.9950, 30735.00
560.1700, 30104.00
561.3450, 29562.00
562.5200, 29155.00
563.6950, 28973.00
564.8690, 28180.00
566.0440, 28006.00
567.2180, 27805.00
568.3920, 27289.00
569.5660, 27267.00
570.7400, 27028.00
571.9130, 26686.00
573.0870, 26431.00
574.2600, 26255.00
575.4330, 25897.00
576.6060, 25920.00
577.7790, 25564.00
578.9520, 25693.00
580.1240, 25559.67
581.2960, 25579.00
582.4690, 25450.00
583.6410, 25339.00
584.8120, 25267.00
585.9840, 25252.71
587.1560, 25272.90
588.3270, 25335.00
589.4980, 25430.00
590.6690, 25575.00
591.8400, 25713.00
593.0110, 25541.00
594.1810, 25482.00
595.3510, 25556.00
596.5220, 25525.00
597.6920, 25402.00
598.8610, 25244.00
600.0310, 25368.00
601.2010, 25438.00
602.3700, 25311.00
603.5390, 25542.00
604.7080, 25408.00
605.8770, 25151.00
607.0460, 25251.00
608.2140, 25242.00
609.3830, 25038.00
610.5510, 25152.00
611.7190, 25219.00
612.8870, 25266.00
614.0550, 25262.00
615.2220, 25277.00
616.3900, 25247.00
617.5570, 25359.00
618.7240, 25219.00
619.8910, 25264.00
621.0580, 25418.00
622.2240, 25349.44
623.3910, 25521.00
624.5570, 25362.00
625.7230, 25565.00
626.8890, 25532.00
628.0550, 25532.00
629.2200, 25628.00
630.3860, 25631.00
631.5510, 25571.00
632.7160, 25664.00
633.8810, 25509.00
635.0460, 25508.00
636.2100, 25724.00
637.3750, 25558.00
638.5390, 25498.00
639.7030, 25790.00
640.8670, 25537.00
642.0310, 25742.00
643.1950, 25733.00
644.3580, 25683.00
645.5210, 25310.00
646.6850, 25538.00
647.8480, 25460.00
649.0100, 25616.00
650.1730, 25587.00
651.3350, 25472.00
652.4980, 25523.00
653.6600, 25602.00
654.8220, 25606.00
655.9840, 25626.00
657.1450, 25872.00
658.3070, 25856.00
659.4680, 25942.00
660.6300, 26071.00
661.7910, 26154.00
662.9510, 26109.00
664.1120, 26219.37
665.2730, 26424.00
666.4330, 26382.00
667.5930, 26593.00
668.7530, 26817.00
669.9130, 26652.00
671.0730, 26807.00
672.2320, 26731.00
673.3920, 27171.00
674.5510, 27043.00
675.7100, 27187.00
676.8690, 26889.00
678.0280, 27000.00
679.1860, 27394.00
680.3450, 27050.00
681.5030, 26985.00
682.6610, 27224.00
683.8190, 27122.00
684.9770, 27039.00
686.1340, 26898.00
687.2920, 26794.00
688.4490, 26870.00
689.6060, 26706.00
690.7630, 26608.00
691.9200, 26566.00
693.0760, 26415.19
694.2330, 26458.00
695.3890, 26282.00
696.5450, 26207.00
697.7010, 26350.00
698.8570, 26224.00
700.0130, 26323.00
701.1680, 26183.00
702.3230, 26323.00
703.4780, 26265.00
704.6330, 26441.00
705.7880, 26309.00
706.9430, 26608.00
708.0970, 26413.00
709.2520, 26435.00
710.4060, 26610.00
711.5600, 26678.00
712.7140, 26577.00
713.8670, 26660.00
715.0210, 26783.00
716.1740, 26880.00
717.3270, 26827.00
718.4800, 26894.86
719.6330, 27027.00
720.7860, 26917.00
721.9380, 27078.00
723.0910, 27150.00
724.2430, 27208.00
725.3950, 27231.00
726.5470, 27094.00
727.6980, 27088.00
728.8500, 27298.00
730.0010, 27122.08
731.1530, 27216.00
732.3040, 27083.00
733.4550, 27129.00
734.6050, 27352.00
735.7560, 27254.00
736.9060, 27413.00
738.0560, 27208.00
739.2060, 27460.00
740.3560, 27467.00
741.5060, 27430.00
742.6560, 27371.00
743.8050, 27048.00
744.9540, 27363.00
746.1030, 27551.00
747.2520, 28006.00
748.4010, 27288.00
749.5500, 27375.00
750.6980, 27219.00
751.8460, 27396.00
752.9950, 27238.00
754.1420, 27273.00
755.2900, 27229.00
756.4380, 27273.49
757.5850, 27319.00
758.7330, 27421.00
759.8800, 27471.00
761.0270, 27512.00
762.1730, 27502.00
763.3200, 27457.00
764.4670, 27510.00
765.6130, 27586.00
766.7590, 27744.00
767.9050, 27695.00
769.0510, 27876.00
770.1960, 27671.00
771.3420, 27644.00
772.4870, 27805.00
773.6320, 28133.00
774.7770, 27912.00
775.9220, 28257.00
777.0670, 28277.00
778.2110, 28488.00
779.3560, 28499.00
780.5000, 28709.00
781.6440, 28709.23
782.7880, 28606.00
783.9320, 28745.00
785.0750, 28841.00
786.2180, 28918.00
787.3620, 28872.00
788.5050, 28951.09
789.6480, 28816.00
790.7900, 28952.00
791.9330, 28843.00
793.0750, 28716.00
794.2170, 28635.00
795.3590, 28689.00
796.5010, 28749.00
797.6430, 28944.00
798.7850, 28886.88
799.9260, 28957.00
801.0670, 28753.94
802.2080, 28765.00
803.3490, 28502.00
804.4900, 28644.00
805.6310, 28344.00
806.7710, 28683.00
807.9110, 28697.00
809.0510, 28172.00
810.1910, 28028.00
811.3310, 28060.00
812.4710, 28078.00
813.6100, 28174.00
814.7490, 28123.00
815.8880, 28078.54
817.0270, 27742.00
818.1660, 27915.00
819.3050, 27906.00
820.4430, 27869.00
821.5820, 28029.00
822.7200, 27971.00
823.8580, 27860.00
824.9950, 27877.00
826.1330, 27854.00
827.2710, 27856.00
828.4080, 27886.89
829.5450, 28134.00
830.6820, 27984.00
831.8190, 28131.00
832.9560, 28253.00
834.0920, 27991.00
835.2280, 28132.00
836.3650, 28261.00
837.5010, 28121.00
838.6360, 28051.00
839.7720, 28252.00
840.9080, 28248.00
842.0430, 28422.00
843.1780, 28324.00
844.3130, 28493.00
845.4480, 28424.00
846.5830, 28282.00
847.7170, 28607.00
848.8520, 28585.00
849.9860, 28509.00
851.1200, 28641.00
852.2540, 28629.00
853.3870, 28740.00
854.5210, 28561.00
855.6540, 28749.00
856.7880, 29041.00
857.9210, 28693.00
859.0540, 28825.00
860.1860, 28897.00
861.3190, 28842.00
862.4510, 28889.00
863.5840, 29054.00
864.7160, 28938.00
865.8480, 29170.00
866.9790, 28889.00
868.1110, 29108.00
869.2420, 29439.00
870.3740, 29368.00
871.5050, 29532.04
872.6360, 29350.00
873.7660, 29517.00
874.8970, 29508.00
876.0280, 29330.00
877.1580, 29283.00
878.2880, 29661.00
879.4180, 29456.00
880.5480, 29591.00
881.6770, 29701.00
882.8070, 29506.00
883.9360, 29614.00
885.0650, 29705.00
886.1940, 29698.00
887.3230, 29787.00
888.4520, 29857.00
889.5800, 29840.28
890.7090, 29916.00
891.8370, 29894.00
892.9650, 29998.00
894.0930, 30171.00
895.2200, 30162.00
896.3480, 30356.00
897.4750, 30336.00
898.6020, 30476.00
899.7290, 30356.00
900.8560, 30772.00
901.9830, 30523.00
903.1090, 30644.00
904.2360, 30577.00
905.3620, 30951.00
906.4880, 30936.00
907.6140, 31028.00
908.7400, 31001.00
909.8650, 30959.00
910.9900, 31046.00
912.1160, 31320.00
913.2410, 31381.00
914.3660, 31451.00
915.4900, 31667.00
916.6150, 31510.00
917.7390, 31923.00
918.8640, 31723.00
919.9880, 31745.00
921.1120, 32066.00
922.2350, 32112.00
923.3590, 32313.00
924.4820, 32029.00
925.6060, 32346.00
926.7290, 32161.00
927.8520, 32388.00
928.9740, 32774.00
930.0970, 32857.00
931.2190, 32724.00
932.3420, 32751.00
933.4640, 32837.00
934.5860, 33062.00
935.7080, 33082.00
936.8290, 33241.00
937.9510, 33352.00
939.0720, 33393.00
940.1930, 33552.00
941.3140, 33651.00
942.4350, 33876.00
943.5560, 33872.00
944.6760, 34259.00
945.7960, 34304.00
946.9170, 34575.00
948.0370, 34909.00
949.1560, 34692.00
950.2760, 35012.00
951.3960, 35130.00
952.5150, 35210.00
953.6340, 35416.00
954.7530, 35528.55
955.8720, 35948.00
956.9910, 35790.00
958.1090, 36315.00
959.2280, 36392.00
960.3460, 36481.00
961.4640, 36405.00
962.5820, 36558.00
963.6990, 36651.48
964.8170, 36698.85
965.9340, 36961.00
967.0510, 36965.00
968.1690, 37151.00
969.2850, 37484.00
970.4020, 37584.00
971.5190, 37683.00
972.6350, 38036.00
973.7510, 38326.00
974.8670, 37720.00
975.9830, 37894.00
977.0990, 37908.00
978.2150, 38195.00
979.3300, 38176.00
980.4450, 37981.00
981.5600, 38131.00
982.6750, 38161.00
983.7900, 38307.00
984.9050, 38244.00
986.0190, 38522.00
987.1340, 38495.00
988.2480, 38531.00
989.3620, 38772.00
990.4750, 38411.00
991.5890, 38838.00
992.7020, 38669.00
993.8160, 38564.00
994.9290, 38922.00
996.0420, 39124.00
997.1550, 39104.00
998.2670, 39328.00
999.3800, 39230.00
1000.492, 39423.00
1001.604, 39419.00
1002.716, 39265.00
1003.828, 39579.00
1004.940, 39814.00
1006.051, 39809.00
1007.163, 39853.00
1008.274, 39757.00
1009.385, 39888.95
1010.496, 39782.00
1011.606, 40020.00
1012.717, 40172.00
1013.827, 40061.00
1014.937, 39964.00
1016.047, 39984.00
1017.157, 40020.00
1018.267, 40593.00
1019.377, 40416.00
1020.486, 40675.00
1021.595, 40312.00
1022.704, 40528.00
1023.813, 40822.00
1024.922, 40676.00
1026.030, 41030.00
1027.139, 40927.00
1028.247, 41180.00
1029.355, 40952.00
1030.463, 41297.00
1031.571, 41380.00
1032.678, 41224.00
1033.786, 41655.00
1034.893, 41541.00
1036.000, 41755.00
1037.107, 41904.00
1038.214, 42005.00
1039.321, 42149.00
1040.427, 42033.00
1041.533, 42244.00
1042.639, 42369.00
1043.745, 42352.00
1044.851, 42674.00
1045.957, 42571.00
1047.062, 42881.00
1048.168, 42984.00
1049.273, 43120.00
1050.378, 42974.38
1051.482, 43329.05
1052.587, 43554.36
1053.692, 43657.11
1054.796, 43275.32
1055.900, 43515.23
1057.004, 43503.58
1058.108, 43479.97
1059.212, 43802.47
1060.315, 43482.29
1061.418, 43795.80
1062.522, 43854.00
1063.625, 44026.54
1064.728, 43945.98
1065.830, 43941.33
1066.933, 44186.45
1068.035, 44290.60
1069.137, 44174.24
1070.239, 44343.87
1071.341, 43997.77
1072.443, 44101.02
1073.545, 44397.17
1074.646, 44284.89
1075.747, 44450.54
1076.848, 43786.00
1077.949, 43995.00
1079.050, 44333.00
1080.150, 43838.00
1081.251, 44058.00
1082.351, 43913.23
1083.451, 44098.00
1084.551, 43786.00
1085.651, 43708.00
1086.750, 43861.00
1087.850, 44108.00
1088.949, 44040.00
1090.048, 44029.61
1091.147, 43844.00
1092.246, 43851.00
1093.345, 43851.00
1094.443, 43939.00
1095.541, 43984.00
1096.639, 44163.00
1097.737, 44174.00
1098.835, 44203.00
1099.933, 43920.00
1101.030, 44048.00
1102.128, 44007.00
1103.225, 44199.00
1104.322, 44267.00
1105.419, 44237.00
1106.515, 44073.00
1107.612, 44377.00
1108.708, 44180.00
1109.804, 44074.00
1110.900, 44269.00
1111.996, 44267.00
1113.092, 44259.00
1114.187, 44010.00
1115.283, 44115.00
1116.378, 44011.00
1117.473, 44088.00
1118.568, 43706.00
1119.662, 43868.00
1120.757, 43715.00
1121.851, 44081.00
1122.946, 43963.00
1124.040, 43534.00
1125.134, 43468.00
1126.227, 43721.00
1127.321, 43448.00
1128.414, 43754.00
1129.508, 43244.00
1130.601, 43363.00
1131.693, 43170.00
1132.786, 43120.00
1133.879, 43314.00
1134.971, 42882.00
1136.064, 43277.00
1137.156, 42962.00
1138.248, 43106.00
1139.339, 42872.00
1140.431, 42717.00
1141.522, 42673.00
1142.614, 42823.00
1143.705, 42496.00
1144.796, 42450.00
1145.887, 42539.00
1146.977, 42380.00
1148.068, 42388.00
1149.158, 42250.00
1150.248, 42245.00
1151.338, 42107.77
1152.428, 41982.00
1153.518, 41847.00
1154.607, 41887.00
1155.696, 41798.00
1156.785, 41765.00
1157.874, 41682.89
1158.963, 41816.00
1160.052, 41325.49
1161.141, 41546.84
1162.229, 41640.54
1163.317, 41613.41
1164.405, 41103.50
1165.493, 41217.00
1166.581, 41080.66
1167.668, 40934.15
1168.756, 41135.39
1169.843, 40695.77
1170.930, 40891.55
1172.017, 40833.70
1173.103, 40638.55
1174.190, 40916.34
1175.276, 41066.44
1176.363, 41095.68
1177.449, 40642.17
1178.535, 40812.06
1179.620, 40732.13
1180.706, 40641.94
1181.791, 40899.59
1182.877, 40516.29
1183.962, 40768.42
1185.047, 40766.91
1186.131, 41203.00
1187.216, 40830.00
1188.300, 40955.07
1189.385, 41103.00
1190.469, 40918.00
1191.553, 40925.00
1192.637, 40844.00
1193.720, 40759.00
1194.804, 40932.00
1195.887, 40997.00
1196.970, 40974.41
1198.053, 41285.64
1199.136, 41469.17
1200.219, 41531.85
1201.301, 41111.75
1202.383, 41315.04
1203.465, 41268.50
1204.547, 41211.72
1205.629, 41502.75
1206.711, 41152.86
1207.792, 41438.36
1208.874, 41470.24
1209.955, 41618.18
1211.036, 41514.75
1212.117, 41369.00
1213.198, 41709.00
1214.278, 41586.00
1215.359, 41588.00
1216.439, 41557.00
1217.519, 41644.34
1218.599, 41775.00
1219.678, 41861.00
1220.758, 41755.00
1221.837, 41761.00
1222.917, 41802.93
1223.996, 42081.00
1225.075, 41962.00
1226.153, 41895.00
1227.232, 42143.00
1228.310, 41935.00
1229.389, 41961.00
1230.467, 42172.00
1231.545, 42096.00
1232.622, 42148.00
1233.700, 42186.00
1234.777, 42027.00
1235.855, 42371.00
1236.932, 42349.00
1238.009, 42365.00
1239.086, 42724.00
1240.162, 42259.00
1241.239, 42634.00
1242.315, 42636.00
1243.391, 42573.00
1244.467, 42538.00
1245.543, 42634.00
1246.619, 42695.00
1247.694, 42718.25
1248.769, 42715.00
1249.844, 42779.00
1250.919, 42768.00
1251.994, 42732.00
1253.069, 42615.00
1254.144, 42885.00
1255.218, 43080.00
1256.292, 43170.00
1257.366, 43030.00
1258.440, 42892.00
1259.514, 43241.00
