##NAMES=Leucite
##RRUFFID=R060300
##IDEAL CHEMISTRY=K(Si_2_Al)O_6_
##LOCALITY=Alban Hills, Rome Province, Latium, Italy
##OWNER=RRUFF
##SOURCE=Herb Obodda
##DESCRIPTION=Colorless complete pseudocubic crystal showing trapezohedral faces
##STATUS=The identification of this mineral has been confirmed by X-ray diffraction and chemical analysis
##URL=rruff.info/R060300
##MEASURED CHEMISTRY=(K_0.98_Na_0.02_)_Î£=1_Al_1.00_Si_2.00_O_6_
##PIN_ID=M00574
##ORIENTATION=Laser parallel to -c* (0 0 -1). Fiducial mark perpendicular to laser is parallel to a [1 0 0]
87.63200, 11498.00
88.87300, 11633.00
90.11400, 11860.00
91.35400, 12097.00
92.59500, 12156.00
93.83500, 12216.00
95.07500, 12370.00
96.31500, 12193.00
97.55400, 12285.00
98.79400, 12279.00
100.0330, 12345.00
101.2720, 12204.00
102.5110, 12135.00
103.7500, 12037.00
104.9890, 12090.00
106.2270, 12223.00
107.4650, 12164.00
108.7040, 12030.00
109.9420, 12252.00
111.1790, 12298.00
112.4170, 12684.00
113.6540, 12796.00
114.8920, 13217.00
116.1290, 13080.00
117.3650, 13529.00
118.6020, 13370.00
119.8390, 13164.00
121.0750, 13047.00
122.3110, 12951.00
123.5470, 12746.00
124.7830, 12607.00
126.0190, 12396.00
127.2540, 12357.00
128.4900, 12575.00
129.7250, 12625.00
130.9600, 12992.00
132.1950, 13099.00
133.4290, 13393.00
134.6640, 13752.00
135.8980, 14116.00
137.1320, 14499.00
138.3660, 14798.00
139.6000, 14998.00
140.8340, 15419.00
142.0670, 15728.00
143.3000, 15909.00
144.5330, 16395.00
145.7660, 16576.00
146.9990, 17095.00
148.2320, 17431.00
149.4640, 17722.00
150.6960, 17947.00
151.9280, 18197.00
153.1600, 18347.00
154.3920, 18316.00
155.6230, 18444.00
156.8550, 18318.00
158.0860, 18158.00
159.3170, 17942.00
160.5480, 17654.00
161.7780, 17421.00
163.0090, 17195.00
164.2390, 16694.00
165.4690, 16444.00
166.6990, 16131.00
167.9290, 15836.00
169.1590, 15553.00
170.3880, 15670.00
171.6180, 15526.00
172.8470, 15586.00
174.0760, 16031.00
175.3040, 16145.00
176.5330, 16673.00
177.7610, 16865.00
178.9900, 17185.00
180.2180, 17266.00
181.4460, 17356.94
182.6730, 17475.00
183.9010, 17252.00
185.1280, 17013.00
186.3560, 16645.00
187.5830, 16353.00
188.8100, 16042.00
190.0360, 15619.82
191.2630, 15205.00
192.4890, 14801.00
193.7150, 14494.00
194.9410, 14141.00
196.1670, 13875.00
197.3930, 13684.00
198.6180, 13440.00
199.8440, 13269.00
201.0690, 13151.00
202.2940, 13201.00
203.5190, 13056.00
204.7430, 12924.00
205.9680, 12963.00
207.1920, 12869.00
208.4160, 13051.00
209.6400, 12984.00
210.8640, 12995.00
212.0880, 13010.00
213.3110, 13113.00
214.5340, 13016.00
215.7570, 12993.00
216.9800, 12756.00
218.2030, 12711.00
219.4260, 12553.00
220.6480, 12322.00
221.8700, 12099.00
223.0920, 11937.00
224.3140, 11761.00
225.5360, 11616.00
226.7580, 11522.00
227.9790, 11267.00
229.2000, 11201.00
230.4210, 11011.00
231.6420, 10856.00
232.8630, 10642.00
234.0830, 10762.00
235.3040, 10582.00
236.5240, 10568.00
237.7440, 10625.00
238.9640, 10524.00
240.1830, 10422.00
241.4030, 10341.00
242.6220, 10315.00
243.8410, 10271.02
245.0600, 10238.00
246.2790, 10271.00
247.4980, 10282.00
248.7160, 10335.00
249.9340, 10340.00
251.1530, 10329.00
252.3710, 10367.00
253.5880, 10229.00
254.8060, 10472.00
256.0230, 10327.00
257.2410, 10385.00
258.4580, 10431.00
259.6750, 10229.00
260.8910, 10449.00
262.1080, 10304.00
263.3240, 10542.00
264.5410, 10639.00
265.7570, 10563.00
266.9730, 10587.00
268.1880, 10577.00
269.4040, 10598.00
270.6190, 10507.00
271.8350, 10543.00
273.0500, 10523.00
274.2650, 10666.00
275.4790, 10572.00
276.6940, 10569.00
277.9080, 10714.00
279.1220, 10735.00
280.3360, 10768.00
281.5500, 10735.00
282.7640, 10803.00
283.9770, 10808.00
285.1910, 10905.00
286.4040, 11061.00
287.6170, 11099.00
288.8300, 11017.00
290.0420, 11484.00
291.2550, 11441.00
292.4670, 11790.00
293.6790, 11929.00
294.8910, 12049.00
296.1030, 12247.00
297.3150, 12356.00
298.5260, 12535.00
299.7380, 12709.00
300.9490, 12808.00
302.1600, 12780.00
303.3710, 12847.00
304.5810, 12762.00
305.7920, 12746.00
307.0020, 12571.00
308.2120, 12432.00
309.4220, 12392.00
310.6320, 12429.00
311.8410, 12300.00
313.0510, 12274.00
314.2600, 12163.00
315.4690, 12120.00
316.6780, 11964.00
317.8870, 12017.00
319.0950, 12067.00
320.3040, 11882.00
321.5120, 11885.00
322.7200, 11978.00
323.9280, 12049.00
325.1360, 12092.00
326.3430, 12092.00
327.5510, 12166.00
328.7580, 12188.00
329.9650, 12305.00
331.1720, 12371.00
332.3790, 12510.00
333.5850, 12608.00
334.7910, 12610.00
335.9980, 12683.00
337.2040, 12695.00
338.4100, 12838.00
339.6150, 12582.00
340.8210, 12590.00
342.0260, 12595.00
343.2310, 12415.00
344.4360, 12487.00
345.6410, 12342.00
346.8460, 12316.00
348.0500, 12145.00
349.2550, 12061.00
350.4590, 11981.00
351.6630, 11926.00
352.8670, 11936.00
354.0700, 11800.00
355.2740, 11836.00
356.4770, 11787.00
357.6800, 11928.00
358.8830, 11868.00
360.0860, 12035.00
361.2890, 12152.00
362.4910, 11917.00
363.6930, 11954.00
364.8960, 12094.00
366.0980, 12096.00
367.2990, 11973.00
368.5010, 12148.00
369.7020, 12183.00
370.9040, 12204.00
372.1050, 12430.00
373.3060, 12286.00
374.5070, 12386.00
375.7070, 12374.00
376.9080, 12316.00
378.1080, 12473.00
379.3080, 12412.00
380.5080, 12616.00
381.7080, 12625.00
382.9070, 12564.00
384.1070, 12532.00
385.3060, 12600.00
386.5050, 12705.00
387.7040, 12697.00
388.9030, 12741.00
390.1010, 12754.00
391.3000, 12803.00
392.4980, 12845.00
393.6960, 12692.00
394.8940, 12656.00
396.0920, 12738.00
397.2890, 12677.00
398.4870, 12481.00
399.6840, 12482.00
400.8810, 12394.00
402.0780, 12373.00
403.2750, 12226.00
404.4710, 12292.00
405.6680, 12275.00
406.8640, 12179.00
408.0600, 12178.00
409.2560, 12093.00
410.4520, 12249.00
411.6470, 12237.00
412.8430, 12216.00
414.0380, 12160.00
415.2330, 12308.00
416.4280, 12486.00
417.6220, 12054.00
418.8170, 12374.00
420.0110, 12590.00
421.2050, 12414.00
422.4000, 12809.00
423.5930, 12683.00
424.7870, 12784.00
425.9810, 12897.00
427.1740, 12959.00
428.3670, 13021.00
429.5600, 13072.00
430.7530, 13126.62
431.9460, 13167.00
433.1380, 13213.00
434.3310, 13172.00
435.5230, 13180.00
436.7150, 13007.00
437.9070, 12936.69
439.0980, 12860.00
440.2900, 12722.00
441.4810, 12741.00
442.6720, 12747.00
443.8630, 12710.51
445.0540, 12688.00
446.2450, 12736.00
447.4350, 12870.00
448.6260, 12931.13
449.8160, 12731.00
451.0060, 12991.00
452.1960, 13069.00
453.3850, 13001.00
454.5750, 13282.00
455.7640, 13413.00
456.9530, 13529.00
458.1420, 13637.00
459.3310, 13782.00
460.5200, 14002.00
461.7080, 14285.00
462.8970, 14415.00
464.0850, 14779.00
465.2730, 15023.00
466.4610, 15302.00
467.6480, 15901.00
468.8360, 16370.00
470.0230, 17184.00
471.2100, 17717.00
472.3970, 18767.00
473.5840, 19766.00
474.7710, 21226.00
475.9570, 22616.00
477.1440, 24499.00
478.3300, 26265.00
479.5160, 27727.00
480.7020, 30051.00
481.8870, 31551.00
483.0730, 33574.00
484.2580, 35298.00
485.4430, 36490.00
486.6280, 38293.00
487.8130, 39696.00
488.9980, 41198.00
490.1820, 43125.00
491.3660, 45443.00
492.5510, 47161.00
493.7350, 49198.00
494.9180, 50491.00
496.1020, 51542.00
497.2860, 50708.00
498.4690, 49711.00
499.6520, 48745.00
500.8350, 47137.00
502.0180, 46058.00
503.2000, 44966.00
504.3830, 44336.00
505.5650, 44205.00
506.7470, 43180.00
507.9290, 42881.00
509.1110, 41594.00
510.2930, 40289.00
511.4740, 38458.00
512.6560, 36579.00
513.8370, 35292.00
515.0180, 33820.00
516.1980, 33027.00
517.3790, 32491.00
518.5600, 32465.00
519.7400, 32336.00
520.9200, 33038.00
522.1000, 34066.00
523.2800, 35058.00
524.4590, 38053.00
525.6390, 38620.00
526.8180, 39310.00
527.9970, 40349.00
529.1760, 40356.00
530.3550, 39640.00
531.5340, 38448.00
532.7120, 36434.00
533.8910, 33731.00
535.0690, 31382.00
536.2470, 28838.00
537.4250, 26675.00
538.6020, 24632.00
539.7800, 23018.00
540.9570, 21504.00
542.1340, 20658.00
543.3110, 19831.00
544.4880, 19100.00
545.6650, 18567.00
546.8410, 17800.00
548.0170, 17315.00
549.1940, 17135.00
550.3690, 16753.00
551.5450, 16571.00
552.7210, 16228.00
553.8960, 16041.00
555.0720, 15857.00
556.2470, 15565.00
557.4220, 15501.00
558.5970, 15084.00
559.7710, 15147.00
560.9460, 15019.00
562.1200, 14938.00
563.2940, 14672.00
564.4680, 14705.00
565.6420, 14472.00
566.8160, 14627.00
567.9890, 14358.00
569.1630, 14277.00
570.3360, 14145.00
571.5090, 14023.80
572.6820, 14155.00
573.8540, 13915.00
575.0270, 13964.00
576.1990, 14041.00
577.3710, 13869.00
578.5430, 13856.00
579.7150, 14030.00
580.8870, 13755.00
582.0580, 13949.00
583.2300, 13878.00
584.4010, 14008.00
585.5720, 13906.00
586.7430, 14118.00
587.9130, 13935.00
589.0840, 13899.00
590.2540, 13902.00
591.4240, 13977.00
592.5940, 13978.00
593.7640, 14053.00
594.9340, 13990.00
596.1030, 13914.00
597.2730, 13954.10
598.4420, 14032.00
599.6110, 13969.00
600.7800, 13908.00
601.9490, 13932.00
603.1170, 14085.00
604.2850, 13934.00
605.4540, 13979.00
606.6220, 13964.00
607.7900, 13854.00
608.9570, 13979.00
610.1250, 13989.00
611.2920, 14043.00
612.4590, 14018.00
613.6260, 13921.00
614.7930, 14078.00
615.9600, 14019.00
617.1270, 13988.00
618.2930, 14190.00
619.4590, 14170.00
620.6250, 14073.00
621.7910, 14340.00
622.9570, 14311.00
624.1220, 14276.00
625.2880, 14320.00
626.4530, 14310.00
627.6180, 14459.00
628.7830, 14216.00
629.9480, 14397.00
631.1120, 14128.00
632.2770, 14223.00
633.4410, 14293.00
634.6050, 14277.00
635.7690, 14254.00
636.9330, 14232.00
638.0960, 14091.00
639.2600, 14205.00
640.4230, 14132.00
641.5860, 14267.00
642.7490, 14293.00
643.9120, 14350.00
645.0740, 14147.00
646.2370, 14313.00
647.3990, 14169.00
648.5610, 14264.00
649.7230, 14282.00
650.8850, 14412.00
652.0460, 14316.00
653.2080, 14332.00
654.3690, 14338.00
655.5300, 14415.00
656.6910, 14483.00
657.8520, 14384.00
659.0130, 14420.00
660.1730, 14415.00
661.3330, 14388.00
662.4930, 14345.00
663.6530, 14429.00
664.8130, 14369.00
665.9730, 14625.00
667.1320, 14567.00
668.2920, 14556.00
669.4510, 14626.00
670.6100, 14564.00
671.7680, 14754.00
672.9270, 14596.00
674.0860, 14656.00
675.2440, 14752.00
676.4020, 14665.00
677.5600, 14788.00
678.7180, 14615.00
679.8760, 14770.00
681.0330, 14726.00
682.1900, 14845.00
683.3480, 14708.00
684.5050, 14603.00
685.6610, 14799.00
686.8180, 14636.00
687.9750, 14772.00
689.1310, 14727.00
690.2870, 14656.00
691.4430, 14655.00
692.5990, 14654.00
693.7550, 14562.00
694.9100, 14639.00
696.0660, 14519.00
697.2210, 14525.00
698.3760, 14626.00
699.5310, 14576.00
700.6860, 14652.00
701.8400, 14616.00
702.9940, 14536.00
704.1490, 14592.00
705.3030, 14672.00
706.4570, 14638.00
707.6100, 14632.00
708.7640, 14685.00
709.9170, 14688.00
711.0710, 14803.00
712.2240, 14941.00
713.3770, 14797.00
714.5290, 14945.00
715.6820, 14932.00
716.8340, 14841.00
717.9870, 14973.00
719.1390, 14883.00
720.2910, 15065.00
721.4430, 14921.00
722.5940, 15062.00
723.7460, 14873.00
724.8970, 14920.00
726.0480, 15080.00
727.1990, 15000.00
728.3500, 15136.00
729.5000, 15027.00
730.6510, 15156.00
731.8010, 15081.00
732.9510, 15231.00
734.1010, 15073.00
735.2510, 15243.00
736.4010, 15233.00
737.5500, 15226.00
738.7000, 15176.00
739.8490, 15078.00
740.9980, 15187.00
742.1470, 15165.00
743.2950, 15281.00
744.4440, 15352.00
745.5920, 15234.00
746.7400, 15185.00
747.8880, 15166.00
749.0360, 15303.00
750.1840, 15087.00
751.3310, 15212.00
752.4790, 15032.00
753.6260, 15176.00
754.7730, 15175.00
755.9200, 15238.00
757.0670, 15295.00
758.2130, 15320.00
759.3600, 15212.00
760.5060, 15164.00
761.6520, 15449.00
762.7980, 15349.00
763.9440, 15144.00
765.0890, 15456.00
766.2350, 15391.00
767.3800, 15596.00
768.5250, 15517.00
769.6700, 15477.00
770.8150, 15534.00
771.9590, 15542.71
773.1040, 15700.00
774.2480, 15646.00
775.3920, 15773.00
776.5360, 15778.00
777.6800, 15880.00
778.8240, 15845.00
779.9670, 15852.00
781.1100, 15898.00
782.2540, 15920.99
783.3970, 16049.00
784.5390, 16016.00
785.6820, 16081.00
786.8240, 16104.00
787.9670, 16061.21
789.1090, 16040.00
790.2510, 15992.00
791.3930, 15982.85
792.5350, 15944.49
793.6760, 15972.00
794.8170, 15942.00
795.9590, 15956.00
797.1000, 15956.45
798.2410, 16016.00
799.3810, 15960.00
800.5220, 15899.00
801.6620, 15897.00
802.8030, 15755.00
803.9430, 15716.00
805.0820, 15624.00
806.2220, 15716.00
807.3620, 15961.00
808.5010, 15541.00
809.6410, 15678.00
810.7800, 15740.00
811.9190, 15574.00
813.0570, 15707.00
814.1960, 15808.00
815.3340, 15807.00
816.4730, 15823.00
817.6110, 15799.00
818.7490, 15665.00
819.8870, 15609.00
821.0240, 15565.00
822.1620, 15514.00
823.2990, 15562.00
824.4360, 15733.00
825.5730, 15644.00
826.7100, 15613.00
827.8470, 15683.00
828.9830, 15627.00
830.1200, 15696.00
831.2560, 15789.00
832.3920, 15714.00
833.5280, 15770.00
834.6630, 15791.94
835.7990, 15709.00
836.9340, 15870.00
838.0700, 15792.00
839.2050, 15875.00
840.3400, 15997.00
841.4740, 16048.00
842.6090, 15848.00
843.7430, 16100.00
844.8780, 15903.00
846.0120, 16071.00
847.1460, 16086.00
848.2790, 15868.00
849.4130, 15951.00
850.5460, 16128.00
851.6800, 16109.00
852.8130, 16028.00
853.9460, 15990.00
855.0790, 16019.67
856.2110, 16211.00
857.3440, 16138.68
858.4760, 16439.81
859.6080, 16609.58
860.7400, 16655.05
861.8720, 16203.89
863.0040, 16394.01
864.1350, 16327.14
865.2670, 16249.73
866.3980, 16530.11
867.5290, 16151.19
868.6600, 16425.89
869.7900, 16439.68
870.9210, 16572.89
872.0510, 16447.51
873.1820, 16402.00
874.3120, 16615.15
875.4420, 16685.08
876.5710, 16529.93
877.7010, 16670.73
878.8300, 16579.46
879.9600, 16347.00
881.0890, 16479.00
882.2180, 16452.00
883.3460, 16397.00
884.4750, 16308.00
885.6040, 16409.00
886.7320, 16520.00
887.8600, 16444.00
888.9880, 16533.00
890.1160, 16702.00
891.2430, 16635.00
892.3710, 16567.00
893.4980, 16749.00
894.6260, 16645.00
895.7530, 16744.00
896.8790, 16712.00
898.0060, 16651.00
899.1330, 16584.00
900.2590, 16520.00
901.3850, 16710.00
902.5110, 16716.00
903.6370, 16711.00
904.7630, 16604.00
905.8890, 16817.00
907.0140, 16899.00
908.1390, 16827.00
909.2640, 16835.00
910.3890, 16958.00
911.5140, 16960.00
912.6390, 16976.00
913.7630, 17094.00
914.8870, 17041.00
916.0120, 16986.00
917.1360, 17011.00
918.2590, 17068.00
919.3830, 17197.00
920.5070, 17192.00
921.6300, 17188.00
922.7530, 17204.00
923.8760, 17431.00
924.9990, 17348.00
926.1220, 17494.00
927.2440, 17566.00
928.3670, 17313.00
929.4890, 17434.00
930.6110, 17442.00
931.7330, 17541.00
932.8540, 17679.00
933.9760, 17587.00
935.0980, 17508.00
936.2190, 17804.00
937.3400, 17660.00
938.4610, 17774.00
939.5820, 17893.00
940.7020, 17903.00
941.8230, 17961.27
942.9430, 18043.00
944.0630, 18015.00
945.1830, 18064.00
946.3030, 18158.00
947.4230, 18193.00
948.5420, 18447.00
949.6610, 18300.00
950.7810, 18587.00
951.9000, 18493.00
953.0190, 18399.00
954.1370, 18527.86
955.2560, 18443.01
956.3740, 18662.00
957.4920, 18473.00
958.6110, 18680.00
959.7280, 18782.00
960.8460, 18658.00
961.9640, 18807.00
963.0810, 18756.00
964.1990, 18755.00
965.3160, 18845.00
966.4330, 18814.00
967.5490, 18662.79
968.6660, 18989.34
969.7830, 19188.35
970.8990, 19266.63
972.0150, 18862.73
973.1310, 19081.46
974.2470, 19050.67
975.3630, 19009.65
976.4780, 19315.99
977.5930, 18982.19
978.7090, 19283.05
979.8240, 19330.55
980.9390, 19493.99
982.0530, 19406.33
983.1680, 19396.26
984.2820, 19637.29
985.3970, 19739.29
986.5110, 19622.74
987.6250, 19793.52
988.7380, 19450.88
989.8520, 19558.78
990.9660, 19861.05
992.0790, 19757.08
993.1920, 19932.42
994.3050, 20001.38
995.4180, 19586.92
996.5300, 20013.15
997.6430, 20075.83
998.7550, 19765.15
999.8680, 20162.61
1000.980, 19903.39
1002.091, 19878.53
1003.203, 20030.09
1004.315, 19997.76
1005.426, 19978.00
1006.537, 19798.00
1007.648, 19956.00
1008.759, 19940.00
1009.870, 19896.00
1010.981, 19950.00
1012.091, 19894.00
1013.201, 19843.00
1014.312, 20143.00
1015.422, 20195.00
1016.531, 20127.00
1017.641, 20264.00
1018.751, 20128.00
1019.860, 20168.00
1020.969, 19988.00
1022.078, 20247.00
1023.187, 20506.00
1024.296, 20365.00
1025.404, 20309.00
1026.513, 20250.00
1027.621, 20356.00
1028.729, 20219.00
1029.837, 20351.00
1030.945, 20554.00
1032.052, 20269.00
1033.160, 20562.00
1034.267, 20458.00
1035.374, 20616.00
1036.481, 20695.00
1037.588, 20767.00
1038.695, 20819.00
1039.801, 20777.00
1040.907, 20861.00
1042.014, 20772.00
1043.120, 20693.00
1044.225, 20873.00
1045.331, 20820.00
1046.437, 20962.00
1047.542, 21166.00
1048.647, 20958.00
1049.752, 21157.00
1050.857, 21400.00
1051.962, 21186.00
1053.067, 21283.00
1054.171, 21492.00
1055.275, 21459.00
1056.380, 21480.00
1057.484, 21439.00
1058.587, 21505.00
1059.691, 21486.20
1060.795, 21562.00
1061.898, 21496.00
1063.001, 21555.00
1064.104, 21573.00
1065.207, 21477.00
1066.310, 21366.00
1067.412, 21366.00
1068.515, 21418.00
1069.617, 21410.00
1070.719, 21352.00
1071.821, 21322.00
1072.923, 21381.00
1074.024, 21344.00
1075.126, 21401.00
1076.227, 21396.44
1077.328, 21370.00
1078.429, 21418.00
1079.530, 21469.00
1080.631, 21520.00
1081.731, 21361.00
1082.831, 21581.00
1083.932, 21558.00
1085.032, 21480.00
1086.132, 21695.00
1087.231, 21649.00
1088.331, 21707.00
1089.430, 21434.00
1090.530, 21649.00
1091.629, 21493.00
1092.728, 21402.00
1093.826, 21377.00
1094.925, 21517.00
1096.023, 21571.00
1097.122, 21618.00
1098.220, 21455.00
1099.318, 21441.00
1100.416, 21679.00
1101.513, 21391.00
1102.611, 21543.00
1103.708, 21625.00
1104.806, 21646.00
1105.903, 21748.00
1107.000, 21511.00
1108.096, 21779.00
1109.193, 21534.00
1110.289, 21595.00
1111.386, 21577.00
1112.482, 21424.00
1113.578, 21498.00
1114.673, 21587.00
1115.769, 21516.00
1116.865, 21453.00
1117.960, 21426.00
1119.055, 21338.00
1120.150, 21351.60
1121.245, 21334.00
1122.340, 21358.00
1123.434, 21356.00
1124.529, 21337.00
1125.623, 21361.22
1126.717, 21235.00
1127.811, 21314.00
1128.905, 21311.00
1129.998, 21131.00
1131.092, 21070.00
1132.185, 21258.00
1133.278, 21285.00
1134.371, 21169.00
1135.464, 21193.00
1136.557, 21118.00
1137.649, 21149.00
1138.742, 21174.00
1139.834, 21162.00
1140.926, 21325.00
1142.018, 21027.00
1143.109, 21192.00
1144.201, 21264.00
1145.292, 21091.00
1146.384, 21070.00
1147.475, 20958.00
1148.566, 20957.00
1149.657, 20970.00
1150.747, 21048.00
1151.838, 20915.00
1152.928, 21003.00
1154.018, 20907.00
1155.108, 20895.56
1156.198, 20922.00
1157.288, 20872.00
1158.377, 20762.00
1159.467, 20771.00
1160.556, 20745.00
1161.645, 20707.00
1162.734, 20754.00
1163.823, 20724.39
1164.911, 20773.00
1166.000, 20719.00
1167.088, 20796.00
1168.176, 20793.00
1169.264, 20836.00
1170.352, 20740.00
1171.440, 20795.00
1172.527, 20719.00
1173.615, 20630.00
1174.702, 20721.00
1175.789, 20608.00
1176.876, 20611.00
1177.963, 20665.00
1179.049, 20486.00
1180.136, 20862.00
1181.222, 20728.00
1182.308, 20736.00
1183.394, 20675.00
1184.480, 20736.00
1185.566, 20788.00
1186.651, 20817.00
1187.736, 20779.00
1188.822, 20759.00
1189.907, 20784.00
1190.992, 20771.00
1192.076, 20658.00
1193.161, 20904.00
1194.245, 20671.00
1195.330, 20894.00
1196.414, 20835.00
1197.498, 20940.00
1198.581, 20833.00
1199.665, 20612.00
1200.749, 20973.00
1201.832, 20718.00
1202.915, 20978.00
1203.998, 21048.00
1205.081, 21057.00
1206.164, 21099.98
1207.246, 21069.92
1208.329, 20995.00
1209.411, 20982.00
1210.493, 20906.00
1211.575, 20854.00
1212.657, 21035.00
1213.738, 21061.00
1214.820, 20956.00
1215.901, 20812.00
1216.982, 21015.00
1218.063, 21008.00
1219.144, 21268.00
1220.225, 21190.00
1221.305, 21172.00
1222.386, 21121.00
1223.466, 21147.00
1224.546, 21263.00
1225.626, 21003.00
1226.706, 21328.00
1227.785, 21135.00
1228.865, 21414.00
1229.944, 21355.00
1231.023, 21411.00
1232.102, 21448.00
1233.181, 21373.00
1234.260, 21291.00
1235.338, 21386.00
1236.417, 21529.00
1237.495, 21368.00
1238.573, 21300.00
1239.651, 21433.00
1240.729, 21620.00
1241.806, 21391.00
1242.884, 21450.00
1243.961, 21453.00
1245.038, 21408.72
1246.115, 21534.00
1247.192, 21467.00
1248.269, 21578.00
1249.345, 21663.00
1250.421, 21713.00
1251.498, 21620.00
1252.574, 21606.00
1253.650, 21675.00
1254.725, 21628.00
1255.801, 21717.00
1256.876, 21725.00
1257.952, 21802.00
1259.027, 22018.00
1260.102, 21996.85
1261.177, 21924.79
1262.251, 22180.00
1263.326, 21644.00
1264.400, 21904.00
1265.474, 21839.00
1266.548, 22024.00
1267.622, 22047.00
1268.696, 21909.00
