##NAMES=Leucite
##RRUFFID=R040107
##IDEAL CHEMISTRY=K(Si_2_Al)O_6_
##LOCALITY=Roccamonfina, Italy
##OWNER=RRUFF
##SOURCE=University of Arizona Mineral Museum
##DESCRIPTION=Rounded colorless crystals embedded in an ash matrix
##STATUS=The identification of this mineral has been confirmed by X-ray diffraction and chemical analysis
##URL=rruff.info/R040107
##MEASURED CHEMISTRY=(K_0.95_Na_0.03_)Al_0.99_Si_2.01_O_6_
##PIN_ID=L01573
##ORIENTATION=Laser parallel to -c* (0 0 -1). Fiducial mark perpendicular to laser is parallel to -a [-1 0 0]
90.67800, 22774.00
91.91600, 23409.00
93.15500, 24059.00
94.39300, 24606.00
95.63100, 25145.00
96.86900, 25140.00
98.10600, 25287.00
99.34400, 25292.00
100.5810, 25323.00
101.8190, 25149.00
103.0560, 25163.21
104.2930, 25032.00
105.5290, 25132.00
106.7660, 25189.00
108.0020, 25352.00
109.2390, 25190.00
110.4750, 25132.00
111.7110, 25428.00
112.9460, 25834.00
114.1820, 26201.00
115.4170, 26525.00
116.6530, 27423.00
117.8880, 27856.00
119.1230, 27922.00
120.3580, 28517.00
121.5920, 31752.00
122.8270, 34757.00
124.0610, 36403.00
125.2950, 34337.00
126.5290, 29896.00
127.7630, 26882.00
128.9970, 26027.00
130.2300, 25751.00
131.4640, 26316.00
132.6970, 27336.00
133.9300, 27711.00
135.1630, 27589.00
136.3950, 28099.00
137.6280, 29001.00
138.8600, 29927.00
140.0920, 30400.00
141.3240, 31026.00
142.5560, 31523.00
143.7880, 32279.29
145.0190, 33338.00
146.2510, 33819.00
147.4820, 34615.00
148.7130, 35360.00
149.9440, 35848.00
151.1750, 36558.00
152.4050, 36671.00
153.6360, 37399.00
154.8660, 37240.00
156.0960, 37336.00
157.3260, 36709.00
158.5560, 36706.00
159.7850, 36190.00
161.0150, 35923.00
162.2440, 35088.00
163.4730, 34530.00
164.7020, 34137.00
165.9310, 33341.00
167.1590, 32937.00
168.3880, 32011.00
169.6160, 31782.00
170.8440, 31276.00
172.0720, 31199.00
173.3000, 31195.00
174.5280, 31485.00
175.7550, 31838.00
176.9820, 32511.00
178.2100, 32914.00
179.4370, 33983.00
180.6630, 33679.00
181.8900, 33729.00
183.1170, 33906.00
184.3430, 33121.00
185.5690, 33040.00
186.7950, 31977.00
188.0210, 31415.00
189.2470, 30434.00
190.4720, 30012.00
191.6970, 28952.00
192.9230, 28347.00
194.1480, 27781.00
195.3730, 27167.00
196.5970, 26687.00
197.8220, 26206.00
199.0460, 25954.00
200.2700, 25516.00
201.4940, 25353.00
202.7180, 25147.00
203.9420, 25294.00
205.1660, 24930.00
206.3890, 25266.00
207.6120, 25149.00
208.8350, 25213.00
210.0580, 25326.00
211.2810, 25435.00
212.5040, 25429.00
213.7260, 25640.00
214.9480, 25325.00
216.1700, 25173.00
217.3920, 25065.00
218.6140, 24441.00
219.8360, 24080.00
221.0570, 23717.00
222.2790, 23250.81
223.5000, 22721.00
224.7210, 22485.00
225.9410, 22004.00
227.1620, 21655.00
228.3820, 21136.00
229.6030, 21046.00
230.8230, 20698.00
232.0430, 20397.00
233.2630, 20020.00
234.4820, 19849.00
235.7020, 19652.00
236.9210, 19370.00
238.1400, 19177.00
239.3590, 19198.00
240.5780, 19042.00
241.7970, 18983.40
243.0150, 18918.00
244.2340, 18839.00
245.4520, 18780.00
246.6700, 18668.00
247.8880, 18604.00
249.1060, 18604.00
250.3230, 18755.00
251.5400, 18603.33
252.7580, 18769.00
253.9750, 18547.00
255.1920, 18687.00
256.4080, 18959.00
257.6250, 18797.00
258.8410, 18828.00
260.0580, 18802.00
261.2740, 18845.00
262.4900, 18850.88
263.7050, 18870.00
264.9210, 18920.00
266.1360, 19018.00
267.3520, 19137.00
268.5670, 18902.00
269.7820, 19033.00
270.9960, 19035.00
272.2110, 19272.00
273.4250, 19349.00
274.6400, 19248.00
275.8540, 19124.00
277.0680, 18934.00
278.2810, 18875.00
279.4950, 19253.00
280.7090, 19216.00
281.9220, 19094.00
283.1350, 19458.00
284.3480, 19452.00
285.5610, 19635.00
286.7730, 19799.00
287.9860, 19884.00
289.1980, 20188.00
290.4100, 20510.00
291.6220, 20793.00
292.8340, 21207.00
294.0460, 21586.97
295.2570, 22054.00
296.4690, 22431.00
297.6800, 22852.00
298.8910, 23249.00
300.1020, 23600.00
301.3120, 23681.00
302.5230, 23825.90
303.7330, 23826.10
304.9440, 23691.00
306.1540, 23726.00
307.3630, 23357.00
308.5730, 23395.00
309.7830, 23051.00
310.9920, 22836.00
312.2010, 22708.00
313.4100, 22711.00
314.6190, 22577.00
315.8280, 22326.00
317.0370, 22282.00
318.2450, 22060.00
319.4530, 22033.00
320.6610, 21992.00
321.8690, 22187.00
323.0770, 22148.00
324.2850, 22343.00
325.4920, 22370.00
326.6990, 22493.00
327.9060, 22647.00
329.1130, 22777.00
330.3200, 23067.00
331.5270, 23343.00
332.7330, 23577.94
333.9390, 23802.00
335.1450, 23997.00
336.3510, 24139.00
337.5570, 24052.00
338.7630, 24166.00
339.9680, 23846.00
341.1740, 23976.00
342.3790, 23641.00
343.5840, 23298.00
344.7890, 22976.00
345.9930, 22905.00
347.1980, 22515.00
348.4020, 22321.00
349.6060, 22297.00
350.8100, 22008.77
352.0140, 21882.00
353.2180, 21755.00
354.4210, 21560.00
355.6250, 21624.00
356.8280, 21576.00
358.0310, 21606.00
359.2340, 21749.00
360.4360, 21779.11
361.6390, 21882.11
362.8410, 21985.00
364.0430, 22063.00
365.2450, 22185.69
366.4470, 22264.00
367.6490, 22272.00
368.8510, 22280.00
370.0520, 22328.00
371.2530, 22359.00
372.4540, 22548.00
373.6550, 22426.00
374.8560, 22735.00
376.0560, 22724.00
377.2570, 22751.00
378.4570, 22848.00
379.6570, 22967.00
380.8570, 23026.00
382.0570, 23061.00
383.2560, 23146.00
384.4560, 23202.32
385.6550, 23289.00
386.8540, 23365.00
388.0530, 23412.00
389.2520, 23542.00
390.4510, 23550.00
391.6490, 23518.00
392.8470, 23611.00
394.0450, 23335.00
395.2430, 23369.00
396.4410, 23316.00
397.6390, 23037.00
398.8360, 22918.00
400.0340, 22793.00
401.2310, 22585.00
402.4280, 22576.00
403.6250, 22260.00
404.8210, 21999.00
406.0180, 21896.00
407.2140, 21812.00
408.4100, 21785.00
409.6060, 21709.00
410.8020, 21533.00
411.9980, 21559.73
413.1930, 21594.47
414.3890, 21552.00
415.5840, 21742.00
416.7790, 21797.00
417.9740, 21741.00
419.1680, 22097.00
420.3630, 21675.38
421.5570, 22067.81
422.7510, 22355.93
423.9450, 22545.34
425.1390, 22340.38
426.3330, 22644.66
427.5270, 22744.86
428.7200, 22836.57
429.9130, 23096.00
431.1060, 23200.00
432.2990, 23062.00
433.4920, 23168.00
434.6840, 23116.00
435.8770, 22886.00
437.0690, 22719.00
438.2610, 22509.00
439.4530, 22606.00
440.6450, 22316.00
441.8360, 22272.65
443.0280, 22379.00
444.2190, 22100.00
445.4100, 22167.00
446.6010, 22162.00
447.7920, 22379.00
448.9820, 22328.00
450.1730, 22542.00
451.3630, 22612.00
452.5530, 22900.00
453.7430, 23293.00
454.9330, 23420.00
456.1230, 23907.00
457.3120, 24195.00
458.5010, 24740.00
459.6910, 24910.00
460.8800, 25481.00
462.0680, 25784.00
463.2570, 26487.00
464.4460, 27128.00
465.6340, 27657.00
466.8220, 28788.00
468.0100, 29920.00
469.1980, 30960.00
470.3860, 32504.00
471.5730, 34322.00
472.7600, 36355.00
473.9480, 39027.00
475.1350, 41963.00
476.3210, 45066.00
477.5080, 48850.00
478.6950, 52644.00
479.8810, 56815.00
481.0670, 60946.00
482.2530, 65056.00
483.4390, 69015.00
484.6250, 73035.00
485.8100, 76460.00
486.9960, 80134.00
488.1810, 83842.00
489.3660, 87553.00
490.5510, 91841.00
491.7360, 96550.00
492.9200, 100463.0
494.1050, 104582.0
495.2890, 107678.0
496.4730, 108858.0
497.6570, 109147.0
498.8400, 106518.0
500.0240, 104588.0
501.2070, 100589.0
502.3910, 98668.00
503.5740, 95610.00
504.7570, 94067.00
505.9400, 92713.00
507.1220, 91016.00
508.3050, 89515.00
509.4870, 86591.00
510.6690, 83697.00
511.8510, 80389.00
513.0330, 76756.00
514.2140, 73480.00
515.3960, 70539.00
516.5770, 68744.00
517.7580, 67313.00
518.9390, 66445.00
520.1200, 66942.00
521.3010, 68139.00
522.4810, 69725.00
523.6610, 72403.00
524.8420, 74873.00
526.0220, 77517.00
527.2010, 80011.00
528.3810, 81462.00
529.5610, 81801.00
530.7400, 79594.00
531.9190, 76872.00
533.0980, 72515.00
534.2770, 67637.00
535.4560, 62093.00
536.6340, 56765.00
537.8120, 51842.00
538.9910, 48034.29
540.1690, 45193.00
541.3460, 41771.00
542.5240, 39238.00
543.7020, 37300.00
544.8790, 35649.00
546.0560, 34263.00
547.2330, 33132.00
548.4100, 32239.00
549.5870, 31518.00
550.7630, 30607.00
551.9400, 29961.00
553.1160, 29292.00
554.2920, 28763.00
555.4680, 28304.00
556.6440, 28023.00
557.8190, 27617.00
558.9950, 27244.00
560.1700, 26708.00
561.3450, 26499.00
562.5200, 26259.00
563.6950, 25941.00
564.8690, 25828.00
566.0440, 25410.00
567.2180, 25037.00
568.3920, 25199.00
569.5660, 24823.00
570.7400, 24654.00
571.9130, 24348.00
573.0870, 24436.00
574.2600, 24390.00
575.4330, 24151.00
576.6060, 23973.00
577.7790, 23712.00
578.9520, 23978.00
580.1240, 23752.37
581.2960, 23763.00
582.4690, 23715.00
583.6410, 23653.00
584.8120, 23784.00
585.9840, 23624.00
587.1560, 23930.00
588.3270, 23836.00
589.4980, 24192.00
590.6690, 23885.00
591.8400, 23977.00
593.0110, 23894.00
594.1810, 23853.00
595.3510, 24033.00
596.5220, 23934.00
597.6920, 23854.00
598.8610, 23926.00
600.0310, 23896.00
601.2010, 23869.75
602.3700, 23839.83
603.5390, 23804.00
604.7080, 23759.00
605.8770, 23694.00
607.0460, 23748.00
608.2140, 23754.00
609.3830, 23660.00
610.5510, 23654.00
611.7190, 23502.00
612.8870, 23766.00
614.0550, 23606.00
615.2220, 23764.00
616.3900, 23586.00
617.5570, 23918.00
618.7240, 23935.00
619.8910, 24060.00
621.0580, 24051.00
622.2240, 24031.00
623.3910, 24083.00
624.5570, 24107.00
625.7230, 24139.00
626.8890, 24076.00
628.0550, 24148.00
629.2200, 23965.00
630.3860, 24035.00
631.5510, 24029.00
632.7160, 23863.00
633.8810, 23875.00
635.0460, 23796.00
636.2100, 23892.00
637.3750, 23697.00
638.5390, 23922.00
639.7030, 23773.00
640.8670, 23722.00
642.0310, 23793.00
643.1950, 23697.00
644.3580, 23678.00
645.5210, 23830.00
646.6850, 23935.00
647.8480, 23824.00
649.0100, 23652.00
650.1730, 23803.00
651.3350, 23739.00
652.4980, 23872.00
653.6600, 23858.60
654.8220, 23841.95
655.9840, 23942.00
657.1450, 23712.00
658.3070, 23938.00
659.4680, 23719.00
660.6300, 23898.00
661.7910, 24177.00
662.9510, 24130.00
664.1120, 24018.00
665.2730, 24201.00
666.4330, 24075.00
667.5930, 24184.00
668.7530, 24106.00
669.9130, 24477.00
671.0730, 24641.00
672.2320, 24378.00
673.3920, 24318.00
674.5510, 24333.00
675.7100, 24600.00
676.8690, 24717.00
678.0280, 24650.00
679.1860, 24604.00
680.3450, 24622.00
681.5030, 24507.00
682.6610, 24504.00
683.8190, 24629.00
684.9770, 24483.00
686.1340, 24250.00
687.2920, 24376.00
688.4490, 24228.00
689.6060, 24395.00
690.7630, 24089.00
691.9200, 24121.00
693.0760, 24266.00
694.2330, 24210.00
695.3890, 24147.00
696.5450, 24072.00
697.7010, 24063.00
698.8570, 24062.00
700.0130, 23874.00
701.1680, 23801.00
702.3230, 24085.00
703.4780, 23873.00
704.6330, 24041.00
705.7880, 24207.00
706.9430, 24160.00
708.0970, 24265.00
709.2520, 24179.00
710.4060, 24178.00
711.5600, 24231.00
712.7140, 24398.00
713.8670, 24299.00
715.0210, 24486.00
716.1740, 24362.00
717.3270, 24374.00
718.4800, 24625.00
719.6330, 24617.00
720.7860, 24505.00
721.9380, 24501.00
723.0910, 24686.00
724.2430, 24723.00
725.3950, 24772.00
726.5470, 24717.00
727.6980, 24750.17
728.8500, 24762.98
730.0010, 24734.00
731.1530, 24761.00
732.3040, 24735.00
733.4550, 24643.00
734.6050, 24724.99
735.7560, 24901.00
736.9060, 24854.00
738.0560, 24869.00
739.2060, 24977.00
740.3560, 24989.00
741.5060, 24997.00
742.6560, 24698.00
743.8050, 24784.00
744.9540, 24967.00
746.1030, 24584.00
747.2520, 24786.00
748.4010, 24917.00
749.5500, 24798.00
750.6980, 24937.00
751.8460, 24729.00
752.9950, 25053.00
754.1420, 24918.00
755.2900, 24852.63
756.4380, 25109.57
757.5850, 25264.98
758.7330, 25324.48
759.8800, 24992.39
761.0270, 25172.33
762.1730, 25150.96
763.3200, 25124.03
764.4670, 25384.02
765.6130, 25123.21
766.7590, 25384.23
767.9050, 25440.85
769.0510, 25595.08
770.1960, 25423.00
771.3420, 25666.00
772.4870, 25761.00
773.6320, 25826.32
774.7770, 25677.00
775.9220, 25948.00
777.0670, 25920.00
778.2110, 25933.00
779.3560, 26242.00
780.5000, 26005.00
781.6440, 26222.00
782.7880, 26477.00
783.9320, 26344.00
785.0750, 26414.00
786.2180, 26392.00
787.3620, 26292.00
788.5050, 26315.00
789.6480, 26428.00
790.7900, 26550.00
791.9330, 26451.00
793.0750, 26176.00
794.2170, 26421.00
795.3590, 26306.00
796.5010, 26078.00
797.6430, 26106.00
798.7850, 26109.00
799.9260, 25997.00
801.0670, 25850.00
802.2080, 25936.00
803.3490, 25842.00
804.4900, 25639.00
805.6310, 25654.00
806.7710, 25324.00
807.9110, 25409.00
809.0510, 25305.00
810.1910, 25353.00
811.3310, 25271.00
812.4710, 25206.00
813.6100, 25187.00
814.7490, 25218.00
815.8880, 25136.91
817.0270, 25264.00
818.1660, 25006.00
819.3050, 25126.00
820.4430, 25031.00
821.5820, 24994.00
822.7200, 25049.00
823.8580, 24952.00
824.9950, 24971.00
826.1330, 24954.00
827.2710, 24914.00
828.4080, 24855.00
829.5450, 24888.00
830.6820, 24867.56
831.8190, 25005.00
832.9560, 24926.00
834.0920, 24994.00
835.2280, 25101.00
836.3650, 25071.00
837.5010, 25175.00
838.6360, 25030.00
839.7720, 25108.00
840.9080, 25056.00
842.0430, 25352.00
843.1780, 25331.00
844.3130, 25228.00
845.4480, 25448.00
846.5830, 25329.00
847.7170, 25576.00
848.8520, 25479.00
849.9860, 25430.00
851.1200, 25409.00
852.2540, 25537.00
853.3870, 25554.00
854.5210, 25749.00
855.6540, 25368.00
856.7880, 25731.00
857.9210, 25680.00
859.0540, 25684.00
860.1860, 25898.00
861.3190, 25772.00
862.4510, 25749.00
863.5840, 25746.00
864.7160, 25787.00
865.8480, 25652.00
866.9790, 25737.00
868.1110, 25689.71
869.2420, 25615.00
870.3740, 25627.00
871.5050, 25805.00
872.6360, 25713.00
873.7660, 25900.00
874.8970, 25823.92
876.0280, 25898.00
877.1580, 25796.00
878.2880, 25834.00
879.4180, 26029.00
880.5480, 25853.00
881.6770, 25956.00
882.8070, 25925.00
883.9360, 25900.00
885.0650, 26081.00
886.1940, 26360.00
887.3230, 26342.00
888.4520, 26250.00
889.5800, 26134.00
890.7090, 26214.00
891.8370, 26085.00
892.9650, 26306.00
894.0930, 26213.00
895.2200, 26392.00
896.3480, 26336.00
897.4750, 26383.00
898.6020, 26344.00
899.7290, 26477.00
900.8560, 26492.00
901.9830, 26649.00
903.1090, 26681.00
904.2360, 26699.87
905.3620, 26998.00
906.4880, 26702.00
907.6140, 26740.00
908.7400, 26738.00
909.8650, 27003.00
910.9900, 26787.00
912.1160, 26997.00
913.2410, 27177.00
914.3660, 27133.00
915.4900, 27389.00
916.6150, 27370.00
917.7390, 27240.66
918.8640, 27523.90
919.9880, 27702.77
921.1120, 27782.94
922.2350, 27468.70
923.3590, 27663.74
924.4820, 27654.66
925.6060, 27637.26
926.7290, 27903.93
927.8520, 27647.05
928.9740, 27909.18
930.0970, 27964.16
931.2190, 28113.92
932.3420, 28058.38
933.4640, 28066.23
934.5860, 28279.48
935.7080, 28379.00
936.8290, 28417.00
937.9510, 28437.00
939.0720, 28498.00
940.1930, 28573.00
941.3140, 28702.16
942.4350, 28675.81
943.5560, 28976.00
944.6760, 28772.00
945.7960, 28794.00
946.9170, 29113.00
948.0370, 29419.00
949.1560, 29340.00
950.2760, 29546.00
951.3960, 29954.00
952.5150, 29878.69
953.6340, 29738.00
954.7530, 30014.00
955.8720, 29879.00
956.9910, 29968.00
958.1090, 30143.00
959.2280, 30292.00
960.3460, 30064.00
961.4640, 30199.00
962.5820, 30576.00
963.6990, 30372.00
964.8170, 30594.00
965.9340, 30816.00
967.0510, 30730.00
968.1690, 30882.00
969.2850, 30851.00
970.4020, 30716.00
971.5190, 30655.00
972.6350, 30940.00
973.7510, 31013.00
974.8670, 30853.00
975.9830, 31047.00
977.0990, 30972.00
978.2150, 30926.00
979.3300, 31116.00
980.4450, 30935.00
981.5600, 31361.00
982.6750, 31192.00
983.7900, 31482.00
984.9050, 31399.00
986.0190, 31378.00
987.1340, 31642.00
988.2480, 31412.00
989.3620, 31392.00
990.4750, 31616.00
991.5890, 31599.00
992.7020, 31720.00
993.8160, 31563.00
994.9290, 31749.00
996.0420, 31868.00
997.1550, 32212.00
998.2670, 32383.87
999.3800, 32501.05
1000.492, 32757.00
1001.604, 32655.00
1002.716, 32586.00
1003.828, 32551.00
1004.940, 32495.54
1006.051, 32375.00
1007.163, 32463.00
1008.274, 32597.00
1009.385, 32654.00
1010.496, 32517.00
1011.606, 32945.00
1012.717, 32603.00
1013.827, 32757.00
1014.937, 32770.00
1016.047, 32806.00
1017.157, 32873.00
1018.267, 32730.00
1019.377, 32971.00
1020.486, 33153.00
1021.595, 32837.00
1022.704, 33222.00
1023.813, 33279.00
1024.922, 33187.00
1026.030, 33309.00
1027.139, 33378.00
1028.247, 33327.00
1029.355, 33293.00
1030.463, 33478.00
1031.571, 33599.00
1032.678, 33704.00
1033.786, 33838.57
1034.893, 33920.30
1036.000, 34029.00
1037.107, 34108.00
1038.214, 34141.47
1039.321, 34271.45
1040.427, 34147.00
1041.533, 34380.00
1042.639, 34174.00
1043.745, 34480.00
1044.851, 34332.00
1045.957, 34672.00
1047.062, 34641.00
1048.168, 34773.00
1049.273, 34875.00
1050.378, 35122.00
1051.482, 35303.00
1052.587, 35089.00
1053.692, 35265.00
1054.796, 34987.00
1055.900, 35461.00
1057.004, 35295.00
1058.108, 35379.00
1059.212, 35565.00
1060.315, 35509.00
1061.418, 35575.62
1062.522, 35547.00
1063.625, 35561.00
1064.728, 35555.65
1065.830, 35518.62
1066.933, 35509.00
1068.035, 35438.00
1069.137, 35389.00
1070.239, 35331.00
1071.341, 35428.00
1072.443, 35309.00
1073.545, 35194.00
1074.646, 35219.00
1075.747, 35018.00
1076.848, 35066.00
1077.949, 35248.00
1079.050, 34942.00
1080.150, 35086.00
1081.251, 35242.00
1082.351, 35138.00
1083.451, 35173.00
1084.551, 35197.26
1085.651, 35152.37
1086.750, 35217.00
1087.850, 35121.00
1088.949, 35142.00
1090.048, 35116.00
1091.147, 35120.00
1092.246, 35156.00
1093.345, 35045.00
1094.443, 35281.00
1095.541, 35214.00
1096.639, 35194.00
1097.737, 35113.00
1098.835, 35342.00
1099.933, 35242.00
1101.030, 35177.00
1102.128, 35323.00
1103.225, 35186.00
1104.322, 35319.00
1105.419, 35534.00
1106.515, 35172.00
1107.612, 35487.00
1108.708, 35179.00
1109.804, 35401.00
1110.900, 35257.00
1111.996, 35056.00
1113.092, 35125.00
1114.187, 35202.00
1115.283, 34998.00
1116.378, 35040.00
1117.473, 34970.00
1118.568, 34977.00
1119.662, 34928.00
1120.757, 34734.00
1121.851, 34936.00
1122.946, 34690.00
1124.040, 34871.00
1125.134, 34610.00
1126.227, 34475.00
1127.321, 34595.00
1128.414, 34351.00
1129.508, 34277.00
1130.601, 34141.00
1131.693, 34185.00
1132.786, 34009.00
1133.879, 34093.00
1134.971, 33916.00
1136.064, 34162.00
1137.156, 33722.00
1138.248, 33865.00
1139.339, 33757.00
1140.431, 33773.00
1141.522, 33622.00
1142.614, 33498.00
1143.705, 33576.00
1144.796, 33351.00
1145.887, 33499.00
1146.977, 33197.00
1148.068, 33186.00
1149.158, 33447.00
1150.248, 33526.00
1151.338, 33173.00
1152.428, 33193.00
1153.518, 33314.00
1154.607, 32833.00
1155.696, 32912.00
1156.785, 33107.00
1157.874, 32913.00
1158.963, 32776.00
1160.052, 32740.00
1161.141, 32835.00
1162.229, 32931.00
1163.317, 32681.00
1164.405, 32722.00
1165.493, 32643.00
1166.581, 32389.00
1167.668, 32669.00
1168.756, 32555.00
1169.843, 32573.00
1170.930, 32336.00
1172.017, 32334.36
1173.103, 32269.02
1174.190, 32219.00
1175.276, 32300.00
1176.363, 32240.00
1177.449, 32202.37
1178.535, 32326.00
1179.620, 32075.00
1180.706, 32234.00
1181.791, 32178.00
1182.877, 32193.00
1183.962, 32178.00
1185.047, 32103.00
1186.131, 32383.00
1187.216, 32379.00
1188.300, 32161.00
1189.385, 32283.00
1190.469, 32148.00
1191.553, 32079.00
1192.637, 32300.00
1193.720, 32449.00
1194.804, 32085.00
1195.887, 32256.00
1196.970, 32223.00
1198.053, 32408.00
1199.136, 32388.00
1200.219, 32529.00
1201.301, 32369.00
1202.383, 32410.00
1203.465, 32506.00
1204.547, 32572.00
1205.629, 32362.00
1206.711, 32281.00
1207.792, 32316.00
1208.874, 32319.88
1209.955, 32400.00
1211.036, 32465.00
1212.117, 32736.00
1213.198, 32703.00
1214.278, 32726.00
1215.359, 32558.00
1216.439, 32659.00
1217.519, 32826.00
1218.599, 32641.00
1219.678, 32647.00
1220.758, 32833.00
1221.837, 32792.00
1222.917, 32691.00
1223.996, 32737.00
1225.075, 32925.00
1226.153, 32711.00
1227.232, 32885.00
1228.310, 32792.00
1229.389, 33000.00
1230.467, 33082.00
1231.545, 32784.94
1232.622, 33044.95
1233.700, 33200.67
1234.777, 33257.66
1235.855, 32920.30
1236.932, 33092.16
1238.009, 33059.94
1239.086, 33019.35
1240.162, 33262.86
1241.239, 32982.84
1242.315, 33221.85
1243.391, 33253.66
1244.467, 33380.30
1245.543, 33332.00
1246.619, 33306.00
1247.694, 33425.00
1248.769, 33709.00
1249.844, 33524.00
1250.919, 33369.00
1251.994, 33309.00
1253.069, 33632.00
1254.144, 34079.00
1255.218, 33783.00
1256.292, 33783.00
1257.366, 33633.00
1258.440, 33421.00
1259.514, 33568.00
1260.587, 33394.00
1261.661, 33615.00
1262.734, 33997.00
1263.807, 33709.00
1264.880, 33849.00
1265.952, 33753.00
1267.025, 34056.00
1268.097, 33718.00
1269.170, 33887.00
1270.242, 34102.00
1271.314, 34470.00
1272.385, 34355.35
