##NAMES=Leucite
##RRUFFID=R040107
##IDEAL CHEMISTRY=K(Si_2_Al)O_6_
##LOCALITY=Roccamonfina, Italy
##OWNER=RRUFF
##SOURCE=University of Arizona Mineral Museum
##DESCRIPTION=Rounded colorless crystals embedded in an ash matrix
##STATUS=The identification of this mineral has been confirmed by X-ray diffraction and chemical analysis
##URL=rruff.info/R040107
##MEASURED CHEMISTRY=(K_0.95_Na_0.03_)Al_0.99_Si_2.01_O_6_
##PIN_ID=L00276
##ORIENTATION=Laser parallel to -a* (-1 0 0). Fiducial mark perpendicular to laser is parallel to c [0 0 1]
75.80300, 41916.00
77.04300, 42732.00
78.28300, 43895.00
79.52300, 44806.00
80.76300, 45708.00
82.00300, 47649.00
83.24300, 50295.00
84.48300, 50960.00
85.72200, 50016.00
86.96100, 45636.00
88.20000, 41533.00
89.43900, 39218.00
90.67800, 37641.00
91.91600, 36740.00
93.15500, 35827.00
94.39300, 34816.00
95.63100, 34226.00
96.86900, 33506.00
98.10600, 33024.00
99.34400, 32843.00
100.5810, 32495.00
101.8190, 32150.00
103.0560, 32095.00
104.2930, 32690.00
105.5290, 32421.24
106.7660, 32389.41
108.0020, 32361.00
109.2390, 31981.00
110.4750, 31609.00
111.7110, 31434.00
112.9460, 31417.00
114.1820, 31802.00
115.4170, 31926.00
116.6530, 32144.00
117.8880, 32297.00
119.1230, 32236.00
120.3580, 33040.00
121.5920, 36166.00
122.8270, 39415.00
124.0610, 41437.00
125.2950, 40127.00
126.5290, 35814.00
127.7630, 32239.00
128.9970, 30520.00
130.2300, 30819.00
131.4640, 31144.00
132.6970, 31498.00
133.9300, 32176.00
135.1630, 33179.00
136.3950, 34178.00
137.6280, 35181.00
138.8600, 36383.00
140.0920, 37959.00
141.3240, 39057.00
142.5560, 39977.00
143.7880, 41835.00
145.0190, 42824.00
146.2510, 44452.00
147.4820, 45318.00
148.7130, 46775.00
149.9440, 48186.00
151.1750, 49115.00
152.4050, 49319.00
153.6360, 49853.00
154.8660, 49838.00
156.0960, 50007.00
157.3260, 49768.00
158.5560, 49140.00
159.7850, 48593.00
161.0150, 47769.00
162.2440, 46780.00
163.4730, 45686.00
164.7020, 44658.00
165.9310, 43705.00
167.1590, 42604.00
168.3880, 41321.00
169.6160, 40198.00
170.8440, 39608.00
172.0720, 39234.00
173.3000, 39069.00
174.5280, 39139.00
175.7550, 39459.77
176.9820, 40145.00
178.2100, 40758.00
179.4370, 41556.00
180.6630, 42699.00
181.8900, 42348.00
183.1170, 42626.00
184.3430, 42420.00
185.5690, 42006.00
186.7950, 40901.00
188.0210, 40024.00
189.2470, 38828.00
190.4720, 37626.00
191.6970, 36195.00
192.9230, 35241.00
194.1480, 33692.00
195.3730, 32796.00
196.5970, 31888.00
197.8220, 30678.00
199.0460, 30121.00
200.2700, 29214.00
201.4940, 28755.00
202.7180, 27975.00
203.9420, 27404.00
205.1660, 26748.00
206.3890, 26601.00
207.6120, 26185.00
208.8350, 25890.00
210.0580, 25625.00
211.2810, 25369.00
212.5040, 25224.00
213.7260, 24985.00
214.9480, 24680.00
216.1700, 24371.00
217.3920, 24063.00
218.6140, 23707.00
219.8360, 23423.00
221.0570, 23024.00
222.2790, 22752.00
223.5000, 22416.00
224.7210, 22176.00
225.9410, 21523.00
227.1620, 21284.00
228.3820, 21126.00
229.6030, 20694.89
230.8230, 20687.00
232.0430, 20065.00
233.2630, 19976.00
234.4820, 19560.00
235.7020, 19511.00
236.9210, 19319.00
238.1400, 19195.00
239.3590, 18966.00
240.5780, 18910.00
241.7970, 18793.39
243.0150, 18661.00
244.2340, 18657.00
245.4520, 18502.00
246.6700, 18449.00
247.8880, 18583.00
249.1060, 18446.00
250.3230, 18445.00
251.5400, 18357.00
252.7580, 18441.00
253.9750, 18468.00
255.1920, 18473.00
256.4080, 18556.03
257.6250, 18582.45
258.8410, 18636.00
260.0580, 18658.00
261.2740, 18596.00
262.4900, 18569.00
263.7050, 18570.00
264.9210, 18672.00
266.1360, 18742.00
267.3520, 18750.41
268.5670, 18880.00
269.7820, 18858.00
270.9960, 18967.00
272.2110, 19180.00
273.4250, 19147.00
274.6400, 19444.00
275.8540, 19035.00
277.0680, 19178.00
278.2810, 18918.00
279.4950, 19169.00
280.7090, 19131.00
281.9220, 19351.00
283.1350, 19433.00
284.3480, 19573.00
285.5610, 19684.00
286.7730, 20022.00
287.9860, 20198.00
289.1980, 20465.00
290.4100, 21086.00
291.6220, 21332.00
292.8340, 22050.00
294.0460, 22355.00
295.2570, 22959.00
296.4690, 23525.00
297.6800, 24099.00
298.8910, 24635.00
300.1020, 25032.00
301.3120, 25628.00
302.5230, 25948.00
303.7330, 25771.00
304.9440, 25969.00
306.1540, 25674.00
307.3630, 25355.00
308.5730, 25267.00
309.7830, 24773.00
310.9920, 24486.00
312.2010, 24006.00
313.4100, 23789.00
314.6190, 23561.00
315.8280, 23240.00
317.0370, 23072.00
318.2450, 22835.00
319.4530, 22652.00
320.6610, 22503.00
321.8690, 22454.47
323.0770, 22356.00
324.2850, 22470.00
325.4920, 22529.00
326.6990, 22579.00
327.9060, 22655.00
329.1130, 22857.00
330.3200, 23092.00
331.5270, 23065.00
332.7330, 23522.00
333.9390, 23705.00
335.1450, 23670.00
336.3510, 24040.00
337.5570, 24040.00
338.7630, 23815.00
339.9680, 24051.00
341.1740, 23871.00
342.3790, 23500.00
343.5840, 23450.00
344.7890, 23197.00
345.9930, 22942.00
347.1980, 22766.00
348.4020, 22482.00
349.6060, 22281.00
350.8100, 22211.00
352.0140, 22189.00
353.2180, 21880.00
354.4210, 21729.00
355.6250, 21716.00
356.8280, 21312.00
358.0310, 21538.00
359.2340, 21973.00
360.4360, 22411.00
361.6390, 21848.00
362.8410, 21662.00
364.0430, 21871.00
365.2450, 21886.00
366.4470, 22116.00
367.6490, 22177.00
368.8510, 22225.00
370.0520, 22341.00
371.2530, 22578.00
372.4540, 22454.00
373.6550, 22714.00
374.8560, 22848.00
376.0560, 22874.00
377.2570, 23336.00
378.4570, 22876.00
379.6570, 23035.00
380.8570, 23110.00
382.0570, 23372.00
383.2560, 23348.00
384.4560, 23519.00
385.6550, 23539.00
386.8540, 23572.00
388.0530, 23786.00
389.2520, 23795.00
390.4510, 23829.00
391.6490, 24024.00
392.8470, 24027.00
394.0450, 23771.00
395.2430, 23755.00
396.4410, 23621.00
397.6390, 23589.00
398.8360, 23546.00
400.0340, 23230.00
401.2310, 23105.00
402.4280, 22768.00
403.6250, 22601.00
404.8210, 22533.00
406.0180, 22291.72
407.2140, 22096.00
408.4100, 22034.00
409.6060, 21898.00
410.8020, 21893.00
411.9980, 21721.00
413.1930, 21778.00
414.3890, 21715.00
415.5840, 21610.00
416.7790, 21741.00
417.9740, 21884.00
419.1680, 22029.00
420.3630, 22178.00
421.5570, 22333.00
422.7510, 22370.00
423.9450, 22835.00
425.1390, 22891.00
426.3330, 23251.00
427.5270, 23379.00
428.7200, 23340.00
429.9130, 23567.00
431.1060, 23996.00
432.2990, 24232.00
433.4920, 24174.41
434.6840, 24179.10
435.8770, 23837.00
437.0690, 23872.00
438.2610, 23522.00
439.4530, 23544.00
440.6450, 23318.00
441.8360, 22945.00
443.0280, 22915.00
444.2190, 22811.31
445.4100, 23041.00
446.6010, 22916.00
447.7920, 23114.00
448.9820, 23370.79
450.1730, 23337.64
451.3630, 24073.00
452.5530, 23561.00
453.7430, 23652.00
454.9330, 23957.00
456.1230, 24705.00
457.3120, 24676.00
458.5010, 25345.00
459.6910, 25586.00
460.8800, 26328.00
462.0680, 26933.00
463.2570, 27670.62
464.4460, 28541.00
465.6340, 29623.00
466.8220, 30961.00
468.0100, 32504.00
469.1980, 34207.00
470.3860, 36437.00
471.5730, 38754.00
472.7600, 41911.00
473.9480, 45388.00
475.1350, 49179.00
476.3210, 53640.00
477.5080, 58885.00
478.6950, 64795.00
479.8810, 70717.00
481.0670, 76686.00
482.2530, 83210.00
483.4390, 88646.00
484.6250, 94926.00
485.8100, 100916.0
486.9960, 106580.0
488.1810, 110993.0
489.3660, 117204.0
490.5510, 122612.0
491.7360, 128724.0
492.9200, 135180.0
494.1050, 141046.0
495.2890, 146463.0
496.4730, 148968.0
497.6570, 150540.0
498.8400, 149622.0
500.0240, 148159.0
501.2070, 143738.0
502.3910, 139788.0
503.5740, 136024.0
504.7570, 132900.0
505.9400, 130144.0
507.1220, 127767.0
508.3050, 125387.0
509.4870, 122597.0
510.6690, 118374.0
511.8510, 113781.0
513.0330, 109020.0
514.2140, 103604.0
515.3960, 99053.00
516.5770, 95375.00
517.7580, 92595.00
518.9390, 90968.00
520.1200, 90520.00
521.3010, 91272.00
522.4810, 92879.00
523.6610, 96070.00
524.8420, 99390.00
526.0220, 103655.0
527.2010, 107206.0
528.3810, 110287.0
529.5610, 111251.0
530.7400, 110595.0
531.9190, 107766.0
533.0980, 103045.0
534.2770, 97456.00
535.4560, 88891.00
536.6340, 81202.00
537.8120, 73941.00
538.9910, 67335.03
540.1690, 60536.00
541.3460, 56092.00
542.5240, 51074.00
543.7020, 47237.00
544.8790, 44149.00
546.0560, 41475.00
547.2330, 39328.00
548.4100, 37528.00
549.5870, 36288.00
550.7630, 35014.00
551.9400, 33869.16
553.1160, 32915.00
554.2920, 31977.00
555.4680, 31256.00
556.6440, 30384.00
557.8190, 29750.00
558.9950, 29032.00
560.1700, 28678.00
561.3450, 27896.00
562.5200, 27538.00
563.6950, 26930.00
564.8690, 26636.00
566.0440, 26292.00
567.2180, 25748.00
568.3920, 25343.00
569.5660, 25167.00
570.7400, 24913.00
571.9130, 24479.00
573.0870, 24241.00
574.2600, 24223.00
575.4330, 23871.00
576.6060, 23651.00
577.7790, 23614.00
578.9520, 23382.00
580.1240, 23238.00
581.2960, 23136.00
582.4690, 23157.00
583.6410, 23141.00
584.8120, 23257.00
585.9840, 23014.00
587.1560, 23170.00
588.3270, 22966.00
589.4980, 23158.00
590.6690, 22989.00
591.8400, 23061.00
593.0110, 23004.00
594.1810, 22987.00
595.3510, 23097.00
596.5220, 23034.00
597.6920, 23085.00
598.8610, 22843.00
600.0310, 22949.00
601.2010, 22742.00
602.3700, 22733.00
603.5390, 22640.00
604.7080, 22542.00
605.8770, 22546.21
607.0460, 22331.00
608.2140, 22508.00
609.3830, 22481.00
610.5510, 22196.55
611.7190, 22503.56
612.8870, 22682.87
614.0550, 22741.34
615.2220, 22317.02
616.3900, 22516.11
617.5570, 22465.36
618.7240, 22404.37
619.8910, 22691.19
621.0580, 22337.09
622.2240, 22618.38
623.3910, 22598.00
624.5570, 22813.00
625.7230, 22692.00
626.8890, 22646.00
628.0550, 22595.00
629.2200, 22802.00
630.3860, 22736.00
631.5510, 22658.00
632.7160, 22682.00
633.8810, 22596.00
635.0460, 22602.38
636.2100, 22870.00
637.3750, 22618.00
638.5390, 22578.00
639.7030, 22627.00
640.8670, 22334.00
642.0310, 22501.00
643.1950, 22399.00
644.3580, 22550.00
645.5210, 22602.00
646.6850, 22458.00
647.8480, 22485.00
649.0100, 22421.00
650.1730, 22453.00
651.3350, 22486.00
652.4980, 22565.00
653.6600, 22546.00
654.8220, 22615.00
655.9840, 22684.00
657.1450, 22774.00
658.3070, 22950.00
659.4680, 23070.00
660.6300, 22897.00
661.7910, 23140.00
662.9510, 23257.00
664.1120, 23065.00
665.2730, 23363.00
666.4330, 23393.00
667.5930, 23280.00
668.7530, 23524.00
669.9130, 23379.00
671.0730, 23695.00
672.2320, 23655.00
673.3920, 23865.00
674.5510, 23677.00
675.7100, 23743.00
676.8690, 23870.00
678.0280, 23925.00
679.1860, 23989.00
680.3450, 23879.00
681.5030, 24017.00
682.6610, 23823.00
683.8190, 23811.00
684.9770, 23659.00
686.1340, 23687.00
687.2920, 23765.00
688.4490, 23373.00
689.6060, 23248.00
690.7630, 23098.00
691.9200, 23243.00
693.0760, 23188.00
694.2330, 23037.00
695.3890, 23007.00
696.5450, 23045.00
697.7010, 22930.00
698.8570, 22804.00
700.0130, 22833.00
701.1680, 22796.00
702.3230, 22859.00
703.4780, 22754.00
704.6330, 22897.00
705.7880, 22768.00
706.9430, 22874.00
708.0970, 23005.00
709.2520, 23084.00
710.4060, 23189.00
711.5600, 23230.93
712.7140, 23293.16
713.8670, 23283.00
715.0210, 23419.00
716.1740, 23439.00
717.3270, 23589.00
718.4800, 23532.00
719.6330, 23430.00
720.7860, 23457.00
721.9380, 23560.00
723.0910, 23527.00
724.2430, 23490.00
725.3950, 23403.00
726.5470, 23477.89
727.6980, 23347.00
728.8500, 23643.00
730.0010, 23468.00
731.1530, 23587.00
732.3040, 23496.00
733.4550, 23572.00
734.6050, 23626.00
735.7560, 23434.00
736.9060, 23504.00
738.0560, 23489.00
739.2060, 23582.00
740.3560, 23530.56
741.5060, 23541.00
742.6560, 23470.00
743.8050, 23506.00
744.9540, 23543.00
746.1030, 23435.00
747.2520, 23617.00
748.4010, 23537.19
749.5500, 23423.00
750.6980, 23460.00
751.8460, 23324.00
752.9950, 23184.00
754.1420, 23198.00
755.2900, 23244.00
756.4380, 23310.00
757.5850, 23169.00
758.7330, 23332.53
759.8800, 23036.00
761.0270, 23358.00
762.1730, 23695.00
763.3200, 23328.00
764.4670, 23237.00
765.6130, 23418.00
766.7590, 23216.00
767.9050, 23320.00
769.0510, 23378.00
770.1960, 23334.00
771.3420, 23543.00
772.4870, 23459.00
773.6320, 23749.00
774.7770, 23445.00
775.9220, 23528.00
777.0670, 23773.00
778.2110, 23724.00
779.3560, 23894.00
780.5000, 23818.00
781.6440, 23842.00
782.7880, 23963.00
783.9320, 24104.00
785.0750, 24235.00
786.2180, 24124.00
787.3620, 24141.00
788.5050, 23969.00
789.6480, 23988.00
790.7900, 23906.00
791.9330, 24348.00
793.0750, 24109.00
794.2170, 23928.00
795.3590, 24302.00
796.5010, 23631.00
797.6430, 23647.00
798.7850, 23702.00
799.9260, 23624.00
801.0670, 23476.00
802.2080, 23581.00
803.3490, 23328.00
804.4900, 23309.56
805.6310, 23273.36
806.7710, 23109.00
807.9110, 23225.00
809.0510, 23064.00
810.1910, 23103.00
811.3310, 22915.00
812.4710, 23002.00
813.6100, 23098.00
814.7490, 22831.00
815.8880, 22978.00
817.0270, 22891.00
818.1660, 22865.00
819.3050, 22830.00
820.4430, 22901.00
821.5820, 22862.00
822.7200, 22742.00
823.8580, 22978.00
824.9950, 22791.00
826.1330, 22850.00
827.2710, 22866.00
828.4080, 22952.00
829.5450, 22813.00
830.6820, 22848.00
831.8190, 22905.00
832.9560, 22871.00
834.0920, 22921.00
835.2280, 22843.00
836.3650, 22825.00
837.5010, 22849.00
838.6360, 22927.00
839.7720, 23105.00
840.9080, 23035.00
842.0430, 23145.47
843.1780, 22906.00
844.3130, 23185.00
845.4480, 23168.00
846.5830, 23081.00
847.7170, 23220.00
848.8520, 23104.00
849.9860, 23069.00
851.1200, 23328.00
852.2540, 23151.00
853.3870, 23306.00
854.5210, 23399.00
855.6540, 23287.00
856.7880, 23301.00
857.9210, 23202.00
859.0540, 23212.00
860.1860, 23479.00
861.3190, 23476.00
862.4510, 23444.00
863.5840, 23571.00
864.7160, 23314.00
865.8480, 23472.00
866.9790, 23335.00
868.1110, 23418.00
869.2420, 23654.00
870.3740, 23677.00
871.5050, 23660.00
872.6360, 23573.00
873.7660, 23600.00
874.8970, 23607.00
876.0280, 23655.00
877.1580, 23650.00
878.2880, 23811.00
879.4180, 23613.00
880.5480, 23954.00
881.6770, 23688.00
882.8070, 23666.00
883.9360, 23910.00
885.0650, 23650.00
886.1940, 23944.00
887.3230, 24023.00
888.4520, 23885.00
889.5800, 23737.00
890.7090, 24201.00
891.8370, 23997.00
892.9650, 24102.00
894.0930, 24308.00
895.2200, 24425.00
896.3480, 24186.00
897.4750, 24497.00
898.6020, 24222.00
899.7290, 24428.00
900.8560, 24401.00
901.9830, 24554.00
903.1090, 24602.00
904.2360, 24605.00
905.3620, 24684.00
906.4880, 24593.00
907.6140, 25034.00
908.7400, 24907.00
909.8650, 25099.00
910.9900, 24914.00
912.1160, 24948.00
913.2410, 24921.00
914.3660, 25014.00
915.4900, 25499.00
916.6150, 25374.00
917.7390, 25444.00
918.8640, 25506.00
919.9880, 25422.00
921.1120, 25685.00
922.2350, 25479.00
923.3590, 25671.00
924.4820, 25616.00
925.6060, 25653.94
926.7290, 26020.00
927.8520, 25842.00
928.9740, 25914.00
930.0970, 26156.00
931.2190, 26364.00
932.3420, 26369.00
933.4640, 26450.00
934.5860, 26669.00
935.7080, 26450.00
936.8290, 26811.00
937.9510, 26883.00
939.0720, 26738.00
940.1930, 27020.00
941.3140, 27373.00
942.4350, 27438.00
943.5560, 27489.00
944.6760, 27744.00
945.7960, 27847.00
946.9170, 28057.00
948.0370, 28042.00
949.1560, 28447.00
950.2760, 28614.00
951.3960, 28850.00
952.5150, 28694.00
953.6340, 29028.00
954.7530, 29208.00
955.8720, 29627.00
956.9910, 29411.93
958.1090, 29834.81
959.2280, 30130.11
960.3460, 30304.45
961.4640, 29996.01
962.5820, 30310.98
963.6990, 30376.00
964.8170, 30430.89
965.9340, 30833.49
967.0510, 30595.16
968.1690, 30992.35
969.2850, 30896.00
970.4020, 31029.00
971.5190, 31166.00
972.6350, 31178.00
973.7510, 31332.00
974.8670, 31364.62
975.9830, 31346.00
977.0990, 31496.00
978.2150, 31536.00
979.3300, 31685.00
980.4450, 31522.00
981.5600, 31598.00
982.6750, 31417.00
983.7900, 31787.00
984.9050, 31860.00
986.0190, 31824.00
987.1340, 31662.00
988.2480, 31741.00
989.3620, 31944.00
990.4750, 31802.00
991.5890, 32011.00
992.7020, 31998.37
993.8160, 31954.00
994.9290, 32041.00
996.0420, 32240.00
997.1550, 32288.00
998.2670, 31971.00
999.3800, 32368.00
1000.492, 32303.43
1001.604, 32603.00
1002.716, 32320.00
1003.828, 32898.00
1004.940, 32510.38
1006.051, 32674.00
1007.163, 32688.00
1008.274, 32633.00
1009.385, 32787.00
1010.496, 32608.00
1011.606, 32730.00
1012.717, 32905.00
1013.827, 32665.00
1014.937, 32819.00
1016.047, 33037.00
1017.157, 33213.00
1018.267, 33062.00
1019.377, 33153.00
1020.486, 33422.00
1021.595, 33685.00
1022.704, 33246.00
1023.813, 33662.00
1024.922, 33664.00
1026.030, 33947.00
1027.139, 33742.00
1028.247, 33937.00
1029.355, 33942.00
1030.463, 34044.00
1031.571, 34063.00
1032.678, 34169.01
1033.786, 34236.00
1034.893, 34394.00
1036.000, 34560.00
1037.107, 34696.00
1038.214, 34591.00
1039.321, 34463.00
1040.427, 34738.00
1041.533, 34806.00
1042.639, 35053.00
1043.745, 34886.68
1044.851, 35315.16
1045.957, 35615.95
1047.062, 35795.76
1048.168, 35492.92
1049.273, 35813.36
1050.378, 35883.98
1051.482, 35944.23
1052.587, 36352.41
1053.692, 36119.67
1054.796, 36522.21
1055.900, 36475.00
1057.004, 36596.00
1058.108, 36743.00
1059.212, 36803.14
1060.315, 36877.00
1061.418, 36872.00
1062.522, 36911.00
1063.625, 36844.00
1064.728, 36724.00
1065.830, 36917.00
1066.933, 36499.00
1068.035, 36671.00
1069.137, 36695.00
1070.239, 36730.00
1071.341, 36492.00
1072.443, 36444.00
1073.545, 36218.00
1074.646, 36163.00
1075.747, 36200.00
1076.848, 36007.00
1077.949, 36217.00
1079.050, 35950.00
1080.150, 35824.00
1081.251, 36025.00
1082.351, 35882.00
1083.451, 36319.00
1084.551, 36046.00
1085.651, 35917.00
1086.750, 35992.00
1087.850, 35666.00
1088.949, 35869.00
1090.048, 35726.00
1091.147, 35636.00
1092.246, 35830.00
1093.345, 35527.00
1094.443, 36098.00
1095.541, 36104.00
1096.639, 35641.00
1097.737, 35900.00
1098.835, 35610.00
1099.933, 35940.00
1101.030, 35865.00
1102.128, 36001.00
1103.225, 35837.00
1104.322, 35804.00
1105.419, 35923.00
1106.515, 35877.00
1107.612, 35855.00
1108.708, 35968.00
1109.804, 35684.00
1110.900, 35723.00
1111.996, 35824.00
1113.092, 35729.00
1114.187, 35708.00
1115.283, 35682.77
1116.378, 35623.96
1117.473, 35559.00
1118.568, 35484.00
1119.662, 35388.00
1120.757, 35187.00
1121.851, 35168.95
1122.946, 34966.00
1124.040, 35004.36
1125.134, 35206.29
1126.227, 35280.59
1127.321, 35233.97
1128.414, 34704.67
1129.508, 34798.67
1130.601, 34642.94
1131.693, 34477.04
1132.786, 34658.87
1133.879, 34199.77
1134.971, 34376.18
1136.064, 34019.00
1137.156, 33952.00
1138.248, 34077.00
1139.339, 33914.00
1140.431, 33651.00
1141.522, 33812.00
1142.614, 33546.00
1143.705, 33532.00
1144.796, 33282.00
1145.887, 33515.00
1146.977, 33155.00
1148.068, 33053.00
1149.158, 32997.00
1150.248, 32729.00
1151.338, 32685.00
1152.428, 32360.00
1153.518, 32306.00
1154.607, 32391.00
1155.696, 32449.00
1156.785, 32212.00
1157.874, 31968.00
1158.963, 31849.00
1160.052, 31895.00
1161.141, 31592.00
1162.229, 31616.00
1163.317, 31635.00
1164.405, 31237.00
1165.493, 31379.00
1166.581, 31379.00
1167.668, 31290.00
1168.756, 31039.00
1169.843, 31285.00
1170.930, 31049.00
1172.017, 30873.00
1173.103, 31221.00
1174.190, 30559.51
1175.276, 30810.09
1176.363, 30932.92
1177.449, 30934.96
1178.535, 30454.22
1179.620, 30596.92
1180.706, 30489.75
1181.791, 30372.37
1182.877, 30602.78
1183.962, 30192.29
1185.047, 30417.21
1186.131, 30388.53
1187.216, 30330.00
1188.300, 30496.00
1189.385, 30603.00
1190.469, 30422.00
1191.553, 30625.00
1192.637, 30412.00
1193.720, 30721.00
1194.804, 30423.00
1195.887, 30376.00
1196.970, 30424.00
1198.053, 30391.00
1199.136, 30649.00
1200.219, 30483.00
1201.301, 30734.00
1202.383, 30677.00
1203.465, 30686.00
1204.547, 30704.00
1205.629, 30678.41
1206.711, 30696.00
1207.792, 30638.00
1208.874, 30716.00
1209.955, 30636.00
1211.036, 30636.83
1212.117, 30761.00
1213.198, 30593.00
1214.278, 30835.00
1215.359, 30836.00
1216.439, 30868.00
1217.519, 30928.97
1218.599, 30901.13
1219.678, 30959.00
1220.758, 30846.00
1221.837, 30917.00
1222.917, 30840.00
1223.996, 30742.00
1225.075, 30867.25
1226.153, 30944.00
1227.232, 30980.00
1228.310, 30988.00
1229.389, 30877.00
1230.467, 31139.00
1231.545, 30905.00
1232.622, 31237.00
1233.700, 31138.00
1234.777, 31220.00
1235.855, 31108.00
1236.932, 31283.00
1238.009, 31289.00
1239.086, 31204.00
1240.162, 31141.00
1241.239, 31364.00
1242.315, 31040.00
1243.391, 31401.00
1244.467, 31114.00
1245.543, 31206.00
1246.619, 31472.00
1247.694, 31265.00
1248.769, 31288.00
1249.844, 31533.00
1250.919, 31426.00
1251.994, 31372.00
1253.069, 31164.00
1254.144, 31467.00
1255.218, 31239.00
1256.292, 31387.00
1257.366, 31207.00
1258.440, 31351.00
1259.514, 31410.00
