##NAMES=Leucite
##RRUFFID=R040107
##IDEAL CHEMISTRY=K(Si_2_Al)O_6_
##LOCALITY=Roccamonfina, Italy
##OWNER=RRUFF
##SOURCE=University of Arizona Mineral Museum
##DESCRIPTION=Rounded colorless crystals embedded in an ash matrix
##STATUS=The identification of this mineral has been confirmed by X-ray diffraction and chemical analysis
##URL=rruff.info/R040107
##MEASURED CHEMISTRY=(K_0.95_Na_0.03_)Al_0.99_Si_2.01_O_6_
##PIN_ID=L01573
##ORIENTATION=Laser parallel to -c* (0 0 -1). Fiducial mark perpendicular to laser is parallel to -a [-1 0 0]
90.67800, 27475.00
91.91600, 28138.00
93.15500, 29178.00
94.39300, 29855.00
95.63100, 30248.00
96.86900, 30417.00
98.10600, 30475.00
99.34400, 30551.00
100.5810, 30245.00
101.8190, 30029.00
103.0560, 29700.00
104.2930, 29829.00
105.5290, 29506.00
106.7660, 29763.00
108.0020, 29459.00
109.2390, 29645.00
110.4750, 29874.00
111.7110, 30195.00
112.9460, 30673.00
114.1820, 31890.00
115.4170, 32508.00
116.6530, 33229.00
117.8880, 33508.00
119.1230, 33887.00
120.3580, 34730.00
121.5920, 37268.00
122.8270, 39389.00
124.0610, 40762.00
125.2950, 37824.00
126.5290, 33043.00
127.7630, 30438.00
128.9970, 29698.00
130.2300, 29890.00
131.4640, 30566.00
132.6970, 31160.00
133.9300, 32002.00
135.1630, 32963.00
136.3950, 33859.00
137.6280, 34913.00
138.8600, 35991.00
140.0920, 36724.00
141.3240, 37964.00
142.5560, 38804.00
143.7880, 40020.00
145.0190, 40550.00
146.2510, 41341.00
147.4820, 42233.00
148.7130, 43192.00
149.9440, 43574.00
151.1750, 44284.00
152.4050, 44169.00
153.6360, 44355.00
154.8660, 43920.00
156.0960, 43947.00
157.3260, 43191.60
158.5560, 42959.00
159.7850, 41517.00
161.0150, 40639.00
162.2440, 39775.00
163.4730, 38990.00
164.7020, 38133.00
165.9310, 37222.00
167.1590, 36471.00
168.3880, 35774.00
169.6160, 35651.00
170.8440, 35580.00
172.0720, 36014.00
173.3000, 36638.00
174.5280, 37770.00
175.7550, 39115.00
176.9820, 40491.00
178.2100, 41503.00
179.4370, 42968.00
180.6630, 43467.00
181.8900, 43441.00
183.1170, 43269.00
184.3430, 42397.00
185.5690, 41375.00
186.7950, 40528.00
188.0210, 39047.00
189.2470, 37317.00
190.4720, 35832.00
191.6970, 34217.00
192.9230, 33024.00
194.1480, 31868.00
195.3730, 30453.00
196.5970, 29683.00
197.8220, 28344.00
199.0460, 27827.00
200.2700, 27113.00
201.4940, 26561.00
202.7180, 26136.00
203.9420, 25711.00
205.1660, 25248.00
206.3890, 24967.00
207.6120, 24588.00
208.8350, 24616.00
210.0580, 24373.85
211.2810, 24187.00
212.5040, 24011.00
213.7260, 23792.04
214.9480, 23554.00
216.1700, 23442.00
217.3920, 23249.00
218.6140, 23184.00
219.8360, 23415.00
221.0570, 22815.00
222.2790, 23116.00
223.5000, 21834.00
224.7210, 21193.00
225.9410, 20799.00
227.1620, 20546.00
228.3820, 20318.00
229.6030, 20018.00
230.8230, 19599.00
232.0430, 19169.00
233.2630, 18824.00
234.4820, 18692.00
235.7020, 18246.00
236.9210, 18258.00
238.1400, 18025.00
239.3590, 17923.00
240.5780, 17785.00
241.7970, 17527.00
243.0150, 17361.00
244.2340, 17471.00
245.4520, 17203.00
246.6700, 17739.00
247.8880, 17145.00
249.1060, 17216.00
250.3230, 17928.00
251.5400, 17147.00
252.7580, 17179.00
253.9750, 17732.00
255.1920, 17240.00
256.4080, 17486.00
257.6250, 17296.00
258.8410, 17499.00
260.0580, 17420.00
261.2740, 17795.00
262.4900, 17870.00
263.7050, 17854.00
264.9210, 17855.00
266.1360, 18031.00
267.3520, 17857.00
268.5670, 18003.00
269.7820, 18168.00
270.9960, 18172.00
272.2110, 18443.00
273.4250, 18307.00
274.6400, 18251.00
275.8540, 18000.00
277.0680, 18063.00
278.2810, 17817.00
279.4950, 17811.00
280.7090, 18163.00
281.9220, 18159.00
283.1350, 18131.00
284.3480, 18570.00
285.5610, 18403.00
286.7730, 18596.00
287.9860, 18861.00
289.1980, 19191.00
290.4100, 19493.00
291.6220, 19780.00
292.8340, 20315.00
294.0460, 20597.00
295.2570, 21072.00
296.4690, 21486.00
297.6800, 22111.00
298.8910, 22331.00
300.1020, 22654.00
301.3120, 22721.00
302.5230, 22987.00
303.7330, 22785.00
304.9440, 22555.00
306.1540, 22470.00
307.3630, 22065.00
308.5730, 22093.00
309.7830, 21578.00
310.9920, 21454.00
312.2010, 20985.00
313.4100, 20730.00
314.6190, 20731.00
315.8280, 20437.00
317.0370, 20016.00
318.2450, 20073.00
319.4530, 19712.00
320.6610, 19540.00
321.8690, 19496.00
323.0770, 19154.00
324.2850, 19264.00
325.4920, 19183.00
326.6990, 19023.00
327.9060, 18810.00
329.1130, 18882.00
330.3200, 18884.00
331.5270, 18891.00
332.7330, 18809.00
333.9390, 18916.00
335.1450, 18827.00
336.3510, 18970.00
337.5570, 18807.00
338.7630, 18682.00
339.9680, 18743.00
341.1740, 18628.00
342.3790, 18512.00
343.5840, 18708.00
344.7890, 18402.00
345.9930, 18346.00
347.1980, 18358.00
348.4020, 18055.00
349.6060, 18017.00
350.8100, 17820.00
352.0140, 18062.00
353.2180, 17949.00
354.4210, 17932.00
355.6250, 18039.00
356.8280, 17806.00
358.0310, 17950.00
359.2340, 18105.00
360.4360, 18226.00
361.6390, 18250.12
362.8410, 18155.00
364.0430, 18237.00
365.2450, 18199.00
366.4470, 18167.00
367.6490, 18357.00
368.8510, 18324.00
370.0520, 18331.00
371.2530, 18516.00
372.4540, 18425.00
373.6550, 18596.00
374.8560, 18483.00
376.0560, 18364.00
377.2570, 18354.00
378.4570, 18571.00
379.6570, 18516.00
380.8570, 18658.00
382.0570, 18700.00
383.2560, 18522.00
384.4560, 18632.00
385.6550, 18578.00
386.8540, 18648.00
388.0530, 18729.00
389.2520, 18853.00
390.4510, 18802.00
391.6490, 18774.00
392.8470, 18956.00
394.0450, 18777.00
395.2430, 18707.00
396.4410, 18925.00
397.6390, 18640.00
398.8360, 18566.00
400.0340, 18599.00
401.2310, 18613.00
402.4280, 18583.89
403.6250, 18566.00
404.8210, 18579.00
406.0180, 18510.00
407.2140, 18527.63
408.4100, 18681.00
409.6060, 18700.00
410.8020, 18846.00
411.9980, 19039.00
413.1930, 19041.00
414.3890, 19257.76
415.5840, 19452.00
416.7790, 19569.00
417.9740, 19823.00
419.1680, 19947.00
420.3630, 20311.00
421.5570, 20756.00
422.7510, 21044.00
423.9450, 21302.00
425.1390, 21590.00
426.3330, 22142.00
427.5270, 22337.00
428.7200, 22785.00
429.9130, 22744.00
431.1060, 22923.00
432.2990, 23091.00
433.4920, 22718.00
434.6840, 22732.00
435.8770, 22457.00
437.0690, 22136.00
438.2610, 21975.00
439.4530, 21589.00
440.6450, 21169.00
441.8360, 21070.00
443.0280, 20943.00
444.2190, 20690.00
445.4100, 20596.00
446.6010, 20708.00
447.7920, 20637.00
448.9820, 20857.00
450.1730, 20933.00
451.3630, 21020.00
452.5530, 21423.00
453.7430, 21589.00
454.9330, 21898.00
456.1230, 22328.30
457.3120, 22786.00
458.5010, 23242.00
459.6910, 23858.00
460.8800, 24412.00
462.0680, 24881.00
463.2570, 25484.00
464.4460, 26048.00
465.6340, 26913.00
466.8220, 27868.00
468.0100, 29158.00
469.1980, 30662.00
470.3860, 32435.00
471.5730, 34544.00
472.7600, 37317.00
473.9480, 40535.00
475.1350, 44172.00
476.3210, 48297.00
477.5080, 52590.00
478.6950, 57301.00
479.8810, 62934.00
481.0670, 67690.00
482.2530, 71922.00
483.4390, 76608.00
484.6250, 81097.00
485.8100, 84451.00
486.9960, 88700.00
488.1810, 92063.00
489.3660, 96175.00
490.5510, 100396.0
491.7360, 104700.0
492.9200, 108653.0
494.1050, 112650.0
495.2890, 115432.0
496.4730, 116586.0
497.6570, 116251.0
498.8400, 113412.0
500.0240, 111025.0
501.2070, 107550.0
502.3910, 104906.0
503.5740, 102180.0
504.7570, 101196.0
505.9400, 100023.0
507.1220, 98861.00
508.3050, 97372.00
509.4870, 93982.00
510.6690, 90379.00
511.8510, 86017.00
513.0330, 82213.00
514.2140, 78321.00
515.3960, 75382.00
516.5770, 73000.00
517.7580, 71422.00
518.9390, 71385.00
520.1200, 71608.00
521.3010, 73050.00
522.4810, 74940.00
523.6610, 77845.00
524.8420, 80867.00
526.0220, 84618.00
527.2010, 87362.00
528.3810, 88740.00
529.5610, 88470.00
530.7400, 86205.00
531.9190, 82627.00
533.0980, 77553.00
534.2770, 71544.00
535.4560, 64734.00
536.6340, 59201.00
537.8120, 53465.00
538.9910, 49474.00
540.1690, 44838.00
541.3460, 41441.00
542.5240, 38875.00
543.7020, 36511.00
544.8790, 34568.00
546.0560, 33024.00
547.2330, 31833.00
548.4100, 30612.00
549.5870, 29739.00
550.7630, 28832.00
551.9400, 28414.00
553.1160, 27564.00
554.2920, 26869.00
555.4680, 26295.00
556.6440, 25757.00
557.8190, 25242.01
558.9950, 24706.00
560.1700, 24359.00
561.3450, 24007.00
562.5200, 23627.00
563.6950, 23257.00
564.8690, 22878.00
566.0440, 22631.19
567.2180, 22520.00
568.3920, 22191.00
569.5660, 22025.00
570.7400, 21858.00
571.9130, 21547.00
573.0870, 21299.00
574.2600, 21187.00
575.4330, 21082.00
576.6060, 21176.00
577.7790, 21018.08
578.9520, 20810.00
580.1240, 20875.00
581.2960, 20672.00
582.4690, 20664.00
583.6410, 20773.00
584.8120, 20930.00
585.9840, 20665.00
587.1560, 20716.00
588.3270, 20593.00
589.4980, 20864.00
590.6690, 20796.00
591.8400, 20648.00
593.0110, 20772.00
594.1810, 20615.00
595.3510, 20796.00
596.5220, 20617.00
597.6920, 20673.00
598.8610, 20509.00
600.0310, 20712.00
601.2010, 20472.00
602.3700, 20510.00
603.5390, 20354.00
604.7080, 20329.00
605.8770, 20280.00
607.0460, 20288.00
608.2140, 20377.00
609.3830, 20200.00
610.5510, 20274.00
611.7190, 20182.00
612.8870, 20361.00
614.0550, 20471.00
615.2220, 20643.00
616.3900, 20446.00
617.5570, 20695.00
618.7240, 20584.00
619.8910, 20693.00
621.0580, 20676.00
622.2240, 20670.00
623.3910, 21076.00
624.5570, 20991.00
625.7230, 20871.00
626.8890, 20993.00
628.0550, 20777.00
629.2200, 20751.00
630.3860, 20583.00
631.5510, 20571.68
632.7160, 20565.98
633.8810, 20541.00
635.0460, 20539.00
636.2100, 20452.00
637.3750, 20262.00
638.5390, 20199.00
639.7030, 20181.00
640.8670, 19885.78
642.0310, 20336.21
643.1950, 20593.51
644.3580, 20668.04
645.5210, 20012.45
646.6850, 20299.67
647.8480, 20209.05
649.0100, 20102.93
650.1730, 20522.83
651.3350, 19973.42
652.4980, 20384.99
653.6600, 20412.95
654.8220, 20616.47
655.9840, 20269.00
657.1450, 20180.00
658.3070, 20269.00
659.4680, 20385.00
660.6300, 20356.00
661.7910, 20348.00
662.9510, 20323.00
664.1120, 20317.49
665.2730, 20415.62
666.4330, 20358.00
667.5930, 20600.00
668.7530, 20747.00
669.9130, 20743.00
671.0730, 20777.00
672.2320, 20903.00
673.3920, 20982.00
674.5510, 21027.00
675.7100, 21118.00
676.8690, 21131.00
678.0280, 21100.72
679.1860, 21151.00
680.3450, 21019.85
681.5030, 20975.00
682.6610, 21016.00
683.8190, 21051.00
684.9770, 20879.00
686.1340, 20963.00
687.2920, 21004.00
688.4490, 20942.00
689.6060, 20705.00
690.7630, 20425.00
691.9200, 20526.00
693.0760, 20449.00
694.2330, 20502.00
695.3890, 20449.00
696.5450, 20301.00
697.7010, 20233.00
698.8570, 20348.00
700.0130, 20424.00
701.1680, 20426.00
702.3230, 20458.00
703.4780, 20176.00
704.6330, 20495.00
705.7880, 20354.00
706.9430, 20271.00
708.0970, 20429.00
709.2520, 20479.00
710.4060, 20465.00
711.5600, 20558.00
712.7140, 20628.00
713.8670, 20777.00
715.0210, 20737.00
716.1740, 20685.00
717.3270, 20795.00
718.4800, 21012.00
719.6330, 20748.00
720.7860, 20847.00
721.9380, 20729.00
723.0910, 20751.00
724.2430, 20800.00
725.3950, 20732.00
726.5470, 20656.00
727.6980, 20716.00
728.8500, 20728.00
730.0010, 20705.00
731.1530, 20726.97
732.3040, 20880.00
733.4550, 20765.00
734.6050, 20808.00
735.7560, 20937.00
736.9060, 20751.00
738.0560, 20762.00
739.2060, 20961.00
740.3560, 20656.00
741.5060, 20938.00
742.6560, 20721.00
743.8050, 20656.00
744.9540, 20763.00
746.1030, 20864.00
747.2520, 20782.00
748.4010, 20792.00
749.5500, 20635.00
750.6980, 20637.00
751.8460, 20562.00
752.9950, 20509.84
754.1420, 20549.00
755.2900, 20488.00
756.4380, 20559.00
757.5850, 20658.00
758.7330, 20624.00
759.8800, 20563.00
761.0270, 20573.00
762.1730, 20517.00
763.3200, 20540.00
764.4670, 20735.00
765.6130, 20571.31
766.7590, 20833.00
767.9050, 20477.00
769.0510, 20454.00
770.1960, 20628.00
771.3420, 20606.00
772.4870, 20683.00
773.6320, 20660.00
774.7770, 20479.00
775.9220, 20629.00
777.0670, 20557.00
778.2110, 20469.00
779.3560, 20691.00
780.5000, 20535.00
781.6440, 20761.00
782.7880, 20782.00
783.9320, 20754.00
785.0750, 20809.00
786.2180, 20806.54
787.3620, 20831.25
788.5050, 20813.00
789.6480, 20874.00
790.7900, 20830.00
791.9330, 20820.00
793.0750, 20686.00
794.2170, 20967.00
795.3590, 20973.00
796.5010, 20813.00
797.6430, 20981.00
798.7850, 20850.99
799.9260, 20842.79
801.0670, 20793.00
802.2080, 20739.00
803.3490, 20844.00
804.4900, 20716.00
805.6310, 20932.00
806.7710, 20729.00
807.9110, 20777.00
809.0510, 20480.00
810.1910, 20715.00
811.3310, 20701.00
812.4710, 20632.00
813.6100, 20592.00
814.7490, 20614.62
815.8880, 20472.00
817.0270, 20642.00
818.1660, 20606.00
819.3050, 20559.00
820.4430, 20487.00
821.5820, 20421.00
822.7200, 20642.00
823.8580, 20581.00
824.9950, 20449.00
826.1330, 20656.00
827.2710, 20475.00
828.4080, 20629.00
829.5450, 20561.00
830.6820, 20528.00
831.8190, 20669.00
832.9560, 20495.00
834.0920, 20569.00
835.2280, 20554.00
836.3650, 20626.00
837.5010, 20371.00
838.6360, 20660.00
839.7720, 20528.00
840.9080, 20672.00
842.0430, 20697.00
843.1780, 20554.00
844.3130, 20951.00
845.4480, 21021.00
846.5830, 21025.00
847.7170, 20840.00
848.8520, 20891.00
849.9860, 20899.00
851.1200, 21016.00
852.2540, 20943.00
853.3870, 20935.00
854.5210, 21104.00
855.6540, 21052.00
856.7880, 21317.00
857.9210, 21299.00
859.0540, 21260.00
860.1860, 21260.00
861.3190, 21471.00
862.4510, 21387.26
863.5840, 21427.00
864.7160, 21372.00
865.8480, 21136.00
866.9790, 21090.00
868.1110, 21194.00
869.2420, 21218.00
870.3740, 21371.00
871.5050, 21175.00
872.6360, 21066.00
873.7660, 21132.00
874.8970, 21183.00
876.0280, 21422.00
877.1580, 21174.00
878.2880, 21381.00
879.4180, 21434.00
880.5480, 21415.00
881.6770, 21201.00
882.8070, 21345.00
883.9360, 21317.00
885.0650, 21489.00
886.1940, 21481.44
887.3230, 21290.00
888.4520, 21518.00
889.5800, 21312.00
890.7090, 21340.00
891.8370, 21434.00
892.9650, 21572.00
894.0930, 21541.00
895.2200, 21576.00
896.3480, 21406.00
897.4750, 21646.00
898.6020, 21652.00
899.7290, 21823.00
900.8560, 21744.00
901.9830, 21923.00
903.1090, 21884.00
904.2360, 21831.00
905.3620, 21897.00
906.4880, 21910.00
907.6140, 22170.00
908.7400, 22049.00
909.8650, 22171.00
910.9900, 21906.00
912.1160, 22206.00
913.2410, 22163.00
914.3660, 22289.00
915.4900, 22413.00
916.6150, 22345.00
917.7390, 22439.00
918.8640, 22322.00
919.9880, 22313.00
921.1120, 22507.00
922.2350, 22599.00
923.3590, 22644.00
924.4820, 22713.00
925.6060, 22722.00
926.7290, 22735.00
927.8520, 22789.00
928.9740, 22902.00
930.0970, 22862.00
931.2190, 22945.00
932.3420, 23106.00
933.4640, 22999.00
934.5860, 23167.00
935.7080, 23206.00
936.8290, 23571.00
937.9510, 23537.00
939.0720, 23678.00
940.1930, 23555.00
941.3140, 23691.00
942.4350, 23782.00
943.5560, 23764.00
944.6760, 24042.00
945.7960, 24155.00
946.9170, 24357.00
948.0370, 24330.00
949.1560, 24515.00
950.2760, 24562.00
951.3960, 24414.00
952.5150, 24879.00
953.6340, 24959.00
954.7530, 25193.00
955.8720, 24998.00
956.9910, 25080.00
958.1090, 25150.00
959.2280, 25371.00
960.3460, 25377.00
961.4640, 25837.00
962.5820, 25423.00
963.6990, 25487.00
964.8170, 25764.00
965.9340, 25622.00
967.0510, 25711.00
968.1690, 25679.00
969.2850, 25531.00
970.4020, 25742.00
971.5190, 25681.00
972.6350, 25704.00
973.7510, 25687.00
974.8670, 25682.46
975.9830, 25752.00
977.0990, 25733.00
978.2150, 25770.00
979.3300, 25884.00
980.4450, 26101.00
981.5600, 25962.00
982.6750, 26049.00
983.7900, 25989.00
984.9050, 26343.00
986.0190, 26172.00
987.1340, 26268.00
988.2480, 26451.00
989.3620, 26388.00
990.4750, 26402.00
991.5890, 26448.00
992.7020, 26207.00
993.8160, 26245.00
994.9290, 26560.00
996.0420, 26835.00
997.1550, 26675.00
998.2670, 26861.00
999.3800, 26898.00
1000.492, 27284.00
1001.604, 27397.57
1002.716, 27687.00
1003.828, 27679.00
1004.940, 27289.00
1006.051, 27114.00
1007.163, 27324.00
1008.274, 27160.00
1009.385, 27443.00
1010.496, 27147.00
1011.606, 27977.00
1012.717, 27667.49
1013.827, 27601.00
1014.937, 27595.00
1016.047, 27159.00
1017.157, 27313.00
1018.267, 27429.00
1019.377, 27190.00
1020.486, 27262.00
1021.595, 27669.00
1022.704, 27419.00
1023.813, 27625.00
1024.922, 27798.00
1026.030, 27582.00
1027.139, 27758.00
1028.247, 27832.00
1029.355, 27696.00
1030.463, 27924.00
1031.571, 27734.00
1032.678, 27693.00
1033.786, 27839.00
1034.893, 27741.00
1036.000, 28017.00
1037.107, 28065.00
1038.214, 27924.00
1039.321, 27927.00
1040.427, 28170.00
1041.533, 28195.00
1042.639, 28220.00
1043.745, 28417.00
1044.851, 28606.00
1045.957, 28590.00
1047.062, 28821.00
1048.168, 28781.00
1049.273, 28995.73
1050.378, 29117.00
1051.482, 29390.00
1052.587, 29497.00
1053.692, 29697.00
1054.796, 29764.00
1055.900, 29702.00
1057.004, 29911.00
1058.108, 30046.00
1059.212, 30018.00
1060.315, 29794.00
1061.418, 30205.00
1062.522, 30155.00
1063.625, 29944.00
1064.728, 30065.00
1065.830, 30235.00
1066.933, 30018.00
1068.035, 30027.00
1069.137, 29742.00
1070.239, 29893.00
1071.341, 29837.00
1072.443, 29875.00
1073.545, 29682.00
1074.646, 29615.00
1075.747, 29504.00
1076.848, 29477.00
1077.949, 29509.00
1079.050, 29479.00
1080.150, 29280.00
1081.251, 29461.00
1082.351, 29156.00
1083.451, 29238.00
1084.551, 29509.00
1085.651, 29276.00
1086.750, 29177.00
1087.850, 29168.00
1088.949, 29163.00
1090.048, 28991.00
1091.147, 29091.00
1092.246, 28986.89
1093.345, 28957.00
1094.443, 28923.00
1095.541, 28972.00
1096.639, 29028.00
1097.737, 29073.00
1098.835, 29351.00
1099.933, 28958.00
1101.030, 29107.00
1102.128, 29099.00
1103.225, 29387.00
1104.322, 28931.00
1105.419, 28980.00
1106.515, 29019.36
1107.612, 28861.41
1108.708, 29028.00
1109.804, 28921.00
1110.900, 28756.00
1111.996, 28984.00
1113.092, 29076.00
1114.187, 29056.00
1115.283, 29085.00
1116.378, 28712.00
1117.473, 28880.00
1118.568, 28472.00
1119.662, 28637.00
1120.757, 28657.00
1121.851, 28435.00
1122.946, 28631.00
1124.040, 28505.78
1125.134, 28353.57
1126.227, 28515.00
1127.321, 28107.00
1128.414, 28267.00
1129.508, 28397.00
1130.601, 28208.00
1131.693, 28277.00
1132.786, 28279.00
1133.879, 28400.00
1134.971, 28202.00
1136.064, 28147.00
1137.156, 27989.00
1138.248, 27973.00
1139.339, 27975.00
1140.431, 27803.00
1141.522, 27874.00
1142.614, 27756.00
1143.705, 27607.00
1144.796, 27618.00
1145.887, 27677.00
1146.977, 27321.00
1148.068, 27019.00
1149.158, 27161.00
1150.248, 27139.00
1151.338, 27117.00
1152.428, 27157.00
1153.518, 27007.00
1154.607, 26922.00
1155.696, 26736.00
1156.785, 26898.00
1157.874, 26776.00
1158.963, 26436.00
1160.052, 26656.00
1161.141, 26384.00
1162.229, 26568.00
1163.317, 26242.00
1164.405, 26221.00
1165.493, 26222.00
1166.581, 26182.00
1167.668, 26154.00
1168.756, 26171.00
1169.843, 26049.00
1170.930, 25918.00
1172.017, 25792.00
1173.103, 25967.00
1174.190, 25784.00
1175.276, 25734.00
1176.363, 25768.00
1177.449, 25657.00
1178.535, 25664.00
1179.620, 25423.00
1180.706, 25705.00
1181.791, 25657.00
1182.877, 25687.00
1183.962, 25504.00
1185.047, 25656.00
1186.131, 25777.00
1187.216, 25404.00
1188.300, 25452.00
1189.385, 25548.00
1190.469, 25465.45
1191.553, 25556.00
1192.637, 25439.00
1193.720, 25648.00
1194.804, 25338.00
1195.887, 25577.00
1196.970, 25535.00
1198.053, 25284.00
1199.136, 25513.00
1200.219, 25379.00
1201.301, 25642.00
1202.383, 25400.00
1203.465, 25465.00
1204.547, 25513.00
1205.629, 25403.00
1206.711, 25451.00
1207.792, 25381.00
1208.874, 25462.00
1209.955, 25551.00
1211.036, 25449.00
1212.117, 25494.00
1213.198, 25600.00
1214.278, 25538.00
1215.359, 25606.40
1216.439, 25717.00
1217.519, 25638.00
1218.599, 25636.00
1219.678, 25624.00
1220.758, 25755.00
1221.837, 25564.00
1222.917, 25782.00
1223.996, 25683.00
1225.075, 25846.00
1226.153, 25775.00
1227.232, 25627.00
1228.310, 25768.00
1229.389, 25983.00
1230.467, 25827.00
1231.545, 25970.00
1232.622, 25870.00
1233.700, 25884.00
1234.777, 25965.00
1235.855, 26108.00
1236.932, 25800.00
1238.009, 26028.00
1239.086, 25889.00
1240.162, 26085.00
1241.239, 25950.00
1242.315, 25977.00
1243.391, 25964.00
1244.467, 25877.00
1245.543, 26110.00
1246.619, 26239.00
1247.694, 26216.00
1248.769, 26071.00
1249.844, 26094.00
1250.919, 26150.00
1251.994, 26013.00
1253.069, 26315.00
1254.144, 26120.00
1255.218, 26182.00
1256.292, 25954.00
1257.366, 26138.00
1258.440, 26392.00
1259.514, 26390.00
1260.587, 26375.00
1261.661, 26257.00
1262.734, 26396.00
1263.807, 26591.00
1264.880, 26548.00
1265.952, 26462.00
1267.025, 26424.00
1268.097, 26420.83
1269.170, 26641.00
1270.242, 26521.00
1271.314, 26537.00
1272.385, 26756.00
