##NAMES=Leucite
##RRUFFID=R060300
##IDEAL CHEMISTRY=K(Si_2_Al)O_6_
##LOCALITY=Alban Hills, Rome Province, Latium, Italy
##OWNER=RRUFF
##SOURCE=Herb Obodda
##DESCRIPTION=Colorless complete pseudocubic crystal showing trapezohedral faces
##STATUS=The identification of this mineral has been confirmed by X-ray diffraction and chemical analysis
##URL=rruff.info/R060300
##MEASURED CHEMISTRY=(K_0.98_Na_0.02_)_Î£=1_Al_1.00_Si_2.00_O_6_
##PIN_ID=M01338
##ORIENTATION=Laser parallel to a* (1 0 0). Fiducial mark perpendicular to laser is parallel to c [0 0 1]
66.51000, 15464.00
67.75400, 16645.00
68.99800, 16764.00
70.24100, 16384.00
71.48500, 16076.00
72.72800, 16715.00
73.97100, 18005.00
75.21400, 18953.00
76.45600, 19270.00
77.69900, 19593.00
78.94100, 19973.00
80.18300, 20171.00
81.42500, 20176.00
82.66700, 19513.00
83.90800, 19079.00
85.15000, 18622.00
86.39100, 18174.00
87.63200, 17564.00
88.87300, 17059.00
90.11400, 16948.00
91.35400, 16825.00
92.59500, 16586.00
93.83500, 16325.00
95.07500, 16204.00
96.31500, 15989.66
97.55400, 15844.00
98.79400, 15689.00
100.0330, 15584.00
101.2720, 15497.00
102.5110, 15519.00
103.7500, 15428.00
104.9890, 15610.00
106.2270, 15772.00
107.4650, 15801.00
108.7040, 15842.00
109.9420, 15737.00
111.1790, 15913.00
112.4170, 15590.00
113.6540, 15783.00
114.8920, 15641.00
116.1290, 15431.00
117.3650, 15394.00
118.6020, 15266.08
119.8390, 15020.00
121.0750, 15106.00
122.3110, 15120.00
123.5470, 15031.00
124.7830, 14899.00
126.0190, 14959.00
127.2540, 15060.00
128.4900, 15038.00
129.7250, 15070.00
130.9600, 15437.00
132.1950, 15831.00
133.4290, 15948.00
134.6640, 16493.00
135.8980, 16802.00
137.1320, 17231.00
138.3660, 17772.00
139.6000, 18502.00
140.8340, 18857.00
142.0670, 19396.00
143.3000, 19815.00
144.5330, 20266.00
145.7660, 20721.00
146.9990, 21197.00
148.2320, 21740.00
149.4640, 21800.00
150.6960, 22210.00
151.9280, 22244.00
153.1600, 22076.00
154.3920, 22182.00
155.6230, 22116.00
156.8550, 21671.00
158.0860, 21611.00
159.3170, 21267.00
160.5480, 21006.00
161.7780, 20613.00
163.0090, 20173.00
164.2390, 19660.00
165.4690, 19022.00
166.6990, 18900.00
167.9290, 18824.00
169.1590, 18262.00
170.3880, 18440.00
171.6180, 18543.00
172.8470, 18500.00
174.0760, 18932.00
175.3040, 19425.00
176.5330, 19895.00
177.7610, 19998.00
178.9900, 20609.00
180.2180, 20643.00
181.4460, 20772.00
182.6730, 20545.00
183.9010, 20542.00
185.1280, 20078.00
186.3560, 19743.00
187.5830, 19163.00
188.8100, 18642.00
190.0360, 18257.00
191.2630, 17757.00
192.4890, 17441.00
193.7150, 16921.00
194.9410, 16439.00
196.1670, 15978.00
197.3930, 15851.00
198.6180, 15579.00
199.8440, 15351.00
201.0690, 15093.00
202.2940, 14968.00
203.5190, 14688.00
204.7430, 14619.00
205.9680, 14610.00
207.1920, 14213.00
208.4160, 14251.00
209.6400, 14197.00
210.8640, 14197.00
212.0880, 14108.00
213.3110, 14036.29
214.5340, 13943.85
215.7570, 13813.00
216.9800, 13728.00
218.2030, 13549.00
219.4260, 13471.00
220.6480, 13333.00
221.8700, 13225.00
223.0920, 13051.00
224.3140, 12904.00
225.5360, 12779.00
226.7580, 12706.00
227.9790, 12528.00
229.2000, 12508.00
230.4210, 12408.00
231.6420, 12434.00
232.8630, 12264.00
234.0830, 12388.00
235.3040, 12215.00
236.5240, 12284.00
237.7440, 11998.00
238.9640, 12151.00
240.1830, 12090.00
241.4030, 12044.00
242.6220, 12050.00
243.8410, 11968.00
245.0600, 11971.00
246.2790, 12059.00
247.4980, 12022.00
248.7160, 12026.00
249.9340, 12008.00
251.1530, 11978.00
252.3710, 11889.00
253.5880, 12004.00
254.8060, 12116.00
256.0230, 12074.00
257.2410, 12024.00
258.4580, 12048.00
259.6750, 12067.00
260.8910, 12144.00
262.1080, 12146.00
263.3240, 12274.00
264.5410, 12341.00
265.7570, 12348.97
266.9730, 12239.00
268.1880, 12347.00
269.4040, 12282.00
270.6190, 12218.00
271.8350, 12336.00
273.0500, 12288.00
274.2650, 12333.00
275.4790, 12283.00
276.6940, 12370.00
277.9080, 12411.00
279.1220, 12422.00
280.3360, 12404.00
281.5500, 12559.00
282.7640, 12570.00
283.9770, 12624.00
285.1910, 12532.00
286.4040, 12724.00
287.6170, 12836.00
288.8300, 12935.00
290.0420, 13178.00
291.2550, 13179.00
292.4670, 13493.00
293.6790, 13629.00
294.8910, 13832.00
296.1030, 14051.00
297.3150, 14180.00
298.5260, 14286.00
299.7380, 14511.00
300.9490, 14608.00
302.1600, 14660.00
303.3710, 14532.00
304.5810, 14586.00
305.7920, 14542.00
307.0020, 14251.00
308.2120, 14211.00
309.4220, 14100.00
310.6320, 13963.00
311.8410, 13965.00
313.0510, 13976.00
314.2600, 13668.00
315.4690, 13512.00
316.6780, 13458.00
317.8870, 13470.00
319.0950, 13358.00
320.3040, 13397.00
321.5120, 13307.00
322.7200, 13306.00
323.9280, 13535.00
325.1360, 13349.00
326.3430, 13463.00
327.5510, 13554.00
328.7580, 13434.00
329.9650, 13558.00
331.1720, 13713.00
332.3790, 13845.00
333.5850, 13772.00
334.7910, 13839.00
335.9980, 13771.00
337.2040, 13803.74
338.4100, 13850.00
339.6150, 13842.00
340.8210, 13755.00
342.0260, 13739.00
343.2310, 13556.00
344.4360, 13643.00
345.6410, 13517.00
346.8460, 13529.00
348.0500, 13491.00
349.2550, 13570.00
350.4590, 13312.00
351.6630, 13443.00
352.8670, 13448.00
354.0700, 13319.00
355.2740, 13372.00
356.4770, 13328.00
357.6800, 13354.00
358.8830, 13460.00
360.0860, 13347.00
361.2890, 13469.00
362.4910, 13693.00
363.6930, 13579.00
364.8960, 13580.00
366.0980, 13576.00
367.2990, 13610.00
368.5010, 13648.00
369.7020, 13748.00
370.9040, 13735.00
372.1050, 13722.00
373.3060, 13855.00
374.5070, 13876.00
375.7070, 13933.00
376.9080, 13886.00
378.1080, 13842.00
379.3080, 13847.00
380.5080, 13808.88
381.7080, 13945.00
382.9070, 13875.00
384.1070, 13895.00
385.3060, 14151.00
386.5050, 14025.00
387.7040, 14185.00
388.9030, 14352.00
390.1010, 14147.00
391.3000, 14145.00
392.4980, 14232.00
393.6960, 14215.00
394.8940, 14240.00
396.0920, 14242.00
397.2890, 14129.00
398.4870, 14133.00
399.6840, 14056.00
400.8810, 13971.00
402.0780, 14081.00
403.2750, 13895.00
404.4710, 13920.00
405.6680, 13727.00
406.8640, 13869.00
408.0600, 13890.00
409.2560, 13794.00
410.4520, 13812.00
411.6470, 13917.00
412.8430, 13990.00
414.0380, 13864.00
415.2330, 14064.00
416.4280, 14088.00
417.6220, 14042.00
418.8170, 14263.00
420.0110, 14360.00
421.2050, 14331.00
422.4000, 14449.00
423.5930, 14519.00
424.7870, 14513.00
425.9810, 14887.00
427.1740, 14922.00
428.3670, 15106.00
429.5600, 15113.00
430.7530, 15122.00
431.9460, 15112.00
433.1380, 15089.00
434.3310, 15019.00
435.5230, 15017.00
436.7150, 14843.00
437.9070, 14845.00
439.0980, 14814.00
440.2900, 14708.00
441.4810, 14861.00
442.6720, 14718.00
443.8630, 14609.00
445.0540, 14616.00
446.2450, 14677.00
447.4350, 14722.00
448.6260, 14753.77
449.8160, 14786.44
451.0060, 14830.00
452.1960, 14830.00
453.3850, 14856.00
454.5750, 14882.00
455.7640, 15131.00
456.9530, 15400.00
458.1420, 15427.00
459.3310, 15625.00
460.5200, 15807.00
461.7080, 16162.00
462.8970, 16487.00
464.0850, 16881.00
465.2730, 17088.00
466.4610, 17434.00
467.6480, 18136.00
468.8360, 18840.00
470.0230, 19762.00
471.2100, 20454.00
472.3970, 21701.00
473.5840, 22936.00
474.7710, 24709.00
475.9570, 26110.00
477.1440, 28131.00
478.3300, 30152.00
479.5160, 32359.00
480.7020, 34343.00
481.8870, 36395.00
483.0730, 38431.00
484.2580, 39832.00
485.4430, 41844.00
486.6280, 43398.00
487.8130, 44779.00
488.9980, 46531.00
490.1820, 48615.00
491.3660, 51001.00
492.5510, 52593.00
493.7350, 54814.00
494.9180, 56239.00
496.1020, 56129.00
497.2860, 55667.00
498.4690, 54787.00
499.6520, 53533.00
500.8350, 52105.00
502.0180, 50479.00
503.2000, 49496.00
504.3830, 48908.00
505.5650, 48612.00
506.7470, 48133.00
507.9290, 46979.00
509.1110, 46078.00
510.2930, 44248.00
511.4740, 42603.00
512.6560, 40623.00
513.8370, 39113.00
515.0180, 37666.00
516.1980, 36673.00
517.3790, 36418.00
518.5600, 36323.00
519.7400, 36489.00
520.9200, 37323.00
522.1000, 38531.00
523.2800, 39710.00
524.4590, 41232.00
525.6390, 43057.00
526.8180, 44185.00
527.9970, 45318.00
529.1760, 45087.00
530.3550, 44128.00
531.5340, 42348.00
532.7120, 39905.00
533.8910, 37329.00
535.0690, 34229.00
536.2470, 31600.00
537.4250, 29457.00
538.6020, 27170.00
539.7800, 25355.00
540.9570, 24060.00
542.1340, 23036.00
543.3110, 22120.00
544.4880, 21316.00
545.6650, 20597.00
546.8410, 20055.00
548.0170, 19539.00
549.1940, 19355.00
550.3690, 18889.00
551.5450, 18656.00
552.7210, 18491.00
553.8960, 18080.00
555.0720, 17899.00
556.2470, 17599.00
557.4220, 17302.00
558.5970, 17186.00
559.7710, 17054.00
560.9460, 16762.00
562.1200, 16785.00
563.2940, 16641.00
564.4680, 16593.00
565.6420, 16515.00
566.8160, 16343.00
567.9890, 16264.00
569.1630, 16107.00
570.3360, 16113.00
571.5090, 16023.00
572.6820, 15957.00
573.8540, 15830.00
575.0270, 15703.00
576.1990, 15686.68
577.3710, 15759.00
578.5430, 15646.00
579.7150, 15641.00
580.8870, 15632.00
582.0580, 15617.00
583.2300, 15639.00
584.4010, 15594.00
585.5720, 15534.00
586.7430, 15553.00
587.9130, 15521.64
589.0840, 15686.00
590.2540, 15559.00
591.4240, 15666.00
592.5940, 15789.00
593.7640, 15801.00
594.9340, 15721.00
596.1030, 15841.00
597.2730, 15776.00
598.4420, 15635.00
599.6110, 15711.00
600.7800, 15583.00
601.9490, 15635.00
603.1170, 15533.00
604.2850, 15563.00
605.4540, 15511.00
606.6220, 15541.00
607.7900, 15494.00
608.9570, 15507.07
610.1250, 15485.00
611.2920, 15558.00
612.4590, 15714.00
613.6260, 15819.00
614.7930, 15624.00
615.9600, 15843.00
617.1270, 15620.00
618.2930, 15873.00
619.4590, 15686.00
620.6250, 15801.00
621.7910, 15948.00
622.9570, 15906.00
624.1220, 15920.00
625.2880, 15902.00
626.4530, 15840.00
627.6180, 15727.00
628.7830, 15871.00
629.9480, 15988.00
631.1120, 15855.00
632.2770, 15846.00
633.4410, 15817.00
634.6050, 15901.00
635.7690, 15869.00
636.9330, 15856.00
638.0960, 15776.00
639.2600, 15779.62
640.4230, 15862.00
641.5860, 15797.00
642.7490, 15767.00
643.9120, 15866.00
645.0740, 15864.00
646.2370, 15894.00
647.3990, 15990.00
648.5610, 15893.00
649.7230, 15836.00
650.8850, 15836.00
652.0460, 15864.59
653.2080, 15957.00
654.3690, 15966.00
655.5300, 16104.00
656.6910, 16061.00
657.8520, 16175.00
659.0130, 16201.00
660.1730, 16309.00
661.3330, 16389.00
662.4930, 16206.00
663.6530, 16214.00
664.8130, 16321.00
665.9730, 16295.00
667.1320, 16394.00
668.2920, 16407.00
669.4510, 16515.00
670.6100, 16366.00
671.7680, 16313.00
672.9270, 16695.00
674.0860, 16405.00
675.2440, 16546.00
676.4020, 16380.00
677.5600, 16619.00
678.7180, 16746.00
679.8760, 16628.00
681.0330, 16584.00
682.1900, 16645.00
683.3480, 16739.00
684.5050, 16535.00
685.6610, 16725.00
686.8180, 16582.00
687.9750, 16534.00
689.1310, 16516.00
690.2870, 16512.00
691.4430, 16555.00
692.5990, 16524.00
693.7550, 16440.00
694.9100, 16338.00
696.0660, 16377.00
697.2210, 16522.00
698.3760, 16607.00
699.5310, 16620.00
700.6860, 16411.00
701.8400, 16352.00
702.9940, 16381.00
704.1490, 16340.00
705.3030, 16642.00
706.4570, 16690.00
707.6100, 16539.00
708.7640, 16703.00
709.9170, 16648.00
711.0710, 16612.00
712.2240, 16532.00
713.3770, 16730.00
714.5290, 16664.00
715.6820, 16737.00
716.8340, 16715.00
717.9870, 16904.00
719.1390, 16877.00
720.2910, 16977.00
721.4430, 16973.00
722.5940, 16844.00
723.7460, 16787.00
724.8970, 16858.00
726.0480, 16916.00
727.1990, 16894.00
728.3500, 16890.00
729.5000, 16933.00
730.6510, 16941.00
731.8010, 16971.30
732.9510, 16977.00
734.1010, 16983.00
735.2510, 16998.00
736.4010, 16893.00
737.5500, 16878.00
738.7000, 16800.00
739.8490, 16991.00
740.9980, 17049.00
742.1470, 16914.00
743.2950, 16909.00
744.4440, 17162.00
745.5920, 17084.00
746.7400, 17025.99
747.8880, 17026.21
749.0360, 16873.00
750.1840, 16773.00
751.3310, 16945.00
752.4790, 16696.00
753.6260, 16757.00
754.7730, 16847.00
755.9200, 16957.00
757.0670, 16928.00
758.2130, 16907.00
759.3600, 17047.00
760.5060, 16868.00
761.6520, 17017.00
762.7980, 16909.00
763.9440, 16832.00
765.0890, 16940.00
766.2350, 16938.00
767.3800, 17107.00
768.5250, 16974.00
769.6700, 17115.19
770.8150, 17259.93
771.9590, 17341.80
773.1040, 17364.18
774.2480, 17148.89
775.3920, 17240.50
776.5360, 17209.12
777.6800, 17172.70
778.8240, 17307.50
779.9670, 17126.78
781.1100, 17258.87
782.2540, 17266.09
783.3970, 17305.00
784.5390, 17068.00
785.6820, 17294.00
786.8240, 17472.00
787.9670, 17417.00
789.1090, 17342.00
790.2510, 17417.00
791.3930, 17449.00
792.5350, 17257.00
793.6760, 17396.00
794.8170, 17420.00
795.9590, 17342.00
797.1000, 17355.00
798.2410, 17301.00
799.3810, 17077.00
800.5220, 17261.00
801.6620, 17329.00
802.8030, 17328.00
803.9430, 17148.00
805.0820, 17216.00
806.2220, 17184.00
807.3620, 17262.00
808.5010, 17169.00
809.6410, 17239.00
810.7800, 17239.00
811.9190, 17382.00
813.0570, 17182.00
814.1960, 17318.00
815.3340, 17311.00
816.4730, 17217.00
817.6110, 17489.00
818.7490, 17139.00
819.8870, 17352.00
821.0240, 17406.00
822.1620, 17299.00
823.2990, 17337.00
824.4360, 17453.00
825.5730, 17332.00
826.7100, 17274.00
827.8470, 17391.00
828.9830, 17374.00
830.1200, 17408.00
831.2560, 17421.00
832.3920, 17423.69
833.5280, 17442.00
834.6630, 17462.00
835.7990, 17445.00
836.9340, 17510.00
838.0700, 17533.13
839.2050, 17481.00
840.3400, 17525.00
841.4740, 17636.00
842.6090, 17422.00
843.7430, 17449.00
844.8780, 17659.00
846.0120, 17589.00
847.1460, 17610.00
848.2790, 17756.00
849.4130, 17740.00
850.5460, 17558.00
851.6800, 17642.00
852.8130, 17711.00
853.9460, 17799.00
855.0790, 17750.00
856.2110, 17620.00
857.3440, 17779.00
858.4760, 17642.00
859.6080, 17887.00
860.7400, 17908.00
861.8720, 17899.00
863.0040, 17838.00
864.1350, 17691.00
865.2670, 17846.00
866.3980, 17848.00
867.5290, 17761.00
868.6600, 17997.00
869.7900, 18074.00
870.9210, 17880.00
872.0510, 17939.00
873.1820, 17923.00
874.3120, 17987.00
875.4420, 17952.00
876.5710, 18015.00
877.7010, 18177.00
878.8300, 17892.00
879.9600, 18081.00
881.0890, 17957.00
882.2180, 18176.00
883.3460, 18075.00
884.4750, 18016.00
885.6040, 18386.00
886.7320, 18262.00
887.8600, 18233.00
888.9880, 18098.00
890.1160, 18189.00
891.2430, 18278.00
892.3710, 18347.00
893.4980, 18175.00
894.6260, 18243.00
895.7530, 18362.00
896.8790, 18217.00
898.0060, 18296.00
899.1330, 18282.00
900.2590, 18394.00
901.3850, 18394.76
902.5110, 18296.00
903.6370, 18429.00
904.7630, 18504.00
905.8890, 18521.00
907.0140, 18751.00
908.1390, 18648.00
909.2640, 18478.00
910.3890, 18708.00
911.5140, 18664.00
912.6390, 18622.00
913.7630, 18717.00
914.8870, 18704.00
916.0120, 18582.00
917.1360, 18619.00
918.2590, 18713.00
919.3830, 18687.85
920.5070, 18904.00
921.6300, 18810.00
922.7530, 18938.00
923.8760, 19092.00
924.9990, 19115.00
926.1220, 19128.00
927.2440, 19281.00
928.3670, 19255.00
929.4890, 19291.89
930.6110, 19234.00
931.7330, 19289.00
932.8540, 19243.00
933.9760, 19220.00
935.0980, 19220.00
936.2190, 19543.00
937.3400, 19445.00
938.4610, 19574.00
939.5820, 19483.00
940.7020, 19635.00
941.8230, 19793.00
942.9430, 19980.00
944.0630, 19755.00
945.1830, 19845.00
946.3030, 19960.00
947.4230, 19968.04
948.5420, 20200.00
949.6610, 20178.00
950.7810, 20323.00
951.9000, 20401.00
953.0190, 20589.00
954.1370, 20499.00
955.2560, 20612.00
956.3740, 20578.00
957.4920, 20816.00
958.6110, 20881.00
959.7280, 20862.00
960.8460, 20944.06
961.9640, 20848.00
963.0810, 20925.00
964.1990, 20968.00
965.3160, 20941.00
966.4330, 21013.00
967.5490, 20978.40
968.6660, 21061.00
969.7830, 20977.00
970.8990, 21007.00
972.0150, 21103.00
973.1310, 21064.66
974.2470, 21036.00
975.3630, 21107.00
976.4780, 21304.00
977.5930, 21365.00
978.7090, 21266.00
979.8240, 21330.00
980.9390, 21226.00
982.0530, 21538.00
983.1680, 21480.00
984.2820, 21458.00
985.3970, 21526.00
986.5110, 21405.00
987.6250, 21482.00
988.7380, 21714.00
989.8520, 21626.00
990.9660, 21419.00
992.0790, 21382.00
993.1920, 21573.00
994.3050, 21601.00
995.4180, 21522.00
996.5300, 21668.00
997.6430, 21494.00
998.7550, 21789.00
999.8680, 21495.00
1000.980, 21756.00
1002.091, 21506.00
1003.203, 21609.00
1004.315, 21621.00
1005.426, 21795.00
1006.537, 21916.00
1007.648, 21777.00
1008.759, 21778.00
1009.870, 21653.00
1010.981, 22159.00
1012.091, 21981.00
1013.201, 21975.00
1014.312, 21948.00
1015.422, 21889.00
1016.531, 22109.00
1017.641, 22070.00
1018.751, 22188.00
1019.860, 22107.00
1020.969, 22181.00
1022.078, 22189.08
1023.187, 22178.00
1024.296, 22194.00
1025.404, 22305.00
1026.513, 22282.00
1027.621, 22233.00
1028.729, 22382.00
1029.837, 22319.74
1030.945, 22360.64
1032.052, 22329.00
1033.160, 22430.00
1034.267, 22460.00
1035.374, 22580.00
1036.481, 22527.00
1037.588, 22679.00
1038.695, 22898.00
1039.801, 22645.00
1040.907, 22825.00
1042.014, 22691.00
1043.120, 22707.00
1044.225, 22929.00
1045.331, 22842.00
1046.437, 22721.00
1047.542, 22984.00
1048.647, 23016.00
1049.752, 22866.00
1050.857, 23255.00
1051.962, 22991.00
1053.067, 23278.00
1054.171, 23341.00
1055.275, 23386.00
1056.380, 23625.00
1057.484, 23566.00
1058.587, 23501.00
1059.691, 23554.00
1060.795, 23690.00
1061.898, 23561.00
1063.001, 23609.00
1064.104, 23560.00
1065.207, 23632.00
1066.310, 23505.00
1067.412, 23430.00
1068.515, 23525.00
1069.617, 23414.00
1070.719, 23496.00
1071.821, 23360.00
1072.923, 23174.00
1074.024, 23438.00
1075.126, 23403.00
1076.227, 23261.00
1077.328, 23316.00
1078.429, 23424.00
1079.530, 23293.00
1080.631, 23503.00
1081.731, 23299.00
1082.831, 23443.00
1083.932, 23383.00
1085.032, 23359.00
1086.132, 23236.00
1087.231, 23392.00
1088.331, 23336.00
1089.430, 23342.00
1090.530, 23180.00
1091.629, 23171.00
1092.728, 23475.00
1093.826, 23128.00
1094.925, 23377.00
1096.023, 23413.00
1097.122, 23348.00
1098.220, 23443.00
1099.318, 23536.00
1100.416, 23468.00
1101.513, 23607.00
1102.611, 23659.00
1103.708, 23721.00
1104.806, 23556.00
1105.903, 23382.00
1107.000, 23695.00
1108.096, 23519.00
1109.193, 23582.00
1110.289, 23522.00
1111.386, 23502.04
1112.482, 23492.00
1113.578, 23500.00
1114.673, 23486.65
1115.769, 23464.00
1116.865, 23446.00
1117.960, 23509.00
1119.055, 23589.00
1120.150, 23496.00
1121.245, 23162.00
1122.340, 23489.00
1123.434, 23334.00
1124.529, 23343.00
1125.623, 23419.00
1126.717, 23147.00
1127.811, 23453.00
1128.905, 23298.00
1129.998, 22998.00
1131.092, 23234.00
1132.185, 23088.00
1133.278, 23181.00
1134.371, 23300.00
1135.464, 22936.00
1136.557, 23282.00
1137.649, 22956.00
1138.742, 23232.00
1139.834, 23347.00
1140.926, 23052.00
1142.018, 22983.00
1143.109, 23082.00
1144.201, 22688.00
1145.292, 22988.00
1146.384, 23085.00
1147.475, 22926.00
1148.566, 22884.00
1149.657, 22943.00
1150.747, 22641.00
1151.838, 22757.00
1152.928, 22750.00
1154.018, 22796.00
1155.108, 22767.00
1156.198, 22619.00
1157.288, 22600.00
1158.377, 22637.00
1159.467, 22678.00
1160.556, 22615.05
1161.645, 22558.00
1162.734, 22510.00
1163.823, 22467.00
1164.911, 22428.00
1166.000, 22494.00
1167.088, 22450.00
1168.176, 22520.00
1169.264, 22354.00
1170.352, 22277.00
1171.440, 22408.00
1172.527, 22315.00
1173.615, 22299.00
1174.702, 22390.00
1175.789, 22327.35
1176.876, 22373.00
1177.963, 22345.00
1179.049, 22274.00
1180.136, 22329.00
1181.222, 22290.82
1182.308, 22237.00
1183.394, 22277.00
1184.480, 22324.00
1185.566, 22299.00
1186.651, 22281.00
1187.736, 22473.00
1188.822, 22361.00
1189.907, 22416.00
1190.992, 22328.00
1192.076, 22535.00
1193.161, 22426.00
1194.245, 22438.00
1195.330, 22361.00
1196.414, 22410.74
1197.498, 22451.00
1198.581, 22501.00
1199.665, 22549.00
1200.749, 22521.00
1201.832, 22303.00
1202.915, 22456.00
1203.998, 22345.00
1205.081, 22390.00
1206.164, 22560.00
1207.246, 22594.00
1208.329, 22708.00
1209.411, 22478.00
1210.493, 22619.00
1211.575, 22483.00
1212.657, 22685.00
1213.738, 22816.00
1214.820, 22581.00
1215.901, 22500.00
1216.982, 22517.00
1218.063, 22566.00
1219.144, 22646.40
1220.225, 22803.28
1221.305, 22897.27
1222.386, 22931.79
1223.466, 22728.62
1224.546, 22832.36
1225.626, 22813.10
1226.706, 22788.80
1227.785, 22935.72
1228.865, 22767.12
1229.944, 22911.32
1231.023, 22930.65
1232.102, 23007.14
1233.181, 22959.87
1234.260, 22950.82
1235.338, 23065.55
1236.417, 23111.75
1237.495, 23050.23
1238.573, 23130.33
1239.651, 22957.38
1240.729, 23016.00
1241.806, 22974.00
1242.884, 23010.00
1243.961, 22949.21
1245.038, 23086.00
1246.115, 22879.00
1247.192, 22922.00
1248.269, 22938.00
1249.345, 23038.00
1250.421, 23142.00
