##NAMES=Leucite
##RRUFFID=R040107
##IDEAL CHEMISTRY=K(Si_2_Al)O_6_
##LOCALITY=Roccamonfina, Italy
##OWNER=RRUFF
##SOURCE=University of Arizona Mineral Museum
##DESCRIPTION=Rounded colorless crystals embedded in an ash matrix
##STATUS=The identification of this mineral has been confirmed by X-ray diffraction and chemical analysis
##URL=rruff.info/R040107
##MEASURED CHEMISTRY=(K_0.95_Na_0.03_)Al_0.99_Si_2.01_O_6_
##PIN_ID=L00276
##ORIENTATION=Laser parallel to -a* (-1 0 0). Fiducial mark perpendicular to laser is parallel to c [0 0 1]
75.80300, 35048.00
77.04300, 35543.00
78.28300, 36246.00
79.52300, 36533.00
80.76300, 36939.00
82.00300, 38535.00
83.24300, 40907.00
84.48300, 42682.00
85.72200, 42285.00
86.96100, 39128.00
88.20000, 36160.00
89.43900, 34473.00
90.67800, 34173.00
91.91600, 34486.00
93.15500, 34402.00
94.39300, 34338.00
95.63100, 34526.00
96.86900, 34303.00
98.10600, 33968.00
99.34400, 33900.00
100.5810, 33788.00
101.8190, 33543.00
103.0560, 33384.00
104.2930, 33200.00
105.5290, 32972.00
106.7660, 33063.00
108.0020, 33176.00
109.2390, 32985.00
110.4750, 32948.00
111.7110, 33314.00
112.9460, 33499.00
114.1820, 34314.00
115.4170, 34584.00
116.6530, 35296.00
117.8880, 36378.00
119.1230, 36289.00
120.3580, 37024.00
121.5920, 40087.00
122.8270, 43409.00
124.0610, 45322.00
125.2950, 44503.00
126.5290, 39811.00
127.7630, 35519.00
128.9970, 33901.00
130.2300, 33967.00
131.4640, 34409.00
132.6970, 35009.00
133.9300, 35511.00
135.1630, 36660.00
136.3950, 37293.00
137.6280, 38700.00
138.8600, 39758.00
140.0920, 40989.00
141.3240, 41888.00
142.5560, 42986.00
143.7880, 44088.00
145.0190, 45879.00
146.2510, 46768.68
147.4820, 47533.00
148.7130, 48957.00
149.9440, 49540.00
151.1750, 50482.00
152.4050, 50934.00
153.6360, 51775.00
154.8660, 52092.00
156.0960, 52150.84
157.3260, 52067.00
158.5560, 51680.00
159.7850, 51228.00
161.0150, 50402.00
162.2440, 49517.00
163.4730, 48530.00
164.7020, 47569.00
165.9310, 46659.00
167.1590, 45637.00
168.3880, 44892.00
169.6160, 43552.00
170.8440, 42961.00
172.0720, 42850.00
173.3000, 43104.00
174.5280, 43099.00
175.7550, 44037.00
176.9820, 45447.00
178.2100, 45517.00
179.4370, 46627.00
180.6630, 47332.00
181.8900, 47500.00
183.1170, 47329.00
184.3430, 47212.00
185.5690, 46692.00
186.7950, 45675.00
188.0210, 44536.00
189.2470, 43126.00
190.4720, 41907.00
191.6970, 40530.00
192.9230, 39177.00
194.1480, 37828.00
195.3730, 36825.80
196.5970, 35796.01
197.8220, 34954.00
199.0460, 34276.00
200.2700, 33416.00
201.4940, 33083.00
202.7180, 32560.00
203.9420, 32145.00
205.1660, 31978.00
206.3890, 31844.00
207.6120, 31894.00
208.8350, 31877.00
210.0580, 31933.00
211.2810, 31934.00
212.5040, 31761.00
213.7260, 31657.00
214.9480, 31496.00
216.1700, 31491.00
217.3920, 31242.00
218.6140, 30647.00
219.8360, 30289.00
221.0570, 29435.00
222.2790, 28709.00
223.5000, 28117.00
224.7210, 27540.00
225.9410, 26883.00
227.1620, 26327.00
228.3820, 25780.00
229.6030, 25219.00
230.8230, 24681.00
232.0430, 24261.87
233.2630, 23744.00
234.4820, 23442.00
235.7020, 23044.00
236.9210, 22580.00
238.1400, 22416.00
239.3590, 21878.00
240.5780, 21830.00
241.7970, 21523.00
243.0150, 21457.00
244.2340, 21287.00
245.4520, 21367.00
246.6700, 21152.00
247.8880, 21060.00
249.1060, 21058.00
250.3230, 21002.00
251.5400, 21007.00
252.7580, 20992.00
253.9750, 21039.00
255.1920, 20926.00
256.4080, 21027.00
257.6250, 20989.00
258.8410, 21085.00
260.0580, 21086.00
261.2740, 21246.00
262.4900, 21266.00
263.7050, 21196.00
264.9210, 21393.00
266.1360, 21523.00
267.3520, 21348.00
268.5670, 21383.00
269.7820, 21592.00
270.9960, 21620.00
272.2110, 21899.00
273.4250, 21798.00
274.6400, 21976.00
275.8540, 21838.00
277.0680, 21804.54
278.2810, 21529.00
279.4950, 21662.00
280.7090, 21721.00
281.9220, 21717.00
283.1350, 22024.00
284.3480, 21867.00
285.5610, 22282.00
286.7730, 22698.00
287.9860, 22894.00
289.1980, 23174.00
290.4100, 23670.00
291.6220, 24249.00
292.8340, 24756.00
294.0460, 25302.72
295.2570, 25825.00
296.4690, 26421.00
297.6800, 27102.00
298.8910, 27739.00
300.1020, 28170.00
301.3120, 28382.00
302.5230, 28821.00
303.7330, 28872.00
304.9440, 28622.00
306.1540, 28968.00
307.3630, 28299.00
308.5730, 27929.00
309.7830, 27744.00
310.9920, 27643.00
312.2010, 27024.00
313.4100, 26789.00
314.6190, 26583.00
315.8280, 26318.00
317.0370, 26223.00
318.2450, 25789.00
319.4530, 25875.00
320.6610, 25489.00
321.8690, 25540.00
323.0770, 25484.64
324.2850, 25685.00
325.4920, 25629.00
326.6990, 25734.00
327.9060, 26164.00
329.1130, 26194.00
330.3200, 26323.00
331.5270, 26984.00
332.7330, 27218.00
333.9390, 27470.00
335.1450, 27728.00
336.3510, 27649.00
337.5570, 28090.00
338.7630, 27863.00
339.9680, 27955.00
341.1740, 27770.00
342.3790, 27499.00
343.5840, 27147.00
344.7890, 26820.00
345.9930, 26532.25
347.1980, 26308.00
348.4020, 25916.00
349.6060, 25693.00
350.8100, 25345.00
352.0140, 25010.00
353.2180, 24913.00
354.4210, 24647.00
355.6250, 24800.00
356.8280, 24658.00
358.0310, 24698.00
359.2340, 24682.00
360.4360, 24835.00
361.6390, 24740.00
362.8410, 24704.00
364.0430, 24919.00
365.2450, 24972.00
366.4470, 25426.00
367.6490, 25198.00
368.8510, 25484.00
370.0520, 25417.00
371.2530, 25446.00
372.4540, 25495.00
373.6550, 25678.00
374.8560, 25713.00
376.0560, 25988.00
377.2570, 25927.00
378.4570, 25987.00
379.6570, 26220.00
380.8570, 26068.00
382.0570, 26194.00
383.2560, 26272.00
384.4560, 26651.00
385.6550, 26665.00
386.8540, 26651.00
388.0530, 26852.00
389.2520, 26888.00
390.4510, 27005.00
391.6490, 26805.00
392.8470, 26922.00
394.0450, 26813.00
395.2430, 26831.00
396.4410, 26612.00
397.6390, 26620.00
398.8360, 26301.00
400.0340, 26222.00
401.2310, 25938.00
402.4280, 25784.05
403.6250, 25557.00
404.8210, 25421.00
406.0180, 25251.74
407.2140, 24841.00
408.4100, 24932.00
409.6060, 24850.00
410.8020, 24665.00
411.9980, 24865.00
413.1930, 24737.00
414.3890, 25020.00
415.5840, 24708.00
416.7790, 24909.00
417.9740, 24757.00
419.1680, 25151.00
420.3630, 25192.00
421.5570, 25567.00
422.7510, 25535.00
423.9450, 26019.00
425.1390, 26308.00
426.3330, 26311.00
427.5270, 26738.00
428.7200, 26805.00
429.9130, 27264.00
431.1060, 27103.00
432.2990, 27529.00
433.4920, 27242.00
434.6840, 27060.00
435.8770, 27105.00
437.0690, 26995.00
438.2610, 26539.00
439.4530, 26384.00
440.6450, 26023.00
441.8360, 25747.00
443.0280, 25454.00
444.2190, 25544.00
445.4100, 25507.00
446.6010, 25767.00
447.7920, 25852.00
448.9820, 25656.00
450.1730, 25779.00
451.3630, 26131.00
452.5530, 26295.50
453.7430, 26707.58
454.9330, 27061.00
456.1230, 27533.00
457.3120, 28019.00
458.5010, 28377.00
459.6910, 29589.00
460.8800, 29872.00
462.0680, 30519.00
463.2570, 32338.00
464.4460, 32100.00
465.6340, 33253.00
466.8220, 34186.00
468.0100, 35831.00
469.1980, 37768.00
470.3860, 39794.00
471.5730, 42491.00
472.7600, 45198.00
473.9480, 49022.00
475.1350, 53648.00
476.3210, 57860.00
477.5080, 63026.00
478.6950, 69226.00
479.8810, 74808.00
481.0670, 81644.00
482.2530, 88298.00
483.4390, 94519.00
484.6250, 100174.0
485.8100, 105738.0
486.9960, 111941.0
488.1810, 117718.0
489.3660, 123385.0
490.5510, 129569.0
491.7360, 136198.0
492.9200, 142373.0
494.1050, 147853.0
495.2890, 153292.0
496.4730, 155757.0
497.6570, 158515.0
498.8400, 156077.0
500.0240, 154748.0
501.2070, 151177.0
502.3910, 146941.0
503.5740, 143292.0
504.7570, 139683.0
505.9400, 137370.0
507.1220, 134687.0
508.3050, 132693.0
509.4870, 129264.0
510.6690, 124536.0
511.8510, 119732.0
513.0330, 115022.0
514.2140, 109627.0
515.3960, 105194.0
516.5770, 101182.0
517.7580, 98423.00
518.9390, 96895.00
520.1200, 96101.00
521.3010, 96747.00
522.4810, 98698.00
523.6610, 101890.0
524.8420, 105354.0
526.0220, 109721.0
527.2010, 113224.0
528.3810, 116152.0
529.5610, 118092.0
530.7400, 117062.0
531.9190, 114513.0
533.0980, 108728.0
534.2770, 102382.0
535.4560, 94239.00
536.6340, 86087.00
537.8120, 78834.00
538.9910, 71197.00
540.1690, 64985.00
541.3460, 59522.00
542.5240, 55307.00
543.7020, 51773.00
544.8790, 48839.00
546.0560, 45586.00
547.2330, 43385.00
548.4100, 41418.00
549.5870, 40057.00
550.7630, 38902.00
551.9400, 37950.00
553.1160, 36886.00
554.2920, 35951.71
555.4680, 35000.00
556.6440, 34226.00
557.8190, 33473.00
558.9950, 32807.00
560.1700, 32212.00
561.3450, 31601.09
562.5200, 31317.00
563.6950, 30631.00
564.8690, 30173.00
566.0440, 29968.00
567.2180, 29306.00
568.3920, 29160.00
569.5660, 28658.00
570.7400, 28597.00
571.9130, 28167.34
573.0870, 27900.00
574.2600, 27515.00
575.4330, 27197.00
576.6060, 27089.00
577.7790, 27003.00
578.9520, 26950.00
580.1240, 26751.00
581.2960, 26917.00
582.4690, 26796.00
583.6410, 26614.00
584.8120, 26863.00
585.9840, 26375.00
587.1560, 26700.00
588.3270, 26881.00
589.4980, 26620.00
590.6690, 26578.00
591.8400, 26563.00
593.0110, 26739.00
594.1810, 26730.00
595.3510, 26874.00
596.5220, 26612.00
597.6920, 26597.00
598.8610, 26653.00
600.0310, 26351.00
601.2010, 26483.00
602.3700, 26538.00
603.5390, 26346.00
604.7080, 26396.00
605.8770, 26265.00
607.0460, 26174.00
608.2140, 26361.00
609.3830, 26019.00
610.5510, 25997.00
611.7190, 26136.00
612.8870, 26114.00
614.0550, 26119.00
615.2220, 26178.00
616.3900, 26204.00
617.5570, 26490.00
618.7240, 26581.00
619.8910, 26151.00
621.0580, 26456.00
622.2240, 26418.00
623.3910, 26695.00
624.5570, 26577.00
625.7230, 26611.00
626.8890, 26652.00
628.0550, 26719.00
629.2200, 26687.00
630.3860, 26786.00
631.5510, 26641.00
632.7160, 26683.00
633.8810, 26664.00
635.0460, 26509.00
636.2100, 26671.00
637.3750, 26529.00
638.5390, 26631.00
639.7030, 26682.00
640.8670, 26518.00
642.0310, 26401.00
643.1950, 26447.00
644.3580, 26625.00
645.5210, 26190.00
646.6850, 26406.00
647.8480, 26272.00
649.0100, 26352.00
650.1730, 26431.00
651.3350, 26332.00
652.4980, 26457.00
653.6600, 26550.00
654.8220, 26344.00
655.9840, 26822.00
657.1450, 26641.00
658.3070, 26928.00
659.4680, 26868.00
660.6300, 26854.00
661.7910, 26992.00
662.9510, 27006.00
664.1120, 27069.00
665.2730, 27021.00
666.4330, 27262.00
667.5930, 27564.00
668.7530, 27432.00
669.9130, 27572.00
671.0730, 27810.00
672.2320, 27875.00
673.3920, 28114.00
674.5510, 27800.00
675.7100, 27829.00
676.8690, 28209.00
678.0280, 27956.00
679.1860, 28188.00
680.3450, 27891.00
681.5030, 28058.00
682.6610, 28105.00
683.8190, 28091.00
684.9770, 28098.00
686.1340, 27981.00
687.2920, 27946.00
688.4490, 27771.00
689.6060, 27440.00
690.7630, 27402.00
691.9200, 27194.41
693.0760, 27252.00
694.2330, 27012.00
695.3890, 27106.00
696.5450, 27224.00
697.7010, 27008.00
698.8570, 26773.00
700.0130, 27201.00
701.1680, 26961.00
702.3230, 27124.00
703.4780, 26857.00
704.6330, 27028.00
705.7880, 27270.00
706.9430, 27240.00
708.0970, 27179.00
709.2520, 27240.00
710.4060, 27488.00
711.5600, 27455.00
712.7140, 27612.00
713.8670, 27709.00
715.0210, 27614.95
716.1740, 27747.46
717.3270, 27803.01
718.4800, 27845.00
719.6330, 27948.00
720.7860, 28012.00
721.9380, 27987.00
723.0910, 28502.00
724.2430, 28349.00
725.3950, 28328.00
726.5470, 28024.00
727.6980, 27862.00
728.8500, 28095.00
730.0010, 27964.00
731.1530, 27862.00
732.3040, 27940.00
733.4550, 27753.00
734.6050, 27904.00
735.7560, 27967.00
736.9060, 28162.00
738.0560, 28074.00
739.2060, 28043.00
740.3560, 28253.00
741.5060, 28358.00
742.6560, 28126.00
743.8050, 28135.00
744.9540, 28067.00
746.1030, 28194.00
747.2520, 28114.00
748.4010, 28078.00
749.5500, 28128.00
750.6980, 28033.00
751.8460, 28101.92
752.9950, 28085.00
754.1420, 28159.00
755.2900, 28142.00
756.4380, 28089.00
757.5850, 27936.00
758.7330, 28018.00
759.8800, 28253.00
761.0270, 28378.00
762.1730, 28240.00
763.3200, 28507.00
764.4670, 28426.79
765.6130, 28440.51
766.7590, 28435.00
767.9050, 28514.00
769.0510, 28589.00
770.1960, 28841.00
771.3420, 29000.00
772.4870, 29013.00
773.6320, 29067.00
774.7770, 29176.00
775.9220, 29248.00
777.0670, 29360.00
778.2110, 29716.00
779.3560, 30004.00
780.5000, 30118.00
781.6440, 29997.00
782.7880, 29831.00
783.9320, 30282.00
785.0750, 29987.00
786.2180, 30240.00
787.3620, 30042.00
788.5050, 30445.00
789.6480, 30415.00
790.7900, 30117.00
791.9330, 30089.00
793.0750, 30020.00
794.2170, 29909.00
795.3590, 29989.00
796.5010, 29751.00
797.6430, 29727.00
798.7850, 29567.00
799.9260, 29615.00
801.0670, 29462.00
802.2080, 29412.87
803.3490, 29375.08
804.4900, 29309.00
805.6310, 29204.00
806.7710, 29132.71
807.9110, 28985.71
809.0510, 28949.00
810.1910, 28869.00
811.3310, 28795.23
812.4710, 28755.36
813.6100, 28709.00
814.7490, 28646.00
815.8880, 28551.00
817.0270, 28459.00
818.1660, 28500.00
819.3050, 28359.00
820.4430, 28198.00
821.5820, 28280.00
822.7200, 28205.00
823.8580, 28382.00
824.9950, 28040.00
826.1330, 28219.00
827.2710, 28021.00
828.4080, 28315.00
829.5450, 28193.00
830.6820, 27998.00
831.8190, 28050.00
832.9560, 28186.00
834.0920, 28664.00
835.2280, 28664.00
836.3650, 28352.00
837.5010, 28146.00
838.6360, 28111.00
839.7720, 28430.00
840.9080, 28118.00
842.0430, 28430.00
843.1780, 28186.00
844.3130, 28331.00
845.4480, 28473.00
846.5830, 28409.00
847.7170, 28661.00
848.8520, 28324.00
849.9860, 28638.00
851.1200, 28560.00
852.2540, 28694.00
853.3870, 28630.00
854.5210, 28785.00
855.6540, 28707.00
856.7880, 28841.00
857.9210, 28821.57
859.0540, 28791.00
860.1860, 28879.00
861.3190, 28729.00
862.4510, 28917.00
863.5840, 29033.00
864.7160, 28912.00
865.8480, 29050.00
866.9790, 29287.00
868.1110, 29220.00
869.2420, 29010.00
870.3740, 29262.00
871.5050, 29123.00
872.6360, 29217.00
873.7660, 29341.00
874.8970, 29230.00
876.0280, 29368.00
877.1580, 29174.00
878.2880, 29254.00
879.4180, 29332.00
880.5480, 29473.00
881.6770, 29426.00
882.8070, 29511.50
883.9360, 29707.00
885.0650, 29613.00
886.1940, 29620.00
887.3230, 29758.00
888.4520, 29652.00
889.5800, 29744.00
890.7090, 29787.00
891.8370, 29739.00
892.9650, 29893.00
894.0930, 30001.00
895.2200, 30001.64
896.3480, 30158.00
897.4750, 30100.00
898.6020, 30183.00
899.7290, 30312.00
900.8560, 30281.00
901.9830, 30460.00
903.1090, 30508.00
904.2360, 30434.00
905.3620, 30438.00
906.4880, 30690.00
907.6140, 30710.26
908.7400, 30795.00
909.8650, 30998.00
910.9900, 31126.00
912.1160, 31285.00
913.2410, 31388.00
914.3660, 31237.00
915.4900, 31358.00
916.6150, 31572.00
917.7390, 31772.00
918.8640, 31596.00
919.9880, 31781.00
921.1120, 31847.00
922.2350, 31889.00
923.3590, 32129.00
924.4820, 32159.00
925.6060, 32076.00
926.7290, 32444.00
927.8520, 32551.00
928.9740, 32443.00
930.0970, 32597.00
931.2190, 32778.00
932.3420, 32738.00
933.4640, 32807.00
934.5860, 32947.00
935.7080, 33007.16
936.8290, 33234.00
937.9510, 33300.00
939.0720, 33452.00
940.1930, 33707.00
941.3140, 33786.39
942.4350, 33931.09
943.5560, 34072.00
944.6760, 34118.00
945.7960, 34278.00
946.9170, 34348.00
948.0370, 34724.00
949.1560, 34935.00
950.2760, 34999.00
951.3960, 35244.00
952.5150, 35317.00
953.6340, 35516.00
954.7530, 35716.00
955.8720, 35879.00
956.9910, 36014.00
958.1090, 36064.00
959.2280, 36183.00
960.3460, 36291.93
961.4640, 36462.00
962.5820, 36567.00
963.6990, 36678.20
964.8170, 36918.00
965.9340, 36822.00
967.0510, 37121.00
968.1690, 37205.00
969.2850, 37319.00
970.4020, 37479.00
971.5190, 37571.16
972.6350, 37648.00
973.7510, 37822.00
974.8670, 37857.00
975.9830, 38014.00
977.0990, 37863.00
978.2150, 37943.00
979.3300, 37848.00
980.4450, 37967.00
981.5600, 37952.00
982.6750, 37876.00
983.7900, 38005.39
984.9050, 38136.00
986.0190, 38166.00
987.1340, 38404.00
988.2480, 38497.00
989.3620, 38438.54
990.4750, 38829.16
991.5890, 39092.18
992.7020, 39234.27
993.8160, 38893.66
994.9290, 39176.37
996.0420, 39209.25
997.1550, 39231.89
998.2670, 39602.25
999.3800, 39331.78
1000.492, 39696.63
1001.604, 39438.00
1002.716, 39814.00
1003.828, 39899.00
1004.940, 39959.00
1006.051, 39810.00
1007.163, 39897.00
1008.274, 40014.53
1009.385, 39974.00
1010.496, 40274.00
1011.606, 40149.00
1012.717, 40086.00
1013.827, 40270.00
1014.937, 40171.00
1016.047, 40299.00
1017.157, 39973.00
1018.267, 40215.89
1019.377, 40581.00
1020.486, 40460.00
1021.595, 40985.00
1022.704, 40953.00
1023.813, 40708.00
1024.922, 40940.64
1026.030, 41109.00
1027.139, 40951.00
1028.247, 41377.00
1029.355, 41156.98
1030.463, 41552.48
1031.571, 41820.29
1032.678, 41967.14
1033.786, 41631.33
1034.893, 41918.81
1036.000, 41956.48
1037.107, 41983.90
1038.214, 42359.12
1039.321, 42093.44
1040.427, 42463.06
1041.533, 42579.04
1042.639, 42811.11
1043.745, 42614.00
1044.851, 42825.00
1045.957, 42786.00
1047.062, 43185.00
1048.168, 43298.00
1049.273, 43535.00
1050.378, 43491.00
1051.482, 43771.00
1052.587, 43780.00
1053.692, 44005.00
1054.796, 44152.00
1055.900, 44225.13
1057.004, 44143.00
1058.108, 44389.00
1059.212, 44366.00
1060.315, 44373.00
1061.418, 44638.00
1062.522, 44500.00
1063.625, 44442.00
1064.728, 44426.00
1065.830, 44530.00
1066.933, 44298.00
1068.035, 44548.00
1069.137, 44465.00
1070.239, 44080.00
1071.341, 44334.00
1072.443, 44112.00
1073.545, 44190.00
1074.646, 44065.00
1075.747, 43974.00
1076.848, 43840.00
1077.949, 43952.00
1079.050, 44055.00
1080.150, 43980.00
1081.251, 43825.00
1082.351, 43695.00
1083.451, 43765.00
1084.551, 43625.23
1085.651, 43559.00
1086.750, 43613.00
1087.850, 43639.00
1088.949, 43865.00
1090.048, 43545.00
1091.147, 43696.00
1092.246, 43441.00
1093.345, 43442.00
1094.443, 43534.00
1095.541, 43538.00
1096.639, 43595.26
1097.737, 43631.16
1098.835, 43733.00
1099.933, 43726.00
1101.030, 43868.00
1102.128, 43998.00
1103.225, 43653.00
1104.322, 43726.00
1105.419, 43812.00
1106.515, 43747.00
1107.612, 43776.00
1108.708, 43954.00
1109.804, 43885.04
1110.900, 44006.00
1111.996, 43808.00
1113.092, 43866.00
1114.187, 43645.00
1115.283, 43868.00
1116.378, 43599.66
1117.473, 43674.00
1118.568, 43152.00
1119.662, 43387.00
1120.757, 43111.00
1121.851, 43110.00
1122.946, 43134.00
1124.040, 43221.00
1125.134, 42938.00
1126.227, 42878.00
1127.321, 42804.00
1128.414, 42513.00
1129.508, 42505.00
1130.601, 42742.00
1131.693, 42312.67
1132.786, 42506.46
1133.879, 42572.54
1134.971, 42517.87
1136.064, 41980.33
1137.156, 42066.28
1138.248, 41902.40
1139.339, 41728.37
1140.431, 41902.05
1141.522, 41434.92
1142.614, 41603.09
1143.705, 41418.00
1144.796, 41455.00
1145.887, 41301.00
1146.977, 41333.00
1148.068, 41343.00
1149.158, 41255.00
1150.248, 40919.00
1151.338, 40788.00
1152.428, 40722.00
1153.518, 40476.00
1154.607, 40774.00
1155.696, 40374.00
1156.785, 40657.00
1157.874, 40419.00
1158.963, 40441.00
1160.052, 40334.00
1161.141, 40199.00
1162.229, 40096.00
1163.317, 39955.00
1164.405, 39895.00
1165.493, 39951.00
1166.581, 39586.00
1167.668, 39814.00
1168.756, 39687.00
1169.843, 39437.00
1170.930, 39761.00
1172.017, 39546.00
1173.103, 39666.00
1174.190, 40049.00
1175.276, 39459.00
1176.363, 39537.68
1177.449, 39227.00
1178.535, 39154.00
1179.620, 39360.00
1180.706, 39378.00
1181.791, 39109.00
1182.877, 39234.00
1183.962, 39568.00
1185.047, 39257.00
1186.131, 39424.00
1187.216, 39302.00
1188.300, 39689.00
1189.385, 39245.00
1190.469, 39299.00
1191.553, 39154.00
1192.637, 39200.00
1193.720, 39209.00
1194.804, 38987.00
1195.887, 39223.00
1196.970, 39452.00
1198.053, 39294.00
1199.136, 39623.00
1200.219, 39187.00
1201.301, 39443.00
1202.383, 39362.00
1203.465, 39338.00
1204.547, 39676.00
1205.629, 39554.00
1206.711, 39811.00
1207.792, 39713.00
1208.874, 39655.00
1209.955, 39694.00
1211.036, 39668.00
1212.117, 39857.00
1213.198, 39750.00
1214.278, 39707.00
1215.359, 39922.00
1216.439, 39940.23
1217.519, 40250.00
1218.599, 40037.00
1219.678, 40085.00
1220.758, 39721.00
1221.837, 40015.00
1222.917, 39971.29
1223.996, 40014.00
1225.075, 40113.00
1226.153, 40214.00
1227.232, 40147.00
1228.310, 40227.00
1229.389, 40230.00
1230.467, 40528.00
1231.545, 40134.00
1232.622, 40335.00
1233.700, 40023.00
1234.777, 40472.00
1235.855, 40298.00
1236.932, 40234.00
1238.009, 40398.00
1239.086, 40428.00
1240.162, 40615.00
1241.239, 40768.00
1242.315, 40619.00
1243.391, 40438.00
1244.467, 40608.00
1245.543, 40402.00
1246.619, 40919.00
1247.694, 40717.00
1248.769, 40608.00
1249.844, 40776.00
1250.919, 40617.00
1251.994, 40905.00
1253.069, 40915.00
1254.144, 40978.00
1255.218, 41212.00
1256.292, 40804.00
1257.366, 40937.00
1258.440, 40912.00
1259.514, 41085.00
