##NAMES=Leucite
##RRUFFID=R040107
##IDEAL CHEMISTRY=K(Si_2_Al)O_6_
##LOCALITY=Roccamonfina, Italy
##OWNER=RRUFF
##SOURCE=University of Arizona Mineral Museum
##DESCRIPTION=Rounded colorless crystals embedded in an ash matrix
##STATUS=The identification of this mineral has been confirmed by X-ray diffraction and chemical analysis
##URL=rruff.info/R040107
##MEASURED CHEMISTRY=(K_0.95_Na_0.03_)Al_0.99_Si_2.01_O_6_
##PIN_ID=L00276
##ORIENTATION=Laser parallel to -a* (-1 0 0). Fiducial mark perpendicular to laser is parallel to c [0 0 1]
74.56200, 28884.00
75.80300, 28851.00
77.04300, 29368.00
78.28300, 30209.00
79.52300, 30143.00
80.76300, 31099.00
82.00300, 32612.00
83.24300, 35648.00
84.48300, 36986.00
85.72200, 36691.00
86.96100, 34053.00
88.20000, 31032.00
89.43900, 29663.00
90.67800, 29622.00
91.91600, 29702.00
93.15500, 30012.00
94.39300, 30189.00
95.63100, 30446.00
96.86900, 29998.00
98.10600, 29852.00
99.34400, 29712.00
100.5810, 29442.00
101.8190, 29316.00
103.0560, 29060.00
104.2930, 29019.00
105.5290, 28889.00
106.7660, 28857.88
108.0020, 28920.00
109.2390, 28994.00
110.4750, 29145.45
111.7110, 29074.00
112.9460, 29590.00
114.1820, 30142.00
115.4170, 30497.00
116.6530, 31360.00
117.8880, 32147.00
119.1230, 32493.00
120.3580, 33211.00
121.5920, 36370.00
122.8270, 39644.00
124.0610, 41181.00
125.2950, 40923.00
126.5290, 35566.00
127.7630, 31779.00
128.9970, 30107.00
130.2300, 29989.00
131.4640, 30222.00
132.6970, 31294.00
133.9300, 32343.00
135.1630, 32654.00
136.3950, 33212.00
137.6280, 34428.00
138.8600, 35502.00
140.0920, 36515.00
141.3240, 37709.00
142.5560, 38775.00
143.7880, 39631.00
145.0190, 40618.00
146.2510, 41732.00
147.4820, 42738.00
148.7130, 43870.00
149.9440, 44545.00
151.1750, 45641.00
152.4050, 46037.00
153.6360, 46817.00
154.8660, 46915.00
156.0960, 47052.00
157.3260, 46967.00
158.5560, 46226.00
159.7850, 45852.00
161.0150, 45172.00
162.2440, 44322.00
163.4730, 43331.00
164.7020, 42678.00
165.9310, 41776.00
167.1590, 40895.00
168.3880, 39397.00
169.6160, 38965.00
170.8440, 38334.00
172.0720, 38223.00
173.3000, 38296.00
174.5280, 38971.00
175.7550, 39531.00
176.9820, 40544.00
178.2100, 41588.00
179.4370, 42552.00
180.6630, 43489.00
181.8900, 43774.00
183.1170, 43894.00
184.3430, 43551.00
185.5690, 43023.00
186.7950, 41566.00
188.0210, 40871.00
189.2470, 39322.00
190.4720, 38036.00
191.6970, 36812.00
192.9230, 35382.00
194.1480, 34210.00
195.3730, 32972.00
196.5970, 31941.00
197.8220, 31013.00
199.0460, 30135.00
200.2700, 29499.12
201.4940, 29057.00
202.7180, 28472.00
203.9420, 28132.00
205.1660, 27775.00
206.3890, 27526.00
207.6120, 27224.00
208.8350, 27386.00
210.0580, 27377.00
211.2810, 27242.00
212.5040, 27168.00
213.7260, 27268.00
214.9480, 26964.00
216.1700, 26778.21
217.3920, 26467.91
218.6140, 26053.00
219.8360, 25622.00
221.0570, 25039.00
222.2790, 24511.00
223.5000, 23994.00
224.7210, 23578.00
225.9410, 23058.37
227.1620, 22639.00
228.3820, 22088.00
229.6030, 21610.00
230.8230, 21098.00
232.0430, 20795.00
233.2630, 20359.00
234.4820, 19921.00
235.7020, 19774.00
236.9210, 19192.00
238.1400, 19055.00
239.3590, 18774.00
240.5780, 18443.00
241.7970, 18494.00
243.0150, 18111.00
244.2340, 18239.00
245.4520, 18068.00
246.6700, 18153.00
247.8880, 17940.00
249.1060, 17888.00
250.3230, 18092.00
251.5400, 17811.00
252.7580, 17943.32
253.9750, 17944.92
255.1920, 17977.00
256.4080, 18015.00
257.6250, 17980.00
258.8410, 18037.00
260.0580, 18042.00
261.2740, 18217.00
262.4900, 18163.00
263.7050, 18205.00
264.9210, 18456.00
266.1360, 18357.00
267.3520, 18336.00
268.5670, 18417.00
269.7820, 18372.00
270.9960, 18614.00
272.2110, 18737.00
273.4250, 18878.00
274.6400, 18847.00
275.8540, 18446.00
277.0680, 18546.00
278.2810, 18611.00
279.4950, 18379.00
280.7090, 18537.00
281.9220, 18587.86
283.1350, 18879.00
284.3480, 18898.00
285.5610, 18972.00
286.7730, 19221.00
287.9860, 19533.00
289.1980, 19819.00
290.4100, 20196.00
291.6220, 20597.00
292.8340, 21013.00
294.0460, 21565.00
295.2570, 22015.00
296.4690, 22505.00
297.6800, 23108.00
298.8910, 23626.00
300.1020, 24144.00
301.3120, 24410.00
302.5230, 24646.00
303.7330, 24832.00
304.9440, 24509.00
306.1540, 24706.00
307.3630, 24325.00
308.5730, 24275.00
309.7830, 23787.00
310.9920, 23453.00
312.2010, 23068.00
313.4100, 22984.00
314.6190, 22694.00
315.8280, 22428.00
317.0370, 22351.00
318.2450, 21992.00
319.4530, 21774.00
320.6610, 21717.00
321.8690, 21598.00
323.0770, 21542.00
324.2850, 21583.00
325.4920, 21604.08
326.6990, 21617.00
327.9060, 21770.00
329.1130, 21864.00
330.3200, 21927.00
331.5270, 22166.00
332.7330, 22378.00
333.9390, 22448.00
335.1450, 22600.00
336.3510, 22909.00
337.5570, 22863.75
338.7630, 22889.93
339.9680, 22826.00
341.1740, 22698.00
342.3790, 22521.00
343.5840, 22385.00
344.7890, 22034.00
345.9930, 21903.00
347.1980, 21609.00
348.4020, 21404.00
349.6060, 21213.00
350.8100, 21147.00
352.0140, 20942.33
353.2180, 20850.20
354.4210, 20642.00
355.6250, 20653.00
356.8280, 20539.58
358.0310, 20468.00
359.2340, 20374.00
360.4360, 20478.00
361.6390, 20455.00
362.8410, 20611.00
364.0430, 20589.00
365.2450, 20851.00
366.4470, 20930.80
367.6490, 21267.00
368.8510, 21107.00
370.0520, 21169.00
371.2530, 21035.00
372.4540, 21304.00
373.6550, 21477.00
374.8560, 21412.00
376.0560, 21313.00
377.2570, 21599.00
378.4570, 21597.00
379.6570, 21651.00
380.8570, 21603.00
382.0570, 21892.00
383.2560, 21828.00
384.4560, 21824.00
385.6550, 21998.00
386.8540, 21892.00
388.0530, 22159.00
389.2520, 21879.00
390.4510, 22163.00
391.6490, 22336.00
392.8470, 22159.00
394.0450, 22148.00
395.2430, 22086.00
396.4410, 21946.00
397.6390, 21882.47
398.8360, 21725.00
400.0340, 21617.00
401.2310, 21542.00
402.4280, 21313.00
403.6250, 21122.00
404.8210, 21097.00
406.0180, 21109.00
407.2140, 20950.07
408.4100, 20955.91
409.6060, 20743.00
410.8020, 20877.00
411.9980, 20808.00
413.1930, 20794.00
414.3890, 20812.00
415.5840, 21192.00
416.7790, 21149.00
417.9740, 21204.00
419.1680, 21613.00
420.3630, 21669.00
421.5570, 21909.00
422.7510, 22381.00
423.9450, 22420.00
425.1390, 22537.00
426.3330, 23114.00
427.5270, 23430.00
428.7200, 23657.00
429.9130, 23559.00
431.1060, 23791.00
432.2990, 24109.00
433.4920, 23778.00
434.6840, 23916.00
435.8770, 23676.00
437.0690, 23407.00
438.2610, 23174.00
439.4530, 22881.00
440.6450, 22509.00
441.8360, 22354.00
443.0280, 22200.00
444.2190, 22112.00
445.4100, 22079.00
446.6010, 22072.00
447.7920, 22092.00
448.9820, 22248.00
450.1730, 22362.00
451.3630, 22412.00
452.5530, 22696.20
453.7430, 23280.00
454.9330, 23405.00
456.1230, 24288.00
457.3120, 25064.00
458.5010, 24991.00
459.6910, 25445.00
460.8800, 26090.00
462.0680, 26754.00
463.2570, 27368.00
464.4460, 28388.00
465.6340, 29025.00
466.8220, 30183.00
468.0100, 31394.00
469.1980, 33094.00
470.3860, 35033.00
471.5730, 37518.00
472.7600, 39953.00
473.9480, 43287.00
475.1350, 47111.00
476.3210, 51442.00
477.5080, 56148.00
478.6950, 61478.00
479.8810, 67000.00
481.0670, 72630.00
482.2530, 78482.00
483.4390, 84420.00
484.6250, 90075.00
485.8100, 95006.00
486.9960, 100016.0
488.1810, 105088.0
489.3660, 110320.0
490.5510, 115591.0
491.7360, 120715.0
492.9200, 126881.0
494.1050, 131751.0
495.2890, 136618.0
496.4730, 139146.0
497.6570, 140854.0
498.8400, 139793.0
500.0240, 138237.0
501.2070, 134212.0
502.3910, 130744.0
503.5740, 126945.0
504.7570, 124830.0
505.9400, 122030.0
507.1220, 119981.0
508.3050, 117952.0
509.4870, 114887.0
510.6690, 111441.0
511.8510, 106826.0
513.0330, 102362.0
514.2140, 97682.00
515.3960, 93229.00
516.5770, 89788.00
517.7580, 87195.00
518.9390, 85612.00
520.1200, 85297.18
521.3010, 86241.00
522.4810, 87322.00
523.6610, 90580.00
524.8420, 93452.00
526.0220, 97388.00
527.2010, 101087.0
528.3810, 103862.0
529.5610, 105141.0
530.7400, 104963.0
531.9190, 102403.0
533.0980, 97360.00
534.2770, 91645.00
535.4560, 83956.00
536.6340, 77117.00
537.8120, 69441.00
538.9910, 62994.00
540.1690, 57723.00
541.3460, 52551.00
542.5240, 48758.00
543.7020, 45301.00
544.8790, 42363.00
546.0560, 40041.00
547.2330, 38040.12
548.4100, 36423.00
549.5870, 34921.87
550.7630, 33922.00
551.9400, 32899.00
553.1160, 32087.00
554.2920, 31196.46
555.4680, 30410.74
556.6440, 29653.00
557.8190, 28982.00
558.9950, 28357.00
560.1700, 27767.00
561.3450, 27471.00
562.5200, 27128.31
563.6950, 26592.83
564.8690, 26643.00
566.0440, 25744.00
567.2180, 25220.00
568.3920, 25052.00
569.5660, 24641.00
570.7400, 24451.00
571.9130, 23975.00
573.0870, 23784.00
574.2600, 23842.00
575.4330, 23616.00
576.6060, 23346.00
577.7790, 23160.00
578.9520, 23113.00
580.1240, 23283.00
581.2960, 23135.00
582.4690, 22960.00
583.6410, 22752.00
584.8120, 23059.00
585.9840, 23116.00
587.1560, 23177.00
588.3270, 23045.00
589.4980, 23126.00
590.6690, 23309.00
591.8400, 23186.00
593.0110, 23485.00
594.1810, 23203.00
595.3510, 23345.00
596.5220, 23153.00
597.6920, 23265.00
598.8610, 22984.00
600.0310, 23245.00
601.2010, 23116.00
602.3700, 22982.00
603.5390, 22990.00
604.7080, 22802.00
605.8770, 22768.00
607.0460, 22881.00
608.2140, 22849.00
609.3830, 22515.00
610.5510, 22933.00
611.7190, 22712.00
612.8870, 22605.00
614.0550, 22824.00
615.2220, 22720.00
616.3900, 22849.00
617.5570, 22877.00
618.7240, 22912.00
619.8910, 22952.03
621.0580, 23160.00
622.2240, 22958.00
623.3910, 22982.00
624.5570, 22954.00
625.7230, 23169.00
626.8890, 23165.00
628.0550, 23042.00
629.2200, 23068.00
630.3860, 23045.00
631.5510, 23061.00
632.7160, 23080.00
633.8810, 22943.00
635.0460, 22935.00
636.2100, 22860.00
637.3750, 23147.00
638.5390, 22926.00
639.7030, 23047.00
640.8670, 22874.00
642.0310, 22967.00
643.1950, 22646.00
644.3580, 22900.00
645.5210, 22755.00
646.6850, 22696.00
647.8480, 22902.00
649.0100, 22755.00
650.1730, 22597.00
651.3350, 22719.00
652.4980, 22695.00
653.6600, 22822.00
654.8220, 22768.00
655.9840, 23029.00
657.1450, 22926.00
658.3070, 23111.00
659.4680, 23148.00
660.6300, 23080.00
661.7910, 23143.00
662.9510, 23414.00
664.1120, 23532.00
665.2730, 23591.00
666.4330, 23649.00
667.5930, 23680.00
668.7530, 23722.00
669.9130, 23687.00
671.0730, 23773.00
672.2320, 23851.00
673.3920, 23913.00
674.5510, 24130.00
675.7100, 24080.00
676.8690, 24183.00
678.0280, 24256.00
679.1860, 24189.00
680.3450, 24260.00
681.5030, 24182.00
682.6610, 24136.00
683.8190, 24299.00
684.9770, 24020.00
686.1340, 24128.00
687.2920, 23951.00
688.4490, 23977.00
689.6060, 23896.00
690.7630, 23662.00
691.9200, 23698.00
693.0760, 23567.00
694.2330, 23409.00
695.3890, 23351.00
696.5450, 23397.00
697.7010, 23505.00
698.8570, 23437.00
700.0130, 23253.00
701.1680, 23183.00
702.3230, 23144.00
703.4780, 23088.58
704.6330, 23248.00
705.7880, 23215.00
706.9430, 23289.00
708.0970, 23647.00
709.2520, 23624.00
710.4060, 23646.00
711.5600, 23979.00
712.7140, 23922.00
713.8670, 23887.00
715.0210, 23766.00
716.1740, 23990.00
717.3270, 23863.00
718.4800, 23891.88
719.6330, 24111.00
720.7860, 23944.00
721.9380, 23916.00
723.0910, 24098.00
724.2430, 24319.00
725.3950, 24133.68
726.5470, 24087.00
727.6980, 23835.00
728.8500, 24029.00
730.0010, 23900.00
731.1530, 23934.00
732.3040, 23920.00
733.4550, 24116.00
734.6050, 24136.00
735.7560, 24231.00
736.9060, 24130.00
738.0560, 24169.00
739.2060, 24156.00
740.3560, 24140.88
741.5060, 24114.00
742.6560, 24165.00
743.8050, 24202.00
744.9540, 24245.00
746.1030, 24302.00
747.2520, 24556.00
748.4010, 24330.90
749.5500, 24368.71
750.6980, 23944.00
751.8460, 24107.00
752.9950, 23899.00
754.1420, 23632.00
755.2900, 24038.00
756.4380, 23906.00
757.5850, 23920.00
758.7330, 23833.00
759.8800, 24137.00
761.0270, 23784.00
762.1730, 24180.00
763.3200, 24134.00
764.4670, 24277.00
765.6130, 24299.00
766.7590, 24149.00
767.9050, 24279.00
769.0510, 24192.00
770.1960, 24393.00
771.3420, 24438.00
772.4870, 24401.00
773.6320, 24684.00
774.7770, 24657.00
775.9220, 24879.00
777.0670, 24874.00
778.2110, 24862.00
779.3560, 25276.00
780.5000, 25020.00
781.6440, 25182.00
782.7880, 25098.00
783.9320, 25262.00
785.0750, 25555.00
786.2180, 25404.00
787.3620, 25410.00
788.5050, 25207.00
789.6480, 25516.00
790.7900, 25339.00
791.9330, 25637.00
793.0750, 25528.00
794.2170, 25452.00
795.3590, 25568.00
796.5010, 25338.00
797.6430, 25121.00
798.7850, 25072.00
799.9260, 25153.00
801.0670, 24920.00
802.2080, 25088.00
803.3490, 24895.00
804.4900, 24881.00
805.6310, 24815.00
806.7710, 24611.00
807.9110, 24691.00
809.0510, 24743.00
810.1910, 24877.00
811.3310, 24645.00
812.4710, 24468.00
813.6100, 24336.00
814.7490, 24226.00
815.8880, 24397.00
817.0270, 24218.00
818.1660, 24415.00
819.3050, 24153.00
820.4430, 23958.00
821.5820, 24177.00
822.7200, 23986.00
823.8580, 24246.00
824.9950, 23993.00
826.1330, 24029.00
827.2710, 24188.00
828.4080, 24232.00
829.5450, 24289.00
830.6820, 24125.00
831.8190, 24199.16
832.9560, 24196.00
834.0920, 24251.00
835.2280, 24171.00
836.3650, 24306.00
837.5010, 24125.00
838.6360, 24141.00
839.7720, 24257.00
840.9080, 24229.00
842.0430, 24235.00
843.1780, 24274.00
844.3130, 24401.00
845.4480, 24261.00
846.5830, 24419.00
847.7170, 24548.00
848.8520, 24409.00
849.9860, 24442.00
851.1200, 24529.00
852.2540, 24445.00
853.3870, 24548.00
854.5210, 24829.00
855.6540, 24685.00
856.7880, 24705.00
857.9210, 24782.00
859.0540, 24601.00
860.1860, 24800.00
861.3190, 24619.00
862.4510, 24851.00
863.5840, 25053.00
864.7160, 24853.00
865.8480, 24823.00
866.9790, 24890.00
868.1110, 24870.29
869.2420, 24940.00
870.3740, 25020.00
871.5050, 25049.00
872.6360, 25123.00
873.7660, 25124.82
874.8970, 25283.00
876.0280, 25144.00
877.1580, 25082.00
878.2880, 25136.00
879.4180, 25210.86
880.5480, 25245.97
881.6770, 25454.00
882.8070, 25394.00
883.9360, 25329.00
885.0650, 25369.00
886.1940, 25582.00
887.3230, 25546.85
888.4520, 25713.00
889.5800, 25683.00
890.7090, 25669.00
891.8370, 25790.00
892.9650, 25896.00
894.0930, 25826.00
895.2200, 25821.00
896.3480, 25891.00
897.4750, 26049.00
898.6020, 26010.00
899.7290, 26199.00
900.8560, 26256.00
901.9830, 26344.00
903.1090, 26158.00
904.2360, 26321.00
905.3620, 26232.00
906.4880, 26318.00
907.6140, 26565.00
908.7400, 26523.24
909.8650, 26732.00
910.9900, 26712.00
912.1160, 26741.00
913.2410, 26980.00
914.3660, 26988.00
915.4900, 27010.00
916.6150, 27193.00
917.7390, 26953.00
918.8640, 27154.00
919.9880, 27435.00
921.1120, 27363.00
922.2350, 27656.00
923.3590, 27454.88
924.4820, 27825.95
925.6060, 28069.40
926.7290, 28191.92
927.8520, 27831.68
928.9740, 28094.76
930.0970, 28108.08
931.2190, 28111.09
932.3420, 28461.99
933.4640, 28088.00
934.5860, 28470.00
935.7080, 28370.00
936.8290, 28586.00
937.9510, 28685.00
939.0720, 28749.00
940.1930, 28788.00
941.3140, 28974.18
942.4350, 29105.96
943.5560, 29313.00
944.6760, 29448.00
945.7960, 29565.00
946.9170, 29650.00
948.0370, 29857.00
949.1560, 30138.00
950.2760, 30111.00
951.3960, 30274.00
952.5150, 30616.00
953.6340, 30747.00
954.7530, 30939.30
955.8720, 30794.00
956.9910, 31164.00
958.1090, 31261.00
959.2280, 31186.00
960.3460, 31529.00
961.4640, 31251.00
962.5820, 31560.27
963.6990, 31629.00
964.8170, 31889.00
965.9340, 31980.00
967.0510, 31919.00
968.1690, 32038.00
969.2850, 31993.00
970.4020, 32062.00
971.5190, 32203.00
972.6350, 32320.00
973.7510, 32440.81
974.8670, 32452.00
975.9830, 32677.00
977.0990, 32756.00
978.2150, 32804.00
979.3300, 32767.00
980.4450, 32884.00
981.5600, 33089.00
982.6750, 32794.00
983.7900, 32912.00
984.9050, 33102.00
986.0190, 33011.00
987.1340, 33111.00
988.2480, 33433.00
989.3620, 33338.00
990.4750, 33044.00
991.5890, 33490.00
992.7020, 33305.00
993.8160, 33371.00
994.9290, 33565.00
996.0420, 33572.00
997.1550, 33821.00
998.2670, 33853.00
999.3800, 34057.00
1000.492, 34297.00
1001.604, 34125.00
1002.716, 34320.00
1003.828, 34432.00
1004.940, 34633.00
1006.051, 34689.79
1007.163, 34623.00
1008.274, 34738.00
1009.385, 34669.00
1010.496, 34550.00
1011.606, 34613.00
1012.717, 34833.00
1013.827, 34701.00
1014.937, 34995.00
1016.047, 34846.00
1017.157, 35067.00
1018.267, 35191.00
1019.377, 35321.00
1020.486, 35254.00
1021.595, 35123.00
1022.704, 35118.00
1023.813, 35164.12
1024.922, 35211.00
1026.030, 35399.00
1027.139, 35440.00
1028.247, 35654.00
1029.355, 35611.00
1030.463, 35699.00
1031.571, 35776.00
1032.678, 35895.00
1033.786, 36131.00
1034.893, 36037.00
1036.000, 36487.00
1037.107, 36345.00
1038.214, 36434.00
1039.321, 36294.00
1040.427, 36569.00
1041.533, 36706.00
1042.639, 36928.00
1043.745, 36937.00
1044.851, 37221.00
1045.957, 37277.65
1047.062, 37627.00
1048.168, 37362.00
1049.273, 37947.00
1050.378, 37811.00
1051.482, 38619.00
1052.587, 38569.00
1053.692, 38126.00
1054.796, 38433.00
1055.900, 38357.00
1057.004, 38509.00
1058.108, 38715.00
1059.212, 38630.00
1060.315, 38861.00
1061.418, 38727.00
1062.522, 38710.00
1063.625, 38698.00
1064.728, 38638.34
1065.830, 38831.00
1066.933, 38653.00
1068.035, 38661.00
1069.137, 38806.00
1070.239, 38705.00
1071.341, 38634.00
1072.443, 38705.00
1073.545, 38599.00
1074.646, 38368.00
1075.747, 38294.00
1076.848, 38224.00
1077.949, 38140.85
1079.050, 38101.29
1080.150, 38086.00
1081.251, 38060.00
1082.351, 38046.00
1083.451, 38107.00
1084.551, 38035.00
1085.651, 38054.66
1086.750, 38019.00
1087.850, 38084.24
1088.949, 37944.00
1090.048, 38053.00
1091.147, 37820.00
1092.246, 37949.00
1093.345, 37890.00
1094.443, 38039.00
1095.541, 37940.00
1096.639, 38059.00
1097.737, 37923.00
1098.835, 37710.00
1099.933, 38282.00
1101.030, 38243.00
1102.128, 38079.00
1103.225, 38010.00
1104.322, 38035.83
1105.419, 38027.31
1106.515, 38097.00
1107.612, 38213.00
1108.708, 38195.00
1109.804, 38396.00
1110.900, 37931.00
1111.996, 38259.00
1113.092, 38056.00
1114.187, 38019.00
1115.283, 38083.00
1116.378, 37672.00
1117.473, 37813.00
1118.568, 37773.00
1119.662, 37686.00
1120.757, 37740.00
1121.851, 37633.00
1122.946, 37978.00
1124.040, 37767.00
1125.134, 37680.00
1126.227, 37354.00
1127.321, 37274.00
1128.414, 37284.00
1129.508, 37084.00
1130.601, 36966.35
1131.693, 37180.55
1132.786, 37266.98
1133.879, 37232.56
1134.971, 36715.45
1136.064, 36821.66
1137.156, 36678.12
1138.248, 36524.32
1139.339, 36718.43
1140.431, 36271.53
1141.522, 36553.00
1142.614, 36570.00
1143.705, 36583.00
1144.796, 36413.00
1145.887, 36387.00
1146.977, 36243.00
1148.068, 36232.00
1149.158, 36074.00
1150.248, 35645.54
1151.338, 35862.55
1152.428, 35951.86
1153.518, 35920.33
1154.607, 35406.08
1155.696, 35515.24
1156.785, 35374.57
1157.874, 35223.66
1158.963, 35420.57
1160.052, 34976.54
1161.141, 35167.93
1162.229, 35294.00
1163.317, 35043.00
1164.405, 35224.00
1165.493, 35018.00
1166.581, 34835.00
1167.668, 34906.00
1168.756, 34772.00
1169.843, 34866.00
1170.930, 34968.00
1172.017, 34383.00
1173.103, 34617.00
1174.190, 34374.00
1175.276, 34702.00
1176.363, 34433.00
1177.449, 34347.00
1178.535, 34593.00
1179.620, 34743.00
1180.706, 34434.00
1181.791, 34402.00
1182.877, 34686.00
1183.962, 34473.00
1185.047, 34299.00
1186.131, 34335.00
1187.216, 34218.00
1188.300, 34388.00
1189.385, 34363.00
1190.469, 34275.00
1191.553, 34388.00
1192.637, 34399.00
1193.720, 34557.00
1194.804, 34436.00
1195.887, 34503.00
1196.970, 34692.00
1198.053, 34513.00
1199.136, 34907.00
1200.219, 34759.00
1201.301, 34802.17
1202.383, 34648.00
1203.465, 34666.00
1204.547, 34638.98
1205.629, 34708.00
1206.711, 34661.00
1207.792, 34793.00
1208.874, 34919.00
1209.955, 34870.00
1211.036, 34930.00
1212.117, 35194.00
1213.198, 34990.00
1214.278, 34851.00
1215.359, 35109.00
1216.439, 35013.00
1217.519, 35151.00
1218.599, 35034.00
1219.678, 35242.00
1220.758, 34834.00
1221.837, 35178.00
1222.917, 35134.00
1223.996, 34954.00
1225.075, 35359.00
1226.153, 35265.00
1227.232, 34992.00
1228.310, 35607.00
1229.389, 35470.00
1230.467, 35403.00
1231.545, 35336.00
1232.622, 35266.00
1233.700, 35377.00
1234.777, 35542.00
1235.855, 35423.00
1236.932, 35525.00
1238.009, 35479.00
1239.086, 35348.00
1240.162, 35607.00
1241.239, 35756.00
1242.315, 35537.00
1243.391, 35776.00
1244.467, 35788.00
1245.543, 35738.00
1246.619, 35939.00
1247.694, 35826.58
1248.769, 36210.00
1249.844, 35789.00
1250.919, 36207.00
1251.994, 36353.00
1253.069, 36022.00
1254.144, 36242.00
1255.218, 35911.00
1256.292, 36122.00
1257.366, 35986.00
1258.440, 35994.00
