##NAMES=Leucite
##RRUFFID=R040107
##IDEAL CHEMISTRY=K(Si_2_Al)O_6_
##LOCALITY=Roccamonfina, Italy
##OWNER=RRUFF
##SOURCE=University of Arizona Mineral Museum
##DESCRIPTION=Rounded colorless crystals embedded in an ash matrix
##STATUS=The identification of this mineral has been confirmed by X-ray diffraction and chemical analysis
##URL=rruff.info/R040107
##MEASURED CHEMISTRY=(K_0.95_Na_0.03_)Al_0.99_Si_2.01_O_6_
##PIN_ID=L01573
##ORIENTATION=Laser parallel to -c* (0 0 -1). Fiducial mark perpendicular to laser is parallel to -a [-1 0 0]
90.67800, 24439.00
91.91600, 24838.46
93.15500, 25258.79
94.39300, 25539.26
95.63100, 25685.64
96.86900, 25402.29
98.10600, 25592.79
99.34400, 25543.89
100.5810, 25451.28
101.8190, 25607.42
103.0560, 25204.72
104.2930, 25340.00
105.5290, 25311.00
106.7660, 25690.00
108.0020, 25572.00
109.2390, 25737.00
110.4750, 25643.00
111.7110, 26035.00
112.9460, 26307.00
114.1820, 26960.00
115.4170, 27054.00
116.6530, 27837.00
117.8880, 29052.00
119.1230, 28286.00
120.3580, 28787.00
121.5920, 31575.00
122.8270, 34065.00
124.0610, 35925.00
125.2950, 36192.00
126.5290, 28799.00
127.7630, 25824.00
128.9970, 24934.00
130.2300, 25018.00
131.4640, 25384.00
132.6970, 25922.00
133.9300, 26093.00
135.1630, 27022.00
136.3950, 27435.00
137.6280, 28315.00
138.8600, 29143.00
140.0920, 29687.00
141.3240, 30904.00
142.5560, 31307.00
143.7880, 32206.00
145.0190, 32868.00
146.2510, 33670.00
147.4820, 34709.00
148.7130, 34848.00
149.9440, 35705.00
151.1750, 36581.00
152.4050, 36040.00
153.6360, 36229.00
154.8660, 36124.00
156.0960, 35923.00
157.3260, 35616.00
158.5560, 35358.00
159.7850, 34589.00
161.0150, 33874.00
162.2440, 33315.00
163.4730, 32607.00
164.7020, 31875.00
165.9310, 31192.00
167.1590, 30736.00
168.3880, 30051.00
169.6160, 29501.00
170.8440, 29258.00
172.0720, 29512.00
173.3000, 29773.00
174.5280, 30301.00
175.7550, 30729.00
176.9820, 31506.00
178.2100, 32397.00
179.4370, 33157.00
180.6630, 33489.00
181.8900, 33563.00
183.1170, 33306.00
184.3430, 32879.00
185.5690, 32354.00
186.7950, 31577.00
188.0210, 30700.00
189.2470, 29711.00
190.4720, 28830.00
191.6970, 27869.00
192.9230, 26932.00
194.1480, 25992.00
195.3730, 25436.00
196.5970, 24782.00
197.8220, 24041.00
199.0460, 23876.00
200.2700, 23436.00
201.4940, 23078.00
202.7180, 23169.00
203.9420, 22397.00
205.1660, 21864.00
206.3890, 22065.00
207.6120, 21905.00
208.8350, 21931.00
210.0580, 21890.00
211.2810, 21872.00
212.5040, 21805.00
213.7260, 21758.00
214.9480, 21450.00
216.1700, 21325.00
217.3920, 21263.00
218.6140, 20943.94
219.8360, 20828.00
221.0570, 20291.00
222.2790, 20033.00
223.5000, 19419.00
224.7210, 19428.00
225.9410, 18920.00
227.1620, 18681.00
228.3820, 18453.00
229.6030, 18187.00
230.8230, 17928.04
232.0430, 17721.17
233.2630, 17434.00
234.4820, 17251.00
235.7020, 17124.00
236.9210, 16786.00
238.1400, 16771.00
239.3590, 16837.00
240.5780, 16546.00
241.7970, 16419.00
243.0150, 16382.00
244.2340, 16422.00
245.4520, 16363.00
246.6700, 16327.68
247.8880, 16147.00
249.1060, 16248.00
250.3230, 16174.00
251.5400, 16201.00
252.7580, 16316.00
253.9750, 16371.00
255.1920, 16412.00
256.4080, 16327.00
257.6250, 16277.00
258.8410, 16515.00
260.0580, 16317.00
261.2740, 16440.00
262.4900, 16665.00
263.7050, 16902.00
264.9210, 16716.00
266.1360, 16747.00
267.3520, 16800.00
268.5670, 16673.00
269.7820, 16735.00
270.9960, 17054.00
272.2110, 17231.00
273.4250, 17098.00
274.6400, 17305.00
275.8540, 16891.00
277.0680, 16807.00
278.2810, 16810.00
279.4950, 16828.00
280.7090, 16902.00
281.9220, 16790.00
283.1350, 16955.00
284.3480, 17194.00
285.5610, 17097.00
286.7730, 17437.00
287.9860, 17476.00
289.1980, 17864.00
290.4100, 18063.00
291.6220, 18371.00
292.8340, 18893.00
294.0460, 19358.00
295.2570, 19781.00
296.4690, 19782.00
297.6800, 20153.00
298.8910, 20353.00
300.1020, 20956.00
301.3120, 20957.00
302.5230, 21074.00
303.7330, 21019.00
304.9440, 20784.00
306.1540, 20798.00
307.3630, 20660.00
308.5730, 20363.00
309.7830, 20338.00
310.9920, 20049.21
312.2010, 19914.68
313.4100, 19606.00
314.6190, 19537.00
315.8280, 19409.00
317.0370, 19079.00
318.2450, 19273.00
319.4530, 18946.00
320.6610, 18883.00
321.8690, 18695.00
323.0770, 18763.00
324.2850, 18893.00
325.4920, 18745.00
326.6990, 18763.00
327.9060, 19001.00
329.1130, 19047.00
330.3200, 19175.00
331.5270, 19251.00
332.7330, 19270.00
333.9390, 19594.00
335.1450, 19462.00
336.3510, 19656.00
337.5570, 19627.00
338.7630, 19598.00
339.9680, 19579.64
341.1740, 19464.84
342.3790, 19381.00
343.5840, 19189.00
344.7890, 19047.00
345.9930, 18838.00
347.1980, 18865.00
348.4020, 18529.00
349.6060, 18442.00
350.8100, 18461.00
352.0140, 18097.63
353.2180, 18328.91
354.4210, 18455.87
355.6250, 18484.11
356.8280, 18118.00
358.0310, 18261.13
359.2340, 18200.17
360.4360, 18130.86
361.6390, 18345.66
362.8410, 18384.00
364.0430, 18304.00
365.2450, 18398.00
366.4470, 18694.00
367.6490, 18565.00
368.8510, 18698.00
370.0520, 18821.00
371.2530, 18799.00
372.4540, 18970.00
373.6550, 18737.00
374.8560, 18888.00
376.0560, 18836.00
377.2570, 18959.00
378.4570, 19112.00
379.6570, 19244.00
380.8570, 19270.39
382.0570, 19159.00
383.2560, 19217.00
384.4560, 19419.00
385.6550, 19240.00
386.8540, 19314.00
388.0530, 19447.00
389.2520, 19363.00
390.4510, 19610.00
391.6490, 19352.00
392.8470, 19659.00
394.0450, 19394.00
395.2430, 19416.00
396.4410, 19350.00
397.6390, 19309.00
398.8360, 19185.00
400.0340, 19028.00
401.2310, 18888.00
402.4280, 18815.00
403.6250, 18724.00
404.8210, 18825.00
406.0180, 18661.00
407.2140, 18607.00
408.4100, 18475.00
409.6060, 18557.00
410.8020, 18485.00
411.9980, 18489.48
413.1930, 18781.00
414.3890, 18621.00
415.5840, 18728.00
416.7790, 19045.00
417.9740, 19196.00
419.1680, 19325.00
420.3630, 19515.73
421.5570, 19464.00
422.7510, 19735.00
423.9450, 19908.00
425.1390, 19924.00
426.3330, 20262.00
427.5270, 20287.00
428.7200, 20669.00
429.9130, 20782.00
431.1060, 20794.00
432.2990, 20790.00
433.4920, 20762.00
434.6840, 20645.79
435.8770, 20613.00
437.0690, 20350.00
438.2610, 20193.00
439.4530, 20030.00
440.6450, 19893.00
441.8360, 19801.96
443.0280, 19684.00
444.2190, 19674.00
445.4100, 19716.00
446.6010, 19706.00
447.7920, 19663.00
448.9820, 19571.00
450.1730, 19867.00
451.3630, 19894.00
452.5530, 20260.00
453.7430, 20247.00
454.9330, 20597.00
456.1230, 20930.00
457.3120, 21289.00
458.5010, 21722.00
459.6910, 21911.00
460.8800, 22580.00
462.0680, 22844.00
463.2570, 23329.00
464.4460, 23918.00
465.6340, 24596.00
466.8220, 25247.00
468.0100, 26195.00
469.1980, 27528.00
470.3860, 28734.00
471.5730, 30616.00
472.7600, 32727.00
473.9480, 35109.00
475.1350, 37918.00
476.3210, 40963.00
477.5080, 44347.00
478.6950, 48243.00
479.8810, 52164.00
481.0670, 56031.00
482.2530, 59902.00
483.4390, 63602.00
484.6250, 66940.00
485.8100, 70056.00
486.9960, 73771.00
488.1810, 76795.00
489.3660, 80551.00
490.5510, 83902.00
491.7360, 87394.00
492.9200, 91713.00
494.1050, 94453.00
495.2890, 97498.00
496.4730, 98374.00
497.6570, 98068.00
498.8400, 96229.00
500.0240, 94178.00
501.2070, 91344.00
502.3910, 89469.00
503.5740, 86902.00
504.7570, 85178.00
505.9400, 84103.00
507.1220, 83004.00
508.3050, 81685.00
509.4870, 79098.00
510.6690, 76467.00
511.8510, 73060.00
513.0330, 69845.00
514.2140, 66834.00
515.3960, 64493.00
516.5770, 62207.00
517.7580, 61017.00
518.9390, 60345.00
520.1200, 60329.00
521.3010, 61609.00
522.4810, 62989.00
523.6610, 65420.00
524.8420, 68056.00
526.0220, 70713.00
527.2010, 73035.00
528.3810, 74468.00
529.5610, 73946.00
530.7400, 72793.00
531.9190, 70720.00
533.0980, 65921.00
534.2770, 61225.00
535.4560, 56106.00
536.6340, 51340.00
537.8120, 46812.00
538.9910, 43152.00
540.1690, 39783.68
541.3460, 37265.00
542.5240, 34696.00
543.7020, 32727.00
544.8790, 31442.00
546.0560, 29923.00
547.2330, 28890.00
548.4100, 28078.00
549.5870, 27301.00
550.7630, 26593.00
551.9400, 26153.00
553.1160, 25642.00
554.2920, 25154.00
555.4680, 24578.00
556.6440, 24032.00
557.8190, 23745.00
558.9950, 23260.00
560.1700, 23110.00
561.3450, 22772.00
562.5200, 22462.00
563.6950, 22312.00
564.8690, 21783.00
566.0440, 21657.00
567.2180, 21400.00
568.3920, 21401.00
569.5660, 21188.00
570.7400, 20869.00
571.9130, 20732.00
573.0870, 20782.00
574.2600, 20365.00
575.4330, 20280.00
576.6060, 20403.00
577.7790, 20136.00
578.9520, 20277.00
580.1240, 20113.00
581.2960, 20267.00
582.4690, 20102.00
583.6410, 20210.00
584.8120, 20325.00
585.9840, 20147.00
587.1560, 20322.00
588.3270, 20195.00
589.4980, 20549.00
590.6690, 20154.00
591.8400, 20318.00
593.0110, 20090.00
594.1810, 20176.00
595.3510, 20074.00
596.5220, 20071.00
597.6920, 20104.00
598.8610, 20033.00
600.0310, 20059.00
601.2010, 19859.00
602.3700, 19923.00
603.5390, 20017.00
604.7080, 20051.00
605.8770, 19854.00
607.0460, 19895.00
608.2140, 19956.00
609.3830, 19747.00
610.5510, 19974.00
611.7190, 19946.00
612.8870, 19796.00
614.0550, 19962.00
615.2220, 20003.00
616.3900, 19929.00
617.5570, 20170.00
618.7240, 20007.00
619.8910, 20204.00
621.0580, 20343.00
622.2240, 20360.00
623.3910, 20363.00
624.5570, 20323.00
625.7230, 20404.00
626.8890, 20469.00
628.0550, 20307.00
629.2200, 20354.00
630.3860, 20207.00
631.5510, 20237.00
632.7160, 20231.00
633.8810, 19983.00
635.0460, 20019.00
636.2100, 20012.00
637.3750, 20084.00
638.5390, 20049.00
639.7030, 20136.00
640.8670, 20013.00
642.0310, 20136.00
643.1950, 19914.00
644.3580, 20183.00
645.5210, 20249.00
646.6850, 20020.00
647.8480, 20149.00
649.0100, 20013.00
650.1730, 20034.00
651.3350, 20075.00
652.4980, 20101.00
653.6600, 20140.53
654.8220, 20236.00
655.9840, 20150.00
657.1450, 20135.00
658.3070, 19982.00
659.4680, 20177.00
660.6300, 20015.00
661.7910, 20322.00
662.9510, 20353.00
664.1120, 20171.00
665.2730, 20425.00
666.4330, 20376.00
667.5930, 20445.00
668.7530, 20310.00
669.9130, 20428.00
671.0730, 20414.00
672.2320, 20641.00
673.3920, 20518.00
674.5510, 20646.00
675.7100, 20453.00
676.8690, 20688.00
678.0280, 20716.00
679.1860, 20853.00
680.3450, 20579.00
681.5030, 20702.00
682.6610, 20471.00
683.8190, 20508.00
684.9770, 20479.00
686.1340, 20565.00
687.2920, 20515.00
688.4490, 20390.00
689.6060, 20478.00
690.7630, 20351.00
691.9200, 20247.00
693.0760, 20163.00
694.2330, 20279.00
695.3890, 20241.00
696.5450, 20179.00
697.7010, 20130.00
698.8570, 20136.00
700.0130, 20230.00
701.1680, 20441.00
702.3230, 20201.00
703.4780, 19961.00
704.6330, 20130.00
705.7880, 20031.00
706.9430, 20070.75
708.0970, 20168.01
709.2520, 20216.00
710.4060, 20297.00
711.5600, 20346.12
712.7140, 20407.00
713.8670, 20431.00
715.0210, 20496.63
716.1740, 20529.51
717.3270, 20589.00
718.4800, 20645.00
719.6330, 20704.00
720.7860, 20740.00
721.9380, 20690.78
723.0910, 20674.00
724.2430, 20566.00
725.3950, 20626.00
726.5470, 20609.00
727.6980, 20723.00
728.8500, 20563.00
730.0010, 20645.00
731.1530, 20623.00
732.3040, 20817.00
733.4550, 20808.00
734.6050, 20659.00
735.7560, 20561.00
736.9060, 20689.64
738.0560, 20670.88
739.2060, 20957.00
740.3560, 20800.00
741.5060, 20899.00
742.6560, 20846.00
743.8050, 20613.00
744.9540, 20844.00
746.1030, 20763.00
747.2520, 20720.00
748.4010, 20696.00
749.5500, 20738.00
750.6980, 20688.00
751.8460, 20699.49
752.9950, 20844.00
754.1420, 20640.00
755.2900, 20745.00
756.4380, 20616.00
757.5850, 20540.00
758.7330, 20687.00
759.8800, 20671.00
761.0270, 20670.00
762.1730, 20690.00
763.3200, 20747.00
764.4670, 20781.00
765.6130, 20885.00
766.7590, 20832.00
767.9050, 20913.00
769.0510, 20795.00
770.1960, 20944.00
771.3420, 20992.00
772.4870, 21091.00
773.6320, 21097.00
774.7770, 21153.99
775.9220, 21201.00
777.0670, 21193.00
778.2110, 21295.00
779.3560, 21257.00
780.5000, 21420.00
781.6440, 21334.00
782.7880, 21251.00
783.9320, 21502.00
785.0750, 21422.00
786.2180, 21494.00
787.3620, 21513.00
788.5050, 21477.93
789.6480, 21722.00
790.7900, 21339.00
791.9330, 21603.00
793.0750, 21335.00
794.2170, 21388.00
795.3590, 21396.00
796.5010, 21356.00
797.6430, 21329.68
798.7850, 21296.68
799.9260, 21214.00
801.0670, 21186.00
802.2080, 21155.00
803.3490, 21048.00
804.4900, 21014.00
805.6310, 21062.00
806.7710, 21219.00
807.9110, 21121.10
809.0510, 21123.64
810.1910, 20964.00
811.3310, 21003.00
812.4710, 20804.00
813.6100, 20796.00
814.7490, 20739.00
815.8880, 20850.00
817.0270, 20788.00
818.1660, 20761.00
819.3050, 20806.69
820.4430, 20976.14
821.5820, 21051.57
822.7200, 21038.70
823.8580, 20641.83
824.9950, 20764.56
826.1330, 20693.53
827.2710, 20624.49
828.4080, 20849.92
829.5450, 20562.13
830.6820, 20803.72
831.8190, 20848.46
832.9560, 20998.35
834.0920, 20953.19
835.2280, 20981.76
836.3650, 20903.00
837.5010, 20871.00
838.6360, 20901.00
839.7720, 20919.58
840.9080, 20999.00
842.0430, 21071.00
843.1780, 21271.00
844.3130, 21429.00
845.4480, 20919.00
846.5830, 21146.00
847.7170, 21065.00
848.8520, 21282.00
849.9860, 21343.00
851.1200, 20978.00
852.2540, 21167.00
853.3870, 21162.00
854.5210, 21418.00
855.6540, 21208.00
856.7880, 21637.00
857.9210, 21437.00
859.0540, 21501.00
860.1860, 21557.00
861.3190, 21375.00
862.4510, 21636.00
863.5840, 21672.00
864.7160, 21451.00
865.8480, 21456.00
866.9790, 21412.63
868.1110, 21506.00
869.2420, 21337.00
870.3740, 21547.00
871.5050, 21465.00
872.6360, 21347.00
873.7660, 21509.00
874.8970, 21489.00
876.0280, 21458.00
877.1580, 21385.00
878.2880, 21788.00
879.4180, 21389.00
880.5480, 21605.00
881.6770, 21679.00
882.8070, 21531.00
883.9360, 21759.00
885.0650, 21635.00
886.1940, 21821.00
887.3230, 22058.00
888.4520, 21760.00
889.5800, 21848.00
890.7090, 21736.00
891.8370, 21775.00
892.9650, 21859.00
894.0930, 21942.00
895.2200, 21843.00
896.3480, 21823.00
897.4750, 22156.00
898.6020, 22128.00
899.7290, 22288.00
900.8560, 22042.00
901.9830, 22071.00
903.1090, 22187.00
904.2360, 22186.00
905.3620, 22098.00
906.4880, 22254.00
907.6140, 22236.47
908.7400, 22267.00
909.8650, 22359.00
910.9900, 22424.00
912.1160, 22523.00
913.2410, 22552.58
914.3660, 22638.30
915.4900, 22668.00
916.6150, 22720.00
917.7390, 22904.00
918.8640, 22831.00
919.9880, 22861.00
921.1120, 22784.00
922.2350, 23063.00
923.3590, 22953.00
924.4820, 23007.00
925.6060, 23296.00
926.7290, 23122.00
927.8520, 23050.00
928.9740, 23421.00
930.0970, 23255.00
931.2190, 23333.00
932.3420, 23378.00
933.4640, 23610.00
934.5860, 23653.00
935.7080, 23501.00
936.8290, 23709.00
937.9510, 23764.00
939.0720, 24101.00
940.1930, 24013.00
941.3140, 24174.76
942.4350, 24153.00
943.5560, 24198.00
944.6760, 24493.00
945.7960, 24246.00
946.9170, 24502.00
948.0370, 24703.00
949.1560, 24943.00
950.2760, 24959.00
951.3960, 25003.00
952.5150, 25043.00
953.6340, 25253.00
954.7530, 25487.00
955.8720, 25476.00
956.9910, 25739.00
958.1090, 25767.00
959.2280, 25593.00
960.3460, 25974.00
961.4640, 25783.00
962.5820, 25948.00
963.6990, 26026.00
964.8170, 25951.00
965.9340, 26297.00
967.0510, 26195.00
968.1690, 26319.00
969.2850, 26315.00
970.4020, 26393.00
971.5190, 26134.00
972.6350, 26417.00
973.7510, 26576.00
974.8670, 26312.00
975.9830, 26527.00
977.0990, 26504.00
978.2150, 26653.00
979.3300, 26391.00
980.4450, 26622.00
981.5600, 26610.00
982.6750, 26720.00
983.7900, 26661.00
984.9050, 26652.00
986.0190, 26858.00
987.1340, 26526.00
988.2480, 26747.00
989.3620, 26876.00
990.4750, 26821.00
991.5890, 26731.00
992.7020, 26811.00
993.8160, 26839.98
994.9290, 26983.00
996.0420, 26987.00
997.1550, 27222.00
998.2670, 27214.00
999.3800, 27413.00
1000.492, 27666.00
1001.604, 27728.00
1002.716, 27909.00
1003.828, 27880.00
1004.940, 27646.00
1006.051, 27443.00
1007.163, 27852.00
1008.274, 27619.00
1009.385, 27837.00
1010.496, 27451.00
1011.606, 27469.00
1012.717, 27867.00
1013.827, 27540.00
1014.937, 27719.00
1016.047, 27823.00
1017.157, 27851.00
1018.267, 27886.00
1019.377, 27911.00
1020.486, 27956.00
1021.595, 27992.41
1022.704, 28039.49
1023.813, 28073.00
1024.922, 28124.00
1026.030, 28158.00
1027.139, 28162.00
1028.247, 28304.00
1029.355, 28156.00
1030.463, 28433.00
1031.571, 28202.00
1032.678, 28384.00
1033.786, 28335.00
1034.893, 28302.00
1036.000, 28368.00
1037.107, 28359.00
1038.214, 28588.00
1039.321, 28533.00
1040.427, 28796.00
1041.533, 28842.00
1042.639, 28781.00
1043.745, 28862.00
1044.851, 28942.46
1045.957, 29388.00
1047.062, 29083.00
1048.168, 29250.00
1049.273, 29132.00
1050.378, 29558.00
1051.482, 29620.00
1052.587, 29588.00
1053.692, 29506.00
1054.796, 29831.00
1055.900, 29881.00
1057.004, 30142.00
1058.108, 29951.00
1059.212, 30105.00
1060.315, 30150.00
1061.418, 30190.00
1062.522, 30184.00
1063.625, 30085.00
1064.728, 30112.00
1065.830, 30164.00
1066.933, 30005.00
1068.035, 29944.00
1069.137, 29944.00
1070.239, 30334.00
1071.341, 29925.00
1072.443, 29947.00
1073.545, 30100.00
1074.646, 29840.00
1075.747, 30129.00
1076.848, 29753.00
1077.949, 29818.00
1079.050, 29792.00
1080.150, 29774.00
1081.251, 29787.27
1082.351, 29748.00
1083.451, 29799.00
1084.551, 29920.00
1085.651, 30001.00
1086.750, 29740.00
1087.850, 29805.00
1088.949, 29437.00
1090.048, 29593.00
1091.147, 29601.00
1092.246, 29750.00
1093.345, 29608.00
1094.443, 29367.00
1095.541, 29677.00
1096.639, 29529.00
1097.737, 29518.00
1098.835, 29650.00
1099.933, 29795.00
1101.030, 29531.00
1102.128, 29667.00
1103.225, 29472.00
1104.322, 29603.00
1105.419, 29714.00
1106.515, 29759.00
1107.612, 29556.00
1108.708, 29710.00
1109.804, 29746.00
1110.900, 29649.00
1111.996, 29794.00
1113.092, 29629.00
1114.187, 29532.00
1115.283, 29595.00
1116.378, 29407.00
1117.473, 29495.00
1118.568, 29318.00
1119.662, 29386.00
1120.757, 29354.00
1121.851, 29197.00
1122.946, 29364.00
1124.040, 29275.00
1125.134, 29172.00
1126.227, 29026.00
1127.321, 29099.00
1128.414, 29046.00
1129.508, 28920.00
1130.601, 28964.00
1131.693, 28881.00
1132.786, 28905.00
1133.879, 28808.00
1134.971, 28746.00
1136.064, 28773.00
1137.156, 28673.00
1138.248, 28529.00
1139.339, 28552.00
1140.431, 28504.00
1141.522, 28666.00
1142.614, 28699.00
1143.705, 28452.24
1144.796, 28418.24
1145.887, 28296.05
1146.977, 28078.00
1148.068, 28035.00
1149.158, 27958.00
1150.248, 27790.00
1151.338, 27793.00
1152.428, 27796.00
1153.518, 27781.00
1154.607, 27723.22
1155.696, 27556.00
1156.785, 27563.00
1157.874, 27471.00
1158.963, 27355.00
1160.052, 27324.00
1161.141, 27317.00
1162.229, 27267.00
1163.317, 27181.00
1164.405, 27025.00
1165.493, 27044.00
1166.581, 27039.00
1167.668, 27166.00
1168.756, 26947.00
1169.843, 27029.00
1170.930, 26750.00
1172.017, 26906.00
1173.103, 26838.00
1174.190, 26769.00
1175.276, 26936.00
1176.363, 26740.00
1177.449, 26761.00
1178.535, 26775.00
1179.620, 26461.00
1180.706, 26932.00
1181.791, 26611.00
1182.877, 26880.00
1183.962, 26623.00
1185.047, 26440.00
1186.131, 26523.00
1187.216, 26370.00
1188.300, 26582.00
1189.385, 26746.00
1190.469, 26587.00
1191.553, 26718.00
1192.637, 26542.00
1193.720, 26807.00
1194.804, 26488.00
1195.887, 26747.00
1196.970, 26674.00
1198.053, 26399.00
1199.136, 26506.00
1200.219, 26699.00
1201.301, 26744.00
1202.383, 26818.12
1203.465, 26559.00
1204.547, 26817.00
1205.629, 26853.00
1206.711, 26709.00
1207.792, 26921.00
1208.874, 26752.00
1209.955, 26562.00
1211.036, 26599.00
1212.117, 26846.00
1213.198, 26872.00
1214.278, 26874.00
1215.359, 26998.00
1216.439, 26896.00
1217.519, 26906.00
1218.599, 26842.00
1219.678, 26730.06
1220.758, 26983.35
1221.837, 27132.31
1222.917, 27182.56
1223.996, 26838.45
1225.075, 27003.57
1226.153, 26964.59
1227.232, 26917.27
1228.310, 27154.05
1229.389, 26867.29
1230.467, 27099.56
1231.545, 27124.64
1232.622, 27244.53
1233.700, 27396.00
1234.777, 27328.00
1235.855, 27101.00
1236.932, 27288.00
1238.009, 27531.00
1239.086, 27298.00
1240.162, 27244.00
1241.239, 27292.00
1242.315, 27331.00
1243.391, 27217.00
1244.467, 27303.00
1245.543, 27312.22
1246.619, 27315.07
1247.694, 27428.00
1248.769, 27382.00
1249.844, 27475.00
1250.919, 27526.00
1251.994, 27691.00
1253.069, 27865.00
1254.144, 27771.10
1255.218, 27498.00
1256.292, 27613.00
1257.366, 27589.00
1258.440, 27542.00
1259.514, 27654.00
1260.587, 27706.00
1261.661, 27726.00
1262.734, 27638.00
1263.807, 27840.00
1264.880, 27850.00
1265.952, 27776.00
1267.025, 28001.00
1268.097, 27777.00
1269.170, 27871.00
1270.242, 27870.51
1271.314, 28043.00
1272.385, 27895.00
