##NAMES=Leucite
##RRUFFID=R040107
##IDEAL CHEMISTRY=K(Si_2_Al)O_6_
##LOCALITY=Roccamonfina, Italy
##OWNER=RRUFF
##SOURCE=University of Arizona Mineral Museum
##DESCRIPTION=Rounded colorless crystals embedded in an ash matrix
##STATUS=The identification of this mineral has been confirmed by X-ray diffraction and chemical analysis
##URL=rruff.info/R040107
##MEASURED CHEMISTRY=(K_0.95_Na_0.03_)Al_0.99_Si_2.01_O_6_
##PIN_ID=L01573
##ORIENTATION=Laser parallel to -c* (0 0 -1). Fiducial mark perpendicular to laser is parallel to -a [-1 0 0]
90.67800, 21682.00
91.91600, 22013.00
93.15500, 22146.03
94.39300, 22240.02
95.63100, 22261.59
96.86900, 22214.62
98.10600, 21893.92
99.34400, 21876.00
100.5810, 21757.91
101.8190, 21953.00
103.0560, 21687.00
104.2930, 22121.00
105.5290, 22054.00
106.7660, 21784.00
108.0020, 21729.00
109.2390, 21580.00
110.4750, 21471.00
111.7110, 21488.00
112.9460, 21583.45
114.1820, 21919.00
115.4170, 22076.58
116.6530, 22411.00
117.8880, 22950.00
119.1230, 22689.00
120.3580, 23273.00
121.5920, 26253.00
122.8270, 29148.00
124.0610, 30873.00
125.2950, 29216.00
126.5290, 24453.00
127.7630, 21413.00
128.9970, 20480.00
130.2300, 20461.00
131.4640, 20734.00
132.6970, 20964.00
133.9300, 21499.00
135.1630, 21871.00
136.3950, 22410.00
137.6280, 23148.00
138.8600, 23789.00
140.0920, 24508.00
141.3240, 25003.00
142.5560, 25618.00
143.7880, 26337.00
145.0190, 27177.00
146.2510, 27993.00
147.4820, 28863.47
148.7130, 29046.00
149.9440, 29609.77
151.1750, 29642.00
152.4050, 29934.00
153.6360, 29990.00
154.8660, 29591.00
156.0960, 29552.00
157.3260, 29165.00
158.5560, 29020.00
159.7850, 28275.00
161.0150, 27688.00
162.2440, 27094.00
163.4730, 26633.00
164.7020, 26239.00
165.9310, 25734.00
167.1590, 25178.00
168.3880, 24518.00
169.6160, 24049.00
170.8440, 23691.00
172.0720, 23695.00
173.3000, 23885.00
174.5280, 24048.00
175.7550, 24744.00
176.9820, 25125.00
178.2100, 25844.00
179.4370, 26288.00
180.6630, 26288.00
181.8900, 26641.00
183.1170, 26377.00
184.3430, 26181.00
185.5690, 25874.00
186.7950, 25001.00
188.0210, 24475.00
189.2470, 23554.00
190.4720, 23041.00
191.6970, 22209.00
192.9230, 21646.00
194.1480, 20870.00
195.3730, 20305.81
196.5970, 19859.00
197.8220, 19310.00
199.0460, 19051.00
200.2700, 18816.00
201.4940, 18323.00
202.7180, 18091.00
203.9420, 17977.00
205.1660, 17725.00
206.3890, 17610.00
207.6120, 17265.00
208.8350, 17570.00
210.0580, 17189.00
211.2810, 17298.00
212.5040, 17097.00
213.7260, 17114.00
214.9480, 16883.00
216.1700, 16752.00
217.3920, 16697.00
218.6140, 16285.00
219.8360, 16259.00
221.0570, 16059.00
222.2790, 15807.00
223.5000, 15597.81
224.7210, 15381.83
225.9410, 15112.00
227.1620, 14949.00
228.3820, 14908.00
229.6030, 14691.00
230.8230, 14561.26
232.0430, 14395.00
233.2630, 14208.00
234.4820, 14085.00
235.7020, 13864.00
236.9210, 13907.00
238.1400, 13641.00
239.3590, 13730.00
240.5780, 13688.00
241.7970, 13472.00
243.0150, 13618.00
244.2340, 13537.00
245.4520, 13323.00
246.6700, 13283.00
247.8880, 13274.70
249.1060, 13510.00
250.3230, 13329.00
251.5400, 13502.00
252.7580, 13495.00
253.9750, 13504.00
255.1920, 13560.93
256.4080, 13613.00
257.6250, 13568.00
258.8410, 13688.00
260.0580, 13669.00
261.2740, 13815.00
262.4900, 13641.00
263.7050, 13751.00
264.9210, 13768.00
266.1360, 13661.21
267.3520, 13840.88
268.5670, 13948.11
269.7820, 13986.81
270.9960, 13751.70
272.2110, 13870.15
273.4250, 13846.91
274.6400, 13817.86
275.8540, 13986.07
277.0680, 13790.78
278.2810, 13955.84
279.4950, 13977.07
280.7090, 14064.13
281.9220, 14008.62
283.1350, 14149.00
284.3480, 14225.00
285.5610, 14303.00
286.7730, 14384.00
287.9860, 14656.00
289.1980, 14757.00
290.4100, 14985.00
291.6220, 15291.00
292.8340, 15566.00
294.0460, 15578.84
295.2570, 16166.60
296.4690, 16615.89
297.6800, 16929.99
298.8910, 16903.97
300.1020, 17165.18
301.3120, 17218.33
302.5230, 17199.45
303.7330, 17339.00
304.9440, 17345.00
306.1540, 17224.00
307.3630, 17071.00
308.5730, 16778.00
309.7830, 16709.00
310.9920, 16588.00
312.2010, 16390.00
313.4100, 16362.00
314.6190, 16072.00
315.8280, 16099.00
317.0370, 15960.00
318.2450, 15871.00
319.4530, 15731.89
320.6610, 15832.91
321.8690, 15861.51
323.0770, 15821.58
324.2850, 15507.85
325.4920, 15547.73
326.6990, 15664.18
327.9060, 15895.39
329.1130, 16054.18
330.3200, 16144.43
331.5270, 15960.89
332.7330, 16130.85
333.9390, 16159.11
335.1450, 16181.57
336.3510, 16401.29
337.5570, 16388.00
338.7630, 16281.00
339.9680, 16267.00
341.1740, 16352.00
342.3790, 16177.00
343.5840, 15942.00
344.7890, 15961.00
345.9930, 15916.00
347.1980, 15490.00
348.4020, 15456.00
349.6060, 15445.00
350.8100, 15470.00
352.0140, 15288.00
353.2180, 15330.00
354.4210, 15105.00
355.6250, 15343.00
356.8280, 15058.00
358.0310, 15260.00
359.2340, 15107.00
360.4360, 15357.00
361.6390, 15274.00
362.8410, 15257.18
364.0430, 15465.08
365.2450, 15600.57
366.4470, 15667.51
367.6490, 15460.66
368.8510, 15607.37
370.0520, 15612.35
371.2530, 15611.52
372.4540, 15807.95
373.6550, 15640.89
374.8560, 15834.19
376.0560, 15883.61
377.2570, 15998.89
378.4570, 15971.58
379.6570, 15988.31
380.8570, 16147.64
382.0570, 16228.01
383.2560, 16344.00
384.4560, 16291.00
385.6550, 16319.00
386.8540, 16314.00
388.0530, 16389.00
389.2520, 16451.29
390.4510, 16686.00
391.6490, 16538.00
392.8470, 16650.00
394.0450, 16498.00
395.2430, 16507.00
396.4410, 16422.00
397.6390, 16342.00
398.8360, 16239.00
400.0340, 16233.00
401.2310, 16036.00
402.4280, 16060.00
403.6250, 15822.00
404.8210, 15816.00
406.0180, 15719.00
407.2140, 15749.00
408.4100, 15755.00
409.6060, 15671.00
410.8020, 15644.00
411.9980, 15570.00
413.1930, 15735.00
414.3890, 15601.00
415.5840, 15893.00
416.7790, 15874.00
417.9740, 15908.00
419.1680, 15992.00
420.3630, 15956.00
421.5570, 16182.00
422.7510, 16461.00
423.9450, 16449.00
425.1390, 16566.00
426.3330, 16811.00
427.5270, 16672.00
428.7200, 17037.00
429.9130, 17113.00
431.1060, 17256.00
432.2990, 17101.00
433.4920, 17205.00
434.6840, 17191.00
435.8770, 17074.00
437.0690, 17017.00
438.2610, 16873.00
439.4530, 16868.00
440.6450, 16583.00
441.8360, 16705.00
443.0280, 16491.00
444.2190, 16468.00
445.4100, 16423.92
446.6010, 16495.00
447.7920, 16527.86
448.9820, 16485.00
450.1730, 16708.00
451.3630, 16751.00
452.5530, 16889.00
453.7430, 17205.00
454.9330, 17205.00
456.1230, 17484.00
457.3120, 17503.00
458.5010, 17804.00
459.6910, 18147.00
460.8800, 18352.00
462.0680, 18747.00
463.2570, 19189.00
464.4460, 19615.00
465.6340, 20172.00
466.8220, 20904.00
468.0100, 21716.00
469.1980, 22581.00
470.3860, 23885.00
471.5730, 25193.00
472.7600, 26933.00
473.9480, 28600.00
475.1350, 30861.00
476.3210, 33625.00
477.5080, 36114.00
478.6950, 38943.00
479.8810, 42032.00
481.0670, 45264.00
482.2530, 48441.00
483.4390, 51406.00
484.6250, 54458.00
485.8100, 56976.00
486.9960, 59695.00
488.1810, 61897.00
489.3660, 65215.00
490.5510, 67976.00
491.7360, 71479.00
492.9200, 74202.00
494.1050, 76600.00
495.2890, 78997.00
496.4730, 79673.00
497.6570, 79433.00
498.8400, 78507.00
500.0240, 76583.00
501.2070, 74137.00
502.3910, 72253.00
503.5740, 70808.00
504.7570, 69478.00
505.9400, 68326.00
507.1220, 67378.00
508.3050, 66485.00
509.4870, 64262.00
510.6690, 62002.00
511.8510, 59587.00
513.0330, 56636.00
514.2140, 54402.00
515.3960, 52112.00
516.5770, 50650.00
517.7580, 49975.00
518.9390, 49357.00
520.1200, 49255.00
521.3010, 50123.00
522.4810, 51463.00
523.6610, 53057.00
524.8420, 55163.00
526.0220, 57182.00
527.2010, 59182.00
528.3810, 60273.00
529.5610, 60408.00
530.7400, 59150.00
531.9190, 57103.00
533.0980, 53574.00
534.2770, 50257.00
535.4560, 45878.00
536.6340, 42273.00
537.8120, 38366.00
538.9910, 35576.00
540.1690, 32796.30
541.3460, 30521.04
542.5240, 28554.00
543.7020, 27107.00
544.8790, 25930.00
546.0560, 24822.00
547.2330, 24109.00
548.4100, 23285.00
549.5870, 23432.00
550.7630, 22193.00
551.9400, 21677.00
553.1160, 21816.00
554.2920, 20876.00
555.4680, 20502.00
556.6440, 19938.00
557.8190, 19787.00
558.9950, 19389.00
560.1700, 19483.00
561.3450, 19056.27
562.5200, 18840.00
563.6950, 18475.00
564.8690, 18362.00
566.0440, 18261.00
567.2180, 17884.00
568.3920, 17935.00
569.5660, 17705.00
570.7400, 17622.00
571.9130, 17452.00
573.0870, 17389.00
574.2600, 16997.00
575.4330, 17153.00
576.6060, 16942.00
577.7790, 16854.00
578.9520, 16904.00
580.1240, 16716.00
581.2960, 16882.00
582.4690, 16724.00
583.6410, 16701.00
584.8120, 16935.00
585.9840, 16685.00
587.1560, 16812.00
588.3270, 16862.00
589.4980, 16840.00
590.6690, 16849.00
591.8400, 16802.00
593.0110, 16827.00
594.1810, 16818.00
595.3510, 16846.00
596.5220, 16777.15
597.6920, 16972.00
598.8610, 16746.00
600.0310, 16883.29
601.2010, 17136.00
602.3700, 16805.00
603.5390, 16721.00
604.7080, 16713.00
605.8770, 16811.00
607.0460, 16393.00
608.2140, 16552.00
609.3830, 16624.00
610.5510, 16293.00
611.7190, 16540.00
612.8870, 16802.00
614.0550, 16547.00
615.2220, 16458.00
616.3900, 16694.00
617.5570, 16546.00
618.7240, 16701.00
619.8910, 16863.00
621.0580, 16926.00
622.2240, 16850.00
623.3910, 17024.00
624.5570, 17031.00
625.7230, 16887.00
626.8890, 16941.34
628.0550, 16906.00
629.2200, 16863.00
630.3860, 16914.00
631.5510, 16935.00
632.7160, 16808.00
633.8810, 16763.00
635.0460, 16625.00
636.2100, 16740.00
637.3750, 16769.00
638.5390, 16756.00
639.7030, 16700.00
640.8670, 16801.00
642.0310, 16719.00
643.1950, 16651.00
644.3580, 16906.00
645.5210, 16891.00
646.6850, 16635.00
647.8480, 16826.00
649.0100, 16763.00
650.1730, 16798.00
651.3350, 16840.00
652.4980, 16836.00
653.6600, 16754.00
654.8220, 16735.00
655.9840, 16898.00
657.1450, 16766.00
658.3070, 16909.00
659.4680, 17147.00
660.6300, 16974.00
661.7910, 17017.00
662.9510, 17054.00
664.1120, 17073.00
665.2730, 17040.00
666.4330, 17286.00
667.5930, 17213.00
668.7530, 17175.00
669.9130, 17091.00
671.0730, 17242.00
672.2320, 17294.00
673.3920, 17220.00
674.5510, 17308.00
675.7100, 17248.00
676.8690, 17310.00
678.0280, 17308.55
679.1860, 17369.00
680.3450, 17281.00
681.5030, 17359.00
682.6610, 17285.03
683.8190, 17315.60
684.9770, 17254.00
686.1340, 17325.00
687.2920, 17248.00
688.4490, 17163.00
689.6060, 17203.00
690.7630, 17112.00
691.9200, 17022.00
693.0760, 16980.00
694.2330, 16880.00
695.3890, 16999.00
696.5450, 17020.00
697.7010, 16988.25
698.8570, 16831.00
700.0130, 16964.00
701.1680, 16935.00
702.3230, 16930.00
703.4780, 17022.00
704.6330, 16957.00
705.7880, 17001.00
706.9430, 16926.00
708.0970, 17175.00
709.2520, 17092.00
710.4060, 17253.00
711.5600, 17116.00
712.7140, 17278.00
713.8670, 17389.00
715.0210, 17424.00
716.1740, 17310.00
717.3270, 17368.00
718.4800, 17349.00
719.6330, 17342.45
720.7860, 17310.00
721.9380, 17383.00
723.0910, 17449.00
724.2430, 17500.00
725.3950, 17419.00
726.5470, 17485.00
727.6980, 17435.00
728.8500, 17677.00
730.0010, 17858.00
731.1530, 17674.13
732.3040, 17484.00
733.4550, 17402.00
734.6050, 17401.00
735.7560, 17394.00
736.9060, 17489.00
738.0560, 17528.00
739.2060, 17681.00
740.3560, 17511.00
741.5060, 17596.00
742.6560, 17469.00
743.8050, 17357.00
744.9540, 17450.00
746.1030, 17628.00
747.2520, 17474.00
748.4010, 17474.00
749.5500, 17367.12
750.6980, 17516.97
751.8460, 17594.40
752.9950, 17603.28
754.1420, 17338.39
755.2900, 17427.04
756.4380, 17374.01
757.5850, 17315.18
758.7330, 17355.00
759.8800, 17477.00
761.0270, 17471.00
762.1730, 17417.00
763.3200, 17395.00
764.4670, 17462.00
765.6130, 17635.00
766.7590, 17601.42
767.9050, 17816.00
769.0510, 17639.00
770.1960, 17608.00
771.3420, 17606.00
772.4870, 17701.00
773.6320, 17727.00
774.7770, 17695.00
775.9220, 17658.00
777.0670, 17654.00
778.2110, 17859.00
779.3560, 17869.00
780.5000, 17850.00
781.6440, 17971.00
782.7880, 17888.00
783.9320, 17941.00
785.0750, 17920.34
786.2180, 17967.00
787.3620, 17888.00
788.5050, 17882.00
789.6480, 17929.00
790.7900, 17889.61
791.9330, 18012.00
793.0750, 17926.00
794.2170, 17942.00
795.3590, 18038.00
796.5010, 18093.00
797.6430, 17943.00
798.7850, 17854.00
799.9260, 18045.00
801.0670, 17781.00
802.2080, 17811.00
803.3490, 17774.00
804.4900, 17821.00
805.6310, 17795.00
806.7710, 17590.00
807.9110, 17686.00
809.0510, 17588.00
810.1910, 17546.00
811.3310, 17627.00
812.4710, 17629.00
813.6100, 17584.00
814.7490, 17490.00
815.8880, 17743.00
817.0270, 17548.00
818.1660, 17649.00
819.3050, 17548.00
820.4430, 17694.00
821.5820, 17537.00
822.7200, 17456.00
823.8580, 17663.00
824.9950, 17476.00
826.1330, 17593.00
827.2710, 17622.00
828.4080, 17503.00
829.5450, 17520.00
830.6820, 17550.49
831.8190, 17536.02
832.9560, 17626.00
834.0920, 17611.00
835.2280, 17589.00
836.3650, 17646.00
837.5010, 17616.00
838.6360, 17667.00
839.7720, 17655.00
840.9080, 17853.00
842.0430, 17767.00
843.1780, 17821.00
844.3130, 17942.00
845.4480, 17934.00
846.5830, 17843.00
847.7170, 17912.00
848.8520, 17790.00
849.9860, 18077.00
851.1200, 18007.00
852.2540, 17949.00
853.3870, 17858.00
854.5210, 18066.00
855.6540, 18077.00
856.7880, 18116.00
857.9210, 18156.85
859.0540, 18188.18
860.1860, 18165.00
861.3190, 18211.00
862.4510, 18283.00
863.5840, 18173.00
864.7160, 17988.00
865.8480, 18192.00
866.9790, 18140.00
868.1110, 18313.00
869.2420, 18182.00
870.3740, 18117.00
871.5050, 18138.00
872.6360, 18251.00
873.7660, 18273.00
874.8970, 18252.00
876.0280, 18134.00
877.1580, 18435.00
878.2880, 18251.79
879.4180, 18328.00
880.5480, 18207.00
881.6770, 18398.00
882.8070, 18596.00
883.9360, 18401.00
885.0650, 18235.00
886.1940, 18255.00
887.3230, 18442.00
888.4520, 18414.00
889.5800, 18563.00
890.7090, 18505.00
891.8370, 18595.00
892.9650, 18560.92
894.0930, 18751.16
895.2200, 18868.96
896.3480, 18918.25
897.4750, 18693.71
898.6020, 18822.73
899.7290, 18810.06
900.8560, 18791.59
901.9830, 18970.37
903.1090, 18785.64
904.2360, 18961.29
905.3620, 18993.07
906.4880, 19090.69
907.6140, 19045.74
908.7400, 19044.83
909.8650, 19118.00
910.9900, 19169.00
912.1160, 19168.00
913.2410, 19222.00
914.3660, 19270.00
915.4900, 19317.00
916.6150, 19388.00
917.7390, 19411.00
918.8640, 19526.00
919.9880, 19492.00
921.1120, 19543.00
922.2350, 19647.00
923.3590, 19472.00
924.4820, 19711.00
925.6060, 19575.00
926.7290, 19541.00
927.8520, 19703.00
928.9740, 19894.00
930.0970, 19985.00
931.2190, 19983.00
932.3420, 20017.00
933.4640, 20131.00
934.5860, 20287.00
935.7080, 20314.00
936.8290, 20294.00
937.9510, 20276.00
939.0720, 20426.00
940.1930, 20340.00
941.3140, 20489.55
942.4350, 20567.00
943.5560, 20702.00
944.6760, 20772.00
945.7960, 20823.00
946.9170, 20979.00
948.0370, 21227.00
949.1560, 21287.00
950.2760, 21251.00
951.3960, 21619.00
952.5150, 21606.00
953.6340, 21807.00
954.7530, 21875.00
955.8720, 21968.00
956.9910, 22221.00
958.1090, 22217.00
959.2280, 22137.00
960.3460, 22288.00
961.4640, 22287.00
962.5820, 22475.00
963.6990, 22583.00
964.8170, 22688.00
965.9340, 22705.00
967.0510, 22438.31
968.1690, 22621.98
969.2850, 22733.18
970.4020, 22775.88
971.5190, 22544.77
972.6350, 22667.20
973.7510, 22647.94
974.8670, 22622.87
975.9830, 22795.05
977.0990, 22603.75
978.2150, 22772.82
979.3300, 22798.01
980.4450, 22889.04
981.5600, 22837.51
982.6750, 22830.01
983.7900, 22965.12
984.9050, 23021.27
986.0190, 22953.31
987.1340, 23048.52
988.2480, 23091.00
989.3620, 23319.00
990.4750, 23099.00
991.5890, 23330.00
992.7020, 22995.00
993.8160, 23055.00
994.9290, 22993.00
996.0420, 23255.00
997.1550, 23340.00
998.2670, 23550.00
999.3800, 23533.00
1000.492, 23461.00
1001.604, 23888.00
1002.716, 23673.00
1003.828, 23967.00
1004.940, 23788.00
1006.051, 23579.00
1007.163, 23851.00
1008.274, 23567.00
1009.385, 23692.00
1010.496, 23794.00
1011.606, 23734.00
1012.717, 23736.00
1013.827, 23802.00
1014.937, 23855.00
1016.047, 23860.00
1017.157, 23944.00
1018.267, 23882.00
1019.377, 23839.00
1020.486, 23970.00
1021.595, 24043.00
1022.704, 24206.00
1023.813, 24318.00
1024.922, 24231.00
1026.030, 24159.00
1027.139, 24186.00
1028.247, 24443.00
1029.355, 24165.00
1030.463, 24508.00
1031.571, 24475.00
1032.678, 24439.00
1033.786, 24517.00
1034.893, 24485.00
1036.000, 24463.00
1037.107, 24424.00
1038.214, 24490.00
1039.321, 24735.00
1040.427, 24592.00
1041.533, 24859.00
1042.639, 24923.00
1043.745, 24955.00
1044.851, 24993.54
1045.957, 25015.00
1047.062, 24974.00
1048.168, 25136.00
1049.273, 25291.00
1050.378, 25297.00
1051.482, 25435.00
1052.587, 25249.00
1053.692, 25544.00
1054.796, 25600.00
1055.900, 25846.00
1057.004, 25878.77
1058.108, 25852.00
1059.212, 25830.00
1060.315, 25928.00
1061.418, 25718.00
1062.522, 25987.00
1063.625, 25570.07
1064.728, 25728.61
1065.830, 25814.73
1066.933, 25832.31
1068.035, 25576.10
1069.137, 25673.45
1070.239, 25629.10
1071.341, 25578.95
1072.443, 25726.05
1073.545, 25509.66
1074.646, 25653.65
1075.747, 25653.78
1076.848, 25719.75
1077.949, 25643.15
1079.050, 25610.59
1080.150, 25530.00
1081.251, 25523.35
1082.351, 25714.00
1083.451, 25461.00
1084.551, 25610.00
1085.651, 25583.00
1086.750, 25501.00
1087.850, 25719.00
1088.949, 25499.00
1090.048, 25367.00
1091.147, 25467.00
1092.246, 25408.00
1093.345, 25406.00
1094.443, 25542.00
1095.541, 25615.00
1096.639, 25550.00
1097.737, 25638.54
1098.835, 25582.00
1099.933, 25694.00
1101.030, 25506.00
1102.128, 25556.00
1103.225, 25399.00
1104.322, 25689.00
1105.419, 25612.00
1106.515, 25747.00
1107.612, 25690.00
1108.708, 25795.00
1109.804, 25887.00
1110.900, 25983.00
1111.996, 25692.00
1113.092, 25617.00
1114.187, 25571.00
1115.283, 25507.00
1116.378, 25537.00
1117.473, 25458.00
1118.568, 25497.00
1119.662, 25421.82
1120.757, 25414.00
1121.851, 25322.00
1122.946, 25340.00
1124.040, 25372.00
1125.134, 25132.00
1126.227, 25170.00
1127.321, 25106.00
1128.414, 25133.00
1129.508, 24911.00
1130.601, 24961.00
1131.693, 24962.00
1132.786, 24754.00
1133.879, 24881.00
1134.971, 24944.00
1136.064, 24691.00
1137.156, 24690.00
1138.248, 24637.00
1139.339, 24626.00
1140.431, 24622.00
1141.522, 24679.00
1142.614, 24464.00
1143.705, 24597.00
1144.796, 24376.00
1145.887, 24175.00
1146.977, 24363.00
1148.068, 24313.00
1149.158, 24165.00
1150.248, 24082.00
1151.338, 24113.00
1152.428, 23999.00
1153.518, 23938.42
1154.607, 23903.11
1155.696, 23774.00
1156.785, 23760.00
1157.874, 23708.00
1158.963, 23561.00
1160.052, 23643.00
1161.141, 23618.00
1162.229, 23568.00
1163.317, 23432.00
1164.405, 23367.00
1165.493, 23433.00
1166.581, 23439.00
1167.668, 23297.00
1168.756, 23334.00
1169.843, 23163.00
1170.930, 23170.00
1172.017, 23116.00
1173.103, 23179.00
1174.190, 23168.00
1175.276, 23144.97
1176.363, 23039.00
1177.449, 23096.00
1178.535, 23096.00
1179.620, 23064.00
1180.706, 23096.00
1181.791, 23010.00
1182.877, 22924.00
1183.962, 22907.00
1185.047, 23001.00
1186.131, 23028.00
1187.216, 22920.97
1188.300, 22985.00
1189.385, 22737.00
1190.469, 22959.00
1191.553, 23017.00
1192.637, 23060.00
1193.720, 22827.00
1194.804, 22933.00
1195.887, 22964.00
1196.970, 22813.00
1198.053, 22946.00
1199.136, 23241.00
1200.219, 23049.80
1201.301, 23185.87
1202.383, 22960.00
1203.465, 23058.00
1204.547, 23168.00
1205.629, 22745.62
1206.711, 22937.05
1207.792, 23056.03
1208.874, 23106.50
1209.955, 22883.15
1211.036, 23013.36
1212.117, 23001.88
1213.198, 22984.59
1214.278, 23164.53
1215.359, 22981.00
1216.439, 23157.82
1217.519, 23190.78
1218.599, 23289.58
1219.678, 23245.79
1220.758, 23246.07
1221.837, 23388.92
1222.917, 23452.83
1223.996, 23392.64
1225.075, 23495.60
1226.153, 23307.02
1227.232, 23233.00
1228.310, 23199.00
1229.389, 23255.00
1230.467, 23244.30
1231.545, 23327.00
1232.622, 23359.00
1233.700, 23411.42
1234.777, 23632.00
1235.855, 23539.00
1236.932, 23602.00
1238.009, 23678.00
1239.086, 23602.00
1240.162, 23638.43
1241.239, 23828.00
1242.315, 23628.00
1243.391, 23523.00
1244.467, 23576.00
1245.543, 23934.00
1246.619, 24183.00
1247.694, 23621.00
1248.769, 23987.00
1249.844, 23835.00
1250.919, 23886.00
1251.994, 23978.00
1253.069, 23533.00
1254.144, 23847.00
1255.218, 23737.00
1256.292, 23999.00
1257.366, 23933.00
1258.440, 23935.00
1259.514, 24017.14
1260.587, 23867.00
1261.661, 24018.00
1262.734, 24075.00
1263.807, 24009.00
1264.880, 24020.00
1265.952, 23863.00
1267.025, 23973.98
1268.097, 24147.00
1269.170, 24141.00
1270.242, 24039.00
1271.314, 24091.00
1272.385, 24507.00
