##NAMES=Leucite
##RRUFFID=R060300
##IDEAL CHEMISTRY=K(Si_2_Al)O_6_
##LOCALITY=Alban Hills, Rome Province, Latium, Italy
##OWNER=RRUFF
##SOURCE=Herb Obodda
##DESCRIPTION=Colorless complete pseudocubic crystal showing trapezohedral faces
##STATUS=The identification of this mineral has been confirmed by X-ray diffraction and chemical analysis
##URL=rruff.info/R060300
##MEASURED CHEMISTRY=(K_0.98_Na_0.02_)_Î£=1_Al_1.00_Si_2.00_O_6_
##PIN_ID=M01338
##ORIENTATION=Laser parallel to a* (1 0 0). Fiducial mark perpendicular to laser is parallel to c [0 0 1]
70.24100, 14836.00
71.48500, 15046.00
72.72800, 15831.00
73.97100, 16517.00
75.21400, 17416.00
76.45600, 17608.00
77.69900, 17870.00
78.94100, 18136.00
80.18300, 18428.00
81.42500, 18061.00
82.66700, 18253.00
83.90800, 17670.00
85.15000, 17621.00
86.39100, 17643.00
87.63200, 17506.00
88.87300, 17666.00
90.11400, 17734.00
91.35400, 18041.00
92.59500, 18199.00
93.83500, 18154.00
95.07500, 18174.00
96.31500, 18100.44
97.55400, 18012.02
98.79400, 17806.00
100.0330, 17750.00
101.2720, 17495.00
102.5110, 17284.00
103.7500, 17242.00
104.9890, 17293.00
106.2270, 17228.50
107.4650, 17454.00
108.7040, 17399.00
109.9420, 17516.00
111.1790, 17874.00
112.4170, 18050.00
113.6540, 18491.00
114.8920, 18670.00
116.1290, 18804.00
117.3650, 18603.00
118.6020, 18773.00
119.8390, 18401.00
121.0750, 18164.00
122.3110, 17976.00
123.5470, 17798.00
124.7830, 17605.00
126.0190, 17539.00
127.2540, 17582.58
128.4900, 17607.00
129.7250, 17925.00
130.9600, 18104.00
132.1950, 18519.00
133.4290, 18953.00
134.6640, 19309.00
135.8980, 19690.00
137.1320, 20198.00
138.3660, 20829.00
139.6000, 21299.00
140.8340, 21579.00
142.0670, 22133.00
143.3000, 22389.00
144.5330, 23002.00
145.7660, 23238.00
146.9990, 23600.00
148.2320, 24028.00
149.4640, 24335.00
150.6960, 24763.00
151.9280, 24892.00
153.1600, 24986.00
154.3920, 24936.00
155.6230, 24727.00
156.8550, 24663.00
158.0860, 24291.00
159.3170, 24161.00
160.5480, 23680.00
161.7780, 23039.00
163.0090, 22684.00
164.2390, 22100.00
165.4690, 21774.00
166.6990, 21445.00
167.9290, 21104.00
169.1590, 20981.00
170.3880, 21137.00
171.6180, 21432.00
172.8470, 21547.00
174.0760, 22075.00
175.3040, 22930.00
176.5330, 23399.00
177.7610, 23818.00
178.9900, 24260.00
180.2180, 24152.00
181.4460, 24391.00
182.6730, 24269.00
183.9010, 24097.00
185.1280, 23623.00
186.3560, 23166.00
187.5830, 22262.00
188.8100, 21687.00
190.0360, 21227.00
191.2630, 20373.00
192.4890, 20094.00
193.7150, 19434.00
194.9410, 19331.00
196.1670, 18761.00
197.3930, 18497.00
198.6180, 17999.00
199.8440, 17945.00
201.0690, 17781.00
202.2940, 17531.52
203.5190, 17380.00
204.7430, 17332.00
205.9680, 17096.00
207.1920, 17278.00
208.4160, 17327.00
209.6400, 17131.00
210.8640, 17181.00
212.0880, 17042.00
213.3110, 17133.00
214.5340, 17016.00
215.7570, 17116.00
216.9800, 16769.00
218.2030, 16742.00
219.4260, 16612.00
220.6480, 16323.00
221.8700, 15947.00
223.0920, 15777.00
224.3140, 15657.00
225.5360, 15508.00
226.7580, 15341.00
227.9790, 15158.00
229.2000, 14847.00
230.4210, 14769.00
231.6420, 14520.00
232.8630, 14427.00
234.0830, 14509.00
235.3040, 14436.00
236.5240, 14321.00
237.7440, 14121.00
238.9640, 13952.00
240.1830, 13983.00
241.4030, 13936.00
242.6220, 13986.00
243.8410, 13927.00
245.0600, 13817.00
246.2790, 13865.31
247.4980, 13850.12
248.7160, 13854.00
249.9340, 13867.00
251.1530, 13809.00
252.3710, 13681.00
253.5880, 13833.00
254.8060, 13796.00
256.0230, 13830.00
257.2410, 13946.00
258.4580, 14066.00
259.6750, 13928.00
260.8910, 13973.00
262.1080, 14070.00
263.3240, 14071.00
264.5410, 14088.00
265.7570, 14207.00
266.9730, 14217.00
268.1880, 14204.00
269.4040, 14281.00
270.6190, 14272.16
271.8350, 14260.95
273.0500, 14309.00
274.2650, 14207.00
275.4790, 14220.00
276.6940, 14184.00
277.9080, 14387.00
279.1220, 14415.00
280.3360, 14297.00
281.5500, 14396.00
282.7640, 14362.00
283.9770, 14430.00
285.1910, 14722.00
286.4040, 14692.00
287.6170, 14902.00
288.8300, 14917.00
290.0420, 15190.00
291.2550, 15429.00
292.4670, 15588.00
293.6790, 15738.00
294.8910, 16110.00
296.1030, 16126.00
297.3150, 16415.00
298.5260, 16649.00
299.7380, 16792.00
300.9490, 16656.00
302.1600, 16783.00
303.3710, 16721.00
304.5810, 16869.00
305.7920, 16545.00
307.0020, 16579.10
308.2120, 16479.44
309.4220, 16429.00
310.6320, 16185.00
311.8410, 16139.00
313.0510, 15777.00
314.2600, 15803.00
315.4690, 15756.00
316.6780, 15602.00
317.8870, 15642.00
319.0950, 15491.00
320.3040, 15633.00
321.5120, 15348.00
322.7200, 15603.00
323.9280, 15443.00
325.1360, 15668.00
326.3430, 15567.00
327.5510, 15640.00
328.7580, 15739.00
329.9650, 15674.00
331.1720, 15834.00
332.3790, 15996.00
333.5850, 15990.00
334.7910, 16004.00
335.9980, 16017.00
337.2040, 16035.00
338.4100, 15947.00
339.6150, 15777.00
340.8210, 15678.00
342.0260, 15714.00
343.2310, 15803.00
344.4360, 15666.00
345.6410, 15627.00
346.8460, 15518.00
348.0500, 15451.00
349.2550, 15439.00
350.4590, 15529.00
351.6630, 15292.00
352.8670, 15320.00
354.0700, 15383.00
355.2740, 15284.00
356.4770, 15228.00
357.6800, 15245.00
358.8830, 15239.00
360.0860, 15291.00
361.2890, 15371.05
362.4910, 15462.00
363.6930, 15554.00
364.8960, 15568.00
366.0980, 15595.00
367.2990, 15628.00
368.5010, 15580.00
369.7020, 15699.00
370.9040, 15775.00
372.1050, 15799.00
373.3060, 15631.00
374.5070, 15672.00
375.7070, 15860.00
376.9080, 15733.00
378.1080, 15925.00
379.3080, 15809.00
380.5080, 15980.00
381.7080, 15728.00
382.9070, 15979.00
384.1070, 16042.00
385.3060, 15780.00
386.5050, 16135.00
387.7040, 15888.00
388.9030, 15867.00
390.1010, 16227.00
391.3000, 16156.00
392.4980, 16130.00
393.6960, 15911.00
394.8940, 16094.00
396.0920, 16044.00
397.2890, 15940.00
398.4870, 15933.00
399.6840, 15882.98
400.8810, 15913.00
402.0780, 15857.00
403.2750, 15776.00
404.4710, 15811.00
405.6680, 15697.00
406.8640, 15797.00
408.0600, 15876.00
409.2560, 15876.00
410.4520, 15812.00
411.6470, 15913.00
412.8430, 15841.00
414.0380, 15757.00
415.2330, 15929.00
416.4280, 16047.00
417.6220, 16198.00
418.8170, 16518.00
420.0110, 16450.00
421.2050, 16402.00
422.4000, 16759.00
423.5930, 16636.00
424.7870, 16997.00
425.9810, 17090.00
427.1740, 17248.00
428.3670, 17414.00
429.5600, 17427.00
430.7530, 17584.00
431.9460, 17624.00
433.1380, 17478.00
434.3310, 17369.00
435.5230, 17306.92
436.7150, 17214.00
437.9070, 17064.00
439.0980, 16898.00
440.2900, 16678.00
441.4810, 16857.00
442.6720, 16625.00
443.8630, 16660.00
445.0540, 16751.00
446.2450, 16797.00
447.4350, 16839.00
448.6260, 16765.00
449.8160, 16927.00
451.0060, 16934.00
452.1960, 17001.00
453.3850, 17347.00
454.5750, 17451.00
455.7640, 17494.00
456.9530, 17865.00
458.1420, 18049.00
459.3310, 18278.00
460.5200, 18578.00
461.7080, 18763.00
462.8970, 18971.00
464.0850, 19140.00
465.2730, 19634.00
466.4610, 20165.00
467.6480, 20634.00
468.8360, 21242.00
470.0230, 22210.00
471.2100, 23176.00
472.3970, 24605.00
473.5840, 26119.00
474.7710, 27724.00
475.9570, 29605.00
477.1440, 31688.00
478.3300, 33664.00
479.5160, 36216.00
480.7020, 38555.00
481.8870, 40714.00
483.0730, 43003.00
484.2580, 44559.00
485.4430, 46219.00
486.6280, 48039.00
487.8130, 49859.00
488.9980, 51669.00
490.1820, 54085.00
491.3660, 56056.00
492.5510, 58405.00
493.7350, 60383.00
494.9180, 61054.00
496.1020, 61818.00
497.2860, 60896.00
498.4690, 59822.00
499.6520, 58417.00
500.8350, 56514.00
502.0180, 55352.00
503.2000, 54467.00
504.3830, 53859.00
505.5650, 53165.00
506.7470, 53002.00
507.9290, 51863.00
509.1110, 50821.00
510.2930, 48566.00
511.4740, 46790.00
512.6560, 44742.00
513.8370, 43163.00
515.0180, 41760.00
516.1980, 40875.00
517.3790, 40113.00
518.5600, 40755.00
519.7400, 40644.00
520.9200, 41437.00
522.1000, 43325.00
523.2800, 44748.00
524.4590, 46790.00
525.6390, 48462.00
526.8180, 49912.00
527.9970, 50243.00
529.1760, 50036.00
530.3550, 48866.00
531.5340, 46628.00
532.7120, 44012.00
533.8910, 41014.00
535.0690, 38013.00
536.2470, 35014.00
537.4250, 32544.00
538.6020, 30217.00
539.7800, 28460.00
540.9570, 27183.00
542.1340, 25839.00
543.3110, 24770.00
544.4880, 23931.00
545.6650, 23239.00
546.8410, 22755.00
548.0170, 22218.00
549.1940, 21886.00
550.3690, 21408.00
551.5450, 21243.00
552.7210, 20722.00
553.8960, 20626.00
555.0720, 20264.00
556.2470, 20106.00
557.4220, 19729.00
558.5970, 19626.00
559.7710, 19523.00
560.9460, 19398.00
562.1200, 19282.53
563.2940, 19146.00
564.4680, 18994.00
565.6420, 18821.00
566.8160, 18591.00
567.9890, 18352.00
569.1630, 18470.00
570.3360, 18359.00
571.5090, 18079.00
572.6820, 18198.00
573.8540, 18121.00
575.0270, 18006.00
576.1990, 17914.00
577.3710, 17910.76
578.5430, 17937.00
579.7150, 17932.00
580.8870, 17937.00
582.0580, 17964.00
583.2300, 17911.00
584.4010, 18020.00
585.5720, 17847.00
586.7430, 18091.00
587.9130, 18117.00
589.0840, 17980.00
590.2540, 18055.00
591.4240, 18022.00
592.5940, 17957.00
593.7640, 18183.00
594.9340, 17969.00
596.1030, 18089.00
597.2730, 17868.00
598.4420, 17989.00
599.6110, 17946.00
600.7800, 17916.00
601.9490, 17931.00
603.1170, 17825.00
604.2850, 18055.00
605.4540, 18064.00
606.6220, 17981.00
607.7900, 17968.00
608.9570, 17989.00
610.1250, 17876.00
611.2920, 17849.00
612.4590, 17852.00
613.6260, 17911.00
614.7930, 18070.00
615.9600, 17948.00
617.1270, 18112.00
618.2930, 18038.00
619.4590, 18078.00
620.6250, 18189.00
621.7910, 18166.00
622.9570, 18193.00
624.1220, 18308.00
625.2880, 18183.00
626.4530, 18332.00
627.6180, 18187.00
628.7830, 18092.00
629.9480, 18131.00
631.1120, 18294.00
632.2770, 18155.00
633.4410, 18274.00
634.6050, 18184.00
635.7690, 18242.00
636.9330, 18118.00
638.0960, 18189.00
639.2600, 18206.00
640.4230, 18205.00
641.5860, 18272.00
642.7490, 18057.00
643.9120, 18217.00
645.0740, 18064.00
646.2370, 18265.00
647.3990, 18088.00
648.5610, 18277.00
649.7230, 18319.00
650.8850, 18236.00
652.0460, 18308.09
653.2080, 18314.71
654.3690, 18347.00
655.5300, 18344.00
656.6910, 18531.00
657.8520, 18477.00
659.0130, 18559.00
660.1730, 18456.00
661.3330, 18470.00
662.4930, 18536.00
663.6530, 18634.00
664.8130, 18687.00
665.9730, 18710.00
667.1320, 18797.47
668.2920, 18696.00
669.4510, 18871.00
670.6100, 18905.00
671.7680, 18815.00
672.9270, 18895.00
674.0860, 18947.00
675.2440, 18724.00
676.4020, 19031.00
677.5600, 19214.00
678.7180, 18917.00
679.8760, 19085.00
681.0330, 18994.00
682.1900, 19128.00
683.3480, 19020.00
684.5050, 19025.00
685.6610, 18980.00
686.8180, 18930.00
687.9750, 19010.00
689.1310, 18834.00
690.2870, 19058.00
691.4430, 18830.00
692.5990, 18927.00
693.7550, 18857.00
694.9100, 18825.00
696.0660, 18799.00
697.2210, 18759.00
698.3760, 18794.00
699.5310, 18914.00
700.6860, 18793.00
701.8400, 18771.00
702.9940, 18901.00
704.1490, 18868.00
705.3030, 18918.00
706.4570, 18865.00
707.6100, 19047.00
708.7640, 19103.00
709.9170, 19040.00
711.0710, 19225.00
712.2240, 19061.00
713.3770, 19047.00
714.5290, 19121.00
715.6820, 19077.00
716.8340, 19247.00
717.9870, 19309.00
719.1390, 19294.00
720.2910, 19364.78
721.4430, 19489.00
722.5940, 19377.00
723.7460, 19295.00
724.8970, 19288.00
726.0480, 19362.00
727.1990, 19354.00
728.3500, 19355.00
729.5000, 19434.00
730.6510, 19434.00
731.8010, 19250.00
732.9510, 19412.00
734.1010, 19298.00
735.2510, 19554.00
736.4010, 19370.00
737.5500, 19343.00
738.7000, 19549.00
739.8490, 19375.00
740.9980, 19349.00
742.1470, 19291.00
743.2950, 19565.00
744.4440, 19448.00
745.5920, 19453.00
746.7400, 19497.00
747.8880, 19482.00
749.0360, 19520.00
750.1840, 19512.57
751.3310, 19487.00
752.4790, 19488.00
753.6260, 19422.00
754.7730, 19380.00
755.9200, 19429.00
757.0670, 19496.00
758.2130, 19479.00
759.3600, 19573.00
760.5060, 19573.90
761.6520, 19594.00
762.7980, 19562.00
763.9440, 19626.00
765.0890, 19529.00
766.2350, 19392.00
767.3800, 19629.00
768.5250, 19616.00
769.6700, 19657.00
770.8150, 19563.00
771.9590, 19785.00
773.1040, 19712.00
774.2480, 19973.00
775.3920, 19790.00
776.5360, 19895.00
777.6800, 20048.00
778.8240, 19883.00
779.9670, 19943.11
781.1100, 20057.19
782.2540, 20131.26
783.3970, 20167.43
784.5390, 20052.25
785.6820, 20132.50
786.8240, 20134.42
787.9670, 20133.15
789.1090, 20240.89
790.2510, 20147.72
791.3930, 20189.79
792.5350, 20250.31
793.6760, 20277.48
794.8170, 20273.09
795.9590, 20142.57
797.1000, 20174.91
798.2410, 20141.98
799.3810, 20106.40
800.5220, 20161.66
801.6620, 20049.51
802.8030, 19923.00
803.9430, 20116.00
805.0820, 20043.00
806.2220, 19898.00
807.3620, 20013.00
808.5010, 20001.00
809.6410, 19964.00
810.7800, 19900.00
811.9190, 19783.00
813.0570, 19778.00
814.1960, 19884.00
815.3340, 19975.00
816.4730, 19954.63
817.6110, 20028.00
818.7490, 19942.00
819.8870, 19878.00
821.0240, 19860.63
822.1620, 19810.97
823.2990, 19820.05
824.4360, 19783.00
825.5730, 19847.00
826.7100, 19880.00
827.8470, 19884.00
828.9830, 19885.41
830.1200, 19963.00
831.2560, 19812.00
832.3920, 19872.00
833.5280, 19786.44
834.6630, 19859.00
835.7990, 19823.00
836.9340, 19988.00
838.0700, 20060.00
839.2050, 20022.00
840.3400, 20044.00
841.4740, 20035.00
842.6090, 20161.00
843.7430, 20131.00
844.8780, 20133.00
846.0120, 20414.00
847.1460, 20038.00
848.2790, 20165.00
849.4130, 20388.00
850.5460, 20104.00
851.6800, 20338.00
852.8130, 20150.00
853.9460, 20136.00
855.0790, 20166.00
856.2110, 20478.00
857.3440, 20198.00
858.4760, 20458.00
859.6080, 20534.00
860.7400, 20333.00
861.8720, 20325.00
863.0040, 20515.00
864.1350, 20454.00
865.2670, 20370.00
866.3980, 20256.00
867.5290, 20397.00
868.6600, 20714.00
869.7900, 20500.00
870.9210, 20513.00
872.0510, 20608.00
873.1820, 20441.00
874.3120, 20558.00
875.4420, 20561.00
876.5710, 20523.00
877.7010, 20564.00
878.8300, 20765.00
879.9600, 20598.00
881.0890, 20770.00
882.2180, 20466.00
883.3460, 20685.00
884.4750, 20646.00
885.6040, 20755.00
886.7320, 20629.00
887.8600, 20643.00
888.9880, 20884.00
890.1160, 20802.00
891.2430, 20819.00
892.3710, 20980.00
893.4980, 20804.00
894.6260, 21072.00
895.7530, 20951.00
896.8790, 20948.00
898.0060, 21061.00
899.1330, 20928.00
900.2590, 21155.00
901.3850, 21247.00
902.5110, 21116.00
903.6370, 21220.00
904.7630, 20998.00
905.8890, 21247.00
907.0140, 21202.00
908.1390, 21182.00
909.2640, 21343.00
910.3890, 21180.00
911.5140, 21351.00
912.6390, 21308.00
913.7630, 21581.00
914.8870, 21275.00
916.0120, 21485.00
917.1360, 21587.00
918.2590, 21565.00
919.3830, 21656.00
920.5070, 21547.00
921.6300, 21677.00
922.7530, 21541.00
923.8760, 21707.00
924.9990, 21893.00
926.1220, 21752.00
927.2440, 21943.00
928.3670, 21854.00
929.4890, 22033.00
930.6110, 21924.00
931.7330, 21949.00
932.8540, 22001.00
933.9760, 22079.00
935.0980, 22207.00
936.2190, 22161.00
937.3400, 22217.00
938.4610, 22203.00
939.5820, 22280.53
940.7020, 22322.00
941.8230, 22489.00
942.9430, 22492.00
944.0630, 22657.00
945.1830, 22642.00
946.3030, 22801.00
947.4230, 22820.00
948.5420, 22873.00
949.6610, 22729.00
950.7810, 23058.00
951.9000, 23119.00
953.0190, 22960.00
954.1370, 23123.00
955.2560, 23329.00
956.3740, 23215.00
957.4920, 23455.00
958.6110, 23451.00
959.7280, 23322.00
960.8460, 23465.00
961.9640, 23387.00
963.0810, 23418.03
964.1990, 23604.58
965.3160, 23724.39
966.4330, 23781.07
967.5490, 23585.50
968.6660, 23715.64
969.7830, 23715.27
970.8990, 23709.51
972.0150, 23885.47
973.1310, 23726.58
974.2470, 23899.65
975.3630, 23940.21
976.4780, 24041.39
977.5930, 24011.24
978.7090, 24021.68
979.8240, 24163.47
980.9390, 24232.51
982.0530, 24187.21
983.1680, 24292.25
984.2820, 24128.71
985.3970, 24200.85
986.5110, 24374.63
987.6250, 24335.93
988.7380, 24443.31
989.8520, 24495.07
990.9660, 24293.96
992.0790, 24405.46
993.1920, 24415.00
994.3050, 24380.00
995.4180, 24505.00
996.5300, 24450.00
997.6430, 24356.00
998.7550, 24556.00
999.8680, 24589.00
1000.980, 24704.00
1002.091, 24639.00
1003.203, 24595.00
1004.315, 24610.00
1005.426, 24769.00
1006.537, 24893.00
1007.648, 24512.00
1008.759, 24904.00
1009.870, 24874.00
1010.981, 25172.00
1012.091, 24871.00
1013.201, 25026.00
1014.312, 24913.00
1015.422, 24906.00
1016.531, 24921.00
1017.641, 24960.00
1018.751, 25077.00
1019.860, 24932.00
1020.969, 25152.00
1022.078, 25173.00
1023.187, 24963.00
1024.296, 25339.00
1025.404, 24966.00
1026.513, 25278.00
1027.621, 25198.00
1028.729, 25411.00
1029.837, 25272.00
1030.945, 25348.00
1032.052, 25443.00
1033.160, 25387.00
1034.267, 25577.00
1035.374, 25614.50
1036.481, 25621.00
1037.588, 25711.00
1038.695, 25739.00
1039.801, 25603.00
1040.907, 25656.00
1042.014, 25884.00
1043.120, 25708.00
1044.225, 25834.00
1045.331, 26164.00
1046.437, 25908.00
1047.542, 26084.00
1048.647, 26238.00
1049.752, 26163.00
1050.857, 26262.00
1051.962, 26224.00
1053.067, 26272.00
1054.171, 26459.00
1055.275, 26382.00
1056.380, 26444.00
1057.484, 26548.00
1058.587, 26380.00
1059.691, 26726.00
1060.795, 26701.00
1061.898, 26734.00
1063.001, 26704.21
1064.104, 26622.00
1065.207, 26451.00
1066.310, 26531.00
1067.412, 26448.00
1068.515, 26585.00
1069.617, 26507.00
1070.719, 26652.00
1071.821, 26541.00
1072.923, 26432.00
1074.024, 26415.00
1075.126, 26349.00
1076.227, 26347.00
1077.328, 26419.00
1078.429, 26403.36
1079.530, 26278.00
1080.631, 26499.00
1081.731, 26420.00
1082.831, 26528.96
1083.932, 26490.36
1085.032, 26533.00
1086.132, 26362.00
1087.231, 26301.00
1088.331, 26236.00
1089.430, 26239.00
1090.530, 26362.00
1091.629, 26234.00
1092.728, 26416.00
1093.826, 26176.00
1094.925, 26257.00
1096.023, 26198.00
1097.122, 26329.00
1098.220, 26431.00
1099.318, 26545.00
1100.416, 26328.00
1101.513, 26352.00
1102.611, 26547.00
1103.708, 26184.00
1104.806, 26556.00
1105.903, 26304.00
1107.000, 26532.00
1108.096, 26420.00
1109.193, 26524.00
1110.289, 26409.00
1111.386, 26453.00
1112.482, 26236.00
1113.578, 26469.00
1114.673, 26444.00
1115.769, 26249.00
1116.865, 26528.00
1117.960, 26190.00
1119.055, 26330.00
1120.150, 26256.00
1121.245, 26311.00
1122.340, 26232.00
1123.434, 26219.73
1124.529, 26099.00
1125.623, 26160.00
1126.717, 26152.00
1127.811, 26113.00
1128.905, 26206.00
1129.998, 26147.00
1131.092, 26164.00
1132.185, 26298.00
1133.278, 26260.53
1134.371, 26237.00
1135.464, 26261.00
1136.557, 26140.00
1137.649, 26025.00
1138.742, 26058.00
1139.834, 26096.00
1140.926, 25905.00
1142.018, 26021.00
1143.109, 26100.00
1144.201, 25880.00
1145.292, 26275.00
1146.384, 25948.00
1147.475, 25898.00
1148.566, 25880.00
1149.657, 25800.00
1150.747, 25803.79
1151.838, 25633.00
1152.928, 25730.00
1154.018, 25729.00
1155.108, 25559.00
1156.198, 25756.00
1157.288, 25636.00
1158.377, 25717.00
1159.467, 25651.00
1160.556, 25455.00
1161.645, 25547.00
1162.734, 25570.00
1163.823, 25424.00
1164.911, 25356.00
1166.000, 25561.00
1167.088, 25199.00
1168.176, 25487.00
1169.264, 25426.00
1170.352, 25285.00
1171.440, 25314.00
1172.527, 25301.00
1173.615, 25390.00
1174.702, 25494.00
1175.789, 25160.00
1176.876, 25578.00
1177.963, 25281.00
1179.049, 25512.00
1180.136, 25230.00
1181.222, 25290.00
1182.308, 25262.00
1183.394, 25287.00
1184.480, 25466.00
1185.566, 25267.00
1186.651, 25191.00
1187.736, 25423.00
1188.822, 25247.00
1189.907, 25272.00
1190.992, 25430.00
1192.076, 25376.00
1193.161, 25265.00
1194.245, 25445.00
1195.330, 25354.31
1196.414, 25509.00
1197.498, 25386.00
1198.581, 25444.81
1199.665, 25531.00
1200.749, 25434.00
1201.832, 25297.00
1202.915, 25379.00
1203.998, 25393.00
1205.081, 25415.00
1206.164, 25440.00
1207.246, 25424.96
1208.329, 25575.00
1209.411, 25431.00
1210.493, 25519.00
1211.575, 25612.00
1212.657, 25529.00
1213.738, 25630.00
1214.820, 25501.00
1215.901, 25527.00
1216.982, 25791.00
1218.063, 25562.00
1219.144, 25465.00
1220.225, 25667.00
1221.305, 25708.00
1222.386, 25536.00
1223.466, 25903.00
1224.546, 25705.00
1225.626, 25616.00
1226.706, 26001.00
1227.785, 25929.00
1228.865, 25707.00
1229.944, 25756.00
1231.023, 25995.00
1232.102, 25815.00
1233.181, 25962.00
1234.260, 25843.00
1235.338, 25903.00
1236.417, 25883.00
1237.495, 26033.00
1238.573, 25909.00
1239.651, 25942.00
1240.729, 25850.00
1241.806, 25906.00
1242.884, 25900.00
1243.961, 25911.00
1245.038, 25906.00
1246.115, 26020.00
1247.192, 26008.85
1248.269, 26058.02
1249.345, 26044.00
1250.421, 26152.00
1251.498, 26137.00
1252.574, 26234.00
1253.650, 26068.00
