##NAMES=Magnesio-hastingsite
##RRUFFID=R070288
##IDEAL CHEMISTRY=NaCa_2_(Mg_4_Fe^3+^)Si_6_Al_2_O_22_(OH)_2_
##LOCALITY=Dallas Gem Mine (Gem Mine; Benitoite Mine), New Idria District, San Benito County, California, USA
##OWNER=RRUFF
##SOURCE=Michael Scott
##DESCRIPTION=Dark brown to black prismatic crystals frozen in albite
##STATUS=The identification of this mineral is confirmed by single-crystal X-ray diffraction and chemical analysis.
##URL=rruff.info/R070288
##MEASURED CHEMISTRY=(Na_0.51_[box]_0.33_K_0.16_)_Σ=1_(Ca_1.75_Na_0.25_)_Σ=2_(Mg_3.02_Fe^2+^_0.61_Ti_0.37_)_Σ=4_(Fe^3+^_0.73_Al_0.27_)_Σ=1_Si_5.84_Al_2.16_O_22_(OH)_2_; (OH) estimated by difference
##PIN_ID=M00823
##ORIENTATION=Laser parallel to -b* (0 -1 0). Fiducial mark perpendicular to laser is parallel to c [0 0 1]
103.0560, 19489.00
104.2930, 19594.00
105.5290, 20594.00
106.7660, 21288.00
108.0020, 22354.00
109.2390, 22575.00
110.4750, 22717.86
111.7110, 23276.02
112.9460, 23227.11
114.1820, 23389.64
115.4170, 23389.71
116.6530, 23229.28
117.8880, 22800.40
119.1230, 22602.00
120.3580, 22294.69
121.5920, 21876.28
122.8270, 21612.79
124.0610, 21319.78
125.2950, 21095.91
126.5290, 20965.45
127.7630, 20853.00
128.9970, 20755.00
130.2300, 20883.00
131.4640, 20749.00
132.6970, 20555.00
133.9300, 20502.00
135.1630, 20814.00
136.3950, 20825.01
137.6280, 21049.57
138.8600, 21242.56
140.0920, 21405.79
141.3240, 21450.12
142.5560, 21686.00
143.7880, 21888.00
145.0190, 22255.00
146.2510, 22744.00
147.4820, 23121.00
148.7130, 23845.00
149.9440, 24766.00
151.1750, 26073.00
152.4050, 27388.00
153.6360, 29055.00
154.8660, 31200.00
156.0960, 33220.00
157.3260, 35429.00
158.5560, 37280.00
159.7850, 38830.00
161.0150, 39528.00
162.2440, 39667.00
163.4730, 39247.00
164.7020, 37726.00
165.9310, 35674.00
167.1590, 34015.00
168.3880, 32899.00
169.6160, 31323.00
170.8440, 30362.65
172.0720, 29579.00
173.3000, 28673.00
174.5280, 28367.00
175.7550, 27939.00
176.9820, 27654.94
178.2100, 27743.25
179.4370, 27800.09
180.6630, 27827.16
181.8900, 27839.00
183.1170, 27797.07
184.3430, 27820.00
185.5690, 27778.64
186.7950, 27792.00
188.0210, 27698.00
189.2470, 27692.00
190.4720, 27486.00
191.6970, 27492.00
192.9230, 27457.00
194.1480, 27316.00
195.3730, 27308.90
196.5970, 27114.73
197.8220, 27184.38
199.0460, 27224.25
200.2700, 27145.23
201.4940, 27219.73
202.7180, 27232.70
203.9420, 27534.00
205.1660, 27645.00
206.3890, 28175.00
207.6120, 28456.00
208.8350, 29001.00
210.0580, 30136.00
211.2810, 30793.00
212.5040, 32122.00
213.7260, 33303.00
214.9480, 34885.00
216.1700, 36472.00
217.3920, 37975.00
218.6140, 39909.00
219.8360, 42205.00
221.0570, 43886.00
222.2790, 45640.00
223.5000, 46595.00
224.7210, 46883.00
225.9410, 47132.00
227.1620, 46290.00
228.3820, 44667.00
229.6030, 42457.00
230.8230, 40485.00
232.0430, 38150.00
233.2630, 35816.00
234.4820, 34294.00
235.7020, 32348.00
236.9210, 31075.00
238.1400, 29776.00
239.3590, 28820.00
240.5780, 28033.33
241.7970, 27544.00
243.0150, 26994.00
244.2340, 26739.00
245.4520, 26608.00
246.6700, 26025.86
247.8880, 25907.03
249.1060, 25756.76
250.3230, 25576.88
251.5400, 25278.11
252.7580, 25132.71
253.9750, 24925.94
255.1920, 24716.64
256.4080, 24593.16
257.6250, 24311.69
258.8410, 24186.85
260.0580, 23834.00
261.2740, 23556.00
262.4900, 23552.00
263.7050, 23302.00
264.9210, 23385.00
266.1360, 23456.00
267.3520, 23490.00
268.5670, 23442.00
269.7820, 23320.90
270.9960, 23268.02
272.2110, 23213.25
273.4250, 23121.00
274.6400, 23105.00
275.8540, 23186.38
277.0680, 23106.00
278.2810, 23276.00
279.4950, 23393.00
280.7090, 23398.00
281.9220, 23623.00
283.1350, 23707.10
284.3480, 23789.00
285.5610, 24055.00
286.7730, 24145.00
287.9860, 24468.00
289.1980, 24612.00
290.4100, 24804.00
291.6220, 25128.61
292.8340, 25326.60
294.0460, 25483.62
295.2570, 25601.64
296.4690, 25572.60
297.6800, 25727.13
298.8910, 25804.17
300.1020, 25875.38
301.3120, 26047.75
302.5230, 26025.76
303.7330, 26190.94
304.9440, 26277.57
306.1540, 26396.08
307.3630, 26436.58
308.5730, 26497.60
309.7830, 26631.04
310.9920, 26775.00
312.2010, 26660.00
313.4100, 26994.00
314.6190, 26981.00
315.8280, 27003.00
317.0370, 26903.00
318.2450, 26966.00
319.4530, 26869.46
320.6610, 26879.01
321.8690, 26857.10
323.0770, 26805.43
324.2850, 26737.65
325.4920, 26617.89
326.6990, 26539.38
327.9060, 26458.35
329.1130, 26343.00
330.3200, 26234.90
331.5270, 26188.00
332.7330, 25829.67
333.9390, 25677.84
335.1450, 25405.00
336.3510, 25295.00
337.5570, 25016.00
338.7630, 24890.00
339.9680, 24837.00
341.1740, 24564.00
342.3790, 24688.00
343.5840, 24284.00
344.7890, 24459.00
345.9930, 24131.00
347.1980, 24296.00
348.4020, 24239.00
349.6060, 24367.00
350.8100, 24240.00
352.0140, 23823.00
353.2180, 23725.00
354.4210, 23802.00
355.6250, 23748.00
356.8280, 23745.00
358.0310, 23788.00
359.2340, 23748.41
360.4360, 23738.12
361.6390, 23700.00
362.8410, 23669.00
364.0430, 23583.00
365.2450, 23534.00
366.4470, 23870.00
367.6490, 23792.12
368.8510, 23942.69
370.0520, 24061.74
371.2530, 24151.04
372.4540, 24121.44
373.6550, 24245.37
374.8560, 24307.77
376.0560, 24367.58
377.2570, 24513.12
378.4570, 24513.99
379.6570, 24637.12
380.8570, 24728.81
382.0570, 24731.64
383.2560, 24845.21
384.4560, 24903.01
385.6550, 24906.72
386.8540, 24767.22
388.0530, 24756.92
389.2520, 24660.78
390.4510, 24444.00
391.6490, 24432.00
392.8470, 24179.00
394.0450, 24154.00
395.2430, 24156.00
396.4410, 24044.00
397.6390, 23676.00
398.8360, 23515.00
400.0340, 23552.00
401.2310, 23409.84
402.4280, 23414.64
403.6250, 23528.00
404.8210, 23360.00
406.0180, 23647.00
407.2140, 23525.00
408.4100, 23439.00
409.6060, 23644.00
410.8020, 23481.00
411.9980, 23340.00
413.1930, 23370.00
414.3890, 23183.00
415.5840, 23203.00
416.7790, 23020.00
417.9740, 22940.00
419.1680, 22859.00
420.3630, 22771.00
421.5570, 22636.00
422.7510, 22545.48
423.9450, 22378.00
425.1390, 22325.00
426.3330, 22332.00
427.5270, 22233.00
428.7200, 21837.00
429.9130, 21949.00
431.1060, 21569.00
432.2990, 21538.00
433.4920, 21403.00
434.6840, 21400.00
435.8770, 21224.55
437.0690, 20956.00
438.2610, 20906.00
439.4530, 20738.00
440.6450, 20609.00
441.8360, 20620.00
443.0280, 20446.00
444.2190, 20133.00
445.4100, 20185.00
446.6010, 20076.00
447.7920, 20098.00
448.9820, 19998.00
450.1730, 20048.00
451.3630, 20003.00
452.5530, 19848.00
453.7430, 19716.00
454.9330, 19797.00
456.1230, 19934.00
457.3120, 19905.00
458.5010, 19839.00
459.6910, 19780.00
460.8800, 19805.00
462.0680, 19807.00
463.2570, 19883.00
464.4460, 19815.00
465.6340, 19946.00
466.8220, 19781.00
468.0100, 19563.00
469.1980, 19742.00
470.3860, 19651.88
471.5730, 19754.88
472.7600, 19826.43
473.9480, 19868.25
475.1350, 19791.16
476.3210, 19867.56
477.5080, 19882.46
478.6950, 20000.00
479.8810, 19865.00
481.0670, 20066.83
482.2530, 20313.00
483.4390, 20240.00
484.6250, 20485.00
485.8100, 20529.00
486.9960, 20777.00
488.1810, 20841.62
489.3660, 20853.32
490.5510, 20993.08
491.7360, 21101.39
492.9200, 21179.89
494.1050, 21139.55
495.2890, 21252.68
496.4730, 21304.28
497.6570, 21353.36
498.8400, 21488.04
500.0240, 21464.93
501.2070, 21598.25
502.3910, 21669.17
503.5740, 21768.61
504.7570, 21806.15
505.9400, 21972.00
507.1220, 21924.91
508.3050, 22115.00
509.4870, 22141.00
510.6690, 22266.00
511.8510, 22763.00
513.0330, 22640.00
514.2140, 22971.00
515.3960, 23082.99
516.5770, 23124.75
517.7580, 23292.00
518.9390, 23340.00
520.1200, 23446.00
521.3010, 23694.00
522.4810, 24040.00
523.6610, 24258.00
524.8420, 24540.00
526.0220, 24776.76
527.2010, 25080.41
528.3810, 25204.00
529.5610, 25595.00
530.7400, 25795.00
531.9190, 25813.00
533.0980, 25841.79
534.2770, 25742.00
535.4560, 25735.00
536.6340, 25649.06
537.8120, 25881.97
538.9910, 26022.30
540.1690, 26074.08
541.3460, 25820.90
542.5240, 25924.34
543.7020, 25862.13
544.8790, 25777.61
546.0560, 25884.90
547.2330, 25592.66
548.4100, 25664.25
549.5870, 25567.93
550.7630, 25455.10
551.9400, 25449.38
553.1160, 25405.54
554.2920, 25325.58
555.4680, 25101.25
556.6440, 25063.34
557.8190, 24950.80
558.9950, 24835.12
560.1700, 24823.52
561.3450, 24620.27
562.5200, 24742.00
563.6950, 24626.00
564.8690, 24662.00
566.0440, 24380.00
567.2180, 24231.00
568.3920, 24139.00
569.5660, 24252.00
570.7400, 24262.00
571.9130, 24042.00
573.0870, 23794.00
574.2600, 23665.00
575.4330, 23080.00
576.6060, 22873.00
577.7790, 22552.20
578.9520, 22380.00
580.1240, 21974.00
581.2960, 21955.00
582.4690, 21734.00
583.6410, 21211.00
584.8120, 20807.00
585.9840, 20533.00
587.1560, 20404.00
588.3270, 20203.70
589.4980, 20132.41
590.6690, 20070.00
591.8400, 20020.00
593.0110, 20073.00
594.1810, 19964.13
595.3510, 20052.00
596.5220, 19917.00
597.6920, 20079.00
598.8610, 19953.00
600.0310, 20147.00
601.2010, 19976.00
602.3700, 20117.00
603.5390, 20195.00
604.7080, 20314.00
605.8770, 20397.50
607.0460, 20506.93
608.2140, 20542.00
609.3830, 20727.00
610.5510, 20782.00
611.7190, 20893.00
612.8870, 21091.27
614.0550, 21398.00
615.2220, 21552.00
616.3900, 21912.00
617.5570, 22313.00
618.7240, 22493.00
619.8910, 22920.00
621.0580, 23210.00
622.2240, 23638.00
623.3910, 24143.00
624.5570, 24607.26
625.7230, 25057.00
626.8890, 25784.00
628.0550, 26290.00
629.2200, 27068.00
630.3860, 27855.00
631.5510, 28572.00
632.7160, 29390.00
633.8810, 30253.00
635.0460, 31113.00
636.2100, 32251.43
637.3750, 33256.19
638.5390, 34729.00
639.7030, 35410.00
640.8670, 36827.00
642.0310, 37722.00
643.1950, 38756.00
644.3580, 39998.00
645.5210, 40828.00
646.6850, 41915.00
647.8480, 42286.00
649.0100, 43352.00
650.1730, 44058.00
651.3350, 44418.00
652.4980, 45316.00
653.6600, 45813.00
654.8220, 46364.00
655.9840, 46948.80
657.1450, 47682.00
658.3070, 47807.00
659.4680, 48343.00
660.6300, 48549.00
661.7910, 48996.00
662.9510, 48335.00
664.1120, 48557.00
665.2730, 48117.00
666.4330, 47412.00
667.5930, 46211.00
668.7530, 45312.00
669.9130, 44252.00
671.0730, 42649.00
672.2320, 41401.00
673.3920, 40222.00
674.5510, 38974.00
675.7100, 37837.00
676.8690, 37057.67
678.0280, 36214.00
679.1860, 35767.00
680.3450, 35053.00
681.5030, 34649.00
682.6610, 34403.00
683.8190, 34392.00
684.9770, 34430.00
686.1340, 34242.00
687.2920, 33935.00
688.4490, 33766.00
689.6060, 33552.00
690.7630, 32833.00
691.9200, 32338.00
693.0760, 31336.00
694.2330, 30824.00
695.3890, 29858.00
696.5450, 29217.00
697.7010, 28491.00
698.8570, 28126.00
700.0130, 27430.00
701.1680, 26896.00
702.3230, 26527.00
703.4780, 26094.00
704.6330, 25650.00
705.7880, 25498.00
706.9430, 25196.00
708.0970, 24895.00
709.2520, 24750.00
710.4060, 24510.00
711.5600, 24253.00
712.7140, 24213.00
713.8670, 24197.00
715.0210, 23976.00
716.1740, 24046.00
717.3270, 24103.00
718.4800, 24029.00
719.6330, 24026.00
720.7860, 24003.00
721.9380, 24123.00
723.0910, 23972.84
724.2430, 23878.00
725.3950, 23743.00
726.5470, 23886.00
727.6980, 23815.00
728.8500, 23827.00
730.0010, 23768.00
731.1530, 23648.00
732.3040, 23803.00
733.4550, 23664.00
734.6050, 23646.00
735.7560, 23659.21
736.9060, 23635.33
738.0560, 23725.00
739.2060, 23603.00
740.3560, 23857.00
741.5060, 23674.00
742.6560, 23773.00
743.8050, 23723.00
744.9540, 23656.00
746.1030, 23580.00
747.2520, 23459.00
748.4010, 23445.04
749.5500, 23427.76
750.6980, 23419.00
751.8460, 23482.00
752.9950, 23531.00
754.1420, 23589.00
755.2900, 23660.75
756.4380, 23537.00
757.5850, 23722.00
758.7330, 23667.00
759.8800, 23504.00
761.0270, 23665.00
762.1730, 23835.00
763.3200, 23790.00
764.4670, 23821.00
765.6130, 24203.00
766.7590, 24053.00
767.9050, 24139.00
769.0510, 24226.00
770.1960, 24521.00
771.3420, 25021.00
772.4870, 24997.92
773.6320, 25443.00
774.7770, 25229.00
775.9220, 25219.00
777.0670, 25471.00
778.2110, 25654.00
779.3560, 25746.00
780.5000, 26073.00
781.6440, 26214.34
782.7880, 26622.00
783.9320, 26639.00
785.0750, 26736.00
786.2180, 26974.00
787.3620, 27282.00
788.5050, 27426.84
789.6480, 27669.00
790.7900, 27802.00
791.9330, 27927.00
793.0750, 28029.00
794.2170, 28032.12
795.3590, 28049.00
796.5010, 28008.00
797.6430, 27951.00
798.7850, 27985.00
799.9260, 27862.00
801.0670, 27901.00
802.2080, 27977.00
803.3490, 27974.00
804.4900, 27691.00
805.6310, 27732.00
806.7710, 27521.00
807.9110, 27693.00
809.0510, 27715.00
810.1910, 27377.00
811.3310, 27393.00
812.4710, 27378.17
813.6100, 27420.88
814.7490, 27425.38
815.8880, 27393.76
817.0270, 27217.77
818.1660, 27228.20
819.3050, 27163.92
820.4430, 27096.62
821.5820, 27133.29
822.7200, 26978.34
823.8580, 27013.39
824.9950, 26972.64
826.1330, 26966.57
827.2710, 26916.00
828.4080, 26691.00
829.5450, 26623.00
830.6820, 26690.00
831.8190, 26422.00
832.9560, 26347.00
834.0920, 26052.00
835.2280, 26093.00
836.3650, 25939.00
837.5010, 25328.00
838.6360, 25365.00
839.7720, 25065.00
840.9080, 24907.00
842.0430, 24834.00
843.1780, 24618.00
844.3130, 24741.00
845.4480, 24386.00
846.5830, 24255.00
847.7170, 24212.00
848.8520, 23902.00
849.9860, 23713.00
851.1200, 23534.00
852.2540, 23451.59
853.3870, 23352.29
854.5210, 23409.00
855.6540, 23194.00
856.7880, 23172.00
857.9210, 22971.00
859.0540, 23100.00
860.1860, 22807.00
861.3190, 22939.00
862.4510, 22829.00
863.5840, 22773.00
864.7160, 22783.00
865.8480, 22655.00
866.9790, 22599.00
868.1110, 22719.00
869.2420, 22701.00
870.3740, 22918.00
871.5050, 22805.00
872.6360, 22836.00
873.7660, 23063.00
874.8970, 22904.00
876.0280, 23082.00
877.1580, 23075.00
878.2880, 23427.00
879.4180, 23326.00
880.5480, 23561.00
881.6770, 23574.00
882.8070, 23907.00
883.9360, 23831.00
885.0650, 24197.00
886.1940, 24370.00
887.3230, 24497.00
888.4520, 24483.00
889.5800, 24629.00
890.7090, 24671.00
891.8370, 25031.00
892.9650, 25069.00
894.0930, 25289.00
895.2200, 25523.00
896.3480, 25700.31
897.4750, 25766.61
898.6020, 25999.00
899.7290, 25897.00
900.8560, 26049.80
901.9830, 26113.38
903.1090, 26106.64
904.2360, 26237.34
905.3620, 26321.24
906.4880, 26361.53
907.6140, 26385.63
908.7400, 26399.17
909.8650, 26347.99
910.9900, 26383.04
912.1160, 26352.87
913.2410, 26353.00
914.3660, 26207.00
915.4900, 26202.00
916.6150, 26118.00
917.7390, 26029.00
918.8640, 25792.00
919.9880, 25849.00
921.1120, 25679.00
922.2350, 25681.00
923.3590, 25892.00
924.4820, 25707.00
925.6060, 25468.00
926.7290, 25550.00
927.8520, 25383.00
928.9740, 25358.00
930.0970, 25266.00
931.2190, 25323.00
932.3420, 25130.00
933.4640, 25341.00
934.5860, 25231.00
935.7080, 25112.00
936.8290, 25085.00
937.9510, 25156.00
939.0720, 25015.38
940.1930, 25213.06
941.3140, 25334.37
942.4350, 25383.40
943.5560, 25143.71
944.6760, 25276.83
945.7960, 25260.53
946.9170, 25238.12
948.0370, 25423.72
949.1560, 25225.98
950.2760, 25408.27
951.3960, 25438.87
952.5150, 25538.88
953.6340, 25488.55
954.7530, 25484.65
955.8720, 25631.14
956.9910, 25765.00
958.1090, 25827.00
959.2280, 25937.64
960.3460, 25982.00
961.4640, 26083.00
962.5820, 26036.00
963.6990, 26080.00
964.8170, 26187.00
965.9340, 26009.00
967.0510, 26175.00
968.1690, 26183.00
969.2850, 26505.00
970.4020, 26487.33
971.5190, 26494.00
972.6350, 26532.00
973.7510, 26617.00
974.8670, 26556.00
975.9830, 26800.00
977.0990, 26692.00
978.2150, 26772.00
979.3300, 26929.00
980.4450, 26988.00
981.5600, 27071.00
982.6750, 27436.00
983.7900, 27341.00
984.9050, 27605.00
986.0190, 27851.00
987.1340, 27830.00
988.2480, 28140.00
989.3620, 28218.00
990.4750, 28260.00
991.5890, 28781.00
992.7020, 28827.00
993.8160, 29294.00
994.9290, 29427.00
996.0420, 30049.72
997.1550, 30599.52
998.2670, 31072.60
999.3800, 31473.74
1000.492, 31846.41
1001.604, 32178.21
1002.716, 32406.24
1003.828, 32735.62
1004.940, 32898.00
1006.051, 33124.00
1007.163, 33488.00
1008.274, 33659.00
1009.385, 33828.00
1010.496, 33905.00
1011.606, 33937.00
1012.717, 34016.00
1013.827, 33668.00
1014.937, 33604.17
1016.047, 33561.74
1017.157, 33442.94
1018.267, 33251.85
1019.377, 32772.04
1020.486, 32665.26
1021.595, 32409.07
1022.704, 32146.75
1023.813, 32092.44
1024.922, 31654.81
1026.030, 31597.40
1027.139, 31098.00
1028.247, 31121.00
1029.355, 30784.00
1030.463, 30426.00
1031.571, 30503.00
1032.678, 29995.21
1033.786, 29619.00
1034.893, 29288.00
1036.000, 28938.96
1037.107, 28678.13
1038.214, 28380.00
1039.321, 28188.00
1040.427, 27940.00
1041.533, 27688.00
1042.639, 27577.00
1043.745, 27400.00
1044.851, 27177.00
1045.957, 27175.00
1047.062, 26880.00
1048.168, 26681.00
1049.273, 26673.00
1050.378, 26291.00
1051.482, 26375.00
1052.587, 26175.35
1053.692, 25979.00
1054.796, 25924.00
1055.900, 25594.96
1057.004, 25551.80
1058.108, 25449.25
1059.212, 25290.48
1060.315, 25098.88
1061.418, 24814.14
1062.522, 24604.58
1063.625, 24390.42
1064.728, 24130.00
1065.830, 24053.00
1066.933, 23696.00
1068.035, 23717.00
1069.137, 23511.00
1070.239, 23445.00
1071.341, 23355.00
1072.443, 22949.00
1073.545, 23073.00
1074.646, 22743.00
1075.747, 22792.00
1076.848, 22558.00
1077.949, 22530.00
1079.050, 22563.00
1080.150, 22132.07
1081.251, 22216.38
1082.351, 22241.33
1083.451, 22210.07
1084.551, 21954.24
1085.651, 21988.40
1086.750, 21906.39
1087.850, 21819.57
1088.949, 21894.59
1090.048, 21671.47
1091.147, 21743.92
1092.246, 21698.38
1093.345, 21706.85
1094.443, 21598.43
1095.541, 21526.12
1096.639, 21570.79
1097.737, 21550.69
1098.835, 21428.81
1099.933, 21440.76
1101.030, 21323.82
1102.128, 21090.44
1103.225, 21107.00
1104.322, 20940.00
1105.419, 20793.00
1106.515, 20919.00
1107.612, 20886.00
1108.708, 20605.00
1109.804, 20550.00
1110.900, 20734.00
1111.996, 20700.00
1113.092, 20516.00
1114.187, 20371.00
1115.283, 20410.00
1116.378, 20267.00
1117.473, 20305.63
1118.568, 20580.00
1119.662, 20356.00
1120.757, 20382.00
1121.851, 20375.00
1122.946, 20285.00
1124.040, 20245.00
1125.134, 20346.00
1126.227, 20263.00
1127.321, 20240.00
1128.414, 20077.00
1129.508, 20181.00
1130.601, 20069.00
1131.693, 19998.00
1132.786, 20162.00
1133.879, 20109.00
1134.971, 20049.00
1136.064, 19903.00
1137.156, 19902.00
1138.248, 19968.00
1139.339, 19946.00
1140.431, 19995.00
1141.522, 20076.00
1142.614, 20046.00
1143.705, 19938.00
1144.796, 19868.00
1145.887, 19873.00
1146.977, 19844.00
1148.068, 19824.48
1149.158, 19916.00
1150.248, 19816.00
1151.338, 19836.00
1152.428, 19859.84
1153.518, 19998.00
1154.607, 19952.00
1155.696, 19932.00
1156.785, 19963.00
1157.874, 19903.00
1158.963, 20065.00
1160.052, 19989.00
1161.141, 19920.00
1162.229, 20132.00
1163.317, 20030.00
1164.405, 20034.00
1165.493, 19941.00
1166.581, 19951.00
1167.668, 19850.00
1168.756, 19905.00
1169.843, 19991.00
1170.930, 19846.00
1172.017, 19931.00
1173.103, 19984.00
1174.190, 20055.00
1175.276, 20020.00
1176.363, 19939.00
1177.449, 20063.00
1178.535, 19772.00
1179.620, 19886.00
1180.706, 19978.67
1181.791, 19827.00
1182.877, 20168.00
1183.962, 20110.00
1185.047, 19938.00
1186.131, 20016.00
1187.216, 19957.53
1188.300, 20166.00
1189.385, 19980.00
1190.469, 20065.00
1191.553, 20086.00
1192.637, 19793.00
1193.720, 20160.00
1194.804, 19973.00
1195.887, 20041.00
1196.970, 20180.00
1198.053, 20077.00
1199.136, 20107.00
1200.219, 20027.00
1201.301, 20155.00
1202.383, 20108.00
1203.465, 20163.00
1204.547, 20061.00
1205.629, 20272.00
1206.711, 20125.00
1207.792, 19861.00
1208.874, 20184.00
1209.955, 20094.00
1211.036, 20276.00
1212.117, 20437.00
1213.198, 20010.00
1214.278, 20366.00
1215.359, 20078.00
1216.439, 20425.00
1217.519, 20289.00
1218.599, 20249.00
1219.678, 20301.00
1220.758, 20182.00
1221.837, 20299.00
1222.917, 20361.00
1223.996, 20347.21
1225.075, 20394.68
1226.153, 20433.00
1227.232, 20357.00
1228.310, 20455.00
1229.389, 20367.00
1230.467, 20403.34
1231.545, 20366.00
1232.622, 20445.00
1233.700, 20236.00
1234.777, 20251.00
1235.855, 20246.00
1236.932, 20413.00
1238.009, 20471.00
1239.086, 20371.00
1240.162, 20519.64
1241.239, 20596.00
1242.315, 20564.00
1243.391, 20553.00
1244.467, 20384.00
1245.543, 20531.00
1246.619, 20486.00
1247.694, 20596.00
1248.769, 20596.98
1249.844, 20602.96
1250.919, 20627.00
1251.994, 20573.00
1253.069, 20647.00
1254.144, 20556.00
1255.218, 20494.00
1256.292, 20687.00
1257.366, 20549.00
1258.440, 20426.00
1259.514, 20616.00
1260.587, 20476.00
1261.661, 20588.00
1262.734, 20687.00
1263.807, 20630.00
1264.880, 20530.00
1265.952, 20422.00
1267.025, 20713.00
1268.097, 20818.00
1269.170, 20868.00
