##NAMES=Magnesio-hastingsite
##RRUFFID=R070288
##IDEAL CHEMISTRY=NaCa_2_(Mg_4_Fe^3+^)Si_6_Al_2_O_22_(OH)_2_
##LOCALITY=Dallas Gem Mine (Gem Mine; Benitoite Mine), New Idria District, San Benito County, California, USA
##OWNER=RRUFF
##SOURCE=Michael Scott
##DESCRIPTION=Dark brown to black prismatic crystals frozen in albite
##STATUS=The identification of this mineral is confirmed by single-crystal X-ray diffraction and chemical analysis.
##URL=rruff.info/R070288
##MEASURED CHEMISTRY=(Na_0.51_[box]_0.33_K_0.16_)_Σ=1_(Ca_1.75_Na_0.25_)_Σ=2_(Mg_3.02_Fe^2+^_0.61_Ti_0.37_)_Σ=4_(Fe^3+^_0.73_Al_0.27_)_Σ=1_Si_5.84_Al_2.16_O_22_(OH)_2_; (OH) estimated by difference
##PIN_ID=M01310
##ORIENTATION=Laser parallel to c* (0 0 1). Fiducial mark perpendicular to laser is parallel to a [1 0 0]
87.63200, 7242.000
88.87300, 7481.000
90.11400, 7853.000
91.35400, 7976.000
92.59500, 7688.000
93.83500, 7834.000
95.07500, 7625.000
96.31500, 7262.000
97.55400, 7287.000
98.79400, 7415.000
100.0330, 7338.000
101.2720, 7410.000
102.5110, 8229.000
103.7500, 7542.000
104.9890, 8054.000
106.2270, 8434.000
107.4650, 8225.000
108.7040, 8052.000
109.9420, 8212.000
111.1790, 8344.000
112.4170, 9189.000
113.6540, 10035.00
114.8920, 10273.00
116.1290, 10346.00
117.3650, 10542.00
118.6020, 10352.00
119.8390, 10042.00
121.0750, 9807.000
122.3110, 9680.000
123.5470, 8978.000
124.7830, 8689.000
126.0190, 8442.000
127.2540, 8541.000
128.4900, 8533.000
129.7250, 8594.000
130.9600, 8460.568
132.1950, 8093.000
133.4290, 8182.000
134.6640, 8200.000
135.8980, 8111.860
137.1320, 8182.111
138.3660, 8225.391
139.6000, 8243.147
140.8340, 8158.939
142.0670, 8206.390
143.3000, 8201.075
144.5330, 8176.000
145.7660, 8215.000
146.9990, 8284.000
148.2320, 8432.000
149.4640, 8448.000
150.6960, 8637.000
151.9280, 8966.000
153.1600, 9353.000
154.3920, 9750.000
155.6230, 10216.00
156.8550, 10454.00
158.0860, 11145.00
159.3170, 11674.00
160.5480, 12087.00
161.7780, 12379.00
163.0090, 12379.00
164.2390, 12220.00
165.4690, 12108.00
166.6990, 11515.00
167.9290, 11150.00
169.1590, 10759.00
170.3880, 10362.00
171.6180, 10140.00
172.8470, 9950.000
174.0760, 9927.000
175.3040, 9785.000
176.5330, 9659.000
177.7610, 9749.000
178.9900, 9517.000
180.2180, 9584.000
181.4460, 9594.000
182.6730, 9700.000
183.9010, 9732.000
185.1280, 9742.523
186.3560, 9779.924
187.5830, 9744.000
188.8100, 9785.000
190.0360, 9729.371
191.2630, 9752.098
192.4890, 9747.885
193.7150, 9718.148
194.9410, 9586.447
196.1670, 9586.412
197.3930, 9533.611
198.6180, 9707.000
199.8440, 9611.000
201.0690, 9670.000
202.2940, 9698.000
203.5190, 9611.000
204.7430, 9787.000
205.9680, 9779.000
207.1920, 9980.482
208.4160, 10229.09
209.6400, 10495.00
210.8640, 10868.00
212.0880, 11279.00
213.3110, 11703.00
214.5340, 12219.00
215.7570, 12895.32
216.9800, 13476.00
218.2030, 14301.00
219.4260, 15104.00
220.6480, 15624.00
221.8700, 16376.00
223.0920, 16751.00
224.3140, 16994.00
225.5360, 16984.00
226.7580, 16788.00
227.9790, 16248.00
229.2000, 15612.00
230.4210, 14669.00
231.6420, 14080.00
232.8630, 13295.00
234.0830, 12654.00
235.3040, 11814.00
236.5240, 11465.00
237.7440, 10991.00
238.9640, 10764.00
240.1830, 10562.00
241.4030, 10165.00
242.6220, 10046.00
243.8410, 9930.000
245.0600, 9778.000
246.2790, 9452.000
247.4980, 9433.000
248.7160, 9259.000
249.9340, 9233.000
251.1530, 8982.000
252.3710, 9005.000
253.5880, 8742.000
254.8060, 8743.000
256.0230, 8659.000
257.2410, 8483.000
258.4580, 8379.000
259.6750, 8404.000
260.8910, 8236.000
262.1080, 8141.000
263.3240, 8188.000
264.5410, 8038.000
265.7570, 8130.000
266.9730, 7995.000
268.1880, 8005.000
269.4040, 7866.000
270.6190, 8002.000
271.8350, 7831.000
273.0500, 7843.000
274.2650, 7751.000
275.4790, 7932.000
276.6940, 7838.000
277.9080, 7809.000
279.1220, 7882.000
280.3360, 7876.000
281.5500, 7823.000
282.7640, 8067.000
283.9770, 8028.000
285.1910, 8033.000
286.4040, 8072.000
287.6170, 8109.000
288.8300, 8160.000
290.0420, 8147.000
291.2550, 8208.000
292.4670, 8228.609
293.6790, 8270.666
294.8910, 8292.000
296.1030, 8370.000
297.3150, 8409.000
298.5260, 8459.000
299.7380, 8604.000
300.9490, 8562.000
302.1600, 8424.000
303.3710, 8507.000
304.5810, 8417.000
305.7920, 8453.799
307.0020, 8494.093
308.2120, 8546.000
309.4220, 8579.000
310.6320, 8648.000
311.8410, 8677.000
313.0510, 8720.000
314.2600, 8760.557
315.4690, 8755.202
316.6780, 8770.079
317.8870, 8791.000
319.0950, 8670.000
320.3040, 8788.000
321.5120, 8833.000
322.7200, 8813.000
323.9280, 8643.000
325.1360, 8690.000
326.3430, 8670.000
327.5510, 8736.000
328.7580, 8611.000
329.9650, 8628.000
331.1720, 8694.000
332.3790, 8609.000
333.5850, 8452.000
334.7910, 8546.000
335.9980, 8508.000
337.2040, 8511.000
338.4100, 8471.000
339.6150, 8461.117
340.8210, 8425.222
342.0260, 8432.000
343.2310, 8346.000
344.4360, 8321.907
345.6410, 8279.020
346.8460, 8289.000
348.0500, 8279.000
349.2550, 8323.000
350.4590, 8425.000
351.6630, 8286.000
352.8670, 8221.000
354.0700, 8387.000
355.2740, 8496.000
356.4770, 8393.000
357.6800, 8327.000
358.8830, 8403.000
360.0860, 8504.000
361.2890, 8521.000
362.4910, 8490.000
363.6930, 8449.000
364.8960, 8482.000
366.0980, 8595.000
367.2990, 8601.000
368.5010, 8599.000
369.7020, 8726.000
370.9040, 8696.397
372.1050, 8765.954
373.3060, 8808.539
374.5070, 8825.602
375.7070, 8740.691
376.9080, 8787.455
378.1080, 8812.000
379.3080, 8781.000
380.5080, 8810.000
381.7080, 8739.000
382.9070, 8743.000
384.1070, 8712.613
385.3060, 8614.258
386.5050, 8645.976
387.7040, 8650.723
388.9030, 8629.946
390.1010, 8507.231
391.3000, 8516.157
392.4980, 8472.343
393.6960, 8426.363
394.8940, 8453.846
396.0920, 8345.961
397.2890, 8372.304
398.4870, 8345.051
399.6840, 8342.341
400.8810, 8286.538
402.0780, 8247.135
403.2750, 8260.840
404.4710, 8245.163
405.6680, 8183.250
406.8640, 8182.123
408.0600, 8152.192
409.2560, 8150.826
410.4520, 8123.938
411.6470, 7995.115
412.8430, 7997.929
414.0380, 7948.006
415.2330, 7895.919
416.4280, 7917.294
417.6220, 7803.332
418.8170, 7823.542
420.0110, 7790.210
421.2050, 7781.397
422.4000, 7719.462
423.5930, 7673.986
424.7870, 7681.588
425.9810, 7659.784
427.1740, 7591.796
428.3670, 7584.572
429.5600, 7468.785
430.7530, 7448.000
431.9460, 7454.000
433.1380, 7370.000
434.3310, 7267.000
435.5230, 7304.000
436.7150, 7236.000
437.9070, 7257.000
439.0980, 7274.000
440.2900, 7130.000
441.4810, 7161.000
442.6720, 7091.517
443.8630, 7142.070
445.0540, 7165.652
446.2450, 7163.711
447.4350, 7059.814
448.6260, 7087.575
449.8160, 7062.580
451.0060, 7035.420
452.1960, 7081.722
453.3850, 6992.666
454.5750, 7037.802
455.7640, 7029.377
456.9530, 7045.471
458.1420, 7008.472
459.3310, 6987.872
460.5200, 7055.016
461.7080, 6964.313
462.8970, 6922.794
464.0850, 7040.613
465.2730, 7070.211
466.4610, 6914.000
467.6480, 7001.000
468.8360, 6872.000
470.0230, 6974.000
471.2100, 6982.000
472.3970, 7025.000
473.5840, 6947.000
474.7710, 7009.000
475.9570, 6965.581
477.1440, 6948.000
478.3300, 6920.000
479.5160, 6932.000
480.7020, 6933.000
481.8870, 6965.545
483.0730, 7017.193
484.2580, 7070.000
485.4430, 7118.000
486.6280, 7132.253
487.8130, 7189.000
488.9980, 7160.000
490.1820, 7155.000
491.3660, 7193.000
492.5510, 7224.000
493.7350, 7184.000
494.9180, 7284.000
496.1020, 7297.000
497.2860, 7407.000
498.4690, 7385.000
499.6520, 7467.000
500.8350, 7521.000
502.0180, 7539.000
503.2000, 7603.000
504.3830, 7675.037
505.5650, 7799.000
506.7470, 7823.000
507.9290, 7901.000
509.1110, 7932.000
510.2930, 7870.000
511.4740, 8082.000
512.6560, 8080.000
513.8370, 8196.000
515.0180, 8139.000
516.1980, 8164.000
517.3790, 8133.000
518.5600, 8200.000
519.7400, 8312.000
520.9200, 8351.000
522.1000, 8324.000
523.2800, 8306.000
524.4590, 8310.000
525.6390, 8314.937
526.8180, 8404.235
527.9970, 8464.036
529.1760, 8495.789
530.3550, 8423.051
531.5340, 8479.455
532.7120, 8480.555
533.8910, 8476.980
535.0690, 8544.333
536.2470, 8473.798
537.4250, 8534.944
538.6020, 8539.996
539.7800, 8567.049
540.9570, 8579.000
542.1340, 8542.292
543.3110, 8475.000
544.4880, 8475.000
545.6650, 8461.000
546.8410, 8466.000
548.0170, 8368.000
549.1940, 8336.000
550.3690, 8333.000
551.5450, 8445.000
552.7210, 8470.000
553.8960, 8446.683
555.0720, 8416.000
556.2470, 8371.000
557.4220, 8313.000
558.5970, 8258.000
559.7710, 8371.000
560.9460, 8315.019
562.1200, 8279.000
563.2940, 8311.000
564.4680, 8210.000
565.6420, 8160.000
566.8160, 8242.000
567.9890, 8215.000
569.1630, 8253.000
570.3360, 8141.000
571.5090, 8151.000
572.6820, 7939.000
573.8540, 7852.000
575.0270, 7714.000
576.1990, 7699.000
577.3710, 7544.000
578.5430, 7534.000
579.7150, 7382.000
580.8870, 7367.000
582.0580, 7297.000
583.2300, 7154.307
584.4010, 7037.363
585.5720, 6920.000
586.7430, 6727.000
587.9130, 6675.000
589.0840, 6585.000
590.2540, 6530.000
591.4240, 6632.000
592.5940, 6503.000
593.7640, 6399.000
594.9340, 6532.000
596.1030, 6426.000
597.2730, 6534.000
598.4420, 6528.000
599.6110, 6414.000
600.7800, 6530.000
601.9490, 6477.000
603.1170, 6538.000
604.2850, 6616.000
605.4540, 6608.000
606.6220, 6604.000
607.7900, 6529.000
608.9570, 6689.000
610.1250, 6729.000
611.2920, 6835.000
612.4590, 6934.000
613.6260, 6917.000
614.7930, 7086.000
615.9600, 6992.000
617.1270, 7029.000
618.2930, 7295.000
619.4590, 7319.000
620.6250, 7398.000
621.7910, 7532.000
622.9570, 7625.000
624.1220, 7763.362
625.2880, 7902.000
626.4530, 8082.000
627.6180, 8246.000
628.7830, 8481.000
629.9480, 8644.000
631.1120, 8856.000
632.2770, 9155.000
633.4410, 9401.000
634.6050, 9729.000
635.7690, 10029.35
636.9330, 10369.73
638.0960, 10684.00
639.2600, 11074.00
640.4230, 11439.00
641.5860, 11762.00
642.7490, 12129.00
643.9120, 12338.00
645.0740, 12681.00
646.2370, 13120.00
647.3990, 13591.00
648.5610, 13721.00
649.7230, 14044.00
650.8850, 14277.60
652.0460, 14589.73
653.2080, 14861.58
654.3690, 15094.97
655.5300, 15175.41
656.6910, 15453.33
657.8520, 15652.12
659.0130, 15847.67
660.1730, 16153.21
661.3330, 16251.00
662.4930, 16532.00
663.6530, 16478.00
664.8130, 16249.00
665.9730, 16311.00
667.1320, 16004.00
668.2920, 15715.00
669.4510, 15218.00
670.6100, 14641.00
671.7680, 14105.00
672.9270, 13762.00
674.0860, 13137.00
675.2440, 12839.00
676.4020, 12365.00
677.5600, 11903.00
678.7180, 11607.00
679.8760, 11162.00
681.0330, 11164.00
682.1900, 10901.00
683.3480, 10878.00
684.5050, 10561.00
685.6610, 10486.00
686.8180, 10382.00
687.9750, 10207.88
689.1310, 10082.76
690.2870, 9981.000
691.4430, 9703.000
692.5990, 9590.000
693.7550, 9291.000
694.9100, 9191.000
696.0660, 9084.000
697.2210, 8784.000
698.3760, 8680.000
699.5310, 8315.000
700.6860, 8299.000
701.8400, 8129.300
702.9940, 8019.252
704.1490, 7953.000
705.3030, 7889.000
706.4570, 7867.000
707.6100, 7794.000
708.7640, 7693.000
709.9170, 7754.000
711.0710, 7735.000
712.2240, 7800.000
713.3770, 7788.773
714.5290, 7666.000
715.6820, 7769.000
716.8340, 7660.000
717.9870, 7624.000
719.1390, 7756.000
720.2910, 7719.000
721.4430, 7650.000
722.5940, 7722.000
723.7460, 7775.000
724.8970, 7726.000
726.0480, 7738.000
727.1990, 7796.000
728.3500, 7797.000
729.5000, 7765.000
730.6510, 7910.000
731.8010, 7805.000
732.9510, 7855.000
734.1010, 7793.000
735.2510, 7976.000
736.4010, 7925.000
737.5500, 7852.000
738.7000, 7938.000
739.8490, 7880.000
740.9980, 7886.000
742.1470, 8010.000
743.2950, 7958.000
744.4440, 7923.000
745.5920, 7894.000
746.7400, 7921.000
747.8880, 7897.039
749.0360, 7969.000
750.1840, 7905.000
751.3310, 8016.000
752.4790, 8049.000
753.6260, 8045.000
754.7730, 8120.000
755.9200, 8062.000
757.0670, 8104.000
758.2130, 8055.000
759.3600, 8181.000
760.5060, 8110.000
761.6520, 8080.000
762.7980, 8380.000
763.9440, 8314.621
765.0890, 8407.679
766.2350, 8432.000
767.3800, 8478.000
768.5250, 8504.000
769.6700, 8510.000
770.8150, 8639.000
771.9590, 8734.000
773.1040, 8809.000
774.2480, 8852.000
775.3920, 8948.000
776.5360, 9024.325
777.6800, 9218.000
778.8240, 9219.000
779.9670, 9333.000
781.1100, 9466.000
782.2540, 9438.000
783.3970, 9648.000
784.5390, 9715.000
785.6820, 9797.000
786.8240, 9860.000
787.9670, 9996.000
789.1090, 10130.00
790.2510, 10030.00
791.3930, 10125.00
792.5350, 10255.00
793.6760, 10213.00
794.8170, 10244.00
795.9590, 10272.00
797.1000, 10247.73
798.2410, 10263.00
799.3810, 10214.00
800.5220, 10202.00
801.6620, 10147.00
802.8030, 10078.00
803.9430, 9980.000
805.0820, 10030.00
806.2220, 9861.000
807.3620, 9958.000
808.5010, 9858.000
809.6410, 9672.000
810.7800, 9792.000
811.9190, 9778.000
813.0570, 9739.000
814.1960, 9781.000
815.3340, 9755.997
816.4730, 9649.000
817.6110, 9708.000
818.7490, 9564.000
819.8870, 9432.000
821.0240, 9425.000
822.1620, 9466.000
823.2990, 9464.000
824.4360, 9426.000
825.5730, 9354.000
826.7100, 9347.000
827.8470, 9313.000
828.9830, 9185.000
830.1200, 9149.000
831.2560, 9236.000
832.3920, 9021.000
833.5280, 8991.000
834.6630, 8864.000
835.7990, 8662.000
836.9340, 8640.000
838.0700, 8615.000
839.2050, 8500.000
840.3400, 8465.000
841.4740, 8217.000
842.6090, 8244.000
843.7430, 8137.000
844.8780, 8030.000
846.0120, 8074.000
847.1460, 7862.000
848.2790, 7795.000
849.4130, 7810.000
850.5460, 7824.000
851.6800, 7728.000
852.8130, 7682.000
853.9460, 7670.000
855.0790, 7622.000
856.2110, 7639.000
857.3440, 7582.000
858.4760, 7542.000
859.6080, 7512.000
860.7400, 7552.000
861.8720, 7508.000
863.0040, 7451.000
864.1350, 7627.000
865.2670, 7595.000
866.3980, 7496.000
867.5290, 7695.000
868.6600, 7595.000
869.7900, 7662.000
870.9210, 7755.000
872.0510, 7670.000
873.1820, 7814.000
874.3120, 7882.000
875.4420, 7739.000
876.5710, 7954.000
877.7010, 7871.000
878.8300, 7861.000
879.9600, 8027.000
881.0890, 8054.000
882.2180, 8058.000
883.3460, 8022.000
884.4750, 8126.000
885.6040, 8207.000
886.7320, 8250.000
887.8600, 8332.000
888.9880, 8376.000
890.1160, 8445.000
891.2430, 8591.000
892.3710, 8519.000
893.4980, 8711.000
894.6260, 8707.000
895.7530, 8684.000
896.8790, 8797.000
898.0060, 8785.000
899.1330, 8846.000
900.2590, 8926.000
901.3850, 8879.596
902.5110, 8955.085
903.6370, 9003.604
904.7630, 9026.599
905.8890, 8947.629
907.0140, 9000.313
908.1390, 9000.232
909.2640, 8997.987
910.3890, 9069.203
911.5140, 9005.052
912.6390, 9053.610
913.7630, 9052.559
914.8870, 9029.631
916.0120, 8919.278
917.1360, 8921.810
918.2590, 8879.141
919.3830, 8834.588
920.5070, 8853.003
921.6300, 8755.416
922.7530, 8716.252
923.8760, 8678.312
924.9990, 8656.000
926.1220, 8607.000
927.2440, 8601.000
928.3670, 8562.000
929.4890, 8678.000
930.6110, 8597.000
931.7330, 8606.000
932.8540, 8465.000
933.9760, 8578.000
935.0980, 8561.000
936.2190, 8613.000
937.3400, 8515.000
938.4610, 8421.000
939.5820, 8547.000
940.7020, 8511.000
941.8230, 8700.000
942.9430, 8614.000
944.0630, 8615.000
945.1830, 8719.000
946.3030, 8700.000
947.4230, 8730.000
948.5420, 8672.000
949.6610, 8818.000
950.7810, 8719.000
951.9000, 8946.000
953.0190, 8935.000
954.1370, 8912.000
955.2560, 8942.000
956.3740, 8943.000
957.4920, 8926.000
958.6110, 8994.688
959.7280, 9026.647
960.8460, 9101.000
961.9640, 9140.000
963.0810, 9158.000
964.1990, 9180.000
965.3160, 9322.000
966.4330, 9208.000
967.5490, 9350.000
968.6660, 9418.000
969.7830, 9285.000
970.8990, 9289.000
972.0150, 9400.000
973.1310, 9375.000
974.2470, 9410.000
975.3630, 9629.000
976.4780, 9489.000
977.5930, 9670.000
978.7090, 9582.000
979.8240, 9737.000
980.9390, 9672.000
982.0530, 9744.000
983.1680, 9797.000
984.2820, 9782.000
985.3970, 9957.000
986.5110, 10034.00
987.6250, 10102.00
988.7380, 10167.00
989.8520, 10244.00
990.9660, 10618.00
992.0790, 10384.00
993.1920, 10653.00
994.3050, 10599.00
995.4180, 10945.00
996.5300, 10845.00
997.6430, 11111.00
998.7550, 11266.00
999.8680, 11333.00
1000.980, 11538.00
1002.091, 11757.00
1003.203, 11912.00
1004.315, 12036.26
1005.426, 12056.00
1006.537, 12195.00
1007.648, 12195.00
1008.759, 12207.00
1009.870, 12074.00
1010.981, 12247.00
1012.091, 12122.00
1013.201, 12200.00
1014.312, 12282.00
1015.422, 12045.00
1016.531, 12047.00
1017.641, 11934.00
1018.751, 11974.00
1019.860, 11790.00
1020.969, 11859.00
1022.078, 11646.00
1023.187, 11493.00
1024.296, 11501.00
1025.404, 11460.00
1026.513, 11345.00
1027.621, 11148.00
1028.729, 11045.00
1029.837, 10959.98
1030.945, 10863.00
1032.052, 10828.00
1033.160, 10766.00
1034.267, 10689.00
1035.374, 10619.00
1036.481, 10491.00
1037.588, 10319.00
1038.695, 10302.00
1039.801, 10261.00
1040.907, 10164.00
1042.014, 10233.00
1043.120, 10046.00
1044.225, 9921.000
1045.331, 9972.000
1046.437, 9819.000
1047.542, 9775.000
1048.647, 9733.000
1049.752, 9646.000
1050.857, 9451.000
1051.962, 9533.000
1053.067, 9537.000
1054.171, 9310.000
1055.275, 9280.000
1056.380, 9299.000
1057.484, 9170.000
1058.587, 9085.000
1059.691, 8927.000
1060.795, 8876.000
1061.898, 8855.000
1063.001, 8791.000
1064.104, 8770.000
1065.207, 8523.000
1066.310, 8512.000
1067.412, 8467.000
1068.515, 8459.000
1069.617, 8386.000
1070.719, 8303.433
1071.821, 8304.445
1072.923, 8282.344
1074.024, 8238.407
1075.126, 8107.032
1076.227, 8088.554
1077.328, 8024.854
1078.429, 7959.299
1079.530, 7956.706
1080.631, 7838.089
1081.731, 7834.549
1082.831, 7785.085
1083.932, 7756.596
1085.032, 7682.647
1086.132, 7622.753
1087.231, 7608.427
1088.331, 7512.000
1089.430, 7441.000
1090.530, 7506.000
1091.629, 7328.000
1092.728, 7495.000
1093.826, 7347.000
1094.925, 7291.000
1096.023, 7436.000
1097.122, 7350.000
1098.220, 7260.000
1099.318, 7293.000
1100.416, 7256.000
1101.513, 7121.000
1102.611, 7077.000
1103.708, 7125.000
1104.806, 7006.000
1105.903, 7174.000
1107.000, 7144.000
1108.096, 7074.000
1109.193, 7175.000
1110.289, 6990.917
1111.386, 7030.116
1112.482, 7046.208
1113.578, 7040.426
1114.673, 6947.257
1115.769, 6966.931
1116.865, 6941.379
1117.960, 6913.985
1119.055, 6949.555
1120.150, 6869.098
1121.245, 6903.672
1122.340, 6892.327
1123.434, 6902.010
1124.529, 6866.172
1125.623, 6844.404
1126.717, 6868.157
1127.811, 6866.705
1128.905, 6825.642
1129.998, 6836.673
1131.092, 6754.639
1132.185, 6754.272
1133.278, 6789.137
1134.371, 6750.375
1135.464, 6762.238
1136.557, 6731.048
1137.649, 6714.598
1138.742, 6663.000
1139.834, 6679.000
1140.926, 6658.000
1142.018, 6645.548
1143.109, 6666.000
1144.201, 6590.000
1145.292, 6583.000
1146.384, 6535.000
1147.475, 6536.126
1148.566, 6576.000
1149.657, 6573.000
1150.747, 6540.000
1151.838, 6591.000
1152.928, 6571.000
1154.018, 6520.000
1155.108, 6609.000
1156.198, 6552.000
1157.288, 6546.000
1158.377, 6427.000
1159.467, 6561.000
1160.556, 6511.000
1161.645, 6551.000
1162.734, 6581.000
1163.823, 6531.000
1164.911, 6502.000
1166.000, 6584.000
1167.088, 6521.000
1168.176, 6435.000
1169.264, 6550.000
1170.352, 6516.000
1171.440, 6528.000
1172.527, 6524.000
1173.615, 6479.000
1174.702, 6569.000
1175.789, 6586.000
1176.876, 6571.000
1177.963, 6532.000
1179.049, 6506.000
1180.136, 6573.000
1181.222, 6502.000
1182.308, 6570.701
1183.394, 6556.000
1184.480, 6643.000
1185.566, 6529.000
1186.651, 6497.000
1187.736, 6548.000
1188.822, 6574.000
1189.907, 6595.000
1190.992, 6572.000
1192.076, 6575.000
1193.161, 6588.621
1194.245, 6533.000
1195.330, 6594.000
1196.414, 6514.055
1197.498, 6608.443
1198.581, 6662.372
1199.665, 6678.019
1200.749, 6540.718
1201.832, 6600.916
1202.915, 6581.964
1203.998, 6559.767
1205.081, 6647.762
1206.164, 6532.705
1207.246, 6618.951
1208.329, 6624.841
1209.411, 6667.507
1210.493, 6630.535
1211.575, 6618.161
1212.657, 6685.450
1213.738, 6708.627
1214.820, 6662.487
1215.901, 6707.489
1216.982, 6589.647
1218.063, 6614.703
1219.144, 6701.413
1220.225, 6659.276
1221.305, 6705.732
1222.386, 6718.448
1223.466, 6577.820
1224.546, 6703.870
1225.626, 6714.590
1226.706, 6606.892
1227.785, 6723.803
1228.865, 6632.430
1229.944, 6615.400
1231.023, 6654.320
1232.102, 6634.915
1233.181, 6707.466
1234.260, 6691.429
1235.338, 6667.475
1236.417, 6678.064
1237.495, 6590.772
1238.573, 6685.066
1239.651, 6655.321
1240.729, 6687.233
1241.806, 6561.000
1242.884, 6724.000
1243.961, 6642.000
1245.038, 6624.000
1246.115, 6710.000
1247.192, 6630.000
1248.269, 6621.000
1249.345, 6681.000
1250.421, 6766.000
1251.498, 6657.000
1252.574, 6717.000
1253.650, 6669.000
1254.725, 6688.000
1255.801, 6701.000
