##NAMES=Magnetite
##RRUFFID=R060222
##IDEAL CHEMISTRY=Fe^2+^Fe^3+^_2_O_4_
##LOCALITY=Cerro Hua√±aquino, Potosi Department, Bolivia
##OWNER=RRUFF
##SOURCE=Rock Currier
##DESCRIPTION=Black octahedra, the surface is hematite and the interior is magnetite
##STATUS=The identification of this mineral has been confirmed by X-ray diffraction and chemical analysis
##URL=rruff.info/R060222
##MEASURED CHEMISTRY=(Fe^2+^_0.95_Mg_0.05_)(Fe^3+^_0.99_Al_0.01_)_2_O_4_
##PIN_ID=L01600
##ORIENTATION=Laser parallel to a* (1 0 0). Fiducial mark perpendicular to laser is parallel to b [0 1 0]
125.3240, 23905.00
126.5580, 24127.00
127.7920, 24346.00
129.0260, 24274.00
130.2590, 24468.00
131.4920, 24062.00
132.7250, 23800.00
133.9580, 23705.00
135.1910, 23843.00
136.4230, 24009.00
137.6560, 23972.05
138.8880, 24353.00
140.1200, 23922.00
141.3520, 23574.00
142.5830, 23286.00
143.8150, 23550.00
145.0460, 23526.00
146.2770, 23819.00
147.5080, 23607.00
148.7390, 23199.00
149.9700, 22871.00
151.2000, 23175.00
152.4310, 23067.00
153.6610, 23385.00
154.8910, 23206.00
156.1210, 22779.00
157.3500, 22984.00
158.5800, 22578.00
159.8090, 22628.00
161.0380, 22689.00
162.2670, 23452.00
163.4960, 24362.00
164.7240, 24436.00
165.9530, 23218.00
167.1810, 22641.00
168.4090, 22131.00
169.6370, 22581.00
170.8650, 22228.00
172.0920, 22315.00
173.3200, 22229.00
174.5470, 22239.00
175.7740, 22500.00
177.0010, 22697.00
178.2280, 22826.00
179.4540, 22546.00
180.6810, 22124.00
181.9070, 22007.00
183.1330, 22188.00
184.3590, 21921.15
185.5850, 22211.00
186.8100, 21894.00
188.0350, 21789.00
189.2610, 22031.00
190.4860, 22025.00
191.7110, 21933.00
192.9350, 22096.00
194.1600, 21914.00
195.3840, 22035.00
196.6080, 21865.00
197.8320, 21862.00
199.0560, 21849.00
200.2800, 21986.00
201.5030, 21849.00
202.7270, 21869.00
203.9500, 21676.00
205.1730, 21851.00
206.3950, 21691.00
207.6180, 21577.00
208.8410, 21562.00
210.0630, 21515.00
211.2850, 21505.00
212.5070, 21597.00
213.7290, 21352.00
214.9500, 21544.00
216.1720, 21433.00
217.3930, 21618.00
218.6140, 21592.00
219.8350, 21432.00
221.0560, 21560.53
222.2770, 21500.00
223.4970, 21608.00
224.7170, 21628.00
225.9370, 21632.00
227.1570, 21404.00
228.3770, 21179.00
229.5970, 21289.00
230.8160, 21133.00
232.0350, 21245.00
233.2540, 21060.00
234.4730, 20982.00
235.6920, 20991.19
236.9110, 20962.34
238.1290, 20962.00
239.3470, 20988.00
240.5650, 21025.00
241.7830, 20898.00
243.0010, 20971.00
244.2180, 21136.00
245.4360, 20999.00
246.6530, 21210.00
247.8700, 21357.00
249.0870, 21333.09
250.3040, 21611.21
251.5200, 21815.51
252.7370, 21950.11
253.9530, 21805.84
255.1690, 22184.00
256.3850, 22184.00
257.6000, 21617.29
258.8160, 21687.93
260.0310, 21684.91
261.2460, 21612.12
262.4610, 21118.00
263.6760, 21040.00
264.8910, 21204.00
266.1050, 21258.00
267.3200, 21186.00
268.5340, 21322.00
269.7480, 21632.00
270.9620, 22026.00
272.1750, 21967.00
273.3890, 21514.00
274.6020, 21614.00
275.8150, 21338.00
277.0280, 21357.00
278.2410, 21367.00
279.4540, 21414.00
280.6660, 21419.00
281.8790, 21634.00
283.0910, 21777.00
284.3030, 21787.00
285.5140, 21783.00
286.7260, 22074.00
287.9380, 22103.00
289.1490, 22130.00
290.3600, 22205.00
291.5710, 22287.00
292.7820, 22101.00
293.9920, 22177.00
295.2030, 22279.00
296.4130, 22151.00
297.6230, 22475.00
298.8330, 22374.83
300.0430, 22357.45
301.2520, 22467.00
302.4620, 22149.00
303.6710, 22392.00
304.8800, 22154.00
306.0890, 22102.00
307.2980, 22091.00
308.5070, 21860.75
309.7150, 22008.92
310.9230, 22083.34
312.1310, 22087.99
313.3390, 21813.86
314.5470, 21899.71
315.7550, 21841.29
316.9620, 21776.98
318.1690, 21913.52
319.3760, 21679.95
320.5830, 21813.30
321.7900, 21800.18
322.9960, 21854.12
324.2030, 21762.88
325.4090, 21716.49
326.6150, 21684.21
327.8210, 21805.83
329.0270, 21853.71
330.2320, 21831.84
331.4380, 21531.16
332.6430, 21590.50
333.8480, 21505.57
335.0530, 21414.73
336.2580, 21524.73
337.4620, 21264.67
338.6670, 21433.00
339.8710, 21302.00
341.0750, 21356.00
342.2790, 21236.00
343.4820, 21067.00
344.6860, 21018.00
345.8890, 21204.00
347.0920, 21276.00
348.2960, 21065.00
349.4980, 21399.00
350.7010, 21122.00
351.9040, 21171.00
353.1060, 21341.00
354.3080, 21187.43
355.5100, 21197.00
356.7120, 21151.00
357.9140, 21172.00
359.1150, 21190.00
360.3170, 21204.00
361.5180, 21003.00
362.7190, 21021.00
363.9200, 21154.00
365.1200, 21292.00
366.3210, 21190.51
367.5210, 20983.00
368.7210, 21006.00
369.9210, 21113.00
371.1210, 21032.00
372.3210, 21255.00
373.5200, 21074.00
374.7200, 21002.00
375.9190, 21297.00
377.1180, 21115.00
378.3170, 21149.00
379.5150, 21165.00
380.7140, 21074.00
381.9120, 20989.00
383.1110, 21099.00
384.3090, 21024.00
385.5060, 21091.69
386.7040, 21201.00
387.9020, 21141.00
389.0990, 21223.00
390.2960, 21103.00
391.4930, 21337.00
392.6900, 21131.00
393.8860, 21388.00
395.0830, 21188.00
396.2790, 21172.00
397.4750, 21489.00
398.6710, 21414.00
399.8670, 21303.00
401.0630, 21664.00
402.2580, 21638.00
403.4540, 21535.00
404.6490, 21754.00
405.8440, 21716.00
407.0390, 21826.00
408.2330, 21914.00
409.4280, 21939.00
410.6220, 21803.00
411.8160, 21783.00
413.0100, 21984.00
414.2040, 21960.00
415.3980, 21691.00
416.5910, 21898.00
417.7850, 21759.00
418.9780, 21690.00
420.1710, 21632.00
421.3640, 21801.00
422.5560, 21497.00
423.7490, 21751.00
424.9410, 21559.00
426.1330, 21810.00
427.3250, 21696.00
428.5170, 21652.00
429.7090, 21642.00
430.9000, 21580.44
432.0910, 21569.00
433.2820, 21542.00
434.4730, 21564.03
435.6640, 21586.00
436.8550, 21604.00
438.0450, 21614.00
439.2360, 21637.00
440.4260, 21653.00
441.6160, 21568.94
442.8060, 21750.97
443.9950, 21859.24
445.1850, 21897.75
446.3740, 21657.47
447.5630, 21777.17
448.7520, 21752.61
449.9410, 21722.13
451.1300, 21892.50
452.3180, 21692.75
453.5060, 21859.92
454.6950, 21880.64
455.8830, 21968.38
457.0700, 21910.95
458.2580, 21898.37
459.4450, 22030.97
460.6330, 22083.20
461.8200, 22009.06
463.0070, 22101.05
464.1940, 22041.00
465.3800, 21901.00
466.5670, 21892.00
467.7530, 21872.00
468.9390, 22034.00
470.1250, 21925.00
471.3110, 22015.00
472.4970, 22033.00
473.6820, 22052.00
474.8680, 21991.00
476.0530, 21885.00
477.2380, 22028.00
478.4230, 22091.00
479.6070, 22110.00
480.7920, 22019.00
481.9760, 22115.00
483.1600, 22134.00
484.3440, 22177.00
485.5280, 22383.00
486.7120, 22266.00
487.8950, 22390.00
489.0780, 22167.00
490.2620, 22421.00
491.4450, 22411.00
492.6270, 22264.00
493.8100, 22272.00
494.9920, 22373.00
496.1750, 22293.42
497.3570, 22494.52
498.5390, 22621.89
499.7210, 22679.47
500.9020, 22458.25
502.0840, 22597.04
503.2650, 22591.54
504.4460, 22580.12
505.6270, 22769.55
506.8080, 22588.87
507.9890, 22775.12
509.1690, 22814.87
510.3500, 22921.68
511.5300, 22883.31
512.7100, 22889.77
513.8900, 23041.43
515.0690, 23049.34
516.2490, 23042.00
517.4280, 23083.54
518.6070, 23153.00
519.7860, 23120.00
520.9650, 23054.00
522.1440, 23135.00
523.3220, 23231.00
524.5010, 23198.00
525.6790, 23416.00
526.8570, 23567.00
528.0350, 23647.00
529.2130, 23432.00
530.3900, 23599.00
531.5670, 23408.00
532.7450, 23468.00
533.9220, 23722.00
535.0980, 23566.50
536.2750, 23717.00
537.4520, 23510.91
538.6280, 23709.53
539.8040, 23834.40
540.9800, 23889.49
542.1560, 23665.81
543.3320, 23802.11
544.5070, 23794.12
545.6830, 23780.24
546.8580, 23967.19
548.0330, 23897.00
549.2080, 24036.00
550.3830, 24162.00
551.5570, 24042.00
552.7310, 24192.00
553.9060, 23871.00
555.0800, 24117.00
556.2540, 24275.00
557.4270, 24066.00
558.6010, 24025.00
559.7740, 23962.00
560.9470, 23983.00
562.1210, 23982.83
563.2930, 23945.00
564.4660, 23997.00
565.6390, 24072.00
566.8110, 23978.00
567.9830, 24067.00
569.1550, 23959.00
570.3270, 23975.00
571.4990, 24001.00
572.6710, 24036.00
573.8420, 23982.43
575.0130, 23831.00
576.1840, 23847.00
577.3550, 23692.00
578.5260, 23570.00
579.6970, 23450.00
580.8670, 23316.50
582.0370, 23263.00
583.2070, 23155.00
584.3770, 22960.00
585.5470, 23055.00
586.7170, 22733.00
587.8860, 22717.00
589.0550, 22887.00
590.2240, 22815.00
591.3930, 22969.00
592.5620, 22739.00
593.7310, 22768.00
594.8990, 22658.00
596.0670, 22896.00
597.2350, 22773.00
598.4030, 22919.00
599.5710, 23032.00
600.7390, 23072.00
601.9060, 23194.00
603.0740, 23182.70
604.2410, 23231.00
605.4080, 23199.00
606.5740, 23241.00
607.7410, 23339.00
608.9080, 23370.73
610.0740, 23457.00
611.2400, 23387.88
612.4060, 23630.99
613.5720, 23800.37
614.7370, 23899.89
615.9030, 23720.71
617.0680, 23901.44
618.2330, 23937.91
619.3980, 23968.46
620.5630, 24199.86
621.7280, 24061.16
622.8920, 24289.31
624.0570, 24371.06
625.2210, 24519.77
626.3850, 24505.00
627.5490, 24608.00
628.7120, 24878.00
629.8760, 24944.00
631.0390, 25287.00
632.2020, 25258.00
633.3650, 25399.00
634.5280, 25524.00
635.6910, 25742.00
636.8530, 25915.14
638.0160, 26168.00
639.1780, 26320.00
640.3400, 26627.00
641.5020, 26812.56
642.6640, 27331.00
643.8250, 27376.00
644.9870, 27857.00
646.1480, 28238.00
647.3090, 28247.00
648.4700, 29079.00
649.6300, 29244.00
650.7910, 29676.00
651.9510, 30107.00
653.1120, 30636.00
654.2720, 31128.57
655.4320, 31620.72
656.5910, 32115.00
657.7510, 32667.00
658.9100, 32977.00
660.0690, 33554.00
661.2290, 33955.00
662.3880, 34337.00
663.5460, 34600.00
664.7050, 35023.00
665.8630, 35453.00
667.0220, 35671.00
668.1800, 35507.00
669.3380, 35963.00
670.4950, 36024.00
671.6530, 35711.00
672.8100, 35833.00
673.9680, 35356.00
675.1250, 35563.00
676.2820, 35112.00
677.4390, 34706.00
678.5950, 34242.00
679.7520, 33803.64
680.9080, 33351.00
682.0640, 32908.00
683.2200, 32461.00
684.3760, 32018.00
685.5320, 31351.00
686.6870, 31149.00
687.8420, 30507.00
688.9980, 30179.00
690.1530, 29953.00
691.3070, 29178.00
692.4620, 28771.00
693.6170, 28217.00
694.7710, 27831.00
695.9250, 27365.00
697.0790, 27203.00
698.2330, 26709.00
699.3870, 26606.00
700.5400, 26090.00
701.6940, 25874.00
702.8470, 25503.00
704.0000, 25333.00
705.1530, 25154.00
706.3050, 24928.00
707.4580, 24645.00
708.6100, 24438.00
709.7630, 24254.00
710.9150, 23889.00
712.0660, 23801.00
713.2180, 23456.00
714.3700, 23232.00
715.5210, 23258.00
716.6720, 23147.00
717.8240, 23057.00
718.9740, 22991.00
720.1250, 22623.00
721.2760, 22693.00
722.4260, 22750.00
723.5770, 22299.00
724.7270, 22470.00
725.8770, 22315.00
727.0260, 22287.00
728.1760, 22247.00
729.3250, 22102.00
730.4750, 22057.00
731.6240, 21806.00
732.7730, 21792.00
733.9220, 21902.00
735.0700, 21850.00
736.2190, 21613.00
737.3670, 21691.00
738.5150, 21605.00
739.6630, 21694.00
740.8110, 21620.00
741.9590, 21663.00
743.1060, 21525.00
744.2540, 21612.00
745.4010, 21441.00
746.5480, 21148.00
747.6950, 21212.00
748.8410, 21213.00
749.9880, 21233.00
751.1340, 21242.00
752.2800, 21228.00
753.4260, 21190.00
754.5720, 21172.00
755.7180, 21246.00
756.8640, 21248.00
758.0090, 21197.00
759.1540, 21269.00
760.2990, 21052.00
761.4440, 21069.00
762.5890, 21080.00
763.7340, 20911.00
764.8780, 20923.00
766.0220, 21163.00
767.1660, 21087.00
768.3100, 21203.00
769.4540, 21167.91
770.5980, 20993.00
771.7410, 21015.00
772.8840, 21022.00
774.0280, 20899.00
775.1700, 20742.00
776.3130, 20947.00
777.4560, 20749.00
778.5980, 21120.00
779.7410, 20882.00
780.8830, 20812.00
782.0250, 21027.00
783.1670, 20694.00
784.3080, 20591.00
785.4500, 20826.00
786.5910, 20719.00
787.7320, 20825.00
788.8730, 20899.00
790.0140, 20745.00
791.1550, 20827.00
792.2950, 20676.00
793.4360, 20910.00
794.5760, 20597.00
795.7160, 20707.00
796.8560, 20608.00
797.9960, 20673.00
799.1350, 20636.00
800.2750, 20498.00
801.4140, 20647.00
802.5530, 20582.00
803.6920, 20777.00
804.8310, 20622.00
805.9690, 20640.00
807.1080, 20833.00
808.2460, 20783.00
809.3840, 20782.00
810.5220, 20801.00
811.6600, 20658.00
812.7970, 20847.00
813.9350, 20638.00
815.0720, 20767.00
816.2090, 20824.00
817.3460, 20624.00
818.4830, 20729.00
819.6200, 20732.00
820.7560, 20821.00
821.8930, 20763.00
823.0290, 20819.00
824.1650, 20636.00
825.3010, 20754.00
826.4360, 20911.00
827.5720, 20638.00
828.7070, 20567.00
829.8420, 20639.00
830.9770, 20809.00
832.1120, 20713.00
833.2470, 20645.00
834.3820, 20610.00
835.5160, 20641.00
836.6500, 20728.00
837.7840, 20715.00
838.9180, 20747.00
840.0520, 20796.00
841.1860, 20655.00
842.3190, 20760.00
843.4520, 20684.00
844.5850, 20765.00
845.7180, 20593.00
846.8510, 20818.00
847.9840, 20859.00
849.1160, 20963.00
850.2490, 20682.00
851.3810, 20834.00
852.5130, 20795.00
853.6450, 20748.24
854.7760, 20917.62
855.9080, 21013.26
857.0390, 21039.12
858.1700, 20786.20
859.3010, 20893.26
860.4320, 20856.06
861.5630, 20812.94
862.6930, 20970.67
863.8240, 20758.30
864.9540, 20912.85
866.0840, 20920.92
867.2140, 20890.00
868.3440, 20708.00
869.4730, 20797.00
870.6030, 20843.00
871.7320, 20830.00
872.8610, 20899.00
873.9900, 20909.00
875.1190, 21001.00
876.2470, 21039.00
877.3760, 20965.42
878.5040, 20897.00
879.6320, 20886.00
880.7600, 20780.00
881.8880, 20942.00
883.0150, 20880.00
884.1430, 20995.00
885.2700, 20888.00
886.3970, 20878.00
887.5240, 20938.00
888.6510, 20880.00
889.7780, 20949.00
890.9040, 20903.00
892.0310, 21172.00
893.1570, 21149.00
894.2830, 21059.00
895.4090, 21148.00
896.5350, 20928.00
897.6600, 21060.00
898.7860, 21011.00
899.9110, 21081.00
901.0360, 21129.89
902.1610, 21336.00
903.2860, 21236.00
904.4100, 21227.00
905.5350, 21310.00
906.6590, 21154.00
907.7830, 21259.00
908.9070, 21120.00
910.0310, 21005.00
911.1540, 21237.00
912.2780, 21153.00
913.4010, 21198.00
914.5240, 21032.00
915.6470, 21173.00
916.7700, 21183.00
917.8930, 21204.00
919.0150, 21185.00
920.1380, 21199.21
921.2600, 21252.00
922.3820, 21135.00
923.5040, 21293.00
924.6260, 21127.00
925.7470, 21219.00
926.8690, 21138.00
927.9900, 21272.00
929.1110, 21496.00
930.2320, 21299.00
931.3530, 21278.00
932.4730, 21373.00
933.5940, 21137.00
934.7140, 21478.00
935.8340, 21349.00
936.9540, 21474.00
938.0740, 21446.00
939.1930, 21409.00
940.3130, 21315.00
941.4320, 21479.00
942.5510, 21352.00
943.6700, 21496.00
944.7890, 21244.00
945.9080, 21417.00
947.0260, 21578.00
948.1450, 21408.00
949.2630, 21343.00
950.3810, 21476.00
951.4990, 21457.00
952.6170, 21398.00
953.7340, 21531.00
954.8520, 21581.00
955.9690, 21460.00
957.0860, 21428.00
958.2030, 21492.00
959.3200, 21449.00
960.4360, 21573.00
961.5530, 21548.00
962.6690, 21566.00
963.7850, 21695.00
964.9010, 21575.00
966.0170, 21730.00
967.1330, 21535.00
968.2480, 21661.00
969.3630, 21607.00
970.4790, 21811.00
971.5940, 21577.00
972.7080, 21640.00
973.8230, 21578.00
974.9380, 21653.00
976.0520, 21803.00
977.1660, 21597.00
978.2800, 21649.00
979.3940, 21853.00
980.5080, 21905.00
981.6220, 21912.82
982.7350, 21792.00
983.8480, 21869.00
984.9610, 21894.00
986.0740, 21879.00
987.1870, 21982.00
988.3000, 21830.00
989.4120, 21946.00
990.5250, 21852.00
991.6370, 21981.00
992.7490, 22080.00
993.8610, 22196.00
994.9720, 22208.15
996.0840, 22105.00
997.1950, 22129.00
998.3060, 22235.00
999.4170, 22046.00
1000.528, 22182.00
1001.639, 22129.00
1002.750, 22044.00
1003.860, 22143.00
1004.970, 22098.00
1006.080, 22114.00
1007.190, 22143.07
1008.300, 22218.00
1009.410, 22193.00
1010.519, 22075.00
1011.628, 22140.00
1012.738, 22101.00
1013.846, 21971.00
1014.955, 22017.00
1016.064, 22097.00
1017.172, 22124.00
1018.281, 22118.00
1019.389, 22176.00
1020.497, 22205.18
1021.605, 22184.00
1022.713, 22266.00
1023.820, 22357.00
1024.928, 22323.00
1026.035, 22143.00
1027.142, 22127.00
1028.249, 22173.00
1029.356, 22227.00
1030.462, 22411.00
1031.569, 22424.94
1032.675, 22335.00
1033.781, 22520.00
1034.887, 22300.00
1035.993, 22272.00
1037.098, 22320.00
1038.204, 22285.00
1039.309, 22277.00
1040.415, 22275.00
1041.520, 22305.69
1042.624, 22263.00
1043.729, 22410.00
1044.834, 22457.00
1045.938, 22532.00
1047.042, 22536.00
1048.146, 22570.00
1049.250, 22671.00
1050.354, 22474.00
1051.458, 22626.00
1052.561, 22353.00
1053.664, 22457.00
1054.767, 22396.00
1055.870, 22703.00
1056.973, 22670.00
1058.076, 22553.00
1059.178, 22525.00
1060.281, 22422.00
1061.383, 22454.87
1062.485, 22585.00
1063.587, 22523.00
1064.688, 22590.00
1065.790, 22590.00
1066.891, 22657.00
1067.993, 22716.00
1069.094, 22648.00
1070.195, 22565.00
1071.295, 22803.00
1072.396, 22715.00
1073.496, 22671.00
1074.597, 22708.42
1075.697, 22609.00
1076.797, 22517.00
1077.897, 22753.00
1078.996, 22438.00
1080.096, 22709.00
1081.195, 22423.00
1082.294, 22645.00
1083.393, 22554.00
1084.492, 22658.00
1085.591, 22638.00
1086.689, 22601.23
1087.788, 22590.00
1088.886, 22561.00
1089.984, 22483.00
1091.082, 22525.00
1092.180, 22570.00
1093.277, 22619.00
1094.375, 22706.00
1095.472, 22633.00
1096.569, 22632.00
1097.666, 22609.53
1098.763, 22655.00
1099.860, 22519.00
1100.956, 22453.00
1102.053, 22395.00
1103.149, 22453.00
1104.245, 22378.95
1105.341, 22535.29
1106.436, 22617.90
1107.532, 22630.71
1108.627, 22364.77
1109.723, 22458.79
1110.818, 22408.56
1111.913, 22352.41
1113.007, 22497.12
1114.102, 22271.72
1115.197, 22413.24
1116.291, 22408.30
1117.385, 22470.39
1118.479, 22387.33
1119.573, 22349.10
1120.666, 22456.09
1121.760, 22482.66
1122.853, 22382.90
1123.947, 22449.26
1125.040, 22218.80
1126.132, 22248.83
1127.225, 22391.21
1128.318, 22298.75
1129.410, 22367.78
1130.502, 22375.31
1131.595, 22353.80
1132.687, 22159.55
1133.778, 22253.54
1134.870, 22277.76
1135.961, 22023.20
1137.053, 22128.62
1138.144, 22089.78
1139.235, 22045.02
1140.326, 22201.11
1141.416, 21987.10
1142.507, 22140.00
1143.597, 22146.44
1144.688, 22219.91
1145.778, 22148.22
1146.868, 22121.37
1147.957, 22239.72
1149.047, 22277.68
1150.136, 22189.28
1151.226, 22267.02
1152.315, 22047.93
1153.404, 22089.31
1154.493, 22243.06
1155.581, 22161.97
1156.670, 22242.36
1157.758, 22106.00
1158.846, 22089.00
1159.934, 21967.00
1161.022, 21990.34
1162.110, 22088.00
1163.198, 22073.00
1164.285, 22203.00
1165.372, 22304.00
1166.459, 22145.98
1167.546, 22237.00
1168.633, 21872.00
1169.720, 22140.00
1170.806, 22124.00
1171.892, 21889.00
1172.979, 22113.00
1174.065, 22023.00
1175.150, 21894.00
1176.236, 22054.00
1177.322, 22211.00
1178.407, 22196.00
1179.492, 22169.44
1180.577, 22188.00
1181.662, 21987.00
1182.747, 22060.00
1183.832, 22084.00
1184.916, 22005.00
1186.000, 22138.00
1187.084, 22079.00
1188.168, 22060.00
1189.252, 21924.00
1190.336, 22144.00
1191.419, 21886.00
1192.503, 22130.00
1193.586, 21996.00
1194.669, 22142.00
1195.752, 22037.00
1196.835, 22011.00
1197.917, 21926.00
1199.000, 22168.00
1200.082, 22103.00
1201.164, 21981.00
1202.246, 22120.00
1203.328, 22048.00
1204.409, 22143.00
1205.491, 22124.00
1206.572, 22194.00
1207.653, 22138.00
1208.734, 22039.29
1209.815, 22111.00
1210.896, 21889.00
1211.976, 22086.00
1213.057, 22304.00
1214.137, 22137.00
1215.217, 21984.00
1216.297, 22215.47
1217.377, 22116.33
1218.456, 22436.00
1219.536, 22221.00
1220.615, 22092.00
1221.694, 22119.00
1222.773, 22111.00
1223.852, 22015.00
1224.931, 22271.00
1226.009, 22149.00
1227.088, 22164.00
1228.166, 22158.00
1229.244, 21989.00
1230.322, 22161.00
1231.400, 22297.00
1232.477, 22175.00
1233.555, 22270.00
1234.632, 22159.00
1235.709, 22282.00
1236.786, 22410.00
1237.863, 22046.00
1238.939, 22129.00
1240.016, 22292.00
1241.092, 22204.00
1242.168, 22083.00
1243.245, 22252.00
1244.320, 22244.00
1245.396, 22172.00
1246.472, 22430.00
1247.547, 22321.86
1248.622, 22552.00
1249.697, 22381.00
1250.772, 22212.00
1251.847, 22406.00
1252.922, 22373.00
1253.996, 22640.00
1255.071, 22450.00
1256.145, 22299.00
1257.219, 22424.00
1258.293, 22406.00
1259.366, 22305.00
1260.440, 22267.00
1261.513, 22456.00
1262.587, 22468.00
1263.660, 22499.00
1264.733, 22381.00
1265.805, 22559.00
1266.878, 22378.00
1267.951, 22601.00
1269.023, 22456.00
1270.095, 22531.00
1271.167, 22529.00
1272.239, 22517.00
1273.311, 22559.00
1274.382, 22450.00
1275.454, 22633.00
1276.525, 22490.00
1277.596, 22317.00
1278.667, 22550.00
1279.738, 22619.00
1280.808, 22699.00
1281.879, 22664.00
1282.949, 22668.00
1284.019, 22724.00
1285.089, 22708.00
1286.159, 22950.00
1287.229, 22869.00
1288.298, 22598.00
1289.368, 22825.00
1290.437, 22761.00
1291.506, 22899.00
1292.575, 22860.00
1293.644, 22812.00
1294.712, 22928.00
1295.781, 22848.00
1296.849, 22847.00
1297.917, 22906.00
1298.985, 22803.00
