##NAMES=Magnesio-hastingsite
##RRUFFID=R040010
##IDEAL CHEMISTRY=NaCa_2_(Mg_4_Fe^3+^)Si_6_Al_2_O_22_(OH)_2_
##LOCALITY=Amity, New York, USA
##OWNER=RRUFF
##SOURCE=University of Arizona Mineral Museum
##DESCRIPTION=Group of black prismatic crystals
##STATUS=The identification of this mineral has been confirmed by X-ray diffraction and chemical analysis
##URL=rruff.info/R040010
##MEASURED CHEMISTRY=(Na_0.50_K_0.43_[box]_0.07_)_Σ=1_(Ca_1.77_Na_0.23_)_Σ=2_(Mg_1.74_Fe_1.22_Fe^3+^_0.79_Mn_0.57_Al_0.30_Zn_0.25_Ti_0.13_)_Σ=5_(Si_5.95_Al_2.05_)_Σ=8_O_22_((OH)_1.75_F_0.22_Cl_0.03_)_Σ=2_; OH estimated by charge balance
##PIN_ID=L00361
##ORIENTATION=Laser parallel to -b* (0 -1 0). Fiducial mark perpendicular to laser is parallel to c [0 0 1]
164.6200, 38155.00
165.8510, 38265.00
167.0820, 38308.00
168.3130, 38448.00
169.5440, 38871.00
170.7750, 39028.99
172.0050, 39577.00
173.2350, 39664.00
174.4650, 40022.00
175.6950, 40431.00
176.9250, 40864.00
178.1550, 41123.00
179.3840, 41428.14
180.6130, 41585.00
181.8420, 41903.00
183.0710, 42074.00
184.3000, 42327.00
185.5280, 42304.00
186.7570, 42577.00
187.9850, 41900.00
189.2130, 41809.00
190.4400, 41635.00
191.6680, 41437.00
192.8960, 41062.00
194.1230, 40989.00
195.3500, 41064.00
196.5770, 40746.00
197.8030, 40742.00
199.0300, 40893.00
200.2560, 41542.00
201.4830, 41425.00
202.7090, 41432.00
203.9340, 40933.00
205.1600, 40175.00
206.3860, 40036.00
207.6110, 40535.00
208.8360, 41033.00
210.0610, 41747.00
211.2860, 42336.00
212.5100, 43343.00
213.7350, 44209.00
214.9590, 44722.00
216.1830, 45528.00
217.4070, 46141.00
218.6310, 46612.00
219.8540, 47144.00
221.0780, 47762.00
222.3010, 47727.00
223.5240, 47907.00
224.7470, 47520.00
225.9690, 47287.00
227.1920, 46699.00
228.4140, 46286.00
229.6360, 45280.00
230.8580, 44529.00
232.0800, 43783.00
233.3020, 43386.00
234.5230, 42661.00
235.7440, 42097.00
236.9650, 41305.00
238.1860, 40981.00
239.4070, 40571.00
240.6280, 40165.00
241.8480, 39664.00
243.0680, 39321.00
244.2880, 39194.00
245.5080, 39010.00
246.7280, 38801.88
247.9470, 38758.00
249.1660, 38460.00
250.3860, 38125.00
251.6040, 37925.00
252.8230, 37723.12
254.0420, 37939.34
255.2600, 38070.48
256.4790, 38121.15
257.6970, 37850.24
258.9150, 37994.56
260.1320, 37972.46
261.3500, 37943.55
262.5670, 38146.29
263.7840, 37922.14
265.0010, 38121.21
266.2180, 38151.53
267.4350, 38214.48
268.6510, 38252.00
269.8680, 38293.00
271.0840, 38340.00
272.3000, 38411.00
273.5160, 38541.00
274.7310, 38886.00
275.9470, 39028.00
277.1620, 39064.00
278.3770, 39008.00
279.5920, 39148.00
280.8070, 39386.15
282.0210, 39436.31
283.2360, 39563.45
284.4500, 39660.00
285.6640, 39678.00
286.8780, 39657.00
288.0920, 39624.86
289.3050, 39741.61
290.5180, 39672.00
291.7320, 39837.00
292.9450, 39793.00
294.1570, 39530.00
295.3700, 39361.00
296.5830, 39604.00
297.7950, 39507.00
299.0070, 39274.00
300.2190, 39333.00
301.4310, 39044.00
302.6420, 39227.00
303.8540, 39084.00
305.0650, 39001.00
306.2760, 38731.00
307.4870, 38522.00
308.6980, 38470.00
309.9080, 38681.00
311.1190, 38284.00
312.3290, 38504.67
313.5390, 38845.00
314.7490, 38554.00
315.9580, 38496.00
317.1680, 38252.00
318.3770, 38395.00
319.5860, 38354.00
320.7950, 38132.00
322.0040, 38472.00
323.2130, 38218.00
324.4210, 38508.00
325.6290, 38477.00
326.8380, 38158.00
328.0460, 38486.00
329.2530, 38427.00
330.4610, 38500.00
331.6680, 38586.00
332.8760, 38435.00
334.0830, 38325.00
335.2890, 38400.00
336.4960, 38630.00
337.7030, 38570.00
338.9090, 38868.00
340.1150, 38941.00
341.3210, 39160.32
342.5270, 39584.00
343.7330, 39591.00
344.9380, 39595.00
346.1440, 39661.00
347.3490, 40363.00
348.5540, 40662.00
349.7590, 41125.00
350.9630, 41348.00
352.1680, 41801.00
353.3720, 42093.00
354.5760, 42682.00
355.7800, 43056.00
356.9840, 43312.00
358.1870, 43404.00
359.3910, 43732.00
360.5940, 43771.00
361.7970, 44001.00
363.0000, 44008.00
364.2030, 44113.00
365.4050, 44141.00
366.6080, 43811.00
367.8100, 43918.00
369.0120, 43753.00
370.2140, 43148.00
371.4150, 43005.00
372.6170, 42830.00
373.8180, 42566.00
375.0190, 42228.00
376.2200, 42093.00
377.4210, 41886.00
378.6220, 41242.00
379.8220, 41110.00
381.0230, 40667.00
382.2230, 40721.00
383.4230, 40087.00
384.6220, 40110.00
385.8220, 39563.00
387.0220, 39541.00
388.2210, 38997.00
389.4200, 38914.00
390.6190, 38845.00
391.8180, 38562.00
393.0160, 38551.00
394.2150, 38382.64
395.4130, 38032.00
396.6110, 38134.00
397.8090, 37897.00
399.0060, 37764.00
400.2040, 37735.00
401.4010, 37698.00
402.5980, 37604.00
403.7950, 37659.00
404.9920, 37649.00
406.1890, 37738.00
407.3860, 37512.00
408.5820, 37887.00
409.7780, 37566.00
410.9740, 37768.00
412.1700, 37608.00
413.3650, 37847.00
414.5610, 37914.00
415.7560, 37974.00
416.9510, 37956.00
418.1460, 38008.00
419.3410, 38424.00
420.5360, 38304.00
421.7300, 38481.00
422.9240, 38331.00
424.1180, 38553.00
425.3120, 38733.00
426.5060, 38690.00
427.7000, 38650.00
428.8930, 38481.00
430.0860, 38353.43
431.2790, 38386.00
432.4720, 38010.00
433.6650, 37958.00
434.8580, 37856.00
436.0500, 37833.00
437.2420, 37498.00
438.4340, 37395.00
439.6260, 37366.00
440.8180, 37264.00
442.0090, 36827.00
443.2010, 36797.00
444.3920, 36721.00
445.5830, 36488.00
446.7740, 36535.00
447.9640, 36287.00
449.1550, 36127.00
450.3450, 36075.00
451.5350, 36113.00
452.7250, 35790.00
453.9150, 36050.00
455.1050, 35861.00
456.2940, 35652.00
457.4830, 35706.00
458.6720, 35764.00
459.8610, 35326.00
461.0500, 35455.00
462.2390, 35333.00
463.4270, 35390.00
464.6150, 35327.07
465.8040, 35290.66
466.9910, 35240.00
468.1790, 35190.00
469.3670, 35274.00
470.5540, 35159.00
471.7410, 35172.00
472.9280, 35282.00
474.1150, 35242.00
475.3020, 35415.00
476.4890, 35169.00
477.6750, 35396.00
478.8610, 35339.00
480.0470, 35514.00
481.2330, 35568.00
482.4190, 35890.00
483.6040, 36207.00
484.7900, 36219.00
485.9750, 36342.00
487.1600, 36657.00
488.3450, 36721.00
489.5290, 37076.00
490.7140, 37161.00
491.8980, 37489.00
493.0820, 37768.00
494.2660, 38235.00
495.4500, 38437.00
496.6340, 38720.00
497.8170, 38867.00
499.0010, 39259.00
500.1840, 39726.00
501.3670, 40084.00
502.5500, 40358.00
503.7320, 40775.00
504.9150, 41052.30
506.0970, 41408.00
507.2790, 41684.00
508.4610, 42125.00
509.6430, 42509.00
510.8250, 42780.69
512.0060, 42971.00
513.1870, 43361.00
514.3680, 43850.00
515.5490, 44183.00
516.7300, 44624.00
517.9110, 44989.00
519.0910, 45252.00
520.2710, 45772.00
521.4510, 46330.00
522.6310, 46471.00
523.8110, 47200.00
524.9910, 47563.00
526.1700, 48251.00
527.3490, 48357.00
528.5280, 48599.00
529.7070, 48725.00
530.8860, 49038.00
532.0650, 48790.00
533.2430, 48963.00
534.4210, 48839.00
535.5990, 48333.00
536.7770, 48176.00
537.9550, 47990.00
539.1320, 47617.00
540.3100, 47370.00
541.4870, 46869.00
542.6640, 46604.00
543.8410, 46318.00
545.0170, 45799.00
546.1940, 45630.00
547.3700, 45368.00
548.5470, 45315.00
549.7230, 44810.00
550.8980, 44479.00
552.0740, 44376.00
553.2500, 43897.00
554.4250, 43635.00
555.6000, 43676.00
556.7750, 43575.00
557.9500, 43088.00
559.1250, 42990.00
560.2990, 42921.00
561.4730, 42416.00
562.6480, 42114.00
563.8220, 41966.00
564.9950, 41453.00
566.1690, 40988.00
567.3430, 40658.00
568.5160, 40622.00
569.6890, 40256.00
570.8620, 40028.00
572.0350, 39617.00
573.2070, 39692.00
574.3800, 38888.00
575.5520, 38662.00
576.7240, 37984.00
577.8960, 38185.00
579.0680, 37826.00
580.2400, 37472.00
581.4110, 37329.00
582.5830, 37147.00
583.7540, 36883.00
584.9250, 36615.00
586.0950, 36486.00
587.2660, 36235.00
588.4370, 35991.00
589.6070, 35957.00
590.7770, 35754.00
591.9470, 35559.00
593.1170, 35415.00
594.2860, 35287.00
595.4560, 34939.00
596.6250, 34907.54
597.7940, 35037.00
598.9630, 34713.00
600.1320, 35052.00
601.3000, 34983.00
602.4690, 35019.00
603.6370, 34839.00
604.8050, 34989.00
605.9730, 35044.00
607.1410, 34757.00
608.3090, 34905.00
609.4760, 34933.00
610.6430, 35241.00
611.8100, 35340.00
612.9770, 35514.00
614.1440, 35509.00
615.3110, 35614.00
616.4770, 35826.00
617.6430, 35804.00
618.8090, 35929.00
619.9750, 36028.00
621.1410, 36273.00
622.3070, 36473.00
623.4720, 36762.00
624.6370, 36790.00
625.8020, 37163.00
626.9670, 37394.76
628.1320, 37754.87
629.2970, 37986.00
630.4610, 38469.00
631.6250, 38769.00
632.7890, 38841.00
633.9530, 39134.00
635.1170, 39872.00
636.2810, 39839.00
637.4440, 39996.00
638.6070, 40790.00
639.7700, 40821.00
640.9330, 41241.00
642.0960, 41300.00
643.2590, 41932.00
644.4210, 42163.00
645.5830, 42529.00
646.7450, 43002.00
647.9070, 43117.00
649.0690, 43414.00
650.2310, 43725.00
651.3920, 44202.00
652.5530, 44485.00
653.7140, 45002.00
654.8750, 45115.00
656.0360, 45517.00
657.1970, 45728.00
658.3570, 45875.02
659.5170, 46073.16
660.6770, 46066.00
661.8370, 46265.00
662.9970, 46173.00
664.1570, 46195.00
665.3160, 45927.00
666.4750, 45429.00
667.6340, 45661.00
668.7930, 45051.00
669.9520, 45098.00
671.1110, 45307.00
672.2690, 45182.00
673.4270, 45447.00
674.5850, 45734.00
675.7430, 45785.00
676.9010, 46175.00
678.0590, 46415.00
679.2160, 46275.00
680.3730, 46703.00
681.5300, 46444.00
682.6870, 46154.00
683.8440, 46130.00
685.0010, 45629.00
686.1570, 45251.00
687.3130, 44945.00
688.4690, 44503.00
689.6250, 44147.00
690.7810, 43740.47
691.9370, 42933.00
693.0920, 42981.00
694.2470, 42701.00
695.4020, 42486.00
696.5570, 42616.00
697.7120, 42558.00
698.8670, 42828.00
700.0210, 42993.00
701.1750, 43144.00
702.3290, 43582.00
703.4830, 43896.00
704.6370, 44093.00
705.7910, 44955.00
706.9440, 45142.00
708.0970, 45798.00
709.2510, 46167.00
710.4030, 46401.00
711.5560, 47121.00
712.7090, 47817.00
713.8610, 48086.00
715.0140, 48814.00
716.1660, 49138.00
717.3180, 49445.00
718.4690, 50139.00
719.6210, 50659.00
720.7730, 50956.00
721.9240, 51497.00
723.0750, 51548.00
724.2260, 51882.00
725.3770, 52424.00
726.5270, 52494.57
727.6780, 52261.00
728.8280, 52729.00
729.9780, 52878.00
731.1280, 52599.00
732.2780, 52874.00
733.4280, 52847.00
734.5770, 52795.00
735.7260, 52803.00
736.8760, 52580.00
738.0250, 52420.00
739.1730, 52131.00
740.3220, 51773.00
741.4700, 51387.00
742.6190, 50982.00
743.7670, 50235.00
744.9150, 49792.00
746.0630, 49023.00
747.2100, 48256.00
748.3580, 48320.00
749.5050, 47220.00
750.6520, 46801.00
751.7990, 46151.00
752.9460, 45388.00
754.0930, 45113.00
755.2390, 44503.00
756.3860, 44024.00
757.5320, 43642.00
758.6780, 43309.32
759.8240, 43049.00
760.9690, 42856.00
762.1150, 42690.00
763.2600, 42503.00
764.4060, 42326.00
765.5510, 42102.00
766.6950, 42229.00
767.8400, 42305.00
768.9850, 42207.00
770.1290, 41964.00
771.2730, 42181.00
772.4170, 42074.00
773.5610, 42120.00
774.7050, 42065.00
775.8480, 42234.00
776.9920, 41667.00
778.1350, 42037.00
779.2780, 41840.00
780.4210, 41674.00
781.5640, 41826.00
782.7060, 41863.00
783.8490, 41674.00
784.9910, 41735.00
786.1330, 41609.00
787.2750, 41539.00
788.4170, 41460.00
789.5580, 41339.43
790.7000, 41262.00
791.8410, 41134.00
792.9820, 40919.00
794.1230, 40845.68
795.2640, 40806.35
796.4040, 40790.00
797.5450, 40822.00
798.6850, 40897.00
799.8250, 40917.00
800.9650, 41012.00
802.1050, 40954.00
803.2450, 40622.00
804.3840, 40754.00
805.5230, 40664.00
806.6630, 40248.00
807.8020, 40163.00
808.9400, 40332.00
810.0790, 40463.00
811.2170, 40171.00
812.3560, 39987.00
813.4940, 40026.00
814.6320, 39897.00
815.7700, 39943.00
816.9070, 39800.00
818.0450, 39954.00
819.1820, 39637.00
820.3190, 39364.00
821.4560, 39266.00
822.5930, 39266.00
823.7300, 38741.00
824.8670, 39012.00
826.0030, 38496.00
827.1390, 38410.00
828.2750, 38148.00
829.4110, 38379.00
830.5470, 38399.00
831.6820, 38126.00
832.8180, 38351.00
833.9530, 37978.00
835.0880, 37926.00
836.2230, 38016.00
837.3580, 37850.00
838.4920, 37934.00
839.6270, 38188.00
840.7610, 37787.00
841.8950, 38006.00
843.0290, 37811.00
844.1630, 37975.00
845.2960, 38100.00
846.4300, 38298.00
847.5630, 38120.00
848.6960, 38390.00
849.8290, 38665.00
850.9620, 38329.00
852.0940, 38653.00
853.2270, 38584.00
854.3590, 38740.00
855.4910, 38990.00
856.6230, 39051.00
857.7550, 38959.00
858.8870, 39248.00
860.0180, 39166.00
861.1500, 39230.00
862.2810, 39301.00
863.4120, 39507.00
864.5430, 39541.00
865.6730, 39671.31
866.8040, 39816.26
867.9340, 39921.00
869.0640, 40032.00
870.1940, 40118.74
871.3240, 40244.00
872.4540, 40289.00
873.5830, 40406.00
874.7130, 40545.00
875.8420, 40701.00
876.9710, 40508.00
878.1000, 40888.00
879.2290, 40655.00
880.3570, 40849.00
881.4860, 40776.00
882.6140, 40847.00
883.7420, 40895.00
884.8700, 40939.00
885.9980, 40916.00
887.1250, 41153.00
888.2530, 41091.00
889.3800, 41072.00
890.5070, 41052.00
891.6340, 40942.00
892.7610, 41324.00
893.8880, 41334.00
895.0140, 41399.00
896.1400, 41434.00
897.2670, 41335.00
898.3930, 41324.95
899.5180, 41528.34
900.6440, 41646.69
901.7700, 41684.55
902.8950, 41400.85
904.0200, 41532.36
905.1450, 41497.48
906.2700, 41455.77
907.3950, 41645.73
908.5190, 41408.79
909.6440, 41595.07
910.7680, 41612.41
911.8920, 41707.07
913.0160, 41634.29
914.1400, 41613.23
915.2630, 41759.65
916.3870, 41813.33
917.5100, 41721.28
918.6330, 41820.84
919.7560, 41578.04
920.8790, 41635.67
922.0010, 41822.91
923.1240, 41739.27
924.2460, 41841.89
925.3680, 41873.56
926.4900, 41582.85
927.6120, 41852.80
928.7340, 41880.29
929.8550, 41658.80
930.9760, 41909.54
932.0980, 41722.38
933.2190, 41691.52
934.3390, 41778.28
935.4600, 41932.00
936.5810, 41878.00
937.7010, 41756.00
938.8210, 42039.00
939.9410, 41693.00
941.0610, 41971.00
942.1810, 41582.00
943.3010, 41961.00
944.4200, 41976.00
945.5390, 41843.00
946.6580, 41744.00
947.7770, 42012.00
948.8960, 41912.00
950.0150, 42048.00
951.1330, 41954.00
952.2510, 42002.00
953.3690, 41984.00
954.4870, 41883.00
955.6050, 41855.00
956.7230, 41967.00
957.8400, 41987.00
958.9580, 42165.00
960.0750, 41972.00
961.1920, 42039.00
962.3090, 41922.00
963.4250, 42184.00
964.5420, 42162.30
965.6580, 42187.64
966.7740, 42283.00
967.8900, 42198.00
969.0060, 42207.00
970.1220, 42162.00
971.2380, 42286.32
972.3530, 42150.00
973.4680, 42493.00
974.5830, 42498.00
975.6980, 42388.00
976.8130, 42784.00
977.9280, 42704.00
979.0420, 42594.00
980.1560, 42931.00
981.2710, 43085.00
982.3850, 43013.29
983.4980, 43575.00
984.6120, 43028.00
985.7260, 43349.00
986.8390, 43599.00
987.9520, 43651.00
989.0650, 43556.00
990.1780, 43840.00
991.2910, 44002.00
992.4030, 43873.00
993.5160, 44220.00
994.6280, 44103.00
995.7400, 44387.00
996.8520, 44580.00
997.9640, 44678.00
999.0750, 44828.00
1000.187, 44926.00
1001.298, 44567.00
1002.409, 44913.00
1003.520, 44774.00
1004.631, 45249.00
1005.741, 45157.00
1006.852, 45334.00
1007.962, 45338.00
1009.072, 45568.00
1010.182, 45730.00
1011.292, 45215.00
1012.402, 45357.00
1013.511, 45218.00
1014.621, 45085.00
1015.730, 45132.00
1016.839, 44962.45
1017.948, 45128.00
1019.056, 44797.00
1020.165, 44822.00
1021.273, 44848.00
1022.382, 44622.00
1023.490, 44843.00
1024.598, 44544.00
1025.706, 44453.00
1026.813, 44193.00
1027.921, 44383.00
1029.028, 44136.00
1030.135, 43952.00
1031.242, 44286.00
1032.349, 44271.00
1033.456, 43688.00
1034.562, 43578.00
1035.668, 43608.00
1036.775, 43583.00
1037.881, 43562.00
1038.987, 43539.83
1040.092, 43455.00
1041.198, 43402.00
1042.303, 43370.00
1043.408, 43172.00
1044.514, 43231.00
1045.618, 43225.00
1046.723, 42962.00
1047.828, 43030.00
1048.932, 42880.00
1050.037, 42704.00
1051.141, 42784.00
1052.245, 42549.00
1053.349, 42475.00
1054.452, 42507.00
1055.556, 42563.00
1056.659, 42258.00
1057.762, 42261.00
1058.865, 42117.00
1059.968, 42243.00
1061.071, 42387.00
1062.174, 42148.00
1063.276, 41853.00
1064.378, 42080.00
1065.480, 41904.00
1066.582, 41973.00
1067.684, 41805.00
1068.786, 41770.00
1069.887, 41456.00
1070.988, 41915.00
1072.090, 41610.00
1073.191, 41306.00
1074.291, 41512.00
1075.392, 41250.00
1076.493, 41299.00
1077.593, 41017.00
1078.693, 41371.00
1079.793, 41039.00
1080.893, 41067.00
1081.993, 40981.00
1083.092, 40921.00
1084.192, 40590.00
1085.291, 40677.00
1086.390, 40502.00
1087.489, 40484.00
1088.588, 40422.00
1089.686, 40246.00
1090.785, 40356.00
1091.883, 39975.00
1092.981, 39838.00
1094.079, 39872.00
1095.177, 39947.00
1096.275, 39465.00
1097.373, 39535.00
1098.470, 39423.00
1099.567, 39395.00
1100.664, 39280.00
1101.761, 39159.13
1102.858, 38974.00
1103.954, 38919.00
1105.051, 38695.79
1106.147, 38838.30
1107.243, 38895.76
1108.339, 38872.73
1109.435, 38528.14
1110.531, 38598.78
1111.626, 38503.06
1112.722, 38400.47
1113.817, 38529.60
1114.912, 38231.83
1116.007, 38357.28
1117.101, 38313.84
1118.196, 38347.66
1119.290, 38214.11
1120.385, 38132.22
1121.479, 38217.87
1122.573, 38210.78
1123.666, 38058.00
1124.760, 38096.79
1125.853, 37793.26
1126.947, 37790.12
1128.040, 37916.64
1129.133, 37772.28
1130.226, 37814.19
1131.318, 37785.20
1132.411, 37433.77
1133.503, 37643.05
1134.596, 37442.31
1135.688, 37437.41
1136.780, 37440.00
1137.871, 37362.00
1138.963, 37379.00
1140.054, 37307.00
1141.146, 37298.01
1142.237, 37305.57
1143.328, 37254.00
1144.419, 37327.00
1145.509, 37276.00
1146.600, 37279.00
1147.690, 37292.00
1148.780, 37106.00
1149.870, 37308.00
1150.960, 37298.00
1152.050, 37307.00
1153.139, 37143.00
1154.229, 37209.00
1155.318, 37065.00
1156.407, 37364.00
1157.496, 36993.00
1158.585, 36884.00
1159.674, 37410.00
1160.762, 37162.00
1161.850, 37187.00
1162.939, 36961.00
1164.027, 36971.00
1165.114, 37134.00
1166.202, 37152.00
1167.290, 37432.00
1168.377, 37001.00
1169.464, 37106.00
1170.551, 37245.00
1171.638, 37109.00
1172.725, 37147.00
1173.812, 37049.00
1174.898, 37386.00
1175.984, 37340.00
1177.071, 37190.00
1178.157, 36999.00
1179.242, 37169.00
1180.328, 37106.00
1181.414, 37043.00
1182.499, 37003.00
1183.584, 37364.00
1184.669, 37035.00
1185.754, 37169.00
1186.839, 37018.00
1187.924, 36943.00
1189.008, 37309.00
1190.092, 37158.00
1191.177, 37194.00
1192.260, 37201.00
1193.344, 37000.00
1194.428, 37341.00
1195.512, 37315.00
1196.595, 37116.00
1197.678, 37340.00
1198.761, 37016.00
1199.844, 37121.00
1200.927, 37422.00
1202.009, 37525.00
1203.092, 37221.00
1204.174, 37299.00
1205.256, 37304.00
1206.338, 37274.00
1207.420, 37447.00
1208.502, 37347.00
1209.583, 37557.00
1210.665, 37454.00
1211.746, 37509.00
1212.827, 37423.00
1213.908, 37328.00
1214.988, 37637.00
1216.069, 37411.00
1217.149, 37360.00
1218.230, 37619.00
1219.310, 37621.00
1220.390, 37521.00
1221.470, 37558.00
1222.549, 37517.00
1223.629, 37470.00
1224.708, 37438.88
1225.787, 37468.00
1226.866, 37336.00
1227.945, 37681.00
1229.024, 37692.00
1230.103, 37772.00
1231.181, 37755.91
1232.259, 37622.00
1233.337, 37588.00
1234.415, 37548.00
1235.493, 37561.00
1236.571, 37708.68
1237.648, 37691.04
1238.726, 37677.49
1239.803, 37753.00
1240.880, 37589.00
1241.957, 37537.96
1243.034, 37519.25
1244.110, 37500.17
1245.187, 37683.00
1246.263, 37541.00
1247.339, 37709.00
1248.415, 37680.00
1249.491, 37396.00
1250.566, 37393.00
1251.642, 37462.00
1252.717, 37480.00
1253.793, 37568.00
1254.868, 37523.00
1255.943, 37552.00
1257.017, 37588.00
1258.092, 37719.00
1259.166, 37876.00
1260.241, 37812.39
1261.315, 37944.00
1262.389, 37747.00
1263.462, 37625.00
1264.536, 37647.00
1265.610, 37485.48
1266.683, 37596.00
1267.756, 37483.00
1268.829, 37487.00
1269.902, 37866.00
1270.975, 37791.00
1272.048, 37863.86
1273.120, 37682.00
1274.192, 37752.00
1275.264, 37808.00
1276.336, 37556.00
1277.408, 37851.00
1278.480, 37842.00
1279.551, 37961.00
1280.623, 37690.00
1281.694, 37946.00
1282.765, 38069.00
1283.836, 37741.00
1284.907, 37648.00
1285.977, 38013.00
1287.048, 37771.00
1288.118, 37964.00
1289.188, 37728.00
1290.258, 37890.00
1291.328, 37944.00
1292.398, 37860.00
1293.467, 37996.00
1294.537, 37902.00
1295.606, 37863.00
1296.675, 37875.00
1297.744, 37979.00
1298.813, 37951.00
1299.882, 37895.00
1300.950, 38010.19
1302.018, 37984.00
1303.086, 38157.00
1304.155, 38087.00
1305.222, 38124.00
1306.290, 38020.00
1307.358, 38118.00
1308.425, 37992.00
1309.492, 38156.00
1310.559, 38439.00
1311.626, 38209.00
1312.693, 37918.00
1313.760, 38145.00
1314.826, 38232.00
1315.893, 38458.00
1316.959, 38157.00
1318.025, 38086.00
1319.091, 38167.00
1320.157, 38342.00
1321.222, 38115.00
1322.288, 38014.00
1323.353, 37951.00
1324.418, 37951.05
