##NAMES=Magnesite
##RRUFFID=R050676
##IDEAL CHEMISTRY=MgCO_3_
##LOCALITY=Tyrol, Austria
##OWNER=RRUFF
##SOURCE=University of Arizona Mineral Museum
##DESCRIPTION=Brown rhombohedral crystals
##STATUS=The identification of this mineral has been confirmed by X-ray diffraction and chemical analysis
##URL=rruff.info/R050676
##MEASURED CHEMISTRY=(Mg_0.87_Fe^2+^_0.12_Ca_0.01_)_Î£=1_CO_3_; trace amounts of Mn and Cd; CO_2_ estimated by difference
##PIN_ID=M00629
##ORIENTATION=Laser parallel to -a* (-1 0 0). Fiducial mark perpendicular to laser is parallel to c [0 0 1]
88.33800, 13248.00
89.57500, 13323.00
90.81200, 13180.00
92.04900, 13304.00
93.28600, 13073.00
94.52300, 13278.00
95.75900, 13083.00
96.99500, 12953.00
98.23100, 13117.00
99.46700, 13062.00
100.7030, 13219.00
101.9390, 13237.00
103.1740, 13336.00
104.4090, 13445.00
105.6440, 13335.00
106.8790, 13362.00
108.1140, 13363.00
109.3490, 13099.00
110.5830, 13151.00
111.8180, 13051.00
113.0520, 12947.00
114.2860, 13033.00
115.5200, 13359.00
116.7530, 13098.00
117.9870, 12996.00
119.2200, 13503.00
120.4530, 14376.00
121.6860, 14544.00
122.9190, 14244.00
124.1520, 13498.00
125.3850, 12803.00
126.6170, 12782.00
127.8490, 12608.00
129.0810, 12879.00
130.3130, 12584.00
131.5450, 12546.00
132.7770, 12386.00
134.0080, 12535.00
135.2390, 12492.00
136.4710, 12714.00
137.7020, 12522.00
138.9320, 12609.00
140.1630, 12618.00
141.3930, 12676.00
142.6240, 12646.00
143.8540, 12740.00
145.0840, 12961.00
146.3140, 12663.00
147.5440, 12880.00
148.7730, 12974.00
150.0020, 12646.00
151.2320, 12859.00
152.4610, 13192.00
153.6900, 12942.01
154.9180, 12999.00
156.1470, 12846.00
157.3750, 12851.00
158.6040, 12964.00
159.8320, 13016.00
161.0600, 12996.00
162.2870, 13062.21
163.5150, 13150.00
164.7420, 13132.00
165.9700, 13091.00
167.1970, 13180.00
168.4240, 13124.00
169.6510, 13320.00
170.8770, 13118.00
172.1040, 13376.00
173.3300, 13258.00
174.5560, 13349.00
175.7820, 13489.00
177.0080, 13375.00
178.2340, 13750.00
179.4590, 13608.00
180.6850, 13598.00
181.9100, 13758.00
183.1350, 13701.00
184.3600, 13792.00
185.5850, 13974.00
186.8090, 14187.00
188.0340, 14192.00
189.2580, 14328.00
190.4820, 14361.00
191.7060, 14796.00
192.9300, 15207.00
194.1530, 15261.00
195.3770, 15775.00
196.6000, 16556.00
197.8230, 17044.00
199.0460, 17988.00
200.2690, 18845.00
201.4910, 20091.00
202.7140, 21733.00
203.9360, 23564.00
205.1580, 26071.00
206.3800, 29184.00
207.6020, 32526.00
208.8240, 35636.00
210.0450, 36649.00
211.2670, 34854.00
212.4880, 31738.00
213.7090, 27036.00
214.9300, 23239.00
216.1510, 20418.00
217.3710, 18218.00
218.5920, 16936.00
219.8120, 16011.00
221.0320, 15282.00
222.2520, 14993.00
223.4720, 14667.00
224.6910, 14473.00
225.9110, 14301.00
227.1300, 14106.00
228.3490, 14054.63
229.5680, 13975.00
230.7870, 13994.00
232.0050, 14046.00
233.2240, 14053.00
234.4420, 14075.00
235.6600, 13971.00
236.8780, 14180.00
238.0960, 13881.00
239.3140, 13833.00
240.5310, 14192.00
241.7490, 13893.00
242.9660, 13962.00
244.1830, 13942.00
245.4000, 14199.00
246.6160, 14111.00
247.8330, 14104.00
249.0490, 13940.00
250.2660, 14210.00
251.4820, 14245.00
252.6980, 14095.00
253.9130, 14330.00
255.1290, 14285.00
256.3440, 14599.00
257.5600, 14294.00
258.7750, 14141.00
259.9900, 14290.00
261.2040, 14297.00
262.4190, 14267.00
263.6330, 14387.00
264.8480, 14409.00
266.0620, 14619.00
267.2760, 14563.00
268.4900, 14665.00
269.7030, 14490.00
270.9170, 14531.00
272.1300, 14708.00
273.3430, 14779.00
274.5560, 14699.00
275.7690, 14777.00
276.9820, 14599.00
278.1940, 14609.00
279.4070, 14722.00
280.6190, 15066.00
281.8310, 14924.00
283.0430, 15015.00
284.2550, 15134.00
285.4660, 14903.00
286.6770, 15130.00
287.8890, 15239.00
289.1000, 15191.00
290.3110, 15403.00
291.5210, 15401.00
292.7320, 15348.00
293.9420, 15362.00
295.1530, 15508.00
296.3630, 15733.00
297.5730, 15665.00
298.7830, 16076.00
299.9920, 16176.00
301.2020, 16601.00
302.4110, 16693.00
303.6200, 17141.00
304.8290, 17366.00
306.0380, 17881.00
307.2470, 18488.00
308.4550, 19919.00
309.6630, 21205.00
310.8720, 22822.00
312.0800, 25605.00
313.2880, 28147.00
314.4950, 31972.00
315.7030, 36341.00
316.9100, 41413.00
318.1170, 47837.00
319.3240, 55782.00
320.5310, 63936.00
321.7380, 72787.00
322.9450, 81598.00
324.1510, 86083.00
325.3570, 85495.00
326.5630, 80225.00
327.7690, 71014.00
328.9750, 60963.00
330.1810, 50841.00
331.3860, 42182.00
332.5910, 35631.00
333.7960, 30614.00
335.0010, 27226.00
336.2060, 24445.00
337.4110, 22535.00
338.6150, 21429.00
339.8200, 20260.00
341.0240, 19457.00
342.2280, 18941.00
343.4320, 18339.00
344.6350, 17692.00
345.8390, 17709.00
347.0420, 17496.00
348.2450, 17007.00
349.4480, 17017.00
350.6510, 16809.00
351.8540, 16526.00
353.0560, 16707.00
354.2590, 16495.00
355.4610, 16369.00
356.6630, 16236.00
357.8650, 16240.00
359.0670, 16219.00
360.2680, 16446.00
361.4700, 16123.00
362.6710, 16283.00
363.8720, 15991.00
365.0730, 16070.00
366.2740, 16137.00
367.4740, 16034.00
368.6750, 16258.00
369.8750, 16105.00
371.0750, 16066.00
372.2750, 15978.00
373.4750, 16125.00
374.6740, 16153.00
375.8740, 16126.00
377.0730, 15996.00
378.2720, 16219.00
379.4710, 16099.00
380.6700, 16018.00
381.8690, 16118.22
383.0670, 16264.00
384.2660, 16166.00
385.4640, 16201.00
386.6620, 16207.00
387.8600, 16083.00
389.0570, 16099.00
390.2550, 16031.00
391.4520, 16099.00
392.6490, 15924.00
393.8460, 16224.00
395.0430, 15878.00
396.2400, 15843.00
397.4370, 15715.00
398.6330, 15958.00
399.8290, 15862.00
401.0250, 15943.00
402.2210, 15981.00
403.4170, 15995.00
404.6130, 15983.00
405.8080, 15960.00
407.0030, 15866.00
408.1980, 16007.00
409.3930, 15946.00
410.5880, 15746.00
411.7830, 15777.00
412.9770, 15932.00
414.1720, 15763.00
415.3660, 15807.00
416.5600, 15787.00
417.7530, 15679.00
418.9470, 15957.00
420.1410, 15997.00
421.3340, 15703.00
422.5270, 16075.00
423.7200, 15724.00
424.9130, 15916.00
426.1060, 15982.00
427.2980, 15752.00
428.4900, 16091.00
429.6830, 15795.00
430.8750, 15694.00
432.0670, 16137.00
433.2580, 15833.00
434.4500, 15881.00
435.6410, 15964.00
436.8320, 16131.00
438.0240, 16067.00
439.2140, 16011.00
440.4050, 15960.00
441.5960, 16157.00
442.7860, 16155.00
443.9760, 16011.00
445.1670, 15920.00
446.3560, 16206.00
447.5460, 16006.00
448.7360, 16334.00
449.9250, 16001.00
451.1150, 16290.00
452.3040, 16286.00
453.4930, 16227.00
454.6810, 16267.00
455.8700, 16186.00
457.0590, 16552.00
458.2470, 16366.00
459.4350, 16531.00
460.6230, 16667.00
461.8110, 16625.00
462.9980, 16621.00
464.1860, 16654.00
465.3730, 16685.00
466.5600, 16684.00
467.7470, 16772.00
468.9340, 16726.00
470.1210, 16690.00
471.3080, 16734.00
472.4940, 16832.00
473.6800, 16868.53
474.8660, 16920.52
476.0520, 17065.00
477.2380, 17020.00
478.4230, 17176.00
479.6090, 17271.00
480.7940, 17341.00
481.9790, 17340.00
483.1640, 17471.00
484.3490, 17587.00
485.5330, 17535.00
486.7180, 17722.00
487.9020, 17762.00
489.0860, 17729.00
490.2700, 17837.00
491.4540, 17971.00
492.6370, 18004.00
493.8210, 18080.30
495.0040, 18104.23
496.1870, 18168.00
497.3700, 18113.00
498.5530, 18164.00
499.7360, 18169.00
500.9180, 18368.00
502.1000, 18476.00
503.2830, 18300.00
504.4650, 18548.00
505.6460, 18393.00
506.8280, 18123.00
508.0100, 18705.00
509.1910, 18370.00
510.3720, 18353.00
511.5530, 18520.00
512.7340, 18556.00
513.9150, 18545.00
515.0950, 18574.00
516.2760, 18619.60
517.4560, 18584.19
518.6360, 18679.00
519.8160, 18570.00
520.9950, 18491.00
522.1750, 18552.00
523.3540, 18457.00
524.5340, 18283.00
525.7130, 18374.00
526.8920, 18474.00
528.0700, 18268.00
529.2490, 18244.00
530.4270, 18010.00
531.6060, 18387.00
532.7840, 18131.00
533.9620, 18120.00
535.1390, 18235.00
536.3170, 17957.00
537.4940, 18069.00
538.6720, 18056.00
539.8490, 18126.00
541.0260, 18074.00
542.2030, 18171.00
543.3790, 17941.00
544.5560, 18040.00
545.7320, 18038.00
546.9080, 18049.00
548.0840, 17857.00
549.2600, 17793.00
550.4360, 17911.00
551.6110, 17972.00
552.7860, 17828.00
553.9620, 18029.00
555.1370, 18098.00
556.3110, 17779.00
557.4860, 17848.00
558.6610, 17981.00
559.8350, 18108.00
561.0090, 17922.00
562.1830, 17877.00
563.3570, 17948.00
564.5310, 17744.00
565.7040, 18061.00
566.8780, 18053.00
568.0510, 17679.00
569.2240, 17684.00
570.3970, 18011.00
571.5700, 17899.00
572.7420, 17986.00
573.9150, 18026.00
575.0870, 17848.00
576.2590, 17768.00
577.4310, 18048.00
578.6030, 17692.00
579.7740, 17937.00
580.9460, 18188.00
582.1170, 18012.00
583.2880, 17922.00
584.4590, 17920.00
585.6300, 17914.00
586.8010, 18011.00
587.9710, 17813.00
589.1410, 18001.00
590.3110, 18211.00
591.4810, 17958.00
592.6510, 17910.00
593.8210, 17932.00
594.9900, 17947.00
596.1600, 18105.00
597.3290, 18070.00
598.4980, 17953.00
599.6670, 18503.00
600.8350, 18363.00
602.0040, 18661.00
603.1720, 18598.00
604.3400, 18104.00
605.5080, 18180.00
606.6760, 18179.00
607.8440, 18053.00
609.0120, 18005.00
610.1790, 18111.00
611.3460, 18009.00
612.5130, 18188.00
613.6800, 18163.00
614.8470, 18106.00
616.0130, 18352.00
617.1800, 18237.00
618.3460, 18466.00
619.5120, 18336.00
620.6780, 18370.00
621.8440, 18395.00
623.0090, 18497.00
624.1750, 18547.06
625.3400, 18749.00
626.5050, 18655.00
627.6700, 18798.00
628.8350, 18751.35
629.9990, 18472.00
631.1640, 18695.00
632.3280, 18717.00
633.4920, 18513.00
634.6560, 18477.00
635.8200, 18527.00
636.9840, 18548.00
638.1470, 18517.00
639.3100, 18698.00
640.4730, 18557.00
641.6360, 18658.00
642.7990, 18730.00
643.9620, 18636.00
645.1240, 19068.00
646.2870, 18949.00
647.4490, 19204.00
648.6110, 19204.00
649.7730, 19393.00
650.9340, 18966.00
652.0960, 18806.00
653.2570, 19029.00
654.4180, 19136.00
655.5790, 19118.00
656.7400, 18972.00
657.9010, 18818.00
659.0620, 18863.00
660.2220, 19024.00
661.3820, 18767.00
662.5420, 18896.00
663.7020, 18858.00
664.8620, 18927.00
666.0210, 18820.00
667.1810, 18920.00
668.3400, 18923.00
669.4990, 18856.00
670.6580, 19156.00
671.8170, 18972.00
672.9750, 19062.00
674.1340, 19170.00
675.2920, 18975.00
676.4500, 19017.00
677.6080, 19315.00
678.7660, 19062.00
679.9230, 19297.00
681.0810, 19109.00
682.2380, 19152.00
683.3950, 19087.00
684.5520, 19232.00
685.7090, 19077.00
686.8660, 19475.00
688.0220, 19521.00
689.1780, 19301.00
690.3340, 19366.00
691.4900, 19175.00
692.6460, 19237.58
693.8020, 19391.00
694.9570, 19414.00
696.1130, 19653.00
697.2680, 19866.00
698.4230, 19568.00
699.5780, 19774.00
700.7320, 19890.00
701.8870, 19806.00
703.0410, 20088.00
704.1950, 19999.00
705.3490, 19920.00
706.5030, 20182.00
707.6570, 20563.00
708.8110, 20498.00
709.9640, 20310.00
711.1170, 20821.00
712.2700, 20771.00
713.4230, 20996.00
714.5760, 21297.00
715.7280, 21490.00
716.8810, 21819.79
718.0330, 21985.00
719.1850, 22477.00
720.3370, 22742.00
721.4890, 23108.00
722.6400, 23629.00
723.7920, 24119.00
724.9430, 24582.00
726.0940, 25387.00
727.2450, 26020.00
728.3960, 26843.00
729.5460, 28244.00
730.6970, 29259.00
731.8470, 30576.00
732.9970, 31569.00
734.1470, 32834.00
735.2970, 33957.00
736.4460, 34676.00
737.5960, 34933.00
738.7450, 34855.00
739.8940, 34579.00
741.0430, 33545.00
742.1920, 32236.00
743.3410, 31004.00
744.4890, 29550.00
745.6370, 28514.00
746.7850, 27354.78
747.9330, 26375.00
749.0810, 25359.00
750.2290, 24405.00
751.3760, 23600.00
752.5240, 22733.00
753.6710, 22807.00
754.8180, 21934.00
755.9650, 21732.00
757.1110, 21297.00
758.2580, 21154.00
759.4040, 20761.00
760.5510, 20598.00
761.6970, 20291.00
762.8420, 19998.00
763.9880, 19729.00
765.1340, 19605.54
766.2790, 19799.00
767.4240, 19446.00
768.5690, 19602.00
769.7140, 19580.00
770.8590, 19639.00
772.0030, 19592.79
773.1480, 19593.00
774.2920, 19613.02
775.4360, 19584.00
776.5800, 19628.00
777.7240, 19656.00
778.8670, 19652.00
780.0110, 19751.86
781.1540, 19785.98
782.2970, 19959.00
783.4400, 19885.00
784.5830, 20025.00
785.7250, 20007.00
786.8680, 20013.00
788.0100, 20234.00
789.1520, 20229.00
790.2940, 20172.00
791.4360, 20108.00
792.5780, 20471.00
793.7190, 20370.00
794.8600, 20343.00
796.0010, 20354.00
797.1420, 20279.00
798.2830, 20243.00
799.4240, 20251.00
800.5640, 20256.00
801.7050, 20375.00
802.8450, 20629.00
803.9850, 20580.00
805.1250, 20449.00
806.2640, 20538.00
807.4040, 20290.00
808.5430, 20347.00
809.6820, 20397.00
810.8210, 20647.00
811.9600, 20648.00
813.0990, 20679.00
814.2370, 20591.00
815.3760, 20508.00
816.5140, 20679.00
817.6520, 20575.00
818.7900, 20580.00
819.9270, 20837.00
821.0650, 20784.00
822.2020, 20512.00
823.3390, 20768.00
824.4760, 20834.00
825.6130, 20798.00
826.7500, 20930.00
827.8870, 21052.00
829.0230, 20749.00
830.1590, 21092.00
831.2950, 20799.00
832.4310, 21003.00
833.5670, 21082.00
834.7030, 21075.00
835.8380, 20995.00
836.9730, 21232.00
838.1080, 21003.00
839.2430, 21005.00
840.3780, 21279.00
841.5130, 21308.00
842.6470, 21149.00
843.7810, 21110.00
844.9150, 21280.00
846.0490, 21218.00
847.1830, 21286.00
848.3170, 21238.00
849.4500, 21209.00
850.5830, 21174.00
851.7160, 21321.00
852.8490, 21568.00
853.9820, 21622.00
855.1150, 21488.00
856.2470, 21426.00
857.3800, 21586.00
858.5120, 21872.00
859.6440, 21836.00
860.7760, 21717.00
861.9070, 21765.00
863.0390, 21742.00
864.1700, 21804.00
865.3010, 21750.00
866.4320, 21963.00
867.5630, 21707.00
868.6940, 22025.00
869.8240, 21994.00
870.9540, 22072.00
872.0850, 22338.00
873.2150, 22643.00
874.3450, 22691.00
875.4740, 23016.00
876.6040, 23085.00
877.7330, 22912.00
878.8620, 23207.00
879.9910, 23422.00
881.1200, 23405.00
882.2490, 22859.00
883.3770, 22744.00
884.5060, 22299.00
885.6340, 22367.00
886.7620, 22213.00
887.8900, 22123.00
889.0180, 22179.00
890.1450, 22185.00
891.2730, 22210.00
892.4000, 22093.00
893.5270, 22254.00
894.6540, 22367.00
895.7810, 22305.00
896.9070, 22088.00
898.0340, 22286.00
899.1600, 22258.00
900.2860, 21974.00
901.4120, 22526.00
902.5380, 22780.00
903.6630, 22644.00
904.7890, 22348.00
905.9140, 22349.00
907.0390, 22397.00
908.1640, 22142.00
909.2890, 22570.00
910.4130, 22438.00
911.5380, 22402.00
912.6620, 22568.00
913.7860, 22328.00
914.9100, 22621.00
916.0340, 22323.00
917.1580, 22389.00
918.2810, 22590.00
919.4040, 22553.00
920.5280, 22668.00
921.6510, 22666.00
922.7730, 22553.00
923.8960, 22607.00
925.0180, 22459.00
926.1410, 22708.00
927.2630, 22573.27
928.3850, 22571.93
929.5070, 22594.00
930.6280, 22520.00
931.7500, 22802.00
932.8710, 22875.00
933.9920, 22598.00
935.1130, 22789.00
936.2340, 23034.00
937.3550, 22857.00
938.4760, 22935.00
939.5960, 22784.00
940.7160, 22876.00
941.8360, 22840.00
942.9560, 23079.00
944.0760, 22825.00
945.1950, 23073.00
946.3150, 22798.00
947.4340, 23042.00
948.5530, 23061.00
949.6720, 23020.00
950.7900, 22996.00
951.9090, 23064.00
953.0270, 23132.00
954.1460, 23350.00
955.2640, 23394.00
956.3820, 23459.00
957.4990, 23299.00
958.6170, 23141.00
959.7340, 23400.00
960.8520, 23307.00
961.9690, 23599.00
963.0860, 23242.00
964.2020, 23445.00
965.3190, 23605.00
966.4350, 23349.00
967.5520, 23390.00
968.6680, 23307.00
969.7840, 23460.00
970.8990, 23743.00
972.0150, 23195.00
973.1310, 23707.00
974.2460, 23699.00
975.3610, 23802.00
976.4760, 23537.00
977.5910, 23441.00
978.7050, 23350.00
979.8200, 23613.00
980.9340, 23514.00
982.0480, 23466.00
983.1620, 23344.00
984.2760, 23422.53
985.3900, 23519.00
986.5030, 23570.00
987.6160, 23784.00
988.7300, 23824.00
989.8430, 23859.00
990.9550, 23774.00
992.0680, 23854.00
993.1810, 23702.00
994.2930, 23840.00
995.4050, 23556.00
996.5170, 24057.00
997.6290, 24236.00
998.7410, 23897.00
999.8520, 23987.00
1000.964, 24220.00
1002.075, 24507.00
1003.186, 24287.00
1004.297, 24498.00
1005.407, 24029.00
1006.518, 23978.00
1007.628, 23969.00
1008.738, 23865.00
1009.848, 23665.00
1010.958, 23582.00
1012.068, 23560.00
1013.178, 23558.00
1014.287, 23478.14
1015.396, 23307.00
1016.505, 23329.00
1017.614, 23345.00
1018.723, 23212.00
1019.831, 23372.00
1020.940, 23466.00
1022.048, 23306.00
1023.156, 23741.00
1024.264, 23913.00
1025.372, 23891.00
1026.479, 24127.07
1027.587, 24239.43
1028.694, 24311.00
1029.801, 24539.00
1030.908, 24674.00
1032.015, 24777.00
1033.121, 25034.00
1034.228, 25062.00
1035.334, 25305.00
1036.440, 25469.69
1037.546, 25871.00
1038.652, 25833.00
1039.758, 26014.00
1040.863, 26180.00
1041.968, 26607.00
1043.074, 26565.00
1044.178, 26949.00
1045.283, 27266.00
1046.388, 27349.00
1047.492, 27749.00
1048.597, 28225.00
1049.701, 28523.00
1050.805, 29002.00
1051.909, 29165.00
1053.012, 29289.00
1054.116, 29765.00
1055.219, 30287.00
1056.322, 31121.00
1057.425, 31275.00
1058.528, 32161.00
1059.631, 33187.00
1060.733, 34292.00
1061.836, 34856.00
1062.938, 35821.00
1064.040, 36736.00
1065.142, 38257.00
1066.243, 39891.00
1067.345, 41571.00
1068.446, 43642.00
1069.547, 46032.00
1070.648, 48977.00
1071.749, 52072.00
1072.850, 55367.00
1073.951, 59705.00
1075.051, 64181.00
1076.151, 68832.00
1077.251, 75144.00
1078.351, 82521.00
1079.451, 91389.00
1080.550, 102294.0
1081.650, 115629.0
1082.749, 131755.0
1083.848, 151829.0
1084.947, 175228.0
1086.046, 204610.0
1087.144, 238499.0
1088.243, 277531.0
1089.341, 320915.0
1090.439, 364896.0
1091.537, 407722.0
1092.635, 438325.0
1093.732, 457668.0
1094.830, 456754.0
1095.927, 439303.0
1097.024, 409025.0
1098.121, 368891.0
1099.218, 328015.0
1100.314, 287201.0
1101.411, 249303.0
1102.507, 216114.0
1103.603, 185309.0
1104.699, 158791.0
1105.795, 136513.0
1106.890, 117827.0
1107.986, 102420.0
1109.081, 89590.00
1110.176, 79146.00
1111.271, 69912.00
1112.366, 63257.00
1113.461, 57517.00
1114.555, 53014.00
1115.649, 49141.00
1116.744, 45665.00
1117.838, 43018.00
1118.931, 42403.00
1120.025, 39666.00
1121.119, 38398.00
1122.212, 36632.00
1123.305, 35005.00
1124.398, 34026.00
1125.491, 33446.00
1126.584, 32499.00
1127.676, 31955.53
1128.768, 31589.00
1129.861, 30944.00
1130.953, 30534.00
1132.044, 30193.00
1133.136, 30067.00
1134.228, 29685.00
1135.319, 29456.00
1136.410, 29671.00
1137.501, 30225.00
1138.592, 29301.00
1139.683, 30834.00
1140.773, 29708.74
1141.864, 29427.00
1142.954, 28448.00
1144.044, 28114.00
1145.134, 27962.00
1146.224, 27790.00
1147.313, 27626.75
1148.402, 27554.21
1149.492, 27509.00
1150.581, 27444.00
1151.670, 27400.62
1152.758, 27614.00
1153.847, 27379.00
1154.935, 27433.00
1156.024, 27561.00
1157.112, 27186.00
1158.200, 27249.00
1159.287, 27372.00
1160.375, 27257.00
1161.462, 27440.00
1162.550, 27534.00
1163.637, 27179.00
1164.724, 27232.00
1165.810, 27285.00
1166.897, 27139.00
1167.983, 27213.00
1169.070, 27236.00
1170.156, 27227.00
1171.242, 27166.00
1172.327, 27155.00
1173.413, 27063.00
1174.499, 27189.00
1175.584, 27154.00
1176.669, 27415.00
1177.754, 27265.00
1178.839, 27390.00
1179.923, 27353.00
1181.008, 27615.00
1182.092, 27159.00
1183.176, 27123.00
1184.260, 27268.00
1185.344, 27175.00
1186.428, 27489.00
1187.511, 27089.00
1188.595, 27420.00
1189.678, 27305.00
1190.761, 27443.00
1191.843, 27292.00
1192.926, 27711.00
1194.009, 27396.00
1195.091, 27069.00
1196.173, 27284.00
1197.255, 27403.00
1198.337, 27217.00
1199.419, 27449.00
1200.500, 27243.00
1201.582, 27421.00
1202.663, 27554.00
1203.744, 27359.00
1204.825, 27663.00
1205.905, 27527.00
1206.986, 27376.00
1208.066, 27609.00
1209.146, 27592.00
1210.226, 27436.00
1211.306, 27751.00
1212.386, 27258.00
1213.466, 27653.00
1214.545, 27761.00
1215.624, 27580.00
1216.703, 27890.00
1217.782, 27554.00
1218.861, 27613.00
1219.939, 27899.00
1221.018, 27771.00
1222.096, 27688.00
1223.174, 27764.00
1224.252, 27812.00
1225.330, 27598.00
1226.407, 27739.00
1227.485, 28053.00
1228.562, 27723.00
1229.639, 28153.00
1230.716, 27923.00
1231.793, 27984.00
1232.869, 27916.00
1233.946, 27908.80
1235.022, 28220.00
1236.098, 28062.00
1237.174, 28138.00
1238.250, 28403.00
1239.325, 28977.00
1240.401, 28243.00
1241.476, 28246.00
1242.551, 28637.00
1243.626, 28024.00
1244.701, 28236.00
1245.776, 28097.00
1246.850, 28364.00
1247.924, 28179.00
1248.999, 28147.00
1250.073, 28388.00
1251.146, 28427.00
1252.220, 28375.00
1253.293, 28304.00
1254.367, 28421.00
1255.440, 28734.00
1256.513, 28284.00
1257.586, 28118.00
1258.658, 28383.00
1259.731, 28649.00
1260.803, 28562.00
1261.875, 28335.00
1262.947, 28473.00
1264.019, 28517.00
1265.091, 28782.00
1266.162, 28570.00
1267.234, 28721.00
