##NAMES=Magnesio-hastingsite
##RRUFFID=R070288
##IDEAL CHEMISTRY=NaCa_2_(Mg_4_Fe^3+^)Si_6_Al_2_O_22_(OH)_2_
##LOCALITY=Dallas Gem Mine (Gem Mine; Benitoite Mine), New Idria District, San Benito County, California, USA
##OWNER=RRUFF
##SOURCE=Michael Scott
##DESCRIPTION=Dark brown to black prismatic crystals frozen in albite
##STATUS=The identification of this mineral is confirmed by single-crystal X-ray diffraction and chemical analysis.
##URL=rruff.info/R070288
##MEASURED CHEMISTRY=(Na_0.51_[box]_0.33_K_0.16_)_Σ=1_(Ca_1.75_Na_0.25_)_Σ=2_(Mg_3.02_Fe^2+^_0.61_Ti_0.37_)_Σ=4_(Fe^3+^_0.73_Al_0.27_)_Σ=1_Si_5.84_Al_2.16_O_22_(OH)_2_; (OH) estimated by difference
##PIN_ID=M01712
##ORIENTATION=Laser parallel to (1 0 1). Fiducial mark perpendicular to laser is parallel to b [0 1 0]
130.2300, 7756.000
131.4640, 8474.000
132.6970, 9150.000
133.9300, 8415.000
135.1630, 7517.000
136.3950, 7581.000
137.6280, 8006.000
138.8600, 8397.000
140.0920, 8340.000
141.3240, 8260.000
142.5560, 7825.000
143.7880, 7845.000
145.0190, 7692.733
146.2510, 7768.091
147.4820, 7829.957
148.7130, 7879.089
149.9440, 7877.352
151.1750, 7941.302
152.4050, 7901.000
153.6360, 8205.000
154.8660, 8376.000
156.0960, 8515.000
157.3260, 8663.075
158.5560, 8698.000
159.7850, 8822.000
161.0150, 8860.000
162.2440, 8894.297
163.4730, 8848.352
164.7020, 8797.000
165.9310, 8660.231
167.1590, 8517.807
168.3880, 8387.097
169.6160, 8269.318
170.8440, 8113.485
172.0720, 8075.006
173.3000, 8031.198
174.5280, 8093.000
175.7550, 8009.000
176.9820, 8002.000
178.2100, 7963.448
179.4370, 8031.780
180.6630, 8078.567
181.8900, 8104.996
183.1170, 8136.276
184.3430, 8100.155
185.5690, 8169.000
186.7950, 8161.983
188.0210, 8184.042
189.2470, 8129.754
190.4720, 8106.977
191.6970, 7986.410
192.9230, 7994.028
194.1480, 7981.289
195.3730, 7887.159
196.5970, 7898.145
197.8220, 7849.000
199.0460, 7891.000
200.2700, 7793.823
201.4940, 7813.965
202.7180, 7794.701
203.9420, 7736.996
205.1660, 7590.000
206.3890, 7509.218
207.6120, 7609.000
208.8350, 7486.000
210.0580, 7578.000
211.2810, 7764.000
212.5040, 7904.000
213.7260, 8020.000
214.9480, 8210.000
216.1700, 8391.248
217.3920, 8587.271
218.6140, 8747.000
219.8360, 9135.000
221.0570, 9195.148
222.2790, 9694.000
223.5000, 9680.000
224.7210, 9722.000
225.9410, 9777.000
227.1620, 9654.000
228.3820, 9389.000
229.6030, 9268.000
230.8230, 8949.000
232.0430, 8832.000
233.2630, 8525.000
234.4820, 8380.000
235.7020, 8273.000
236.9210, 8134.000
238.1400, 7946.000
239.3590, 7823.000
240.5780, 7665.000
241.7970, 7594.456
243.0150, 7520.000
244.2340, 7477.000
245.4520, 7468.000
246.6700, 7398.000
247.8880, 7389.000
249.1060, 7317.300
250.3230, 7165.000
251.5400, 7165.000
252.7580, 7023.000
253.9750, 6913.000
255.1920, 6890.848
256.4080, 6913.000
257.6250, 6793.000
258.8410, 6769.000
260.0580, 6694.000
261.2740, 6670.000
262.4900, 6675.000
263.7050, 6660.000
264.9210, 6611.000
266.1360, 6624.000
267.3520, 6601.000
268.5670, 6642.000
269.7820, 6549.000
270.9960, 6490.000
272.2110, 6532.000
273.4250, 6426.000
274.6400, 6427.000
275.8540, 6426.000
277.0680, 6461.000
278.2810, 6438.000
279.4950, 6521.000
280.7090, 6518.003
281.9220, 6474.000
283.1350, 6557.000
284.3480, 6567.000
285.5610, 6586.000
286.7730, 6522.000
287.9860, 6520.000
289.1980, 6559.000
290.4100, 6626.000
291.6220, 6638.000
292.8340, 6680.522
294.0460, 6629.000
295.2570, 6690.000
296.4690, 6714.000
297.6800, 6617.000
298.8910, 6703.000
300.1020, 6678.000
301.3120, 6749.000
302.5230, 6672.000
303.7330, 6762.000
304.9440, 6788.000
306.1540, 6617.000
307.3630, 6817.000
308.5730, 6707.000
309.7830, 6657.000
310.9920, 6676.000
312.2010, 6729.000
313.4100, 6721.000
314.6190, 6649.000
315.8280, 6678.181
317.0370, 6685.782
318.2450, 6659.000
319.4530, 6759.000
320.6610, 6761.000
321.8690, 6807.000
323.0770, 6741.000
324.2850, 6702.000
325.4920, 6828.000
326.6990, 6838.000
327.9060, 6854.000
329.1130, 6797.000
330.3200, 6761.000
331.5270, 6921.000
332.7330, 6878.000
333.9390, 6873.000
335.1450, 6788.000
336.3510, 6793.000
337.5570, 6841.000
338.7630, 6772.000
339.9680, 6763.000
341.1740, 6775.000
342.3790, 6831.000
343.5840, 6858.000
344.7890, 6869.000
345.9930, 6785.000
347.1980, 6830.000
348.4020, 6644.000
349.6060, 6787.000
350.8100, 6736.000
352.0140, 6857.000
353.2180, 6835.000
354.4210, 6753.000
355.6250, 6980.000
356.8280, 6918.000
358.0310, 6944.000
359.2340, 6894.000
360.4360, 6985.460
361.6390, 7033.527
362.8410, 7074.392
364.0430, 7108.465
365.2450, 7115.408
366.4470, 7157.384
367.6490, 7185.321
368.8510, 7212.683
370.0520, 7259.563
371.2530, 7276.000
372.4540, 7290.000
373.6550, 7301.862
374.8560, 7340.053
376.0560, 7356.724
377.2570, 7353.013
378.4570, 7267.920
379.6570, 7287.927
380.8570, 7241.764
382.0570, 7255.598
383.2560, 7256.452
384.4560, 7244.697
385.6550, 7200.018
386.8540, 7184.567
388.0530, 7149.273
389.2520, 7107.600
390.4510, 7093.915
391.6490, 7030.625
392.8470, 6956.696
394.0450, 6896.000
395.2430, 6852.123
396.4410, 6811.000
397.6390, 6827.000
398.8360, 6854.000
400.0340, 6959.000
401.2310, 6802.000
402.4280, 6863.042
403.6250, 6879.000
404.8210, 6815.000
406.0180, 6880.055
407.2140, 6826.208
408.4100, 6835.000
409.6060, 6903.000
410.8020, 6879.000
411.9980, 6814.000
413.1930, 6832.000
414.3890, 6863.000
415.5840, 6839.000
416.7790, 6841.000
417.9740, 6862.000
419.1680, 6839.513
420.3630, 6849.679
421.5570, 6808.000
422.7510, 6736.000
423.9450, 6689.856
425.1390, 6664.008
426.3330, 6628.000
427.5270, 6580.824
428.7200, 6628.986
429.9130, 6654.456
431.1060, 6658.391
432.2990, 6579.771
433.4920, 6605.087
434.6840, 6587.128
435.8770, 6566.273
437.0690, 6602.902
438.2610, 6530.316
439.4530, 6563.693
440.6450, 6553.146
441.8360, 6561.022
443.0280, 6525.347
444.2190, 6501.614
445.4100, 6519.114
446.6010, 6511.982
447.7920, 6466.804
448.9820, 6364.000
450.1730, 6276.000
451.3630, 6183.000
452.5530, 6336.000
453.7430, 6393.000
454.9330, 6354.000
456.1230, 6223.999
457.3120, 6356.858
458.5010, 6430.511
459.6910, 6448.136
460.8800, 6241.939
462.0680, 6324.768
463.2570, 6291.766
464.4460, 6254.015
465.6340, 6377.522
466.8220, 6203.882
468.0100, 6324.832
469.1980, 6328.186
470.3860, 6385.361
471.5730, 6325.995
472.7600, 6302.625
473.9480, 6304.000
475.1350, 6207.000
476.3210, 6297.000
477.5080, 6351.000
478.6950, 6313.000
479.8810, 6152.000
481.0670, 6328.000
482.2530, 6244.000
483.4390, 6382.000
484.6250, 6475.000
485.8100, 6328.000
486.9960, 6345.150
488.1810, 6406.462
489.3660, 6450.869
490.5510, 6479.526
491.7360, 6431.415
492.9200, 6493.000
494.1050, 6517.114
495.2890, 6544.087
496.4730, 6634.315
497.6570, 6621.105
498.8400, 6680.048
500.0240, 6792.482
501.2070, 6883.336
502.3910, 6953.869
503.5740, 6942.960
504.7570, 7037.149
505.9400, 7089.221
507.1220, 7139.512
508.3050, 7222.000
509.4870, 7309.568
510.6690, 7290.000
511.8510, 7419.000
513.0330, 7539.000
514.2140, 7431.000
515.3960, 7549.000
516.5770, 7595.000
517.7580, 7652.000
518.9390, 7697.000
520.1200, 7597.000
521.3010, 7651.000
522.4810, 7636.000
523.6610, 7794.000
524.8420, 7827.000
526.0220, 7803.000
527.2010, 7739.000
528.3810, 7744.940
529.5610, 7768.288
530.7400, 7733.000
531.9190, 7821.000
533.0980, 7902.000
534.2770, 7843.000
535.4560, 7922.000
536.6340, 7981.000
537.8120, 7934.342
538.9910, 7941.000
540.1690, 7865.000
541.3460, 7966.000
542.5240, 7896.000
543.7020, 7900.000
544.8790, 7709.000
546.0560, 7883.000
547.2330, 7750.000
548.4100, 7850.000
549.5870, 7893.000
550.7630, 7885.000
551.9400, 7767.000
553.1160, 7865.000
554.2920, 7777.986
555.4680, 7835.511
556.6440, 7868.077
557.8190, 7876.839
558.9950, 7800.783
560.1700, 7826.401
561.3450, 7806.476
562.5200, 7781.399
563.6950, 7811.536
564.8690, 7730.212
566.0440, 7752.572
567.2180, 7728.770
568.3920, 7721.119
569.5660, 7667.672
570.7400, 7623.894
571.9130, 7580.324
573.0870, 7448.000
574.2600, 7459.000
575.4330, 7419.000
576.6060, 7331.000
577.7790, 7115.000
578.9520, 7094.000
580.1240, 6996.000
581.2960, 6884.000
582.4690, 6809.000
583.6410, 6724.000
584.8120, 6629.000
585.9840, 6562.453
587.1560, 6520.000
588.3270, 6413.525
589.4980, 6381.000
590.6690, 6296.000
591.8400, 6267.000
593.0110, 6185.626
594.1810, 6226.568
595.3510, 6245.981
596.5220, 6245.015
597.6920, 6162.665
598.8610, 6185.421
600.0310, 6166.051
601.2010, 6144.955
602.3700, 6182.503
603.5390, 6161.000
604.7080, 6225.000
605.8770, 6166.000
607.0460, 6167.000
608.2140, 6208.000
609.3830, 6105.000
610.5510, 6304.000
611.7190, 6201.000
612.8870, 6357.000
614.0550, 6388.000
615.2220, 6432.000
616.3900, 6452.000
617.5570, 6477.845
618.7240, 6504.356
619.8910, 6516.000
621.0580, 6554.000
622.2240, 6575.000
623.3910, 6614.000
624.5570, 6609.166
625.7230, 6759.617
626.8890, 6891.916
628.0550, 7006.654
629.2200, 7073.227
630.3860, 7185.064
631.5510, 7268.390
632.7160, 7343.479
633.8810, 7440.519
635.0460, 7476.168
636.2100, 7545.000
637.3750, 7747.000
638.5390, 7981.000
639.7030, 8037.000
640.8670, 8142.000
642.0310, 8365.000
643.1950, 8476.000
644.3580, 8617.000
645.5210, 8779.000
646.6850, 8887.000
647.8480, 8985.000
649.0100, 9074.000
650.1730, 9177.461
651.3350, 9244.075
652.4980, 9367.978
653.6600, 9472.750
654.8220, 9559.061
655.9840, 9596.392
657.1450, 9677.940
658.3070, 9730.210
659.4680, 9773.299
660.6300, 9837.473
661.7910, 9794.000
662.9510, 9790.000
664.1120, 9821.000
665.2730, 9679.000
666.4330, 9652.000
667.5930, 9552.000
668.7530, 9384.000
669.9130, 9231.000
671.0730, 9169.949
672.2320, 8948.717
673.3920, 8801.979
674.5510, 8610.000
675.7100, 8459.000
676.8690, 8385.000
678.0280, 8286.000
679.1860, 8183.000
680.3450, 8184.000
681.5030, 8020.000
682.6610, 7958.000
683.8190, 7882.000
684.9770, 7893.000
686.1340, 7757.000
687.2920, 7822.000
688.4490, 7631.000
689.6060, 7718.000
690.7630, 7758.000
691.9200, 7651.000
693.0760, 7670.000
694.2330, 7574.998
695.3890, 7425.000
696.5450, 7402.000
697.7010, 7335.000
698.8570, 7291.000
700.0130, 7287.000
701.1680, 7069.000
702.3230, 7019.000
703.4780, 7024.059
704.6330, 6979.860
705.7880, 7068.000
706.9430, 7048.000
708.0970, 7057.000
709.2520, 6986.822
710.4060, 7145.101
711.5600, 7244.173
712.7140, 7287.220
713.8670, 7106.423
715.0210, 7214.669
716.1740, 7207.068
717.3270, 7194.717
718.4800, 7343.622
719.6330, 7195.379
720.7860, 7341.728
721.9380, 7370.460
723.0910, 7453.034
724.2430, 7419.043
725.3950, 7421.051
726.5470, 7539.638
727.6980, 7393.992
728.8500, 7387.728
730.0010, 7508.627
731.1530, 7559.123
732.3040, 7498.940
733.4550, 7584.262
734.6050, 7409.598
735.7560, 7463.077
736.9060, 7614.970
738.0560, 7561.166
739.2060, 7648.797
740.3560, 7574.000
741.5060, 7571.495
742.6560, 7649.000
743.8050, 7607.000
744.9540, 7633.000
746.1030, 7649.000
747.2520, 7598.000
748.4010, 7519.000
749.5500, 7640.000
750.6980, 7637.000
751.8460, 7578.000
752.9950, 7714.000
754.1420, 7541.000
755.2900, 7657.000
756.4380, 7530.000
757.5850, 7648.000
758.7330, 7759.000
759.8800, 7782.000
761.0270, 7806.000
762.1730, 7781.000
763.3200, 7844.000
764.4670, 7775.000
765.6130, 7838.000
766.7590, 7833.000
767.9050, 7899.000
769.0510, 7947.000
770.1960, 8048.000
771.3420, 8083.000
772.4870, 8093.000
773.6320, 8153.000
774.7770, 8077.000
775.9220, 8278.000
777.0670, 8314.000
778.2110, 8456.000
779.3560, 8417.000
780.5000, 8429.000
781.6440, 8467.000
782.7880, 8622.000
783.9320, 8695.000
785.0750, 8671.000
786.2180, 8644.000
787.3620, 8806.000
788.5050, 8865.000
789.6480, 8914.000
790.7900, 8990.000
791.9330, 9011.737
793.0750, 9032.174
794.2170, 9052.250
795.3590, 9061.889
796.5010, 9060.764
797.6430, 9049.452
798.7850, 8997.445
799.9260, 8998.000
801.0670, 8977.497
802.2080, 8956.130
803.3490, 8964.083
804.4900, 8918.009
805.6310, 8925.496
806.7710, 8933.000
807.9110, 8876.000
809.0510, 8867.529
810.1910, 8839.000
811.3310, 8781.676
812.4710, 8803.118
813.6100, 8803.058
814.7490, 8782.622
815.8880, 8680.797
817.0270, 8684.071
818.1660, 8645.226
819.3050, 8604.653
820.4430, 8622.744
821.5820, 8532.757
822.7200, 8549.917
823.8580, 8524.315
824.9950, 8467.529
826.1330, 8404.199
827.2710, 8395.151
828.4080, 8273.747
829.5450, 8255.122
830.6820, 8189.384
831.8190, 8138.873
832.9560, 8041.631
834.0920, 7953.206
835.2280, 7902.829
836.3650, 8004.000
837.5010, 7835.000
838.6360, 7764.000
839.7720, 7586.000
840.9080, 7621.000
842.0430, 7563.000
843.1780, 7556.000
844.3130, 7523.943
845.4480, 7398.254
846.5830, 7458.000
847.7170, 7216.000
848.8520, 7200.000
849.9860, 7298.000
851.1200, 7237.000
852.2540, 7277.000
853.3870, 7358.000
854.5210, 7322.000
855.6540, 7273.000
856.7880, 7290.000
857.9210, 7197.000
859.0540, 7107.000
860.1860, 7096.000
861.3190, 7169.000
862.4510, 7143.135
863.5840, 7123.566
864.7160, 7234.000
865.8480, 7075.000
866.9790, 7172.000
868.1110, 7226.000
869.2420, 7210.000
870.3740, 7267.000
871.5050, 7173.000
872.6360, 7271.000
873.7660, 7161.000
874.8970, 7244.000
876.0280, 7328.000
877.1580, 7358.000
878.2880, 7312.000
879.4180, 7344.000
880.5480, 7360.000
881.6770, 7393.000
882.8070, 7321.000
883.9360, 7425.000
885.0650, 7436.541
886.1940, 7606.000
887.3230, 7564.000
888.4520, 7487.000
889.5800, 7589.000
890.7090, 7627.000
891.8370, 7669.000
892.9650, 7677.000
894.0930, 7748.000
895.2200, 7747.342
896.3480, 7720.000
897.4750, 7772.000
898.6020, 7814.000
899.7290, 7838.000
900.8560, 7756.000
901.9830, 7719.000
903.1090, 7791.000
904.2360, 7748.000
905.3620, 7871.000
906.4880, 7874.000
907.6140, 7789.000
908.7400, 7842.000
909.8650, 7780.000
910.9900, 7707.000
912.1160, 7861.000
913.2410, 7740.000
914.3660, 7784.000
915.4900, 7720.000
916.6150, 7821.000
917.7390, 7733.000
918.8640, 7711.000
919.9880, 7656.000
921.1120, 7696.859
922.2350, 7671.129
923.3590, 7761.000
924.4820, 7708.000
925.6060, 7617.000
926.7290, 7696.000
927.8520, 7691.000
928.9740, 7674.000
930.0970, 7637.000
931.2190, 7644.000
932.3420, 7606.000
933.4640, 7576.000
934.5860, 7640.000
935.7080, 7599.000
936.8290, 7773.000
937.9510, 7553.000
939.0720, 7736.000
940.1930, 7672.000
941.3140, 7736.000
942.4350, 7775.000
943.5560, 7761.000
944.6760, 7794.000
945.7960, 7766.000
946.9170, 7819.000
948.0370, 7857.000
949.1560, 7779.000
950.2760, 7799.000
951.3960, 7959.000
952.5150, 7882.387
953.6340, 7955.000
954.7530, 7873.000
955.8720, 7858.000
956.9910, 7851.000
958.1090, 7851.530
959.2280, 7929.000
960.3460, 7901.000
961.4640, 8016.000
962.5820, 8035.000
963.6990, 7898.000
964.8170, 8056.000
965.9340, 7996.540
967.0510, 7993.584
968.1690, 8005.000
969.2850, 8011.000
970.4020, 8001.000
971.5190, 8070.000
972.6350, 8127.000
973.7510, 8070.217
974.8670, 8097.262
975.9830, 8082.000
977.0990, 7999.000
978.2150, 8245.000
979.3300, 8106.000
980.4450, 8078.000
981.5600, 8209.000
982.6750, 8185.000
983.7900, 8295.000
984.9050, 8258.000
986.0190, 8369.000
987.1340, 8349.000
988.2480, 8467.000
989.3620, 8355.000
990.4750, 8332.000
991.5890, 8451.000
992.7020, 8491.000
993.8160, 8525.000
994.9290, 8548.000
996.0420, 8649.000
997.1550, 8704.446
998.2670, 8783.416
999.3800, 8865.382
1000.492, 8936.531
1001.604, 8997.496
1002.716, 9056.944
1003.828, 9090.584
1004.940, 9142.344
1006.051, 9159.000
1007.163, 9165.000
1008.274, 9250.291
1009.385, 9250.000
1010.496, 9306.000
1011.606, 9289.000
1012.717, 9315.989
1013.827, 9279.745
1014.937, 9307.000
1016.047, 9207.000
1017.157, 9109.000
1018.267, 9112.655
1019.377, 9136.066
1020.486, 9132.600
1021.595, 9103.669
1022.704, 8972.998
1023.813, 8973.701
1024.922, 8921.755
1026.030, 8867.684
1027.139, 8886.878
1028.247, 8771.042
1029.355, 8789.107
1030.463, 8753.720
1031.571, 8742.797
1032.678, 8678.937
1033.786, 8631.401
1034.893, 8636.896
1036.000, 8463.141
1037.107, 8489.000
1038.214, 8516.000
1039.321, 8310.000
1040.427, 8364.600
1041.533, 8427.000
1042.639, 8278.000
1043.745, 8250.000
1044.851, 8140.058
1045.957, 8170.000
1047.062, 8137.000
1048.168, 8112.000
1049.273, 8161.000
1050.378, 8053.000
1051.482, 8093.000
1052.587, 7947.000
1053.692, 8003.000
1054.796, 7975.125
1055.900, 7943.373
1057.004, 8022.000
1058.108, 7885.000
1059.212, 7998.000
1060.315, 7882.000
1061.418, 7862.000
1062.522, 7748.000
1063.625, 7717.479
1064.728, 7772.000
1065.830, 7665.000
1066.933, 7693.000
1068.035, 7708.000
1069.137, 7701.000
1070.239, 7713.000
1071.341, 7722.000
1072.443, 7679.000
1073.545, 7747.000
1074.646, 7684.360
1075.747, 7675.000
1076.848, 7538.000
1077.949, 7553.875
1079.050, 7549.000
1080.150, 7521.000
1081.251, 7526.000
1082.351, 7485.000
1083.451, 7490.000
1084.551, 7448.000
1085.651, 7535.000
1086.750, 7468.390
1087.850, 7520.000
1088.949, 7399.000
1090.048, 7338.000
1091.147, 7314.000
1092.246, 7266.490
1093.345, 7294.000
1094.443, 7261.000
1095.541, 7304.000
1096.639, 7346.000
1097.737, 7228.000
1098.835, 7181.000
1099.933, 7174.000
1101.030, 7151.000
1102.128, 7264.000
1103.225, 7121.000
1104.322, 7194.000
1105.419, 7065.000
1106.515, 7115.000
1107.612, 7074.000
1108.708, 7136.000
1109.804, 6971.000
1110.900, 7099.000
1111.996, 7052.000
1113.092, 6901.000
1114.187, 7077.000
1115.283, 7008.000
1116.378, 6945.000
1117.473, 6968.000
1118.568, 6916.372
1119.662, 7011.000
1120.757, 6916.000
1121.851, 6946.000
1122.946, 7019.000
1124.040, 7006.000
1125.134, 7020.493
1126.227, 6935.000
1127.321, 6989.000
1128.414, 6927.000
1129.508, 6884.000
1130.601, 6830.000
1131.693, 6888.000
1132.786, 6751.000
1133.879, 6858.000
1134.971, 6826.874
1136.064, 6965.000
1137.156, 6816.000
1138.248, 6920.000
1139.339, 6867.000
1140.431, 6793.000
1141.522, 6817.000
1142.614, 6808.000
1143.705, 6733.000
1144.796, 6701.000
1145.887, 6703.000
1146.977, 6754.000
1148.068, 6724.000
1149.158, 6753.539
1150.248, 6793.000
1151.338, 6837.000
1152.428, 6826.125
1153.518, 6873.000
1154.607, 6780.000
1155.696, 6760.000
1156.785, 6690.000
1157.874, 6717.000
1158.963, 6770.000
1160.052, 6712.000
1161.141, 6737.429
1162.229, 6694.000
1163.317, 6687.000
1164.405, 6681.000
1165.493, 6593.000
1166.581, 6582.000
1167.668, 6771.000
1168.756, 6696.000
1169.843, 6790.000
1170.930, 6604.000
1172.017, 6600.000
1173.103, 6656.000
1174.190, 6756.000
1175.276, 6722.000
1176.363, 6750.000
1177.449, 6754.000
1178.535, 6862.708
1179.620, 6808.920
1180.706, 6794.592
1181.791, 6736.000
1182.877, 6713.000
1183.962, 6651.000
1185.047, 6671.000
1186.131, 6674.000
1187.216, 6710.000
1188.300, 6759.000
1189.385, 6818.000
1190.469, 6804.289
1191.553, 6820.234
1192.637, 6772.000
1193.720, 6782.000
1194.804, 6757.000
1195.887, 6711.000
1196.970, 6752.000
1198.053, 6722.796
1199.136, 6760.110
1200.219, 6680.000
1201.301, 6832.000
1202.383, 6740.000
1203.465, 6748.000
1204.547, 6682.000
1205.629, 6814.000
1206.711, 6693.000
1207.792, 6772.000
1208.874, 6768.000
1209.955, 6796.000
1211.036, 6778.000
1212.117, 6752.000
1213.198, 6732.000
1214.278, 6813.000
1215.359, 6654.000
1216.439, 6713.000
1217.519, 6807.000
1218.599, 6734.000
1219.678, 6736.000
1220.758, 6705.000
1221.837, 6836.000
1222.917, 6918.000
1223.996, 6788.000
1225.075, 6882.000
1226.153, 6799.000
1227.232, 6866.000
1228.310, 6834.000
1229.389, 6737.000
1230.467, 6766.000
1231.545, 6801.000
1232.622, 6773.000
1233.700, 6865.000
1234.777, 6831.000
1235.855, 6814.000
1236.932, 6918.000
1238.009, 6875.062
1239.086, 6800.000
1240.162, 6845.000
1241.239, 6867.000
1242.315, 6771.000
1243.391, 6830.000
1244.467, 6907.000
1245.543, 6803.323
1246.619, 6888.787
1247.694, 6938.364
1248.769, 6953.987
1249.844, 6833.958
1250.919, 6889.095
1251.994, 6874.034
1253.069, 6856.094
1254.144, 6935.886
1255.218, 6835.584
1256.292, 6913.822
1257.366, 6920.790
1258.440, 6960.376
1259.514, 6929.332
1260.587, 6920.099
1261.661, 6981.524
1262.734, 7003.824
1263.807, 6964.645
1264.880, 7006.301
1265.952, 6903.526
1267.025, 6927.492
1268.097, 7006.137
1269.170, 6970.509
1270.242, 7013.454
1271.314, 7026.473
1272.385, 6903.486
1273.457, 7017.024
1274.528, 7028.271
1275.600, 6934.494
1276.671, 7039.925
1277.742, 6960.624
1278.812, 6901.000
1279.883, 7001.000
1280.954, 6937.000
1282.024, 6921.499
1283.094, 6962.493
1284.164, 6883.000
1285.234, 6970.000
1286.303, 7016.000
1287.373, 6963.000
1288.442, 6979.000
1289.511, 6976.000
1290.580, 7034.000
1291.649, 6960.000
1292.718, 7005.000
