##NAMES=Magnesiotaaffeite-6N3S
##RRUFFID=X070005
##IDEAL CHEMISTRY=Mg_2_BeAl_6_O_12_
##LOCALITY=Tunduru, Tanzania
##OWNER=www.multicolour.com
##SOURCE=www.multicolour.com
##DESCRIPTION=Pale lavendar cut gemstone, 0.65 cts, formerly known as musgravite-18R
##STATUS=The identification of this mineral has been confirmed by single-crystal X-ray diffraction.
##URL=rruff.info/X070005
162.6361, 19898.84
163.1183, 19887.35
163.6004, 19939.87
164.0825, 19998.27
164.5646, 20027.97
165.0467, 20014.01
165.5288, 19980.10
166.0110, 19920.67
166.4931, 19842.96
166.9752, 19784.31
167.4573, 19776.78
167.9394, 19792.41
168.4215, 19802.36
168.9037, 19797.88
169.3858, 19782.98
169.8679, 19756.29
170.3500, 19716.76
170.8321, 19677.64
171.3142, 19639.47
171.7964, 19607.71
172.2785, 19592.57
172.7606, 19623.59
173.2427, 19662.27
173.7248, 19666.72
174.2069, 19621.87
174.6891, 19569.76
175.1712, 19545.78
175.6533, 19546.03
176.1354, 19554.36
176.6175, 19572.76
177.0996, 19590.68
177.5818, 19588.89
178.0639, 19542.98
178.5460, 19493.04
179.0281, 19499.33
179.5102, 19559.01
179.9923, 19618.25
180.4745, 19623.20
180.9566, 19589.90
181.4387, 19558.67
181.9208, 19553.17
182.4029, 19557.89
182.8850, 19538.49
183.3672, 19489.47
183.8493, 19442.24
184.3314, 19447.39
184.8135, 19494.85
185.2956, 19529.37
185.7777, 19506.99
186.2599, 19447.80
186.7420, 19412.41
187.2241, 19416.92
187.7062, 19433.22
188.1883, 19404.67
188.6705, 19332.29
189.1526, 19266.20
189.6347, 19256.64
190.1168, 19292.43
190.5989, 19308.83
191.0810, 19283.72
191.5632, 19233.64
192.0453, 19204.12
192.5274, 19196.90
193.0095, 19200.82
193.4916, 19211.00
193.9737, 19226.89
194.4559, 19231.28
194.9380, 19211.66
195.4201, 19172.35
195.9022, 19145.51
196.3843, 19131.74
196.8664, 19129.11
197.3486, 19136.38
197.8307, 19153.69
198.3128, 19175.97
198.7949, 19198.08
199.2770, 19219.85
199.7591, 19259.18
200.2413, 19328.55
200.7234, 19403.94
201.2055, 19414.11
201.6876, 19343.86
202.1697, 19272.34
202.6518, 19262.30
203.1340, 19322.21
203.6161, 19358.73
204.0982, 19345.58
204.5803, 19296.32
205.0624, 19292.67
205.5445, 19347.79
206.0267, 19417.04
206.5088, 19461.08
206.9909, 19479.54
207.4730, 19475.01
207.9551, 19442.74
208.4372, 19382.69
208.9194, 19327.39
209.4015, 19275.53
209.8836, 19231.17
210.3657, 19204.07
210.8478, 19184.59
211.3299, 19200.52
211.8121, 19210.15
212.2942, 19213.82
212.7763, 19193.69
213.2584, 19204.29
213.7405, 19202.58
214.2226, 19200.36
214.7048, 19215.29
215.1869, 19198.62
215.6690, 19213.27
216.1511, 19215.43
216.6332, 19223.30
217.1153, 19218.78
217.5975, 19218.09
218.0796, 19229.80
218.5617, 19234.64
219.0438, 19228.70
219.5259, 19236.94
220.0080, 19219.83
220.4902, 19251.48
220.9723, 19277.12
221.4544, 19307.97
221.9365, 19319.56
222.4186, 19301.83
222.9007, 19277.04
223.3829, 19271.93
223.8650, 19298.82
224.3471, 19320.47
224.8292, 19324.33
225.3113, 19305.24
225.7934, 19304.06
226.2756, 19324.36
226.7577, 19360.69
227.2398, 19406.05
227.7219, 19470.12
228.2040, 19526.95
228.6861, 19566.03
229.1683, 19578.58
229.6504, 19595.58
230.1325, 19616.12
230.6146, 19640.52
231.0967, 19671.07
231.5789, 19707.01
232.0610, 19749.01
232.5431, 19795.61
233.0252, 19840.26
233.5073, 19904.93
233.9894, 20003.72
234.4716, 20126.08
234.9537, 20218.24
235.4358, 20258.83
235.9179, 20296.43
236.4000, 20362.46
236.8821, 20457.71
237.3643, 20579.47
237.8464, 20732.92
238.3285, 20915.61
238.8106, 21099.99
239.2927, 21288.13
239.7748, 21475.47
240.2570, 21666.62
240.7391, 21918.25
241.2212, 22072.30
241.7033, 22097.98
242.1854, 21991.39
242.6675, 21774.46
243.1497, 21381.63
243.6318, 20929.50
244.1139, 20565.65
244.5960, 20307.38
245.0781, 20109.50
245.5602, 19967.51
246.0424, 19892.47
246.5245, 19831.24
247.0066, 19779.72
247.4887, 19744.06
247.9708, 19742.55
248.4529, 19808.46
248.9351, 19855.24
249.4172, 19841.38
249.8993, 19722.72
250.3814, 19651.84
250.8635, 19650.80
251.3456, 19692.84
251.8278, 19699.68
252.3099, 19643.70
252.7920, 19593.57
253.2741, 19591.17
253.7562, 19673.55
254.2383, 19715.15
254.7205, 19688.80
255.2026, 19613.81
255.6847, 19583.54
256.1668, 19618.65
256.6489, 19669.17
257.1310, 19700.55
257.6132, 19698.83
258.0953, 19711.48
258.5774, 19746.30
259.0595, 19801.68
259.5416, 19860.43
260.0237, 19926.12
260.5059, 19990.46
260.9880, 20044.28
261.4701, 20079.88
261.9522, 20125.19
262.4343, 20186.79
262.9164, 20264.72
263.3986, 20344.54
263.8807, 20424.85
264.3628, 20509.95
264.8449, 20609.79
265.3270, 20741.58
265.8091, 20843.39
266.2913, 20899.96
266.7734, 20908.90
267.2555, 20886.92
267.7376, 20829.37
268.2197, 20745.18
268.7018, 20637.61
269.1840, 20494.42
269.6661, 20365.87
270.1482, 20277.14
270.6303, 20235.99
271.1124, 20166.69
271.5945, 20056.58
272.0767, 19934.89
272.5588, 19845.84
273.0409, 19791.96
273.5230, 19766.90
274.0051, 19781.69
274.4872, 19848.47
274.9694, 19872.12
275.4515, 19839.14
275.9336, 19778.33
276.4157, 19749.31
276.8978, 19758.66
277.3799, 19771.83
277.8621, 19767.09
278.3442, 19740.82
278.8263, 19730.81
279.3084, 19740.62
279.7905, 19764.79
280.2726, 19799.24
280.7548, 19849.22
281.2369, 19880.72
281.7190, 19860.51
282.2011, 19786.07
282.6832, 19735.85
283.1653, 19723.23
283.6475, 19735.46
284.1296, 19744.20
284.6117, 19750.26
285.0938, 19750.15
285.5759, 19740.94
286.0580, 19723.35
286.5402, 19702.27
287.0223, 19678.64
287.5044, 19653.40
287.9865, 19624.54
288.4686, 19591.20
288.9507, 19568.00
289.4329, 19573.15
289.9150, 19603.11
290.3971, 19627.81
290.8792, 19641.29
291.3614, 19645.40
291.8435, 19639.66
292.3256, 19623.00
292.8077, 19612.56
293.2898, 19634.91
293.7719, 19680.91
294.2541, 19702.91
294.7362, 19668.92
295.2183, 19614.83
295.7004, 19624.23
296.1825, 19698.12
296.6646, 19786.07
297.1468, 19841.00
297.6289, 19871.54
298.1110, 19905.66
298.5931, 19952.81
299.0752, 20007.82
299.5573, 20064.88
300.0395, 20123.54
300.5216, 20179.08
301.0037, 20214.37
301.4858, 20241.71
301.9679, 20291.95
302.4500, 20402.39
302.9322, 20529.23
303.4143, 20613.49
303.8964, 20656.03
304.3785, 20668.44
304.8606, 20638.58
305.3427, 20586.95
305.8249, 20553.02
306.3070, 20558.95
306.7891, 20587.41
307.2712, 20617.10
307.7533, 20647.56
308.2354, 20692.96
308.7176, 20766.51
309.1997, 20861.65
309.6818, 20966.09
310.1639, 21095.07
310.6460, 21219.13
311.1281, 21299.23
311.6103, 21332.70
312.0924, 21381.99
312.5745, 21501.37
313.0566, 21659.97
313.5387, 21811.09
314.0208, 21964.46
314.5030, 22084.88
314.9851, 22153.06
315.4672, 22168.64
315.9493, 22133.74
316.4314, 22040.94
316.9135, 21902.23
317.3957, 21730.92
317.8778, 21509.04
318.3599, 21275.66
318.8420, 21037.76
319.3241, 20792.88
319.8062, 20583.46
320.2884, 20418.66
320.7705, 20296.57
321.2526, 20213.66
321.7347, 20178.10
322.2168, 20171.78
322.6989, 20204.25
323.1811, 20289.37
323.6632, 20331.49
324.1453, 20269.13
324.6274, 20165.48
325.1095, 20097.42
325.5916, 20102.58
326.0738, 20122.96
326.5559, 20148.39
327.0380, 20184.12
327.5201, 20203.43
328.0022, 20201.63
328.4843, 20184.65
328.9665, 20159.67
329.4486, 20106.34
329.9307, 20066.42
330.4128, 20052.27
330.8949, 20071.99
331.3770, 20085.16
331.8592, 20093.38
332.3413, 20093.87
332.8234, 20080.97
333.3055, 20031.33
333.7876, 19999.62
334.2697, 20000.35
334.7519, 20037.46
335.2340, 20084.44
335.7161, 20151.48
336.1982, 20218.93
336.6803, 20260.78
337.1624, 20268.97
337.6446, 20268.81
338.1267, 20272.25
338.6088, 20282.13
339.0909, 20248.18
339.5730, 20154.36
340.0551, 20040.61
340.5373, 19950.62
341.0194, 19884.12
341.5015, 19843.69
341.9836, 19838.02
342.4657, 19865.04
342.9478, 19880.30
343.4300, 19884.37
343.9121, 19875.77
344.3942, 19844.63
344.8763, 19789.57
345.3584, 19748.71
345.8405, 19739.23
346.3227, 19754.47
346.8048, 19758.88
347.2869, 19750.25
347.7690, 19742.68
348.2511, 19753.26
348.7332, 19779.48
349.2154, 19805.38
349.6975, 19825.66
350.1796, 19841.36
350.6617, 19854.36
351.1438, 19864.29
351.6259, 19874.40
352.1081, 19884.84
352.5902, 19897.54
353.0723, 19912.80
353.5544, 19942.30
354.0365, 19965.51
354.5186, 19982.75
355.0008, 19976.20
355.4829, 20000.38
355.9650, 20012.24
356.4471, 20023.60
356.9292, 20052.10
357.4113, 20049.01
357.8935, 20077.25
358.3756, 20092.98
358.8577, 20114.43
359.3398, 20123.49
359.8219, 20136.37
360.3040, 20161.66
360.7862, 20180.08
361.2683, 20187.71
361.7504, 20209.53
362.2325, 20206.00
362.7146, 20224.71
363.1967, 20253.02
363.6789, 20261.28
364.1610, 20283.32
364.6431, 20300.11
365.1252, 20293.04
365.6073, 20327.47
366.0894, 20343.95
366.5716, 20342.01
367.0537, 20375.02
367.5358, 20376.96
368.0179, 20401.53
368.5000, 20420.26
368.9821, 20437.53
369.4643, 20442.77
369.9464, 20424.74
370.4285, 20392.18
370.9106, 20377.83
371.3927, 20390.34
371.8748, 20415.13
372.3570, 20447.10
372.8391, 20494.31
373.3212, 20537.20
373.8033, 20571.24
374.2855, 20603.13
374.7676, 20653.54
375.2497, 20739.10
375.7318, 20816.26
376.2139, 20862.83
376.6960, 20866.15
377.1782, 20888.31
377.6603, 20938.53
378.1424, 20998.45
378.6245, 21033.85
379.1066, 21043.60
379.5887, 21030.13
380.0709, 20994.78
380.5530, 20936.37
381.0351, 20838.18
381.5172, 20627.35
381.9993, 20653.96
382.4814, 20661.29
382.9636, 20650.39
383.4457, 20566.63
383.9278, 20576.95
384.4099, 20549.57
384.8920, 20520.64
385.3741, 20544.21
385.8563, 20471.04
386.3384, 20493.77
386.8205, 20478.22
387.3026, 20480.19
387.7847, 20444.23
388.2668, 20419.98
388.7490, 20433.67
389.2311, 20426.36
389.7132, 20386.03
390.1953, 20443.57
390.6774, 20521.52
391.1595, 20587.06
391.6417, 20606.60
392.1238, 20626.35
392.6059, 20677.84
393.0880, 20759.77
393.5701, 20856.09
394.0522, 20954.24
394.5344, 21064.52
395.0165, 21196.29
395.4986, 21368.79
395.9807, 21544.25
396.4628, 21692.80
396.9449, 21825.70
397.4271, 22000.79
397.9092, 22234.81
398.3913, 22513.00
398.8734, 22826.47
399.3555, 23160.51
399.8376, 23546.36
400.3198, 24009.06
400.8019, 24528.97
401.2840, 25042.62
401.7661, 25538.38
402.2482, 26038.38
402.7303, 26555.96
403.2125, 27122.89
403.6946, 27646.13
404.1767, 28150.37
404.6588, 28605.77
405.1409, 28945.04
405.6230, 29157.68
406.1052, 29285.81
406.5873, 29315.04
407.0694, 29226.52
407.5515, 29205.68
408.0336, 29228.81
408.5157, 29361.57
408.9979, 29688.13
409.4800, 30210.28
409.9621, 30901.51
410.4442, 31790.26
410.9263, 32840.50
411.4084, 33970.52
411.8906, 35186.88
412.3727, 36358.60
412.8548, 37432.24
413.3369, 38363.57
413.8190, 38970.07
414.3011, 39283.41
414.7833, 39170.92
415.2654, 38336.68
415.7475, 36821.90
416.2296, 34993.34
416.7117, 32854.91
417.1938, 30651.29
417.6760, 28690.57
418.1581, 27038.35
418.6402, 25663.52
419.1223, 24574.13
419.6044, 23749.74
420.0865, 23101.59
420.5687, 22684.54
421.0508, 22374.66
421.5329, 22091.52
422.0150, 21812.82
422.4971, 21570.72
422.9792, 21377.72
423.4614, 21227.77
423.9435, 21102.75
424.4256, 21007.42
424.9077, 20927.97
425.3898, 20860.90
425.8719, 20811.15
426.3541, 20760.41
426.8362, 20691.22
427.3183, 20628.08
427.8004, 20600.84
428.2825, 20639.13
428.7646, 20669.63
429.2468, 20674.83
429.7289, 20653.89
430.2110, 20635.12
430.6931, 20613.52
431.1752, 20601.77
431.6573, 20611.44
432.1395, 20643.53
432.6216, 20691.89
433.1037, 20754.77
433.5858, 20833.10
434.0679, 20938.13
434.5500, 21072.77
435.0322, 21209.85
435.5143, 21324.63
435.9964, 21421.87
436.4785, 21524.40
436.9606, 21634.63
437.4427, 21752.30
437.9249, 21871.37
438.4070, 21996.09
438.8891, 22139.60
439.3712, 22316.75
439.8533, 22515.89
440.3354, 22716.03
440.8176, 22910.93
441.2997, 23129.84
441.7818, 23378.01
442.2639, 23669.46
442.7460, 24025.64
443.2281, 24490.08
443.7103, 24992.88
444.1924, 25503.13
444.6745, 26019.50
445.1566, 26526.15
445.6387, 27072.64
446.1208, 27582.30
446.6030, 27982.13
447.0851, 28319.83
447.5672, 28478.77
448.0493, 28432.93
448.5314, 28183.81
449.0135, 27766.30
449.4957, 27097.13
449.9778, 26338.98
450.4599, 25551.17
450.9420, 24629.80
451.4241, 23902.78
451.9063, 23406.34
452.3884, 23087.58
452.8705, 22834.57
453.3526, 22647.05
453.8347, 22521.46
454.3168, 22471.77
454.7990, 22500.69
455.2811, 22527.46
455.7632, 22553.85
456.2453, 22574.00
456.7274, 22587.25
457.2096, 22591.61
457.6917, 22565.07
458.1738, 22498.80
458.6559, 22396.76
459.1380, 22264.79
459.6201, 22104.98
460.1023, 21914.15
460.5844, 21655.74
461.0665, 21372.11
461.5486, 21141.73
462.0307, 20997.37
462.5128, 20888.74
462.9950, 20772.12
463.4771, 20655.51
463.9592, 20571.32
464.4413, 20558.16
464.9234, 20566.17
465.4055, 20558.62
465.8877, 20517.96
466.3698, 20493.96
466.8519, 20519.60
467.3340, 20566.68
467.8161, 20592.64
468.2982, 20563.06
468.7804, 20539.75
469.2625, 20543.77
469.7446, 20580.36
470.2267, 20599.70
470.7088, 20581.04
471.1909, 20565.31
471.6731, 20591.72
472.1552, 20680.47
472.6373, 20757.69
473.1194, 20804.45
473.6015, 20834.18
474.0836, 20904.29
474.5658, 21022.15
475.0479, 21146.19
475.5300, 21240.73
476.0121, 21310.52
476.4942, 21409.14
476.9763, 21541.63
477.4585, 21701.08
477.9406, 21881.47
478.4227, 22082.15
478.9048, 22295.49
479.3869, 22507.13
479.8690, 22735.66
480.3512, 23010.78
480.8333, 23333.86
481.3154, 23679.88
481.7975, 24047.68
482.2796, 24423.18
482.7617, 24789.24
483.2439, 25179.43
483.7260, 25524.62
484.2081, 25799.12
484.6902, 26004.38
485.1723, 26147.28
485.6544, 26202.58
486.1366, 26214.22
486.6187, 26199.66
487.1008, 26118.71
487.5829, 26083.43
488.0650, 26085.15
488.5471, 26136.23
489.0293, 26254.50
489.5114, 26417.84
489.9935, 26682.79
490.4756, 27073.33
490.9577, 27583.53
491.4398, 28186.64
491.9220, 28910.89
492.4041, 29668.00
492.8862, 30415.83
493.3683, 31159.38
493.8504, 31786.39
494.3326, 32310.42
494.8147, 32675.19
495.2968, 32825.34
495.7789, 32752.35
496.2610, 32363.83
496.7431, 31495.88
497.2253, 30297.82
497.7074, 28942.94
498.1895, 27396.55
498.6716, 25952.89
499.1537, 24798.56
499.6358, 23899.62
500.1180, 23171.25
500.6001, 22662.80
501.0822, 22254.19
501.5643, 21886.58
502.0464, 21557.67
502.5285, 21307.92
503.0107, 21204.74
503.4928, 21151.54
503.9749, 21079.00
504.4570, 20945.80
504.9391, 20835.34
505.4212, 20756.42
505.9034, 20702.39
506.3855, 20652.56
506.8676, 20603.71
507.3497, 20566.29
507.8318, 20549.34
508.3139, 20557.22
508.7961, 20550.43
509.2782, 20526.21
509.7603, 20494.74
510.2424, 20468.81
510.7245, 20448.46
511.2066, 20422.53
511.6888, 20378.01
512.1709, 20332.94
512.6530, 20333.65
513.1351, 20376.46
513.6172, 20418.16
514.0994, 20422.43
514.5815, 20406.55
515.0636, 20395.28
515.5457, 20392.74
516.0278, 20393.61
516.5099, 20388.66
516.9921, 20385.10
517.4742, 20396.08
517.9563, 20459.96
518.4384, 20510.63
518.9205, 20509.97
519.4026, 20453.24
519.8848, 20413.97
520.3669, 20405.35
520.8490, 20420.26
521.3311, 20453.94
521.8132, 20520.10
522.2953, 20585.02
522.7775, 20649.37
523.2596, 20711.13
523.7417, 20758.69
524.2238, 20782.77
524.7059, 20819.34
525.1880, 20890.84
525.6702, 20995.33
526.1523, 21086.79
526.6344, 21163.50
527.1165, 21227.54
527.5986, 21269.10
528.0807, 21295.67
528.5629, 21343.73
529.0450, 21457.88
529.5271, 21563.57
530.0092, 21550.91
530.4913, 21436.42
530.9734, 21296.40
531.4556, 21163.93
531.9377, 21036.38
532.4198, 20909.04
532.9019, 20778.08
533.3840, 20663.84
533.8661, 20572.39
534.3483, 20504.47
534.8304, 20461.07
535.3125, 20455.34
535.7946, 20459.75
536.2767, 20469.88
536.7589, 20485.07
537.2410, 20502.93
537.7231, 20525.73
538.2052, 20546.60
538.6873, 20560.45
539.1694, 20565.25
539.6516, 20569.85
540.1337, 20575.81
540.6158, 20579.30
541.0979, 20577.65
541.5800, 20570.70
542.0621, 20546.30
542.5443, 20490.24
543.0264, 20416.26
543.5085, 20351.74
543.9906, 20296.84
544.4727, 20257.12
544.9548, 20244.37
545.4370, 20247.72
545.9191, 20260.34
546.4012, 20272.71
546.8833, 20278.77
547.3654, 20278.88
547.8475, 20255.18
548.3297, 20262.22
548.8118, 20256.94
549.2939, 20251.16
549.7760, 20262.53
550.2581, 20242.29
550.7402, 20253.38
551.2224, 20251.97
551.7045, 20256.29
552.1866, 20248.20
552.6687, 20243.95
553.1508, 20252.09
553.6329, 20253.38
554.1151, 20243.87
554.5972, 20248.54
555.0793, 20227.87
555.5614, 20229.44
556.0435, 20240.61
556.5256, 20231.73
557.0078, 20236.63
557.4899, 20236.28
557.9720, 20212.06
558.4541, 20229.36
558.9362, 20188.11
559.4183, 20186.97
559.9005, 20202.69
560.3826, 20230.17
560.8647, 20275.96
561.3468, 20332.52
561.8289, 20377.08
562.3110, 20389.74
562.7932, 20398.27
563.2753, 20410.26
563.7574, 20420.82
564.2395, 20460.15
564.7216, 20553.65
565.2037, 20659.72
565.6859, 20734.77
566.1680, 20751.43
566.6501, 20807.66
567.1322, 20926.40
567.6143, 21085.67
568.0964, 21220.31
568.5786, 21326.05
569.0607, 21429.10
569.5428, 21533.06
570.0249, 21642.62
570.5070, 21780.30
570.9891, 21947.28
571.4713, 22116.71
571.9534, 22244.53
572.4355, 22358.69
572.9176, 22508.14
573.3997, 22729.12
573.8818, 22960.20
574.3640, 23162.07
574.8461, 23343.49
575.3282, 23535.01
575.8103, 23771.41
576.2924, 23998.14
576.7745, 24201.53
577.2567, 24383.65
577.7388, 24510.99
578.2209, 24567.17
578.7030, 24584.73
579.1851, 24598.42
579.6672, 24632.47
580.1494, 24587.75
580.6315, 24437.74
581.1136, 24213.28
581.5957, 23998.58
582.0778, 23793.45
582.5599, 23569.72
583.0421, 23295.31
583.5242, 22990.91
584.0063, 22701.64
584.4884, 22426.31
584.9705, 22188.10
585.4526, 22022.99
585.9348, 21895.37
586.4169, 21752.86
586.8990, 21562.27
587.3811, 21387.48
587.8632, 21265.99
588.3453, 21183.05
588.8275, 21106.99
589.3096, 21030.76
589.7917, 20960.18
590.2738, 20894.66
590.7559, 20833.18
591.2380, 20795.56
591.7202, 20800.66
592.2023, 20806.15
592.6844, 20775.28
593.1665, 20700.08
593.6486, 20648.95
594.1307, 20632.50
594.6129, 20634.10
595.0950, 20625.92
595.5771, 20609.69
596.0592, 20597.78
596.5413, 20592.21
597.0234, 20595.82
597.5056, 20611.57
597.9877, 20639.41
598.4698, 20681.06
598.9519, 20757.52
599.4340, 20836.32
599.9161, 20881.80
600.3983, 20866.48
600.8804, 20873.72
601.3625, 20950.46
601.8446, 21056.23
602.3267, 21135.82
602.8088, 21173.59
603.2910, 21201.52
603.7731, 21217.07
604.2552, 21225.46
604.7373, 21259.27
605.2194, 21327.71
605.7015, 21392.88
606.1837, 21439.36
606.6658, 21466.58
607.1479, 21454.63
607.6300, 21399.01
608.1121, 21330.68
608.5942, 21280.32
609.0764, 21243.91
609.5585, 21212.90
610.0406, 21176.84
610.5227, 21156.39
611.0048, 21178.44
611.4869, 21230.12
611.9691, 21276.68
612.4512, 21289.29
612.9333, 21306.12
613.4154, 21344.62
613.8975, 21408.04
614.3796, 21475.67
614.8618, 21518.71
615.3439, 21589.04
615.8260, 21735.77
616.3081, 21989.03
616.7902, 22204.50
617.2723, 22363.28
617.7545, 22494.43
618.2366, 22650.25
618.7187, 22831.16
619.2008, 23016.51
619.6829, 23205.01
620.1650, 23388.06
620.6472, 23566.84
621.1293, 23737.15
621.6114, 23871.08
622.0935, 23957.32
622.5756, 23994.71
623.0577, 23973.66
623.5399, 23878.21
624.0220, 23777.26
624.5041, 23725.03
624.9862, 23666.54
625.4683, 23536.41
625.9504, 23269.93
626.4326, 23011.49
626.9147, 22772.75
627.3968, 22552.66
627.8789, 22341.06
628.3610, 22131.10
628.8431, 21963.93
629.3253, 21879.32
629.8074, 21861.14
630.2895, 21798.30
630.7716, 21688.56
631.2537, 21574.50
631.7358, 21492.61
632.2180, 21433.94
632.7001, 21385.02
633.1822, 21345.39
633.6643, 21308.10
634.1464, 21259.38
634.6285, 21210.60
635.1107, 21180.99
635.5928, 21185.72
636.0749, 21200.01
636.5570, 21222.86
637.0391, 21251.65
637.5212, 21265.54
638.0034, 21257.39
638.4855, 21244.53
638.9676, 21233.39
639.4497, 21223.39
639.9318, 21219.38
640.4139, 21220.89
640.8961, 21229.71
641.3782, 21259.81
641.8603, 21301.42
642.3424, 21311.23
642.8245, 21262.42
643.3066, 21210.47
643.7888, 21222.46
644.2709, 21277.41
644.7530, 21325.50
645.2351, 21338.98
645.7172, 21344.86
646.1993, 21356.83
646.6815, 21375.72
647.1636, 21390.92
647.6457, 21384.08
648.1278, 21389.79
648.6099, 21426.99
649.0920, 21506.01
649.5742, 21582.68
650.0563, 21654.21
650.5384, 21727.99
651.0205, 21809.14
651.5026, 21896.91
651.9847, 22004.31
652.4669, 22142.06
652.9490, 22284.68
653.4311, 22383.55
653.9132, 22452.12
654.3953, 22540.27
654.8774, 22688.37
655.3596, 22854.75
655.8417, 23011.95
656.3238, 23157.81
656.8059, 23304.76
657.2880, 23444.53
657.7701, 23593.63
658.2523, 23765.60
658.7344, 23985.90
659.2165, 24172.66
659.6986, 24312.20
