##NAMES=Magnesiotaaffeite-6N3S
##RRUFFID=X070005
##IDEAL CHEMISTRY=Mg_2_BeAl_6_O_12_
##LOCALITY=Tunduru, Tanzania
##OWNER=www.multicolour.com
##SOURCE=www.multicolour.com
##DESCRIPTION=Pale lavendar cut gemstone, 0.65 cts, formerly known as musgravite-18R
##STATUS=The identification of this mineral has been confirmed by single-crystal X-ray diffraction.
##URL=rruff.info/X070005
156.8507, 14245.14
157.3329, 14138.82
157.8150, 14069.66
158.2971, 14083.16
158.7792, 14121.91
159.2613, 14132.65
159.7434, 14081.25
160.2256, 14019.64
160.7077, 13964.06
161.1898, 13914.43
161.6719, 13874.11
162.1540, 13852.13
162.6361, 13839.69
163.1183, 13820.28
163.6004, 13765.51
164.0825, 13716.22
164.5646, 13699.91
165.0467, 13754.05
165.5288, 13799.72
166.0110, 13794.72
166.4931, 13747.51
166.9752, 13700.84
167.4573, 13681.08
167.9394, 13670.51
168.4215, 13650.65
168.9037, 13593.06
169.3858, 13539.99
169.8679, 13526.25
170.3500, 13555.38
170.8321, 13581.07
171.3142, 13561.43
171.7964, 13517.46
172.2785, 13487.87
172.7606, 13517.94
173.2427, 13559.04
173.7248, 13557.68
174.2069, 13494.11
174.6891, 13423.16
175.1712, 13390.65
175.6533, 13391.53
176.1354, 13405.23
176.6175, 13436.72
177.0996, 13469.63
177.5818, 13477.40
178.0639, 13443.39
178.5460, 13390.58
179.0281, 13337.48
179.5102, 13284.24
179.9923, 13249.55
180.4745, 13262.22
180.9566, 13307.02
181.4387, 13347.20
181.9208, 13378.51
182.4029, 13393.06
182.8850, 13366.65
183.3672, 13292.85
183.8493, 13210.68
184.3314, 13165.51
184.8135, 13153.19
185.2956, 13153.53
185.7777, 13168.02
186.2599, 13188.00
186.7420, 13186.57
187.2241, 13157.65
187.7062, 13112.70
188.1883, 13063.55
188.6705, 13010.23
189.1526, 12970.53
189.6347, 12969.13
190.1168, 12998.22
190.5989, 13012.59
191.0810, 12997.59
191.5632, 12963.70
192.0453, 12939.92
192.5274, 12927.55
193.0095, 12918.54
193.4916, 12900.91
193.9737, 12875.68
194.4559, 12860.38
194.9380, 12865.44
195.4201, 12888.12
195.9022, 12906.46
196.3843, 12920.83
196.8664, 12930.15
197.3486, 12927.78
197.8307, 12912.17
198.3128, 12903.16
198.7949, 12913.75
199.2770, 12943.91
199.7591, 12971.76
200.2413, 12998.96
200.7234, 13019.40
201.2055, 13012.69
201.6876, 12972.47
202.1697, 12930.88
202.6518, 12909.60
203.1340, 12910.27
203.6161, 12915.15
204.0982, 12922.40
204.5803, 12931.52
205.0624, 12940.77
205.5445, 12950.97
206.0267, 12959.38
206.5088, 12966.26
206.9909, 12974.28
207.4730, 12967.31
207.9551, 12934.53
208.4372, 12875.66
208.9194, 12838.58
209.4015, 12829.82
209.8836, 12834.48
210.3657, 12832.28
210.8478, 12823.59
211.3299, 12808.68
211.8121, 12785.67
212.2942, 12751.89
212.7763, 12724.66
213.2584, 12704.98
213.7405, 12691.66
214.2226, 12682.08
214.7048, 12677.46
215.1869, 12673.90
215.6690, 12667.48
216.1511, 12654.13
216.6332, 12652.81
217.1153, 12672.82
217.5975, 12706.32
218.0796, 12708.79
218.5617, 12663.99
219.0438, 12613.82
219.5259, 12590.68
220.0080, 12600.28
220.4902, 12622.30
220.9723, 12665.28
221.4544, 12728.49
221.9365, 12735.59
222.4186, 12653.70
222.9007, 12553.98
223.3829, 12519.41
223.8650, 12579.11
224.3471, 12642.78
224.8292, 12690.22
225.3113, 12719.84
225.7934, 12742.86
226.2756, 12757.50
226.7577, 12766.97
227.2398, 12774.72
227.7219, 12777.06
228.2040, 12784.32
228.6861, 12802.08
229.1683, 12837.02
229.6504, 12861.54
230.1325, 12865.39
230.6146, 12861.05
231.0967, 12883.89
231.5789, 12949.78
232.0610, 13018.96
232.5431, 13071.17
233.0252, 13100.73
233.5073, 13124.49
233.9894, 13137.65
234.4716, 13144.48
234.9537, 13168.12
235.4358, 13207.53
235.9179, 13265.49
236.4000, 13344.80
236.8821, 13449.81
237.3643, 13566.81
237.8464, 13694.60
238.3285, 13831.88
238.8106, 13979.38
239.2927, 14145.33
239.7748, 14313.01
240.2570, 14469.28
240.7391, 14634.74
241.2212, 14753.58
241.7033, 14829.72
242.1854, 14873.26
242.6675, 14777.43
243.1497, 14475.60
243.6318, 14087.32
244.1139, 13763.66
244.5960, 13520.98
245.0781, 13316.06
245.5602, 13138.46
246.0424, 12985.61
246.5245, 12869.55
247.0066, 12798.14
247.4887, 12759.03
247.9708, 12734.59
248.4529, 12740.66
248.9351, 12735.90
249.4172, 12698.82
249.8993, 12601.61
250.3814, 12540.11
250.8635, 12527.08
251.3456, 12547.12
251.8278, 12557.51
252.3099, 12551.32
252.7920, 12545.52
253.2741, 12550.67
253.7562, 12576.84
254.2383, 12589.44
254.7205, 12579.70
255.2026, 12554.02
255.6847, 12544.18
256.1668, 12559.72
256.6489, 12577.54
257.1310, 12578.77
257.6132, 12546.74
258.0953, 12538.84
258.5774, 12570.30
259.0595, 12636.20
259.5416, 12685.50
260.0237, 12713.63
260.5059, 12731.47
260.9880, 12745.34
261.4701, 12748.64
261.9522, 12766.08
262.4343, 12806.86
262.9164, 12870.63
263.3986, 12927.19
263.8807, 12980.67
264.3628, 13022.26
264.8449, 13035.79
265.3270, 13004.59
265.8091, 12989.81
266.2913, 13017.85
266.7734, 13093.20
267.2555, 13121.83
267.7376, 13092.27
268.2197, 13028.57
268.7018, 12957.40
269.1840, 12874.37
269.6661, 12797.52
270.1482, 12729.24
270.6303, 12667.09
271.1124, 12640.76
271.5945, 12666.44
272.0767, 12709.39
272.5588, 12707.27
273.0409, 12647.03
273.5230, 12587.48
274.0051, 12555.14
274.4872, 12555.53
274.9694, 12549.72
275.4515, 12537.32
275.9336, 12519.09
276.4157, 12491.36
276.8978, 12448.78
277.3799, 12418.42
277.8621, 12420.55
278.3442, 12459.41
278.8263, 12482.58
279.3084, 12483.03
279.7905, 12469.50
280.2726, 12460.69
280.7548, 12456.28
281.2369, 12455.92
281.7190, 12464.61
282.2011, 12483.01
282.6832, 12482.78
283.1653, 12455.07
283.6475, 12412.67
284.1296, 12386.73
284.6117, 12378.12
285.0938, 12381.26
285.5759, 12405.94
286.0580, 12450.47
286.5402, 12456.41
287.0223, 12400.63
287.5044, 12313.35
287.9865, 12274.23
288.4686, 12286.12
288.9507, 12315.61
289.4329, 12345.89
289.9150, 12374.75
290.3971, 12382.54
290.8792, 12356.27
291.3614, 12312.74
291.8435, 12294.02
292.3256, 12300.87
292.8077, 12313.58
293.2898, 12309.93
293.7719, 12294.93
294.2541, 12295.03
294.7362, 12324.79
295.2183, 12368.99
295.7004, 12395.16
296.1825, 12402.94
296.6646, 12406.42
297.1468, 12414.31
297.6289, 12427.48
298.1110, 12449.38
298.5931, 12485.45
299.0752, 12528.17
299.5573, 12563.61
300.0395, 12591.41
300.5216, 12620.47
301.0037, 12657.58
301.4858, 12701.80
301.9679, 12751.10
302.4500, 12817.51
302.9322, 12882.15
303.4143, 12922.39
303.8964, 12938.74
304.3785, 12926.86
304.8606, 12860.89
305.3427, 12765.12
305.8249, 12685.56
306.3070, 12658.95
306.7891, 12648.63
307.2712, 12604.66
307.7533, 12524.68
308.2354, 12463.89
308.7176, 12479.86
309.1997, 12541.09
309.6818, 12595.44
310.1639, 12614.94
310.6460, 12622.73
311.1281, 12634.38
311.6103, 12650.15
312.0924, 12675.33
312.5745, 12731.59
313.0566, 12796.39
313.5387, 12836.00
314.0208, 12810.77
314.5030, 12775.73
314.9851, 12771.14
315.4672, 12802.91
315.9493, 12827.62
316.4314, 12819.64
316.9135, 12793.54
317.3957, 12767.69
317.8778, 12767.77
318.3599, 12754.88
318.8420, 12691.69
319.3241, 12564.47
319.8062, 12479.80
320.2884, 12494.08
320.7705, 12565.37
321.2526, 12640.30
321.7347, 12694.82
322.2168, 12757.00
322.6989, 12845.61
323.1811, 12969.26
323.6632, 13070.37
324.1453, 13114.50
324.6274, 13136.20
325.1095, 13177.57
325.5916, 13255.06
326.0738, 13344.93
326.5559, 13448.10
327.0380, 13574.28
327.5201, 13675.40
328.0022, 13755.51
328.4843, 13807.55
328.9665, 13824.07
329.4486, 13763.21
329.9307, 13708.67
330.4128, 13682.28
330.8949, 13695.54
331.3770, 13689.41
331.8592, 13643.71
332.3413, 13588.53
332.8234, 13558.56
333.3055, 13539.90
333.7876, 13565.96
334.2697, 13652.72
334.7519, 13812.42
335.2340, 13967.35
335.7161, 14126.65
336.1982, 14272.58
336.6803, 14386.29
337.1624, 14479.09
337.6446, 14515.18
338.1267, 14488.58
338.6088, 14399.32
339.0909, 14224.56
339.5730, 13933.11
340.0551, 13603.26
340.5373, 13322.33
341.0194, 13092.67
341.5015, 12900.40
341.9836, 12743.94
342.4657, 12623.66
342.9478, 12520.74
343.4300, 12440.12
343.9121, 12369.31
344.3942, 12291.38
344.8763, 12204.87
345.3584, 12136.91
345.8405, 12097.99
346.3227, 12084.68
346.8048, 12084.63
347.2869, 12101.01
347.7690, 12113.24
348.2511, 12092.87
348.7332, 12044.62
349.2154, 12001.70
349.6975, 11973.05
350.1796, 11957.32
350.6617, 11954.79
351.1438, 11965.87
351.6259, 11978.17
352.1081, 11979.92
352.5902, 11973.64
353.0723, 11966.57
353.5544, 11965.26
354.0365, 11962.00
354.5186, 11937.67
355.0008, 11893.33
355.4829, 11861.83
355.9650, 11884.36
356.4471, 11933.22
356.9292, 11965.43
357.4113, 11951.83
357.8935, 11928.09
358.3756, 11928.60
358.8577, 11950.72
359.3398, 11964.68
359.8219, 11942.80
360.3040, 11908.22
360.7862, 11884.37
361.2683, 11881.44
361.7504, 11888.50
362.2325, 11900.72
362.7146, 11918.29
363.1967, 11942.43
363.6789, 11979.37
364.1610, 12019.42
364.6431, 12055.24
365.1252, 12084.22
365.6073, 12108.63
366.0894, 12128.03
366.5716, 12142.36
367.0537, 12152.17
367.5358, 12156.50
368.0179, 12156.43
368.5000, 12152.50
368.9821, 12135.17
369.4643, 12125.51
369.9464, 12133.99
370.4285, 12153.88
370.9106, 12157.63
371.3927, 12121.11
371.8748, 12092.27
372.3570, 12092.83
372.8391, 12137.24
373.3212, 12187.33
373.8033, 12245.77
374.2855, 12309.93
374.7676, 12375.95
375.2497, 12453.01
375.7318, 12517.29
376.2139, 12555.93
376.6960, 12559.63
377.1782, 12574.33
377.6603, 12607.75
378.1424, 12644.69
378.6245, 12654.55
379.1066, 12633.66
379.5887, 12598.83
380.0709, 12551.08
380.5530, 12489.57
381.0351, 12437.04
381.5172, 12392.93
381.9993, 12356.89
382.4814, 12330.63
382.9636, 12313.81
383.4457, 12209.45
383.9278, 12310.94
384.4099, 12371.83
384.8920, 12394.29
385.3741, 12263.27
385.8563, 12330.45
386.3384, 12318.20
386.8205, 12302.69
387.3026, 12397.77
387.7847, 12289.07
388.2668, 12382.39
388.7490, 12395.08
389.2311, 12444.66
389.7132, 12414.33
390.1953, 12398.89
390.6774, 12384.22
391.1595, 12418.66
391.6417, 12575.00
392.1238, 12745.41
392.6059, 12844.47
393.0880, 12880.72
393.5701, 12925.90
394.0522, 13014.85
394.5344, 13131.42
395.0165, 13260.99
395.4986, 13396.11
395.9807, 13546.58
396.4628, 13702.15
396.9449, 13869.99
397.4271, 14086.64
397.9092, 14361.84
398.3913, 14687.73
398.8734, 15059.98
399.3555, 15484.91
399.8376, 15946.31
400.3198, 16445.53
400.8019, 16980.36
401.2840, 17544.89
401.7661, 18164.47
402.2482, 18788.05
402.7303, 19396.16
403.2125, 19984.53
403.6946, 20573.71
404.1767, 21187.82
404.6588, 21798.07
405.1409, 22340.60
405.6230, 22817.36
406.1052, 23230.74
406.5873, 23545.66
407.0694, 23739.09
407.5515, 24048.48
408.0336, 24444.91
408.5157, 25013.93
408.9979, 25864.21
409.4800, 27001.23
409.9621, 28369.80
410.4442, 30006.51
410.9263, 31857.81
411.4084, 33816.06
411.8906, 35888.89
412.3727, 37883.14
412.8548, 39744.53
413.3369, 41388.41
413.8190, 42467.77
414.3011, 43024.71
414.7833, 42839.07
415.2654, 41395.68
415.7475, 38770.15
416.2296, 35646.89
416.7117, 32089.36
417.1938, 28481.70
417.6760, 25308.48
418.1581, 22693.67
418.6402, 20537.41
419.1223, 18826.78
419.6044, 17526.40
420.0865, 16484.80
420.5687, 15755.31
421.0508, 15190.95
421.5329, 14701.55
422.0150, 14267.26
422.4971, 13903.52
422.9792, 13635.53
423.4614, 13439.05
423.9435, 13257.29
424.4256, 13052.46
424.9077, 12881.47
425.3898, 12774.41
425.8719, 12766.44
426.3541, 12723.28
426.8362, 12600.58
427.3183, 12457.62
427.8004, 12364.11
428.2825, 12354.16
428.7646, 12341.89
429.2468, 12305.45
429.7289, 12243.18
430.2110, 12200.27
430.6931, 12181.16
431.1752, 12174.73
431.6573, 12173.81
432.1395, 12180.83
432.6216, 12178.65
433.1037, 12155.30
433.5858, 12124.11
434.0679, 12141.23
434.5500, 12213.14
435.0322, 12285.40
435.5143, 12308.31
435.9964, 12292.22
436.4785, 12293.91
436.9606, 12324.71
437.4427, 12368.62
437.9249, 12392.03
438.4070, 12402.71
438.8891, 12439.60
439.3712, 12546.50
439.8533, 12685.55
440.3354, 12804.61
440.8176, 12897.32
441.2997, 12977.77
441.7818, 13035.62
442.2639, 13091.55
442.7460, 13181.15
443.2281, 13328.05
443.7103, 13505.48
444.1924, 13706.75
444.6745, 13931.99
445.1566, 14153.34
445.6387, 14382.20
446.1208, 14593.11
446.6030, 14761.43
447.0851, 14913.62
447.5672, 14988.61
448.0493, 14970.25
448.5314, 14860.55
449.0135, 14686.92
449.4957, 14401.88
449.9778, 14097.51
450.4599, 13814.36
450.9420, 13536.93
451.4241, 13317.60
451.9063, 13164.22
452.3884, 13064.50
452.8705, 12992.03
453.3526, 12945.39
453.8347, 12928.95
454.3168, 12946.28
454.7990, 12998.31
455.2811, 13080.23
455.7632, 13201.04
456.2453, 13328.07
456.7274, 13428.66
457.2096, 13502.03
457.6917, 13530.05
458.1738, 13501.61
458.6559, 13425.98
459.1380, 13303.61
459.6201, 13137.51
460.1023, 12982.58
460.5844, 12915.48
461.0665, 12885.74
461.5486, 12804.52
462.0307, 12612.32
462.5128, 12412.87
462.9950, 12293.96
463.4771, 12238.91
463.9592, 12200.16
464.4413, 12145.62
464.9234, 12104.21
465.4055, 12099.30
465.8877, 12146.96
466.3698, 12195.47
466.8519, 12227.27
467.3340, 12250.80
467.8161, 12278.05
468.2982, 12311.15
468.7804, 12347.85
469.2625, 12382.83
469.7446, 12412.58
470.2267, 12472.33
470.7088, 12578.14
471.1909, 12699.36
471.6731, 12811.23
472.1552, 12905.13
472.6373, 13012.06
473.1194, 13138.74
473.6015, 13281.41
474.0836, 13422.20
474.5658, 13557.83
475.0479, 13706.54
475.5300, 13876.72
476.0121, 14068.71
476.4942, 14283.66
476.9763, 14516.61
477.4585, 14785.52
477.9406, 15120.25
478.4227, 15517.17
478.9048, 15948.53
479.3869, 16385.53
479.8690, 16859.38
480.3512, 17420.94
480.8333, 18072.49
481.3154, 18767.95
481.7975, 19513.95
482.2796, 20272.66
482.7617, 20997.74
483.2439, 21746.89
483.7260, 22395.49
484.2081, 22912.44
484.6902, 23290.87
485.1723, 23497.88
485.6544, 23471.24
486.1366, 23306.47
486.6187, 23038.23
487.1008, 22556.03
487.5829, 22169.80
488.0650, 21852.59
488.5471, 21643.41
489.0293, 21602.50
489.5114, 21703.85
489.9935, 22016.34
490.4756, 22571.80
490.9577, 23361.29
491.4398, 24352.79
491.9220, 25597.68
492.4041, 26934.11
492.8862, 28286.61
493.3683, 29664.36
493.8504, 30849.11
494.3326, 31866.71
494.8147, 32607.24
495.2968, 32971.24
495.7789, 32938.88
496.2610, 32302.91
496.7431, 30690.72
497.2253, 28442.60
497.7074, 26004.77
498.1895, 23347.25
498.6716, 20899.30
499.1537, 18935.09
499.6358, 17397.32
500.1180, 16142.17
500.6001, 15221.96
501.0822, 14491.75
501.5643, 13906.30
502.0464, 13462.34
502.5285, 13113.78
503.0107, 12907.20
503.4928, 12755.48
503.9749, 12594.95
504.4570, 12374.70
504.9391, 12202.64
505.4212, 12097.05
505.9034, 12041.61
506.3855, 11989.59
506.8676, 11943.15
507.3497, 11897.23
507.8318, 11848.64
508.3139, 11796.42
508.7961, 11752.79
509.2782, 11717.46
509.7603, 11691.22
510.2424, 11684.27
510.7245, 11695.37
511.2066, 11681.52
511.6888, 11614.07
512.1709, 11526.47
512.6530, 11490.60
513.1351, 11503.85
513.6172, 11531.36
514.0994, 11562.40
514.5815, 11586.57
515.0636, 11583.08
515.5457, 11536.81
516.0278, 11497.79
516.5099, 11513.96
516.9921, 11560.41
517.4742, 11592.23
517.9563, 11581.98
518.4384, 11563.18
518.9205, 11544.34
519.4026, 11525.44
519.8848, 11527.09
520.3669, 11570.95
520.8490, 11626.20
521.3311, 11670.14
521.8132, 11688.39
522.2953, 11719.12
522.7775, 11763.34
523.2596, 11822.38
523.7417, 11901.62
524.2238, 12007.05
524.7059, 12114.84
525.1880, 12214.17
525.6702, 12304.03
526.1523, 12397.97
526.6344, 12497.37
527.1165, 12589.40
527.5986, 12660.95
528.0807, 12712.04
528.5629, 12742.94
529.0450, 12758.90
529.5271, 12748.81
530.0092, 12699.80
530.4913, 12612.84
530.9734, 12489.00
531.4556, 12289.79
531.9377, 12079.05
532.4198, 11915.55
532.9019, 11822.69
533.3840, 11735.10
533.8661, 11615.01
534.3483, 11489.55
534.8304, 11396.13
535.3125, 11355.05
535.7946, 11331.38
536.2767, 11323.57
536.7589, 11330.30
537.2410, 11327.22
537.7231, 11303.01
538.2052, 11282.87
538.6873, 11285.11
539.1694, 11316.01
539.6516, 11336.97
540.1337, 11341.54
540.6158, 11340.98
541.0979, 11365.40
541.5800, 11414.27
542.0621, 11436.67
542.5443, 11400.67
543.0264, 11327.12
543.5085, 11257.47
543.9906, 11191.69
544.4727, 11141.15
544.9548, 11129.83
545.4370, 11134.71
545.9191, 11122.43
546.4012, 11075.54
546.8833, 11028.22
547.3654, 11004.07
547.8475, 10993.62
548.3297, 10976.33
548.8118, 10920.36
549.2939, 10877.89
549.7760, 10879.42
550.2581, 10937.60
550.7402, 10964.79
551.2224, 10927.57
551.7045, 10884.35
552.1866, 10886.40
552.6687, 10963.49
553.1508, 11003.35
553.6329, 10983.32
554.1151, 10927.13
554.5972, 10890.84
555.0793, 10875.38
555.5614, 10872.02
556.0435, 10885.49
556.5256, 10908.85
557.0078, 10914.17
557.4899, 10900.52
557.9720, 10879.77
558.4541, 10856.83
558.9362, 10835.52
559.4183, 10821.75
559.9005, 10811.22
560.3826, 10817.19
560.8647, 10867.78
561.3468, 10944.95
561.8289, 10995.82
562.3110, 10967.65
562.7932, 10936.81
563.2753, 10939.56
563.7574, 10986.50
564.2395, 11034.61
564.7216, 11079.02
565.2037, 11125.60
565.6859, 11178.06
566.1680, 11236.64
566.6501, 11301.21
567.1322, 11369.81
567.6143, 11444.33
568.0964, 11532.15
568.5786, 11633.45
569.0607, 11738.55
569.5428, 11832.61
570.0249, 11923.55
570.5070, 12046.66
570.9891, 12204.20
571.4713, 12362.16
571.9534, 12477.39
572.4355, 12570.99
572.9176, 12677.71
573.3997, 12809.64
573.8818, 12955.26
574.3640, 13113.63
574.8461, 13280.91
575.3282, 13450.92
575.8103, 13634.94
576.2924, 13808.02
576.7745, 13964.83
577.2567, 14105.35
577.7388, 14216.36
578.2209, 14313.21
578.7030, 14370.03
579.1851, 14362.35
579.6672, 14276.88
580.1494, 14165.17
580.6315, 14035.38
581.1136, 13880.12
581.5957, 13678.47
582.0778, 13427.94
582.5599, 13174.44
583.0421, 12938.82
583.5242, 12715.98
584.0063, 12480.65
584.4884, 12230.46
584.9705, 12006.90
585.4526, 11847.39
585.9348, 11729.19
586.4169, 11619.72
586.8990, 11505.47
587.3811, 11406.89
587.8632, 11345.17
588.3453, 11305.99
588.8275, 11258.54
589.3096, 11192.15
589.7917, 11119.74
590.2738, 11037.99
590.7559, 10944.82
591.2380, 10883.39
591.7202, 10870.61
592.2023, 10868.09
592.6844, 10845.25
593.1665, 10797.29
593.6486, 10766.92
594.1307, 10763.28
594.6129, 10768.60
595.0950, 10742.77
595.5771, 10691.87
596.0592, 10665.42
596.5413, 10701.22
597.0234, 10765.44
597.5056, 10812.34
597.9877, 10842.24
598.4698, 10856.43
598.9519, 10852.45
599.4340, 10834.41
599.9161, 10799.14
600.3983, 10726.33
600.8804, 10687.17
601.3625, 10735.54
601.8446, 10818.60
602.3267, 10862.52
602.8088, 10821.32
603.2910, 10798.59
603.7731, 10822.69
604.2552, 10881.03
604.7373, 10896.49
605.2194, 10856.80
605.7015, 10813.87
606.1837, 10804.23
606.6658, 10823.39
607.1479, 10812.04
607.6300, 10763.45
608.1121, 10716.97
608.5942, 10730.31
609.0764, 10778.46
609.5585, 10802.12
610.0406, 10765.25
610.5227, 10725.05
611.0048, 10731.42
611.4869, 10770.92
611.9691, 10806.97
612.4512, 10806.02
612.9333, 10814.36
613.4154, 10864.67
613.8975, 10970.96
614.3796, 11031.15
614.8618, 10998.30
615.3439, 10957.78
615.8260, 10976.54
616.3081, 11080.52
616.7902, 11149.58
617.2723, 11161.43
617.7545, 11154.46
618.2366, 11202.34
618.7187, 11303.60
619.2008, 11410.12
619.6829, 11518.06
620.1650, 11609.92
620.6472, 11648.38
621.1293, 11638.21
621.6114, 11621.00
622.0935, 11623.23
622.5756, 11631.73
623.0577, 11636.58
623.5399, 11638.53
624.0220, 11628.21
624.5041, 11600.17
624.9862, 11558.92
625.4683, 11509.43
625.9504, 11449.98
626.4326, 11384.49
626.9147, 11307.61
627.3968, 11225.82
627.8789, 11161.43
628.3610, 11117.89
628.8431, 11081.95
629.3253, 11050.51
629.8074, 11022.70
630.2895, 10987.46
630.7716, 10943.80
631.2537, 10910.65
631.7358, 10922.87
632.2180, 10953.53
632.7001, 10950.23
633.1822, 10887.52
633.6643, 10827.02
634.1464, 10810.04
634.6285, 10822.36
635.1107, 10840.29
635.5928, 10867.95
636.0749, 10888.08
636.5570, 10890.02
637.0391, 10876.49
637.5212, 10872.08
638.0034, 10877.81
638.4855, 10891.07
638.9676, 10909.64
639.4497, 10932.79
639.9318, 10973.10
640.4139, 11035.04
640.8961, 11097.15
641.3782, 11133.49
641.8603, 11148.66
642.3424, 11160.21
642.8245, 11165.77
643.3066, 11181.48
643.7888, 11230.74
644.2709, 11303.70
644.7530, 11378.18
645.2351, 11456.61
645.7172, 11522.55
646.1993, 11553.34
646.6815, 11550.62
647.1636, 11580.83
647.6457, 11674.67
648.1278, 11786.53
648.6099, 11899.24
649.0920, 12013.75
649.5742, 12123.37
650.0563, 12224.36
650.5384, 12326.01
651.0205, 12433.61
651.5026, 12546.54
651.9847, 12686.18
652.4669, 12867.44
652.9490, 13058.14
653.4311, 13218.15
653.9132, 13348.56
