##NAMES=Magnesite
##RRUFFID=R050443
##IDEAL CHEMISTRY=MgCO_3_
##LOCALITY=Brumado, Bahia, Brazil
##OWNER=RRUFF
##SOURCE=Eugene Schlepp
##DESCRIPTION=Group of colorless crystals
##STATUS=The identification of this mineral has been confirmed by X-ray diffraction and chemical analysis
##URL=rruff.info/R050443
##MEASURED CHEMISTRY=Mg_1.00_CO_3_
##PIN_ID=L01455
##ORIENTATION=Laser parallel to -a* (-1 0 0). Fiducial mark perpendicular to laser is parallel to -c [0 0 -1]
92.04900, 7501.000
93.28600, 7440.000
94.52300, 7480.000
95.75900, 7560.000
96.99500, 7452.000
98.23100, 7451.000
99.46700, 7594.000
100.7030, 7551.000
101.9390, 7394.000
103.1740, 7439.000
104.4090, 7592.000
105.6440, 7851.000
106.8790, 7572.000
108.1140, 7553.000
109.3490, 7613.000
110.5830, 7556.000
111.8180, 7446.000
113.0520, 7443.000
114.2860, 7540.000
115.5200, 7658.000
116.7530, 7522.000
117.9870, 7746.000
119.2200, 7878.000
120.4530, 8605.000
121.6860, 8772.000
122.9190, 8620.000
124.1520, 8013.000
125.3850, 7681.000
126.6170, 7576.000
127.8490, 7314.000
129.0810, 7543.000
130.3130, 7440.000
131.5450, 7476.000
132.7770, 7263.000
134.0080, 7388.000
135.2390, 7342.000
136.4710, 7399.000
137.7020, 7355.000
138.9320, 7392.501
140.1630, 7450.000
141.3930, 7451.000
142.6240, 7489.000
143.8540, 7507.000
145.0840, 7599.000
146.3140, 7525.000
147.5440, 7604.208
148.7730, 7672.000
150.0020, 7654.000
151.2320, 7616.000
152.4610, 7566.000
153.6900, 7494.000
154.9180, 7613.000
156.1470, 7676.000
157.3750, 7628.000
158.6040, 7596.000
159.8320, 7642.000
161.0600, 7532.000
162.2870, 7636.000
163.5150, 7716.000
164.7420, 7770.000
165.9700, 7616.000
167.1970, 7679.000
168.4240, 7574.000
169.6510, 7539.000
170.8770, 7689.000
172.1040, 7749.000
173.3300, 7678.000
174.5560, 7601.000
175.7820, 7596.000
177.0080, 7621.000
178.2340, 7767.000
179.4590, 7770.000
180.6850, 7613.000
181.9100, 7760.000
183.1350, 7682.000
184.3600, 7717.000
185.5850, 7756.000
186.8090, 7837.000
188.0340, 7639.000
189.2580, 7730.000
190.4820, 7669.000
191.7060, 7821.000
192.9300, 7843.000
194.1530, 7814.000
195.3770, 7950.000
196.6000, 7887.000
197.8230, 7936.000
199.0460, 8086.000
200.2690, 8071.000
201.4910, 8138.000
202.7140, 8365.000
203.9360, 8340.000
205.1580, 8666.000
206.3800, 8793.000
207.6020, 8887.000
208.8240, 9246.000
210.0450, 9648.000
211.2670, 9945.000
212.4880, 10514.00
213.7090, 10451.00
214.9300, 10213.00
216.1510, 9657.000
217.3710, 9323.000
218.5920, 8860.000
219.8120, 8611.000
221.0320, 8449.000
222.2520, 8220.000
223.4720, 8085.000
224.6910, 8112.000
225.9110, 8196.000
227.1300, 8086.000
228.3490, 7956.000
229.5680, 8110.000
230.7870, 8102.000
232.0050, 8169.000
233.2240, 8158.000
234.4420, 8139.000
235.6600, 8128.000
236.8780, 8322.000
238.0960, 8114.000
239.3140, 8136.000
240.5310, 8271.000
241.7490, 8113.000
242.9660, 8126.000
244.1830, 8288.000
245.4000, 8301.000
246.6160, 8167.000
247.8330, 8223.000
249.0490, 8196.000
250.2660, 8419.000
251.4820, 8374.000
252.6980, 8199.000
253.9130, 8388.000
255.1290, 8280.000
256.3440, 8413.000
257.5600, 8427.000
258.7750, 8298.000
259.9900, 8414.000
261.2040, 8341.000
262.4190, 8552.000
263.6330, 8328.000
264.8480, 8414.000
266.0620, 8458.000
267.2760, 8367.000
268.4900, 8562.000
269.7030, 8495.000
270.9170, 8468.000
272.1300, 8428.000
273.3430, 8584.000
274.5560, 8461.000
275.7690, 8518.000
276.9820, 8384.000
278.1940, 8568.000
279.4070, 8563.000
280.6190, 8682.000
281.8310, 8533.000
283.0430, 8683.000
284.2550, 8692.000
285.4660, 8494.000
286.6770, 8563.000
287.8890, 8546.000
289.1000, 8534.000
290.3110, 8691.000
291.5210, 8678.000
292.7320, 8746.000
293.9420, 8824.000
295.1530, 8803.000
296.3630, 8796.000
297.5730, 8711.000
298.7830, 8817.000
299.9920, 8899.000
301.2020, 9009.000
302.4110, 8940.000
303.6200, 8882.000
304.8290, 9029.000
306.0380, 8999.000
307.2470, 9053.000
308.4550, 9043.000
309.6630, 9166.000
310.8720, 9255.000
312.0800, 9516.000
313.2880, 9595.000
314.4950, 9663.000
315.7030, 10268.00
316.9100, 10779.00
318.1170, 11386.00
319.3240, 12193.00
320.5310, 13365.00
321.7380, 14394.00
322.9450, 15976.00
324.1510, 17828.00
325.3570, 20303.00
326.5630, 23170.00
327.7690, 26592.00
328.9750, 29959.00
330.1810, 31837.00
331.3860, 30278.00
332.5910, 26859.00
333.7960, 22984.00
335.0010, 19127.00
336.2060, 16126.00
337.4110, 13995.00
338.6150, 12671.00
339.8200, 11601.00
341.0240, 11047.00
342.2280, 10479.00
343.4320, 10177.00
344.6350, 9955.000
345.8390, 10037.00
347.0420, 9928.000
348.2450, 9695.000
349.4480, 9846.000
350.6510, 9850.000
351.8540, 9552.000
353.0560, 9565.000
354.2590, 9605.000
355.4610, 9614.000
356.6630, 9630.060
357.8650, 9637.465
359.0670, 9645.000
360.2680, 9641.000
361.4700, 9634.000
362.6710, 9645.000
363.8720, 9666.320
365.0730, 9715.000
366.2740, 9722.000
367.4740, 9656.000
368.6750, 9664.000
369.8750, 9794.000
371.0750, 9602.000
372.2750, 9725.000
373.4750, 9692.000
374.6740, 9659.000
375.8740, 9752.000
377.0730, 9715.831
378.2720, 9672.000
379.4710, 9724.000
380.6700, 9669.000
381.8690, 9642.000
383.0670, 9798.000
384.2660, 9838.000
385.4640, 9818.000
386.6620, 9814.000
387.8600, 9692.000
389.0570, 9691.000
390.2550, 9649.000
391.4520, 9809.000
392.6490, 9838.000
393.8460, 9814.004
395.0430, 9731.000
396.2400, 9749.000
397.4370, 9898.000
398.6330, 9863.000
399.8290, 9961.000
401.0250, 9815.000
402.2210, 9892.000
403.4170, 9860.000
404.6130, 9864.500
405.8080, 9859.000
407.0030, 9937.000
408.1980, 10003.00
409.3930, 10072.00
410.5880, 10003.00
411.7830, 9987.000
412.9770, 10001.00
414.1720, 9970.000
415.3660, 9850.000
416.5600, 10159.00
417.7530, 9936.000
418.9470, 9998.000
420.1410, 10193.00
421.3340, 10157.00
422.5270, 10201.00
423.7200, 10157.00
424.9130, 10204.00
426.1060, 10102.00
427.2980, 10113.00
428.4900, 10337.00
429.6830, 10176.00
430.8750, 10160.00
432.0670, 10373.00
433.2580, 10237.00
434.4500, 10243.00
435.6410, 10293.00
436.8320, 10309.00
438.0240, 10381.00
439.2140, 10404.00
440.4050, 10302.00
441.5960, 10289.00
442.7860, 10446.00
443.9760, 10298.00
445.1670, 10399.00
446.3560, 10510.00
447.5460, 10341.00
448.7360, 10767.00
449.9250, 10598.45
451.1150, 10638.01
452.3040, 10572.00
453.4930, 10548.00
454.6810, 10658.00
455.8700, 10565.00
457.0590, 10613.00
458.2470, 10338.00
459.4350, 10641.00
460.6230, 10722.00
461.8110, 10534.00
462.9980, 10650.00
464.1860, 10603.00
465.3730, 10776.00
466.5600, 10690.26
467.7470, 10739.00
468.9340, 10651.00
470.1210, 10581.00
471.3080, 10749.00
472.4940, 10569.00
473.6800, 10743.00
474.8660, 10683.00
476.0520, 10608.00
477.2380, 10674.00
478.4230, 10622.00
479.6090, 10711.00
480.7940, 10741.00
481.9790, 10775.00
483.1640, 10875.00
484.3490, 10766.00
485.5330, 10789.00
486.7180, 10675.00
487.9020, 10743.39
489.0860, 10861.58
490.2700, 10829.00
491.4540, 11106.00
492.6370, 11061.00
493.8210, 10963.00
495.0040, 10884.00
496.1870, 11043.00
497.3700, 10921.00
498.5530, 10842.00
499.7360, 11027.00
500.9180, 10960.00
502.1000, 10987.00
503.2830, 11010.00
504.4650, 11008.00
505.6460, 11109.00
506.8280, 11063.98
508.0100, 11153.00
509.1910, 11064.00
510.3720, 11024.00
511.5530, 11111.00
512.7340, 11165.00
513.9150, 11180.00
515.0950, 11071.00
516.2760, 11245.00
517.4560, 11142.00
518.6360, 11239.00
519.8160, 11332.00
520.9950, 11121.00
522.1750, 11176.00
523.3540, 11206.20
524.5340, 11214.68
525.7130, 11285.00
526.8920, 11349.00
528.0700, 11310.00
529.2490, 11303.00
530.4270, 11310.15
531.6060, 11371.00
532.7840, 11263.00
533.9620, 11350.00
535.1390, 11274.26
536.3170, 11283.14
537.4940, 11167.00
538.6720, 11248.00
539.8490, 11489.00
541.0260, 11400.00
542.2030, 11250.00
543.3790, 11481.00
544.5560, 11446.00
545.7320, 11346.00
546.9080, 11496.00
548.0840, 11332.00
549.2600, 11252.00
550.4360, 11364.00
551.6110, 11414.00
552.7860, 11547.00
553.9620, 11433.00
555.1370, 11558.00
556.3110, 11665.00
557.4860, 11469.00
558.6610, 11609.00
559.8350, 11580.00
561.0090, 11532.00
562.1830, 11614.00
563.3570, 11619.00
564.5310, 11541.00
565.7040, 11660.00
566.8780, 11755.00
568.0510, 11604.00
569.2240, 11618.00
570.3970, 11679.00
571.5700, 11563.00
572.7420, 11771.00
573.9150, 11836.00
575.0870, 11701.00
576.2590, 11577.00
577.4310, 11820.00
578.6030, 11681.00
579.7740, 11689.00
580.9460, 12037.00
582.1170, 12064.00
583.2880, 11792.00
584.4590, 11910.00
585.6300, 11903.00
586.8010, 11857.00
587.9710, 11823.00
589.1410, 11864.00
590.3110, 11903.00
591.4810, 11960.00
592.6510, 11963.19
593.8210, 12037.00
594.9900, 11996.00
596.1600, 11921.00
597.3290, 11981.00
598.4980, 11993.00
599.6670, 12013.00
600.8350, 12094.00
602.0040, 12044.00
603.1720, 12136.00
604.3400, 12026.00
605.5080, 12019.00
606.6760, 12009.00
607.8440, 12164.00
609.0120, 12224.00
610.1790, 12152.00
611.3460, 12187.00
612.5130, 12099.00
613.6800, 12126.00
614.8470, 12100.00
616.0130, 12152.00
617.1800, 12129.00
618.3460, 12174.05
619.5120, 12212.00
620.6780, 12251.00
621.8440, 12370.00
623.0090, 12398.00
624.1750, 12389.00
625.3400, 12439.00
626.5050, 12392.00
627.6700, 12566.00
628.8350, 12302.00
629.9990, 12272.00
631.1640, 12478.00
632.3280, 12531.00
633.4920, 12487.00
634.6560, 12407.00
635.8200, 12555.00
636.9840, 12369.00
638.1470, 12272.00
639.3100, 12635.00
640.4730, 12481.00
641.6360, 12514.00
642.7990, 12379.00
643.9620, 12444.00
645.1240, 12617.00
646.2870, 12545.00
647.4490, 12630.00
648.6110, 12735.00
649.7730, 12618.00
650.9340, 12545.00
652.0960, 12568.00
653.2570, 12621.00
654.4180, 12608.00
655.5790, 12525.00
656.7400, 12714.00
657.9010, 12396.00
659.0620, 12728.00
660.2220, 12791.00
661.3820, 12564.00
662.5420, 12624.00
663.7020, 12578.00
664.8620, 12738.00
666.0210, 12799.00
667.1810, 12887.00
668.3400, 12684.00
669.4990, 12727.00
670.6580, 12728.00
671.8170, 12679.00
672.9750, 12645.00
674.1340, 12764.00
675.2920, 12730.00
676.4500, 12774.00
677.6080, 12803.00
678.7660, 12766.00
679.9230, 12871.00
681.0810, 12652.00
682.2380, 12931.00
683.3950, 12672.00
684.5520, 12769.00
685.7090, 12676.00
686.8660, 12851.00
688.0220, 12972.00
689.1780, 12886.00
690.3340, 12876.00
691.4900, 12815.00
692.6460, 12951.00
693.8020, 12814.00
694.9570, 12678.00
696.1130, 12784.00
697.2680, 13047.00
698.4230, 12858.00
699.5780, 12895.00
700.7320, 12920.00
701.8870, 12938.00
703.0410, 13072.00
704.1950, 12961.00
705.3490, 12903.00
706.5030, 13034.00
707.6570, 13095.00
708.8110, 13075.00
709.9640, 13082.00
711.1170, 13006.00
712.2700, 13036.38
713.4230, 13115.00
714.5760, 13060.00
715.7280, 13077.00
716.8810, 13090.00
718.0330, 13124.00
719.1850, 13443.00
720.3370, 13047.00
721.4890, 13305.00
722.6400, 13105.00
723.7920, 13157.00
724.9430, 13156.00
726.0940, 13327.00
727.2450, 13211.00
728.3960, 13157.00
729.5460, 13418.00
730.6970, 13222.00
731.8470, 13396.00
732.9970, 13444.00
734.1470, 13314.00
735.2970, 13472.00
736.4460, 13463.00
737.5960, 13452.00
738.7450, 13435.00
739.8940, 13498.00
741.0430, 13458.00
742.1920, 13423.18
743.3410, 13424.00
744.4890, 13308.00
745.6370, 13381.00
746.7850, 13339.00
747.9330, 13329.00
749.0810, 13232.00
750.2290, 13360.00
751.3760, 13295.00
752.5240, 13139.00
753.6710, 13399.00
754.8180, 13310.00
755.9650, 13230.00
757.1110, 13247.00
758.2580, 13307.00
759.4040, 13259.00
760.5510, 13269.00
761.6970, 13279.69
762.8420, 13306.00
763.9880, 13270.00
765.1340, 13344.00
766.2790, 13309.00
767.4240, 13391.00
768.5690, 13383.00
769.7140, 13409.00
770.8590, 13407.70
772.0030, 13228.00
773.1480, 13388.00
774.2920, 13282.00
775.4360, 13299.00
776.5800, 13360.00
777.7240, 13427.00
778.8670, 13495.00
780.0110, 13413.00
781.1540, 13466.00
782.2970, 13487.00
783.4400, 13364.00
784.5830, 13553.00
785.7250, 13622.00
786.8680, 13576.00
788.0100, 13658.00
789.1520, 13833.00
790.2940, 13712.00
791.4360, 13642.00
792.5780, 13857.00
793.7190, 13735.00
794.8600, 13745.00
796.0010, 13756.00
797.1420, 13743.00
798.2830, 13794.00
799.4240, 13799.00
800.5640, 13870.00
801.7050, 13851.69
802.8450, 13843.00
803.9850, 13838.00
805.1250, 13839.37
806.2640, 13958.00
807.4040, 13886.00
808.5430, 13867.00
809.6820, 13957.00
810.8210, 13888.00
811.9600, 13932.00
813.0990, 13967.00
814.2370, 14107.00
815.3760, 13994.00
816.5140, 14070.00
817.6520, 13952.00
818.7900, 13898.00
819.9270, 14059.00
821.0650, 14034.00
822.2020, 13983.00
823.3390, 14084.00
824.4760, 14110.00
825.6130, 14100.00
826.7500, 14191.00
827.8870, 14095.00
829.0230, 13957.00
830.1590, 14150.00
831.2950, 14158.00
832.4310, 14287.00
833.5670, 14181.00
834.7030, 14258.00
835.8380, 14299.00
836.9730, 14347.00
838.1080, 14334.00
839.2430, 14240.00
840.3780, 14291.00
841.5130, 14253.00
842.6470, 14290.00
843.7810, 14422.00
844.9150, 14403.00
846.0490, 14339.00
847.1830, 14666.00
848.3170, 14422.00
849.4500, 14302.00
850.5830, 14254.00
851.7160, 14420.00
852.8490, 14368.00
853.9820, 14486.00
855.1150, 14437.00
856.2470, 14594.00
857.3800, 14556.61
858.5120, 14612.00
859.6440, 14536.00
860.7760, 14647.00
861.9070, 14669.00
863.0390, 14662.00
864.1700, 14688.00
865.3010, 14556.00
866.4320, 14534.00
867.5630, 14712.00
868.6940, 14809.00
869.8240, 14699.00
870.9540, 14542.00
872.0850, 14709.00
873.2150, 14768.00
874.3450, 14619.00
875.4740, 14685.00
876.6040, 14897.00
877.7330, 14793.00
878.8620, 14902.00
879.9910, 14906.00
881.1200, 14821.00
882.2490, 15035.00
883.3770, 14856.00
884.5060, 14574.00
885.6340, 14910.00
886.7620, 14762.00
887.8900, 14745.00
889.0180, 15089.00
890.1450, 14982.00
891.2730, 14730.00
892.4000, 15032.00
893.5270, 15109.00
894.6540, 15167.00
895.7810, 15245.34
896.9070, 14945.00
898.0340, 15199.00
899.1600, 15069.00
900.2860, 14951.00
901.4120, 15138.00
902.5380, 15122.00
903.6630, 15042.00
904.7890, 15180.00
905.9140, 14958.00
907.0390, 15154.00
908.1640, 14994.00
909.2890, 15178.00
910.4130, 15245.00
911.5380, 15091.00
912.6620, 15114.00
913.7860, 15142.00
914.9100, 15149.00
916.0340, 15222.00
917.1580, 15291.00
918.2810, 15083.00
919.4040, 15147.00
920.5280, 15213.00
921.6510, 15191.00
922.7730, 15245.00
923.8960, 15266.00
925.0180, 15150.00
926.1410, 15168.00
927.2630, 15162.00
928.3850, 15311.00
929.5070, 15309.00
930.6280, 15268.00
931.7500, 15352.00
932.8710, 15275.00
933.9920, 15153.00
935.1130, 15441.00
936.2340, 15327.00
937.3550, 15487.00
938.4760, 15426.00
939.5960, 15408.00
940.7160, 15342.00
941.8360, 15473.00
942.9560, 15521.00
944.0760, 15407.00
945.1950, 15597.00
946.3150, 15435.00
947.4340, 15542.00
948.5530, 15454.00
949.6720, 15513.00
950.7900, 15583.05
951.9090, 15504.00
953.0270, 15672.00
954.1460, 15649.00
955.2640, 15535.00
956.3820, 15581.00
957.4990, 15584.00
958.6170, 15626.00
959.7340, 15803.00
960.8520, 15695.00
961.9690, 15727.00
963.0860, 15590.00
964.2020, 15729.00
965.3190, 15851.00
966.4350, 15736.00
967.5520, 15692.00
968.6680, 15677.00
969.7840, 15833.00
970.8990, 15864.00
972.0150, 15896.53
973.1310, 15802.00
974.2460, 15878.00
975.3610, 15898.00
976.4760, 15730.00
977.5910, 15746.00
978.7050, 15627.00
979.8200, 15613.93
980.9340, 15823.00
982.0480, 15721.00
983.1620, 15671.00
984.2760, 15973.00
985.3900, 15836.00
986.5030, 15713.00
987.6160, 15878.00
988.7300, 15849.00
989.8430, 15829.00
990.9550, 15765.00
992.0680, 15783.40
993.1810, 15760.65
994.2930, 15797.00
995.4050, 15805.00
996.5170, 15798.00
997.6290, 15922.00
998.7410, 15989.00
999.8520, 15941.00
1000.964, 16072.00
1002.075, 16251.00
1003.186, 15980.00
1004.297, 15871.00
1005.407, 15870.00
1006.518, 15920.00
1007.628, 15922.00
1008.738, 15781.00
1009.848, 15848.00
1010.958, 15856.00
1012.068, 15854.00
1013.178, 15974.00
1014.287, 15945.00
1015.396, 15897.00
1016.505, 15857.00
1017.614, 16043.00
1018.723, 16013.00
1019.831, 16005.00
1020.940, 16192.00
1022.048, 15995.00
1023.156, 16173.00
1024.264, 16221.00
1025.372, 16124.00
1026.479, 15944.00
1027.587, 16126.00
1028.694, 16325.00
1029.801, 16315.00
1030.908, 16521.00
1032.015, 16473.00
1033.121, 16369.00
1034.228, 16558.00
1035.334, 16442.00
1036.440, 16516.36
1037.546, 16686.00
1038.652, 16606.00
1039.758, 16633.00
1040.863, 16677.00
1041.968, 16853.00
1043.074, 16808.55
1044.178, 16632.00
1045.283, 16865.00
1046.388, 16924.00
1047.492, 17083.00
1048.597, 17271.00
1049.701, 17273.00
1050.805, 17383.00
1051.909, 17324.00
1053.012, 17327.00
1054.116, 17560.00
1055.219, 17625.00
1056.322, 17831.00
1057.425, 17717.00
1058.528, 17993.00
1059.631, 18145.00
1060.733, 18158.00
1061.836, 18362.00
1062.938, 18379.00
1064.040, 18676.00
1065.142, 18863.00
1066.243, 19082.00
1067.345, 19369.00
1068.446, 19743.00
1069.547, 19971.00
1070.648, 20378.00
1071.749, 20924.00
1072.850, 21364.00
1073.951, 22127.00
1075.051, 22651.00
1076.151, 23304.00
1077.251, 24240.00
1078.351, 25241.00
1079.451, 26606.00
1080.550, 28222.00
1081.650, 30087.00
1082.749, 32329.00
1083.848, 35554.00
1084.947, 39265.00
1086.046, 43831.00
1087.144, 49004.00
1088.243, 55707.00
1089.341, 63084.00
1090.439, 70873.00
1091.537, 79060.00
1092.635, 86358.00
1093.732, 92338.00
1094.830, 94949.00
1095.927, 93613.00
1097.024, 89260.00
1098.121, 82010.00
1099.218, 74514.00
1100.314, 66929.00
1101.411, 59817.00
1102.507, 54492.00
1103.603, 49479.00
1104.699, 45126.00
1105.795, 41424.00
1106.890, 38076.00
1107.986, 35312.00
1109.081, 32487.00
1110.176, 30189.00
1111.271, 28615.00
1112.366, 26539.00
1113.461, 25476.00
1114.555, 24067.00
1115.649, 23017.00
1116.744, 21990.00
1117.838, 21184.00
1118.931, 20875.00
1120.025, 20500.00
1121.119, 20093.00
1122.212, 19826.39
1123.305, 19453.00
1124.398, 19219.00
1125.491, 19020.00
1126.584, 18651.00
1127.676, 18652.00
1128.768, 18530.00
1129.861, 18153.00
1130.953, 18225.00
1132.044, 18119.00
1133.136, 18203.00
1134.228, 18101.00
1135.319, 17962.00
1136.410, 18028.00
1137.501, 17964.00
1138.592, 17966.00
1139.683, 17951.75
1140.773, 17929.00
1141.864, 17905.00
1142.954, 17860.00
1144.044, 17850.00
1145.134, 17893.00
1146.224, 17865.00
1147.313, 17764.00
1148.402, 17897.00
1149.492, 17870.00
1150.581, 17812.00
1151.670, 17998.00
1152.758, 17974.00
1153.847, 17722.00
1154.935, 17839.00
1156.024, 17676.00
1157.112, 17894.00
1158.200, 17746.00
1159.287, 17670.00
1160.375, 17834.00
1161.462, 17946.00
1162.550, 17895.00
1163.637, 17853.00
1164.724, 17687.00
1165.810, 17821.00
1166.897, 17848.00
1167.983, 17947.00
1169.070, 17793.00
1170.156, 17841.00
1171.242, 17598.00
1172.327, 17809.00
1173.413, 17674.00
1174.499, 17843.00
1175.584, 17881.00
1176.669, 18001.00
1177.754, 17915.00
1178.839, 17892.00
1179.923, 17908.00
1181.008, 17871.59
1182.092, 17907.00
1183.176, 17859.00
1184.260, 18020.00
1185.344, 18012.00
1186.428, 18035.00
1187.511, 17925.00
1188.595, 18081.00
1189.678, 18043.00
1190.761, 18269.00
1191.843, 17932.00
1192.926, 17865.00
1194.009, 18053.00
1195.091, 17899.00
1196.173, 18035.00
1197.255, 18162.00
1198.337, 17937.00
1199.419, 18211.00
1200.500, 18121.00
1201.582, 18075.00
1202.663, 18264.00
1203.744, 18286.00
1204.825, 18269.00
1205.905, 18229.00
1206.986, 18222.00
1208.066, 18112.00
1209.146, 18113.00
1210.226, 18086.48
1211.306, 18075.75
1212.386, 18054.00
1213.466, 18114.00
1214.545, 18073.48
1215.624, 18107.25
1216.703, 18111.00
1217.782, 18208.00
1218.861, 18273.00
1219.939, 18248.00
1221.018, 18404.00
1222.096, 18393.00
1223.174, 18363.00
1224.252, 18438.00
1225.330, 18593.00
1226.407, 18390.00
1227.485, 18308.00
1228.562, 18426.00
1229.639, 18732.00
1230.716, 18380.00
1231.793, 18594.00
1232.869, 18423.00
1233.946, 18450.00
1235.022, 18565.00
1236.098, 18597.00
1237.174, 18507.00
1238.250, 18584.00
1239.325, 18613.00
1240.401, 18701.00
1241.476, 18756.00
1242.551, 18742.00
1243.626, 18750.19
1244.701, 18578.00
1245.776, 18654.00
1246.850, 18624.00
1247.924, 18517.00
1248.999, 18602.00
1250.073, 18863.00
1251.146, 18641.00
1252.220, 18828.00
1253.293, 18662.00
1254.367, 18646.00
1255.440, 18833.00
1256.513, 18954.00
1257.586, 18758.00
1258.658, 18814.00
1259.731, 18875.00
1260.803, 18906.00
1261.875, 18938.78
1262.947, 18959.51
1264.019, 18957.00
1265.091, 18960.00
1266.162, 18922.00
1267.234, 18876.00
1268.305, 18877.00
1269.376, 18876.88
1270.447, 18909.16
1271.517, 18921.00
1272.588, 18940.00
1273.658, 18969.00
1274.729, 18946.13
1275.799, 18930.86
1276.868, 18903.00
