##NAMES=Magnesio-hastingsite
##RRUFFID=R040010
##IDEAL CHEMISTRY=NaCa_2_(Mg_4_Fe^3+^)Si_6_Al_2_O_22_(OH)_2_
##LOCALITY=Amity, New York, USA
##OWNER=RRUFF
##SOURCE=University of Arizona Mineral Museum
##DESCRIPTION=Group of black prismatic crystals
##STATUS=The identification of this mineral has been confirmed by X-ray diffraction and chemical analysis
##URL=rruff.info/R040010
##MEASURED CHEMISTRY=(Na_0.50_K_0.43_[box]_0.07_)_Σ=1_(Ca_1.77_Na_0.23_)_Σ=2_(Mg_1.74_Fe_1.22_Fe^3+^_0.79_Mn_0.57_Al_0.30_Zn_0.25_Ti_0.13_)_Σ=5_(Si_5.95_Al_2.05_)_Σ=8_O_22_((OH)_1.75_F_0.22_Cl_0.03_)_Σ=2_; OH estimated by charge balance
##PIN_ID=L00198
##ORIENTATION=Laser parallel to c [0 0 1]. Fiducial mark perpendicular to laser is parallel to -b* (0 -1 0)
190.4400, 29355.00
191.6680, 29298.00
192.8960, 29520.00
194.1230, 29668.00
195.3500, 30013.00
196.5770, 30125.00
197.8030, 30201.00
199.0300, 30741.00
200.2560, 31467.00
201.4830, 32149.00
202.7090, 32567.00
203.9340, 32566.00
205.1600, 32210.00
206.3860, 32616.00
207.6110, 33585.00
208.8360, 35107.00
210.0610, 36159.00
211.2860, 38003.00
212.5100, 39638.00
213.7350, 41602.00
214.9590, 43202.00
216.1830, 45131.00
217.4070, 46697.00
218.6310, 48660.00
219.8540, 50190.00
221.0780, 51031.00
222.3010, 51527.00
223.5240, 51519.00
224.7470, 51663.00
225.9690, 50790.00
227.1920, 49537.00
228.4140, 47603.00
229.6360, 46050.00
230.8580, 44251.00
232.0800, 42707.00
233.3020, 40681.00
234.5230, 39540.00
235.7440, 38098.00
236.9650, 37139.00
238.1860, 36191.00
239.4070, 35239.00
240.6280, 34764.00
241.8480, 34151.00
243.0680, 33707.00
244.2880, 33088.00
245.5080, 33136.00
246.7280, 32593.00
247.9470, 32677.00
249.1660, 32136.00
250.3860, 32192.00
251.6040, 32157.00
252.8230, 31975.00
254.0420, 32061.00
255.2600, 31927.00
256.4790, 31954.00
257.6970, 32218.00
258.9150, 32180.42
260.1320, 32086.36
261.3500, 32407.00
262.5670, 31864.00
263.7840, 31999.00
265.0010, 32174.00
266.2180, 32364.00
267.4350, 32585.00
268.6510, 32721.00
269.8680, 32718.00
271.0840, 33180.00
272.3000, 33500.00
273.5160, 33366.00
274.7310, 34180.00
275.9470, 34387.00
277.1620, 34882.00
278.3770, 35194.00
279.5920, 35380.00
280.8070, 35869.00
282.0210, 35993.00
283.2360, 36326.24
284.4500, 36746.00
285.6640, 36856.00
286.8780, 37131.00
288.0920, 37333.00
289.3050, 37322.00
290.5180, 37205.00
291.7320, 37258.00
292.9450, 37135.00
294.1570, 36968.00
295.3700, 36845.57
296.5830, 36580.00
297.7950, 36367.00
299.0070, 36041.00
300.2190, 35611.00
301.4310, 35433.00
302.6420, 35188.00
303.8540, 35123.00
305.0650, 34749.00
306.2760, 34459.00
307.4870, 34101.00
308.6980, 33982.00
309.9080, 33529.00
311.1190, 33213.00
312.3290, 32948.00
313.5390, 32522.00
314.7490, 32272.00
315.9580, 32005.00
317.1680, 31749.56
318.3770, 31534.74
319.5860, 31406.00
320.7950, 31118.00
322.0040, 31076.00
323.2130, 30887.00
324.4210, 30583.00
325.6290, 30476.00
326.8380, 30308.00
328.0460, 30184.87
329.2530, 30134.21
330.4610, 30088.00
331.6680, 30046.00
332.8760, 30145.00
334.0830, 30093.00
335.2890, 29974.00
336.4960, 29803.00
337.7030, 30092.00
338.9090, 30243.00
340.1150, 30285.00
341.3210, 30300.00
342.5270, 30271.00
343.7330, 30371.76
344.9380, 30421.00
346.1440, 30611.00
347.3490, 30681.29
348.5540, 30794.66
349.7590, 30924.00
350.9630, 31020.00
352.1680, 31198.00
353.3720, 31344.00
354.5760, 31257.00
355.7800, 31274.00
356.9840, 31680.00
358.1870, 31569.00
359.3910, 31823.00
360.5940, 31670.00
361.7970, 31617.00
363.0000, 31842.00
364.2030, 31660.00
365.4050, 31669.00
366.6080, 31714.00
367.8100, 31458.00
369.0120, 31318.00
370.2140, 31353.00
371.4150, 31143.00
372.6170, 31297.00
373.8180, 30783.00
375.0190, 31079.00
376.2200, 30865.00
377.4210, 30606.00
378.6220, 30709.00
379.8220, 30116.00
381.0230, 30102.00
382.2230, 29875.00
383.4230, 29705.00
384.6220, 29463.00
385.8220, 29323.00
387.0220, 29093.84
388.2210, 28874.71
389.4200, 28671.00
390.6190, 28437.00
391.8180, 28234.00
393.0160, 28057.00
394.2150, 27965.00
395.4130, 27922.00
396.6110, 27753.00
397.8090, 27417.00
399.0060, 27362.00
400.2040, 27435.00
401.4010, 27327.00
402.5980, 27410.00
403.7950, 27217.00
404.9920, 27071.00
406.1890, 27227.00
407.3860, 27140.00
408.5820, 27133.00
409.7780, 26952.00
410.9740, 27030.00
412.1700, 27289.00
413.3650, 27421.00
414.5610, 27344.00
415.7560, 27436.00
416.9510, 27487.00
418.1460, 27785.00
419.3410, 27949.03
420.5360, 28226.00
421.7300, 28364.00
422.9240, 28628.00
424.1180, 28628.00
425.3120, 28852.97
426.5060, 29218.00
427.7000, 29183.00
428.8930, 29408.00
430.0860, 29581.00
431.2790, 29413.00
432.4720, 29512.00
433.6650, 29380.00
434.8580, 29062.00
436.0500, 29168.00
437.2420, 29068.00
438.4340, 28980.00
439.6260, 28731.00
440.8180, 28410.00
442.0090, 28208.00
443.2010, 28226.00
444.3920, 28129.00
445.5830, 27846.00
446.7740, 27865.00
447.9640, 27682.00
449.1550, 27531.00
450.3450, 27201.00
451.5350, 27517.00
452.7250, 27456.00
453.9150, 27008.00
455.1050, 27079.00
456.2940, 26896.00
457.4830, 26911.00
458.6720, 26833.00
459.8610, 26654.00
461.0500, 26546.00
462.2390, 26562.00
463.4270, 26525.00
464.6150, 26406.00
465.8040, 26522.00
466.9910, 26375.00
468.1790, 26273.00
469.3670, 26441.00
470.5540, 26169.00
471.7410, 26004.00
472.9280, 26110.00
474.1150, 25972.00
475.3020, 26069.00
476.4890, 26070.00
477.6750, 25789.00
478.8610, 25708.00
480.0470, 25713.00
481.2330, 25962.00
482.4190, 25918.00
483.6040, 25847.00
484.7900, 26066.00
485.9750, 25999.00
487.1600, 26234.00
488.3450, 26421.00
489.5290, 26472.00
490.7140, 26455.00
491.8980, 26614.00
493.0820, 26827.00
494.2660, 27072.00
495.4500, 27251.08
496.6340, 27359.00
497.8170, 27623.00
499.0010, 27781.00
500.1840, 27883.00
501.3670, 28117.00
502.5500, 28294.00
503.7320, 28496.00
504.9150, 28749.00
506.0970, 28648.00
507.2790, 28856.00
508.4610, 28895.00
509.6430, 29240.00
510.8250, 29416.00
512.0060, 29581.00
513.1870, 29898.00
514.3680, 30184.00
515.5490, 30258.00
516.7300, 30412.00
517.9110, 30912.00
519.0910, 31534.00
520.2710, 31806.00
521.4510, 32286.00
522.6310, 32802.00
523.8110, 33327.00
524.9910, 34076.00
526.1700, 34818.00
527.3490, 34930.00
528.5280, 35259.00
529.7070, 36078.00
530.8860, 36789.00
532.0650, 36545.00
533.2430, 36566.00
534.4210, 36907.00
535.5990, 36581.00
536.7770, 36533.00
537.9550, 36004.00
539.1320, 35823.00
540.3100, 35245.00
541.4870, 35079.00
542.6640, 34463.00
543.8410, 34209.00
545.0170, 33363.00
546.1940, 33081.00
547.3700, 32632.00
548.5470, 31964.00
549.7230, 31545.00
550.8980, 31180.00
552.0740, 30700.00
553.2500, 30541.00
554.4250, 29977.00
555.6000, 29902.00
556.7750, 29478.00
557.9500, 29305.00
559.1250, 28849.00
560.2990, 28726.00
561.4730, 28254.00
562.6480, 28147.00
563.8220, 28162.00
564.9950, 27778.00
566.1690, 27564.00
567.3430, 27448.00
568.5160, 27259.00
569.6890, 26895.00
570.8620, 26919.00
572.0350, 26653.46
573.2070, 26440.32
574.3800, 26377.00
575.5520, 26061.00
576.7240, 26037.00
577.8960, 25998.00
579.0680, 25546.00
580.2400, 25464.00
581.4110, 25255.76
582.5830, 25175.00
583.7540, 24977.00
584.9250, 24828.00
586.0950, 24857.00
587.2660, 24543.00
588.4370, 24462.00
589.6070, 24500.00
590.7770, 24144.00
591.9470, 23999.00
593.1170, 24025.00
594.2860, 23769.00
595.4560, 23894.00
596.6250, 23980.00
597.7940, 23817.00
598.9630, 23924.00
600.1320, 23763.00
601.3000, 23895.00
602.4690, 23799.00
603.6370, 24121.00
604.8050, 24189.00
605.9730, 24149.00
607.1410, 24346.00
608.3090, 24615.00
609.4760, 24724.00
610.6430, 24763.00
611.8100, 25074.00
612.9770, 25331.00
614.1440, 25570.00
615.3110, 25926.00
616.4770, 26128.00
617.6430, 26632.00
618.8090, 27046.00
619.9750, 27730.00
621.1410, 28138.71
622.3070, 28592.16
623.4720, 29220.00
624.6370, 29519.00
625.8020, 30313.00
626.9670, 31027.00
628.1320, 31565.00
629.2970, 32105.00
630.4610, 33011.00
631.6250, 33516.00
632.7890, 34197.00
633.9530, 34800.00
635.1170, 35408.00
636.2810, 36009.00
637.4440, 36778.00
638.6070, 37201.00
639.7700, 37780.00
640.9330, 38204.00
642.0960, 38706.00
643.2590, 38909.00
644.4210, 39581.00
645.5830, 39907.00
646.7450, 40227.00
647.9070, 40808.00
649.0690, 41321.00
650.2310, 41437.00
651.3920, 42054.39
652.5530, 42013.00
653.7140, 42931.00
654.8750, 43346.00
656.0360, 43683.00
657.1970, 44001.98
658.3570, 44132.11
659.5170, 44098.00
660.6770, 44076.00
661.8370, 43846.00
662.9970, 43367.08
664.1570, 42273.00
665.3160, 41706.00
666.4750, 40805.00
667.6340, 39598.00
668.7930, 39196.00
669.9520, 38654.00
671.1110, 37809.00
672.2690, 37340.00
673.4270, 36925.00
674.5850, 36783.00
675.7430, 36625.00
676.9010, 36413.33
678.0590, 36565.00
679.2160, 36168.00
680.3730, 36023.00
681.5300, 35954.00
682.6870, 35573.00
683.8440, 35168.00
685.0010, 34269.00
686.1570, 33412.00
687.3130, 32635.00
688.4690, 31838.00
689.6250, 31042.00
690.7810, 30411.83
691.9370, 29775.97
693.0920, 29332.00
694.2470, 28633.00
695.4020, 28409.00
696.5570, 27790.00
697.7120, 27318.00
698.8670, 26568.00
700.0210, 26147.00
701.1750, 25868.00
702.3290, 25601.00
703.4830, 25383.00
704.6370, 25499.00
705.7910, 25571.00
706.9440, 25345.00
708.0970, 25492.00
709.2510, 25501.00
710.4030, 25590.00
711.5560, 25847.00
712.7090, 25676.00
713.8610, 25711.00
715.0140, 25851.00
716.1660, 26084.00
717.3180, 26009.00
718.4690, 26308.00
719.6210, 26547.00
720.7730, 26239.00
721.9240, 26508.00
723.0750, 26414.00
724.2260, 26553.00
725.3770, 26356.00
726.5270, 26225.00
727.6780, 26455.00
728.8280, 26591.00
729.9780, 26533.00
731.1280, 26557.00
732.2780, 26769.00
733.4280, 26750.00
734.5770, 26702.00
735.7260, 26547.00
736.8760, 26580.00
738.0250, 26474.00
739.1730, 26395.00
740.3220, 26181.00
741.4700, 26153.47
742.6190, 26119.00
743.7670, 26015.00
744.9150, 26076.00
746.0630, 25986.00
747.2100, 25832.00
748.3580, 25614.00
749.5050, 25631.00
750.6520, 25506.00
751.7990, 25312.00
752.9460, 25127.00
754.0930, 25037.31
755.2390, 25053.00
756.3860, 24854.00
757.5320, 24941.00
758.6780, 24884.00
759.8240, 24971.00
760.9690, 25019.00
762.1150, 24919.00
763.2600, 24804.00
764.4060, 24876.00
765.5510, 25179.00
766.6950, 25129.00
767.8400, 25266.00
768.9850, 25379.00
770.1290, 25460.00
771.2730, 25409.00
772.4170, 25510.00
773.5610, 25470.00
774.7050, 25499.00
775.8480, 25571.00
776.9920, 25596.07
778.1350, 25730.00
779.2780, 25726.00
780.4210, 25810.00
781.5640, 25883.00
782.7060, 25813.00
783.8490, 25998.00
784.9910, 25906.00
786.1330, 25806.00
787.2750, 25726.00
788.4170, 25866.00
789.5580, 25909.00
790.7000, 25741.00
791.8410, 25684.00
792.9820, 25581.00
794.1230, 25594.00
795.2640, 25747.00
796.4040, 25513.00
797.5450, 25665.00
798.6850, 25469.00
799.8250, 25378.00
800.9650, 25534.00
802.1050, 25369.00
803.2450, 25369.00
804.3840, 25430.00
805.5230, 25376.00
806.6630, 25290.00
807.8020, 25311.00
808.9400, 25376.00
810.0790, 25343.00
811.2170, 25178.00
812.3560, 25133.00
813.4940, 25252.00
814.6320, 25129.00
815.7700, 25271.00
816.9070, 25174.00
818.0450, 25185.00
819.1820, 25194.00
820.3190, 25011.00
821.4560, 24870.00
822.5930, 24948.00
823.7300, 24784.00
824.8670, 24708.00
826.0030, 24665.00
827.1390, 24488.00
828.2750, 24527.00
829.4110, 24553.00
830.5470, 24395.00
831.6820, 24375.00
832.8180, 24225.00
833.9530, 24172.55
835.0880, 24150.00
836.2230, 24056.00
837.3580, 24017.00
838.4920, 23962.00
839.6270, 24144.00
840.7610, 24022.00
841.8950, 23999.00
843.0290, 23782.00
844.1630, 23903.00
845.2960, 24057.00
846.4300, 24176.00
847.5630, 24037.00
848.6960, 24139.00
849.8290, 24088.00
850.9620, 23925.00
852.0940, 24072.00
853.2270, 24082.78
854.3590, 24098.00
855.4910, 24343.00
856.6230, 24151.00
857.7550, 24341.00
858.8870, 24254.00
860.0180, 24473.00
861.1500, 24607.00
862.2810, 24514.00
863.4120, 24635.00
864.5430, 24676.00
865.6730, 24660.00
866.8040, 25040.00
867.9340, 24934.00
869.0640, 25081.00
870.1940, 24962.00
871.3240, 25311.00
872.4540, 25304.00
873.5830, 25243.00
874.7130, 25481.00
875.8420, 25649.00
876.9710, 25789.00
878.1000, 26028.00
879.2290, 26023.00
880.3570, 26152.00
881.4860, 26264.00
882.6140, 26631.00
883.7420, 26807.00
884.8700, 26538.00
885.9980, 26950.00
887.1250, 26779.00
888.2530, 26937.00
889.3800, 27275.00
890.5070, 27311.00
891.6340, 27578.00
892.7610, 27658.00
893.8880, 27955.00
895.0140, 28102.00
896.1400, 28156.00
897.2670, 28362.00
898.3930, 28731.00
899.5180, 28798.00
900.6440, 29120.00
901.7700, 29356.00
902.8950, 29641.00
904.0200, 29919.00
905.1450, 30046.00
906.2700, 30223.00
907.3950, 30480.00
908.5190, 30533.00
909.6440, 30995.00
910.7680, 30996.00
911.8920, 31088.00
913.0160, 30986.00
914.1400, 31244.00
915.2630, 31299.00
916.3870, 31391.00
917.5100, 31177.00
918.6330, 31346.00
919.7560, 31100.00
920.8790, 31279.00
922.0010, 30873.00
923.1240, 31053.00
924.2460, 30867.00
925.3680, 30934.00
926.4900, 30596.00
927.6120, 31027.00
928.7340, 30749.00
929.8550, 31013.00
930.9760, 30958.00
932.0980, 30819.00
933.2190, 30785.00
934.3390, 31010.00
935.4600, 30802.00
936.5810, 31142.00
937.7010, 31151.00
938.8210, 31161.00
939.9410, 31000.00
941.0610, 31277.00
942.1810, 30920.94
943.3010, 31027.66
944.4200, 31081.24
945.5390, 31084.51
946.6580, 30886.81
947.7770, 30948.63
948.8960, 30906.44
950.0150, 30859.99
951.1330, 30958.34
952.2510, 30789.88
953.3690, 30885.94
954.4870, 30876.41
955.6050, 30915.20
956.7230, 30849.35
957.8400, 30858.00
958.9580, 30872.00
960.0750, 31070.00
961.1920, 31020.00
962.3090, 30980.00
963.4250, 31018.00
964.5420, 30661.00
965.6580, 30649.00
966.7740, 30470.00
967.8900, 30378.86
969.0060, 30433.00
970.1220, 30355.00
971.2380, 30256.00
972.3530, 30394.00
973.4680, 30210.00
974.5830, 30234.00
975.6980, 30458.00
976.8130, 30406.41
977.9280, 30765.00
979.0420, 30592.00
980.1560, 30577.00
981.2710, 30707.00
982.3850, 30587.00
983.4980, 30839.00
984.6120, 30884.00
985.7260, 31005.00
986.8390, 31168.00
987.9520, 31384.00
989.0650, 31670.00
990.1780, 31795.00
991.2910, 31978.00
992.4030, 32304.00
993.5160, 32641.00
994.6280, 32923.00
995.7400, 33385.00
996.8520, 33415.00
997.9640, 33941.00
999.0750, 34211.00
1000.187, 34808.00
1001.298, 35197.12
1002.409, 35546.00
1003.520, 35990.00
1004.631, 36508.00
1005.741, 36725.00
1006.852, 37137.00
1007.962, 37484.00
1009.072, 37663.00
1010.182, 38052.00
1011.292, 38327.00
1012.402, 38421.27
1013.511, 38575.00
1014.621, 38547.00
1015.730, 38550.00
1016.839, 38512.00
1017.948, 38494.00
1019.056, 38197.00
1020.165, 38130.00
1021.273, 37990.00
1022.382, 37441.00
1023.490, 37496.00
1024.598, 37146.00
1025.706, 36713.00
1026.813, 36493.00
1027.921, 36276.00
1029.028, 35810.00
1030.135, 35383.00
1031.242, 34877.00
1032.349, 34675.00
1033.456, 34069.00
1034.562, 33814.00
1035.668, 33260.00
1036.775, 32848.00
1037.881, 32546.00
1038.987, 32157.00
1040.092, 32142.00
1041.198, 31659.00
1042.303, 31693.00
1043.408, 31252.00
1044.514, 30969.00
1045.618, 30948.00
1046.723, 30634.00
1047.828, 30654.00
1048.932, 30260.00
1050.037, 30143.00
1051.141, 30106.00
1052.245, 29581.00
1053.349, 29671.00
1054.452, 29610.00
1055.556, 29423.00
1056.659, 29152.00
1057.762, 29460.00
1058.865, 28835.00
1059.968, 28876.00
1061.071, 28861.00
1062.174, 28457.00
1063.276, 28667.00
1064.378, 28586.00
1065.480, 28423.00
1066.582, 28107.00
1067.684, 28039.00
1068.786, 27884.66
1069.887, 27622.00
1070.988, 27709.00
1072.090, 27596.00
1073.191, 27529.00
1074.291, 27556.00
1075.392, 27406.00
1076.493, 27480.00
1077.593, 27335.00
1078.693, 27274.00
1079.793, 27130.00
1080.893, 27091.00
1081.993, 27000.03
1083.092, 26963.00
1084.192, 26891.00
1085.291, 26807.00
1086.390, 26699.92
1087.489, 26621.00
1088.588, 26470.00
1089.686, 26340.00
1090.785, 26279.00
1091.883, 26360.00
1092.981, 26014.00
1094.079, 26075.00
1095.177, 25745.00
1096.275, 25665.00
1097.373, 25730.00
1098.470, 25420.00
1099.567, 25122.00
1100.664, 25402.00
1101.761, 25056.01
1102.858, 24906.00
1103.954, 24816.00
1105.051, 24662.00
1106.147, 24601.00
1107.243, 24427.00
1108.339, 24199.00
1109.435, 24260.00
1110.531, 24102.00
1111.626, 23968.00
1112.722, 24134.00
1113.817, 23908.00
1114.912, 23906.00
1116.007, 24028.00
1117.101, 23912.00
1118.196, 23808.00
1119.290, 23784.11
1120.385, 23793.00
1121.479, 23578.00
1122.573, 23625.00
1123.666, 23465.00
1124.760, 23461.00
1125.853, 23452.00
1126.947, 23270.00
1128.040, 22945.00
1129.133, 22834.00
1130.226, 22805.00
1131.318, 22575.00
1132.411, 22778.00
1133.503, 22814.00
1134.596, 22588.00
1135.688, 22747.00
1136.780, 22645.14
1137.871, 22817.00
1138.963, 22536.00
1140.054, 22724.00
1141.146, 22587.00
1142.237, 22241.00
1143.328, 22473.00
1144.419, 22558.00
1145.509, 22412.00
1146.600, 22388.00
1147.690, 22349.00
1148.780, 22509.00
1149.870, 22330.00
1150.960, 22450.00
1152.050, 22372.00
1153.139, 22326.00
1154.229, 22239.00
1155.318, 22405.00
1156.407, 22259.00
1157.496, 22191.00
1158.585, 22392.00
1159.674, 22496.00
1160.762, 22260.00
1161.850, 22459.00
1162.939, 22309.00
1164.027, 22378.00
1165.114, 22317.00
1166.202, 22043.00
1167.290, 22247.00
1168.377, 21924.00
1169.464, 22288.00
1170.551, 22207.00
1171.638, 22289.00
1172.725, 22305.00
1173.812, 22447.00
1174.898, 22417.00
1175.984, 22397.00
1177.071, 22425.00
1178.157, 22427.00
1179.242, 22399.72
1180.328, 22367.63
1181.414, 22366.00
1182.499, 22251.00
1183.584, 22274.00
1184.669, 22212.00
1185.754, 22355.00
1186.839, 22318.00
1187.924, 22343.00
1189.008, 22245.00
1190.092, 22247.00
1191.177, 22240.00
1192.260, 22258.00
1193.344, 22236.00
1194.428, 22272.69
1195.512, 22374.00
1196.595, 22289.00
1197.678, 22233.00
1198.761, 22129.00
1199.844, 22278.00
1200.927, 22162.00
1202.009, 22241.00
1203.092, 22190.00
1204.174, 22149.05
1205.256, 22414.00
1206.338, 22220.00
1207.420, 22081.00
1208.502, 22428.00
1209.583, 22339.00
1210.665, 22249.00
1211.746, 22304.00
1212.827, 22336.00
1213.908, 22376.00
1214.988, 22375.72
1216.069, 22363.18
1217.149, 22388.00
1218.230, 22367.95
1219.310, 22370.00
1220.390, 22359.00
1221.470, 22365.00
1222.549, 22391.00
1223.629, 22329.00
1224.708, 22344.00
1225.787, 22317.00
1226.866, 22448.00
1227.945, 22403.00
1229.024, 22425.00
1230.103, 22505.00
1231.181, 22425.00
1232.259, 22296.00
1233.337, 22333.00
1234.415, 22264.00
1235.493, 22385.00
1236.571, 22316.00
1237.648, 22334.83
1238.726, 22424.00
1239.803, 22365.00
1240.880, 22420.00
1241.957, 22509.00
1243.034, 22385.00
1244.110, 22537.00
1245.187, 22403.00
1246.263, 22670.00
1247.339, 22468.00
1248.415, 22312.00
1249.491, 22486.00
1250.566, 22502.00
1251.642, 22459.00
1252.717, 22397.00
1253.793, 22260.00
1254.868, 22332.00
1255.943, 22329.00
1257.017, 22562.00
1258.092, 22233.00
1259.166, 22419.00
1260.241, 22294.00
1261.315, 22205.00
1262.389, 22461.00
1263.462, 22592.00
1264.536, 22454.00
1265.610, 22277.00
1266.683, 22503.00
1267.756, 22448.00
1268.829, 22431.00
1269.902, 22405.00
1270.975, 22414.00
1272.048, 22535.00
1273.120, 22462.00
1274.192, 22356.00
1275.264, 22594.00
1276.336, 22436.00
1277.408, 22439.00
1278.480, 22514.00
1279.551, 22511.00
1280.623, 22632.00
1281.694, 22509.00
1282.765, 22488.00
1283.836, 22550.00
1284.907, 22658.00
1285.977, 22401.00
1287.048, 22386.00
1288.118, 22493.00
1289.188, 22554.00
1290.258, 22612.00
1291.328, 22647.40
1292.398, 22687.62
1293.467, 22661.00
1294.537, 22658.00
1295.606, 22625.00
1296.675, 22419.00
1297.744, 22764.00
1298.813, 22464.00
1299.882, 22582.00
1300.950, 22555.00
1302.018, 22630.00
1303.086, 22516.00
1304.155, 22784.00
1305.222, 22624.00
1306.290, 22642.00
1307.358, 22818.00
1308.425, 22675.00
1309.492, 22666.00
1310.559, 22644.00
1311.626, 22617.00
1312.693, 22664.00
1313.760, 22585.00
1314.826, 22771.00
1315.893, 22706.00
1316.959, 22675.00
1318.025, 22532.00
1319.091, 22645.00
1320.157, 22641.00
1321.222, 22350.00
1322.288, 22533.00
1323.353, 22645.00
1324.418, 22491.00
1325.483, 22603.00
1326.548, 22686.00
1327.612, 22603.71
1328.677, 22714.43
1329.741, 22592.00
1330.806, 22729.00
1331.870, 22836.00
1332.934, 22694.00
1333.997, 22667.00
1335.061, 22674.00
1336.124, 22643.00
1337.188, 22632.00
1338.251, 22637.97
1339.314, 22609.49
1340.377, 22646.00
1341.439, 22591.00
1342.502, 22584.00
1343.564, 22612.00
1344.627, 22719.00
1345.689, 22765.00
1346.751, 22568.00
