##NAMES=Magnesio-hastingsite
##RRUFFID=R070288
##IDEAL CHEMISTRY=NaCa_2_(Mg_4_Fe^3+^)Si_6_Al_2_O_22_(OH)_2_
##LOCALITY=Dallas Gem Mine (Gem Mine; Benitoite Mine), New Idria District, San Benito County, California, USA
##OWNER=RRUFF
##SOURCE=Michael Scott
##DESCRIPTION=Dark brown to black prismatic crystals frozen in albite
##STATUS=The identification of this mineral is confirmed by single-crystal X-ray diffraction and chemical analysis.
##URL=rruff.info/R070288
##MEASURED CHEMISTRY=(Na_0.51_[box]_0.33_K_0.16_)_Σ=1_(Ca_1.75_Na_0.25_)_Σ=2_(Mg_3.02_Fe^2+^_0.61_Ti_0.37_)_Σ=4_(Fe^3+^_0.73_Al_0.27_)_Σ=1_Si_5.84_Al_2.16_O_22_(OH)_2_; (OH) estimated by difference
##PIN_ID=M01097
##ORIENTATION=Laser parallel to a* (1 0 0). Fiducial mark perpendicular to laser is parallel to b [0 1 0]
87.63200, 8479.000
88.87300, 8517.000
90.11400, 9195.000
91.35400, 9892.000
92.59500, 9345.000
93.83500, 9687.000
95.07500, 9414.000
96.31500, 8968.000
97.55400, 9088.000
98.79400, 9507.000
100.0330, 10000.00
101.2720, 9651.000
102.5110, 9279.000
103.7500, 9639.000
104.9890, 10315.00
106.2270, 11272.00
107.4650, 11182.00
108.7040, 11549.00
109.9420, 10816.00
111.1790, 11299.00
112.4170, 12490.00
113.6540, 13507.00
114.8920, 13628.00
116.1290, 13920.00
117.3650, 13912.00
118.6020, 13569.00
119.8390, 13475.00
121.0750, 13218.00
122.3110, 13022.00
123.5470, 12666.00
124.7830, 12027.00
126.0190, 11767.00
127.2540, 11683.81
128.4900, 11762.83
129.7250, 11807.44
130.9600, 11819.46
132.1950, 11701.35
133.4290, 11751.28
134.6640, 11914.00
135.8980, 12150.00
137.1320, 12309.00
138.3660, 12428.33
139.6000, 12477.27
140.8340, 12605.00
142.0670, 12509.00
143.3000, 12532.00
144.5330, 12641.00
145.7660, 12722.00
146.9990, 12721.00
148.2320, 12737.00
149.4640, 12967.00
150.6960, 12916.00
151.9280, 13028.00
153.1600, 13305.00
154.3920, 13440.00
155.6230, 13585.00
156.8550, 13534.00
158.0860, 13561.00
159.3170, 13625.00
160.5480, 13537.00
161.7780, 13644.00
163.0090, 13617.00
164.2390, 13705.00
165.4690, 13511.00
166.6990, 13353.00
167.9290, 13295.00
169.1590, 13497.00
170.3880, 13470.00
171.6180, 13418.00
172.8470, 13369.00
174.0760, 13264.00
175.3040, 13395.00
176.5330, 13191.00
177.7610, 13409.00
178.9900, 13316.00
180.2180, 13291.00
181.4460, 13243.00
182.6730, 13235.64
183.9010, 13300.73
185.1280, 13315.65
186.3560, 13282.21
187.5830, 13102.91
188.8100, 13075.92
190.0360, 12965.91
191.2630, 12837.33
192.4890, 12786.87
193.7150, 12711.00
194.9410, 12683.00
196.1670, 12466.00
197.3930, 12510.00
198.6180, 12347.00
199.8440, 12095.29
201.0690, 12012.19
202.2940, 11894.66
203.5190, 11744.55
204.7430, 11464.44
205.9680, 11352.24
207.1920, 11172.83
208.4160, 11145.00
209.6400, 11034.00
210.8640, 11166.00
212.0880, 10980.00
213.3110, 11003.00
214.5340, 10907.00
215.7570, 10885.00
216.9800, 10797.00
218.2030, 10904.00
219.4260, 10981.00
220.6480, 10987.00
221.8700, 10931.00
223.0920, 11015.00
224.3140, 10944.77
225.5360, 10880.00
226.7580, 10871.00
227.9790, 10732.00
229.2000, 10704.00
230.4210, 10670.00
231.6420, 10805.00
232.8630, 10556.00
234.0830, 10685.00
235.3040, 10547.00
236.5240, 10597.00
237.7440, 10696.00
238.9640, 10672.00
240.1830, 10701.00
241.4030, 10625.41
242.6220, 10527.58
243.8410, 10424.00
245.0600, 10341.00
246.2790, 10254.00
247.4980, 10343.00
248.7160, 10262.00
249.9340, 10229.00
251.1530, 9957.000
252.3710, 9921.000
253.5880, 9888.000
254.8060, 9688.000
256.0230, 9786.000
257.2410, 9838.000
258.4580, 9786.000
259.6750, 9632.000
260.8910, 9554.000
262.1080, 9549.000
263.3240, 9478.000
264.5410, 9481.000
265.7570, 9460.000
266.9730, 9399.000
268.1880, 9398.750
269.4040, 9320.000
270.6190, 9345.000
271.8350, 9307.000
273.0500, 9251.000
274.2650, 9287.032
275.4790, 9231.000
276.6940, 9310.000
277.9080, 9308.000
279.1220, 9291.000
280.3360, 9323.000
281.5500, 9406.000
282.7640, 9385.000
283.9770, 9433.000
285.1910, 9434.203
286.4040, 9401.000
287.6170, 9428.000
288.8300, 9310.000
290.0420, 9306.000
291.2550, 9373.000
292.4670, 9446.000
293.6790, 9392.000
294.8910, 9327.000
296.1030, 9314.000
297.3150, 9384.000
298.5260, 9315.849
299.7380, 9305.188
300.9490, 9279.000
302.1600, 9268.000
303.3710, 9288.000
304.5810, 9281.993
305.7920, 9401.000
307.0020, 9286.000
308.2120, 9288.000
309.4220, 9250.000
310.6320, 9367.000
311.8410, 9456.000
313.0510, 9283.000
314.2600, 9419.000
315.4690, 9327.000
316.6780, 9207.000
317.8870, 9325.000
319.0950, 9270.000
320.3040, 9235.000
321.5120, 9277.000
322.7200, 9245.000
323.9280, 9212.000
325.1360, 9289.000
326.3430, 9053.000
327.5510, 9226.000
328.7580, 9189.000
329.9650, 9268.000
331.1720, 9151.000
332.3790, 9177.766
333.5850, 9101.916
334.7910, 9161.000
335.9980, 9024.000
337.2040, 9028.000
338.4100, 9184.000
339.6150, 9103.000
340.8210, 9079.000
342.0260, 9051.000
343.2310, 8844.000
344.4360, 9018.000
345.6410, 8869.000
346.8460, 8961.000
348.0500, 8845.000
349.2550, 8938.000
350.4590, 8788.000
351.6630, 9055.000
352.8670, 8918.000
354.0700, 9013.000
355.2740, 8942.000
356.4770, 8920.000
357.6800, 9005.000
358.8830, 9086.000
360.0860, 9000.000
361.2890, 9018.000
362.4910, 8969.000
363.6930, 9044.000
364.8960, 8926.000
366.0980, 9143.000
367.2990, 9190.000
368.5010, 9161.000
369.7020, 9172.000
370.9040, 9212.000
372.1050, 9282.000
373.3060, 9182.000
374.5070, 9371.000
375.7070, 9240.000
376.9080, 9275.000
378.1080, 9216.000
379.3080, 9344.000
380.5080, 9360.000
381.7080, 9233.000
382.9070, 9285.000
384.1070, 9283.000
385.3060, 9231.000
386.5050, 9370.000
387.7040, 9197.000
388.9030, 9297.000
390.1010, 9145.000
391.3000, 9100.000
392.4980, 9113.000
393.6960, 9168.000
394.8940, 9049.000
396.0920, 9100.000
397.2890, 9036.000
398.4870, 8969.000
399.6840, 9019.000
400.8810, 8939.000
402.0780, 8929.000
403.2750, 8945.000
404.4710, 8952.000
405.6680, 8972.000
406.8640, 9095.000
408.0600, 9021.000
409.2560, 9212.000
410.4520, 9031.000
411.6470, 9107.000
412.8430, 9065.000
414.0380, 9065.194
415.2330, 9136.139
416.4280, 9153.000
417.6220, 9194.000
418.8170, 9287.000
420.0110, 9179.000
421.2050, 9109.000
422.4000, 9249.000
423.5930, 9129.000
424.7870, 9029.000
425.9810, 9090.000
427.1740, 9012.000
428.3670, 8950.000
429.5600, 8909.000
430.7530, 9044.000
431.9460, 8993.000
433.1380, 8911.000
434.3310, 8748.000
435.5230, 8838.000
436.7150, 8851.000
437.9070, 8844.000
439.0980, 8673.000
440.2900, 8710.000
441.4810, 8753.000
442.6720, 8554.000
443.8630, 8648.000
445.0540, 8544.000
446.2450, 8606.000
447.4350, 8596.000
448.6260, 8580.000
449.8160, 8479.000
451.0060, 8501.185
452.1960, 8597.000
453.3850, 8490.000
454.5750, 8519.000
455.7640, 8520.000
456.9530, 8519.000
458.1420, 8483.000
459.3310, 8508.000
460.5200, 8614.000
461.7080, 8459.000
462.8970, 8600.000
464.0850, 8431.000
465.2730, 8460.000
466.4610, 8516.000
467.6480, 8449.000
468.8360, 8497.507
470.0230, 8557.000
471.2100, 8530.000
472.3970, 8452.000
473.5840, 8483.000
474.7710, 8386.000
475.9570, 8372.000
477.1440, 8445.000
478.3300, 8552.000
479.5160, 8647.000
480.7020, 8680.242
481.8870, 8722.000
483.0730, 8723.877
484.2580, 8810.000
485.4430, 8798.000
486.6280, 8903.000
487.8130, 8940.913
488.9980, 8932.000
490.1820, 9043.000
491.3660, 9135.000
492.5510, 9173.000
493.7350, 9318.000
494.9180, 9382.000
496.1020, 9399.000
497.2860, 9505.000
498.4690, 9653.000
499.6520, 9861.000
500.8350, 9957.000
502.0180, 10092.00
503.2000, 10042.00
504.3830, 10345.00
505.5650, 10445.00
506.7470, 10487.00
507.9290, 10721.00
509.1110, 10853.00
510.2930, 10941.00
511.4740, 11153.00
512.6560, 11250.00
513.8370, 11406.00
515.0180, 11469.00
516.1980, 11631.00
517.3790, 11714.00
518.5600, 11976.00
519.7400, 11942.00
520.9200, 12155.00
522.1000, 12287.00
523.2800, 12279.00
524.4590, 12457.70
525.6390, 12539.62
526.8180, 12640.00
527.9970, 12789.00
529.1760, 12821.00
530.3550, 12977.00
531.5340, 12965.00
532.7120, 13092.00
533.8910, 13133.12
535.0690, 13170.79
536.2470, 13159.00
537.4250, 13321.00
538.6020, 13214.00
539.7800, 13423.00
540.9570, 13532.00
542.1340, 13588.00
543.3110, 13503.00
544.4880, 13542.00
545.6650, 13454.00
546.8410, 13498.00
548.0170, 13583.00
549.1940, 13685.00
550.3690, 13620.00
551.5450, 13591.00
552.7210, 13749.00
553.8960, 13587.00
555.0720, 13682.00
556.2470, 13752.00
557.4220, 13880.00
558.5970, 13711.00
559.7710, 13627.00
560.9460, 13665.00
562.1200, 13508.00
563.2940, 13532.00
564.4680, 13312.00
565.6420, 13333.00
566.8160, 13123.15
567.9890, 13143.00
569.1630, 12697.00
570.3360, 12757.00
571.5090, 12513.00
572.6820, 12218.00
573.8540, 12001.00
575.0270, 11834.00
576.1990, 11534.00
577.3710, 11241.00
578.5430, 10899.00
579.7150, 10640.00
580.8870, 10364.84
582.0580, 10213.00
583.2300, 9854.000
584.4010, 9729.000
585.5720, 9471.000
586.7430, 9283.000
587.9130, 9051.000
589.0840, 8989.000
590.2540, 8773.624
591.4240, 8692.000
592.5940, 8449.000
593.7640, 8541.000
594.9340, 8412.000
596.1030, 8425.000
597.2730, 8302.000
598.4420, 8193.000
599.6110, 8147.000
600.7800, 8049.000
601.9490, 8033.616
603.1170, 8021.258
604.2850, 8023.000
605.4540, 8076.000
606.6220, 8095.000
607.7900, 8117.619
608.9570, 8067.369
610.1250, 8167.326
611.2920, 8233.997
612.4590, 8269.250
613.6260, 8175.519
614.7930, 8250.997
615.9600, 8260.283
617.1270, 8267.966
618.2930, 8370.542
619.4590, 8301.497
620.6250, 8404.897
621.7910, 8441.077
622.9570, 8509.705
624.1220, 8511.696
625.2880, 8535.802
626.4530, 8628.813
627.6180, 8685.445
628.7830, 8684.251
629.9480, 8761.760
631.1120, 8797.000
632.2770, 8753.000
633.4410, 8738.000
634.6050, 8889.000
635.7690, 9015.000
636.9330, 9026.000
638.0960, 9112.000
639.2600, 9247.000
640.4230, 9284.000
641.5860, 9343.727
642.7490, 9515.740
643.9120, 9653.324
645.0740, 9758.255
646.2370, 9733.128
647.3990, 9875.968
648.5610, 9951.461
649.7230, 10024.20
650.8850, 10140.00
652.0460, 10250.00
653.2080, 10361.00
654.3690, 10330.00
655.5300, 10490.00
656.6910, 10497.00
657.8520, 10701.00
659.0130, 10680.00
660.1730, 10779.00
661.3330, 10829.00
662.4930, 10885.00
663.6530, 10833.00
664.8130, 10939.00
665.9730, 10817.00
667.1320, 10844.00
668.2920, 10731.00
669.4510, 10681.00
670.6100, 10624.00
671.7680, 10481.00
672.9270, 10469.00
674.0860, 10365.00
675.2440, 10262.00
676.4020, 10271.00
677.5600, 10097.00
678.7180, 10190.00
679.8760, 10237.00
681.0330, 10205.00
682.1900, 10032.00
683.3480, 10161.00
684.5050, 10147.00
685.6610, 10261.00
686.8180, 10099.00
687.9750, 10129.00
689.1310, 10264.00
690.2870, 10125.00
691.4430, 10088.00
692.5990, 10104.00
693.7550, 10137.00
694.9100, 10009.00
696.0660, 10110.00
697.2210, 10009.00
698.3760, 10044.00
699.5310, 9991.882
700.6860, 9988.537
701.8400, 10007.68
702.9940, 9997.000
704.1490, 10045.00
705.3030, 10050.00
706.4570, 10074.00
707.6100, 10119.50
708.7640, 10108.00
709.9170, 10211.00
711.0710, 10277.00
712.2240, 10335.00
713.3770, 10259.00
714.5290, 10498.00
715.6820, 10755.00
716.8340, 10705.95
717.9870, 10851.47
719.1390, 10805.00
720.2910, 10871.00
721.4430, 11024.00
722.5940, 10983.00
723.7460, 10979.00
724.8970, 11121.36
726.0480, 11228.58
727.1990, 11307.06
728.3500, 11358.21
729.5000, 11308.81
730.6510, 11382.57
731.8010, 11402.88
732.9510, 11418.22
734.1010, 11500.98
735.2510, 11451.25
736.4010, 11527.08
737.5500, 11494.00
738.7000, 11510.00
739.8490, 11479.00
740.9980, 11486.00
742.1470, 11548.00
743.2950, 11543.00
744.4440, 11485.00
745.5920, 11603.00
746.7400, 11572.00
747.8880, 11437.00
749.0360, 11485.00
750.1840, 11454.00
751.3310, 11432.18
752.4790, 11457.00
753.6260, 11460.20
754.7730, 11566.83
755.9200, 11639.03
757.0670, 11678.66
758.2130, 11588.13
759.3600, 11665.67
760.5060, 11675.83
761.6520, 11683.24
762.7980, 11784.40
763.9440, 11712.79
765.0890, 11812.45
766.2350, 11955.00
767.3800, 11954.00
768.5250, 11999.00
769.6700, 11972.00
770.8150, 12030.44
771.9590, 12077.92
773.1040, 12140.00
774.2480, 12210.00
775.3920, 12292.00
776.5360, 12366.00
777.6800, 12446.00
778.8240, 12541.00
779.9670, 12496.00
781.1100, 12665.00
782.2540, 12735.00
783.3970, 12741.00
784.5390, 12895.00
785.6820, 13054.00
786.8240, 12871.00
787.9670, 13003.00
789.1090, 13114.00
790.2510, 13321.00
791.3930, 13108.00
792.5350, 13189.00
793.6760, 13194.00
794.8170, 13334.00
795.9590, 13261.00
797.1000, 13265.05
798.2410, 13333.00
799.3810, 13205.00
800.5220, 13175.00
801.6620, 13219.00
802.8030, 13038.00
803.9430, 13028.00
805.0820, 13004.00
806.2220, 13008.00
807.3620, 12935.55
808.5010, 12875.55
809.6410, 12799.00
810.7800, 12709.00
811.9190, 12659.00
813.0570, 12595.00
814.1960, 12462.00
815.3340, 12331.00
816.4730, 12232.00
817.6110, 12067.73
818.7490, 12034.82
819.8870, 11967.49
821.0240, 11867.68
822.1620, 11637.63
823.2990, 11575.73
824.4360, 11446.49
825.5730, 11314.47
826.7100, 11276.23
827.8470, 11065.21
828.9830, 11025.57
830.1200, 10861.00
831.2560, 10850.00
832.3920, 10777.00
833.5280, 10649.00
834.6630, 10659.00
835.7990, 10422.00
836.9340, 10312.00
838.0700, 10331.00
839.2050, 10277.00
840.3400, 10184.91
841.4740, 10132.42
842.6090, 10010.00
843.7430, 9942.000
844.8780, 9868.000
846.0120, 9755.000
847.1460, 9742.000
848.2790, 9693.006
849.4130, 9794.000
850.5460, 9582.000
851.6800, 9718.000
852.8130, 9510.000
853.9460, 9586.000
855.0790, 9657.000
856.2110, 9597.000
857.3440, 9553.000
858.4760, 9542.000
859.6080, 9677.000
860.7400, 9706.000
861.8720, 9686.000
863.0040, 9666.000
864.1350, 9851.000
865.2670, 9794.000
866.3980, 9847.000
867.5290, 9857.516
868.6600, 9895.000
869.7900, 9908.154
870.9210, 9925.111
872.0510, 9920.000
873.1820, 9960.000
874.3120, 9954.000
875.4420, 9983.000
876.5710, 10072.00
877.7010, 10198.00
878.8300, 10082.00
879.9600, 10252.05
881.0890, 10274.07
882.2180, 10436.00
883.3460, 10399.00
884.4750, 10452.00
885.6040, 10504.00
886.7320, 10580.00
887.8600, 10597.45
888.9880, 10659.00
890.1160, 10641.00
891.2430, 10622.00
892.3710, 10641.00
893.4980, 10735.00
894.6260, 10625.00
895.7530, 10800.00
896.8790, 10588.00
898.0060, 10640.00
899.1330, 10735.00
900.2590, 10539.00
901.3850, 10580.00
902.5110, 10617.00
903.6370, 10673.00
904.7630, 10475.00
905.8890, 10543.00
907.0140, 10419.00
908.1390, 10295.00
909.2640, 10399.00
910.3890, 10173.00
911.5140, 10302.00
912.6390, 10438.00
913.7630, 10246.00
914.8870, 10301.00
916.0120, 10187.00
917.1360, 10058.00
918.2590, 10179.00
919.3830, 10254.00
920.5070, 10286.00
921.6300, 10323.38
922.7530, 10229.52
923.8760, 10283.96
924.9990, 10305.82
926.1220, 10197.54
927.2440, 10257.30
928.3670, 10249.72
929.4890, 10239.37
930.6110, 10322.79
931.7330, 10233.42
932.8540, 10315.34
933.9760, 10328.89
935.0980, 10315.99
936.2190, 10354.67
937.3400, 10362.00
938.4610, 10369.00
939.5820, 10461.00
940.7020, 10466.08
941.8230, 10380.00
942.9430, 10325.71
944.0630, 10405.72
945.1830, 10451.31
946.3030, 10464.32
947.4230, 10347.18
948.5420, 10398.10
949.6610, 10381.67
950.7810, 10362.48
951.9000, 10437.05
953.0190, 10338.85
954.1370, 10411.93
955.2560, 10416.64
956.3740, 10452.64
957.4920, 10420.88
958.6110, 10410.04
959.7280, 10467.00
960.8460, 10486.42
961.9640, 10446.85
963.0810, 10444.89
964.1990, 10497.00
965.3160, 10396.00
966.4330, 10299.00
967.5490, 10332.00
968.6660, 10390.00
969.7830, 10301.00
970.8990, 10287.00
972.0150, 10195.00
973.1310, 10157.00
974.2470, 10145.52
975.3630, 10207.00
976.4780, 10155.00
977.5930, 10215.00
978.7090, 10277.00
979.8240, 10459.00
980.9390, 10383.01
982.0530, 10380.04
983.1680, 10314.00
984.2820, 10267.00
985.3970, 10292.00
986.5110, 10353.00
987.6250, 10294.00
988.7380, 10315.00
989.8520, 10259.00
990.9660, 10306.17
992.0790, 10379.00
993.1920, 10408.00
994.3050, 10426.00
995.4180, 10484.00
996.5300, 10526.00
997.6430, 10585.00
998.7550, 10689.00
999.8680, 10639.00
1000.980, 10780.00
1002.091, 10707.00
1003.203, 10639.00
1004.315, 10773.00
1005.426, 10848.00
1006.537, 10815.00
1007.648, 10892.00
1008.759, 10872.00
1009.870, 11014.00
1010.981, 10850.00
1012.091, 10970.00
1013.201, 10914.00
1014.312, 10947.00
1015.422, 10906.00
1016.531, 10909.67
1017.641, 10825.00
1018.751, 10943.00
1019.860, 10869.00
1020.969, 10941.00
1022.078, 10926.00
1023.187, 10981.00
1024.296, 10816.00
1025.404, 10721.00
1026.513, 10667.00
1027.621, 10816.00
1028.729, 10865.00
1029.837, 10606.00
1030.945, 10823.00
1032.052, 10712.00
1033.160, 10512.00
1034.267, 10601.00
1035.374, 10500.00
1036.481, 10572.00
1037.588, 10516.00
1038.695, 10541.80
1039.801, 10420.00
1040.907, 10541.00
1042.014, 10449.00
1043.120, 10307.00
1044.225, 10379.00
1045.331, 10460.00
1046.437, 10353.00
1047.542, 10410.00
1048.647, 10391.00
1049.752, 10418.00
1050.857, 10396.00
1051.962, 10419.00
1053.067, 10287.00
1054.171, 10331.00
1055.275, 10129.00
1056.380, 10197.00
1057.484, 10369.00
1058.587, 10291.00
1059.691, 10274.00
1060.795, 10233.00
1061.898, 10217.21
1063.001, 10285.00
1064.104, 10236.00
1065.207, 10178.00
1066.310, 10241.00
1067.412, 10209.28
1068.515, 10285.00
1069.617, 10237.00
1070.719, 10216.00
1071.821, 10229.00
1072.923, 10294.00
1074.024, 10057.00
1075.126, 10051.00
1076.227, 10117.00
1077.328, 9944.000
1078.429, 10013.00
1079.530, 9942.000
1080.631, 9982.000
1081.731, 9821.000
1082.831, 9862.000
1083.932, 9842.000
1085.032, 9814.000
1086.132, 9776.000
1087.231, 9739.730
1088.331, 9707.310
1089.430, 9644.000
1090.530, 9669.000
1091.629, 9609.000
1092.728, 9653.000
1093.826, 9577.000
1094.925, 9449.000
1096.023, 9624.000
1097.122, 9475.000
1098.220, 9482.000
1099.318, 9422.000
1100.416, 9374.000
1101.513, 9348.394
1102.611, 9330.000
1103.708, 9283.000
1104.806, 9245.000
1105.903, 9240.000
1107.000, 9064.000
1108.096, 9197.000
1109.193, 9252.000
1110.289, 9097.000
1111.386, 9201.000
1112.482, 9111.000
1113.578, 9036.000
1114.673, 9020.000
1115.769, 9075.000
1116.865, 9020.974
1117.960, 9095.000
1119.055, 9010.000
1120.150, 8935.000
1121.245, 8956.000
1122.340, 8916.598
1123.434, 8887.000
1124.529, 8895.000
1125.623, 8876.497
1126.717, 8858.015
1127.811, 8869.000
1128.905, 8800.000
1129.998, 8774.000
1131.092, 8702.000
1132.185, 8674.000
1133.278, 8724.000
1134.371, 8704.000
1135.464, 8756.000
1136.557, 8705.000
1137.649, 8718.000
1138.742, 8658.000
1139.834, 8618.000
1140.926, 8731.000
1142.018, 8565.000
1143.109, 8518.000
1144.201, 8532.000
1145.292, 8629.000
1146.384, 8552.276
1147.475, 8584.590
1148.566, 8539.000
1149.657, 8513.000
1150.747, 8638.000
1151.838, 8514.000
1152.928, 8513.000
1154.018, 8367.000
1155.108, 8442.000
1156.198, 8544.000
1157.288, 8395.000
1158.377, 8419.000
1159.467, 8468.000
1160.556, 8401.000
1161.645, 8470.000
1162.734, 8510.000
1163.823, 8418.000
1164.911, 8406.000
1166.000, 8444.000
1167.088, 8501.000
1168.176, 8400.000
1169.264, 8501.000
1170.352, 8406.000
1171.440, 8480.000
1172.527, 8463.000
1173.615, 8362.000
1174.702, 8512.000
1175.789, 8392.000
1176.876, 8377.000
1177.963, 8426.000
1179.049, 8301.000
1180.136, 8489.000
1181.222, 8474.000
1182.308, 8486.000
1183.394, 8461.000
1184.480, 8509.000
1185.566, 8431.000
1186.651, 8472.000
1187.736, 8353.000
1188.822, 8432.000
1189.907, 8412.000
1190.992, 8459.000
1192.076, 8427.000
1193.161, 8450.282
1194.245, 8465.000
1195.330, 8465.000
1196.414, 8500.000
1197.498, 8483.383
1198.581, 8503.000
1199.665, 8394.000
1200.749, 8480.000
1201.832, 8419.000
1202.915, 8404.000
1203.998, 8448.000
1205.081, 8507.000
1206.164, 8434.000
1207.246, 8397.000
1208.329, 8473.000
1209.411, 8459.000
1210.493, 8498.000
1211.575, 8509.000
1212.657, 8372.000
1213.738, 8320.000
1214.820, 8482.000
1215.901, 8405.000
1216.982, 8496.000
1218.063, 8399.000
1219.144, 8407.000
1220.225, 8462.000
1221.305, 8296.000
1222.386, 8419.000
1223.466, 8458.000
1224.546, 8354.000
1225.626, 8509.000
1226.706, 8480.000
1227.785, 8270.000
1228.865, 8424.000
1229.944, 8449.000
1231.023, 8553.000
1232.102, 8546.000
1233.181, 8506.000
1234.260, 8441.000
1235.338, 8341.000
1236.417, 8349.000
1237.495, 8440.000
1238.573, 8542.000
1239.651, 8434.000
1240.729, 8305.000
1241.806, 8368.728
1242.884, 8473.000
1243.961, 8380.000
1245.038, 8461.000
1246.115, 8464.000
1247.192, 8540.000
1248.269, 8496.000
1249.345, 8511.000
1250.421, 8452.000
1251.498, 8470.000
1252.574, 8389.000
1253.650, 8393.000
1254.725, 8497.000
1255.801, 8425.000
