##NAMES=Magnesio-hastingsite
##RRUFFID=R070288
##IDEAL CHEMISTRY=NaCa_2_(Mg_4_Fe^3+^)Si_6_Al_2_O_22_(OH)_2_
##LOCALITY=Dallas Gem Mine (Gem Mine; Benitoite Mine), New Idria District, San Benito County, California, USA
##OWNER=RRUFF
##SOURCE=Michael Scott
##DESCRIPTION=Dark brown to black prismatic crystals frozen in albite
##STATUS=The identification of this mineral is confirmed by single-crystal X-ray diffraction and chemical analysis.
##URL=rruff.info/R070288
##MEASURED CHEMISTRY=(Na_0.51_[box]_0.33_K_0.16_)_Σ=1_(Ca_1.75_Na_0.25_)_Σ=2_(Mg_3.02_Fe^2+^_0.61_Ti_0.37_)_Σ=4_(Fe^3+^_0.73_Al_0.27_)_Σ=1_Si_5.84_Al_2.16_O_22_(OH)_2_; (OH) estimated by difference
##PIN_ID=M00823
##ORIENTATION=Laser parallel to -b* (0 -1 0). Fiducial mark perpendicular to laser is parallel to c [0 0 1]
103.5200, 25462.00
104.7500, 27382.00
105.9810, 26419.00
107.2110, 27021.00
108.4410, 27085.00
109.6700, 26684.00
110.9000, 27759.00
112.1300, 27304.00
113.3590, 28404.00
114.5880, 29753.00
115.8170, 30260.00
117.0460, 29722.00
118.2750, 29746.00
119.5040, 29579.00
120.7320, 28772.00
121.9610, 28655.00
123.1890, 28564.00
124.4170, 27967.00
125.6450, 27135.00
126.8730, 26912.00
128.1010, 26615.00
129.3280, 27012.00
130.5560, 26933.00
131.7830, 26833.00
133.0100, 26432.00
134.2380, 26341.00
135.4640, 26245.00
136.6910, 26119.00
137.9180, 26464.00
139.1440, 27009.00
140.3710, 27141.00
141.5970, 27183.00
142.8230, 27193.00
144.0490, 27702.00
145.2750, 27999.00
146.5000, 28014.00
147.7260, 28294.00
148.9510, 28755.00
150.1770, 29513.00
151.4020, 29993.00
152.6270, 30868.00
153.8520, 31809.00
155.0760, 32860.00
156.3010, 33858.00
157.5250, 34284.00
158.7500, 34611.00
159.9740, 35286.00
161.1980, 35296.00
162.4220, 35111.00
163.6450, 34732.00
164.8690, 33995.00
166.0920, 33190.00
167.3160, 32589.00
168.5390, 31964.00
169.7620, 31296.00
170.9850, 31390.00
172.2080, 30755.00
173.4300, 30368.00
174.6530, 30868.00
175.8750, 30740.00
177.0970, 30880.00
178.3190, 30603.00
179.5410, 30758.00
180.7630, 30575.00
181.9850, 30446.00
183.2060, 30686.00
184.4270, 30222.00
185.6490, 30333.00
186.8700, 30496.00
188.0910, 30335.00
189.3110, 30444.00
190.5320, 30083.00
191.7530, 30170.00
192.9730, 30192.00
194.1930, 29877.00
195.4130, 29972.00
196.6330, 29896.00
197.8530, 29960.00
199.0730, 30255.00
200.2920, 30361.00
201.5120, 30301.00
202.7310, 30290.00
203.9500, 30387.00
205.1690, 30330.00
206.3880, 30668.00
207.6070, 30783.00
208.8250, 31229.00
210.0440, 31490.00
211.2620, 32151.00
212.4800, 32423.00
213.6980, 33172.00
214.9160, 33825.00
216.1340, 34698.00
217.3510, 35556.00
218.5690, 36498.00
219.7860, 37343.00
221.0030, 38083.00
222.2200, 38943.00
223.4370, 39421.00
224.6540, 39776.00
225.8700, 39478.00
227.0870, 39033.00
228.3030, 38339.00
229.5190, 37244.00
230.7350, 36212.00
231.9510, 35338.00
233.1670, 34365.00
234.3820, 33384.00
235.5980, 32772.00
236.8130, 31954.00
238.0280, 31453.16
239.2430, 31099.00
240.4580, 30657.00
241.6730, 30410.00
242.8880, 30207.69
244.1020, 29776.90
245.3160, 29699.78
246.5300, 29573.26
247.7450, 29249.32
248.9580, 29180.41
250.1720, 29009.26
251.3860, 28833.93
252.5990, 28800.87
253.8130, 28692.00
255.0260, 28688.00
256.2390, 28558.00
257.4520, 28504.81
258.6640, 28382.00
259.8770, 28189.00
261.0890, 28449.00
262.3020, 28214.00
263.5140, 27862.00
264.7260, 27933.00
265.9380, 28188.00
267.1500, 28014.00
268.3610, 27913.00
269.5730, 28083.00
270.7840, 27918.00
271.9950, 28142.00
273.2060, 28002.00
274.4170, 27929.00
275.6280, 28023.00
276.8390, 28194.00
278.0490, 27946.62
279.2590, 28129.72
280.4690, 28260.63
281.6800, 28342.21
282.8890, 28226.38
284.0990, 28365.37
285.3090, 28402.26
286.5180, 28434.92
287.7280, 28609.77
288.9370, 28522.63
290.1460, 28871.00
291.3550, 28928.00
292.5630, 29143.00
293.7720, 28868.00
294.9800, 29190.00
296.1890, 29032.00
297.3970, 29240.42
298.6050, 29338.37
299.8130, 29406.96
301.0200, 29447.74
302.2280, 29377.57
303.4360, 29450.71
304.6430, 29466.39
305.8500, 29479.71
307.0570, 29573.00
308.2640, 29518.94
309.4710, 29610.96
310.6770, 29644.64
311.8840, 29705.04
313.0900, 29635.00
314.2960, 29723.00
315.5020, 29725.00
316.7080, 29714.81
317.9140, 29787.93
319.1190, 29824.50
320.3250, 29826.10
321.5300, 29709.53
322.7350, 29729.10
323.9400, 29684.05
325.1450, 29629.46
326.3500, 29647.65
327.5540, 29511.35
328.7580, 29513.97
329.9630, 29451.04
331.1670, 29407.68
332.3710, 29371.25
333.5750, 29247.86
334.7780, 29268.00
335.9820, 29038.00
337.1850, 28954.00
338.3880, 28936.00
339.5920, 28797.00
340.7950, 28883.00
341.9970, 28962.00
343.2000, 28758.00
344.4030, 28541.00
345.6050, 28575.00
346.8070, 28736.00
348.0090, 28473.00
349.2110, 28626.00
350.4130, 28617.00
351.6150, 28456.00
352.8160, 28779.00
354.0170, 28565.00
355.2190, 28678.00
356.4200, 28367.00
357.6210, 28844.00
358.8210, 28505.00
360.0220, 28567.00
361.2220, 28854.00
362.4230, 28782.00
363.6230, 28858.00
364.8230, 28604.00
366.0230, 28690.00
367.2230, 28632.00
368.4220, 28866.00
369.6220, 28742.00
370.8210, 29214.00
372.0200, 28840.00
373.2190, 29100.00
374.4180, 29156.87
375.6170, 29162.81
376.8150, 29206.00
378.0140, 29346.00
379.2120, 29208.00
380.4100, 29200.00
381.6080, 29435.00
382.8060, 29501.56
384.0040, 29544.40
385.2010, 29569.85
386.3980, 29578.83
387.5960, 29522.05
388.7930, 29550.20
389.9900, 29476.00
391.1870, 29376.00
392.3830, 29391.00
393.5800, 29326.80
394.7760, 29315.06
395.9720, 29249.00
397.1680, 29298.00
398.3640, 29279.00
399.5600, 29259.00
400.7560, 29487.00
401.9510, 29168.00
403.1460, 29287.00
404.3420, 29468.00
405.5370, 29380.00
406.7320, 29299.00
407.9260, 29146.00
409.1210, 29409.00
410.3150, 29231.00
411.5100, 29440.00
412.7040, 29547.00
413.8980, 29659.00
415.0920, 29494.00
416.2850, 29336.00
417.4790, 29656.00
418.6720, 29756.00
419.8650, 29549.00
421.0590, 29696.00
422.2510, 29563.00
423.4440, 29643.76
424.6370, 29775.78
425.8290, 29857.24
427.0220, 29890.70
428.2140, 29742.99
429.4060, 29821.02
430.5980, 29803.58
431.7900, 29778.81
432.9810, 29878.40
434.1730, 29738.68
435.3640, 29829.12
436.5550, 29822.70
437.7460, 29855.41
438.9370, 29792.10
440.1280, 29681.72
441.3190, 29793.28
442.5090, 29850.05
443.6990, 29854.58
444.8890, 29673.74
446.0790, 29714.41
447.2690, 29655.38
448.4590, 29584.79
449.6480, 29634.38
450.8380, 29440.39
452.0270, 29472.38
453.2160, 29501.00
454.4050, 29166.00
455.5940, 29210.00
456.7820, 29279.00
457.9710, 29079.00
459.1590, 28994.00
460.3470, 28862.00
461.5350, 28801.00
462.7230, 28739.00
463.9110, 28707.00
465.0990, 28716.00
466.2860, 28348.00
467.4730, 28272.00
468.6600, 28291.00
469.8470, 28190.00
471.0340, 28167.00
472.2210, 28122.00
473.4070, 28070.00
474.5940, 27989.00
475.7800, 28286.00
476.9660, 28098.00
478.1520, 28351.00
479.3380, 28204.00
480.5230, 28280.00
481.7090, 28243.00
482.8940, 28538.00
484.0790, 28381.00
485.2650, 28500.00
486.4490, 28783.00
487.6340, 28820.00
488.8190, 28882.00
490.0030, 28865.00
491.1870, 29165.00
492.3720, 29139.68
493.5550, 29276.00
494.7390, 29249.00
495.9230, 29266.00
497.1060, 29274.00
498.2900, 29210.00
499.4730, 29305.36
500.6560, 29313.17
501.8390, 29459.88
503.0220, 29573.19
504.2040, 29655.57
505.3870, 29574.01
506.5690, 29735.24
507.7510, 29818.13
508.9330, 29910.82
510.1150, 30144.99
511.2970, 30218.00
512.4780, 30396.00
513.6600, 30533.02
514.8410, 30724.69
516.0220, 30898.95
517.2030, 31056.76
518.3840, 31148.80
519.5650, 31325.77
520.7450, 31468.57
521.9250, 31609.97
523.1060, 31798.90
524.2860, 31900.37
525.4660, 32362.00
526.6450, 32699.00
527.8250, 32935.00
529.0040, 32913.00
530.1840, 33264.00
531.3630, 33161.00
532.5420, 33133.00
533.7200, 33120.00
534.8990, 33076.00
536.0780, 33083.00
537.2560, 33144.00
538.4340, 33343.00
539.6120, 33416.00
540.7900, 33300.00
541.9680, 33208.00
543.1460, 33364.00
544.3230, 33292.00
545.5000, 33170.00
546.6770, 33320.00
547.8540, 33354.00
549.0310, 32997.00
550.2080, 33420.00
551.3840, 33328.00
552.5610, 33073.00
553.7370, 32885.00
554.9130, 33029.00
556.0890, 33046.00
557.2650, 33287.00
558.4400, 32949.00
559.6160, 33217.00
560.7910, 33030.00
561.9660, 33307.00
563.1410, 33242.00
564.3160, 33089.00
565.4910, 33117.00
566.6650, 33197.00
567.8400, 33187.00
569.0140, 32973.00
570.1880, 32806.00
571.3620, 32711.55
572.5360, 32563.18
573.7090, 32399.00
574.8830, 32224.00
576.0560, 31951.00
577.2290, 31824.89
578.4020, 31515.00
579.5750, 31399.00
580.7480, 31095.74
581.9200, 30643.00
583.0930, 30736.00
584.2650, 30292.00
585.4370, 30326.00
586.6090, 30033.00
587.7810, 30085.00
588.9520, 30242.00
590.1240, 30062.12
591.2950, 30046.00
592.4660, 30034.00
593.6370, 29981.00
594.8080, 30144.00
595.9790, 30123.00
597.1500, 30146.16
598.3200, 29902.00
599.4900, 30175.00
600.6600, 30161.00
601.8300, 30195.00
603.0000, 30352.00
604.1700, 30411.00
605.3390, 30404.00
606.5080, 30703.00
607.6770, 30581.00
608.8460, 30746.00
610.0150, 30830.00
611.1840, 30985.00
612.3520, 31153.00
613.5210, 31331.00
614.6890, 31327.00
615.8570, 31429.00
617.0250, 31504.00
618.1930, 31584.13
619.3600, 31751.00
620.5280, 31769.00
621.6950, 32051.00
622.8620, 32114.54
624.0290, 32307.76
625.1960, 32612.00
626.3630, 32774.00
627.5290, 33266.00
628.6960, 33713.00
629.8620, 33670.00
631.0280, 34211.00
632.1940, 34460.00
633.3600, 35201.00
634.5250, 35382.00
635.6910, 35829.00
636.8560, 36274.00
638.0210, 36640.00
639.1860, 37197.00
640.3510, 37670.00
641.5150, 38474.00
642.6800, 38666.00
643.8440, 39420.00
645.0080, 39578.00
646.1720, 40172.00
647.3360, 40551.00
648.5000, 41048.00
649.6640, 41410.00
650.8270, 41771.49
651.9900, 42142.00
653.1530, 42462.00
654.3160, 42765.00
655.4790, 43157.00
656.6420, 43458.00
657.8040, 43922.00
658.9660, 44089.00
660.1290, 44268.00
661.2910, 44440.00
662.4520, 44537.00
663.6140, 44500.00
664.7760, 44386.23
665.9370, 43974.00
667.0980, 43750.00
668.2590, 43187.00
669.4200, 42398.00
670.5810, 41572.00
671.7420, 41060.00
672.9020, 40408.00
674.0620, 39391.00
675.2220, 38911.00
676.3820, 38498.00
677.5420, 38159.00
678.7020, 37925.10
679.8610, 37678.90
681.0210, 37434.86
682.1800, 37195.27
683.3390, 36864.78
684.4980, 36734.01
685.6560, 36573.64
686.8150, 36446.39
687.9730, 36446.50
689.1320, 36398.00
690.2900, 35941.00
691.4480, 36120.00
692.6050, 35323.00
693.7630, 35205.00
694.9200, 34545.00
696.0780, 34319.00
697.2350, 33935.00
698.3920, 33828.00
699.5490, 33595.50
700.7050, 33235.00
701.8620, 33248.00
703.0180, 32951.00
704.1740, 32722.00
705.3300, 32481.00
706.4860, 32394.00
707.6420, 32391.00
708.7970, 32342.00
709.9530, 32297.00
711.1080, 32238.77
712.2630, 32507.00
713.4180, 32271.00
714.5730, 31963.00
715.7280, 32342.00
716.8820, 32138.00
718.0360, 32328.00
719.1900, 32026.00
720.3440, 32068.96
721.4980, 32064.00
722.6520, 32093.00
723.8050, 31920.00
724.9590, 32084.00
726.1120, 32036.00
727.2650, 32222.00
728.4180, 32291.00
729.5700, 31868.00
730.7230, 32218.00
731.8750, 32088.00
733.0280, 31983.00
734.1800, 32134.00
735.3320, 31940.00
736.4830, 32051.00
737.6350, 31999.00
738.7860, 32208.00
739.9380, 32120.62
741.0890, 32024.00
742.2400, 32077.00
743.3910, 31978.00
744.5410, 32071.00
745.6920, 32128.00
746.8420, 31975.00
747.9920, 32084.00
749.1420, 32123.00
750.2920, 31961.00
751.4420, 31889.00
752.5910, 32160.00
753.7410, 31976.82
754.8900, 32091.00
756.0390, 31853.00
757.1880, 32102.00
758.3370, 31972.00
759.4850, 32175.00
760.6340, 32064.00
761.7820, 32133.00
762.9300, 32288.00
764.0780, 32304.00
765.2260, 32472.00
766.3730, 32531.00
767.5210, 32392.00
768.6680, 32572.27
769.8150, 32628.00
770.9620, 32707.00
772.1090, 32883.00
773.2560, 32878.00
774.4020, 32998.00
775.5490, 33044.00
776.6950, 33020.00
777.8410, 33181.00
778.9870, 33269.00
780.1330, 33435.00
781.2780, 33668.00
782.4230, 33727.00
783.5690, 34179.00
784.7140, 33933.00
785.8590, 34190.00
787.0030, 34076.00
788.1480, 34049.00
789.2920, 34322.00
790.4370, 34477.00
791.5810, 34592.00
792.7250, 34504.00
793.8690, 34447.00
795.0120, 35051.00
796.1560, 34787.08
797.2990, 34853.00
798.4420, 34756.00
799.5850, 34644.00
800.7280, 34706.00
801.8710, 34909.00
803.0130, 34421.00
804.1550, 34747.00
805.2980, 34855.00
806.4400, 34629.00
807.5810, 34709.00
808.7230, 34442.00
809.8650, 34835.00
811.0060, 34664.00
812.1470, 34836.75
813.2880, 34763.00
814.4290, 35121.05
815.5700, 34850.00
816.7110, 34896.00
817.8510, 34735.00
818.9910, 34777.00
820.1310, 34847.00
821.2710, 34740.32
822.4110, 35017.00
823.5510, 34635.00
824.6900, 34931.00
825.8290, 34885.00
826.9680, 34934.00
828.1070, 34757.00
829.2460, 34844.00
830.3850, 34778.00
831.5230, 34634.00
832.6620, 34542.00
833.8000, 34419.00
834.9380, 34317.00
836.0760, 34254.57
837.2130, 34150.00
838.3510, 34045.00
839.4880, 34023.30
840.6250, 33887.00
841.7620, 33948.00
842.8990, 33960.00
844.0360, 33873.00
845.1720, 33784.00
846.3090, 33719.45
847.4450, 33619.00
848.5810, 33552.00
849.7170, 33416.00
850.8530, 33379.00
851.9880, 33220.38
853.1240, 33401.69
854.2590, 33421.00
855.3940, 33498.00
856.5290, 33749.04
857.6640, 33691.51
858.7980, 33687.73
859.9330, 33695.00
861.0670, 33454.77
862.2010, 33404.00
863.3350, 33187.00
864.4690, 32972.00
865.6030, 33247.00
866.7360, 32950.00
867.8690, 33142.00
869.0020, 33415.00
870.1350, 33263.00
871.2680, 33125.00
872.4010, 33353.00
873.5330, 33412.00
874.6660, 33366.00
875.7980, 33755.00
876.9300, 33546.00
878.0620, 33564.00
879.1930, 33671.00
880.3250, 33652.00
881.4560, 33726.00
882.5870, 33983.00
883.7180, 34159.00
884.8490, 33961.00
885.9800, 34364.00
887.1100, 34153.00
888.2410, 34475.00
889.3710, 34658.00
890.5010, 34558.00
891.6310, 34793.00
892.7610, 34639.00
893.8900, 34886.00
895.0200, 34876.00
896.1490, 34658.00
897.2780, 34951.00
898.4070, 34992.43
899.5360, 35161.32
900.6640, 35296.58
901.7920, 35400.09
902.9210, 35376.84
904.0490, 35517.29
905.1770, 35592.11
906.3040, 35822.00
907.4320, 35687.00
908.5600, 35712.00
909.6870, 35785.00
910.8140, 35605.00
911.9410, 35677.00
913.0680, 35957.00
914.1940, 35712.00
915.3210, 35861.00
916.4470, 36214.00
917.5730, 36060.00
918.6990, 35964.00
919.8250, 35994.00
920.9500, 35967.00
922.0760, 36180.00
923.2010, 35842.00
924.3260, 35812.00
925.4510, 36095.00
926.5760, 35856.38
927.7010, 36118.00
928.8250, 35796.00
929.9500, 35954.00
931.0740, 35937.88
932.1980, 35999.62
933.3220, 36027.82
934.4450, 36024.28
935.5690, 35893.89
936.6920, 35927.30
937.8150, 35895.07
938.9380, 35860.16
940.0610, 35916.62
941.1840, 35804.70
942.3060, 35726.00
943.4290, 35935.00
944.5510, 35945.90
945.6730, 35935.00
946.7950, 36055.00
947.9160, 36126.00
949.0380, 36111.00
950.1590, 36151.00
951.2800, 36112.00
952.4010, 36255.00
953.5220, 36124.00
954.6430, 36255.00
955.7630, 36205.00
956.8840, 36329.00
958.0040, 36412.00
959.1240, 36256.00
960.2440, 36382.00
961.3640, 36334.00
962.4830, 36615.00
963.6030, 36340.00
964.7220, 36359.00
965.8410, 36544.00
966.9600, 36427.00
968.0780, 36514.00
969.1970, 36677.00
970.3150, 36715.00
971.4340, 36555.00
972.5520, 36700.00
973.6700, 36737.00
974.7870, 37060.00
975.9050, 36808.00
977.0220, 37010.00
978.1390, 37011.00
979.2560, 37009.00
980.3730, 37127.00
981.4900, 37167.00
982.6070, 37240.37
983.7230, 37316.00
984.8390, 37424.00
985.9550, 37536.39
987.0710, 37775.09
988.1870, 37863.63
989.3030, 37940.84
990.4180, 38008.24
991.5330, 37982.65
992.6480, 38118.37
993.7630, 38214.64
994.8780, 38326.57
995.9930, 38536.44
997.1070, 38616.82
998.2210, 38861.23
999.3350, 39065.30
1000.449, 39314.01
1001.563, 39522.90
1002.677, 39767.61
1003.790, 40087.82
1004.903, 40393.98
1006.016, 40531.73
1007.129, 40729.64
1008.242, 40779.00
1009.355, 41015.00
1010.467, 41100.00
1011.579, 41349.00
1012.691, 41133.00
1013.803, 41358.00
1014.915, 41285.00
1016.027, 41046.00
1017.138, 41358.00
1018.249, 40951.00
1019.360, 41140.00
1020.471, 40957.00
1021.582, 40765.00
1022.693, 40639.00
1023.803, 40413.00
1024.913, 40328.41
1026.023, 40419.00
1027.133, 40111.00
1028.243, 40268.00
1029.353, 40119.00
1030.462, 39996.00
1031.571, 39990.00
1032.680, 39806.00
1033.789, 39721.00
1034.898, 39399.00
1036.007, 39466.00
1037.115, 39133.00
1038.223, 39369.00
1039.331, 39165.00
1040.439, 39271.00
1041.547, 39043.00
1042.655, 38929.00
1043.762, 38930.51
1044.869, 38758.86
1045.976, 38891.00
1047.083, 38499.00
1048.190, 38530.00
1049.297, 38275.00
1050.403, 38334.00
1051.509, 38497.00
1052.615, 38467.00
1053.721, 38334.00
1054.827, 38265.00
1055.933, 38003.00
1057.038, 38060.00
1058.143, 37848.00
1059.248, 37721.00
1060.353, 37798.00
1061.458, 37551.00
1062.563, 37433.00
1063.667, 37389.00
1064.771, 37375.00
1065.875, 37256.80
1066.979, 37147.00
1068.083, 37065.00
1069.186, 36955.00
1070.290, 36840.00
1071.393, 36839.80
1072.496, 36895.00
1073.599, 36806.00
1074.702, 36798.00
1075.804, 36697.00
1076.907, 36563.00
1078.009, 36657.00
1079.111, 36416.00
1080.213, 36657.00
1081.315, 36362.00
1082.416, 36656.00
1083.517, 36355.00
1084.619, 36535.61
1085.720, 36576.44
1086.821, 36583.70
1087.921, 36559.26
1089.022, 36407.94
1090.122, 36420.45
1091.222, 36367.31
1092.322, 36311.48
1093.422, 36347.04
1094.522, 36272.00
1095.622, 36183.00
1096.721, 36088.00
1097.820, 36115.00
1098.919, 36172.00
1100.018, 36216.00
1101.117, 35948.00
1102.215, 36099.00
1103.314, 35849.00
1104.412, 36136.00
1105.510, 36073.00
1106.608, 36004.00
1107.705, 36136.00
1108.803, 35983.00
1109.900, 36050.00
1110.997, 36022.00
1112.094, 36153.00
1113.191, 35738.00
1114.288, 35904.00
1115.384, 35823.00
1116.481, 35875.00
1117.577, 36031.00
1118.673, 35938.00
1119.769, 35883.00
1120.864, 35865.00
1121.960, 35820.00
1123.055, 35876.00
1124.150, 36086.00
1125.245, 36208.00
1126.340, 35683.00
1127.434, 35971.00
1128.529, 36128.00
1129.623, 35786.00
1130.717, 35965.00
1131.811, 35898.00
1132.905, 35922.00
1133.999, 35853.00
1135.092, 35711.00
1136.185, 35962.00
1137.279, 35892.00
1138.371, 36038.00
1139.464, 36042.00
1140.557, 36070.00
1141.649, 36015.00
1142.742, 35859.00
1143.834, 36121.00
1144.926, 35950.00
1146.017, 36027.89
1147.109, 36217.00
1148.200, 36073.00
1149.292, 36002.00
1150.383, 35968.00
1151.474, 35932.03
1152.564, 36158.00
1153.655, 35909.00
1154.745, 36149.00
1155.835, 36080.00
1156.925, 36157.00
1158.015, 36105.00
1159.105, 36355.00
1160.195, 36221.00
1161.284, 36280.00
1162.373, 36416.00
1163.462, 36215.00
1164.551, 36246.00
1165.640, 36207.00
1166.728, 36367.00
1167.817, 36353.00
1168.905, 36249.00
1169.993, 36511.00
1171.081, 36507.00
1172.168, 36386.00
1173.256, 36248.00
1174.343, 36310.95
1175.430, 36414.65
1176.517, 36484.80
1177.604, 36523.20
1178.691, 36434.76
1179.777, 36510.08
1180.864, 36519.79
1181.950, 36526.78
1183.036, 36625.16
1184.121, 36555.11
1185.207, 36652.04
1186.293, 36682.32
1187.378, 36743.09
1188.463, 36737.80
1189.548, 36752.91
1190.633, 36834.10
1191.717, 36713.00
1192.802, 36673.00
1193.886, 36795.00
1194.970, 36773.00
1196.054, 37033.00
1197.138, 36895.42
1198.221, 36937.00
1199.305, 36810.00
1200.388, 36882.00
1201.471, 37081.00
1202.554, 36872.00
1203.637, 37001.00
1204.719, 37021.00
1205.801, 37206.00
1206.884, 37211.00
1207.966, 36915.00
1209.048, 37393.00
1210.129, 37107.00
1211.211, 37286.00
1212.292, 37030.00
1213.373, 37019.12
1214.454, 37308.82
1215.535, 37481.10
1216.616, 37542.25
1217.696, 37159.44
1218.777, 37349.91
1219.857, 37310.62
1220.937, 37261.91
1222.017, 37533.04
1223.096, 37214.78
1224.176, 37480.84
1225.255, 37513.63
1226.334, 37653.18
1227.413, 37561.57
1228.492, 37541.35
1229.570, 37752.35
1230.649, 37527.00
1231.727, 37949.00
1232.805, 37980.00
1233.883, 37637.00
1234.961, 37853.00
1236.038, 37641.00
1237.116, 37953.00
1238.193, 37732.00
1239.270, 37692.00
1240.347, 38006.00
1241.424, 37864.00
1242.500, 37823.00
1243.577, 37738.00
1244.653, 37742.00
1245.729, 37770.00
1246.805, 37898.00
1247.880, 37972.00
1248.956, 37910.00
1250.031, 38044.00
1251.106, 38065.00
1252.181, 37998.00
1253.256, 37959.00
1254.331, 38190.00
1255.405, 38092.55
1256.480, 38479.00
1257.554, 38107.00
1258.628, 38120.00
1259.701, 38140.00
1260.775, 38324.00
1261.849, 38353.00
1262.922, 38378.00
1263.995, 38454.00
1265.068, 38421.49
1266.141, 38224.00
1267.213, 38431.00
1268.286, 38286.00
1269.358, 38396.00
