##NAMES=Magnesio-hastingsite
##RRUFFID=R040010
##IDEAL CHEMISTRY=NaCa_2_(Mg_4_Fe^3+^)Si_6_Al_2_O_22_(OH)_2_
##LOCALITY=Amity, New York, USA
##OWNER=RRUFF
##SOURCE=University of Arizona Mineral Museum
##DESCRIPTION=Group of black prismatic crystals
##STATUS=The identification of this mineral has been confirmed by X-ray diffraction and chemical analysis
##URL=rruff.info/R040010
##MEASURED CHEMISTRY=(Na_0.50_K_0.43_[box]_0.07_)_Σ=1_(Ca_1.77_Na_0.23_)_Σ=2_(Mg_1.74_Fe_1.22_Fe^3+^_0.79_Mn_0.57_Al_0.30_Zn_0.25_Ti_0.13_)_Σ=5_(Si_5.95_Al_2.05_)_Σ=8_O_22_((OH)_1.75_F_0.22_Cl_0.03_)_Σ=2_; OH estimated by charge balance
##PIN_ID=L00361
##ORIENTATION=Laser parallel to -b* (0 -1 0). Fiducial mark perpendicular to laser is parallel to c [0 0 1]
170.7750, 31476.00
172.0050, 31591.00
173.2350, 31679.00
174.4650, 31869.08
175.6950, 32058.00
176.9250, 32146.00
178.1550, 32519.00
179.3840, 32566.00
180.6130, 32593.00
181.8420, 32993.00
183.0710, 32575.00
184.3000, 33073.00
185.5280, 33069.00
186.7570, 32975.00
187.9850, 33318.00
189.2130, 32908.00
190.4400, 32978.00
191.6680, 32959.00
192.8960, 32801.00
194.1230, 33140.00
195.3500, 33259.00
196.5770, 33179.00
197.8030, 33267.00
199.0300, 33989.00
200.2560, 34233.00
201.4830, 34317.00
202.7090, 34915.00
203.9340, 34432.00
205.1600, 34524.00
206.3860, 34945.00
207.6110, 35732.00
208.8360, 36377.00
210.0610, 37650.00
211.2860, 38692.00
212.5100, 39912.00
213.7350, 41023.00
214.9590, 42219.00
216.1830, 43106.00
217.4070, 44522.00
218.6310, 45291.00
219.8540, 46183.00
221.0780, 46863.00
222.3010, 46703.00
223.5240, 46648.00
224.7470, 46247.00
225.9690, 45788.00
227.1920, 44573.00
228.4140, 44015.00
229.6360, 42447.00
230.8580, 41666.00
232.0800, 40481.00
233.3020, 39377.00
234.5230, 38821.00
235.7440, 38134.00
236.9650, 37675.00
238.1860, 36956.00
239.4070, 36470.00
240.6280, 36260.00
241.8480, 36005.00
243.0680, 35915.00
244.2880, 35626.39
245.5080, 35241.00
246.7280, 35229.00
247.9470, 34920.00
249.1660, 34922.00
250.3860, 34760.00
251.6040, 34677.00
252.8230, 34480.21
254.0420, 34698.42
255.2600, 34831.55
256.4790, 34884.21
257.6970, 34615.29
258.9150, 34761.60
260.1320, 34741.48
261.3500, 34714.57
262.5670, 34919.29
263.7840, 34968.00
265.0010, 34799.00
266.2180, 34955.00
267.4350, 35225.00
268.6510, 35405.00
269.8680, 35316.00
271.0840, 35755.00
272.3000, 35755.00
273.5160, 35902.00
274.7310, 36215.00
275.9470, 36579.00
277.1620, 36833.00
278.3770, 36907.00
279.5920, 37227.00
280.8070, 37725.00
282.0210, 37694.00
283.2360, 38077.00
284.4500, 38118.00
285.6640, 38654.00
286.8780, 38772.00
288.0920, 38767.00
289.3050, 38965.00
290.5180, 38960.00
291.7320, 39194.00
292.9450, 38913.00
294.1570, 38874.00
295.3700, 39049.00
296.5830, 38911.00
297.7950, 38654.00
299.0070, 38592.00
300.2190, 38381.00
301.4310, 38109.00
302.6420, 38103.00
303.8540, 37703.00
305.0650, 37662.00
306.2760, 37619.00
307.4870, 37455.00
308.6980, 37204.00
309.9080, 37026.00
311.1190, 36837.00
312.3290, 36550.00
313.5390, 36475.00
314.7490, 35948.00
315.9580, 35895.00
317.1680, 35852.00
318.3770, 35787.00
319.5860, 35410.00
320.7950, 35188.00
322.0040, 35158.00
323.2130, 34987.00
324.4210, 34820.00
325.6290, 34742.77
326.8380, 34623.07
328.0460, 34525.00
329.2530, 34431.00
330.4610, 34332.00
331.6680, 34162.00
332.8760, 34361.00
334.0830, 34275.00
335.2890, 33960.00
336.4960, 34130.04
337.7030, 34060.28
338.9090, 34097.00
340.1150, 34304.00
341.3210, 34135.00
342.5270, 34483.00
343.7330, 35050.00
344.9380, 35704.00
346.1440, 35020.00
347.3490, 35056.00
348.5540, 35794.00
349.7590, 35091.00
350.9630, 35489.00
352.1680, 35660.00
353.3720, 35773.00
354.5760, 35976.00
355.7800, 35997.00
356.9840, 36256.00
358.1870, 36412.00
359.3910, 36505.00
360.5940, 36730.18
361.7970, 36935.00
363.0000, 36987.00
364.2030, 37079.07
365.4050, 36633.00
366.6080, 37029.00
367.8100, 36816.38
369.0120, 36603.00
370.2140, 36844.00
371.4150, 36538.00
372.6170, 36559.00
373.8180, 36397.00
375.0190, 36517.00
376.2200, 36137.00
377.4210, 36158.00
378.6220, 35877.00
379.8220, 35813.00
381.0230, 35703.00
382.2230, 35402.00
383.4230, 35089.00
384.6220, 35229.00
385.8220, 34919.00
387.0220, 34814.00
388.2210, 34511.00
389.4200, 34291.00
390.6190, 33949.00
391.8180, 33968.00
393.0160, 33808.00
394.2150, 33796.00
395.4130, 33398.00
396.6110, 33579.00
397.8090, 33402.00
399.0060, 33177.00
400.2040, 33189.00
401.4010, 33169.00
402.5980, 32982.00
403.7950, 32964.00
404.9920, 33062.00
406.1890, 32876.00
407.3860, 33035.00
408.5820, 32937.00
409.7780, 32930.00
410.9740, 33087.00
412.1700, 33049.00
413.3650, 33195.00
414.5610, 33183.00
415.7560, 33406.00
416.9510, 33349.00
418.1460, 33750.00
419.3410, 33782.00
420.5360, 33904.00
421.7300, 34026.00
422.9240, 34232.00
424.1180, 34289.00
425.3120, 34448.00
426.5060, 34487.00
427.7000, 34595.00
428.8930, 34400.00
430.0860, 34647.00
431.2790, 34359.00
432.4720, 34111.00
433.6650, 34064.00
434.8580, 33854.00
436.0500, 33578.00
437.2420, 33476.00
438.4340, 33461.00
439.6260, 33038.00
440.8180, 32936.00
442.0090, 33215.00
443.2010, 32833.00
444.3920, 32883.00
445.5830, 32559.00
446.7740, 32437.00
447.9640, 32270.00
449.1550, 32291.00
450.3450, 32175.90
451.5350, 32393.00
452.7250, 32019.00
453.9150, 32088.00
455.1050, 31915.00
456.2940, 32218.00
457.4830, 31905.00
458.6720, 31949.00
459.8610, 31719.00
461.0500, 31817.00
462.2390, 31783.00
463.4270, 31720.00
464.6150, 31382.00
465.8040, 31625.00
466.9910, 31397.00
468.1790, 31620.00
469.3670, 31669.00
470.5540, 31477.00
471.7410, 31618.00
472.9280, 31517.00
474.1150, 31420.00
475.3020, 31630.00
476.4890, 31500.00
477.6750, 31681.00
478.8610, 31694.00
480.0470, 31985.00
481.2330, 32000.16
482.4190, 31737.00
483.6040, 32069.00
484.7900, 32263.00
485.9750, 32189.00
487.1600, 32563.00
488.3450, 32420.00
489.5290, 32468.00
490.7140, 32591.00
491.8980, 32876.00
493.0820, 33133.00
494.2660, 33196.00
495.4500, 33358.00
496.6340, 33516.00
497.8170, 33789.00
499.0010, 34008.00
500.1840, 34289.00
501.3670, 34522.90
502.5500, 34843.00
503.7320, 35000.00
504.9150, 35265.00
506.0970, 35496.22
507.2790, 35591.00
508.4610, 35765.00
509.6430, 35920.00
510.8250, 36013.00
512.0060, 36519.00
513.1870, 36581.00
514.3680, 37330.00
515.5490, 37500.00
516.7300, 37771.00
517.9110, 38535.00
519.0910, 38890.00
520.2710, 39587.00
521.4510, 40150.07
522.6310, 40565.00
523.8110, 41293.00
524.9910, 41912.00
526.1700, 42451.72
527.3490, 42861.47
528.5280, 43265.00
529.7070, 43358.00
530.8860, 43590.00
532.0650, 43534.00
533.2430, 43847.00
534.4210, 43963.00
535.5990, 43566.00
536.7770, 43559.00
537.9550, 43663.00
539.1320, 42469.00
540.3100, 42336.00
541.4870, 41714.00
542.6640, 41528.00
543.8410, 41210.00
545.0170, 40722.00
546.1940, 40225.00
547.3700, 39874.00
548.5470, 39370.00
549.7230, 39040.48
550.8980, 38836.00
552.0740, 38374.00
553.2500, 38049.00
554.4250, 37723.00
555.6000, 37522.00
556.7750, 37421.00
557.9500, 36976.00
559.1250, 36698.00
560.2990, 36574.00
561.4730, 36198.00
562.6480, 36146.00
563.8220, 36041.00
564.9950, 35477.00
566.1690, 35284.00
567.3430, 35236.00
568.5160, 35336.00
569.6890, 34932.00
570.8620, 34674.00
572.0350, 34707.00
573.2070, 34409.00
574.3800, 34267.00
575.5520, 34381.00
576.7240, 33983.00
577.8960, 33903.62
579.0680, 33868.00
580.2400, 33457.00
581.4110, 33225.00
582.5830, 32934.00
583.7540, 32750.32
584.9250, 32949.00
586.0950, 32530.00
587.2660, 32599.00
588.4370, 32633.00
589.6070, 32085.00
590.7770, 32280.00
591.9470, 32207.00
593.1170, 32110.00
594.2860, 31954.00
595.4560, 31914.00
596.6250, 32275.00
597.7940, 32005.56
598.9630, 32012.00
600.1320, 31768.00
601.3000, 31969.00
602.4690, 31845.00
603.6370, 32028.00
604.8050, 31936.00
605.9730, 32067.00
607.1410, 32360.00
608.3090, 32629.00
609.4760, 32574.00
610.6430, 32726.00
611.8100, 33102.00
612.9770, 33107.00
614.1440, 33322.00
615.3110, 33525.19
616.4770, 33522.80
617.6430, 34042.00
618.8090, 34151.00
619.9750, 34729.00
621.1410, 36281.00
622.3070, 37030.00
623.4720, 37299.00
624.6370, 38011.00
625.8020, 38093.00
626.9670, 39330.00
628.1320, 38133.00
629.2970, 37939.00
630.4610, 38826.00
631.6250, 39116.00
632.7890, 39436.00
633.9530, 40115.00
635.1170, 40575.00
636.2810, 41057.00
637.4440, 41390.00
638.6070, 41816.00
639.7700, 42296.00
640.9330, 42740.00
642.0960, 42845.00
643.2590, 43229.00
644.4210, 43478.00
645.5830, 44020.00
646.7450, 44109.00
647.9070, 44386.00
649.0690, 44830.00
650.2310, 45423.00
651.3920, 45686.00
652.5530, 45998.00
653.7140, 46427.00
654.8750, 46683.00
656.0360, 47079.00
657.1970, 47146.29
658.3570, 47200.00
659.5170, 47194.00
660.6770, 47088.00
661.8370, 47041.00
662.9970, 46713.00
664.1570, 46071.00
665.3160, 45552.00
666.4750, 45296.00
667.6340, 44795.00
668.7930, 44268.00
669.9520, 43890.00
671.1110, 43831.00
672.2690, 43751.00
673.4270, 43899.00
674.5850, 43736.00
675.7430, 43914.00
676.9010, 44133.00
678.0590, 43870.00
679.2160, 43886.00
680.3730, 44452.00
681.5300, 43948.00
682.6870, 43703.40
683.8440, 42867.00
685.0010, 42542.00
686.1570, 41819.00
687.3130, 41135.00
688.4690, 40248.00
689.6250, 39689.38
690.7810, 39363.00
691.9370, 38536.00
693.0920, 37896.00
694.2470, 37437.00
695.4020, 37307.00
696.5570, 36691.00
697.7120, 36595.00
698.8670, 36636.00
700.0210, 36517.00
701.1750, 36526.00
702.3290, 36599.00
703.4830, 36673.00
704.6370, 36694.00
705.7910, 36951.00
706.9440, 37041.00
708.0970, 37418.00
709.2510, 37625.00
710.4030, 37745.00
711.5560, 38056.00
712.7090, 38474.00
713.8610, 38317.00
715.0140, 38832.00
716.1660, 39115.00
717.3180, 39211.00
718.4690, 39565.00
719.6210, 39726.00
720.7730, 39948.00
721.9240, 40041.00
723.0750, 40465.00
724.2260, 40480.12
725.3770, 40832.00
726.5270, 40529.00
727.6780, 40803.00
728.8280, 40585.00
729.9780, 40792.00
731.1280, 40849.00
732.2780, 40753.00
733.4280, 40780.00
734.5770, 40714.00
735.7260, 40845.00
736.8760, 40737.34
738.0250, 40555.00
739.1730, 40612.00
740.3220, 40279.00
741.4700, 40230.00
742.6190, 39899.00
743.7670, 39649.00
744.9150, 39301.00
746.0630, 39020.00
747.2100, 38466.00
748.3580, 38242.00
749.5050, 38010.00
750.6520, 37942.00
751.7990, 37597.17
752.9460, 36988.00
754.0930, 36992.00
755.2390, 36692.00
756.3860, 36383.00
757.5320, 36284.00
758.6780, 36072.00
759.8240, 35951.00
760.9690, 36014.00
762.1150, 36137.00
763.2600, 36003.66
764.4060, 35603.00
765.5510, 35823.00
766.6950, 35743.00
767.8400, 35585.00
768.9850, 35841.00
770.1290, 35898.00
771.2730, 35921.00
772.4170, 35885.00
773.5610, 35936.00
774.7050, 35866.00
775.8480, 36163.00
776.9920, 36146.00
778.1350, 36250.00
779.2780, 35794.00
780.4210, 35826.00
781.5640, 35796.00
782.7060, 35860.00
783.8490, 35945.00
784.9910, 36060.00
786.1330, 35917.00
787.2750, 35888.00
788.4170, 35780.00
789.5580, 35927.00
790.7000, 36005.00
791.8410, 35709.00
792.9820, 35785.00
794.1230, 35638.00
795.2640, 35546.00
796.4040, 35768.00
797.5450, 35808.00
798.6850, 35763.92
799.8250, 35620.00
800.9650, 35618.00
802.1050, 35758.00
803.2450, 35560.94
804.3840, 35674.87
805.5230, 35678.00
806.6630, 35656.00
807.8020, 35657.00
808.9400, 35462.00
810.0790, 35603.00
811.2170, 35446.00
812.3560, 35301.00
813.4940, 35595.00
814.6320, 35207.00
815.7700, 35324.00
816.9070, 35128.00
818.0450, 35105.00
819.1820, 35106.00
820.3190, 35117.00
821.4560, 35074.39
822.5930, 35014.00
823.7300, 34988.00
824.8670, 34913.02
826.0030, 34837.54
827.1390, 34748.00
828.2750, 34725.00
829.4110, 34678.00
830.5470, 34596.00
831.6820, 34534.00
832.8180, 34529.00
833.9530, 34470.59
835.0880, 34482.00
836.2230, 34470.00
837.3580, 34574.00
838.4920, 34713.00
839.6270, 34789.00
840.7610, 34861.51
841.8950, 34606.00
843.0290, 34907.00
844.1630, 34942.00
845.2960, 34836.00
846.4300, 35143.00
847.5630, 35016.00
848.6960, 35244.00
849.8290, 35334.00
850.9620, 35303.00
852.0940, 35564.00
853.2270, 35193.00
854.3590, 35437.00
855.4910, 35415.00
856.6230, 35778.00
857.7550, 35847.00
858.8870, 35824.00
860.0180, 35853.00
861.1500, 35900.00
862.2810, 36245.00
863.4120, 36061.00
864.5430, 36379.00
865.6730, 36444.00
866.8040, 37011.00
867.9340, 36427.00
869.0640, 36292.00
870.1940, 36747.00
871.3240, 36891.00
872.4540, 36941.00
873.5830, 36846.00
874.7130, 37236.00
875.8420, 37242.00
876.9710, 37402.00
878.1000, 37317.00
879.2290, 37521.00
880.3570, 37531.00
881.4860, 37684.00
882.6140, 37539.00
883.7420, 37506.00
884.8700, 37661.00
885.9980, 37533.00
887.1250, 37759.00
888.2530, 37857.00
889.3800, 37879.00
890.5070, 37789.00
891.6340, 37831.00
892.7610, 37968.00
893.8880, 38103.00
895.0140, 38330.00
896.1400, 38102.00
897.2670, 38191.00
898.3930, 38563.00
899.5180, 38501.00
900.6440, 38723.00
901.7700, 38670.00
902.8950, 39077.00
904.0200, 39147.00
905.1450, 39610.00
906.2700, 39364.00
907.3950, 39750.73
908.5190, 40046.00
909.6440, 40307.00
910.7680, 40524.23
911.8920, 40686.65
913.0160, 40783.58
914.1400, 40867.00
915.2630, 40842.00
916.3870, 40782.00
917.5100, 40825.00
918.6330, 40684.14
919.7560, 40850.00
920.8790, 40485.00
922.0010, 40482.00
923.1240, 40500.00
924.2460, 40205.00
925.3680, 40403.00
926.4900, 40247.00
927.6120, 39981.00
928.7340, 39721.00
929.8550, 39601.00
930.9760, 39770.00
932.0980, 39682.77
933.2190, 39619.26
934.3390, 39815.00
935.4600, 39481.00
936.5810, 39494.00
937.7010, 39529.00
938.8210, 39307.00
939.9410, 39490.00
941.0610, 39317.00
942.1810, 39349.00
943.3010, 39505.00
944.4200, 39097.00
945.5390, 39577.00
946.6580, 39441.76
947.7770, 39944.00
948.8960, 39571.00
950.0150, 39155.00
951.1330, 39287.00
952.2510, 39297.00
953.3690, 39526.00
954.4870, 39106.00
955.6050, 39358.00
956.7230, 39216.00
957.8400, 39407.00
958.9580, 39329.00
960.0750, 39536.00
961.1920, 39271.00
962.3090, 39103.00
963.4250, 39282.00
964.5420, 38891.00
965.6580, 39331.00
966.7740, 39234.00
967.8900, 39189.00
969.0060, 39356.00
970.1220, 39425.00
971.2380, 39155.00
972.3530, 39575.00
973.4680, 39623.00
974.5830, 39721.00
975.6980, 39531.00
976.8130, 39665.00
977.9280, 39772.00
979.0420, 39911.00
980.1560, 40016.00
981.2710, 39920.00
982.3850, 40199.00
983.4980, 40300.00
984.6120, 40322.00
985.7260, 40674.00
986.8390, 41278.00
987.9520, 41809.00
989.0650, 41810.00
990.1780, 41472.00
991.2910, 41327.00
992.4030, 41459.00
993.5160, 41961.00
994.6280, 42005.00
995.7400, 42280.00
996.8520, 42522.00
997.9640, 42569.00
999.0750, 43100.00
1000.187, 43293.00
1001.298, 43305.00
1002.409, 43805.16
1003.520, 44354.00
1004.631, 44404.00
1005.741, 44675.00
1006.852, 44710.00
1007.962, 45028.00
1009.072, 45139.65
1010.182, 45166.00
1011.292, 45494.00
1012.402, 45525.26
1013.511, 45820.00
1014.621, 45594.00
1015.730, 45329.00
1016.839, 45271.00
1017.948, 45160.15
1019.056, 45239.00
1020.165, 45063.00
1021.273, 45058.00
1022.382, 44922.00
1023.490, 44755.09
1024.598, 44294.00
1025.706, 44473.00
1026.813, 44201.00
1027.921, 44214.00
1029.028, 44215.00
1030.135, 43808.00
1031.242, 43300.00
1032.349, 43171.00
1033.456, 42801.00
1034.562, 42696.00
1035.668, 42338.00
1036.775, 42240.00
1037.881, 42356.00
1038.987, 41829.00
1040.092, 41793.00
1041.198, 41648.00
1042.303, 41319.00
1043.408, 41341.00
1044.514, 41401.00
1045.618, 41426.00
1046.723, 41233.00
1047.828, 40638.00
1048.932, 40741.00
1050.037, 40716.00
1051.141, 40830.00
1052.245, 40780.00
1053.349, 40868.00
1054.452, 40926.00
1055.556, 40277.00
1056.659, 40277.00
1057.762, 39992.00
1058.865, 40199.00
1059.968, 40028.00
1061.071, 39845.00
1062.174, 39647.00
1063.276, 40027.00
1064.378, 39692.00
1065.480, 39530.00
1066.582, 39867.00
1067.684, 39632.57
1068.786, 39695.00
1069.887, 39557.00
1070.988, 39594.00
1072.090, 39403.00
1073.191, 39479.00
1074.291, 39290.00
1075.392, 39287.00
1076.493, 39391.00
1077.593, 39327.00
1078.693, 39045.00
1079.793, 38946.00
1080.893, 39024.00
1081.993, 39024.00
1083.092, 38888.00
1084.192, 38852.00
1085.291, 38750.00
1086.390, 38621.00
1087.489, 38471.00
1088.588, 38356.00
1089.686, 38326.00
1090.785, 38389.00
1091.883, 38496.00
1092.981, 38422.00
1094.079, 38320.00
1095.177, 38310.00
1096.275, 38211.02
1097.373, 38138.06
1098.470, 38039.00
1099.567, 37918.00
1100.664, 37776.00
1101.761, 37686.20
1102.858, 37523.00
1103.954, 37516.00
1105.051, 37419.00
1106.147, 37402.00
1107.243, 37309.00
1108.339, 37108.00
1109.435, 37036.41
1110.531, 37200.47
1111.626, 37279.50
1112.722, 37278.01
1113.817, 36954.99
1114.912, 37047.20
1116.007, 36973.00
1117.101, 36892.01
1118.196, 37042.66
1119.290, 36766.44
1120.385, 36913.41
1121.479, 36891.47
1122.573, 36946.85
1123.666, 36834.83
1124.760, 36774.50
1125.853, 36881.67
1126.947, 36896.08
1128.040, 36764.79
1129.133, 36825.11
1130.226, 36543.07
1131.318, 36561.48
1132.411, 36608.00
1133.503, 36544.00
1134.596, 36395.00
1135.688, 36583.00
1136.780, 36388.00
1137.871, 36269.00
1138.963, 36118.00
1140.054, 36217.00
1141.146, 36101.00
1142.237, 35981.00
1143.328, 36210.00
1144.419, 36348.00
1145.509, 36409.00
1146.600, 36434.59
1147.690, 36245.00
1148.780, 36296.00
1149.870, 36235.00
1150.960, 36071.00
1152.050, 36368.00
1153.139, 35979.00
1154.229, 36250.00
1155.318, 36069.67
1156.407, 36271.26
1157.496, 36387.80
1158.585, 36423.84
1159.674, 36138.34
1160.762, 36268.05
1161.850, 36231.35
1162.939, 36187.84
1164.027, 36375.99
1165.114, 36137.24
1166.202, 36321.71
1167.290, 36337.25
1168.377, 36430.10
1169.464, 36355.52
1170.551, 36332.64
1171.638, 36477.26
1172.725, 36529.14
1173.812, 36435.29
1174.898, 36466.00
1175.984, 36480.00
1177.071, 36264.00
1178.157, 36575.00
1179.242, 36418.00
1180.328, 36372.00
1181.414, 36493.00
1182.499, 36521.00
1183.584, 36629.00
1184.669, 36564.00
1185.754, 36667.77
1186.839, 36598.00
1187.924, 36720.00
1189.008, 36647.00
1190.092, 36491.00
1191.177, 36996.00
1192.260, 36599.00
1193.344, 36678.00
1194.428, 36897.00
1195.512, 36741.00
1196.595, 37111.00
1197.678, 36841.00
1198.761, 36887.00
1199.844, 36911.00
1200.927, 36851.00
1202.009, 36717.00
1203.092, 37055.00
1204.174, 36837.00
1205.256, 37019.00
1206.338, 37047.00
1207.420, 36905.00
1208.502, 37046.00
1209.583, 37079.00
1210.665, 36993.00
1211.746, 37001.00
1212.827, 37112.00
1213.908, 37080.15
1214.988, 37169.00
1216.069, 37120.00
1217.149, 37215.00
1218.230, 37186.00
1219.310, 37236.00
1220.390, 37252.00
1221.470, 37197.00
1222.549, 37287.00
1223.629, 37240.04
1224.708, 37361.00
1225.787, 37258.00
1226.866, 37187.00
1227.945, 37298.00
1229.024, 37343.00
1230.103, 37382.00
1231.181, 37244.00
1232.259, 37217.09
1233.337, 37422.12
1234.415, 37542.09
1235.493, 37581.58
1236.571, 37299.51
1237.648, 37432.66
1238.726, 37399.41
1239.803, 37359.32
1240.880, 37550.91
1241.957, 37315.60
1243.034, 37503.51
1244.110, 37522.47
1245.187, 37618.76
1246.263, 37547.61
1247.339, 37528.17
1248.415, 37676.22
1249.491, 37731.53
1250.566, 37641.09
1251.642, 37742.29
1252.717, 37501.11
1253.793, 37560.37
1254.868, 37749.24
1255.943, 37667.23
1257.017, 37771.46
1258.092, 37804.77
1259.166, 37515.68
1260.241, 37787.26
1261.315, 37816.37
1262.389, 37596.51
1263.462, 37848.86
1264.536, 37663.33
1265.610, 37634.09
1266.683, 37722.48
1267.756, 37688.24
1268.829, 37847.33
1269.902, 37820.18
1270.975, 37776.38
1272.048, 37556.00
1273.120, 37899.00
1274.192, 37678.00
1275.264, 37751.00
1276.336, 37803.62
1277.408, 38012.88
1278.480, 38137.09
1279.551, 38180.79
1280.623, 37902.95
1281.694, 38040.32
1282.765, 38011.29
1283.836, 37975.43
1284.907, 38171.24
1285.977, 37940.15
1287.048, 38132.29
1288.118, 38155.46
1289.188, 38255.97
1290.258, 38189.04
1291.328, 38173.82
1292.398, 38326.09
1293.467, 38385.61
1294.537, 38299.41
1295.606, 38404.81
1296.675, 38167.86
1297.744, 38231.32
1298.813, 38424.41
1299.882, 38346.62
1300.950, 38455.07
1302.018, 38492.58
1303.086, 38207.71
1304.155, 38483.51
1305.222, 38516.82
1306.290, 38301.17
1307.358, 38557.75
1308.425, 38376.42
1309.492, 38351.38
1310.559, 38424.49
1311.626, 38629.64
1312.693, 38749.73
1313.760, 38789.34
1314.826, 38507.38
1315.893, 38640.65
1316.959, 38607.51
1318.025, 38567.55
1319.091, 38759.25
1320.157, 38524.06
1321.222, 38712.09
1322.288, 38731.17
1323.353, 38827.57
1324.418, 38756.54
1325.483, 38736.00
1326.548, 38939.00
1327.612, 38780.00
1328.677, 38634.00
1329.741, 38549.00
