##NAMES=Magnesite
##RRUFFID=R050676
##IDEAL CHEMISTRY=MgCO_3_
##LOCALITY=Tyrol, Austria
##OWNER=RRUFF
##SOURCE=University of Arizona Mineral Museum
##DESCRIPTION=Brown rhombohedral crystals
##STATUS=The identification of this mineral has been confirmed by X-ray diffraction and chemical analysis
##URL=rruff.info/R050676
##MEASURED CHEMISTRY=(Mg_0.87_Fe^2+^_0.12_Ca_0.01_)_Î£=1_CO_3_; trace amounts of Mn and Cd; CO_2_ estimated by difference
##PIN_ID=M00629
##ORIENTATION=Laser parallel to -a* (-1 0 0). Fiducial mark perpendicular to laser is parallel to c [0 0 1]
88.33800, 8040.000
89.57500, 8125.000
90.81200, 8063.000
92.04900, 8054.000
93.28600, 8097.000
94.52300, 8111.000
95.75900, 8123.000
96.99500, 7957.000
98.23100, 7936.000
99.46700, 8082.000
100.7030, 8237.000
101.9390, 8134.000
103.1740, 8222.000
104.4090, 8295.000
105.6440, 8515.000
106.8790, 8475.355
108.1140, 8400.653
109.3490, 8430.000
110.5830, 8088.000
111.8180, 7959.000
113.0520, 7817.000
114.2860, 7824.132
115.5200, 8262.000
116.7530, 8104.000
117.9870, 8166.000
119.2200, 8515.000
120.4530, 9660.000
121.6860, 9772.000
122.9190, 9371.000
124.1520, 8557.000
125.3850, 8003.000
126.6170, 7744.000
127.8490, 7530.000
129.0810, 7781.000
130.3130, 7696.000
131.5450, 7619.000
132.7770, 7433.000
134.0080, 7521.000
135.2390, 7466.000
136.4710, 7599.000
137.7020, 7515.000
138.9320, 7711.000
140.1630, 7527.000
141.3930, 7474.000
142.6240, 7471.000
143.8540, 7610.000
145.0840, 7595.000
146.3140, 7696.000
147.5440, 7747.000
148.7730, 7736.000
150.0020, 7611.000
151.2320, 7758.000
152.4610, 7642.000
153.6900, 7667.000
154.9180, 7601.000
156.1470, 7615.411
157.3750, 7629.000
158.6040, 7658.000
159.8320, 7703.000
161.0600, 7704.000
162.2870, 8039.000
163.5150, 7810.000
164.7420, 7746.000
165.9700, 7850.000
167.1970, 7578.000
168.4240, 7686.000
169.6510, 7539.000
170.8770, 7664.000
172.1040, 7745.000
173.3300, 7632.000
174.5560, 7790.000
175.7820, 7793.000
177.0080, 7858.000
178.2340, 7923.000
179.4590, 7894.849
180.6850, 7803.000
181.9100, 7895.000
183.1350, 7841.000
184.3600, 7921.000
185.5850, 7942.000
186.8090, 8002.000
188.0340, 8337.000
189.2580, 7868.000
190.4820, 7797.000
191.7060, 8071.000
192.9300, 8208.000
194.1530, 8203.000
195.3770, 8264.000
196.6000, 8270.000
197.8230, 8324.000
199.0460, 8496.000
200.2690, 8709.000
201.4910, 8836.000
202.7140, 8949.000
203.9360, 9358.000
205.1580, 9602.498
206.3800, 10255.00
207.6020, 10198.00
208.8240, 10583.00
210.0450, 10590.00
211.2670, 10207.00
212.4880, 10081.00
213.7090, 9609.000
214.9300, 9371.000
216.1510, 8972.000
217.3710, 8713.000
218.5920, 8617.000
219.8120, 8744.000
221.0320, 8604.000
222.2520, 8465.000
223.4720, 8464.000
224.6910, 8349.000
225.9110, 8505.000
227.1300, 8368.000
228.3490, 8253.000
229.5680, 8368.000
230.7870, 8548.000
232.0050, 8425.000
233.2240, 8411.000
234.4420, 8420.000
235.6600, 8441.000
236.8780, 8642.000
238.0960, 8283.000
239.3140, 8479.000
240.5310, 8764.000
241.7490, 8421.000
242.9660, 8557.000
244.1830, 8675.000
245.4000, 8847.000
246.6160, 8618.000
247.8330, 8569.000
249.0490, 8472.000
250.2660, 8844.000
251.4820, 8765.000
252.6980, 8437.000
253.9130, 8796.000
255.1290, 8649.000
256.3440, 8836.000
257.5600, 8747.000
258.7750, 8731.000
259.9900, 8539.000
261.2040, 8521.000
262.4190, 8832.000
263.6330, 8854.000
264.8480, 8790.000
266.0620, 8927.000
267.2760, 8984.000
268.4900, 9029.000
269.7030, 8983.000
270.9170, 9038.000
272.1300, 9091.000
273.3430, 9318.000
274.5560, 9164.000
275.7690, 9331.000
276.9820, 9118.000
278.1940, 9210.000
279.4070, 9462.000
280.6190, 9401.000
281.8310, 9320.000
283.0430, 9336.000
284.2550, 9527.000
285.4660, 9236.000
286.6770, 9321.000
287.8890, 9448.000
289.1000, 9250.000
290.3110, 9396.000
291.5210, 9414.000
292.7320, 9405.000
293.9420, 9374.000
295.1530, 9498.000
296.3630, 9525.000
297.5730, 9570.236
298.7830, 9694.000
299.9920, 9682.000
301.2020, 9880.000
302.4110, 9969.000
303.6200, 10077.00
304.8290, 10043.00
306.0380, 10264.00
307.2470, 10408.00
308.4550, 11194.00
309.6630, 11543.00
310.8720, 12411.00
312.0800, 13580.00
313.2880, 14506.00
314.4950, 15946.00
315.7030, 17791.00
316.9100, 19722.00
318.1170, 21993.00
319.3240, 24860.00
320.5310, 27928.00
321.7380, 30908.00
322.9450, 33833.00
324.1510, 35037.00
325.3570, 34289.00
326.5630, 31729.00
327.7690, 27661.00
328.9750, 24123.00
330.1810, 20709.00
331.3860, 17802.00
332.5910, 15867.00
333.7960, 14222.00
335.0010, 13278.00
336.2060, 12137.00
337.4110, 11595.00
338.6150, 11176.00
339.8200, 10946.00
341.0240, 10813.00
342.2280, 10625.00
343.4320, 10103.00
344.6350, 10221.54
345.8390, 10257.80
347.0420, 10216.31
348.2450, 9863.969
349.4480, 9913.023
350.6510, 9801.217
351.8540, 9682.812
353.0560, 9788.420
354.2590, 9672.000
355.4610, 9455.000
356.6630, 9519.000
357.8650, 9756.000
359.0670, 9675.000
360.2680, 9704.000
361.4700, 9573.000
362.6710, 9541.000
363.8720, 9492.000
365.0730, 9409.000
366.2740, 9595.000
367.4740, 9508.000
368.6750, 9680.000
369.8750, 9656.000
371.0750, 9596.000
372.2750, 9869.000
373.4750, 9529.000
374.6740, 9578.000
375.8740, 9763.000
377.0730, 9399.000
378.2720, 9654.000
379.4710, 9588.000
380.6700, 9734.000
381.8690, 9741.196
383.0670, 9724.000
384.2660, 9765.000
385.4640, 9627.000
386.6620, 9731.000
387.8600, 9685.000
389.0570, 9848.000
390.2550, 9576.000
391.4520, 9707.000
392.6490, 9705.000
393.8460, 9923.000
395.0430, 9750.000
396.2400, 9782.000
397.4370, 9615.000
398.6330, 9762.000
399.8290, 9719.485
401.0250, 9680.000
402.2210, 9778.000
403.4170, 9877.000
404.6130, 9939.000
405.8080, 9944.886
407.0030, 9788.000
408.1980, 9864.000
409.3930, 9847.000
410.5880, 9716.000
411.7830, 9853.000
412.9770, 9813.000
414.1720, 9786.000
415.3660, 9804.000
416.5600, 9815.744
417.7530, 9828.232
418.9470, 9873.000
420.1410, 9922.000
421.3340, 9913.000
422.5270, 10053.00
423.7200, 10016.00
424.9130, 9992.000
426.1060, 9982.000
427.2980, 9869.000
428.4900, 10056.00
429.6830, 10013.00
430.8750, 9833.000
432.0670, 10223.00
433.2580, 10097.00
434.4500, 10009.00
435.6410, 10055.00
436.8320, 10268.00
438.0240, 10202.00
439.2140, 10241.61
440.4050, 10231.00
441.5960, 10150.00
442.7860, 10142.00
443.9760, 10135.65
445.1670, 10161.21
446.3560, 10184.00
447.5460, 10188.00
448.7360, 10287.00
449.9250, 10127.00
451.1150, 10313.00
452.3040, 10118.00
453.4930, 10213.00
454.6810, 10301.00
455.8700, 10068.00
457.0590, 10304.00
458.2470, 10162.00
459.4350, 10179.00
460.6230, 10403.00
461.8110, 10380.00
462.9980, 10353.00
464.1860, 10490.00
465.3730, 10419.00
466.5600, 10331.00
467.7470, 10359.00
468.9340, 10483.00
470.1210, 10300.00
471.3080, 10466.00
472.4940, 10214.00
473.6800, 10519.00
474.8660, 10619.00
476.0520, 10498.00
477.2380, 10628.00
478.4230, 10410.00
479.6090, 10460.00
480.7940, 10480.00
481.9790, 10657.00
483.1640, 10803.00
484.3490, 10735.00
485.5330, 10551.00
486.7180, 10641.00
487.9020, 10768.00
489.0860, 10605.00
490.2700, 10736.00
491.4540, 10859.00
492.6370, 10717.00
493.8210, 10919.00
495.0040, 10800.00
496.1870, 10838.00
497.3700, 11002.00
498.5530, 10841.00
499.7360, 10933.97
500.9180, 10822.00
502.1000, 10928.00
503.2830, 11079.00
504.4650, 11051.00
505.6460, 10991.00
506.8280, 10763.00
508.0100, 10795.37
509.1910, 11047.00
510.3720, 10750.00
511.5530, 11096.00
512.7340, 11131.00
513.9150, 11331.00
515.0950, 11010.00
516.2760, 11073.00
517.4560, 10943.00
518.6360, 11255.00
519.8160, 11172.00
520.9950, 11281.00
522.1750, 11070.00
523.3540, 11139.00
524.5340, 11095.00
525.7130, 11166.00
526.8920, 11156.00
528.0700, 11144.00
529.2490, 11245.00
530.4270, 11020.00
531.6060, 11241.00
532.7840, 11031.00
533.9620, 10933.00
535.1390, 11404.00
536.3170, 11172.00
537.4940, 11089.00
538.6720, 11062.00
539.8490, 11162.00
541.0260, 11016.00
542.2030, 11104.00
543.3790, 11126.00
544.5560, 11170.00
545.7320, 11080.00
546.9080, 11186.00
548.0840, 11067.00
549.2600, 11215.00
550.4360, 11227.00
551.6110, 11061.00
552.7860, 11308.00
553.9620, 11358.00
555.1370, 11209.00
556.3110, 11127.00
557.4860, 11202.00
558.6610, 11295.00
559.8350, 11330.00
561.0090, 11349.60
562.1830, 11384.44
563.3570, 11362.00
564.5310, 11395.00
565.7040, 11453.00
566.8780, 11443.00
568.0510, 11489.52
569.2240, 11349.00
570.3970, 11531.00
571.5700, 11410.00
572.7420, 11386.00
573.9150, 11810.00
575.0870, 11742.00
576.2590, 11121.00
577.4310, 11547.00
578.6030, 11329.00
579.7740, 11363.00
580.9460, 11635.00
582.1170, 11534.00
583.2880, 11374.00
584.4590, 11591.00
585.6300, 11583.00
586.8010, 11433.00
587.9710, 11508.00
589.1410, 11632.00
590.3110, 11468.00
591.4810, 11656.00
592.6510, 11558.00
593.8210, 11437.00
594.9900, 11392.00
596.1600, 11601.00
597.3290, 11609.00
598.4980, 11389.00
599.6670, 11905.00
600.8350, 11513.00
602.0040, 11572.00
603.1720, 11639.00
604.3400, 11577.00
605.5080, 11626.75
606.6760, 11493.00
607.8440, 11613.00
609.0120, 11640.00
610.1790, 11595.00
611.3460, 11707.59
612.5130, 11788.32
613.6800, 11796.42
614.8470, 11757.00
616.0130, 11701.00
617.1800, 11802.00
618.3460, 11939.00
619.5120, 11839.00
620.6780, 11899.15
621.8440, 12121.00
623.0090, 11935.00
624.1750, 11946.00
625.3400, 12152.00
626.5050, 11887.00
627.6700, 11979.00
628.8350, 11711.00
629.9990, 11749.00
631.1640, 11733.00
632.3280, 11955.00
633.4920, 11746.00
634.6560, 11966.00
635.8200, 12001.00
636.9840, 11775.00
638.1470, 11973.00
639.3100, 11883.00
640.4730, 11806.00
641.6360, 12025.00
642.7990, 11954.00
643.9620, 12069.00
645.1240, 12201.00
646.2870, 12179.00
647.4490, 12248.00
648.6110, 12320.00
649.7730, 12066.00
650.9340, 12258.00
652.0960, 12090.00
653.2570, 12164.00
654.4180, 12236.00
655.5790, 12146.00
656.7400, 12152.00
657.9010, 11976.00
659.0620, 12011.00
660.2220, 12209.00
661.3820, 12004.00
662.5420, 12193.00
663.7020, 12116.00
664.8620, 12078.00
666.0210, 12045.00
667.1810, 12205.00
668.3400, 12034.00
669.4990, 12024.00
670.6580, 12344.00
671.8170, 12105.00
672.9750, 12233.00
674.1340, 12307.00
675.2920, 12029.00
676.4500, 12272.00
677.6080, 12291.00
678.7660, 12085.00
679.9230, 12346.00
681.0810, 12178.00
682.2380, 12211.00
683.3950, 12139.00
684.5520, 12107.00
685.7090, 12097.00
686.8660, 12182.00
688.0220, 12261.00
689.1780, 12017.00
690.3340, 11998.00
691.4900, 12113.00
692.6460, 12137.00
693.8020, 12123.00
694.9570, 12166.00
696.1130, 12215.00
697.2680, 12415.00
698.4230, 12038.00
699.5780, 12095.00
700.7320, 12293.00
701.8870, 12213.00
703.0410, 12415.00
704.1950, 12360.00
705.3490, 12411.00
706.5030, 12318.00
707.6570, 12403.00
708.8110, 12440.00
709.9640, 12257.00
711.1170, 12515.00
712.2700, 12403.00
713.4230, 12593.00
714.5760, 12501.00
715.7280, 12418.00
716.8810, 12650.00
718.0330, 12565.00
719.1850, 12718.00
720.3370, 12526.00
721.4890, 12673.00
722.6400, 12394.00
723.7920, 12825.00
724.9430, 12753.00
726.0940, 12804.00
727.2450, 12557.00
728.3960, 12532.00
729.5460, 12873.00
730.6970, 12723.00
731.8470, 12887.00
732.9970, 12816.00
734.1470, 12706.00
735.2970, 12856.00
736.4460, 12835.00
737.5960, 12883.00
738.7450, 12924.00
739.8940, 13103.00
741.0430, 12919.00
742.1920, 13084.00
743.3410, 12741.00
744.4890, 12839.00
745.6370, 12969.00
746.7850, 12815.00
747.9330, 12616.00
749.0810, 12756.00
750.2290, 12611.00
751.3760, 12662.00
752.5240, 12431.00
753.6710, 12862.00
754.8180, 12571.00
755.9650, 12595.00
757.1110, 12676.00
758.2580, 12545.00
759.4040, 12609.00
760.5510, 12371.00
761.6970, 12640.00
762.8420, 12479.00
763.9880, 12316.00
765.1340, 12623.00
766.2790, 12612.00
767.4240, 12439.00
768.5690, 12437.00
769.7140, 12694.00
770.8590, 12577.00
772.0030, 12565.00
773.1480, 12495.00
774.2920, 12422.00
775.4360, 12442.77
776.5800, 12632.00
777.7240, 12501.00
778.8670, 12641.00
780.0110, 12755.00
781.1540, 12792.00
782.2970, 12719.00
783.4400, 12654.00
784.5830, 12797.00
785.7250, 12836.00
786.8680, 12866.00
788.0100, 12984.00
789.1520, 12887.00
790.2940, 12936.00
791.4360, 12780.00
792.5780, 13268.00
793.7190, 13045.00
794.8600, 13108.00
796.0010, 13053.00
797.1420, 12930.00
798.2830, 13099.00
799.4240, 12932.00
800.5640, 13026.00
801.7050, 12998.00
802.8450, 13141.00
803.9850, 13422.00
805.1250, 12994.00
806.2640, 13360.00
807.4040, 12920.00
808.5430, 13168.00
809.6820, 13163.00
810.8210, 12997.00
811.9600, 13240.00
813.0990, 13224.00
814.2370, 13401.00
815.3760, 13147.00
816.5140, 13149.00
817.6520, 13111.00
818.7900, 13141.00
819.9270, 13124.91
821.0650, 13283.00
822.2020, 13165.00
823.3390, 13327.00
824.4760, 13453.00
825.6130, 13436.00
826.7500, 13457.00
827.8870, 13563.00
829.0230, 13269.00
830.1590, 13493.00
831.2950, 13469.00
832.4310, 13324.00
833.5670, 13669.00
834.7030, 13439.00
835.8380, 13565.00
836.9730, 13578.00
838.1080, 13433.00
839.2430, 13489.00
840.3780, 13515.00
841.5130, 13651.00
842.6470, 13684.00
843.7810, 13628.00
844.9150, 13518.00
846.0490, 13648.00
847.1830, 13615.15
848.3170, 13831.00
849.4500, 13741.00
850.5830, 13682.00
851.7160, 13801.00
852.8490, 13888.00
853.9820, 13979.00
855.1150, 14118.00
856.2470, 13963.00
857.3800, 14068.00
858.5120, 14110.00
859.6440, 13996.00
860.7760, 14197.00
861.9070, 14085.00
863.0390, 14144.00
864.1700, 14037.00
865.3010, 14085.00
866.4320, 14161.00
867.5630, 14239.00
868.6940, 14192.00
869.8240, 14220.00
870.9540, 14379.00
872.0850, 14304.00
873.2150, 14839.00
874.3450, 14826.00
875.4740, 15204.00
876.6040, 15310.00
877.7330, 15380.00
878.8620, 16091.00
879.9910, 16254.00
881.1200, 16054.00
882.2490, 15605.00
883.3770, 15185.00
884.5060, 14655.00
885.6340, 14633.00
886.7620, 14632.00
887.8900, 14443.00
889.0180, 14549.00
890.1450, 14250.00
891.2730, 14330.00
892.4000, 14332.00
893.5270, 14538.00
894.6540, 14357.00
895.7810, 14501.00
896.9070, 14252.00
898.0340, 14568.00
899.1600, 14515.00
900.2860, 14561.38
901.4120, 14517.00
902.5380, 14513.10
903.6630, 14469.00
904.7890, 14472.00
905.9140, 14422.00
907.0390, 14356.00
908.1640, 14493.00
909.2890, 14474.00
910.4130, 14505.00
911.5380, 14402.00
912.6620, 14716.00
913.7860, 14508.00
914.9100, 14709.00
916.0340, 14571.00
917.1580, 14629.00
918.2810, 14707.00
919.4040, 14333.00
920.5280, 14719.00
921.6510, 14569.00
922.7730, 14610.00
923.8960, 14692.00
925.0180, 14455.00
926.1410, 14710.00
927.2630, 14638.00
928.3850, 14518.00
929.5070, 14766.00
930.6280, 14562.00
931.7500, 14674.00
932.8710, 14749.00
933.9920, 14604.00
935.1130, 14682.00
936.2340, 14763.00
937.3550, 14863.00
938.4760, 14925.00
939.5960, 14798.00
940.7160, 14855.00
941.8360, 14806.00
942.9560, 15038.00
944.0760, 14710.00
945.1950, 15030.00
946.3150, 14554.00
947.4340, 14991.00
948.5530, 14844.00
949.6720, 14961.00
950.7900, 14751.00
951.9090, 14958.00
953.0270, 15052.00
954.1460, 15048.00
955.2640, 15180.00
956.3820, 15116.00
957.4990, 14988.00
958.6170, 15000.00
959.7340, 15258.00
960.8520, 15130.00
961.9690, 15090.00
963.0860, 14859.00
964.2020, 15148.00
965.3190, 15072.00
966.4350, 15003.00
967.5520, 15133.00
968.6680, 14920.00
969.7840, 15211.00
970.8990, 15313.00
972.0150, 14816.00
973.1310, 15229.00
974.2460, 15342.00
975.3610, 15214.00
976.4760, 15255.00
977.5910, 15135.00
978.7050, 15124.00
979.8200, 15340.00
980.9340, 15371.00
982.0480, 15068.00
983.1620, 15005.00
984.2760, 15187.00
985.3900, 15400.00
986.5030, 15270.00
987.6160, 15276.00
988.7300, 15308.00
989.8430, 15300.00
990.9550, 15423.00
992.0680, 15411.00
993.1810, 15058.00
994.2930, 15229.00
995.4050, 15247.00
996.5170, 15282.00
997.6290, 15478.00
998.7410, 15373.00
999.8520, 15590.00
1000.964, 15435.00
1002.075, 15888.00
1003.186, 15725.00
1004.297, 15799.00
1005.407, 15431.00
1006.518, 15668.00
1007.628, 15341.00
1008.738, 15207.00
1009.848, 15290.00
1010.958, 15223.00
1012.068, 15267.00
1013.178, 15309.00
1014.287, 15517.00
1015.396, 15135.00
1016.505, 15340.00
1017.614, 15476.00
1018.723, 15332.00
1019.831, 15524.00
1020.940, 15639.00
1022.048, 15298.00
1023.156, 15834.00
1024.264, 15869.00
1025.372, 15877.00
1026.479, 15689.00
1027.587, 15814.00
1028.694, 16002.00
1029.801, 16113.00
1030.908, 16158.00
1032.015, 16029.00
1033.121, 16212.00
1034.228, 16185.00
1035.334, 16090.00
1036.440, 16546.00
1037.546, 16642.00
1038.652, 16497.00
1039.758, 16441.00
1040.863, 16403.00
1041.968, 16777.00
1043.074, 16617.00
1044.178, 16816.00
1045.283, 17010.00
1046.388, 17014.00
1047.492, 17070.00
1048.597, 17302.00
1049.701, 17355.00
1050.805, 17776.00
1051.909, 17721.00
1053.012, 17811.00
1054.116, 17786.00
1055.219, 18067.00
1056.322, 18532.00
1057.425, 18380.00
1058.528, 18850.00
1059.631, 19171.00
1060.733, 19268.00
1061.836, 19661.00
1062.938, 19985.53
1064.040, 20252.00
1065.142, 20752.00
1066.243, 21425.00
1067.345, 21811.00
1068.446, 22743.00
1069.547, 23477.00
1070.648, 24422.00
1071.749, 25405.00
1072.850, 26697.00
1073.951, 27993.00
1075.051, 29609.00
1076.151, 31017.00
1077.251, 32863.00
1078.351, 35563.00
1079.451, 38572.00
1080.550, 42382.00
1081.650, 46461.00
1082.749, 51683.00
1083.848, 58458.00
1084.947, 66138.00
1086.046, 76050.00
1087.144, 87028.00
1088.243, 100091.0
1089.341, 113834.0
1090.439, 128496.0
1091.537, 141903.0
1092.635, 152633.0
1093.732, 158232.0
1094.830, 157512.0
1095.927, 151312.0
1097.024, 141056.0
1098.121, 128028.0
1099.218, 113931.0
1100.314, 101174.0
1101.411, 88851.00
1102.507, 77705.00
1103.603, 67801.00
1104.699, 59953.00
1105.795, 52213.00
1106.890, 46230.00
1107.986, 41321.00
1109.081, 37172.00
1110.176, 33940.00
1111.271, 31227.00
1112.366, 29022.00
1113.461, 27273.00
1114.555, 25499.52
1115.649, 24628.00
1116.744, 22989.65
1117.838, 22652.62
1118.931, 22233.84
1120.025, 21736.77
1121.119, 20928.84
1122.212, 20522.77
1123.305, 19955.83
1124.398, 19935.00
1125.491, 19576.00
1126.584, 19488.00
1127.676, 19103.00
1128.768, 19234.00
1129.861, 18927.00
1130.953, 18663.00
1132.044, 18512.00
1133.136, 18646.00
1134.228, 18585.00
1135.319, 18387.00
1136.410, 18181.00
1137.501, 18078.00
1138.592, 18107.00
1139.683, 18009.00
1140.773, 18109.00
1141.864, 18097.00
1142.954, 17799.00
1144.044, 17983.00
1145.134, 17735.00
1146.224, 17783.00
1147.313, 17998.00
1148.402, 17998.00
1149.492, 17889.00
1150.581, 17780.00
1151.670, 18047.00
1152.758, 17853.00
1153.847, 17611.00
1154.935, 17813.00
1156.024, 17805.00
1157.112, 17747.00
1158.200, 17851.00
1159.287, 17752.00
1160.375, 17604.00
1161.462, 17759.00
1162.550, 17671.00
1163.637, 17506.00
1164.724, 17875.00
1165.810, 17640.00
1166.897, 17515.00
1167.983, 17711.00
1169.070, 18079.00
1170.156, 17750.00
1171.242, 17844.00
1172.327, 17946.00
1173.413, 17741.00
1174.499, 17766.00
1175.584, 17649.00
1176.669, 17990.00
1177.754, 17896.00
1178.839, 18025.00
1179.923, 17871.00
1181.008, 17815.00
1182.092, 17716.00
1183.176, 17701.00
1184.260, 17850.00
1185.344, 17933.00
1186.428, 17927.00
1187.511, 17888.00
1188.595, 17687.00
1189.678, 17934.00
1190.761, 17926.00
1191.843, 18069.00
1192.926, 17762.00
1194.009, 17852.00
1195.091, 17741.00
1196.173, 17921.00
1197.255, 17828.00
1198.337, 17718.00
1199.419, 17852.94
1200.500, 18021.00
1201.582, 17926.00
1202.663, 18026.00
1203.744, 17937.00
1204.825, 18155.00
1205.905, 17983.00
1206.986, 18179.00
1208.066, 18025.00
1209.146, 18171.00
1210.226, 17945.00
1211.306, 18036.00
1212.386, 18136.00
1213.466, 18125.00
1214.545, 18151.96
1215.624, 18270.00
1216.703, 18080.00
1217.782, 18272.00
1218.861, 18187.00
1219.939, 18381.00
1221.018, 18327.00
1222.096, 18235.00
1223.174, 18376.00
1224.252, 18100.00
1225.330, 18361.00
1226.407, 18373.00
1227.485, 18367.00
1228.562, 18108.00
1229.639, 18651.00
1230.716, 18704.00
1231.793, 18333.00
1232.869, 18469.00
1233.946, 18360.00
1235.022, 18727.00
1236.098, 18443.00
1237.174, 18530.00
1238.250, 18589.00
1239.325, 18737.00
1240.401, 18792.00
1241.476, 18721.00
1242.551, 18727.00
1243.626, 18772.00
1244.701, 18576.00
1245.776, 18782.00
1246.850, 18774.00
1247.924, 18534.00
1248.999, 18717.00
1250.073, 18600.00
1251.146, 18691.00
1252.220, 18665.00
1253.293, 18965.00
1254.367, 18820.00
1255.440, 18891.00
1256.513, 18823.00
1257.586, 18855.00
1258.658, 19043.00
1259.731, 18704.00
1260.803, 19044.00
1261.875, 18851.00
1262.947, 18962.00
1264.019, 18887.00
1265.091, 19220.00
1266.162, 18967.00
1267.234, 19241.00
