##NAMES=Magnesite
##RRUFFID=R050443
##IDEAL CHEMISTRY=MgCO_3_
##LOCALITY=Brumado, Bahia, Brazil
##OWNER=RRUFF
##SOURCE=Eugene Schlepp
##DESCRIPTION=Group of colorless crystals
##STATUS=The identification of this mineral has been confirmed by X-ray diffraction and chemical analysis
##URL=rruff.info/R050443
##MEASURED CHEMISTRY=Mg_1.00_CO_3_
##PIN_ID=L01455
##ORIENTATION=Laser parallel to -a* (-1 0 0). Fiducial mark perpendicular to laser is parallel to -c [0 0 -1]
92.04900, 7671.000
93.28600, 7660.000
94.52300, 7677.000
95.75900, 7690.000
96.99500, 7699.000
98.23100, 7688.000
99.46700, 7597.000
100.7030, 7706.000
101.9390, 7806.000
103.1740, 7649.000
104.4090, 7843.000
105.6440, 7924.000
106.8790, 7815.000
108.1140, 7736.000
109.3490, 7654.000
110.5830, 7792.000
111.8180, 7701.000
113.0520, 7606.000
114.2860, 7764.000
115.5200, 7958.000
116.7530, 7774.000
117.9870, 7992.000
119.2200, 8048.000
120.4530, 8753.000
121.6860, 8981.000
122.9190, 8710.000
124.1520, 8271.000
125.3850, 7853.000
126.6170, 7698.000
127.8490, 7561.000
129.0810, 7792.000
130.3130, 7642.000
131.5450, 7555.000
132.7770, 7470.000
134.0080, 7509.000
135.2390, 7633.000
136.4710, 7636.000
137.7020, 7635.000
138.9320, 7634.899
140.1630, 7615.000
141.3930, 7584.000
142.6240, 7616.000
143.8540, 7669.000
145.0840, 7776.000
146.3140, 7796.000
147.5440, 7821.000
148.7730, 7744.000
150.0020, 7717.000
151.2320, 7718.000
152.4610, 7679.000
153.6900, 7726.287
154.9180, 7687.000
156.1470, 7843.000
157.3750, 7866.000
158.6040, 7968.000
159.8320, 7855.000
161.0600, 7888.000
162.2870, 7974.000
163.5150, 7932.000
164.7420, 7970.000
165.9700, 7974.000
167.1970, 7932.665
168.4240, 7845.000
169.6510, 7888.000
170.8770, 7877.000
172.1040, 7920.938
173.3300, 7902.000
174.5560, 7979.000
175.7820, 8026.000
177.0080, 8084.000
178.2340, 8083.000
179.4590, 8112.932
180.6850, 8028.000
181.9100, 8152.000
183.1350, 8018.000
184.3600, 8074.000
185.5850, 8127.000
186.8090, 8043.000
188.0340, 8120.000
189.2580, 8107.000
190.4820, 8147.000
191.7060, 8260.000
192.9300, 8378.000
194.1530, 8225.000
195.3770, 8496.000
196.6000, 8478.000
197.8230, 8766.000
199.0460, 8952.000
200.2690, 9290.000
201.4910, 9557.000
202.7140, 9909.000
203.9360, 10564.00
205.1580, 11151.00
206.3800, 12228.00
207.6020, 13323.00
208.8240, 14878.00
210.0450, 16809.00
211.2670, 19763.00
212.4880, 22891.00
213.7090, 24005.00
214.9300, 23192.00
216.1510, 20156.00
217.3710, 16903.00
218.5920, 13789.00
219.8120, 11870.00
221.0320, 10811.00
222.2520, 10038.00
223.4720, 9436.000
224.6910, 9204.000
225.9110, 8912.000
227.1300, 8697.000
228.3490, 8680.000
229.5680, 8689.000
230.7870, 8602.000
232.0050, 8560.000
233.2240, 8614.000
234.4420, 8523.000
235.6600, 8634.000
236.8780, 8684.000
238.0960, 8508.000
239.3140, 8561.000
240.5310, 8734.000
241.7490, 8588.000
242.9660, 8594.000
244.1830, 8641.000
245.4000, 8797.000
246.6160, 8702.000
247.8330, 8553.000
249.0490, 8798.000
250.2660, 8606.000
251.4820, 8675.000
252.6980, 8695.000
253.9130, 8815.000
255.1290, 8848.000
256.3440, 8706.000
257.5600, 8824.000
258.7750, 8692.000
259.9900, 8818.000
261.2040, 8760.000
262.4190, 8888.000
263.6330, 8871.000
264.8480, 8807.000
266.0620, 8958.000
267.2760, 8930.000
268.4900, 9105.000
269.7030, 8919.000
270.9170, 8985.000
272.1300, 8915.000
273.3430, 9025.000
274.5560, 8901.000
275.7690, 8968.000
276.9820, 8934.000
278.1940, 9019.000
279.4070, 9073.000
280.6190, 9165.000
281.8310, 9128.000
283.0430, 9133.000
284.2550, 9087.000
285.4660, 9082.000
286.6770, 9087.000
287.8890, 9114.845
289.1000, 9129.000
290.3110, 9219.000
291.5210, 9225.000
292.7320, 9285.000
293.9420, 9329.000
295.1530, 9464.000
296.3630, 9385.000
297.5730, 9427.000
298.7830, 9360.000
299.9920, 9493.000
301.2020, 9565.000
302.4110, 9647.000
303.6200, 9597.000
304.8290, 9667.000
306.0380, 9707.000
307.2470, 9840.000
308.4550, 10056.00
309.6630, 10122.00
310.8720, 10456.00
312.0800, 10646.00
313.2880, 10976.00
314.4950, 11537.00
315.7030, 12313.00
316.9100, 13461.00
318.1170, 14840.00
319.3240, 16695.00
320.5310, 18861.00
321.7380, 21857.00
322.9450, 25644.00
324.1510, 30892.00
325.3570, 36944.00
326.5630, 45082.00
327.7690, 54984.00
328.9750, 68004.00
330.1810, 76834.00
331.3860, 77908.00
332.5910, 69920.00
333.7960, 57134.00
335.0010, 44278.00
336.2060, 33444.00
337.4110, 25724.00
338.6150, 20776.00
339.8200, 17368.00
341.0240, 15377.00
342.2280, 13775.00
343.4320, 12850.00
344.6350, 12149.00
345.8390, 11919.00
347.0420, 11680.00
348.2450, 11333.00
349.4480, 11159.00
350.6510, 11085.00
351.8540, 10885.00
353.0560, 10885.00
354.2590, 10762.00
355.4610, 10771.00
356.6630, 10712.28
357.8650, 10642.00
359.0670, 10640.00
360.2680, 10561.00
361.4700, 10550.00
362.6710, 10629.00
363.8720, 10355.00
365.0730, 10624.00
366.2740, 10490.00
367.4740, 10549.00
368.6750, 10456.00
369.8750, 10656.00
371.0750, 10359.00
372.2750, 10541.00
373.4750, 10407.00
374.6740, 10499.00
375.8740, 10612.00
377.0730, 10482.00
378.2720, 10560.00
379.4710, 10399.00
380.6700, 10485.00
381.8690, 10364.00
383.0670, 10376.79
384.2660, 10398.22
385.4640, 10410.00
386.6620, 10478.00
387.8600, 10531.00
389.0570, 10659.00
390.2550, 10570.00
391.4520, 10596.00
392.6490, 10519.00
393.8460, 10710.00
395.0430, 10533.00
396.2400, 10662.00
397.4370, 10629.00
398.6330, 10634.00
399.8290, 10756.00
401.0250, 10685.00
402.2210, 10745.00
403.4170, 10733.00
404.6130, 10731.00
405.8080, 10753.80
407.0030, 10713.00
408.1980, 10743.00
409.3930, 10668.00
410.5880, 10603.00
411.7830, 10806.00
412.9770, 10800.00
414.1720, 10719.00
415.3660, 10759.00
416.5600, 10947.00
417.7530, 10778.00
418.9470, 10785.00
420.1410, 10863.00
421.3340, 10686.00
422.5270, 10908.00
423.7200, 10828.00
424.9130, 10891.00
426.1060, 10989.00
427.2980, 10876.00
428.4900, 10957.00
429.6830, 10937.00
430.8750, 10774.00
432.0670, 10985.00
433.2580, 10980.00
434.4500, 10885.00
435.6410, 11140.00
436.8320, 11157.00
438.0240, 11108.00
439.2140, 11109.00
440.4050, 11073.00
441.5960, 11055.00
442.7860, 11099.77
443.9760, 11212.00
445.1670, 11231.00
446.3560, 11347.00
447.5460, 11488.00
448.7360, 11490.59
449.9250, 12020.00
451.1150, 11408.00
452.3040, 11818.13
453.4930, 11504.34
454.6810, 11959.00
455.8700, 11278.00
457.0590, 11440.00
458.2470, 11101.00
459.4350, 11349.00
460.6230, 11544.00
461.8110, 11517.00
462.9980, 11353.00
464.1860, 11459.00
465.3730, 11371.00
466.5600, 11410.00
467.7470, 11379.00
468.9340, 11527.00
470.1210, 11455.00
471.3080, 11453.00
472.4940, 11693.00
473.6800, 11630.00
474.8660, 11655.00
476.0520, 11453.00
477.2380, 11525.00
478.4230, 11643.00
479.6090, 11604.00
480.7940, 11535.00
481.9790, 11670.00
483.1640, 11631.00
484.3490, 11703.00
485.5330, 11633.00
486.7180, 11552.00
487.9020, 11726.00
489.0860, 11656.00
490.2700, 11858.00
491.4540, 11852.00
492.6370, 11799.00
493.8210, 11809.00
495.0040, 11787.00
496.1870, 11904.00
497.3700, 11891.00
498.5530, 11739.00
499.7360, 11900.00
500.9180, 11815.00
502.1000, 11889.00
503.2830, 11777.00
504.4650, 12010.00
505.6460, 11865.00
506.8280, 11904.00
508.0100, 12180.00
509.1910, 12077.00
510.3720, 11837.00
511.5530, 11954.00
512.7340, 12129.00
513.9150, 12224.00
515.0950, 12287.00
516.2760, 12149.00
517.4560, 12118.00
518.6360, 12096.00
519.8160, 12256.00
520.9950, 12156.00
522.1750, 12290.00
523.3540, 12418.00
524.5340, 12204.00
525.7130, 12276.00
526.8920, 12414.00
528.0700, 12231.00
529.2490, 12354.00
530.4270, 12351.00
531.6060, 12301.00
532.7840, 12295.00
533.9620, 12395.00
535.1390, 12557.00
536.3170, 12555.00
537.4940, 12467.00
538.6720, 12289.00
539.8490, 12531.00
541.0260, 12443.00
542.2030, 12558.00
543.3790, 12497.00
544.5560, 12464.00
545.7320, 12656.00
546.9080, 12394.00
548.0840, 12593.00
549.2600, 12544.00
550.4360, 12683.00
551.6110, 12543.00
552.7860, 12683.00
553.9620, 12607.00
555.1370, 12747.00
556.3110, 12597.00
557.4860, 12733.00
558.6610, 12688.00
559.8350, 12882.00
561.0090, 12788.00
562.1830, 12756.00
563.3570, 12794.00
564.5310, 12821.00
565.7040, 12842.00
566.8780, 12856.00
568.0510, 12839.00
569.2240, 12879.41
570.3970, 12963.00
571.5700, 12932.00
572.7420, 12883.00
573.9150, 12887.00
575.0870, 13047.00
576.2590, 12899.00
577.4310, 13156.00
578.6030, 13004.00
579.7740, 13002.00
580.9460, 13161.00
582.1170, 13067.00
583.2880, 13042.00
584.4590, 13147.00
585.6300, 13155.00
586.8010, 13370.00
587.9710, 13245.00
589.1410, 13255.00
590.3110, 13330.00
591.4810, 13169.00
592.6510, 13338.00
593.8210, 13223.00
594.9900, 13292.00
596.1600, 13480.00
597.3290, 13334.00
598.4980, 13310.00
599.6670, 13475.00
600.8350, 13385.00
602.0040, 13427.00
603.1720, 13381.00
604.3400, 13504.00
605.5080, 13561.00
606.6760, 13482.00
607.8440, 13562.00
609.0120, 13522.00
610.1790, 13557.00
611.3460, 13556.00
612.5130, 13637.00
613.6800, 13470.00
614.8470, 13674.00
616.0130, 13553.00
617.1800, 13843.00
618.3460, 13766.00
619.5120, 13695.00
620.6780, 13829.00
621.8440, 13755.00
623.0090, 13720.00
624.1750, 13930.00
625.3400, 13916.00
626.5050, 13897.00
627.6700, 13930.00
628.8350, 13817.00
629.9990, 13802.00
631.1640, 13894.00
632.3280, 14116.00
633.4920, 13942.00
634.6560, 14011.00
635.8200, 14213.00
636.9840, 14038.00
638.1470, 14087.00
639.3100, 14082.00
640.4730, 14006.00
641.6360, 14115.00
642.7990, 14071.00
643.9620, 14008.00
645.1240, 14108.00
646.2870, 14198.00
647.4490, 14219.00
648.6110, 14368.00
649.7730, 14337.79
650.9340, 14388.00
652.0960, 14289.00
653.2570, 14337.00
654.4180, 14266.00
655.5790, 14321.00
656.7400, 14292.00
657.9010, 14179.00
659.0620, 14405.00
660.2220, 14493.00
661.3820, 14481.00
662.5420, 14670.00
663.7020, 14528.00
664.8620, 14432.00
666.0210, 14480.00
667.1810, 14549.00
668.3400, 14660.00
669.4990, 14433.00
670.6580, 14558.00
671.8170, 14564.00
672.9750, 14498.00
674.1340, 14756.00
675.2920, 14538.00
676.4500, 14629.00
677.6080, 14898.00
678.7660, 14896.00
679.9230, 14923.00
681.0810, 14696.00
682.2380, 14727.00
683.3950, 14778.00
684.5520, 14862.00
685.7090, 14916.00
686.8660, 15063.00
688.0220, 14953.00
689.1780, 14932.00
690.3340, 15067.00
691.4900, 14847.00
692.6460, 14983.00
693.8020, 15182.00
694.9570, 15046.00
696.1130, 15250.00
697.2680, 15314.00
698.4230, 15252.00
699.5780, 15331.00
700.7320, 15353.00
701.8870, 15346.00
703.0410, 15522.00
704.1950, 15308.00
705.3490, 15544.00
706.5030, 15604.00
707.6570, 15805.00
708.8110, 15763.00
709.9640, 15692.00
711.1170, 15701.00
712.2700, 15782.60
713.4230, 15989.00
714.5760, 16029.00
715.7280, 16230.00
716.8810, 16370.00
718.0330, 16478.00
719.1850, 16685.00
720.3370, 16838.00
721.4890, 17148.00
722.6400, 17351.00
723.7920, 17658.00
724.9430, 18001.00
726.0940, 18502.00
727.2450, 18932.00
728.3960, 19478.00
729.5460, 20253.00
730.6970, 20690.00
731.8470, 21527.00
732.9970, 21981.00
734.1470, 22638.00
735.2970, 23359.00
736.4460, 23913.00
737.5960, 24353.00
738.7450, 24912.00
739.8940, 24893.00
741.0430, 24608.00
742.1920, 24136.00
743.3410, 23170.00
744.4890, 22414.00
745.6370, 21340.00
746.7850, 20549.00
747.9330, 19905.00
749.0810, 19284.00
750.2290, 18750.00
751.3760, 18343.00
752.5240, 17772.00
753.6710, 17733.00
754.8180, 17193.00
755.9650, 17005.00
757.1110, 16868.00
758.2580, 16533.00
759.4040, 16332.00
760.5510, 16132.00
761.6970, 16180.00
762.8420, 16067.00
763.9880, 16124.00
765.1340, 15892.00
766.2790, 15810.00
767.4240, 15778.00
768.5690, 15540.00
769.7140, 15933.00
770.8590, 15718.00
772.0030, 15652.00
773.1480, 15700.00
774.2920, 15638.00
775.4360, 15724.00
776.5800, 15789.00
777.7240, 15825.00
778.8670, 15896.17
780.0110, 15695.00
781.1540, 15971.00
782.2970, 15890.00
783.4400, 15844.00
784.5830, 16141.00
785.7250, 16062.00
786.8680, 16215.00
788.0100, 15975.00
789.1520, 16200.00
790.2940, 16187.00
791.4360, 16126.00
792.5780, 16263.00
793.7190, 16158.00
794.8600, 16295.00
796.0010, 16224.00
797.1420, 16290.00
798.2830, 16288.00
799.4240, 16249.00
800.5640, 16202.00
801.7050, 16271.56
802.8450, 16424.00
803.9850, 16415.00
805.1250, 16476.00
806.2640, 16563.00
807.4040, 16372.00
808.5430, 16410.00
809.6820, 16421.00
810.8210, 16472.00
811.9600, 16492.00
813.0990, 16410.00
814.2370, 16711.00
815.3760, 16433.00
816.5140, 16591.00
817.6520, 16481.00
818.7900, 16634.00
819.9270, 16738.00
821.0650, 16542.00
822.2020, 16669.00
823.3390, 16666.00
824.4760, 16825.00
825.6130, 16840.00
826.7500, 16799.00
827.8870, 16914.00
829.0230, 16678.00
830.1590, 16848.00
831.2950, 16784.00
832.4310, 16906.00
833.5670, 17063.00
834.7030, 16887.00
835.8380, 16941.00
836.9730, 17086.00
838.1080, 17034.00
839.2430, 16952.00
840.3780, 17160.00
841.5130, 17202.00
842.6470, 17162.00
843.7810, 17022.00
844.9150, 17074.00
846.0490, 17062.00
847.1830, 17218.00
848.3170, 17196.00
849.4500, 17183.00
850.5830, 16988.00
851.7160, 17184.00
852.8490, 17410.00
853.9820, 17310.00
855.1150, 17040.00
856.2470, 17396.00
857.3800, 17499.00
858.5120, 17299.00
859.6440, 17600.00
860.7760, 17707.00
861.9070, 17683.00
863.0390, 17542.00
864.1700, 17579.00
865.3010, 17623.00
866.4320, 17483.00
867.5630, 17482.00
868.6940, 17598.00
869.8240, 17533.00
870.9540, 17540.00
872.0850, 17581.00
873.2150, 17792.00
874.3450, 17610.00
875.4740, 17816.00
876.6040, 17765.00
877.7330, 17680.00
878.8620, 17806.00
879.9910, 17748.00
881.1200, 17879.00
882.2490, 17798.00
883.3770, 18043.00
884.5060, 17633.00
885.6340, 17610.00
886.7620, 17875.00
887.8900, 18008.00
889.0180, 18015.00
890.1450, 17920.00
891.2730, 17906.00
892.4000, 17973.00
893.5270, 18159.00
894.6540, 18118.00
895.7810, 18337.00
896.9070, 17863.00
898.0340, 18133.00
899.1600, 18103.00
900.2860, 18018.00
901.4120, 18349.00
902.5380, 18438.00
903.6630, 18126.00
904.7890, 18219.00
905.9140, 18179.00
907.0390, 18336.00
908.1640, 18273.00
909.2890, 18517.00
910.4130, 18227.00
911.5380, 18249.00
912.6620, 18325.00
913.7860, 18583.00
914.9100, 18533.00
916.0340, 18480.00
917.1580, 18524.00
918.2810, 18616.00
919.4040, 18559.00
920.5280, 18616.00
921.6510, 18472.00
922.7730, 18723.00
923.8960, 18587.00
925.0180, 18546.00
926.1410, 18639.00
927.2630, 18807.00
928.3850, 18602.00
929.5070, 18772.00
930.6280, 18709.00
931.7500, 18958.00
932.8710, 18556.00
933.9920, 18518.00
935.1130, 18670.00
936.2340, 18822.00
937.3550, 18893.00
938.4760, 18878.00
939.5960, 19025.00
940.7160, 18914.00
941.8360, 18845.00
942.9560, 18845.00
944.0760, 18881.00
945.1950, 18917.78
946.3150, 18960.00
947.4340, 19064.00
948.5530, 19080.00
949.6720, 19128.00
950.7900, 19109.97
951.9090, 19142.00
953.0270, 19082.00
954.1460, 19153.00
955.2640, 19259.00
956.3820, 19272.00
957.4990, 19190.00
958.6170, 19248.00
959.7340, 19384.00
960.8520, 19164.00
961.9690, 19363.00
963.0860, 19283.00
964.2020, 19370.00
965.3190, 19369.00
966.4350, 19297.00
967.5520, 19279.00
968.6680, 19518.00
969.7840, 19509.00
970.8990, 19530.00
972.0150, 19602.07
973.1310, 19649.00
974.2460, 19580.00
975.3610, 19549.00
976.4760, 19441.00
977.5910, 19649.00
978.7050, 19617.00
979.8200, 19551.00
980.9340, 19734.00
982.0480, 19488.00
983.1620, 19725.00
984.2760, 19647.00
985.3900, 19656.00
986.5030, 19726.82
987.6160, 19755.44
988.7300, 19745.00
989.8430, 19847.00
990.9550, 19830.00
992.0680, 19708.00
993.1810, 19736.00
994.2930, 19647.00
995.4050, 19997.00
996.5170, 19805.00
997.6290, 19971.00
998.7410, 19855.00
999.8520, 20059.00
1000.964, 19982.00
1002.075, 20375.00
1003.186, 20017.00
1004.297, 20094.00
1005.407, 19890.00
1006.518, 20132.00
1007.628, 19995.00
1008.738, 19726.00
1009.848, 19961.00
1010.958, 19831.00
1012.068, 19801.00
1013.178, 19860.00
1014.287, 19900.00
1015.396, 19739.00
1016.505, 19796.00
1017.614, 19857.00
1018.723, 19668.00
1019.831, 19766.00
1020.940, 19948.00
1022.048, 19774.00
1023.156, 20190.00
1024.264, 20169.00
1025.372, 19971.00
1026.479, 19962.00
1027.587, 20217.00
1028.694, 20274.00
1029.801, 20415.00
1030.908, 20459.00
1032.015, 20454.00
1033.121, 20718.00
1034.228, 20865.00
1035.334, 20731.00
1036.440, 21088.00
1037.546, 21339.00
1038.652, 21252.00
1039.758, 21060.00
1040.863, 21375.00
1041.968, 21357.00
1043.074, 21636.00
1044.178, 21758.00
1045.283, 22022.00
1046.388, 21968.00
1047.492, 22302.00
1048.597, 22340.00
1049.701, 22683.00
1050.805, 22637.00
1051.909, 23021.00
1053.012, 23133.00
1054.116, 23412.00
1055.219, 23796.00
1056.322, 24060.00
1057.425, 24096.00
1058.528, 24454.00
1059.631, 24849.00
1060.733, 25026.00
1061.836, 25519.00
1062.938, 25873.00
1064.040, 26527.00
1065.142, 26979.00
1066.243, 27571.00
1067.345, 28341.00
1068.446, 29186.00
1069.547, 29995.00
1070.648, 31262.00
1071.749, 32690.00
1072.850, 34020.00
1073.951, 36032.00
1075.051, 37746.00
1076.151, 39804.00
1077.251, 42275.00
1078.351, 45485.00
1079.451, 49096.00
1080.550, 53752.00
1081.650, 59357.00
1082.749, 66304.00
1083.848, 75449.00
1084.947, 86363.00
1086.046, 99791.00
1087.144, 115624.0
1088.243, 134338.0
1089.341, 155872.0
1090.439, 179369.0
1091.537, 204529.0
1092.635, 226501.0
1093.732, 243967.0
1094.830, 252520.0
1095.927, 249384.0
1097.024, 236503.0
1098.121, 216307.0
1099.218, 195057.0
1100.314, 172687.0
1101.411, 152329.0
1102.507, 135204.0
1103.603, 120098.0
1104.699, 107337.0
1105.795, 96013.00
1106.890, 86051.00
1107.986, 77350.00
1109.081, 69199.00
1110.176, 62294.00
1111.271, 56830.00
1112.366, 51497.00
1113.461, 46865.00
1114.555, 42894.00
1115.649, 39757.00
1116.744, 36943.00
1117.838, 34666.00
1118.931, 32808.00
1120.025, 31363.00
1121.119, 29878.00
1122.212, 28844.00
1123.305, 28216.00
1124.398, 27424.00
1125.491, 26999.00
1126.584, 26404.00
1127.676, 25769.00
1128.768, 25774.00
1129.861, 25220.00
1130.953, 24972.00
1132.044, 24829.00
1133.136, 24331.00
1134.228, 24356.00
1135.319, 24203.00
1136.410, 24050.00
1137.501, 24050.00
1138.592, 23822.00
1139.683, 23864.00
1140.773, 23585.00
1141.864, 23852.00
1142.954, 23528.00
1144.044, 23392.00
1145.134, 23514.00
1146.224, 23551.00
1147.313, 23330.00
1148.402, 23273.00
1149.492, 23496.00
1150.581, 23343.00
1151.670, 23167.00
1152.758, 23427.00
1153.847, 23026.00
1154.935, 23115.00
1156.024, 23197.00
1157.112, 23285.00
1158.200, 23059.00
1159.287, 23177.00
1160.375, 23119.00
1161.462, 23211.00
1162.550, 23273.00
1163.637, 23104.00
1164.724, 23133.00
1165.810, 23233.00
1166.897, 23083.00
1167.983, 23213.00
1169.070, 23373.00
1170.156, 23092.00
1171.242, 23287.00
1172.327, 23126.00
1173.413, 23362.00
1174.499, 23281.00
1175.584, 23249.00
1176.669, 23272.00
1177.754, 23289.00
1178.839, 23254.00
1179.923, 23350.00
1181.008, 23267.00
1182.092, 23296.00
1183.176, 23235.00
1184.260, 23287.00
1185.344, 23343.00
1186.428, 23222.00
1187.511, 23286.00
1188.595, 23407.00
1189.678, 23395.00
1190.761, 23430.00
1191.843, 23324.00
1192.926, 23414.00
1194.009, 23434.00
1195.091, 23498.00
1196.173, 23566.00
1197.255, 23396.00
1198.337, 23582.00
1199.419, 23745.00
1200.500, 23405.00
1201.582, 23468.00
1202.663, 23613.00
1203.744, 23473.00
1204.825, 23578.88
1205.905, 23479.00
1206.986, 23642.00
1208.066, 23676.00
1209.146, 23746.00
1210.226, 23699.00
1211.306, 23765.00
1212.386, 23660.00
1213.466, 23770.00
1214.545, 23819.00
1215.624, 23669.00
1216.703, 23700.00
1217.782, 23861.00
1218.861, 23866.00
1219.939, 24034.00
1221.018, 23776.00
1222.096, 23767.00
1223.174, 23738.00
1224.252, 23783.00
1225.330, 23799.06
1226.407, 24046.00
1227.485, 23934.00
1228.562, 24090.00
1229.639, 24274.00
1230.716, 24069.00
1231.793, 24095.00
1232.869, 24293.00
1233.946, 24225.00
1235.022, 24198.00
1236.098, 24222.00
1237.174, 24095.00
1238.250, 24199.00
1239.325, 24329.00
1240.401, 24289.00
1241.476, 24196.00
1242.551, 24478.00
1243.626, 24143.00
1244.701, 24393.00
1245.776, 24628.00
1246.850, 24432.00
1247.924, 24414.00
1248.999, 24331.00
1250.073, 24516.00
1251.146, 24277.00
1252.220, 24512.00
1253.293, 24578.00
1254.367, 24427.00
1255.440, 24653.00
1256.513, 24445.00
1257.586, 24600.00
1258.658, 24604.00
1259.731, 24593.00
1260.803, 24643.08
1261.875, 24659.00
1262.947, 24667.00
1264.019, 24655.00
1265.091, 24717.00
1266.162, 24816.00
1267.234, 24728.00
1268.305, 24960.00
1269.376, 24823.00
1270.447, 24848.00
1271.517, 24777.00
1272.588, 24878.00
1273.658, 24852.00
1274.729, 24904.71
1275.799, 24897.04
1276.868, 24994.00
