##NAMES=Magnesiochromite
##RRUFFID=R060796
##IDEAL CHEMISTRY=MgCr^3+^_2_O_4_
##LOCALITY=State Line Chrome mine (Low's mine), Cecil County, Maryland, USA
##OWNER=RRUFF
##SOURCE=California Institute of Technology
##DESCRIPTION=Black massive
##STATUS=The identification of this mineral has been confirmed by X-ray diffraction and chemical analysis
##URL=rruff.info/R060796
##MEASURED CHEMISTRY=(Mg_0.57_Fe^2+^_0.43_)_Σ=1_(Cr_1.52_Al_0.41_Fe^3+^_0.07_)_Σ=2_O_4_
##PIN_ID=L00965
##ORIENTATION=Laser parallel to b* (0 1 0). Fiducial mark perpendicular to laser is parallel to c [0 0 1]
137.6560, 17803.00
138.8880, 17770.00
140.1200, 17699.00
141.3520, 17580.00
142.5830, 17592.00
143.8150, 17577.00
145.0460, 17685.00
146.2770, 17782.00
147.5080, 17746.00
148.7390, 17696.00
149.9700, 17798.00
151.2000, 17653.00
152.4310, 17617.00
153.6610, 17793.00
154.8910, 17608.00
156.1210, 17473.00
157.3500, 17627.00
158.5800, 17484.00
159.8090, 17621.00
161.0380, 17936.00
162.2670, 17773.46
163.4960, 17892.68
164.7240, 17934.57
165.9530, 17901.56
167.1810, 17664.14
168.4090, 17618.36
169.6370, 17714.00
170.8650, 17391.00
172.0920, 17354.00
173.3200, 17337.00
174.5470, 17460.00
175.7740, 17264.00
177.0010, 17717.00
178.2280, 17674.00
179.4540, 17438.00
180.6810, 17414.00
181.9070, 17315.00
183.1330, 17467.00
184.3590, 17377.00
185.5850, 17443.00
186.8100, 17192.00
188.0350, 17220.00
189.2610, 17236.00
190.4860, 17471.00
191.7110, 17648.00
192.9350, 17661.00
194.1600, 17544.00
195.3840, 17580.00
196.6080, 17647.00
197.8320, 17592.00
199.0560, 17526.00
200.2800, 17547.00
201.5030, 17558.00
202.7270, 17368.00
203.9500, 17234.00
205.1730, 17189.00
206.3950, 17135.00
207.6180, 17018.00
208.8410, 16963.00
210.0630, 16931.00
211.2850, 16943.00
212.5070, 16746.00
213.7290, 16862.00
214.9500, 16722.06
216.1720, 16812.88
217.3930, 16857.99
218.6140, 16859.83
219.8350, 16688.80
221.0560, 16741.00
222.2770, 16703.73
223.4970, 16662.81
224.7170, 16746.44
225.9370, 16600.57
227.1570, 16682.21
228.3770, 16701.00
229.5970, 16477.00
230.8160, 16556.88
232.0350, 16644.18
233.2540, 16685.76
234.4730, 16684.06
235.6920, 16509.50
236.9110, 16558.16
238.1290, 16517.38
239.3470, 16472.93
240.5650, 16553.02
241.7830, 16403.62
243.0010, 16481.73
244.2180, 16469.04
245.4360, 16497.90
246.6530, 16436.77
247.8700, 16403.43
249.0870, 16460.14
250.3040, 16497.00
251.5200, 16260.00
252.7370, 16340.00
253.9530, 16184.00
255.1690, 16318.00
256.3850, 16288.00
257.6000, 16329.00
258.8160, 16292.00
260.0310, 16235.00
261.2460, 16259.99
262.4610, 16165.31
263.6760, 16259.49
264.8910, 16307.95
266.1050, 16313.15
267.3200, 16145.47
268.5340, 16201.02
269.7480, 16167.12
270.9620, 16129.55
272.1750, 16216.52
273.3890, 16074.00
274.6020, 16159.00
275.8150, 16153.18
277.0280, 16188.93
278.2410, 16134.67
279.4540, 16108.21
280.6660, 16171.80
281.8790, 16185.52
283.0910, 16120.91
284.3030, 16159.30
285.5140, 16013.66
286.7260, 16029.52
287.9380, 16115.05
289.1490, 16054.97
290.3600, 16095.03
291.5710, 16096.94
292.7820, 15925.55
293.9920, 16055.57
295.2030, 16059.00
296.4130, 15931.00
297.6230, 16135.00
298.8330, 15967.00
300.0430, 15926.00
301.2520, 15823.00
302.4620, 15772.00
303.6710, 15939.00
304.8800, 15973.00
306.0890, 15859.00
307.2980, 15860.00
308.5070, 15768.00
309.7150, 15898.00
310.9230, 15901.00
312.1310, 15770.00
313.3390, 15715.00
314.5470, 15862.00
315.7550, 15858.00
316.9620, 15915.00
318.1690, 15880.00
319.3760, 15796.00
320.5830, 15855.00
321.7900, 15744.00
322.9960, 15803.00
324.2030, 15955.00
325.4090, 16011.00
326.6150, 16007.00
327.8210, 15898.00
329.0270, 15814.00
330.2320, 15947.00
331.4380, 15786.00
332.6430, 15833.00
333.8480, 16047.00
335.0530, 16066.00
336.2580, 16067.00
337.4620, 15882.00
338.6670, 16112.00
339.8710, 15889.00
341.0750, 15852.00
342.2790, 15852.00
343.4820, 15943.00
344.6860, 16111.00
345.8890, 16093.00
347.0920, 16141.00
348.2960, 15914.00
349.4980, 16195.00
350.7010, 15989.00
351.9040, 16098.00
353.1060, 16003.00
354.3080, 16031.00
355.5100, 16146.00
356.7120, 16055.00
357.9140, 16149.00
359.1150, 15954.00
360.3170, 15956.00
361.5180, 16123.00
362.7190, 16089.00
363.9200, 16121.00
365.1200, 16223.00
366.3210, 16296.00
367.5210, 16281.00
368.7210, 16164.00
369.9210, 16274.00
371.1210, 16189.00
372.3210, 16340.00
373.5200, 16243.00
374.7200, 16262.00
375.9190, 16265.00
377.1180, 16389.00
378.3170, 16209.00
379.5150, 16452.00
380.7140, 16371.00
381.9120, 16634.00
383.1110, 16263.00
384.3090, 16493.00
385.5060, 16469.00
386.7040, 16607.00
387.9020, 16612.00
389.0990, 16657.00
390.2960, 16592.00
391.4930, 16569.00
392.6900, 16649.00
393.8860, 16737.00
395.0830, 16655.00
396.2790, 16697.00
397.4750, 16744.00
398.6710, 16843.00
399.8670, 16857.00
401.0630, 16840.00
402.2580, 16883.83
403.4540, 16814.00
404.6490, 16871.00
405.8440, 16835.00
407.0390, 16764.00
408.2330, 16908.00
409.4280, 16900.00
410.6220, 16987.00
411.8160, 16863.00
413.0100, 16915.00
414.2040, 17088.00
415.3980, 17152.00
416.5910, 17341.00
417.7850, 17344.03
418.9780, 17232.00
420.1710, 17308.00
421.3640, 17273.00
422.5560, 17152.00
423.7490, 17336.00
424.9410, 17249.00
426.1330, 17333.00
427.3250, 17303.00
428.5170, 17412.00
429.7090, 17486.00
430.9000, 17486.51
432.0910, 17434.00
433.2820, 17471.00
434.4730, 17477.26
435.6640, 17484.00
436.8550, 17531.00
438.0450, 17589.00
439.2360, 17608.54
440.4260, 17736.00
441.6160, 17735.00
442.8060, 17891.00
443.9950, 17910.00
445.1850, 17822.00
446.3740, 17961.00
447.5630, 18061.00
448.7520, 18242.00
449.9410, 18152.00
451.1300, 18235.00
452.3180, 18203.00
453.5060, 18213.00
454.6950, 18357.00
455.8830, 18122.00
457.0700, 18094.00
458.2580, 18423.00
459.4450, 18262.23
460.6330, 18513.00
461.8200, 18338.00
463.0070, 18429.00
464.1940, 18534.00
465.3800, 18345.00
466.5670, 18546.79
467.7530, 18685.06
468.9390, 18777.61
470.1250, 18826.89
471.3110, 18703.31
472.4970, 18802.95
473.6820, 18813.10
474.8680, 18819.61
476.0530, 18950.63
477.2380, 18852.17
478.4230, 18981.22
479.6070, 19019.42
480.7920, 19099.21
481.9760, 19088.97
483.1600, 19106.53
484.3440, 19214.12
485.5280, 19141.00
486.7120, 19260.00
487.8950, 19301.00
489.0780, 19379.00
490.2620, 19426.25
491.4450, 19498.46
492.6270, 19506.00
493.8100, 19508.07
494.9920, 19664.87
496.1750, 19775.99
497.3570, 19843.80
498.5390, 19738.74
499.7210, 19856.90
500.9020, 19885.56
502.0840, 19910.60
503.2650, 20060.13
504.4460, 19980.17
505.6270, 20127.72
506.8080, 20184.46
507.9890, 20282.76
509.1690, 20291.01
510.3500, 20573.00
511.5300, 20623.00
512.7100, 20960.00
513.8900, 21053.54
515.0690, 21073.00
516.2490, 21304.00
517.4280, 21426.00
518.6070, 21472.78
519.7860, 21711.46
520.9650, 21924.50
522.1440, 22114.33
523.3220, 22151.21
524.5010, 22431.51
525.6790, 22642.24
526.8570, 22869.33
528.0350, 23240.99
529.2130, 23403.21
530.3900, 23812.70
531.5670, 24133.00
532.7450, 24359.00
533.9220, 24616.00
535.0980, 24911.00
536.2750, 25115.00
537.4520, 25682.00
538.6280, 25807.72
539.8040, 26061.00
540.9800, 26259.00
542.1560, 26875.00
543.3320, 27159.00
544.5070, 27483.00
545.6830, 27818.00
546.8580, 28063.00
548.0330, 28250.00
549.2080, 28627.00
550.3830, 28833.00
551.5570, 28977.00
552.7310, 29046.00
553.9060, 28827.00
555.0800, 29305.00
556.2540, 29178.00
557.4270, 29231.00
558.6010, 29425.00
559.7740, 29527.00
560.9470, 29685.93
562.1210, 29725.00
563.2930, 29962.00
564.4660, 30094.00
565.6390, 30103.00
566.8110, 30020.00
567.9830, 29994.33
569.1550, 30097.44
570.3270, 30112.64
571.4990, 30042.42
572.6710, 29757.16
573.8420, 29653.12
575.0130, 29417.52
576.1840, 29136.16
577.3550, 28937.26
578.5260, 28466.76
579.6970, 28507.00
580.8670, 28165.00
582.0370, 27423.00
583.2070, 26813.00
584.3770, 26615.00
585.5470, 25977.00
586.7170, 25544.00
587.8860, 25152.00
589.0550, 24937.00
590.2240, 24772.00
591.3930, 24485.00
592.5620, 24263.00
593.7310, 24227.00
594.8990, 24110.00
596.0670, 23875.00
597.2350, 23947.00
598.4030, 23907.00
599.5710, 23747.00
600.7390, 23688.37
601.9060, 23536.83
603.0740, 23367.00
604.2410, 23220.00
605.4080, 22982.00
606.5740, 22793.00
607.7410, 22780.00
608.9080, 22294.00
610.0740, 22105.00
611.2400, 21939.00
612.4060, 22070.00
613.5720, 21756.00
614.7370, 21727.00
615.9030, 21391.00
617.0680, 21366.00
618.2330, 21110.00
619.3980, 20867.00
620.5630, 20621.00
621.7280, 20704.00
622.8920, 20956.00
624.0570, 20813.00
625.2210, 20660.00
626.3850, 20998.00
627.5490, 21042.00
628.7120, 21142.00
629.8760, 21158.00
631.0390, 21435.00
632.2020, 21875.00
633.3650, 22219.00
634.5280, 22453.00
635.6910, 22950.00
636.8530, 23239.00
638.0160, 23481.00
639.1780, 23653.00
640.3400, 24311.00
641.5020, 24501.00
642.6640, 24603.00
643.8250, 25038.00
644.9870, 25170.00
646.1480, 25168.00
647.3090, 25349.00
648.4700, 25485.00
649.6300, 25569.00
650.7910, 25638.32
651.9510, 25663.00
653.1120, 25660.00
654.2720, 25709.00
655.4320, 25711.41
656.5910, 25653.00
657.7510, 25742.00
658.9100, 25772.00
660.0690, 25798.00
661.2290, 26073.00
662.3880, 26139.00
663.5460, 26426.00
664.7050, 26596.00
665.8630, 26990.00
667.0220, 27149.00
668.1800, 27407.00
669.3380, 27833.00
670.4950, 28298.00
671.6530, 28875.00
672.8100, 29202.00
673.9680, 29498.00
675.1250, 30110.00
676.2820, 30579.00
677.4390, 31434.00
678.5950, 32095.00
679.7520, 32537.00
680.9080, 32985.00
682.0640, 33739.00
683.2200, 34221.00
684.3760, 34808.00
685.5320, 35083.00
686.6870, 35917.00
687.8420, 36376.00
688.9980, 36707.00
690.1530, 37321.00
691.3070, 37383.00
692.4620, 37781.00
693.6170, 37834.00
694.7710, 37741.00
695.9250, 37590.00
697.0790, 37344.69
698.2330, 36977.27
699.3870, 36526.00
700.5400, 35931.00
701.6940, 35180.00
702.8470, 34314.00
704.0000, 33534.00
705.1530, 33117.00
706.3050, 32152.00
707.4580, 31650.00
708.6100, 30886.00
709.7630, 29940.00
710.9150, 29134.00
712.0660, 28548.00
713.2180, 27850.00
714.3700, 27218.00
715.5210, 26601.09
716.6720, 26051.00
717.8240, 25390.00
718.9740, 24908.00
720.1250, 24374.00
721.2760, 23865.00
722.4260, 23617.00
723.5770, 23172.00
724.7270, 22700.00
725.8770, 22516.00
727.0260, 22025.00
728.1760, 21534.00
729.3250, 21330.00
730.4750, 21194.00
731.6240, 20882.00
732.7730, 20626.00
733.9220, 20502.00
735.0700, 20208.00
736.2190, 19956.00
737.3670, 19749.00
738.5150, 19673.00
739.6630, 19403.00
740.8110, 19238.00
741.9590, 19344.00
743.1060, 19149.00
744.2540, 19192.00
745.4010, 18823.00
746.5480, 18744.00
747.6950, 18594.00
748.8410, 18410.00
749.9880, 18366.51
751.1340, 18367.00
752.2800, 18235.00
753.4260, 18224.00
754.5720, 18165.00
755.7180, 18090.00
756.8640, 18059.00
758.0090, 18141.00
759.1540, 17930.00
760.2990, 18028.00
761.4440, 17840.00
762.5890, 17739.00
763.7340, 17663.00
764.8780, 17559.00
766.0220, 17531.36
767.1660, 17484.80
768.3100, 17497.00
769.4540, 17449.00
770.5980, 17457.00
771.7410, 17452.00
772.8840, 17351.00
774.0280, 17236.00
775.1700, 17210.82
776.3130, 17382.00
777.4560, 17007.00
778.5980, 17279.00
779.7410, 16994.00
780.8830, 17110.00
782.0250, 17051.00
783.1670, 17000.00
784.3080, 16931.00
785.4500, 16957.00
786.5910, 16775.00
787.7320, 16677.00
788.8730, 16741.00
790.0140, 16678.67
791.1550, 16793.00
792.2950, 16723.00
793.4360, 16824.00
794.5760, 16818.00
795.7160, 16748.00
796.8560, 16776.00
797.9960, 16628.00
799.1350, 16579.00
800.2750, 16688.00
801.4140, 16705.00
802.5530, 16753.00
803.6920, 16652.00
804.8310, 16679.00
805.9690, 16662.97
807.1080, 16562.00
808.2460, 16638.00
809.3840, 16613.00
810.5220, 16578.00
811.6600, 16597.68
812.7970, 16577.00
813.9350, 16570.00
815.0720, 16482.00
816.2090, 16454.00
817.3460, 16413.00
818.4830, 16499.00
819.6200, 16441.22
820.7560, 16417.00
821.8930, 16442.00
823.0290, 16379.00
824.1650, 16451.00
825.3010, 16400.17
826.4360, 16308.92
827.5720, 16348.00
828.7070, 16397.00
829.8420, 16388.48
830.9770, 16379.17
832.1120, 16297.00
833.2470, 16311.00
834.3820, 16224.00
835.5160, 16188.00
836.6500, 16316.00
837.7840, 16394.00
838.9180, 16181.00
840.0520, 16058.00
841.1860, 16221.00
842.3190, 16218.00
843.4520, 16214.36
844.5850, 16229.00
845.7180, 16242.00
846.8510, 16236.92
847.9840, 16160.00
849.1160, 16233.00
850.2490, 16141.00
851.3810, 16132.00
852.5130, 16259.00
853.6450, 16087.00
854.7760, 16178.00
855.9080, 16062.00
857.0390, 16084.49
858.1700, 16142.00
859.3010, 16149.00
860.4320, 16070.00
861.5630, 16125.00
862.6930, 16061.00
863.8240, 16187.00
864.9540, 16285.00
866.0840, 15980.00
867.2140, 16107.00
868.3440, 16026.00
869.4730, 16157.00
870.6030, 16042.00
871.7320, 16106.00
872.8610, 16075.00
873.9900, 16144.00
875.1190, 16080.00
876.2470, 15991.00
877.3760, 16112.00
878.5040, 16016.00
879.6320, 15889.00
880.7600, 16041.00
881.8880, 16081.00
883.0150, 15983.00
884.1430, 16027.00
885.2700, 16061.00
886.3970, 15895.00
887.5240, 15939.00
888.6510, 15979.00
889.7780, 15973.00
890.9040, 16005.85
892.0310, 15980.00
893.1570, 16026.00
894.2830, 16016.00
895.4090, 16009.00
896.5350, 15932.00
897.6600, 15962.52
898.7860, 15935.00
899.9110, 15964.00
901.0360, 16010.94
902.1610, 15973.51
903.2860, 16069.00
904.4100, 15996.00
905.5350, 15990.00
906.6590, 15942.00
907.7830, 15896.00
908.9070, 15870.00
910.0310, 16062.00
911.1540, 15995.00
912.2780, 15949.00
913.4010, 16101.00
914.5240, 16022.00
915.6470, 15898.00
916.7700, 16043.00
917.8930, 16010.00
919.0150, 16065.00
920.1380, 15907.00
921.2600, 16083.00
922.3820, 15930.00
923.5040, 15942.00
924.6260, 15778.00
925.7470, 16003.00
926.8690, 15997.00
927.9900, 16036.00
929.1110, 16071.57
930.2320, 16061.85
931.3530, 15958.41
932.4730, 16061.96
933.5940, 16119.78
934.7140, 16134.33
935.8340, 15976.02
936.9540, 16040.92
938.0740, 16016.37
939.1930, 15988.15
940.3130, 16084.48
941.4320, 15951.31
942.5510, 16045.65
943.6700, 16049.18
944.7890, 16094.28
945.9080, 16049.36
947.0260, 16032.25
948.1450, 16105.17
949.2630, 16128.24
950.3810, 16046.00
951.4990, 15880.00
952.6170, 15971.00
953.7340, 15890.00
954.8520, 15850.00
955.9690, 15936.00
957.0860, 16055.00
958.2030, 16118.00
959.3200, 16025.00
960.4360, 15941.00
961.5530, 15875.00
962.6690, 15854.00
963.7850, 15875.00
964.9010, 15944.00
966.0170, 15994.00
967.1330, 15834.00
968.2480, 15975.00
969.3630, 15939.00
970.4790, 15910.00
971.5940, 15950.00
972.7080, 15923.00
973.8230, 15936.00
974.9380, 15888.00
976.0520, 15864.00
977.1660, 15828.00
978.2800, 15767.00
979.3940, 15911.00
980.5080, 15808.00
981.6220, 15789.00
982.7350, 16038.00
983.8480, 15871.91
984.9610, 15967.00
986.0740, 15774.00
987.1870, 15933.00
988.3000, 15939.00
989.4120, 16063.00
990.5250, 15836.00
991.6370, 15933.00
992.7490, 15893.00
993.8610, 15985.00
994.9720, 15924.00
996.0840, 16058.00
997.1950, 16081.00
998.3060, 16057.00
999.4170, 16197.00
1000.528, 16097.00
1001.639, 16101.00
1002.750, 16036.00
1003.860, 15968.00
1004.970, 15998.15
1006.080, 15987.65
1007.190, 16012.00
1008.300, 16076.00
1009.410, 16039.00
1010.519, 16129.00
1011.628, 15935.00
1012.738, 16087.00
1013.846, 16118.00
1014.955, 16161.00
1016.064, 15936.00
1017.172, 16259.00
1018.281, 16051.00
1019.389, 15979.00
1020.497, 16004.00
1021.605, 16083.00
1022.713, 16034.00
1023.820, 16174.00
1024.928, 16012.00
1026.035, 15988.00
1027.142, 16127.00
1028.249, 16165.00
1029.356, 16190.00
1030.462, 16219.27
1031.569, 16193.06
1032.675, 16216.00
1033.781, 16129.00
1034.887, 16158.00
1035.993, 16146.00
1037.098, 16336.00
1038.204, 16183.00
1039.309, 16250.00
1040.415, 16199.00
1041.520, 16206.00
1042.624, 16181.00
1043.729, 16197.00
1044.834, 16053.00
1045.938, 16282.00
1047.042, 16132.00
1048.146, 16249.00
1049.250, 16253.00
1050.354, 16407.00
1051.458, 16110.00
1052.561, 16441.00
1053.664, 16318.00
1054.767, 16181.00
1055.870, 16296.00
1056.973, 16187.00
1058.076, 16258.00
1059.178, 16460.00
1060.281, 16424.00
1061.383, 16399.00
1062.485, 16322.00
1063.587, 16388.00
1064.688, 16501.00
1065.790, 16495.00
1066.891, 16420.00
1067.993, 16404.00
1069.094, 16433.00
1070.195, 16425.00
1071.295, 16476.70
1072.396, 16502.00
1073.496, 16582.00
1074.597, 16664.00
1075.697, 16705.00
1076.797, 16695.00
1077.897, 16699.00
1078.996, 16675.00
1080.096, 16703.27
1081.195, 16677.00
1082.294, 16767.00
1083.393, 16775.00
1084.492, 16832.00
1085.591, 16679.00
1086.689, 16809.00
1087.788, 16721.00
1088.886, 16763.00
1089.984, 16731.00
1091.082, 16842.00
1092.180, 16710.00
1093.277, 16819.00
1094.375, 16872.00
1095.472, 16801.00
1096.569, 16834.00
1097.666, 16881.00
1098.763, 16904.00
1099.860, 16923.80
1100.956, 16881.00
1102.053, 16951.00
1103.149, 16930.00
1104.245, 16947.00
1105.341, 16782.00
1106.436, 17111.00
1107.532, 17098.00
1108.627, 16799.00
1109.723, 17192.00
1110.818, 17034.19
1111.913, 16972.00
1113.007, 17044.00
1114.102, 17091.00
1115.197, 17030.00
1116.291, 17080.00
1117.385, 17118.00
1118.479, 16993.00
1119.573, 17137.00
1120.666, 17021.00
1121.760, 17137.00
1122.853, 17011.00
1123.947, 16998.00
1125.040, 17185.00
1126.132, 17030.00
1127.225, 17125.00
1128.318, 17081.00
1129.410, 17073.00
1130.502, 17078.00
1131.595, 17054.11
1132.687, 17040.94
1133.778, 17043.00
1134.870, 16994.00
1135.961, 17000.16
1137.053, 16972.00
1138.144, 17014.00
1139.235, 17043.00
1140.326, 17014.00
1141.416, 16976.00
1142.507, 17049.00
1143.597, 17051.00
1144.688, 16976.00
1145.778, 17148.00
1146.868, 17094.00
1147.957, 16891.00
1149.047, 16814.00
1150.136, 16996.00
1151.226, 16923.00
1152.315, 17026.00
1153.404, 17064.00
1154.493, 16942.00
1155.581, 16866.00
1156.670, 17040.00
1157.758, 16842.00
1158.846, 17046.00
1159.934, 17005.00
1161.022, 16883.00
1162.110, 16876.00
1163.198, 16872.00
1164.285, 16939.00
1165.372, 16869.00
1166.459, 16991.00
1167.546, 16886.00
1168.633, 16722.00
1169.720, 16974.00
1170.806, 16762.00
1171.892, 16969.00
1172.979, 16885.00
1174.065, 16903.00
1175.150, 16877.00
1176.236, 17024.00
1177.322, 16784.00
1178.407, 16759.00
1179.492, 17103.00
1180.577, 16867.00
1181.662, 16863.00
1182.747, 16894.00
1183.832, 16776.00
1184.916, 16729.00
1186.000, 16719.00
1187.084, 16711.00
1188.168, 16761.00
1189.252, 16735.00
1190.336, 16805.00
1191.419, 16744.00
1192.503, 16706.00
1193.586, 16750.00
1194.669, 16773.00
1195.752, 16746.00
1196.835, 16714.00
1197.917, 16794.00
1199.000, 16752.00
1200.082, 16764.00
1201.164, 16706.00
1202.246, 16742.00
1203.328, 16748.00
1204.409, 16804.00
1205.491, 16788.00
1206.572, 16763.00
1207.653, 16875.00
1208.734, 16842.70
1209.815, 16855.55
1210.896, 16819.00
1211.976, 16888.00
1213.057, 16768.00
1214.137, 16876.00
1215.217, 16709.00
1216.297, 16716.00
1217.377, 16766.00
1218.456, 16783.00
1219.536, 16907.00
1220.615, 16805.00
1221.694, 16758.00
1222.773, 16820.00
1223.852, 16649.00
1224.931, 16812.00
1226.009, 16529.00
1227.088, 16757.00
1228.166, 16710.00
1229.244, 16543.00
1230.322, 16738.00
1231.400, 16677.00
1232.477, 16737.00
1233.555, 16719.00
1234.632, 16762.00
1235.709, 16811.00
1236.786, 16700.00
1237.863, 16653.00
1238.939, 16717.00
1240.016, 16733.00
1241.092, 16821.00
1242.168, 16740.00
1243.245, 16762.00
1244.320, 16738.00
1245.396, 16782.00
1246.472, 16758.50
1247.547, 16693.00
1248.622, 16755.00
1249.697, 16765.00
1250.772, 16816.00
1251.847, 16563.00
1252.922, 16629.00
1253.996, 16712.00
1255.071, 16583.00
1256.145, 16808.00
1257.219, 16797.00
1258.293, 16695.00
1259.366, 16833.00
1260.440, 16713.00
1261.513, 16673.00
1262.587, 16732.00
1263.660, 16747.00
1264.733, 16746.00
1265.805, 16727.45
1266.878, 16632.00
1267.951, 16657.00
1269.023, 16736.00
1270.095, 16746.00
1271.167, 16847.00
1272.239, 16727.00
1273.311, 16859.00
1274.382, 16859.00
1275.454, 16639.00
1276.525, 16666.00
1277.596, 16871.00
1278.667, 16705.00
1279.738, 16812.00
1280.808, 16724.00
1281.879, 16778.00
1282.949, 16729.00
1284.019, 16730.00
1285.089, 16754.00
1286.159, 16673.00
1287.229, 16796.00
1288.298, 16910.00
1289.368, 16754.00
1290.437, 16874.00
1291.506, 16843.63
1292.575, 16664.00
1293.644, 16820.00
1294.712, 16859.00
1295.781, 16810.00
1296.849, 16732.00
1297.917, 16762.00
1298.985, 16901.00
1300.053, 16699.00
1301.121, 16769.00
1302.188, 16791.00
1303.255, 16631.00
1304.323, 16696.68
1305.390, 16671.00
1306.457, 16710.00
1307.523, 16613.00
1308.590, 16693.00
1309.656, 16804.00
