##NAMES=Magnesio-hastingsite
##RRUFFID=R040010
##IDEAL CHEMISTRY=NaCa_2_(Mg_4_Fe^3+^)Si_6_Al_2_O_22_(OH)_2_
##LOCALITY=Amity, New York, USA
##OWNER=RRUFF
##SOURCE=University of Arizona Mineral Museum
##DESCRIPTION=Group of black prismatic crystals
##STATUS=The identification of this mineral has been confirmed by X-ray diffraction and chemical analysis
##URL=rruff.info/R040010
##MEASURED CHEMISTRY=(Na_0.50_K_0.43_[box]_0.07_)_Σ=1_(Ca_1.77_Na_0.23_)_Σ=2_(Mg_1.74_Fe_1.22_Fe^3+^_0.79_Mn_0.57_Al_0.30_Zn_0.25_Ti_0.13_)_Σ=5_(Si_5.95_Al_2.05_)_Σ=8_O_22_((OH)_1.75_F_0.22_Cl_0.03_)_Σ=2_; OH estimated by charge balance
##PIN_ID=L00361
##ORIENTATION=Laser parallel to -b* (0 -1 0). Fiducial mark perpendicular to laser is parallel to c [0 0 1]
173.2350, 33866.00
174.4650, 34173.00
175.6950, 34257.00
176.9250, 34260.00
178.1550, 34636.80
179.3840, 35113.00
180.6130, 35088.00
181.8420, 35552.00
183.0710, 35431.00
184.3000, 35542.00
185.5280, 35444.00
186.7570, 35706.00
187.9850, 35392.00
189.2130, 35458.00
190.4400, 35292.00
191.6680, 35410.00
192.8960, 35371.00
194.1230, 35465.00
195.3500, 35966.00
196.5770, 36190.00
197.8030, 36615.00
199.0300, 37195.00
200.2560, 38371.00
201.4830, 39013.00
202.7090, 39529.00
203.9340, 39544.00
205.1600, 39968.00
206.3860, 41748.00
207.6110, 43143.00
208.8360, 44719.00
210.0610, 47085.00
211.2860, 49422.00
212.5100, 52175.00
213.7350, 54480.00
214.9590, 57073.00
216.1830, 59027.00
217.4070, 61315.00
218.6310, 63410.00
219.8540, 64226.00
221.0780, 65150.00
222.3010, 65535.00
223.5240, 65176.00
224.7470, 64138.00
225.9690, 62946.00
227.1920, 61182.00
228.4140, 59136.00
229.6360, 56712.00
230.8580, 54280.00
232.0800, 52205.00
233.3020, 50667.00
234.5230, 48868.00
235.7440, 47291.00
236.9650, 46153.00
238.1860, 45584.00
239.4070, 44839.00
240.6280, 44206.59
241.8480, 43620.00
243.0680, 43109.00
244.2880, 42899.00
245.5080, 42235.00
246.7280, 42573.00
247.9470, 42010.00
249.1660, 41930.00
250.3860, 41553.00
251.6040, 41509.00
252.8230, 41545.00
254.0420, 41282.94
255.2600, 41480.88
256.4790, 41593.76
257.6970, 41626.15
258.9150, 41336.98
260.1320, 41463.04
261.3500, 41422.69
262.5670, 41375.52
263.7840, 41591.00
265.0010, 41548.00
266.2180, 41851.00
267.4350, 41802.00
268.6510, 42220.00
269.8680, 42710.00
271.0840, 42657.00
272.3000, 43074.00
273.5160, 43907.00
274.7310, 44501.00
275.9470, 44730.00
277.1620, 45912.00
278.3770, 46170.00
279.5920, 46971.00
280.8070, 46989.00
282.0210, 47818.00
283.2360, 48078.00
284.4500, 49090.00
285.6640, 49560.00
286.8780, 49889.00
288.0920, 49924.00
289.3050, 50643.00
290.5180, 50391.00
291.7320, 50847.00
292.9450, 50797.00
294.1570, 50481.00
295.3700, 50355.00
296.5830, 50230.00
297.7950, 49772.00
299.0070, 49801.00
300.2190, 49385.66
301.4310, 48693.00
302.6420, 48648.00
303.8540, 48026.00
305.0650, 47513.00
306.2760, 47017.00
307.4870, 46438.00
308.6980, 45891.12
309.9080, 45327.22
311.1190, 44755.00
312.3290, 44165.00
313.5390, 43640.00
314.7490, 43049.00
315.9580, 42345.00
317.1680, 41959.00
318.3770, 41528.00
319.5860, 40732.00
320.7950, 40176.00
322.0040, 39861.00
323.2130, 38914.00
324.4210, 38744.00
325.6290, 38400.00
326.8380, 38079.00
328.0460, 37825.00
329.2530, 37375.00
330.4610, 37127.00
331.6680, 36807.00
332.8760, 36689.00
334.0830, 36312.00
335.2890, 36592.00
336.4960, 36247.64
337.7030, 36320.00
338.9090, 35917.00
340.1150, 36015.00
341.3210, 35951.00
342.5270, 35969.00
343.7330, 36167.00
344.9380, 36234.00
346.1440, 36238.00
347.3490, 36319.00
348.5540, 36244.00
349.7590, 36611.00
350.9630, 36816.00
352.1680, 36742.00
353.3720, 36871.00
354.5760, 37005.00
355.7800, 37272.00
356.9840, 37412.00
358.1870, 37635.00
359.3910, 37706.00
360.5940, 37771.00
361.7970, 38127.00
363.0000, 38576.00
364.2030, 38514.00
365.4050, 38276.00
366.6080, 38641.00
367.8100, 38279.52
369.0120, 38516.00
370.2140, 38701.00
371.4150, 38929.00
372.6170, 39031.76
373.8180, 38849.00
375.0190, 38771.00
376.2200, 38691.73
377.4210, 38524.26
378.6220, 38435.00
379.8220, 38186.00
381.0230, 38022.00
382.2230, 37745.00
383.4230, 37574.00
384.6220, 37241.00
385.8220, 36942.00
387.0220, 36651.00
388.2210, 36388.00
389.4200, 36142.00
390.6190, 35768.00
391.8180, 35547.00
393.0160, 35207.00
394.2150, 34729.00
395.4130, 34596.00
396.6110, 34394.00
397.8090, 34355.00
399.0060, 33904.00
400.2040, 33965.00
401.4010, 33628.00
402.5980, 33672.00
403.7950, 33550.00
404.9920, 33216.00
406.1890, 33188.00
407.3860, 33229.00
408.5820, 33252.00
409.7780, 33242.00
410.9740, 33267.00
412.1700, 33484.00
413.3650, 33565.00
414.5610, 33599.00
415.7560, 34041.00
416.9510, 33934.00
418.1460, 34234.00
419.3410, 34691.00
420.5360, 34917.00
421.7300, 35216.49
422.9240, 35608.00
424.1180, 35654.00
425.3120, 35807.00
426.5060, 35899.39
427.7000, 36043.00
428.8930, 35934.00
430.0860, 35826.00
431.2790, 35510.00
432.4720, 35598.00
433.6650, 34812.00
434.8580, 34416.00
436.0500, 34294.00
437.2420, 34361.00
438.4340, 33698.00
439.6260, 33613.00
440.8180, 33269.00
442.0090, 33050.00
443.2010, 32641.00
444.3920, 32481.00
445.5830, 32398.00
446.7740, 32136.00
447.9640, 31936.00
449.1550, 31841.00
450.3450, 31729.00
451.5350, 31525.93
452.7250, 31344.00
453.9150, 31216.00
455.1050, 31080.00
456.2940, 31071.00
457.4830, 31357.00
458.6720, 30732.00
459.8610, 30713.00
461.0500, 30831.00
462.2390, 30438.00
463.4270, 30441.00
464.6150, 30284.00
465.8040, 30388.00
466.9910, 30187.00
468.1790, 30118.00
469.3670, 29746.00
470.5540, 29681.00
471.7410, 29616.00
472.9280, 29660.00
474.1150, 29506.00
475.3020, 29537.00
476.4890, 29481.00
477.6750, 29510.00
478.8610, 29547.00
480.0470, 29680.00
481.2330, 29627.00
482.4190, 29745.15
483.6040, 29635.00
484.7900, 29902.00
485.9750, 30147.00
487.1600, 30235.00
488.3450, 30299.00
489.5290, 30310.00
490.7140, 30567.00
491.8980, 30617.00
493.0820, 30969.00
494.2660, 31325.00
495.4500, 31435.00
496.6340, 31823.00
497.8170, 32043.00
499.0010, 32156.00
500.1840, 32366.00
501.3670, 32661.31
502.5500, 32717.00
503.7320, 33228.00
504.9150, 33698.00
506.0970, 33843.00
507.2790, 34163.00
508.4610, 34530.00
509.6430, 34674.00
510.8250, 35270.00
512.0060, 35710.00
513.1870, 36141.00
514.3680, 36788.00
515.5490, 37493.00
516.7300, 38165.00
517.9110, 39274.00
519.0910, 40256.00
520.2710, 41002.00
521.4510, 42549.00
522.6310, 43613.00
523.8110, 44944.00
524.9910, 46214.00
526.1700, 47251.00
527.3490, 48603.00
528.5280, 49460.00
529.7070, 50299.00
530.8860, 50993.00
532.0650, 51477.00
533.2430, 51414.00
534.4210, 51503.00
535.5990, 50897.00
536.7770, 50434.00
537.9550, 49710.00
539.1320, 48930.41
540.3100, 48248.00
541.4870, 47077.00
542.6640, 46217.00
543.8410, 45042.00
545.0170, 44261.00
546.1940, 43411.00
547.3700, 42352.00
548.5470, 41533.00
549.7230, 41028.00
550.8980, 39957.00
552.0740, 39254.00
553.2500, 38401.00
554.4250, 37893.00
555.6000, 37195.00
556.7750, 36748.00
557.9500, 36205.00
559.1250, 35677.00
560.2990, 35200.00
561.4730, 34816.00
562.6480, 34295.00
563.8220, 34108.00
564.9950, 33589.00
566.1690, 33261.00
567.3430, 32792.00
568.5160, 32538.00
569.6890, 32615.00
570.8620, 32132.00
572.0350, 32128.00
573.2070, 31746.00
574.3800, 31535.00
575.5520, 31231.00
576.7240, 30905.00
577.8960, 30819.00
579.0680, 30588.00
580.2400, 30413.00
581.4110, 30098.00
582.5830, 30114.00
583.7540, 29711.00
584.9250, 29371.00
586.0950, 29276.00
587.2660, 29132.00
588.4370, 28690.00
589.6070, 28526.00
590.7770, 28150.00
591.9470, 27942.00
593.1170, 27568.00
594.2860, 27435.00
595.4560, 27382.00
596.6250, 27373.00
597.7940, 27339.19
598.9630, 27560.00
600.1320, 27432.00
601.3000, 27591.00
602.4690, 27799.00
603.6370, 27692.00
604.8050, 27634.00
605.9730, 28112.00
607.1410, 28253.00
608.3090, 28861.00
609.4760, 29082.00
610.6430, 29287.00
611.8100, 29802.00
612.9770, 30350.00
614.1440, 30723.00
615.3110, 31129.00
616.4770, 31736.00
617.6430, 32399.05
618.8090, 33241.00
619.9750, 33997.00
621.1410, 34955.00
622.3070, 35846.00
623.4720, 36978.00
624.6370, 38229.00
625.8020, 39254.00
626.9670, 40242.00
628.1320, 41286.00
629.2970, 42397.00
630.4610, 43567.00
631.6250, 44596.00
632.7890, 45636.00
633.9530, 46667.00
635.1170, 47510.00
636.2810, 48463.59
637.4440, 49227.00
638.6070, 50117.00
639.7700, 50953.00
640.9330, 51586.00
642.0960, 52243.09
643.2590, 53059.00
644.4210, 53437.00
645.5830, 54048.00
646.7450, 54889.00
647.9070, 55072.00
649.0690, 55616.00
650.2310, 56550.00
651.3920, 57389.00
652.5530, 57963.00
653.7140, 58709.00
654.8750, 59156.00
656.0360, 59628.79
657.1970, 60122.00
658.3570, 60239.00
659.5170, 59697.00
660.6770, 59582.00
661.8370, 58822.00
662.9970, 57725.00
664.1570, 56780.00
665.3160, 55422.00
666.4750, 54266.00
667.6340, 52974.00
668.7930, 51988.00
669.9520, 51287.00
671.1110, 50511.00
672.2690, 50189.00
673.4270, 49915.00
674.5850, 50206.00
675.7430, 50053.00
676.9010, 50327.00
678.0590, 49919.00
679.2160, 50230.00
680.3730, 49716.00
681.5300, 49471.00
682.6870, 48547.00
683.8440, 47355.00
685.0010, 46469.00
686.1570, 44747.00
687.3130, 43404.00
688.4690, 41741.00
689.6250, 40131.00
690.7810, 38410.00
691.9370, 37137.00
693.0920, 36092.00
694.2470, 34835.00
695.4020, 33952.00
696.5570, 33178.00
697.7120, 32671.00
698.8670, 32203.00
700.0210, 31843.00
701.1750, 31465.00
702.3290, 31292.00
703.4830, 31323.00
704.6370, 31404.00
705.7910, 31560.00
706.9440, 31651.00
708.0970, 31839.00
709.2510, 31902.00
710.4030, 31898.00
711.5560, 32343.00
712.7090, 32727.00
713.8610, 32693.00
715.0140, 33005.00
716.1660, 33286.00
717.3180, 33278.00
718.4690, 33618.00
719.6210, 33740.00
720.7730, 33839.00
721.9240, 34144.00
723.0750, 34566.00
724.2260, 34532.00
725.3770, 34747.00
726.5270, 34741.00
727.6780, 34603.00
728.8280, 34916.00
729.9780, 35136.00
731.1280, 34948.00
732.2780, 34865.00
733.4280, 34890.00
734.5770, 34872.00
735.7260, 34748.00
736.8760, 34610.00
738.0250, 34752.00
739.1730, 34210.00
740.3220, 33976.00
741.4700, 34068.00
742.6190, 33798.00
743.7670, 33364.00
744.9150, 32921.00
746.0630, 32697.00
747.2100, 32409.00
748.3580, 32093.00
749.5050, 31308.00
750.6520, 30991.00
751.7990, 30852.00
752.9460, 30249.00
754.0930, 30086.00
755.2390, 29396.00
756.3860, 29370.00
757.5320, 29114.00
758.6780, 29158.00
759.8240, 28971.00
760.9690, 28737.00
762.1150, 28589.00
763.2600, 28438.00
764.4060, 28407.00
765.5510, 28676.00
766.6950, 28547.00
767.8400, 28516.00
768.9850, 28337.00
770.1290, 28389.00
771.2730, 28530.00
772.4170, 28455.00
773.5610, 28460.00
774.7050, 28580.00
775.8480, 28517.71
776.9920, 28620.00
778.1350, 28565.00
779.2780, 28651.00
780.4210, 28790.00
781.5640, 28774.00
782.7060, 28601.00
783.8490, 28446.00
784.9910, 28634.00
786.1330, 28509.00
787.2750, 28566.00
788.4170, 28604.00
789.5580, 28370.00
790.7000, 28340.00
791.8410, 28225.99
792.9820, 28256.00
794.1230, 28002.00
795.2640, 28018.00
796.4040, 27925.47
797.5450, 28173.00
798.6850, 27977.00
799.8250, 28097.00
800.9650, 28094.00
802.1050, 27942.00
803.2450, 27883.00
804.3840, 27623.00
805.5230, 27661.00
806.6630, 27575.00
807.8020, 27681.00
808.9400, 27732.00
810.0790, 27585.00
811.2170, 27648.00
812.3560, 27622.00
813.4940, 27479.00
814.6320, 27344.00
815.7700, 27558.00
816.9070, 27374.00
818.0450, 27372.00
819.1820, 27378.00
820.3190, 27135.00
821.4560, 27097.00
822.5930, 27149.00
823.7300, 26992.00
824.8670, 27153.00
826.0030, 26890.00
827.1390, 26796.00
828.2750, 26907.00
829.4110, 26728.00
830.5470, 26796.00
831.6820, 26534.00
832.8180, 26672.00
833.9530, 26857.00
835.0880, 26668.00
836.2230, 26738.00
837.3580, 26753.00
838.4920, 26906.00
839.6270, 26777.00
840.7610, 26665.00
841.8950, 26903.00
843.0290, 26992.00
844.1630, 26802.00
845.2960, 27084.00
846.4300, 27027.00
847.5630, 26960.00
848.6960, 27355.00
849.8290, 27230.00
850.9620, 27212.00
852.0940, 27358.00
853.2270, 27378.00
854.3590, 27541.00
855.4910, 27645.00
856.6230, 27566.00
857.7550, 27687.00
858.8870, 27818.00
860.0180, 27915.00
861.1500, 28008.91
862.2810, 27951.00
863.4120, 28173.00
864.5430, 28302.00
865.6730, 28397.00
866.8040, 28744.00
867.9340, 28701.00
869.0640, 28883.00
870.1940, 28987.00
871.3240, 29279.00
872.4540, 29254.00
873.5830, 29293.00
874.7130, 29329.00
875.8420, 29792.00
876.9710, 29573.00
878.1000, 30003.00
879.2290, 29941.00
880.3570, 29701.00
881.4860, 29969.00
882.6140, 29923.00
883.7420, 30042.00
884.8700, 29948.00
885.9980, 29979.00
887.1250, 30105.00
888.2530, 30064.00
889.3800, 30173.00
890.5070, 30087.00
891.6340, 30124.00
892.7610, 30271.00
893.8880, 30391.00
895.0140, 30540.00
896.1400, 30940.00
897.2670, 31047.00
898.3930, 31159.00
899.5180, 31374.00
900.6440, 32132.00
901.7700, 32149.42
902.8950, 33107.00
904.0200, 32665.00
905.1450, 32837.00
906.2700, 33219.00
907.3950, 33712.00
908.5190, 34203.00
909.6440, 34261.00
910.7680, 34742.00
911.8920, 34815.00
913.0160, 35092.00
914.1400, 35413.00
915.2630, 35355.00
916.3870, 35695.00
917.5100, 35414.00
918.6330, 35331.00
919.7560, 34964.00
920.8790, 34938.00
922.0010, 34326.00
923.1240, 34357.00
924.2460, 34048.12
925.3680, 33670.21
926.4900, 33626.00
927.6120, 32948.00
928.7340, 32771.00
929.8550, 32338.00
930.9760, 32390.00
932.0980, 31995.00
933.2190, 32153.00
934.3390, 32022.00
935.4600, 31677.00
936.5810, 31841.00
937.7010, 31792.00
938.8210, 31858.00
939.9410, 31559.00
941.0610, 31622.00
942.1810, 31472.00
943.3010, 31394.00
944.4200, 31648.00
945.5390, 31586.00
946.6580, 31512.00
947.7770, 31469.00
948.8960, 31547.00
950.0150, 31528.00
951.1330, 31434.00
952.2510, 31257.00
953.3690, 31483.00
954.4870, 31254.00
955.6050, 31217.00
956.7230, 31105.00
957.8400, 31051.00
958.9580, 31074.00
960.0750, 31108.00
961.1920, 30954.00
962.3090, 30920.00
963.4250, 30990.00
964.5420, 30950.00
965.6580, 31011.39
966.7740, 30904.00
967.8900, 31077.00
969.0060, 30967.00
970.1220, 30894.00
971.2380, 31054.00
972.3530, 31132.00
973.4680, 31221.00
974.5830, 31289.00
975.6980, 31495.00
976.8130, 31477.00
977.9280, 31701.00
979.0420, 32055.00
980.1560, 32046.00
981.2710, 32259.00
982.3850, 32271.00
983.4980, 32629.00
984.6120, 33033.00
985.7260, 33386.00
986.8390, 33624.00
987.9520, 33936.00
989.0650, 34337.00
990.1780, 34652.00
991.2910, 34989.00
992.4030, 35445.00
993.5160, 35934.00
994.6280, 36336.00
995.7400, 37031.00
996.8520, 37507.00
997.9640, 38077.00
999.0750, 38970.00
1000.187, 39504.00
1001.298, 40045.00
1002.409, 40895.00
1003.520, 41664.00
1004.631, 41838.00
1005.741, 42440.00
1006.852, 43270.00
1007.962, 44005.00
1009.072, 44266.00
1010.182, 44642.00
1011.292, 44669.00
1012.402, 45035.00
1013.511, 45344.00
1014.621, 45054.00
1015.730, 44945.00
1016.839, 44675.00
1017.948, 44385.00
1019.056, 44476.00
1020.165, 43911.00
1021.273, 43571.00
1022.382, 43300.00
1023.490, 42692.00
1024.598, 42479.00
1025.706, 41902.00
1026.813, 41397.00
1027.921, 41046.00
1029.028, 40164.00
1030.135, 39983.00
1031.242, 39238.00
1032.349, 38924.00
1033.456, 38166.00
1034.562, 37605.00
1035.668, 36999.00
1036.775, 36373.00
1037.881, 36086.00
1038.987, 35794.00
1040.092, 35218.00
1041.198, 35114.00
1042.303, 34705.00
1043.408, 34755.00
1044.514, 34069.00
1045.618, 33718.00
1046.723, 33559.00
1047.828, 33140.00
1048.932, 33179.00
1050.037, 33088.00
1051.141, 32668.00
1052.245, 32478.00
1053.349, 32408.00
1054.452, 32126.00
1055.556, 31753.00
1056.659, 31706.00
1057.762, 31586.00
1058.865, 31140.00
1059.968, 31103.00
1061.071, 31138.00
1062.174, 30877.00
1063.276, 30874.00
1064.378, 30618.00
1065.480, 30130.00
1066.582, 30208.00
1067.684, 30065.00
1068.786, 30114.00
1069.887, 29947.78
1070.988, 29685.00
1072.090, 29621.00
1073.191, 29466.64
1074.291, 29340.56
1075.392, 29472.00
1076.493, 28931.00
1077.593, 29039.00
1078.693, 28984.00
1079.793, 28681.00
1080.893, 28814.00
1081.993, 28626.00
1083.092, 28334.00
1084.192, 28308.00
1085.291, 28044.00
1086.390, 27919.00
1087.489, 27908.00
1088.588, 27681.00
1089.686, 27368.00
1090.785, 27468.00
1091.883, 27289.00
1092.981, 27327.00
1094.079, 27128.00
1095.177, 26910.00
1096.275, 26818.00
1097.373, 26577.00
1098.470, 26281.00
1099.567, 26248.00
1100.664, 26146.00
1101.761, 25885.00
1102.858, 25733.00
1103.954, 25420.00
1105.051, 25413.00
1106.147, 25246.00
1107.243, 24881.84
1108.339, 24976.57
1109.435, 24986.23
1110.531, 24915.42
1111.626, 24523.14
1112.722, 24545.99
1113.817, 24402.53
1114.912, 24252.25
1116.007, 24333.64
1117.101, 23988.22
1118.196, 24065.92
1119.290, 23974.78
1120.385, 23960.87
1121.479, 23779.62
1122.573, 23650.08
1123.666, 23688.11
1124.760, 23633.32
1125.853, 23432.89
1126.947, 23423.98
1128.040, 23072.80
1129.133, 23022.05
1130.226, 23100.93
1131.318, 22909.00
1132.411, 22903.24
1133.503, 22826.64
1134.596, 22427.57
1135.688, 22616.04
1136.780, 22435.00
1137.871, 22682.00
1138.963, 22646.00
1140.054, 22398.00
1141.146, 22626.00
1142.237, 22394.00
1143.328, 22410.00
1144.419, 22387.00
1145.509, 22189.00
1146.600, 22364.00
1147.690, 22233.00
1148.780, 22112.00
1149.870, 22341.00
1150.960, 22291.00
1152.050, 22328.00
1153.139, 22338.00
1154.229, 22067.00
1155.318, 22348.00
1156.407, 22129.00
1157.496, 22140.00
1158.585, 22160.00
1159.674, 22187.00
1160.762, 22069.00
1161.850, 21959.00
1162.939, 21946.00
1164.027, 22017.00
1165.114, 22001.00
1166.202, 21993.53
1167.290, 22040.00
1168.377, 22002.00
1169.464, 22089.00
1170.551, 22213.00
1171.638, 21856.00
1172.725, 22116.00
1173.812, 21914.00
1174.898, 22130.00
1175.984, 21976.00
1177.071, 21990.00
1178.157, 22039.00
1179.242, 22066.00
1180.328, 22054.00
1181.414, 21885.00
1182.499, 21924.00
1183.584, 21960.00
1184.669, 22069.00
1185.754, 22026.00
1186.839, 22045.00
1187.924, 22161.00
1189.008, 21855.00
1190.092, 22093.00
1191.177, 22085.00
1192.260, 21973.00
1193.344, 22036.00
1194.428, 21969.00
1195.512, 21815.00
1196.595, 21873.00
1197.678, 22042.00
1198.761, 21979.00
1199.844, 22030.00
1200.927, 21856.00
1202.009, 22115.00
1203.092, 22116.00
1204.174, 22174.00
1205.256, 22058.00
1206.338, 22061.00
1207.420, 22185.00
1208.502, 22057.00
1209.583, 22096.00
1210.665, 22131.00
1211.746, 22036.00
1212.827, 22214.00
1213.908, 22032.00
1214.988, 22217.00
1216.069, 22103.00
1217.149, 22192.00
1218.230, 22152.00
1219.310, 22094.00
1220.390, 22215.00
1221.470, 22117.00
1222.549, 22318.00
1223.629, 22025.00
1224.708, 22019.00
1225.787, 22193.00
1226.866, 22081.00
1227.945, 22295.00
1229.024, 22342.00
1230.103, 22338.00
1231.181, 22247.00
1232.259, 22089.00
1233.337, 22107.00
1234.415, 22145.00
1235.493, 22261.00
1236.571, 22165.00
1237.648, 22111.00
1238.726, 22183.00
1239.803, 22275.00
1240.880, 22305.00
1241.957, 22070.00
1243.034, 22139.00
1244.110, 22071.00
1245.187, 22159.00
1246.263, 22251.00
1247.339, 22162.00
1248.415, 22158.00
1249.491, 22010.00
1250.566, 22290.00
1251.642, 21844.00
1252.717, 22044.00
1253.793, 22093.00
1254.868, 21923.00
1255.943, 22321.00
1257.017, 22073.00
1258.092, 22055.00
1259.166, 22132.00
1260.241, 22081.00
1261.315, 22081.00
1262.389, 22151.00
1263.462, 22078.00
1264.536, 22083.00
1265.610, 22102.00
1266.683, 21927.00
1267.756, 22036.00
1268.829, 22193.00
1269.902, 22081.00
1270.975, 22014.00
1272.048, 22047.00
1273.120, 21992.00
1274.192, 21943.00
1275.264, 22020.25
1276.336, 21959.00
1277.408, 22139.00
1278.480, 22144.00
1279.551, 22166.00
1280.623, 22023.00
1281.694, 22089.00
1282.765, 22087.00
1283.836, 22055.00
1284.907, 22069.00
1285.977, 22251.00
1287.048, 22189.00
1288.118, 22249.55
1289.188, 22113.00
1290.258, 22253.00
1291.328, 22259.00
1292.398, 22221.00
1293.467, 22231.00
1294.537, 22200.00
1295.606, 22181.86
1296.675, 22193.07
1297.744, 22148.00
1298.813, 22164.00
1299.882, 22167.00
1300.950, 22192.23
1302.018, 22209.00
1303.086, 22269.00
1304.155, 22341.00
1305.222, 22366.66
1306.290, 22229.00
1307.358, 22314.00
1308.425, 22263.00
1309.492, 22141.00
1310.559, 22218.00
1311.626, 22271.00
1312.693, 22253.00
1313.760, 22316.00
1314.826, 22346.00
1315.893, 22337.29
1316.959, 22098.00
1318.025, 22404.00
1319.091, 22259.92
1320.157, 22437.00
1321.222, 22090.00
1322.288, 22194.00
1323.353, 22185.00
1324.418, 22247.00
1325.483, 22211.00
1326.548, 22371.00
1327.612, 22281.00
1328.677, 22144.00
1329.741, 21935.00
1330.806, 22006.00
1331.870, 22180.00
