##NAMES=Magnesio-hastingsite
##RRUFFID=R070288
##IDEAL CHEMISTRY=NaCa_2_(Mg_4_Fe^3+^)Si_6_Al_2_O_22_(OH)_2_
##LOCALITY=Dallas Gem Mine (Gem Mine; Benitoite Mine), New Idria District, San Benito County, California, USA
##OWNER=RRUFF
##SOURCE=Michael Scott
##DESCRIPTION=Dark brown to black prismatic crystals frozen in albite
##STATUS=The identification of this mineral is confirmed by single-crystal X-ray diffraction and chemical analysis.
##URL=rruff.info/R070288
##MEASURED CHEMISTRY=(Na_0.51_[box]_0.33_K_0.16_)_Σ=1_(Ca_1.75_Na_0.25_)_Σ=2_(Mg_3.02_Fe^2+^_0.61_Ti_0.37_)_Σ=4_(Fe^3+^_0.73_Al_0.27_)_Σ=1_Si_5.84_Al_2.16_O_22_(OH)_2_; (OH) estimated by difference
##PIN_ID=M00823
##ORIENTATION=Laser parallel to -b* (0 -1 0). Fiducial mark perpendicular to laser is parallel to c [0 0 1]
105.9810, 24250.00
107.2110, 24352.83
108.4410, 25646.00
109.6700, 24943.00
110.9000, 24880.00
112.1300, 25640.00
113.3590, 26654.00
114.5880, 28665.00
115.8170, 30108.00
117.0460, 29972.00
118.2750, 30767.00
119.5040, 29893.06
120.7320, 29408.38
121.9610, 27727.00
123.1890, 27489.00
124.4170, 26766.00
125.6450, 25801.00
126.8730, 25461.00
128.1010, 25551.00
129.3280, 25771.00
130.5560, 25626.00
131.7830, 25686.00
133.0100, 25598.00
134.2380, 25322.00
135.4640, 25602.00
136.6910, 25657.00
137.9180, 25876.00
139.1440, 26289.00
140.3710, 26326.00
141.5970, 26447.00
142.8230, 26742.72
144.0490, 26711.00
145.2750, 27220.00
146.5000, 27484.00
147.7260, 27744.00
148.9510, 28296.00
150.1770, 28358.00
151.4020, 28884.00
152.6270, 29086.00
153.8520, 29594.00
155.0760, 30656.00
156.3010, 31330.00
157.5250, 31876.00
158.7500, 32560.00
159.9740, 33094.00
161.1980, 33515.00
162.4220, 33569.00
163.6450, 33615.00
164.8690, 32972.00
166.0920, 32392.00
167.3160, 32095.00
168.5390, 31435.00
169.7620, 31344.00
170.9850, 31139.22
172.2080, 30832.00
173.4300, 31030.00
174.6530, 30876.00
175.8750, 30826.00
177.0970, 30653.00
178.3190, 30284.00
179.5410, 30327.00
180.7630, 30100.00
181.9850, 30087.00
183.2060, 29971.00
184.4270, 30116.00
185.6490, 30098.25
186.8700, 30163.16
188.0910, 30171.73
189.3110, 30146.81
190.5320, 30090.09
191.7530, 29906.52
192.9730, 29886.80
194.1930, 29749.00
195.4130, 29705.00
196.6330, 29561.00
197.8530, 29573.93
199.0730, 29522.00
200.2920, 29666.00
201.5120, 29676.00
202.7310, 29851.00
203.9500, 29749.00
205.1690, 29886.34
206.3880, 29708.00
207.6070, 30151.00
208.8250, 30382.00
210.0440, 30729.00
211.2620, 31286.00
212.4800, 31732.00
213.6980, 32102.00
214.9160, 32718.00
216.1340, 33170.00
217.3510, 34180.00
218.5690, 34980.00
219.7860, 35644.00
221.0030, 36199.00
222.2200, 36992.00
223.4370, 37312.00
224.6540, 37565.00
225.8700, 37145.00
227.0870, 36722.00
228.3030, 36376.00
229.5190, 35413.00
230.7350, 34427.00
231.9510, 33782.00
233.1670, 32733.00
234.3820, 32050.00
235.5980, 31974.00
236.8130, 31995.00
238.0280, 31420.00
239.2430, 29946.00
240.4580, 29503.00
241.6730, 28983.00
242.8880, 29099.00
244.1020, 29048.00
245.3160, 28897.00
246.5300, 28714.00
247.7450, 28922.00
248.9580, 28760.00
250.1720, 28781.00
251.3860, 28749.00
252.5990, 28856.00
253.8130, 28773.08
255.0260, 28753.45
256.2390, 28714.00
257.4520, 28647.00
258.6640, 28728.00
259.8770, 28714.00
261.0890, 28693.00
262.3020, 28475.00
263.5140, 28586.00
264.7260, 28241.00
265.9380, 28231.00
267.1500, 28247.00
268.3610, 27987.00
269.5730, 28120.00
270.7840, 27726.00
271.9950, 27637.00
273.2060, 27602.00
274.4170, 27379.00
275.6280, 27464.00
276.8390, 27320.00
278.0490, 27452.00
279.2590, 27401.00
280.4690, 27245.00
281.6800, 27443.00
282.8890, 27574.00
284.0990, 27445.00
285.3090, 27627.00
286.5180, 27592.00
287.7280, 27784.00
288.9370, 27898.00
290.1460, 28164.00
291.3550, 28089.00
292.5630, 28171.00
293.7720, 28240.00
294.9800, 28189.00
296.1890, 28400.00
297.3970, 28225.00
298.6050, 28172.00
299.8130, 28198.15
301.0200, 28325.69
302.2280, 28419.72
303.4360, 28482.00
304.6430, 28535.47
305.8500, 28516.59
307.0570, 28550.14
308.2640, 28613.00
309.4710, 28546.00
310.6770, 28717.00
311.8840, 28822.00
313.0900, 29100.00
314.2960, 28946.00
315.5020, 28892.00
316.7080, 29228.00
317.9140, 29284.00
319.1190, 29403.00
320.3250, 29104.00
321.5300, 29262.00
322.7350, 29092.00
323.9400, 29195.00
325.1450, 29016.00
326.3500, 29031.00
327.5540, 28825.00
328.7580, 28894.00
329.9630, 28824.00
331.1670, 28985.00
332.3710, 28900.00
333.5750, 28761.00
334.7780, 28853.00
335.9820, 28557.00
337.1850, 28452.00
338.3880, 28408.72
339.5920, 28305.63
340.7950, 28333.00
341.9970, 28269.00
343.2000, 28369.00
344.4030, 28352.00
345.6050, 28256.00
346.8070, 28029.00
348.0090, 28225.00
349.2110, 28337.00
350.4130, 28408.00
351.6150, 28134.00
352.8160, 28475.00
354.0170, 28132.00
355.2190, 28360.00
356.4200, 28372.00
357.6210, 28228.00
358.8210, 28349.00
360.0220, 28549.00
361.2220, 28272.00
362.4230, 28401.00
363.6230, 28277.00
364.8230, 28338.00
366.0230, 28233.00
367.2230, 28319.00
368.4220, 28114.00
369.6220, 28214.00
370.8210, 27954.00
372.0200, 27938.00
373.2190, 28008.00
374.4180, 28073.00
375.6170, 28121.00
376.8150, 28145.73
378.0140, 28096.00
379.2120, 28170.00
380.4100, 28205.00
381.6080, 28221.00
382.8060, 28285.00
384.0040, 28188.00
385.2010, 28138.00
386.3980, 28146.00
387.5960, 28185.00
388.7930, 28079.00
389.9900, 27904.00
391.1870, 27769.00
392.3830, 27781.00
393.5800, 27796.00
394.7760, 27704.00
395.9720, 27670.00
397.1680, 27386.00
398.3640, 27376.00
399.5600, 27555.00
400.7560, 27260.00
401.9510, 27425.00
403.1460, 27396.00
404.3420, 27283.00
405.5370, 27432.00
406.7320, 27391.00
407.9260, 27399.00
409.1210, 27584.00
410.3150, 27555.00
411.5100, 27445.00
412.7040, 27509.00
413.8980, 27578.75
415.0920, 27658.90
416.2850, 27705.50
417.4790, 27720.36
418.6720, 27608.37
419.8650, 27660.16
421.0590, 27646.33
422.2510, 27629.79
423.4440, 27704.64
424.6370, 27611.10
425.8290, 27684.50
427.0220, 27691.26
428.2140, 27670.00
429.4060, 27551.00
430.5980, 27587.00
431.7900, 27437.62
432.9810, 27436.00
434.1730, 27222.27
435.3640, 27247.81
436.5550, 27242.05
437.7460, 27206.65
438.9370, 27052.86
440.1280, 27051.95
441.3190, 26989.77
442.5090, 26925.12
443.6990, 26945.76
444.8890, 26809.23
446.0790, 26903.73
447.2690, 26913.98
448.4590, 26904.86
449.6480, 26787.60
450.8380, 26833.44
452.0270, 26828.26
453.2160, 26830.80
454.4050, 26880.00
455.5940, 26754.77
456.7820, 26897.66
457.9710, 26819.00
459.1590, 27042.00
460.3470, 27069.00
461.5350, 27152.00
462.7230, 27261.00
463.9110, 27148.00
465.0990, 27278.00
466.2860, 27235.00
467.4730, 27514.00
468.6600, 27329.00
469.8470, 27496.00
471.0340, 27488.00
472.2210, 27350.00
473.4070, 27413.00
474.5940, 27310.89
475.7800, 27427.00
476.9660, 27243.00
478.1520, 27253.00
479.3380, 27365.00
480.5230, 27212.00
481.7090, 27341.74
482.8940, 27671.00
484.0790, 27547.00
485.2650, 27636.00
486.4490, 27889.00
487.6340, 28032.00
488.8190, 28046.80
490.0030, 28086.00
491.1870, 28070.00
492.3720, 28150.00
493.5550, 28224.00
494.7390, 28246.47
495.9230, 28331.00
497.1060, 28383.00
498.2900, 28464.00
499.4730, 28635.00
500.6560, 28820.00
501.8390, 28908.00
503.0220, 29077.00
504.2040, 29078.00
505.3870, 29101.00
506.5690, 29208.00
507.7510, 29279.98
508.9330, 29433.29
510.1150, 29524.00
511.2970, 29769.00
512.4780, 29925.00
513.6600, 30064.00
514.8410, 30156.00
516.0220, 30449.00
517.2030, 30590.00
518.3840, 30976.00
519.5650, 31005.00
520.7450, 31033.00
521.9250, 31327.00
523.1060, 31693.00
524.2860, 31489.00
525.4660, 31882.00
526.6450, 32353.00
527.8250, 32220.00
529.0040, 32569.00
530.1840, 32682.00
531.3630, 32670.00
532.5420, 32916.00
533.7200, 32780.00
534.8990, 32582.00
536.0780, 32771.00
537.2560, 32616.00
538.4340, 33233.00
539.6120, 33056.00
540.7900, 33363.00
541.9680, 33460.00
543.1460, 33404.00
544.3230, 33543.00
545.5000, 33301.00
546.6770, 33433.00
547.8540, 33382.20
549.0310, 33461.00
550.2080, 33265.00
551.3840, 33469.00
552.5610, 33243.00
553.7370, 33184.00
554.9130, 33122.00
556.0890, 32932.00
557.2650, 32835.00
558.4400, 33159.00
559.6160, 33082.00
560.7910, 33088.00
561.9660, 33147.00
563.1410, 32816.00
564.3160, 32974.00
565.4910, 32762.00
566.6650, 32757.00
567.8400, 32693.00
569.0140, 32630.00
570.1880, 32585.00
571.3620, 32375.00
572.5360, 32180.00
573.7090, 31936.00
574.8830, 31821.00
576.0560, 31378.00
577.2290, 31269.00
578.4020, 30870.00
579.5750, 30842.00
580.7480, 30656.00
581.9200, 30329.00
583.0930, 30070.00
584.2650, 29722.00
585.4370, 29493.00
586.6090, 29354.00
587.7810, 29576.00
588.9520, 29158.00
590.1240, 29411.00
591.2950, 29336.00
592.4660, 29214.00
593.6370, 29474.00
594.8080, 29617.00
595.9790, 29432.00
597.1500, 29453.00
598.3200, 29623.00
599.4900, 30026.00
600.6600, 30035.00
601.8300, 30233.00
603.0000, 30790.00
604.1700, 30747.00
605.3390, 30764.00
606.5080, 30520.34
607.6770, 30728.27
608.8460, 30900.06
610.0150, 31037.66
611.1840, 31038.67
612.3520, 31215.95
613.5210, 31322.65
614.6890, 31426.35
615.8570, 31628.46
617.0250, 31649.22
618.1930, 31849.77
619.3600, 31978.44
620.5280, 32140.07
621.6950, 32120.00
622.8620, 32288.00
624.0290, 32495.00
625.1960, 32652.00
626.3630, 32771.00
627.5290, 33271.00
628.6960, 33325.00
629.8620, 33373.00
631.0280, 33809.99
632.1940, 34210.83
633.3600, 34577.50
634.5250, 34807.27
635.6910, 35213.70
636.8560, 35549.17
638.0210, 35965.00
639.1860, 36368.00
640.3510, 36844.00
641.5150, 37132.00
642.6800, 37566.00
643.8440, 38197.00
645.0080, 38308.00
646.1720, 38806.00
647.3360, 38946.00
648.5000, 39326.74
649.6640, 39748.00
650.8270, 40026.00
651.9900, 40569.00
653.1530, 40879.00
654.3160, 41041.00
655.4790, 41618.00
656.6420, 41876.42
657.8040, 42140.00
658.9660, 42645.00
660.1290, 43463.00
661.2910, 43925.00
662.4520, 44343.00
663.6140, 44833.00
664.7760, 44926.00
665.9370, 45510.00
667.0980, 45209.00
668.2590, 45081.00
669.4200, 44327.00
670.5810, 43318.00
671.7420, 42227.00
672.9020, 40791.00
674.0620, 40162.00
675.2220, 39177.00
676.3820, 38450.00
677.5420, 37763.00
678.7020, 37311.00
679.8610, 36814.54
681.0210, 36614.00
682.1800, 36156.77
683.3390, 36070.39
684.4980, 35950.45
685.6560, 35798.90
686.8150, 35520.37
687.9730, 35405.77
689.1320, 35225.39
690.2900, 35042.46
691.4480, 34950.90
692.6050, 34691.09
693.7630, 34608.00
694.9200, 34416.09
696.0780, 34162.00
697.2350, 34014.00
698.3920, 33744.00
699.5490, 33511.00
700.7050, 33368.34
701.8620, 33215.81
703.0180, 33067.00
704.1740, 32979.00
705.3300, 32846.00
706.4860, 32631.00
707.6420, 32679.00
708.7970, 32396.00
709.9530, 32179.00
711.1080, 32283.00
712.2630, 32363.00
713.4180, 32006.00
714.5730, 32086.00
715.7280, 31916.00
716.8820, 32188.00
718.0360, 32288.00
719.1900, 32179.72
720.3440, 32347.00
721.4980, 31992.00
722.6520, 32102.00
723.8050, 31933.00
724.9590, 32077.00
726.1120, 32227.00
727.2650, 32091.00
728.4180, 32140.00
729.5700, 31957.00
730.7230, 31930.00
731.8750, 31853.00
733.0280, 32220.00
734.1800, 32321.00
735.3320, 32166.00
736.4830, 31987.00
737.6350, 32083.00
738.7860, 32316.00
739.9380, 32032.00
741.0890, 32368.00
742.2400, 32149.00
743.3910, 32390.00
744.5410, 32238.00
745.6920, 32152.00
746.8420, 32260.00
747.9920, 32289.00
749.1420, 32105.00
750.2920, 32027.00
751.4420, 32141.00
752.5910, 32210.00
753.7410, 32147.00
754.8900, 32190.00
756.0390, 32258.97
757.1880, 32288.00
758.3370, 32412.00
759.4850, 32082.00
760.6340, 32105.00
761.7820, 32260.41
762.9300, 32288.03
764.0780, 32418.00
765.2260, 32731.00
766.3730, 32317.00
767.5210, 32601.00
768.6680, 32638.00
769.8150, 32939.00
770.9620, 32826.00
772.1090, 32771.00
773.2560, 33100.00
774.4020, 33190.00
775.5490, 32937.00
776.6950, 33158.00
777.8410, 33193.69
778.9870, 33408.00
780.1330, 33471.00
781.2780, 33740.00
782.4230, 33913.00
783.5690, 33847.00
784.7140, 34128.00
785.8590, 34196.00
787.0030, 34150.00
788.1480, 34324.00
789.2920, 34361.94
790.4370, 34413.00
791.5810, 34570.00
792.7250, 34738.00
793.8690, 34900.00
795.0120, 34888.00
796.1560, 34713.00
797.2990, 34763.00
798.4420, 34859.00
799.5850, 34659.00
800.7280, 34919.00
801.8710, 34591.80
803.0130, 34842.68
804.1550, 34976.12
805.2980, 34998.43
806.4400, 34576.81
807.5810, 34728.46
808.7230, 34650.36
809.8650, 34562.85
811.0060, 34795.18
812.1470, 34438.15
813.2880, 34665.41
814.4290, 34659.44
815.5700, 34760.21
816.7110, 34629.82
817.8510, 34570.85
818.9910, 34743.11
820.1310, 34787.33
821.2710, 34700.00
822.4110, 34747.46
823.5510, 34462.00
824.6900, 34670.00
825.8290, 34477.00
826.9680, 34446.00
828.1070, 34474.00
829.2460, 34169.00
830.3850, 34287.74
831.5230, 34475.00
832.6620, 34272.00
833.8000, 34214.00
834.9380, 34051.00
836.0760, 34242.00
837.2130, 33656.00
838.3510, 33849.00
839.4880, 33789.00
840.6250, 33501.00
841.7620, 33419.00
842.8990, 33598.00
844.0360, 33648.00
845.1720, 33663.00
846.3090, 33294.00
847.4450, 33416.00
848.5810, 33215.00
849.7170, 33285.00
850.8530, 33252.00
851.9880, 33106.00
853.1240, 33446.00
854.2590, 33505.00
855.3940, 33099.00
856.5290, 33503.00
857.6640, 33228.00
858.7980, 33177.00
859.9330, 33243.00
861.0670, 33374.00
862.2010, 33112.00
863.3350, 33315.00
864.4690, 33397.00
865.6030, 33334.00
866.7360, 33229.00
867.8690, 33492.00
869.0020, 33362.00
870.1350, 33568.00
871.2680, 33476.00
872.4010, 33558.00
873.5330, 33672.52
874.6660, 33892.00
875.7980, 33878.00
876.9300, 33854.00
878.0620, 33933.00
879.1930, 33891.00
880.3250, 33975.00
881.4560, 33990.55
882.5870, 34054.12
883.7180, 34079.00
884.8490, 34217.00
885.9800, 34335.00
887.1100, 34436.00
888.2410, 34380.00
889.3710, 34591.00
890.5010, 34601.00
891.6310, 34804.00
892.7610, 34633.00
893.8900, 34649.80
895.0200, 34774.79
896.1490, 34862.26
897.2780, 34914.07
898.4070, 34835.13
899.5360, 34916.07
900.6640, 34927.42
901.7920, 34932.18
902.9210, 35024.43
904.0490, 34944.36
905.1770, 35027.32
906.3040, 35058.00
907.4320, 35156.00
908.5600, 35056.00
909.6870, 35192.00
910.8140, 35122.00
911.9410, 35193.00
913.0680, 35059.00
914.1940, 35189.00
915.3210, 35116.00
916.4470, 35276.00
917.5730, 35226.95
918.6990, 35282.58
919.8250, 35210.00
920.9500, 35315.00
922.0760, 35399.00
923.2010, 35305.00
924.3260, 34970.00
925.4510, 35435.00
926.5760, 35079.00
927.7010, 35264.00
928.8250, 35280.00
929.9500, 35344.00
931.0740, 35154.00
932.1980, 35229.00
933.3220, 35246.00
934.4450, 34844.00
935.5690, 35235.00
936.6920, 35320.00
937.8150, 35087.00
938.9380, 35177.00
940.0610, 35180.00
941.1840, 35540.00
942.3060, 35203.00
943.4290, 35463.00
944.5510, 35455.73
945.6730, 35402.63
946.7950, 35554.00
947.9160, 35366.00
949.0380, 35509.00
950.1590, 35392.00
951.2800, 35451.00
952.4010, 35364.00
953.5220, 35492.00
954.6430, 35476.00
955.7630, 35555.00
956.8840, 35583.00
958.0040, 35610.00
959.1240, 35797.00
960.2440, 35717.00
961.3640, 35909.00
962.4830, 35801.13
963.6030, 36041.52
964.7220, 36171.26
965.8410, 36196.62
966.9600, 35784.79
968.0780, 35952.96
969.1970, 35898.13
970.3150, 35840.62
971.4340, 36109.71
972.5520, 35796.14
973.6700, 36073.61
974.7870, 36124.54
975.9050, 36288.98
977.0220, 36228.95
978.1390, 36247.04
979.2560, 36503.08
980.3730, 36637.81
981.4900, 36578.06
982.6070, 36789.59
983.7230, 36535.08
984.8390, 36551.00
985.9550, 36706.00
987.0710, 36835.00
988.1870, 36944.00
989.3030, 37109.00
990.4180, 36999.00
991.5330, 37347.00
992.6480, 37253.00
993.7630, 37524.00
994.8780, 37460.00
995.9930, 37741.00
997.1070, 37849.00
998.2210, 37647.00
999.3350, 38226.00
1000.449, 38280.00
1001.563, 38480.00
1002.677, 38422.00
1003.790, 38983.00
1004.903, 38941.00
1006.016, 39007.00
1007.129, 39505.00
1008.242, 39433.00
1009.355, 39630.00
1010.467, 39811.00
1011.579, 39771.00
1012.691, 39910.00
1013.803, 39690.00
1014.915, 39907.00
1016.027, 39768.00
1017.138, 39665.00
1018.249, 39821.00
1019.360, 39757.00
1020.471, 39851.00
1021.582, 39301.00
1022.693, 39596.00
1023.803, 39377.00
1024.913, 39417.00
1026.023, 39587.00
1027.133, 39493.00
1028.243, 39250.00
1029.353, 38829.00
1030.462, 39026.00
1031.571, 38965.00
1032.680, 38720.00
1033.789, 38695.00
1034.898, 38475.00
1036.007, 38507.00
1037.115, 38494.00
1038.223, 38379.00
1039.331, 38223.87
1040.439, 38347.04
1041.547, 38408.12
1042.655, 38410.25
1043.762, 38187.06
1044.869, 38247.11
1045.976, 38188.93
1047.083, 38122.65
1048.190, 38212.92
1049.297, 38005.13
1050.403, 38086.15
1051.509, 38047.18
1052.615, 38058.22
1053.721, 38046.68
1054.827, 37995.55
1055.933, 37957.00
1057.038, 37884.00
1058.143, 37770.00
1059.248, 37687.00
1060.353, 37562.00
1061.458, 37526.81
1062.563, 37608.00
1063.667, 37473.00
1064.771, 37485.21
1065.875, 37494.00
1066.979, 37256.00
1068.083, 37135.00
1069.186, 36803.00
1070.290, 36737.00
1071.393, 36573.00
1072.496, 36681.00
1073.599, 36510.77
1074.702, 36354.00
1075.804, 36341.00
1076.907, 36087.00
1078.009, 36067.00
1079.111, 36283.00
1080.213, 35997.00
1081.315, 35908.00
1082.416, 35958.00
1083.517, 35822.28
1084.619, 36130.00
1085.720, 35742.00
1086.821, 35754.00
1087.921, 35650.00
1089.022, 35887.00
1090.122, 35845.00
1091.222, 35994.00
1092.322, 35640.00
1093.422, 35670.00
1094.522, 35654.00
1095.622, 35534.71
1096.721, 35556.00
1097.820, 35459.00
1098.919, 35663.00
1100.018, 35599.00
1101.117, 35576.00
1102.215, 35661.00
1103.314, 35592.04
1104.412, 35540.00
1105.510, 35556.00
1106.608, 35365.00
1107.705, 35346.00
1108.803, 35179.00
1109.900, 35381.00
1110.997, 35399.00
1112.094, 35503.00
1113.191, 35498.76
1114.288, 35455.15
1115.384, 35445.00
1116.481, 35284.00
1117.577, 35288.00
1118.673, 35158.00
1119.769, 35492.00
1120.864, 35457.00
1121.960, 35613.00
1123.055, 35769.00
1124.150, 35448.00
1125.245, 35293.00
1126.340, 35305.00
1127.434, 35482.00
1128.529, 35107.00
1129.623, 35571.00
1130.717, 35365.93
1131.811, 35846.00
1132.905, 35201.00
1133.999, 35454.00
1135.092, 35289.00
1136.185, 35565.00
1137.279, 35325.00
1138.371, 35465.00
1139.464, 35178.00
1140.557, 35313.00
1141.649, 35183.00
1142.742, 35272.12
1143.834, 35491.74
1144.926, 35617.92
1146.017, 35655.71
1147.109, 35338.85
1148.200, 35481.09
1149.292, 35440.06
1150.383, 35391.99
1151.474, 35600.30
1152.564, 35337.60
1153.655, 35542.86
1154.745, 35562.02
1155.835, 35667.08
1156.925, 35587.72
1158.015, 35565.98
1159.105, 35729.72
1160.195, 35791.55
1161.284, 35692.90
1162.373, 35806.39
1163.462, 35542.26
1164.551, 35610.44
1165.640, 35822.29
1166.728, 35735.44
1167.817, 35854.83
1168.905, 35896.35
1169.993, 35582.30
1171.081, 35888.00
1172.168, 35926.38
1173.256, 35690.31
1174.343, 35976.28
1175.430, 35779.09
1176.517, 35755.04
1177.604, 35861.41
1178.691, 35832.85
1179.777, 36018.29
1180.864, 35998.55
1181.950, 35960.91
1183.036, 36003.97
1184.121, 35820.23
1185.207, 36058.67
1186.293, 36147.99
1187.378, 36045.82
1188.463, 36015.05
1189.548, 36215.52
1190.633, 36287.94
1191.717, 36159.16
1192.802, 36294.93
1193.886, 35958.03
1194.970, 36035.90
1196.054, 36292.72
1197.138, 36175.56
1198.221, 36315.54
1199.305, 36357.60
1200.388, 35954.55
1201.471, 36234.00
1202.554, 36085.00
1203.637, 36183.00
1204.719, 36178.00
1205.801, 36157.00
1206.884, 36145.00
1207.966, 36207.95
1209.048, 36247.00
1210.129, 36347.00
1211.211, 36410.00
1212.292, 36470.00
1213.373, 36608.00
1214.454, 36558.00
1215.535, 36646.00
1216.616, 36203.00
1217.696, 36596.00
1218.777, 36424.00
1219.857, 36680.62
1220.937, 36834.18
1222.017, 36929.02
1223.096, 36968.29
1224.176, 36785.60
1225.255, 36889.52
1226.334, 36878.58
1227.413, 36862.92
1228.492, 37007.19
1229.570, 36856.75
1230.649, 36998.48
1231.727, 37023.57
1232.805, 37102.03
1233.883, 37064.92
1234.961, 37063.50
1236.038, 37177.68
1237.116, 37022.95
1238.193, 36959.00
1239.270, 37098.00
1240.347, 37245.00
1241.424, 37162.00
1242.500, 36889.00
1243.577, 37063.00
1244.653, 37082.00
1245.729, 37177.00
1246.805, 37298.00
1247.880, 37126.00
1248.956, 37142.00
1250.031, 37378.00
1251.106, 37145.00
1252.181, 37269.00
1253.256, 37071.00
1254.331, 37238.00
1255.405, 37358.00
1256.480, 37289.00
1257.554, 37354.00
1258.628, 37407.00
1259.701, 37389.71
1260.775, 37371.00
1261.849, 37512.00
1262.922, 37402.00
1263.995, 37661.00
1265.068, 37434.00
1266.141, 37541.00
1267.213, 37437.00
1268.286, 37639.00
1269.358, 37606.00
1270.430, 37667.00
1271.502, 37590.00
