##NAMES=Magnetite
##RRUFFID=R060656
##IDEAL CHEMISTRY=Fe^2+^Fe^3+^_2_O_4_
##LOCALITY=Jacupiranga Pegmatite, Sao Paulo State, Brazil
##OWNER=RRUFF
##SOURCE=Michael Scott
##DESCRIPTION=Black rounded octahedra associated with phlogopite and diopside
##STATUS=The identification of this mineral has been confirmed by X-ray diffraction and chemical analysis
##URL=rruff.info/R060656
##MEASURED CHEMISTRY=(Fe^2+^_0.98_Mg_0.01_Mn_0.01_)(Fe^3+^_1.96_Ti_0.02_Mg_0.02_)O_4_
##PIN_ID=M00920
##ORIENTATION=Laser parallel to a* (1 0 0). Fiducial mark perpendicular to laser is parallel to b [0 1 0]
175.7550, 9687.000
176.9820, 9776.000
178.2100, 9749.000
179.4370, 9722.000
180.6630, 9768.000
181.8900, 9733.000
183.1170, 9773.000
184.3430, 9901.000
185.5690, 10008.00
186.7950, 9956.000
188.0210, 10035.00
189.2470, 9907.000
190.4720, 10032.00
191.6970, 10127.00
192.9230, 10246.00
194.1480, 10286.00
195.3730, 10324.00
196.5970, 10263.00
197.8220, 10186.00
199.0460, 10240.00
200.2700, 10289.00
201.4940, 10153.12
202.7180, 10306.00
203.9420, 9946.000
205.1660, 9701.000
206.3890, 9649.000
207.6120, 9439.000
208.8350, 9526.000
210.0580, 9468.000
211.2810, 9524.000
212.5040, 9529.000
213.7260, 9546.000
214.9480, 9480.000
216.1700, 9457.000
217.3920, 9425.000
218.6140, 9492.000
219.8360, 9422.000
221.0570, 9504.000
222.2790, 9442.149
223.5000, 9550.000
224.7210, 9383.000
225.9410, 9405.000
227.1620, 9470.000
228.3820, 9396.000
229.6030, 9460.000
230.8230, 9375.000
232.0430, 9513.000
233.2630, 9488.000
234.4820, 9427.000
235.7020, 9475.000
236.9210, 9608.000
238.1400, 9411.000
239.3590, 9429.000
240.5780, 9327.000
241.7970, 9262.000
243.0150, 9436.000
244.2340, 9433.000
245.4520, 9417.000
246.6700, 9612.000
247.8880, 9360.000
249.1060, 9431.000
250.3230, 9501.000
251.5400, 9525.000
252.7580, 9505.613
253.9750, 9479.272
255.1920, 9472.000
256.4080, 9412.000
257.6250, 9423.646
258.8410, 9450.458
260.0580, 9450.000
261.2740, 9536.000
262.4900, 9609.000
263.7050, 9637.000
264.9210, 9678.000
266.1360, 9712.000
267.3520, 9632.000
268.5670, 9738.000
269.7820, 9764.000
270.9960, 9608.000
272.2110, 9860.000
273.4250, 9752.000
274.6400, 9685.000
275.8540, 9699.000
277.0680, 9692.000
278.2810, 9766.000
279.4950, 9813.000
280.7090, 9898.000
281.9220, 9947.000
283.1350, 9960.000
284.3480, 9842.000
285.5610, 10132.00
286.7730, 10085.00
287.9860, 9957.000
289.1980, 10180.00
290.4100, 10220.00
291.6220, 10244.00
292.8340, 10209.00
294.0460, 10171.00
295.2570, 10243.00
296.4690, 10275.00
297.6800, 10265.00
298.8910, 10364.00
300.1020, 10360.00
301.3120, 10378.98
302.5230, 10366.00
303.7330, 10406.00
304.9440, 10377.00
306.1540, 10415.00
307.3630, 10464.00
308.5730, 10408.00
309.7830, 10419.00
310.9920, 10454.00
312.2010, 10444.24
313.4100, 10548.00
314.6190, 10471.00
315.8280, 10300.00
317.0370, 10274.00
318.2450, 10356.00
319.4530, 10213.00
320.6610, 10254.00
321.8690, 10434.00
323.0770, 10239.00
324.2850, 10225.00
325.4920, 10131.00
326.6990, 10210.00
327.9060, 10114.00
329.1130, 10069.00
330.3200, 10200.00
331.5270, 10308.00
332.7330, 10259.47
333.9390, 10278.75
335.1450, 10171.00
336.3510, 10190.00
337.5570, 10050.00
338.7630, 10055.00
339.9680, 10004.00
341.1740, 10036.00
342.3790, 10013.00
343.5840, 9927.000
344.7890, 9940.000
345.9930, 9916.000
347.1980, 9946.000
348.4020, 10048.00
349.6060, 9923.000
350.8100, 10016.00
352.0140, 9926.000
353.2180, 9842.000
354.4210, 9942.000
355.6250, 9925.000
356.8280, 9900.434
358.0310, 10043.00
359.2340, 9817.000
360.4360, 9924.000
361.6390, 9810.000
362.8410, 10018.00
364.0430, 9930.778
365.2450, 9826.000
366.4470, 9823.000
367.6490, 9826.000
368.8510, 9709.000
370.0520, 9826.000
371.2530, 9827.000
372.4540, 9950.000
373.6550, 9908.000
374.8560, 9820.000
376.0560, 9924.000
377.2570, 9783.000
378.4570, 9954.000
379.6570, 9743.000
380.8570, 9910.000
382.0570, 9775.000
383.2560, 9776.000
384.4560, 9982.000
385.6550, 9919.000
386.8540, 9974.000
388.0530, 10120.00
389.2520, 9966.447
390.4510, 10038.66
391.6490, 9851.000
392.8470, 9945.000
394.0450, 10115.00
395.2430, 9959.000
396.4410, 9924.000
397.6390, 9930.000
398.8360, 9870.000
400.0340, 9810.000
401.2310, 9847.639
402.4280, 9864.315
403.6250, 9941.000
404.8210, 9961.000
406.0180, 9983.359
407.2140, 10080.00
408.4100, 10005.00
409.6060, 10067.00
410.8020, 10066.00
411.9980, 10168.00
413.1930, 10174.81
414.3890, 10089.00
415.5840, 10195.00
416.7790, 10165.00
417.9740, 10107.00
419.1680, 10123.00
420.3630, 10171.00
421.5570, 10149.00
422.7510, 10186.00
423.9450, 10288.00
425.1390, 10205.00
426.3330, 10250.00
427.5270, 10108.00
428.7200, 10252.00
429.9130, 10070.00
431.1060, 10282.00
432.2990, 10282.00
433.4920, 10190.00
434.6840, 10246.00
435.8770, 10371.00
437.0690, 10240.00
438.2610, 10346.00
439.4530, 10317.00
440.6450, 10333.00
441.8360, 10388.00
443.0280, 10353.00
444.2190, 10266.00
445.4100, 10295.00
446.6010, 10360.00
447.7920, 10417.00
448.9820, 10472.00
450.1730, 10291.00
451.3630, 10283.00
452.5530, 10374.05
453.7430, 10496.22
454.9330, 10568.60
456.1230, 10593.87
457.3120, 10430.89
458.5010, 10510.98
459.6910, 10493.67
460.8800, 10472.35
462.0680, 10586.64
463.2570, 10451.04
464.4460, 10463.00
465.6340, 10480.00
466.8220, 10591.00
468.0100, 10529.41
469.1980, 10578.00
470.3860, 10572.00
471.5730, 10497.00
472.7600, 10621.00
473.9480, 10609.00
475.1350, 10446.00
476.3210, 10659.00
477.5080, 10595.00
478.6950, 10775.00
479.8810, 10617.00
481.0670, 10758.00
482.2530, 10765.70
483.4390, 10904.00
484.6250, 10844.00
485.8100, 10898.00
486.9960, 10993.00
488.1810, 10939.00
489.3660, 11013.00
490.5510, 11026.00
491.7360, 10958.00
492.9200, 11151.00
494.1050, 11138.00
495.2890, 11312.00
496.4730, 11173.00
497.6570, 11230.00
498.8400, 11276.00
500.0240, 11335.00
501.2070, 11296.00
502.3910, 11341.00
503.5740, 11284.00
504.7570, 11370.00
505.9400, 11386.00
507.1220, 11306.00
508.3050, 11425.00
509.4870, 11470.00
510.6690, 11533.00
511.8510, 11581.00
513.0330, 11667.41
514.2140, 11669.00
515.3960, 11820.00
516.5770, 11823.00
517.7580, 11834.00
518.9390, 11859.00
520.1200, 12093.00
521.3010, 12009.00
522.4810, 12165.00
523.6610, 12050.00
524.8420, 12330.00
526.0220, 12328.03
527.2010, 12575.00
528.3810, 12389.00
529.5610, 12516.00
530.7400, 12390.00
531.9190, 12524.00
533.0980, 12481.00
534.2770, 12540.00
535.4560, 12351.00
536.6340, 12316.00
537.8120, 12613.00
538.9910, 12456.00
540.1690, 12575.00
541.3460, 12477.24
542.5240, 12631.36
543.7020, 12735.70
544.8790, 12792.88
546.0560, 12661.82
547.2330, 12773.83
548.4100, 12788.43
549.5870, 12811.00
550.7630, 12946.00
551.9400, 12830.00
553.1160, 12878.00
554.2920, 12766.00
555.4680, 12730.00
556.6440, 12747.00
557.8190, 12786.00
558.9950, 12852.00
560.1700, 12830.00
561.3450, 12775.00
562.5200, 12812.00
563.6950, 12627.00
564.8690, 12642.00
566.0440, 12747.00
567.2180, 12623.00
568.3920, 12639.00
569.5660, 12734.00
570.7400, 12556.00
571.9130, 12654.00
573.0870, 12636.00
574.2600, 12524.00
575.4330, 12263.00
576.6060, 12087.00
577.7790, 12090.00
578.9520, 11918.00
580.1240, 11969.00
581.2960, 11723.00
582.4690, 11585.00
583.6410, 11386.00
584.8120, 11267.87
585.9840, 11135.00
587.1560, 11107.00
588.3270, 10973.00
589.4980, 10983.00
590.6690, 10889.00
591.8400, 10828.00
593.0110, 10978.00
594.1810, 10865.00
595.3510, 10907.00
596.5220, 10913.00
597.6920, 10906.00
598.8610, 10977.00
600.0310, 10981.00
601.2010, 10994.00
602.3700, 10905.00
603.5390, 11019.00
604.7080, 10974.00
605.8770, 10997.00
607.0460, 11103.70
608.2140, 11184.32
609.3830, 11254.00
610.5510, 11411.00
611.7190, 11393.00
612.8870, 11372.00
614.0550, 11476.00
615.2220, 11574.00
616.3900, 11540.00
617.5570, 11658.00
618.7240, 11727.00
619.8910, 11654.00
621.0580, 11902.00
622.2240, 11998.00
623.3910, 12071.00
624.5570, 12089.00
625.7230, 12202.00
626.8890, 12402.00
628.0550, 12408.00
629.2200, 12575.00
630.3860, 12667.00
631.5510, 12815.00
632.7160, 12942.00
633.8810, 13131.00
635.0460, 13297.00
636.2100, 13512.22
637.3750, 13653.00
638.5390, 13982.00
639.7030, 14179.00
640.8670, 14429.00
642.0310, 14935.17
643.1950, 15037.49
644.3580, 15347.79
645.5210, 15434.00
646.6850, 15837.00
647.8480, 16062.00
649.0100, 16406.00
650.1730, 16789.00
651.3350, 17113.00
652.4980, 17616.00
653.6600, 18057.00
654.8220, 18419.00
655.9840, 18813.00
657.1450, 19503.00
658.3070, 19724.00
659.4680, 20277.00
660.6300, 20567.00
661.7910, 20961.00
662.9510, 21251.00
664.1120, 21524.00
665.2730, 21710.75
666.4330, 21889.00
667.5930, 21953.00
668.7530, 22057.00
669.9130, 22126.00
671.0730, 22108.00
672.2320, 21671.00
673.3920, 21571.00
674.5510, 21254.00
675.7100, 20947.00
676.8690, 20610.00
678.0280, 20242.29
679.1860, 19903.04
680.3450, 19508.00
681.5030, 19167.00
682.6610, 18761.87
683.8190, 18361.91
684.9770, 17935.00
686.1340, 17561.00
687.2920, 17114.00
688.4490, 16765.00
689.6060, 16511.00
690.7630, 16037.00
691.9200, 15953.00
693.0760, 15511.00
694.2330, 15187.00
695.3890, 14995.00
696.5450, 14696.00
697.7010, 14395.40
698.8570, 14144.57
700.0130, 13856.00
701.1680, 13574.00
702.3230, 13479.00
703.4780, 13191.00
704.6330, 12790.00
705.7880, 12749.00
706.9430, 12693.00
708.0970, 12314.00
709.2520, 12200.00
710.4060, 12083.00
711.5600, 11922.00
712.7140, 11812.84
713.8670, 11690.25
715.0210, 11573.00
716.1740, 11486.00
717.3270, 11393.00
718.4800, 11340.00
719.6330, 11164.00
720.7860, 11081.00
721.9380, 10923.00
723.0910, 10935.00
724.2430, 10856.00
725.3950, 10715.00
726.5470, 10686.00
727.6980, 10629.00
728.8500, 10523.00
730.0010, 10454.00
731.1530, 10409.00
732.3040, 10247.00
733.4550, 10318.00
734.6050, 10331.00
735.7560, 10160.00
736.9060, 10085.00
738.0560, 10142.00
739.2060, 10013.00
740.3560, 9904.000
741.5060, 9984.000
742.6560, 9946.000
743.8050, 9867.000
744.9540, 9831.000
746.1030, 9696.000
747.2520, 9874.000
748.4010, 9774.318
749.5500, 9792.660
750.6980, 9694.000
751.8460, 9766.000
752.9950, 9614.000
754.1420, 9532.000
755.2900, 9598.000
756.4380, 9477.000
757.5850, 9510.000
758.7330, 9487.000
759.8800, 9483.000
761.0270, 9461.763
762.1730, 9442.044
763.3200, 9405.000
764.4670, 9398.000
765.6130, 9390.026
766.7590, 9368.000
767.9050, 9429.000
769.0510, 9412.000
770.1960, 9316.000
771.3420, 9220.000
772.4870, 9438.000
773.6320, 9327.000
774.7770, 9281.000
775.9220, 9244.000
777.0670, 9206.000
778.2110, 9248.000
779.3560, 9255.000
780.5000, 9253.438
781.6440, 9271.646
782.7880, 9234.000
783.9320, 9162.545
785.0750, 9264.456
786.2180, 9316.575
787.3620, 9321.568
788.5050, 9138.336
789.6480, 9198.171
790.7900, 9160.606
791.9330, 9119.036
793.0750, 9213.092
794.2170, 9057.250
795.3590, 9149.155
796.5010, 9164.000
797.6430, 9212.000
798.7850, 9197.085
799.9260, 9121.000
801.0670, 9150.000
802.2080, 9103.000
803.3490, 8992.000
804.4900, 9066.000
805.6310, 9088.000
806.7710, 9086.000
807.9110, 9151.000
809.0510, 8945.000
810.1910, 9111.000
811.3310, 9027.000
812.4710, 9106.000
813.6100, 9047.000
814.7490, 8976.000
815.8880, 8953.000
817.0270, 8977.000
818.1660, 8913.980
819.3050, 9022.621
820.4430, 9081.474
821.5820, 9093.206
822.7200, 8916.707
823.8580, 8983.274
824.9950, 8952.437
826.1330, 8917.600
827.2710, 9018.378
828.4080, 8869.262
829.5450, 8967.894
830.6820, 8967.629
831.8190, 9012.627
832.9560, 8959.612
834.0920, 8936.876
835.2280, 8946.000
836.3650, 8987.000
837.5010, 8871.000
838.6360, 8926.000
839.7720, 9025.000
840.9080, 8983.781
842.0430, 9005.000
843.1780, 9000.000
844.3130, 8941.000
845.4480, 8892.000
846.5830, 8873.000
847.7170, 8964.000
848.8520, 9050.000
849.9860, 8994.000
851.1200, 8939.000
852.2540, 9104.000
853.3870, 8933.000
854.5210, 8870.000
855.6540, 8955.000
856.7880, 9019.000
857.9210, 9018.000
859.0540, 8982.000
860.1860, 8930.000
861.3190, 9014.000
862.4510, 9014.000
863.5840, 8892.000
864.7160, 9118.000
865.8480, 8931.000
866.9790, 8966.000
868.1110, 9009.000
869.2420, 9075.000
870.3740, 9071.528
871.5050, 9015.000
872.6360, 9052.000
873.7660, 9035.000
874.8970, 8974.000
876.0280, 8999.000
877.1580, 8926.000
878.2880, 8951.000
879.4180, 9043.000
880.5480, 9039.000
881.6770, 9031.000
882.8070, 8929.000
883.9360, 9097.000
885.0650, 9085.000
886.1940, 9036.544
887.3230, 9129.000
888.4520, 8944.000
889.5800, 9043.000
890.7090, 9036.000
891.8370, 8908.000
892.9650, 9112.000
894.0930, 9055.000
895.2200, 8993.000
896.3480, 9052.000
897.4750, 9076.000
898.6020, 8968.000
899.7290, 9152.000
900.8560, 9101.000
901.9830, 9087.000
903.1090, 9016.000
904.2360, 9065.062
905.3620, 9172.853
906.4880, 9230.852
907.6140, 9241.734
908.7400, 9064.382
909.8650, 9130.102
910.9900, 9098.411
912.1160, 9062.722
913.2410, 9162.651
914.3660, 9088.000
915.4900, 9131.000
916.6150, 9205.000
917.7390, 9144.000
918.8640, 9105.000
919.9880, 9072.000
921.1120, 9128.000
922.2350, 9001.000
923.3590, 9123.000
924.4820, 9148.000
925.6060, 9179.000
926.7290, 9066.000
927.8520, 9100.000
928.9740, 9049.000
930.0970, 9089.000
931.2190, 9087.000
932.3420, 9088.000
933.4640, 9098.000
934.5860, 9100.934
935.7080, 9073.731
936.8290, 9138.513
937.9510, 9157.000
939.0720, 9225.000
940.1930, 9278.000
941.3140, 9246.504
942.4350, 9130.000
943.5560, 9160.000
944.6760, 9205.000
945.7960, 9125.000
946.9170, 9141.000
948.0370, 9063.000
949.1560, 9076.000
950.2760, 9164.000
951.3960, 9152.000
952.5150, 9074.000
953.6340, 9154.000
954.7530, 9192.000
955.8720, 9069.000
956.9910, 9161.000
958.1090, 9225.000
959.2280, 9163.000
960.3460, 9130.000
961.4640, 9056.000
962.5820, 9191.000
963.6990, 9160.000
964.8170, 9164.000
965.9340, 9187.000
967.0510, 9209.000
968.1690, 9336.000
969.2850, 9189.000
970.4020, 9107.000
971.5190, 9146.000
972.6350, 9265.000
973.7510, 9199.000
974.8670, 9169.000
975.9830, 9155.000
977.0990, 9136.000
978.2150, 9186.000
979.3300, 9281.000
980.4450, 9266.000
981.5600, 9247.000
982.6750, 9196.000
983.7900, 9197.000
984.9050, 9317.000
986.0190, 9475.000
987.1340, 9275.000
988.2480, 9400.000
989.3620, 9262.000
990.4750, 9256.000
991.5890, 9327.000
992.7020, 9206.000
993.8160, 9125.000
994.9290, 9380.000
996.0420, 9131.000
997.1550, 9270.000
998.2670, 9244.000
999.3800, 9210.000
1000.492, 9265.000
1001.604, 9224.000
1002.716, 9349.000
1003.828, 9261.000
1004.940, 9348.000
1006.051, 9324.000
1007.163, 9404.000
1008.274, 9327.000
1009.385, 9248.000
1010.496, 9269.000
1011.606, 9236.000
1012.717, 9390.000
1013.827, 9274.000
1014.937, 9494.000
1016.047, 9400.000
1017.157, 9377.869
1018.267, 9351.609
1019.377, 9298.000
1020.486, 9229.000
1021.595, 9261.000
1022.704, 9358.000
1023.813, 9277.000
1024.922, 9296.000
1026.030, 9377.000
1027.139, 9359.000
1028.247, 9342.000
1029.355, 9440.000
1030.463, 9385.000
1031.571, 9391.000
1032.678, 9385.000
1033.786, 9351.884
1034.893, 9365.432
1036.000, 9328.000
1037.107, 9343.000
1038.214, 9378.000
1039.321, 9313.000
1040.427, 9492.000
1041.533, 9437.426
1042.639, 9494.000
1043.745, 9453.000
1044.851, 9430.000
1045.957, 9453.000
1047.062, 9411.000
1048.168, 9346.000
1049.273, 9532.000
1050.378, 9317.000
1051.482, 9452.000
1052.587, 9423.000
1053.692, 9394.000
1054.796, 9502.000
1055.900, 9396.000
1057.004, 9506.000
1058.108, 9568.000
1059.212, 9391.000
1060.315, 9474.000
1061.418, 9457.000
1062.522, 9475.000
1063.625, 9550.000
1064.728, 9542.547
1065.830, 9582.000
1066.933, 9559.000
1068.035, 9488.000
1069.137, 9429.000
1070.239, 9459.000
1071.341, 9468.000
1072.443, 9496.000
1073.545, 9502.000
1074.646, 9466.000
1075.747, 9495.000
1076.848, 9457.000
1077.949, 9399.000
1079.050, 9420.000
1080.150, 9450.000
1081.251, 9459.000
1082.351, 9476.296
1083.451, 9485.150
1084.551, 9494.000
1085.651, 9505.000
1086.750, 9505.000
1087.850, 9491.339
1088.949, 9481.000
1090.048, 9457.000
1091.147, 9407.000
1092.246, 9400.000
1093.345, 9460.000
1094.443, 9326.000
1095.541, 9471.000
1096.639, 9529.000
1097.737, 9379.000
1098.835, 9529.000
1099.933, 9647.000
1101.030, 9456.000
1102.128, 9388.000
1103.225, 9299.000
1104.322, 9427.000
1105.419, 9370.000
1106.515, 9476.000
1107.612, 9433.000
1108.708, 9279.472
1109.804, 9404.405
1110.900, 9479.550
1111.996, 9507.575
1113.092, 9347.367
1114.187, 9430.215
1115.283, 9415.662
1116.378, 9397.107
1117.473, 9514.165
1118.568, 9434.000
1119.662, 9437.000
1120.757, 9442.752
1121.851, 9405.000
1122.946, 9432.000
1124.040, 9388.000
1125.134, 9345.000
1126.227, 9406.000
1127.321, 9358.160
1128.414, 9358.000
1129.508, 9329.000
1130.601, 9323.000
1131.693, 9287.523
1132.786, 9347.000
1133.879, 9316.000
1134.971, 9407.000
1136.064, 9454.000
1137.156, 9450.000
1138.248, 9336.000
1139.339, 9405.000
1140.431, 9303.000
1141.522, 9404.000
1142.614, 9295.000
1143.705, 9292.000
1144.796, 9364.000
1145.887, 9386.000
1146.977, 9311.000
1148.068, 9431.000
1149.158, 9411.000
1150.248, 9281.000
1151.338, 9367.000
1152.428, 9294.000
1153.518, 9213.000
1154.607, 9252.000
1155.696, 9335.000
1156.785, 9423.000
1157.874, 9274.000
1158.963, 9408.000
1160.052, 9235.000
1161.141, 9350.000
1162.229, 9305.000
1163.317, 9328.000
1164.405, 9280.000
1165.493, 9278.015
1166.581, 9172.000
1167.668, 9263.000
1168.756, 9209.000
1169.843, 9203.000
1170.930, 9230.000
1172.017, 9216.000
1173.103, 9350.000
1174.190, 9254.000
1175.276, 9282.000
1176.363, 9336.000
1177.449, 9234.000
1178.535, 9269.000
1179.620, 9179.000
1180.706, 9355.000
1181.791, 9257.000
1182.877, 9355.000
1183.962, 9356.270
1185.047, 9303.000
1186.131, 9322.000
1187.216, 9320.000
1188.300, 9251.000
1189.385, 9329.000
1190.469, 9156.000
1191.553, 9288.000
1192.637, 9322.000
1193.720, 9194.000
1194.804, 9303.000
1195.887, 9199.000
1196.970, 9344.000
1198.053, 9213.000
1199.136, 9293.000
1200.219, 9193.000
1201.301, 9258.000
1202.383, 9268.000
1203.465, 9376.000
1204.547, 9320.000
1205.629, 9369.000
1206.711, 9401.111
1207.792, 9327.736
1208.874, 9423.000
1209.955, 9270.000
1211.036, 9195.000
1212.117, 9214.550
1213.198, 9328.350
1214.278, 9392.357
1215.359, 9409.249
1216.439, 9237.905
1217.519, 9309.628
1218.599, 9283.941
1219.678, 9254.260
1220.758, 9360.194
1221.837, 9216.229
1222.917, 9320.012
1223.996, 9324.898
1225.075, 9385.000
1226.153, 9323.000
1227.232, 9190.000
1228.310, 9315.000
1229.389, 9331.000
1230.467, 9322.000
1231.545, 9282.000
1232.622, 9368.000
1233.700, 9222.000
1234.777, 9353.000
1235.855, 9436.000
1236.932, 9278.000
1238.009, 9323.000
1239.086, 9350.000
1240.162, 9289.000
1241.239, 9390.000
1242.315, 9299.000
1243.391, 9191.000
1244.467, 9346.000
1245.543, 9189.000
1246.619, 9386.000
1247.694, 9343.000
1248.769, 9415.000
1249.844, 9283.000
1250.919, 9364.492
1251.994, 9469.509
1253.069, 9524.735
1254.144, 9532.843
1255.218, 9352.726
1256.292, 9415.674
1257.366, 9381.213
1258.440, 9342.757
1259.514, 9439.915
1260.587, 9287.184
1261.661, 9382.192
1262.734, 9309.000
1263.807, 9379.000
1264.880, 9406.000
1265.952, 9461.000
1267.025, 9509.000
1268.097, 9388.000
1269.170, 9392.000
1270.242, 9411.425
1271.314, 9365.262
1272.385, 9451.000
1273.457, 9379.000
1274.528, 9359.000
1275.600, 9416.000
1276.671, 9464.000
1277.742, 9417.000
1278.812, 9486.000
1279.883, 9409.000
1280.954, 9322.000
1282.024, 9381.000
1283.094, 9212.000
1284.164, 9435.000
1285.234, 9420.000
1286.303, 9500.000
1287.373, 9450.000
1288.442, 9486.000
1289.511, 9517.000
1290.580, 9481.000
1291.649, 9523.180
1292.718, 9513.111
1293.786, 9512.000
1294.855, 9552.000
1295.923, 9451.000
1296.991, 9546.000
1298.059, 9484.000
1299.126, 9450.000
1300.194, 9357.000
1301.261, 9420.000
1302.328, 9490.000
1303.395, 9512.000
1304.462, 9498.000
1305.529, 9543.000
1306.596, 9602.000
1307.662, 9427.000
1308.728, 9606.000
1309.794, 9481.000
1310.860, 9635.000
1311.926, 9555.000
1312.991, 9480.000
1314.057, 9603.000
1315.122, 9446.000
1316.187, 9465.000
1317.252, 9539.000
1318.317, 9559.000
1319.381, 9457.000
1320.446, 9503.000
1321.510, 9470.000
1322.574, 9411.000
1323.638, 9384.000
1324.702, 9388.866
1325.766, 9400.513
1326.829, 9423.000
1327.892, 9485.027
1328.956, 9510.000
1330.019, 9565.000
1331.081, 9417.000
1332.144, 9519.000
1333.206, 9530.000
1334.269, 9543.000
1335.331, 9618.000
1336.393, 9594.000
1337.455, 9431.000
1338.516, 9583.000
1339.578, 9502.479
1340.639, 9527.538
1341.701, 9555.000
1342.762, 9507.000
