##NAMES=Magnesio-hastingsite
##RRUFFID=R040010
##IDEAL CHEMISTRY=NaCa_2_(Mg_4_Fe^3+^)Si_6_Al_2_O_22_(OH)_2_
##LOCALITY=Amity, New York, USA
##OWNER=RRUFF
##SOURCE=University of Arizona Mineral Museum
##DESCRIPTION=Group of black prismatic crystals
##STATUS=The identification of this mineral has been confirmed by X-ray diffraction and chemical analysis
##URL=rruff.info/R040010
##MEASURED CHEMISTRY=(Na_0.50_K_0.43_[box]_0.07_)_Σ=1_(Ca_1.77_Na_0.23_)_Σ=2_(Mg_1.74_Fe_1.22_Fe^3+^_0.79_Mn_0.57_Al_0.30_Zn_0.25_Ti_0.13_)_Σ=5_(Si_5.95_Al_2.05_)_Σ=8_O_22_((OH)_1.75_F_0.22_Cl_0.03_)_Σ=2_; OH estimated by charge balance
##PIN_ID=L00198
##ORIENTATION=Laser parallel to c [0 0 1]. Fiducial mark perpendicular to laser is parallel to -b* (0 -1 0)
131.3060, 32353.00
132.5420, 32074.00
133.7780, 31854.00
135.0140, 32319.00
136.2500, 32403.00
137.4850, 33085.00
138.7200, 34102.00
139.9550, 35103.00
141.1900, 35161.00
142.4250, 35093.00
143.6600, 35886.00
144.8940, 36308.00
146.1280, 37054.00
147.3620, 37991.00
148.5960, 38590.00
149.8300, 39429.00
151.0630, 39789.00
152.2960, 39688.00
153.5300, 38999.00
154.7620, 38816.00
155.9950, 37727.00
157.2280, 36463.00
158.4600, 35439.00
159.6920, 34814.00
160.9250, 35490.00
162.1560, 33685.00
163.3880, 34060.00
164.6200, 33985.00
165.8510, 33503.00
167.0820, 33333.00
168.3130, 33681.00
169.5440, 33569.00
170.7750, 33907.00
172.0050, 33774.00
173.2350, 33722.00
174.4650, 33660.00
175.6950, 34073.00
176.9250, 34086.00
178.1550, 34161.00
179.3840, 34252.00
180.6130, 33991.00
181.8420, 34239.00
183.0710, 34070.00
184.3000, 34289.00
185.5280, 34233.00
186.7570, 34425.00
187.9850, 34376.02
189.2130, 34538.00
190.4400, 34355.00
191.6680, 34332.00
192.8960, 34484.00
194.1230, 34438.00
195.3500, 34542.00
196.5770, 34655.00
197.8030, 34913.00
199.0300, 35292.00
200.2560, 35980.00
201.4830, 36408.00
202.7090, 36163.00
203.9340, 34826.00
205.1600, 34109.00
206.3860, 33428.00
207.6110, 33565.00
208.8360, 34161.00
210.0610, 34492.00
211.2860, 35173.00
212.5100, 35420.00
213.7350, 36126.00
214.9590, 36576.00
216.1830, 36726.00
217.4070, 37076.00
218.6310, 37791.00
219.8540, 37881.00
221.0780, 38333.00
222.3010, 38458.00
223.5240, 38309.00
224.7470, 38528.00
225.9690, 38318.00
227.1920, 38045.00
228.4140, 37997.00
229.6360, 37450.00
230.8580, 37311.00
232.0800, 37094.00
233.3020, 36679.00
234.5230, 36539.00
235.7440, 36019.00
236.9650, 35935.00
238.1860, 35582.00
239.4070, 35727.00
240.6280, 35256.00
241.8480, 35110.00
243.0680, 34930.00
244.2880, 34699.00
245.5080, 34601.00
246.7280, 34503.00
247.9470, 34529.00
249.1660, 34372.40
250.3860, 34314.56
251.6040, 34155.00
252.8230, 34124.00
254.0420, 34063.00
255.2600, 33837.84
256.4790, 34051.20
257.6970, 34193.62
258.9150, 34268.95
260.1320, 34076.23
261.3500, 34229.63
262.5670, 34244.29
263.7840, 34253.27
265.0010, 34455.34
266.2180, 34541.00
267.4350, 34562.00
268.6510, 34506.00
269.8680, 34787.00
271.0840, 34943.00
272.3000, 34990.00
273.5160, 35328.66
274.7310, 35506.00
275.9470, 35884.00
277.1620, 36157.00
278.3770, 36425.00
279.5920, 36786.00
280.8070, 37178.00
282.0210, 37137.00
283.2360, 37529.00
284.4500, 37789.00
285.6640, 37630.00
286.8780, 38155.00
288.0920, 38131.00
289.3050, 38408.00
290.5180, 38669.00
291.7320, 38644.00
292.9450, 38645.00
294.1570, 38546.00
295.3700, 38501.17
296.5830, 38273.00
297.7950, 38282.00
299.0070, 38070.00
300.2190, 37818.00
301.4310, 37746.00
302.6420, 37674.00
303.8540, 37482.46
305.0650, 37250.00
306.2760, 37165.00
307.4870, 37048.00
308.6980, 36840.00
309.9080, 36529.00
311.1190, 36260.00
312.3290, 36342.00
313.5390, 36500.00
314.7490, 35751.00
315.9580, 36021.00
317.1680, 35957.00
318.3770, 35736.00
319.5860, 35905.00
320.7950, 35587.00
322.0040, 35557.00
323.2130, 35458.00
324.4210, 35521.00
325.6290, 35635.00
326.8380, 35226.00
328.0460, 35388.00
329.2530, 35384.00
330.4610, 35072.58
331.6680, 35115.00
332.8760, 34866.00
334.0830, 34996.00
335.2890, 34875.29
336.4960, 34916.00
337.7030, 34854.00
338.9090, 34715.00
340.1150, 34915.00
341.3210, 34856.00
342.5270, 34841.00
343.7330, 34795.00
344.9380, 34934.00
346.1440, 34784.00
347.3490, 35112.00
348.5540, 34932.77
349.7590, 35240.00
350.9630, 34923.00
352.1680, 35217.00
353.3720, 35663.00
354.5760, 35450.00
355.7800, 35421.00
356.9840, 35431.00
358.1870, 35627.00
359.3910, 36022.00
360.5940, 35965.00
361.7970, 36343.00
363.0000, 36169.00
364.2030, 36675.00
365.4050, 36646.00
366.6080, 36971.00
367.8100, 37006.00
369.0120, 37103.00
370.2140, 37364.00
371.4150, 37694.00
372.6170, 38050.00
373.8180, 38115.00
375.0190, 38302.00
376.2200, 38415.00
377.4210, 38405.00
378.6220, 38427.00
379.8220, 38657.00
381.0230, 38739.00
382.2230, 38843.00
383.4230, 38654.00
384.6220, 38697.00
385.8220, 38622.00
387.0220, 38436.00
388.2210, 38358.00
389.4200, 38205.00
390.6190, 38157.00
391.8180, 38259.00
393.0160, 38064.00
394.2150, 38130.00
395.4130, 38109.00
396.6110, 38030.00
397.8090, 37849.00
399.0060, 37592.00
400.2040, 37522.00
401.4010, 37422.00
402.5980, 37526.00
403.7950, 37273.00
404.9920, 37729.00
406.1890, 37574.00
407.3860, 37472.00
408.5820, 37458.00
409.7780, 37788.00
410.9740, 37639.00
412.1700, 37948.00
413.3650, 38185.00
414.5610, 38201.00
415.7560, 38586.00
416.9510, 38806.00
418.1460, 38870.00
419.3410, 39349.00
420.5360, 39441.00
421.7300, 39875.00
422.9240, 40175.00
424.1180, 40302.00
425.3120, 40750.00
426.5060, 41118.00
427.7000, 40971.00
428.8930, 41630.00
430.0860, 41661.00
431.2790, 41193.00
432.4720, 41207.00
433.6650, 41280.00
434.8580, 41171.00
436.0500, 40967.00
437.2420, 40600.00
438.4340, 40602.00
439.6260, 40135.00
440.8180, 40025.00
442.0090, 39824.00
443.2010, 39480.00
444.3920, 39345.00
445.5830, 38850.00
446.7740, 38446.00
447.9640, 38258.00
449.1550, 37988.00
450.3450, 37527.00
451.5350, 37433.00
452.7250, 37010.00
453.9150, 36947.00
455.1050, 36728.00
456.2940, 36448.00
457.4830, 36226.00
458.6720, 36093.00
459.8610, 35839.00
461.0500, 35692.00
462.2390, 35585.00
463.4270, 35386.00
464.6150, 35356.00
465.8040, 35176.00
466.9910, 35178.00
468.1790, 35019.00
469.3670, 35066.00
470.5540, 35304.00
471.7410, 35140.00
472.9280, 35053.00
474.1150, 35129.00
475.3020, 35015.00
476.4890, 35568.00
477.6750, 35340.00
478.8610, 36300.00
480.0470, 35507.00
481.2330, 36093.00
482.4190, 36204.00
483.6040, 36218.00
484.7900, 36479.00
485.9750, 36809.00
487.1600, 36867.00
488.3450, 37119.00
489.5290, 37548.00
490.7140, 37827.00
491.8980, 38169.00
493.0820, 38642.00
494.2660, 38713.00
495.4500, 39138.00
496.6340, 39603.00
497.8170, 39870.72
499.0010, 40299.24
500.1840, 40626.00
501.3670, 40997.00
502.5500, 41361.00
503.7320, 41644.00
504.9150, 41996.00
506.0970, 42406.00
507.2790, 42512.00
508.4610, 42916.00
509.6430, 42927.00
510.8250, 43353.00
512.0060, 43920.00
513.1870, 43957.00
514.3680, 44023.00
515.5490, 44346.00
516.7300, 44588.00
517.9110, 44984.00
519.0910, 45417.00
520.2710, 45466.00
521.4510, 45828.00
522.6310, 46145.00
523.8110, 46613.00
524.9910, 46587.00
526.1700, 46779.00
527.3490, 47369.00
528.5280, 47320.00
529.7070, 47692.00
530.8860, 47528.00
532.0650, 47385.00
533.2430, 47460.00
534.4210, 47266.00
535.5990, 46860.00
536.7770, 46796.00
537.9550, 46125.00
539.1320, 46016.00
540.3100, 46156.00
541.4870, 45277.00
542.6640, 44893.00
543.8410, 44475.00
545.0170, 43994.00
546.1940, 43725.00
547.3700, 43248.00
548.5470, 42781.00
549.7230, 42373.00
550.8980, 42261.00
552.0740, 41944.00
553.2500, 41601.00
554.4250, 41229.00
555.6000, 41216.00
556.7750, 40850.00
557.9500, 40772.00
559.1250, 40141.00
560.2990, 39934.00
561.4730, 39657.00
562.6480, 39563.00
563.8220, 39038.00
564.9950, 39078.00
566.1690, 38869.00
567.3430, 38322.00
568.5160, 38281.00
569.6890, 37570.00
570.8620, 37236.00
572.0350, 37542.00
573.2070, 36766.59
574.3800, 36594.00
575.5520, 35824.00
576.7240, 35760.00
577.8960, 35312.00
579.0680, 34986.00
580.2400, 34768.00
581.4110, 34685.00
582.5830, 34238.00
583.7540, 33824.00
584.9250, 33806.00
586.0950, 33618.00
587.2660, 33517.00
588.4370, 33094.00
589.6070, 32924.00
590.7770, 32766.00
591.9470, 32862.00
593.1170, 32546.00
594.2860, 32537.00
595.4560, 32366.00
596.6250, 32214.00
597.7940, 32225.00
598.9630, 32119.00
600.1320, 32089.00
601.3000, 32011.00
602.4690, 31958.00
603.6370, 31978.00
604.8050, 31971.59
605.9730, 31954.90
607.1410, 32032.00
608.3090, 31956.00
609.4760, 31957.00
610.6430, 31989.46
611.8100, 32421.00
612.9770, 32177.00
614.1440, 32386.00
615.3110, 32615.00
616.4770, 32538.00
617.6430, 32781.00
618.8090, 32829.00
619.9750, 33071.00
621.1410, 33225.00
622.3070, 33482.00
623.4720, 33523.00
624.6370, 34188.00
625.8020, 33840.00
626.9670, 34249.00
628.1320, 35027.00
629.2970, 35553.00
630.4610, 34987.00
631.6250, 35237.00
632.7890, 35540.00
633.9530, 35655.00
635.1170, 35998.00
636.2810, 36715.00
637.4440, 36703.80
638.6070, 37312.00
639.7700, 36979.00
640.9330, 37604.00
642.0960, 37692.00
643.2590, 37534.00
644.4210, 38185.00
645.5830, 38290.00
646.7450, 38303.00
647.9070, 38644.00
649.0690, 39043.00
650.2310, 39371.00
651.3920, 39450.00
652.5530, 39942.00
653.7140, 40024.00
654.8750, 40440.00
656.0360, 40306.00
657.1970, 40549.00
658.3570, 40485.00
659.5170, 40359.00
660.6770, 40529.00
661.8370, 40667.00
662.9970, 40854.00
664.1570, 40191.00
665.3160, 39846.00
666.4750, 39427.00
667.6340, 39153.00
668.7930, 38639.00
669.9520, 38434.00
671.1110, 37806.00
672.2690, 37808.00
673.4270, 37659.00
674.5850, 37273.00
675.7430, 36869.00
676.9010, 36738.00
678.0590, 36336.00
679.2160, 36169.00
680.3730, 36189.00
681.5300, 35983.00
682.6870, 35833.00
683.8440, 35369.00
685.0010, 35433.00
686.1570, 35177.00
687.3130, 34739.00
688.4690, 34959.00
689.6250, 34890.00
690.7810, 34372.00
691.9370, 34281.00
693.0920, 34288.00
694.2470, 34205.00
695.4020, 34317.00
696.5570, 34208.00
697.7120, 34448.00
698.8670, 34344.00
700.0210, 34448.00
701.1750, 34787.00
702.3290, 34959.00
703.4830, 34897.00
704.6370, 35363.00
705.7910, 35625.00
706.9440, 35702.00
708.0970, 36047.00
709.2510, 36414.00
710.4030, 36515.00
711.5560, 37122.00
712.7090, 37025.00
713.8610, 37159.00
715.0140, 37333.00
716.1660, 37716.00
717.3180, 37872.00
718.4690, 38185.03
719.6210, 38521.00
720.7730, 38723.00
721.9240, 38923.00
723.0750, 39095.00
724.2260, 39295.00
725.3770, 39334.00
726.5270, 39476.00
727.6780, 39719.00
728.8280, 39814.00
729.9780, 39803.00
731.1280, 40017.00
732.2780, 40145.00
733.4280, 40078.00
734.5770, 39921.00
735.7260, 39805.00
736.8760, 39993.00
738.0250, 39716.00
739.1730, 39730.00
740.3220, 39600.00
741.4700, 39467.00
742.6190, 39311.03
743.7670, 39116.57
744.9150, 38900.00
746.0630, 38649.00
747.2100, 38452.00
748.3580, 38125.00
749.5050, 37948.82
750.6520, 37684.00
751.7990, 37485.00
752.9460, 37151.00
754.0930, 36787.00
755.2390, 37157.00
756.3860, 36927.00
757.5320, 36687.00
758.6780, 36705.00
759.8240, 36430.00
760.9690, 36494.00
762.1150, 36536.00
763.2600, 36518.00
764.4060, 36545.00
765.5510, 36587.00
766.6950, 36452.00
767.8400, 36639.00
768.9850, 36428.00
770.1290, 36666.00
771.2730, 36693.00
772.4170, 36711.00
773.5610, 36701.00
774.7050, 36818.00
775.8480, 36665.00
776.9920, 36920.00
778.1350, 36921.00
779.2780, 36590.00
780.4210, 36643.00
781.5640, 36675.00
782.7060, 36682.00
783.8490, 36522.00
784.9910, 36382.00
786.1330, 36384.00
787.2750, 36224.00
788.4170, 36215.00
789.5580, 35887.00
790.7000, 35917.00
791.8410, 35840.00
792.9820, 35736.00
794.1230, 35690.00
795.2640, 35385.00
796.4040, 35307.00
797.5450, 35339.00
798.6850, 35387.00
799.8250, 35066.00
800.9650, 35284.00
802.1050, 35316.00
803.2450, 34964.00
804.3840, 35048.00
805.5230, 34756.00
806.6630, 34844.00
807.8020, 34958.00
808.9400, 34456.00
810.0790, 34476.00
811.2170, 34322.00
812.3560, 34339.00
813.4940, 34187.00
814.6320, 34451.00
815.7700, 34305.00
816.9070, 34349.00
818.0450, 34217.89
819.1820, 34315.00
820.3190, 33916.00
821.4560, 33778.00
822.5930, 33823.00
823.7300, 33611.00
824.8670, 33234.00
826.0030, 33419.00
827.1390, 33254.00
828.2750, 33117.00
829.4110, 33341.00
830.5470, 33162.00
831.6820, 33097.00
832.8180, 33093.00
833.9530, 33059.00
835.0880, 33069.00
836.2230, 33164.00
837.3580, 32906.00
838.4920, 32990.00
839.6270, 32921.00
840.7610, 33008.00
841.8950, 33033.00
843.0290, 33086.00
844.1630, 33038.00
845.2960, 33219.00
846.4300, 33138.00
847.5630, 33418.00
848.6960, 33330.21
849.8290, 33448.00
850.9620, 33281.00
852.0940, 33292.00
853.2270, 33348.00
854.3590, 33419.00
855.4910, 33574.00
856.6230, 33717.00
857.7550, 33694.00
858.8870, 33627.00
860.0180, 34014.00
861.1500, 34024.00
862.2810, 34021.00
863.4120, 34177.00
864.5430, 34330.00
865.6730, 34355.00
866.8040, 34282.00
867.9340, 34633.00
869.0640, 34377.00
870.1940, 34521.00
871.3240, 34779.00
872.4540, 34937.00
873.5830, 34821.00
874.7130, 35181.00
875.8420, 35067.00
876.9710, 35095.00
878.1000, 35201.00
879.2290, 35077.00
880.3570, 35229.00
881.4860, 35264.00
882.6140, 35597.00
883.7420, 35389.00
884.8700, 35550.00
885.9980, 35453.00
887.1250, 35392.00
888.2530, 35246.00
889.3800, 35518.00
890.5070, 35491.00
891.6340, 35627.00
892.7610, 35717.00
893.8880, 35731.00
895.0140, 35676.00
896.1400, 35769.01
897.2670, 35929.00
898.3930, 35867.00
899.5180, 35973.00
900.6440, 36013.00
901.7700, 36122.00
902.8950, 36410.00
904.0200, 36386.00
905.1450, 36627.00
906.2700, 36747.00
907.3950, 36776.00
908.5190, 36769.00
909.6440, 36771.00
910.7680, 36908.40
911.8920, 37009.30
913.0160, 37153.00
914.1400, 37331.00
915.2630, 37350.00
916.3870, 37474.00
917.5100, 37567.00
918.6330, 37803.00
919.7560, 37728.00
920.8790, 37895.00
922.0010, 37909.00
923.1240, 38049.00
924.2460, 38042.70
925.3680, 37766.00
926.4900, 37992.00
927.6120, 37994.00
928.7340, 37918.00
929.8550, 38274.00
930.9760, 38321.00
932.0980, 38423.25
933.2190, 38774.00
934.3390, 38608.00
935.4600, 38938.00
936.5810, 39018.00
937.7010, 38769.00
938.8210, 39173.00
939.9410, 39165.00
941.0610, 39330.00
942.1810, 39363.00
943.3010, 39553.00
944.4200, 39464.00
945.5390, 39455.00
946.6580, 39511.84
947.7770, 39800.00
948.8960, 39574.00
950.0150, 39833.00
951.1330, 39967.00
952.2510, 39672.00
953.3690, 39811.00
954.4870, 39877.00
955.6050, 39793.00
956.7230, 40012.00
957.8400, 39874.00
958.9580, 39715.00
960.0750, 39717.00
961.1920, 39661.05
962.3090, 39840.30
963.4250, 39948.64
964.5420, 39989.91
965.6580, 39763.14
966.7740, 39882.47
967.8900, 39863.10
969.0060, 39838.04
970.1220, 40006.07
971.2380, 39990.00
972.3530, 40037.00
973.4680, 40230.00
974.5830, 40265.89
975.6980, 40201.00
976.8130, 40448.00
977.9280, 40483.00
979.0420, 40509.00
980.1560, 40751.00
981.2710, 40737.00
982.3850, 40825.00
983.4980, 41070.00
984.6120, 41151.00
985.7260, 41337.75
986.8390, 41518.00
987.9520, 41643.00
989.0650, 41789.84
990.1780, 41994.00
991.2910, 42053.00
992.4030, 42184.00
993.5160, 42366.00
994.6280, 42296.00
995.7400, 42758.00
996.8520, 43002.00
997.9640, 43144.00
999.0750, 43214.00
1000.187, 43458.00
1001.298, 43422.00
1002.409, 43757.00
1003.520, 43880.00
1004.631, 43801.00
1005.741, 43858.00
1006.852, 44026.01
1007.962, 44065.85
1009.072, 44281.00
1010.182, 44335.00
1011.292, 44217.00
1012.402, 44376.00
1013.511, 44615.00
1014.621, 44512.00
1015.730, 44371.00
1016.839, 44357.11
1017.948, 44212.00
1019.056, 44067.00
1020.165, 43791.00
1021.273, 43572.00
1022.382, 43482.00
1023.490, 43395.00
1024.598, 43169.16
1025.706, 42951.00
1026.813, 42799.00
1027.921, 42753.00
1029.028, 42640.00
1030.135, 41873.00
1031.242, 42160.00
1032.349, 42023.00
1033.456, 41437.00
1034.562, 42283.00
1035.668, 42427.00
1036.775, 41227.00
1037.881, 41652.00
1038.987, 41585.00
1040.092, 40982.00
1041.198, 41598.00
1042.303, 40704.00
1043.408, 40992.00
1044.514, 39824.00
1045.618, 39554.00
1046.723, 39382.00
1047.828, 39342.00
1048.932, 38925.00
1050.037, 39076.00
1051.141, 39019.70
1052.245, 38808.78
1053.349, 38787.80
1054.452, 38503.00
1055.556, 38544.00
1056.659, 38369.00
1057.762, 38334.00
1058.865, 37860.00
1059.968, 38018.00
1061.071, 38219.00
1062.174, 37809.00
1063.276, 38061.00
1064.378, 37649.00
1065.480, 37864.00
1066.582, 37743.00
1067.684, 37871.00
1068.786, 37790.00
1069.887, 37527.00
1070.988, 37292.00
1072.090, 37525.00
1073.191, 37273.00
1074.291, 37206.00
1075.392, 37084.00
1076.493, 37155.00
1077.593, 37304.00
1078.693, 37292.00
1079.793, 37200.00
1080.893, 37299.00
1081.993, 37066.00
1083.092, 36941.00
1084.192, 36888.00
1085.291, 36571.00
1086.390, 36607.00
1087.489, 36568.00
1088.588, 36543.00
1089.686, 36341.90
1090.785, 36479.00
1091.883, 35912.00
1092.981, 35701.00
1094.079, 35602.00
1095.177, 35734.00
1096.275, 35587.00
1097.373, 35518.00
1098.470, 35088.00
1099.567, 34968.00
1100.664, 35072.00
1101.761, 34715.00
1102.858, 34676.00
1103.954, 34175.00
1105.051, 34267.00
1106.147, 34059.00
1107.243, 34036.00
1108.339, 33490.18
1109.435, 33591.03
1110.531, 33620.99
1111.626, 33583.92
1112.722, 33278.77
1113.817, 33319.77
1114.912, 33222.07
1116.007, 33118.69
1117.101, 33208.46
1118.196, 32942.34
1119.290, 33029.05
1120.385, 32974.88
1121.479, 32985.22
1122.573, 32856.00
1123.666, 32769.95
1124.760, 32823.43
1125.853, 32799.68
1126.947, 32654.40
1128.040, 32668.89
1129.133, 32398.02
1130.226, 32377.56
1131.318, 32465.19
1132.411, 32326.98
1133.503, 32344.08
1134.596, 32302.00
1135.688, 31991.26
1136.780, 32098.00
1137.871, 32040.76
1138.963, 32096.00
1140.054, 32083.00
1141.146, 31705.00
1142.237, 31891.00
1143.328, 31607.00
1144.419, 31906.00
1145.509, 31956.00
1146.600, 31850.00
1147.690, 32490.00
1148.780, 31842.00
1149.870, 31691.00
1150.960, 32409.00
1152.050, 31989.00
1153.139, 31580.00
1154.229, 31612.00
1155.318, 31586.00
1156.407, 31432.00
1157.496, 31728.00
1158.585, 31529.00
1159.674, 31334.00
1160.762, 31572.00
1161.850, 31409.00
1162.939, 31546.00
1164.027, 31526.46
1165.114, 31477.00
1166.202, 31543.00
1167.290, 31264.00
1168.377, 31389.00
1169.464, 31647.00
1170.551, 31223.00
1171.638, 31365.00
1172.725, 31240.00
1173.812, 31372.00
1174.898, 31281.00
1175.984, 31393.00
1177.071, 31484.00
1178.157, 31322.00
1179.242, 31427.49
1180.328, 31435.00
1181.414, 31458.00
1182.499, 31313.00
1183.584, 31352.00
1184.669, 31142.00
1185.754, 31461.00
1186.839, 31485.00
1187.924, 31393.00
1189.008, 31365.00
1190.092, 31365.00
1191.177, 31348.00
1192.260, 31479.00
1193.344, 31413.00
1194.428, 31428.00
1195.512, 31208.00
1196.595, 31388.00
1197.678, 31293.00
1198.761, 31146.00
1199.844, 31541.00
1200.927, 31232.00
1202.009, 31425.00
1203.092, 31807.00
1204.174, 31429.00
1205.256, 31175.00
1206.338, 31163.00
1207.420, 31050.00
1208.502, 31182.00
1209.583, 31478.00
1210.665, 31408.00
1211.746, 31391.00
1212.827, 31348.00
1213.908, 31270.00
1214.988, 31445.00
1216.069, 31294.00
1217.149, 31480.00
1218.230, 31390.00
1219.310, 31345.04
1220.390, 31600.00
1221.470, 31193.00
1222.549, 31468.00
1223.629, 31369.00
1224.708, 31358.00
1225.787, 31196.00
1226.866, 31395.00
1227.945, 31333.00
1229.024, 31478.00
1230.103, 31366.00
1231.181, 31236.00
1232.259, 31275.00
1233.337, 31357.00
1234.415, 31300.00
1235.493, 31299.00
1236.571, 31209.00
1237.648, 31290.00
1238.726, 31479.00
1239.803, 31285.00
1240.880, 31416.00
1241.957, 31482.00
1243.034, 31486.00
1244.110, 31222.00
1245.187, 31150.00
1246.263, 31410.00
1247.339, 31578.00
1248.415, 31321.00
1249.491, 31450.00
1250.566, 31445.00
1251.642, 31348.00
1252.717, 31436.00
1253.793, 31320.00
1254.868, 31082.00
1255.943, 31268.00
1257.017, 31349.00
1258.092, 31268.00
1259.166, 31072.00
1260.241, 31177.00
1261.315, 31267.00
1262.389, 31188.00
1263.462, 31248.00
1264.536, 31268.68
1265.610, 31180.00
1266.683, 31301.00
1267.756, 31369.00
1268.829, 31336.00
1269.902, 31343.51
1270.975, 31316.00
1272.048, 31296.00
1273.120, 31125.00
1274.192, 31226.00
1275.264, 31307.00
1276.336, 31298.00
1277.408, 31050.00
1278.480, 31479.00
1279.551, 31100.00
1280.623, 31345.00
1281.694, 31431.00
1282.765, 31187.00
1283.836, 31365.00
1284.907, 31369.00
1285.977, 31604.00
1287.048, 31195.00
1288.118, 31299.00
1289.188, 31208.00
1290.258, 31296.00
1291.328, 31415.00
1292.398, 31178.00
1293.467, 31265.00
1294.537, 31257.00
1295.606, 31184.06
