##NAMES=Magnesiochromite
##RRUFFID=R050399
##IDEAL CHEMISTRY=MgCr^3+^_2_O_4_
##LOCALITY=Troodos Mountains, Cyprus
##OWNER=RRUFF
##SOURCE=Andy McCarthy
##DESCRIPTION=Black grains
##STATUS=The identification of this mineral has been confirmed by X-ray diffraction and chemical analysis
##URL=rruff.info/R050399
##MEASURED CHEMISTRY=(Mg_0.68_Fe^2+^_0.32_)_Σ=1_(Cr_1.29_Al_0.64_Fe^3+^_0.07_)_Σ=2_O__4
##PIN_ID=M01485
##ORIENTATION=Laser parallel to a* (1 0 0). Fiducial mark perpendicular to laser is parallel to c [0 0 1]
127.7920, 24729.00
129.0260, 24915.00
130.2590, 24835.00
131.4920, 25112.00
132.7250, 25176.00
133.9580, 25162.00
135.1910, 25696.00
136.4230, 25818.00
137.6560, 25957.00
138.8880, 26077.33
140.1200, 26215.00
141.3520, 26004.00
142.5830, 26147.00
143.8150, 26013.00
145.0460, 26384.00
146.2770, 26361.00
147.5080, 26277.00
148.7390, 26316.75
149.9700, 26313.36
151.2000, 26207.00
152.4310, 26303.00
153.6610, 26485.00
154.8910, 26332.00
156.1210, 26042.00
157.3500, 25953.00
158.5800, 26222.00
159.8090, 26046.00
161.0380, 26402.00
162.2670, 26811.00
163.4960, 26670.50
164.7240, 26589.75
165.9530, 26664.00
167.1810, 26016.00
168.4090, 25972.00
169.6370, 25887.00
170.8650, 25728.00
172.0920, 25486.00
173.3200, 25389.00
174.5470, 25636.00
175.7740, 25774.00
177.0010, 25638.96
178.2280, 25931.00
179.4540, 25486.00
180.6810, 25483.00
181.9070, 25555.00
183.1330, 25332.00
184.3590, 25419.00
185.5850, 25371.00
186.8100, 25435.00
188.0350, 25387.00
189.2610, 25556.00
190.4860, 25843.00
191.7110, 25757.00
192.9350, 25950.00
194.1600, 25711.00
195.3840, 25727.00
196.6080, 25829.00
197.8320, 25925.00
199.0560, 25637.00
200.2800, 25656.00
201.5030, 25666.00
202.7270, 25421.00
203.9500, 25389.00
205.1730, 25317.00
206.3950, 25051.00
207.6180, 24971.00
208.8410, 24631.00
210.0630, 24905.00
211.2850, 24556.00
212.5070, 24900.00
213.7290, 24650.00
214.9500, 25186.00
216.1720, 24696.00
217.3930, 24953.00
218.6140, 24552.00
219.8350, 24393.00
221.0560, 24619.00
222.2770, 24621.00
223.4970, 24467.00
224.7170, 24458.00
225.9370, 24664.00
227.1570, 24527.00
228.3770, 24358.00
229.5970, 24392.53
230.8160, 24230.00
232.0350, 24239.00
233.2540, 24217.00
234.4730, 24115.00
235.6920, 24082.00
236.9110, 24345.00
238.1290, 24286.00
239.3470, 24052.00
240.5650, 24108.00
241.7830, 23798.00
243.0010, 24221.00
244.2180, 23931.81
245.4360, 23953.00
246.6530, 23745.00
247.8700, 23731.00
249.0870, 23836.00
250.3040, 23859.00
251.5200, 23964.00
252.7370, 23566.00
253.9530, 23575.00
255.1690, 23729.00
256.3850, 23513.00
257.6000, 23650.00
258.8160, 23739.00
260.0310, 23491.00
261.2460, 23627.00
262.4610, 23802.00
263.6760, 23401.00
264.8910, 23415.86
266.1050, 23599.61
267.3200, 23689.13
268.5340, 23689.53
269.7480, 23333.82
270.9620, 23437.96
272.1750, 23357.83
273.3890, 23270.12
274.6020, 23439.01
275.8150, 23541.00
277.0280, 23170.00
278.2410, 23545.00
279.4540, 22952.00
280.6660, 23125.00
281.8790, 23109.00
283.0910, 23375.00
284.3030, 23269.00
285.5140, 23141.00
286.7260, 23351.00
287.9380, 23072.00
289.1490, 23136.00
290.3600, 23114.00
291.5710, 22991.00
292.7820, 22988.00
293.9920, 23247.00
295.2030, 22969.00
296.4130, 23068.00
297.6230, 23034.95
298.8330, 22853.00
300.0430, 22942.00
301.2520, 23003.00
302.4620, 22944.00
303.6710, 22754.00
304.8800, 22704.00
306.0890, 22763.00
307.2980, 22683.00
308.5070, 22752.00
309.7150, 22759.00
310.9230, 22779.00
312.1310, 22724.81
313.3390, 22826.00
314.5470, 22654.00
315.7550, 22623.00
316.9620, 22773.00
318.1690, 22617.00
319.3760, 22722.08
320.5830, 22755.17
321.7900, 22807.00
322.9960, 22816.00
324.2030, 22838.00
325.4090, 22849.73
326.6150, 22825.28
327.8210, 22845.59
329.0270, 22886.00
330.2320, 22867.00
331.4380, 22909.00
332.6430, 22775.00
333.8480, 22696.00
335.0530, 22784.00
336.2580, 22866.00
337.4620, 22886.30
338.6670, 22886.44
339.8710, 22966.00
341.0750, 22840.00
342.2790, 22755.17
343.4820, 22778.41
344.6860, 22875.00
345.8890, 22929.00
347.0920, 23087.00
348.2960, 22936.00
349.4980, 22887.00
350.7010, 22864.00
351.9040, 23008.00
353.1060, 22973.00
354.3080, 23069.00
355.5100, 23227.00
356.7120, 22994.00
357.9140, 23101.65
359.1150, 23297.00
360.3170, 23115.00
361.5180, 23239.00
362.7190, 23384.00
363.9200, 23275.00
365.1200, 23455.80
366.3210, 23406.81
367.5210, 23578.00
368.7210, 23468.00
369.9210, 23352.00
371.1210, 23586.00
372.3210, 23420.00
373.5200, 23716.00
374.7200, 23767.00
375.9190, 23963.00
377.1180, 23491.00
378.3170, 23552.00
379.5150, 23824.00
380.7140, 23697.00
381.9120, 23804.00
383.1110, 23798.00
384.3090, 23892.00
385.5060, 23979.00
386.7040, 23899.00
387.9020, 23908.38
389.0990, 24163.49
390.2960, 24324.41
391.4930, 24396.18
392.6900, 24111.84
393.8860, 24287.31
395.0830, 24278.54
396.2790, 24262.17
397.4750, 24502.37
398.6710, 24269.79
399.8670, 24379.00
401.0630, 24388.00
402.2580, 24696.00
403.4540, 24374.00
404.6490, 24583.00
405.8440, 24780.00
407.0390, 24482.00
408.2330, 24773.00
409.4280, 24429.00
410.6220, 24799.00
411.8160, 24730.00
413.0100, 24966.00
414.2040, 24746.00
415.3980, 24893.00
416.5910, 24982.00
417.7850, 24916.00
418.9780, 25142.00
420.1710, 25089.00
421.3640, 24816.00
422.5560, 25224.00
423.7490, 25197.00
424.9410, 25086.00
426.1330, 25342.10
427.3250, 25303.21
428.5170, 25522.00
429.7090, 25389.00
430.9000, 25347.00
432.0910, 25229.00
433.2820, 25364.24
434.4730, 25660.00
435.6640, 25696.00
436.8550, 25838.00
438.0450, 26028.00
439.2360, 25888.00
440.4260, 25840.00
441.6160, 25848.00
442.8060, 26035.00
443.9950, 26322.00
445.1850, 26045.00
446.3740, 26382.00
447.5630, 26328.00
448.7520, 26285.00
449.9410, 26529.00
451.1300, 26581.00
452.3180, 26668.00
453.5060, 26496.00
454.6950, 26781.00
455.8830, 26523.00
457.0700, 26799.00
458.2580, 27011.00
459.4450, 26873.00
460.6330, 27061.00
461.8200, 27169.00
463.0070, 27303.00
464.1940, 27423.00
465.3800, 27417.00
466.5670, 27548.00
467.7530, 27598.98
468.9390, 27570.00
470.1250, 27774.00
471.3110, 27829.24
472.4970, 28004.00
473.6820, 28001.00
474.8680, 28250.00
476.0530, 28029.00
477.2380, 28265.00
478.4230, 28311.00
479.6070, 28995.00
480.7920, 28730.00
481.9760, 28504.00
483.1600, 28928.00
484.3440, 28688.00
485.5280, 28893.00
486.7120, 29113.00
487.8950, 29208.00
489.0780, 29262.00
490.2620, 29369.00
491.4450, 29423.03
492.6270, 29472.97
493.8100, 29549.00
494.9920, 29457.00
496.1750, 29520.00
497.3570, 29305.00
498.5390, 29695.00
499.7210, 29604.00
500.9020, 30038.00
502.0840, 29919.00
503.2650, 30323.00
504.4460, 30242.00
505.6270, 30142.00
506.8080, 30342.44
507.9890, 30668.00
509.1690, 30511.00
510.3500, 30760.00
511.5300, 30932.00
512.7100, 31116.86
513.8900, 31781.00
515.0690, 31689.00
516.2490, 32107.00
517.4280, 32415.00
518.6070, 32529.00
519.7860, 32725.00
520.9650, 32995.00
522.1440, 33384.00
523.3220, 33793.00
524.5010, 34080.00
525.6790, 34399.00
526.8570, 34486.00
528.0350, 34906.00
529.2130, 35267.00
530.3900, 35845.00
531.5670, 35607.00
532.7450, 36485.00
533.9220, 36663.00
535.0980, 36501.00
536.2750, 36947.00
537.4520, 37475.00
538.6280, 38293.00
539.8040, 38897.00
540.9800, 39202.00
542.1560, 39938.00
543.3320, 40541.00
544.5070, 41582.00
545.6830, 42144.00
546.8580, 42655.00
548.0330, 43091.00
549.2080, 44123.00
550.3830, 44522.00
551.5570, 45150.00
552.7310, 45642.00
553.9060, 45917.00
555.0800, 46420.00
556.2540, 46746.00
557.4270, 47321.00
558.6010, 47441.00
559.7740, 47567.57
560.9470, 48115.67
562.1210, 48528.41
563.2930, 48810.20
564.4660, 48694.71
565.6390, 48997.70
566.8110, 49074.95
567.9830, 49103.34
569.1550, 49347.00
570.3270, 49076.58
571.4990, 49233.56
572.6710, 49162.15
573.8420, 49135.19
575.0130, 48881.57
576.1840, 48643.98
577.3550, 48550.67
578.5260, 48313.40
579.6970, 47873.51
580.8670, 47604.94
582.0370, 46916.05
583.2070, 46338.00
584.3770, 45880.00
585.5470, 45056.00
586.7170, 44502.00
587.8860, 43772.00
589.0550, 43286.73
590.2240, 43102.00
591.3930, 42438.00
592.5620, 42050.00
593.7310, 41748.00
594.8990, 41319.00
596.0670, 41116.00
597.2350, 40767.00
598.4030, 40498.00
599.5710, 40348.00
600.7390, 40140.00
601.9060, 40011.00
603.0740, 39739.00
604.2410, 39597.00
605.4080, 39282.00
606.5740, 39081.00
607.7410, 38802.82
608.9080, 38727.00
610.0740, 38120.06
611.2400, 37817.00
612.4060, 37250.00
613.5720, 37187.00
614.7370, 36677.00
615.9030, 36221.00
617.0680, 36019.00
618.2330, 35553.00
619.3980, 34696.00
620.5630, 34649.00
621.7280, 34199.00
622.8920, 33590.00
624.0570, 33442.00
625.2210, 32786.00
626.3850, 32578.67
627.5490, 32558.00
628.7120, 32109.00
629.8760, 31724.00
631.0390, 31539.00
632.2020, 31388.00
633.3650, 31335.00
634.5280, 31421.77
635.6910, 31428.00
636.8530, 31896.00
638.0160, 32058.00
639.1780, 32606.00
640.3400, 32975.44
641.5020, 33481.39
642.6640, 33947.00
643.8250, 34649.00
644.9870, 35368.00
646.1480, 36053.00
647.3090, 36537.00
648.4700, 36805.00
649.6300, 37207.00
650.7910, 37595.90
651.9510, 37871.07
653.1120, 38172.00
654.2720, 38536.00
655.4320, 38421.00
656.5910, 38862.00
657.7510, 38851.00
658.9100, 38754.00
660.0690, 38899.00
661.2290, 38853.00
662.3880, 38907.00
663.5460, 38939.00
664.7050, 38912.00
665.8630, 38993.00
667.0220, 38787.00
668.1800, 38970.00
669.3380, 39195.00
670.4950, 39609.00
671.6530, 39660.00
672.8100, 39654.00
673.9680, 40335.00
675.1250, 40532.00
676.2820, 40676.36
677.4390, 41483.20
678.5950, 42195.28
679.7520, 42818.78
680.9080, 43085.63
682.0640, 43812.34
683.2200, 44737.77
684.3760, 45421.31
685.5320, 45748.73
686.6870, 46535.46
687.8420, 47137.88
688.9980, 48435.00
690.1530, 49032.00
691.3070, 49885.00
692.4620, 50941.00
693.6170, 51516.00
694.7710, 51987.67
695.9250, 52786.80
697.0790, 53399.25
698.2330, 53828.38
699.3870, 53896.23
700.5400, 54146.67
701.6940, 54150.56
702.8470, 54025.65
704.0000, 53948.12
705.1530, 53608.00
706.3050, 52884.84
707.4580, 52341.00
708.6100, 51298.00
709.7630, 50384.00
710.9150, 49761.00
712.0660, 48684.00
713.2180, 47925.00
714.3700, 46908.00
715.5210, 45510.00
716.6720, 44476.00
717.8240, 43566.00
718.9740, 42827.00
720.1250, 41633.00
721.2760, 40774.00
722.4260, 39728.00
723.5770, 39053.00
724.7270, 38159.00
725.8770, 37443.00
727.0260, 36662.01
728.1760, 35949.00
729.3250, 35152.00
730.4750, 34479.00
731.6240, 33813.00
732.7730, 33131.00
733.9220, 33080.00
735.0700, 32401.00
736.2190, 32112.25
737.3670, 31552.00
738.5150, 31387.00
739.6630, 30984.00
740.8110, 30523.00
741.9590, 30115.00
743.1060, 29471.00
744.2540, 29222.58
745.4010, 29530.00
746.5480, 28673.00
747.6950, 28706.00
748.8410, 28558.00
749.9880, 28059.00
751.1340, 27928.00
752.2800, 27864.00
753.4260, 27291.00
754.5720, 27318.00
755.7180, 27095.00
756.8640, 27049.00
758.0090, 26685.00
759.1540, 26680.00
760.2990, 26512.00
761.4440, 26145.61
762.5890, 26284.36
763.7340, 26300.64
764.8780, 26201.17
766.0220, 25638.75
767.1660, 25674.13
768.3100, 25469.94
769.4540, 25255.92
770.5980, 25375.44
771.7410, 25246.00
772.8840, 25240.00
774.0280, 25092.00
775.1700, 25038.00
776.3130, 25054.00
777.4560, 24870.00
778.5980, 24808.00
779.7410, 24718.00
780.8830, 24487.00
782.0250, 24390.00
783.1670, 24375.00
784.3080, 24399.00
785.4500, 24265.00
786.5910, 24283.00
787.7320, 24201.00
788.8730, 24063.00
790.0140, 24186.00
791.1550, 24234.00
792.2950, 24100.00
793.4360, 23897.00
794.5760, 23894.00
795.7160, 23957.00
796.8560, 23679.00
797.9960, 23931.00
799.1350, 23958.00
800.2750, 23455.00
801.4140, 23669.00
802.5530, 23819.00
803.6920, 23733.00
804.8310, 23680.00
805.9690, 23604.00
807.1080, 23501.00
808.2460, 23407.00
809.3840, 23525.00
810.5220, 23500.00
811.6600, 23583.00
812.7970, 23604.00
813.9350, 23499.45
815.0720, 23440.00
816.2090, 23349.00
817.3460, 23328.00
818.4830, 23301.50
819.6200, 23210.00
820.7560, 23286.00
821.8930, 23216.00
823.0290, 23182.00
824.1650, 23187.00
825.3010, 23259.00
826.4360, 23210.74
827.5720, 23229.00
828.7070, 23197.00
829.8420, 23091.90
830.9770, 23121.84
832.1120, 22972.00
833.2470, 22924.00
834.3820, 22959.00
835.5160, 22771.00
836.6500, 22999.00
837.7840, 22832.00
838.9180, 22806.97
840.0520, 23316.00
841.1860, 22600.00
842.3190, 23012.00
843.4520, 22782.00
844.5850, 22976.00
845.7180, 22854.00
846.8510, 22721.00
847.9840, 22673.00
849.1160, 22723.00
850.2490, 22776.00
851.3810, 22719.00
852.5130, 22754.48
853.6450, 22746.56
854.7760, 22752.00
855.9080, 22781.00
857.0390, 22805.00
858.1700, 22916.00
859.3010, 22665.00
860.4320, 22701.00
861.5630, 22838.00
862.6930, 22555.00
863.8240, 22709.00
864.9540, 22843.00
866.0840, 22543.00
867.2140, 22788.00
868.3440, 22588.00
869.4730, 22648.00
870.6030, 22522.00
871.7320, 22654.00
872.8610, 22604.00
873.9900, 22470.00
875.1190, 22700.00
876.2470, 22289.00
877.3760, 22489.00
878.5040, 22300.00
879.6320, 22595.00
880.7600, 22490.00
881.8880, 22449.87
883.0150, 22550.00
884.1430, 22361.00
885.2700, 22508.00
886.3970, 22588.00
887.5240, 22233.00
888.6510, 22449.00
889.7780, 22455.00
890.9040, 22598.00
892.0310, 22632.00
893.1570, 22440.00
894.2830, 22676.00
895.4090, 22569.00
896.5350, 22219.00
897.6600, 22298.00
898.7860, 22324.00
899.9110, 22201.00
901.0360, 22326.00
902.1610, 22421.00
903.2860, 22524.00
904.4100, 22278.00
905.5350, 22631.00
906.6590, 22539.00
907.7830, 22436.00
908.9070, 22581.00
910.0310, 22430.00
911.1540, 22497.00
912.2780, 22571.00
913.4010, 22352.00
914.5240, 22462.00
915.6470, 22481.00
916.7700, 22593.00
917.8930, 22219.00
919.0150, 22323.00
920.1380, 22483.00
921.2600, 22294.00
922.3820, 22493.00
923.5040, 22209.08
924.6260, 22414.44
925.7470, 22525.61
926.8690, 22547.63
927.9900, 22213.53
929.1110, 22339.30
930.2320, 22280.78
931.3530, 22214.69
932.4730, 22405.19
933.5940, 22122.90
934.7140, 22309.33
935.8340, 22340.00
936.9540, 22143.54
938.0740, 22361.00
939.1930, 22275.00
940.3130, 22349.00
941.4320, 22227.00
942.5510, 22313.00
943.6700, 22240.00
944.7890, 22255.00
945.9080, 22394.00
947.0260, 22494.00
948.1450, 22328.00
949.2630, 22292.00
950.3810, 22261.00
951.4990, 22201.00
952.6170, 22460.00
953.7340, 22609.00
954.8520, 22559.00
955.9690, 22422.00
957.0860, 22234.00
958.2030, 22450.00
959.3200, 22248.76
960.4360, 22275.90
961.5530, 22186.00
962.6690, 22284.00
963.7850, 22434.00
964.9010, 22540.00
966.0170, 22533.95
967.1330, 22576.63
968.2480, 22494.00
969.3630, 22547.00
970.4790, 22554.00
971.5940, 22570.00
972.7080, 22316.00
973.8230, 22534.00
974.9380, 22439.00
976.0520, 22444.00
977.1660, 22134.00
978.2800, 22314.00
979.3940, 22428.00
980.5080, 22416.00
981.6220, 22598.00
982.7350, 22442.00
983.8480, 22306.00
984.9610, 22619.00
986.0740, 22434.00
987.1870, 22490.00
988.3000, 22451.00
989.4120, 22324.00
990.5250, 22436.00
991.6370, 22486.00
992.7490, 22377.00
993.8610, 22227.00
994.9720, 22435.00
996.0840, 22483.00
997.1950, 22556.00
998.3060, 22326.00
999.4170, 22594.00
1000.528, 22540.00
1001.639, 22571.00
1002.750, 22738.00
1003.860, 22631.26
1004.970, 22767.00
1006.080, 22638.00
1007.190, 22336.00
1008.300, 22527.00
1009.410, 22321.00
1010.519, 22658.00
1011.628, 22484.00
1012.738, 22488.00
1013.846, 22728.00
1014.955, 22522.00
1016.064, 22591.00
1017.172, 22754.00
1018.281, 22560.00
1019.389, 22578.00
1020.497, 22668.00
1021.605, 22696.11
1022.713, 22714.00
1023.820, 22736.13
1024.928, 22882.36
1026.035, 22751.00
1027.142, 22722.00
1028.249, 22772.00
1029.356, 22522.00
1030.462, 22397.00
1031.569, 22588.00
1032.675, 22768.00
1033.781, 22838.00
1034.887, 22702.00
1035.993, 22816.00
1037.098, 22563.00
1038.204, 22727.00
1039.309, 22902.00
1040.415, 22707.00
1041.520, 22883.00
1042.624, 22756.00
1043.729, 22818.00
1044.834, 22973.00
1045.938, 23000.00
1047.042, 23040.00
1048.146, 22859.00
1049.250, 22905.00
1050.354, 23371.00
1051.458, 23014.08
1052.561, 23079.84
1053.664, 23115.00
1054.767, 22951.00
1055.870, 22807.00
1056.973, 23107.00
1058.076, 22893.00
1059.178, 23003.00
1060.281, 23173.00
1061.383, 23210.00
1062.485, 23016.00
1063.587, 22991.00
1064.688, 22972.00
1065.790, 22943.00
1066.891, 22993.00
1067.993, 23138.00
1069.094, 23135.36
1070.195, 23285.00
1071.295, 23275.00
1072.396, 23324.00
1073.496, 23469.00
1074.597, 23715.00
1075.697, 23339.00
1076.797, 23553.00
1077.897, 23351.00
1078.996, 23402.00
1080.096, 23251.00
1081.195, 23477.00
1082.294, 23457.00
1083.393, 23477.00
1084.492, 23419.00
1085.591, 23555.00
1086.689, 23529.00
1087.788, 23544.00
1088.886, 23606.00
1089.984, 23511.00
1091.082, 23644.00
1092.180, 23616.56
1093.277, 23659.00
1094.375, 23677.00
1095.472, 23722.00
1096.569, 23828.00
1097.666, 23745.00
1098.763, 23858.00
1099.860, 24062.00
1100.956, 23709.00
1102.053, 23790.00
1103.149, 24051.00
1104.245, 24040.00
1105.341, 23808.00
1106.436, 23900.00
1107.532, 24006.00
1108.627, 24127.00
1109.723, 23948.00
1110.818, 24106.00
1111.913, 24149.00
1113.007, 23850.00
1114.102, 24129.00
1115.197, 24289.00
1116.291, 24217.00
1117.385, 24120.00
1118.479, 24138.00
1119.573, 24158.07
1120.666, 24250.00
1121.760, 24247.00
1122.853, 24389.00
1123.947, 24334.00
1125.040, 24170.00
1126.132, 24315.00
1127.225, 24185.00
1128.318, 24340.00
1129.410, 24463.00
1130.502, 24472.00
1131.595, 24148.00
1132.687, 24403.00
1133.778, 24265.00
1134.870, 24451.00
1135.961, 24432.00
1137.053, 24425.00
1138.144, 24502.00
1139.235, 24507.00
1140.326, 24406.00
1141.416, 24304.00
1142.507, 24364.00
1143.597, 24494.00
1144.688, 24514.00
1145.778, 24419.00
1146.868, 24375.00
1147.957, 24516.00
1149.047, 24270.00
1150.136, 24418.00
1151.226, 24629.00
1152.315, 24425.00
1153.404, 24521.00
1154.493, 24291.00
1155.581, 24462.00
1156.670, 24598.00
1157.758, 24229.00
1158.846, 24317.47
1159.934, 24276.00
1161.022, 24261.00
1162.110, 24240.00
1163.198, 24261.10
1164.285, 24258.00
1165.372, 24254.00
1166.459, 24294.09
1167.546, 24137.75
1168.633, 24274.00
1169.720, 24081.00
1170.806, 24098.00
1171.892, 24159.00
1172.979, 24452.00
1174.065, 24344.00
1175.150, 24369.00
1176.236, 24333.00
1177.322, 24558.00
1178.407, 24367.99
1179.492, 24381.00
1180.577, 24199.00
1181.662, 24110.00
1182.747, 24238.00
1183.832, 24143.00
1184.916, 24230.54
1186.000, 24131.00
1187.084, 24117.16
1188.168, 24111.00
1189.252, 24073.00
1190.336, 23974.00
1191.419, 24002.00
1192.503, 23988.00
1193.586, 24059.00
1194.669, 24021.90
1195.752, 24050.00
1196.835, 23989.00
1197.917, 23875.00
1199.000, 23877.00
1200.082, 23834.00
1201.164, 23853.14
1202.246, 23933.00
1203.328, 23941.00
1204.409, 23896.00
1205.491, 23935.00
1206.572, 23897.98
1207.653, 23897.00
1208.734, 23828.00
1209.815, 23866.00
1210.896, 23783.00
1211.976, 23812.46
1213.057, 23820.10
1214.137, 23812.00
1215.217, 23864.00
1216.297, 23783.00
1217.377, 23803.00
1218.456, 23833.00
1219.536, 23729.00
1220.615, 23803.00
1221.694, 23635.00
1222.773, 23873.00
1223.852, 23698.00
1224.931, 23729.00
1226.009, 23618.00
1227.088, 23866.00
1228.166, 23766.00
1229.244, 23864.00
1230.322, 23639.00
1231.400, 23652.00
1232.477, 24020.00
1233.555, 23901.00
1234.632, 23745.00
1235.709, 23913.00
1236.786, 23747.00
1237.863, 23664.00
1238.939, 23543.00
1240.016, 23789.00
1241.092, 23844.00
1242.168, 23716.00
1243.245, 23838.00
1244.320, 23709.00
1245.396, 23761.31
1246.472, 23812.00
1247.547, 23784.00
1248.622, 23812.00
1249.697, 23726.00
1250.772, 23665.00
1251.847, 23626.00
1252.922, 23913.00
1253.996, 23486.00
1255.071, 23657.00
1256.145, 23827.00
1257.219, 23667.00
1258.293, 23580.00
1259.366, 23831.00
1260.440, 23814.00
1261.513, 23767.00
1262.587, 23823.00
1263.660, 23901.00
1264.733, 23563.00
1265.805, 23531.00
1266.878, 23567.00
1267.951, 23448.00
1269.023, 23684.00
1270.095, 23515.00
1271.167, 23866.00
1272.239, 23775.00
1273.311, 23466.00
1274.382, 23627.00
1275.454, 23996.00
1276.525, 23771.00
1277.596, 23815.00
1278.667, 23522.00
1279.738, 23573.00
1280.808, 23492.00
1281.879, 23520.00
1282.949, 23687.00
1284.019, 23576.00
1285.089, 23628.00
1286.159, 23916.00
1287.229, 23837.00
1288.298, 23604.00
1289.368, 23744.00
1290.437, 23785.00
1291.506, 23611.00
1292.575, 23738.00
1293.644, 23466.00
1294.712, 23777.00
1295.781, 23684.00
1296.849, 23846.00
1297.917, 23876.00
1298.985, 23708.00
1300.053, 23591.00
1301.121, 23662.00
1302.188, 23772.00
1303.255, 23875.00
1304.323, 23809.50
