##NAMES=Magnesio-hastingsite
##RRUFFID=R040010
##IDEAL CHEMISTRY=NaCa_2_(Mg_4_Fe^3+^)Si_6_Al_2_O_22_(OH)_2_
##LOCALITY=Amity, New York, USA
##OWNER=RRUFF
##SOURCE=University of Arizona Mineral Museum
##DESCRIPTION=Group of black prismatic crystals
##STATUS=The identification of this mineral has been confirmed by X-ray diffraction and chemical analysis
##URL=rruff.info/R040010
##MEASURED CHEMISTRY=(Na_0.50_K_0.43_[box]_0.07_)_Σ=1_(Ca_1.77_Na_0.23_)_Σ=2_(Mg_1.74_Fe_1.22_Fe^3+^_0.79_Mn_0.57_Al_0.30_Zn_0.25_Ti_0.13_)_Σ=5_(Si_5.95_Al_2.05_)_Σ=8_O_22_((OH)_1.75_F_0.22_Cl_0.03_)_Σ=2_; OH estimated by charge balance
##PIN_ID=L00491
##ORIENTATION=Laser parallel to [1 0 1]. Fiducial mark perpendicular to laser is parallel to b* (0 1 0)
162.1560, 31063.00
163.3880, 31549.00
164.6200, 31770.00
165.8510, 31589.00
167.0820, 31542.00
168.3130, 31587.00
169.5440, 31595.00
170.7750, 32031.00
172.0050, 31906.00
173.2350, 31920.00
174.4650, 32078.00
175.6950, 31825.00
176.9250, 32391.00
178.1550, 32341.00
179.3840, 32415.00
180.6130, 32371.00
181.8420, 32351.00
183.0710, 32573.00
184.3000, 32579.00
185.5280, 32604.19
186.7570, 32766.00
187.9850, 32711.00
189.2130, 32573.00
190.4400, 32839.00
191.6680, 32568.00
192.8960, 32265.00
194.1230, 32465.00
195.3500, 32419.00
196.5770, 32557.00
197.8030, 32635.00
199.0300, 32957.00
200.2560, 33160.00
201.4830, 33674.00
202.7090, 33059.00
203.9340, 32616.38
205.1600, 32231.83
206.3860, 31239.00
207.6110, 31176.00
208.8360, 31366.00
210.0610, 31510.00
211.2860, 32065.00
212.5100, 32431.00
213.7350, 33000.00
214.9590, 33236.00
216.1830, 33875.00
217.4070, 34235.00
218.6310, 34318.00
219.8540, 34991.00
221.0780, 35033.00
222.3010, 35033.00
223.5240, 35089.00
224.7470, 34915.00
225.9690, 34697.00
227.1920, 34626.00
228.4140, 34235.61
229.6360, 33574.00
230.8580, 33495.00
232.0800, 32981.00
233.3020, 32608.00
234.5230, 32344.00
235.7440, 32285.00
236.9650, 31980.00
238.1860, 31816.00
239.4070, 31585.00
240.6280, 31074.00
241.8480, 30992.86
243.0680, 30751.00
244.2880, 30678.00
245.5080, 30526.12
246.7280, 30089.74
247.9470, 30273.35
249.1660, 30371.90
250.3860, 30389.96
251.6040, 30086.48
252.8230, 30198.21
254.0420, 30143.54
255.2600, 30082.06
256.4790, 30252.23
257.6970, 29995.52
258.9150, 30162.03
260.1320, 30159.61
261.3500, 30234.50
262.5670, 30141.96
263.7840, 30101.15
265.0010, 30227.81
266.2180, 30261.74
267.4350, 30149.94
268.6510, 30229.76
269.8680, 30169.00
271.0840, 30221.00
272.3000, 30317.00
273.5160, 30398.00
274.7310, 30483.53
275.9470, 30560.63
277.1620, 30652.00
278.3770, 30726.00
279.5920, 30769.67
280.8070, 30890.00
282.0210, 30934.00
283.2360, 30943.00
284.4500, 31083.00
285.6640, 31244.00
286.8780, 31258.00
288.0920, 31238.00
289.3050, 31370.00
290.5180, 31238.00
291.7320, 31179.00
292.9450, 31172.00
294.1570, 31326.00
295.3700, 31193.00
296.5830, 31084.00
297.7950, 30868.00
299.0070, 31072.00
300.2190, 30927.00
301.4310, 30871.00
302.6420, 30821.00
303.8540, 30750.00
305.0650, 30588.00
306.2760, 30580.00
307.4870, 30895.00
308.6980, 31102.00
309.9080, 30509.00
311.1190, 30727.00
312.3290, 30427.00
313.5390, 30624.00
314.7490, 30749.00
315.9580, 30359.00
317.1680, 30327.00
318.3770, 30447.00
319.5860, 30393.00
320.7950, 30161.00
322.0040, 29975.00
323.2130, 30237.00
324.4210, 30402.00
325.6290, 30148.00
326.8380, 30486.00
328.0460, 30354.00
329.2530, 30112.00
330.4610, 30206.00
331.6680, 30146.51
332.8760, 30272.00
334.0830, 30286.00
335.2890, 30281.00
336.4960, 30425.00
337.7030, 30401.34
338.9090, 30455.00
340.1150, 30502.00
341.3210, 30569.00
342.5270, 30741.00
343.7330, 30652.00
344.9380, 30779.00
346.1440, 30918.26
347.3490, 30783.00
348.5540, 31187.00
349.7590, 31124.00
350.9630, 31125.00
352.1680, 31310.00
353.3720, 31571.00
354.5760, 31799.00
355.7800, 31633.00
356.9840, 32399.00
358.1870, 32049.00
359.3910, 32168.00
360.5940, 32452.00
361.7970, 32277.00
363.0000, 32393.00
364.2030, 32430.00
365.4050, 32349.12
366.6080, 32433.43
367.8100, 32288.00
369.0120, 32400.00
370.2140, 32414.00
371.4150, 32238.00
372.6170, 32187.00
373.8180, 32294.00
375.0190, 32226.00
376.2200, 32012.00
377.4210, 32124.00
378.6220, 31949.00
379.8220, 31840.97
381.0230, 31731.11
382.2230, 31508.00
383.4230, 31519.00
384.6220, 31223.00
385.8220, 31391.00
387.0220, 31350.00
388.2210, 31201.00
389.4200, 31186.71
390.6190, 30917.00
391.8180, 30857.00
393.0160, 30863.00
394.2150, 30519.00
395.4130, 30588.00
396.6110, 30512.00
397.8090, 30487.00
399.0060, 30467.00
400.2040, 30483.28
401.4010, 30397.00
402.5980, 30525.00
403.7950, 30372.00
404.9920, 30293.00
406.1890, 30399.00
407.3860, 30462.00
408.5820, 30507.00
409.7780, 30672.00
410.9740, 30697.00
412.1700, 30723.00
413.3650, 30743.00
414.5610, 30842.63
415.7560, 30768.00
416.9510, 31000.00
418.1460, 31035.00
419.3410, 30986.00
420.5360, 31184.00
421.7300, 31375.00
422.9240, 31529.00
424.1180, 31526.00
425.3120, 31838.00
426.5060, 31812.00
427.7000, 31985.00
428.8930, 31990.00
430.0860, 31732.00
431.2790, 31883.00
432.4720, 31911.00
433.6650, 31709.00
434.8580, 31794.00
436.0500, 31811.00
437.2420, 31484.00
438.4340, 31457.00
439.6260, 31508.00
440.8180, 31329.00
442.0090, 31209.00
443.2010, 31098.00
444.3920, 30998.00
445.5830, 30865.21
446.7740, 30776.96
447.9640, 30628.79
449.1550, 30611.00
450.3450, 30546.00
451.5350, 30518.00
452.7250, 30354.00
453.9150, 30260.00
455.1050, 30379.00
456.2940, 30214.00
457.4830, 30133.00
458.6720, 30118.00
459.8610, 30385.00
461.0500, 29929.00
462.2390, 30176.00
463.4270, 29930.00
464.6150, 30069.00
465.8040, 29755.00
466.9910, 29665.00
468.1790, 29833.00
469.3670, 29989.00
470.5540, 29856.00
471.7410, 29843.00
472.9280, 29839.00
474.1150, 30038.00
475.3020, 29887.00
476.4890, 29780.00
477.6750, 29881.00
478.8610, 30294.00
480.0470, 30429.00
481.2330, 30248.00
482.4190, 30483.00
483.6040, 30493.00
484.7900, 30465.00
485.9750, 30701.00
487.1600, 31091.00
488.3450, 31796.00
489.5290, 31655.24
490.7140, 31938.00
491.8980, 31812.00
493.0820, 32146.00
494.2660, 32290.19
495.4500, 32530.00
496.6340, 32831.00
497.8170, 32996.00
499.0010, 33511.00
500.1840, 34063.00
501.3670, 33956.00
502.5500, 34280.00
503.7320, 34529.00
504.9150, 34524.00
506.0970, 34609.00
507.2790, 34781.00
508.4610, 35175.00
509.6430, 35244.00
510.8250, 35459.00
512.0060, 35606.00
513.1870, 35840.00
514.3680, 35986.00
515.5490, 36249.00
516.7300, 36345.00
517.9110, 36713.00
519.0910, 36847.00
520.2710, 37081.00
521.4510, 37385.00
522.6310, 37593.00
523.8110, 37812.00
524.9910, 38018.20
526.1700, 38204.00
527.3490, 38395.00
528.5280, 38541.00
529.7070, 38771.00
530.8860, 38892.00
532.0650, 38792.00
533.2430, 38869.00
534.4210, 40078.00
535.5990, 39129.80
536.7770, 40353.00
537.9550, 38063.00
539.1320, 38114.00
540.3100, 37921.00
541.4870, 37387.00
542.6640, 37249.00
543.8410, 36992.00
545.0170, 36802.00
546.1940, 36445.00
547.3700, 36167.00
548.5470, 36007.00
549.7230, 35779.00
550.8980, 35581.00
552.0740, 35578.00
553.2500, 35201.00
554.4250, 35160.00
555.6000, 34723.00
556.7750, 34464.00
557.9500, 34722.00
559.1250, 34341.00
560.2990, 34109.00
561.4730, 33958.00
562.6480, 33715.08
563.8220, 33421.00
564.9950, 33414.62
566.1690, 33208.00
567.3430, 33116.00
568.5160, 32737.00
569.6890, 32542.00
570.8620, 32284.00
572.0350, 31812.00
573.2070, 31798.00
574.3800, 31632.00
575.5520, 31214.00
576.7240, 30874.00
577.8960, 30863.00
579.0680, 30456.00
580.2400, 30464.00
581.4110, 30229.00
582.5830, 30115.00
583.7540, 29845.00
584.9250, 29750.00
586.0950, 29725.00
587.2660, 29380.00
588.4370, 29311.00
589.6070, 29276.00
590.7770, 29185.00
591.9470, 28844.00
593.1170, 28750.00
594.2860, 29010.00
595.4560, 28797.00
596.6250, 28984.00
597.7940, 28722.00
598.9630, 28753.00
600.1320, 28664.00
601.3000, 28717.00
602.4690, 28649.00
603.6370, 28532.00
604.8050, 28509.00
605.9730, 28846.00
607.1410, 28787.00
608.3090, 28723.00
609.4760, 29020.00
610.6430, 29003.00
611.8100, 28850.00
612.9770, 29100.00
614.1440, 28722.00
615.3110, 29277.00
616.4770, 29140.00
617.6430, 29325.00
618.8090, 29442.00
619.9750, 29274.00
621.1410, 29693.00
622.3070, 29761.00
623.4720, 30016.00
624.6370, 29985.00
625.8020, 30266.00
626.9670, 30334.00
628.1320, 30470.00
629.2970, 30655.00
630.4610, 30768.00
631.6250, 30968.77
632.7890, 31251.00
633.9530, 31369.00
635.1170, 31824.00
636.2810, 32079.00
637.4440, 32291.00
638.6070, 32265.00
639.7700, 32540.00
640.9330, 32809.00
642.0960, 33007.00
643.2590, 33270.00
644.4210, 33408.48
645.5830, 33477.00
646.7450, 33645.00
647.9070, 33952.00
649.0690, 34029.00
650.2310, 34236.00
651.3920, 34513.00
652.5530, 34700.30
653.7140, 34931.00
654.8750, 35154.00
656.0360, 35392.00
657.1970, 35501.00
658.3570, 35817.00
659.5170, 35848.00
660.6770, 35889.00
661.8370, 35851.00
662.9970, 35962.00
664.1570, 35974.00
665.3160, 35866.00
666.4750, 35559.00
667.6340, 35337.00
668.7930, 35101.00
669.9520, 35066.00
671.1110, 34494.00
672.2690, 34577.00
673.4270, 34241.00
674.5850, 34342.00
675.7430, 34101.00
676.9010, 33935.00
678.0590, 34190.00
679.2160, 33832.00
680.3730, 33771.00
681.5300, 33738.00
682.6870, 33652.00
683.8440, 33553.57
685.0010, 33360.75
686.1570, 33206.00
687.3130, 32865.00
688.4690, 32429.00
689.6250, 32081.00
690.7810, 32263.00
691.9370, 31831.00
693.0920, 31648.00
694.2470, 31821.00
695.4020, 31618.32
696.5570, 31488.00
697.7120, 31567.00
698.8670, 31809.00
700.0210, 31652.00
701.1750, 31783.00
702.3290, 32144.00
703.4830, 32069.00
704.6370, 32371.00
705.7910, 32432.00
706.9440, 32518.00
708.0970, 32851.00
709.2510, 32894.00
710.4030, 33233.00
711.5560, 33465.00
712.7090, 33674.00
713.8610, 33922.96
715.0140, 34138.21
716.1660, 34354.00
717.3180, 34582.00
718.4690, 34836.00
719.6210, 35055.00
720.7730, 35203.72
721.9240, 35387.29
723.0750, 35448.00
724.2260, 35678.00
725.3770, 35770.00
726.5270, 35928.00
727.6780, 36078.00
728.8280, 36132.00
729.9780, 36265.62
731.1280, 36513.00
732.2780, 36386.00
733.4280, 36230.00
734.5770, 36127.00
735.7260, 36351.00
736.8760, 36006.00
738.0250, 36080.00
739.1730, 36066.00
740.3220, 35877.00
741.4700, 35846.21
742.6190, 35399.00
743.7670, 35574.00
744.9150, 35117.00
746.0630, 34914.00
747.2100, 34435.00
748.3580, 34302.00
749.5050, 33959.00
750.6520, 33879.00
751.7990, 33558.00
752.9460, 33633.00
754.0930, 33558.00
755.2390, 33215.00
756.3860, 32997.00
757.5320, 33063.00
758.6780, 32739.00
759.8240, 32677.00
760.9690, 32433.00
762.1150, 32588.00
763.2600, 32694.00
764.4060, 32495.00
765.5510, 32532.00
766.6950, 32352.84
767.8400, 32548.14
768.9850, 32658.39
770.1290, 32688.14
771.2730, 32396.34
772.4170, 32519.77
773.5610, 32476.79
774.7050, 32426.98
775.8480, 32608.85
776.9920, 32363.81
778.1350, 32542.00
779.2780, 32551.25
780.4210, 32637.82
781.5640, 32556.95
782.7060, 32527.80
783.8490, 32506.00
784.9910, 32349.00
786.1330, 32262.00
787.2750, 32212.00
788.4170, 32203.00
789.5580, 32231.00
790.7000, 32114.00
791.8410, 32052.00
792.9820, 31954.00
794.1230, 31896.00
795.2640, 31794.99
796.4040, 31812.00
797.5450, 31656.00
798.6850, 31533.00
799.8250, 31586.00
800.9650, 31634.00
802.1050, 31070.15
803.2450, 31229.69
804.3840, 31304.21
805.5230, 31298.24
806.6630, 30970.68
807.8020, 31058.38
808.9400, 30979.71
810.0790, 30894.18
811.2170, 31040.35
812.3560, 30759.59
813.4940, 30902.08
814.6320, 30875.63
815.7700, 30697.00
816.9070, 30897.00
818.0450, 30778.76
819.1820, 30890.00
820.3190, 30782.00
821.4560, 30711.00
822.5930, 30751.10
823.7300, 30666.00
824.8670, 30421.00
826.0030, 30481.00
827.1390, 30194.00
828.2750, 30390.00
829.4110, 29999.00
830.5470, 30183.00
831.6820, 29998.00
832.8180, 30262.00
833.9530, 30094.00
835.0880, 30090.00
836.2230, 29997.00
837.3580, 30050.00
838.4920, 29958.52
839.6270, 29794.00
840.7610, 29944.00
841.8950, 29685.00
843.0290, 29917.00
844.1630, 29831.00
845.2960, 30143.00
846.4300, 30107.00
847.5630, 30128.00
848.6960, 29921.00
849.8290, 30219.00
850.9620, 30193.00
852.0940, 30230.00
853.2270, 30052.00
854.3590, 30091.00
855.4910, 30257.00
856.6230, 30306.00
857.7550, 30340.00
858.8870, 30440.00
860.0180, 30343.00
861.1500, 30485.00
862.2810, 30256.00
863.4120, 30369.00
864.5430, 30600.00
865.6730, 30672.00
866.8040, 30567.00
867.9340, 30617.00
869.0640, 30515.00
870.1940, 30660.00
871.3240, 30528.00
872.4540, 30586.00
873.5830, 30813.00
874.7130, 30739.00
875.8420, 30941.00
876.9710, 30787.00
878.1000, 30900.00
879.2290, 31102.00
880.3570, 30978.00
881.4860, 31077.00
882.6140, 31083.05
883.7420, 31092.00
884.8700, 31077.00
885.9980, 31292.00
887.1250, 31310.00
888.2530, 31141.00
889.3800, 31093.00
890.5070, 31428.00
891.6340, 31271.00
892.7610, 31318.00
893.8880, 31239.00
895.0140, 31318.00
896.1400, 31427.00
897.2670, 31458.00
898.3930, 31625.00
899.5180, 31599.00
900.6440, 31634.00
901.7700, 31751.00
902.8950, 31524.00
904.0200, 31562.00
905.1450, 31759.00
906.2700, 31839.00
907.3950, 31643.00
908.5190, 31952.00
909.6440, 32042.00
910.7680, 32110.00
911.8920, 31824.00
913.0160, 31946.00
914.1400, 32099.00
915.2630, 32046.00
916.3870, 32167.51
917.5100, 32104.46
918.6330, 32260.00
919.7560, 32061.00
920.8790, 32063.00
922.0010, 32247.00
923.1240, 32128.00
924.2460, 32264.00
925.3680, 32513.00
926.4900, 32188.00
927.6120, 32223.00
928.7340, 32607.00
929.8550, 32390.00
930.9760, 32765.00
932.0980, 32548.00
933.2190, 32370.00
934.3390, 32531.00
935.4600, 32612.00
936.5810, 32689.00
937.7010, 32687.00
938.8210, 32782.00
939.9410, 32765.00
941.0610, 32960.00
942.1810, 32822.00
943.3010, 32884.00
944.4200, 33077.00
945.5390, 32982.00
946.6580, 33107.00
947.7770, 33082.00
948.8960, 33029.00
950.0150, 33045.00
951.1330, 33118.00
952.2510, 33165.00
953.3690, 33345.00
954.4870, 33452.00
955.6050, 33513.23
956.7230, 33623.00
957.8400, 33650.00
958.9580, 33652.00
960.0750, 33736.00
961.1920, 33599.00
962.3090, 33678.00
963.4250, 33903.00
964.5420, 33829.00
965.6580, 33962.00
966.7740, 33802.00
967.8900, 34061.00
969.0060, 34318.00
970.1220, 34356.00
971.2380, 34288.00
972.3530, 34406.00
973.4680, 34320.00
974.5830, 34208.00
975.6980, 34581.00
976.8130, 34761.00
977.9280, 34745.00
979.0420, 35166.00
980.1560, 35092.00
981.2710, 35118.00
982.3850, 35282.00
983.4980, 35390.00
984.6120, 35387.00
985.7260, 35581.00
986.8390, 36019.00
987.9520, 35782.00
989.0650, 35816.00
990.1780, 36252.00
991.2910, 36148.00
992.4030, 36383.00
993.5160, 36353.00
994.6280, 36598.00
995.7400, 36719.00
996.8520, 36937.00
997.9640, 36734.00
999.0750, 36889.00
1000.187, 36901.00
1001.298, 36948.00
1002.409, 37106.00
1003.520, 37094.00
1004.631, 36949.00
1005.741, 37302.00
1006.852, 37257.00
1007.962, 37199.00
1009.072, 37509.00
1010.182, 37394.00
1011.292, 37571.00
1012.402, 37300.00
1013.511, 37746.00
1014.621, 37389.00
1015.730, 37339.00
1016.839, 37422.00
1017.948, 37366.00
1019.056, 37387.49
1020.165, 37329.00
1021.273, 37356.00
1022.382, 37298.00
1023.490, 37181.00
1024.598, 36961.00
1025.706, 37128.00
1026.813, 36831.00
1027.921, 36677.00
1029.028, 36867.00
1030.135, 36840.00
1031.242, 36860.00
1032.349, 36476.00
1033.456, 36444.00
1034.562, 36493.00
1035.668, 36262.00
1036.775, 36330.00
1037.881, 36211.00
1038.987, 36038.00
1040.092, 36099.00
1041.198, 36137.00
1042.303, 35725.00
1043.408, 35851.00
1044.514, 35637.00
1045.618, 35969.00
1046.723, 35820.11
1047.828, 35748.97
1048.932, 35659.00
1050.037, 35586.00
1051.141, 35381.00
1052.245, 35449.00
1053.349, 35215.00
1054.452, 35306.00
1055.556, 35269.00
1056.659, 35297.00
1057.762, 35295.00
1058.865, 34804.00
1059.968, 35010.00
1061.071, 35153.00
1062.174, 35420.00
1063.276, 34979.00
1064.378, 34870.00
1065.480, 34823.00
1066.582, 34696.00
1067.684, 34592.00
1068.786, 34531.00
1069.887, 34495.99
1070.988, 34653.00
1072.090, 34558.00
1073.191, 34469.00
1074.291, 34637.00
1075.392, 34350.00
1076.493, 34252.00
1077.593, 34285.00
1078.693, 34427.00
1079.793, 34145.00
1080.893, 33884.00
1081.993, 34093.00
1083.092, 34007.00
1084.192, 34045.00
1085.291, 33746.00
1086.390, 33860.00
1087.489, 33739.00
1088.588, 33738.00
1089.686, 33568.00
1090.785, 33455.00
1091.883, 33381.85
1092.981, 33178.00
1094.079, 33193.00
1095.177, 33124.16
1096.275, 33039.28
1097.373, 32917.00
1098.470, 33077.00
1099.567, 32756.00
1100.664, 32777.00
1101.761, 32571.00
1102.858, 32191.00
1103.954, 32531.00
1105.051, 32311.00
1106.147, 32132.00
1107.243, 31985.12
1108.339, 32129.43
1109.435, 32188.68
1110.531, 32167.44
1111.626, 31824.70
1112.722, 31897.12
1113.817, 31803.20
1114.912, 31702.45
1116.007, 31833.37
1117.101, 31537.44
1118.196, 31664.67
1119.290, 31623.02
1120.385, 31658.64
1121.479, 31526.88
1122.573, 31446.83
1123.666, 31534.31
1124.760, 31529.00
1125.853, 31378.01
1126.947, 31418.59
1128.040, 31116.86
1129.133, 31115.55
1130.226, 31243.86
1131.318, 31101.33
1132.411, 31225.00
1133.503, 31053.00
1134.596, 30738.00
1135.688, 30698.00
1136.780, 30743.00
1137.871, 30948.00
1138.963, 30815.00
1140.054, 30591.00
1141.146, 30498.00
1142.237, 30465.90
1143.328, 30787.00
1144.419, 30440.00
1145.509, 30672.00
1146.600, 30578.00
1147.690, 30428.00
1148.780, 30451.00
1149.870, 30406.00
1150.960, 30583.00
1152.050, 30500.00
1153.139, 30516.00
1154.229, 30581.00
1155.318, 30358.00
1156.407, 30475.75
1157.496, 30610.37
1158.585, 30491.29
1159.674, 30329.00
1160.762, 30207.00
1161.850, 30133.00
1162.939, 30146.58
1164.027, 30427.00
1165.114, 30160.00
1166.202, 30386.00
1167.290, 30170.00
1168.377, 29995.00
1169.464, 30427.00
1170.551, 30005.00
1171.638, 30208.00
1172.725, 30316.00
1173.812, 30282.00
1174.898, 29908.80
1175.984, 30110.87
1177.071, 30227.89
1178.157, 30264.41
1179.242, 29979.38
1180.328, 30109.57
1181.414, 30073.36
1182.499, 30030.32
1183.584, 30218.94
1184.669, 29980.68
1185.754, 30165.63
1186.839, 30181.64
1187.924, 30274.97
1189.008, 30200.86
1190.092, 30178.47
1191.177, 30385.00
1192.260, 30078.00
1193.344, 30153.00
1194.428, 30267.00
1195.512, 30237.00
1196.595, 30220.00
1197.678, 30346.00
1198.761, 30307.00
1199.844, 30345.00
1200.927, 30203.00
1202.009, 30329.00
1203.092, 30387.00
1204.174, 30193.00
1205.256, 30429.00
1206.338, 30278.76
1207.420, 30333.69
1208.502, 30292.00
1209.583, 30283.00
1210.665, 30321.60
1211.746, 30374.00
1212.827, 30315.00
1213.908, 30370.00
1214.988, 30232.00
1216.069, 30301.00
1217.149, 30101.00
1218.230, 30407.00
1219.310, 30370.00
1220.390, 30553.00
1221.470, 30543.00
1222.549, 30583.00
1223.629, 30586.00
1224.708, 30461.00
1225.787, 30225.00
1226.866, 30397.00
1227.945, 30471.00
1229.024, 30675.00
1230.103, 30254.00
1231.181, 30441.00
1232.259, 30362.00
1233.337, 30270.00
1234.415, 30417.00
1235.493, 30568.00
1236.571, 30447.00
1237.648, 30312.00
1238.726, 30449.00
1239.803, 30259.00
1240.880, 30365.00
1241.957, 30498.00
1243.034, 30356.00
1244.110, 30447.00
1245.187, 30559.00
1246.263, 30403.00
1247.339, 30503.00
1248.415, 30475.00
1249.491, 30355.00
1250.566, 30204.00
1251.642, 30401.00
1252.717, 30413.00
1253.793, 30042.00
1254.868, 30419.00
1255.943, 30382.00
1257.017, 30247.00
1258.092, 30368.00
1259.166, 30264.00
1260.241, 30166.00
1261.315, 30313.00
1262.389, 30569.00
1263.462, 30513.00
1264.536, 30555.62
1265.610, 30477.00
1266.683, 30461.00
1267.756, 30303.00
1268.829, 30317.00
1269.902, 30532.00
1270.975, 31012.00
1272.048, 30437.00
1273.120, 30621.00
1274.192, 30352.00
1275.264, 30409.00
1276.336, 30392.00
1277.408, 30261.00
1278.480, 30496.00
1279.551, 30158.00
1280.623, 30312.00
1281.694, 30443.00
1282.765, 30417.00
1283.836, 30576.00
1284.907, 30429.00
1285.977, 30457.00
1287.048, 30582.00
1288.118, 30463.00
1289.188, 30443.00
1290.258, 30404.00
1291.328, 30566.00
1292.398, 30336.00
1293.467, 30553.00
1294.537, 30380.00
1295.606, 30397.00
1296.675, 30334.00
1297.744, 30335.00
1298.813, 30811.00
1299.882, 30566.00
1300.950, 30342.00
1302.018, 30685.00
1303.086, 30410.00
1304.155, 30498.00
1305.222, 30543.00
1306.290, 30589.00
1307.358, 30604.58
1308.425, 30547.00
1309.492, 30576.00
1310.559, 30545.00
1311.626, 30476.00
1312.693, 30652.00
1313.760, 30395.00
1314.826, 30669.00
1315.893, 30541.00
1316.959, 30602.00
1318.025, 30580.00
1319.091, 30662.00
1320.157, 30676.00
1321.222, 30667.00
1322.288, 30582.00
