##NAMES=Magnesiochromite
##RRUFFID=R050399
##IDEAL CHEMISTRY=MgCr^3+^_2_O_4_
##LOCALITY=Troodos Mountains, Cyprus
##OWNER=RRUFF
##SOURCE=Andy McCarthy
##DESCRIPTION=Black grains
##STATUS=The identification of this mineral has been confirmed by X-ray diffraction and chemical analysis
##URL=rruff.info/R050399
##MEASURED CHEMISTRY=(Mg_0.68_Fe^2+^_0.32_)_Σ=1_(Cr_1.29_Al_0.64_Fe^3+^_0.07_)_Σ=2_O__4
##PIN_ID=M01485
##ORIENTATION=Laser parallel to a* (1 0 0). Fiducial mark perpendicular to laser is parallel to c [0 0 1]
127.7920, 29270.00
129.0260, 29841.00
130.2590, 30104.00
131.4920, 29780.00
132.7250, 29981.00
133.9580, 30217.00
135.1910, 30350.00
136.4230, 30992.00
137.6560, 31811.00
138.8880, 31941.00
140.1200, 31792.00
141.3520, 31422.00
142.5830, 31707.00
143.8150, 31551.00
145.0460, 31866.00
146.2770, 31891.00
147.5080, 31735.00
148.7390, 31705.00
149.9700, 31933.00
151.2000, 32172.00
152.4310, 32077.54
153.6610, 32195.00
154.8910, 31917.00
156.1210, 31783.00
157.3500, 31545.00
158.5800, 31772.00
159.8090, 31970.00
161.0380, 32160.00
162.2670, 32222.00
163.4960, 32219.71
164.7240, 31966.70
165.9530, 31969.00
167.1810, 31524.00
168.4090, 31159.00
169.6370, 31528.00
170.8650, 31095.00
172.0920, 31314.00
173.3200, 31182.00
174.5470, 31024.00
175.7740, 31203.00
177.0010, 30986.72
178.2280, 31177.00
179.4540, 30772.00
180.6810, 30597.00
181.9070, 30485.00
183.1330, 30266.77
184.3590, 30411.00
185.5850, 30228.00
186.8100, 29993.00
188.0350, 30411.00
189.2610, 31022.00
190.4860, 31026.00
191.7110, 31327.00
192.9350, 31759.00
194.1600, 31754.00
195.3840, 31749.00
196.6080, 32031.00
197.8320, 31956.00
199.0560, 31638.00
200.2800, 31491.00
201.5030, 31241.71
202.7270, 31144.00
203.9500, 30680.00
205.1730, 30415.00
206.3950, 30037.00
207.6180, 29807.80
208.8410, 29584.76
210.0630, 29449.00
211.2850, 29280.00
212.5070, 29192.00
213.7290, 29192.00
214.9500, 29091.00
216.1720, 29353.00
217.3930, 28984.29
218.6140, 29255.00
219.8350, 28503.00
221.0560, 28820.00
222.2770, 28894.00
223.4970, 28552.00
224.7170, 28459.00
225.9370, 28611.00
227.1570, 28431.00
228.3770, 28359.50
229.5970, 27992.00
230.8160, 28094.00
232.0350, 27794.00
233.2540, 27683.00
234.4730, 27621.00
235.6920, 27399.00
236.9110, 27573.00
238.1290, 27679.00
239.3470, 27452.00
240.5650, 27579.00
241.7830, 27494.00
243.0010, 27327.00
244.2180, 27299.00
245.4360, 27140.00
246.6530, 27094.00
247.8700, 26972.00
249.0870, 27262.00
250.3040, 27029.00
251.5200, 26884.00
252.7370, 26658.00
253.9530, 26962.00
255.1690, 26557.00
256.3850, 26796.00
257.6000, 26600.59
258.8160, 26673.00
260.0310, 26394.00
261.2460, 26404.00
262.4610, 26588.00
263.6760, 26420.00
264.8910, 26484.00
266.1050, 26471.00
267.3200, 26116.54
268.5340, 26360.81
269.7480, 26482.68
270.9620, 26488.75
272.1750, 26032.17
273.3890, 26173.01
274.6020, 26074.45
275.8150, 25966.06
277.0280, 26191.02
278.2410, 25939.00
279.4540, 25790.00
280.6660, 26049.00
281.8790, 25771.27
283.0910, 26015.59
284.3030, 26137.52
285.5140, 26143.67
286.7260, 25687.12
287.9380, 25828.02
289.1490, 25729.52
290.3600, 25621.19
291.5710, 25846.21
292.7820, 25456.98
293.9920, 25658.00
295.2030, 25442.00
296.4130, 25510.00
297.6230, 25591.00
298.8330, 25469.00
300.0430, 25261.00
301.2520, 25423.00
302.4620, 25112.00
303.6710, 25156.00
304.8800, 24972.00
306.0890, 25156.00
307.2980, 25086.00
308.5070, 24906.00
309.7150, 25060.00
310.9230, 24590.00
312.1310, 25050.00
313.3390, 25040.00
314.5470, 24922.00
315.7550, 25177.00
316.9620, 25049.00
318.1690, 25093.83
319.3760, 24997.00
320.5830, 25151.00
321.7900, 25135.00
322.9960, 25281.00
324.2030, 25054.00
325.4090, 24931.00
326.6150, 25006.00
327.8210, 24827.00
329.0270, 24673.00
330.2320, 24909.00
331.4380, 24800.00
332.6430, 24875.00
333.8480, 24791.00
335.0530, 25015.00
336.2580, 24923.09
337.4620, 24879.00
338.6670, 24748.90
339.8710, 25004.86
341.0750, 25138.44
342.2790, 25156.20
343.4820, 24711.32
344.6860, 24863.85
345.8890, 25084.00
347.0920, 24992.00
348.2960, 24871.00
349.4980, 24614.00
350.7010, 24874.00
351.9040, 24871.00
353.1060, 25012.00
354.3080, 24859.00
355.5100, 24815.00
356.7120, 24965.00
357.9140, 25108.00
359.1150, 24870.00
360.3170, 25021.00
361.5180, 24968.00
362.7190, 24857.00
363.9200, 25118.00
365.1200, 25057.00
366.3210, 24817.00
367.5210, 25342.00
368.7210, 25161.00
369.9210, 24942.00
371.1210, 25081.00
372.3210, 25105.00
373.5200, 25293.00
374.7200, 25457.00
375.9190, 25451.00
377.1180, 25523.93
378.3170, 25385.00
379.5150, 25458.00
380.7140, 25490.00
381.9120, 25360.00
383.1110, 25464.94
384.3090, 25676.00
385.5060, 25522.00
386.7040, 25693.00
387.9020, 25681.00
389.0990, 25747.00
390.2960, 25685.00
391.4930, 25653.00
392.6900, 25768.00
393.8860, 25943.00
395.0830, 26014.00
396.2790, 26162.00
397.4750, 26175.00
398.6710, 26241.00
399.8670, 26215.00
401.0630, 26119.00
402.2580, 26181.00
403.4540, 26050.00
404.6490, 26252.00
405.8440, 26506.00
407.0390, 26518.00
408.2330, 26632.00
409.4280, 26596.00
410.6220, 26877.00
411.8160, 26714.00
413.0100, 26845.00
414.2040, 27210.00
415.3980, 26868.00
416.5910, 26938.00
417.7850, 27140.00
418.9780, 27110.00
420.1710, 27319.00
421.3640, 27233.00
422.5560, 27189.39
423.7490, 27578.30
424.9410, 27844.73
426.1330, 27995.36
427.3250, 27683.31
428.5170, 27968.71
429.7090, 27589.00
430.9000, 27983.00
432.0910, 27925.00
433.2820, 28175.00
434.4730, 28294.00
435.6640, 28179.00
436.8550, 28301.57
438.0450, 28520.00
439.2360, 28189.00
440.4260, 28424.00
441.6160, 28178.00
442.8060, 28515.00
443.9950, 28712.00
445.1850, 28751.00
446.3740, 29020.00
447.5630, 28968.00
448.7520, 28844.00
449.9410, 28979.24
451.1300, 29161.00
452.3180, 29077.00
453.5060, 29081.00
454.6950, 29229.00
455.8830, 29210.00
457.0700, 29319.00
458.2580, 29556.00
459.4450, 29770.00
460.6330, 29882.00
461.8200, 30190.00
463.0070, 30226.00
464.1940, 30521.00
465.3800, 30302.00
466.5670, 30408.00
467.7530, 30147.00
468.9390, 30195.00
470.1250, 30206.00
471.3110, 30255.00
472.4970, 30367.00
473.6820, 30844.00
474.8680, 30972.00
476.0530, 31224.00
477.2380, 31433.24
478.4230, 31402.00
479.6070, 31701.00
480.7920, 31841.00
481.9760, 31909.00
483.1600, 32315.00
484.3440, 32540.00
485.5280, 32784.00
486.7120, 33271.00
487.8950, 33406.00
489.0780, 33652.00
490.2620, 33445.00
491.4450, 33947.00
492.6270, 33896.00
493.8100, 33467.00
494.9920, 33462.00
496.1750, 34128.00
497.3570, 33896.00
498.5390, 33907.00
499.7210, 34323.00
500.9020, 34323.00
502.0840, 34355.00
503.2650, 34581.00
504.4460, 34391.00
505.6270, 34651.00
506.8080, 34478.00
507.9890, 34748.00
509.1690, 35039.00
510.3500, 34909.00
511.5300, 35361.00
512.7100, 35532.00
513.8900, 36232.00
515.0690, 36567.00
516.2490, 36862.00
517.4280, 36960.00
518.6070, 37353.00
519.7860, 37600.44
520.9650, 38140.00
522.1440, 38385.00
523.3220, 38574.00
524.5010, 39309.00
525.6790, 39178.00
526.8570, 39526.00
528.0350, 39740.00
529.2130, 40180.00
530.3900, 40528.00
531.5670, 40818.00
532.7450, 41085.00
533.9220, 41330.00
535.0980, 41455.00
536.2750, 42111.00
537.4520, 42242.00
538.6280, 43160.00
539.8040, 43921.00
540.9800, 44409.00
542.1560, 45022.00
543.3320, 45995.00
544.5070, 46656.00
545.6830, 47412.00
546.8580, 47748.00
548.0330, 48379.00
549.2080, 49599.00
550.3830, 49892.00
551.5570, 50984.00
552.7310, 51529.00
553.9060, 52151.00
555.0800, 52715.00
556.2540, 53459.00
557.4270, 53626.00
558.6010, 53553.00
559.7740, 54025.00
560.9470, 54065.00
562.1210, 54457.00
563.2930, 54401.00
564.4660, 53807.00
565.6390, 53449.00
566.8110, 53693.00
567.9830, 54154.00
569.1550, 54714.00
570.3270, 54762.00
571.4990, 55584.00
572.6710, 55600.00
573.8420, 55479.00
575.0130, 55226.00
576.1840, 54324.00
577.3550, 53621.00
578.5260, 52511.00
579.6970, 51685.10
580.8670, 51366.00
582.0370, 49763.00
583.2070, 48984.00
584.3770, 47884.00
585.5470, 46418.00
586.7170, 45554.00
587.8860, 44596.00
589.0550, 43740.00
590.2240, 43045.00
591.3930, 42427.00
592.5620, 42088.00
593.7310, 41663.00
594.8990, 41031.00
596.0670, 40799.00
597.2350, 40828.00
598.4030, 40302.00
599.5710, 39902.00
600.7390, 39936.00
601.9060, 39665.00
603.0740, 39773.00
604.2410, 39395.51
605.4080, 39374.00
606.5740, 38863.00
607.7410, 38303.00
608.9080, 38388.00
610.0740, 37714.00
611.2400, 37406.00
612.4060, 37120.00
613.5720, 37072.00
614.7370, 36406.00
615.9030, 36162.00
617.0680, 35877.00
618.2330, 35418.00
619.3980, 35053.00
620.5630, 34410.00
621.7280, 33960.00
622.8920, 33793.00
624.0570, 33089.00
625.2210, 32878.00
626.3850, 32840.00
627.5490, 32191.00
628.7120, 32128.00
629.8760, 31873.00
631.0390, 31673.53
632.2020, 31609.00
633.3650, 31778.00
634.5280, 31687.00
635.6910, 31794.37
636.8530, 32112.00
638.0160, 32186.00
639.1780, 32497.00
640.3400, 33203.00
641.5020, 33525.00
642.6640, 34202.47
643.8250, 34874.00
644.9870, 35547.00
646.1480, 35961.00
647.3090, 36650.00
648.4700, 37091.00
649.6300, 37751.00
650.7910, 37832.00
651.9510, 38116.00
653.1120, 38438.00
654.2720, 38559.08
655.4320, 38983.00
656.5910, 38855.00
657.7510, 39259.00
658.9100, 39279.00
660.0690, 39494.00
661.2290, 39294.00
662.3880, 39159.00
663.5460, 38958.00
664.7050, 38973.85
665.8630, 39130.00
667.0220, 39235.00
668.1800, 39304.00
669.3380, 39537.40
670.4950, 39692.54
671.6530, 40025.00
672.8100, 40200.00
673.9680, 40545.00
675.1250, 40976.00
676.2820, 41443.00
677.4390, 41849.00
678.5950, 42291.00
679.7520, 42571.00
680.9080, 43368.00
682.0640, 43853.00
683.2200, 44682.00
684.3760, 45396.00
685.5320, 45960.00
686.6870, 46926.00
687.8420, 47409.00
688.9980, 48280.00
690.1530, 48994.00
691.3070, 49706.00
692.4620, 50482.00
693.6170, 51463.00
694.7710, 52252.00
695.9250, 52897.00
697.0790, 53486.00
698.2330, 53779.00
699.3870, 53814.00
700.5400, 54208.00
701.6940, 54179.00
702.8470, 54246.00
704.0000, 53637.00
705.1530, 53406.00
706.3050, 52800.00
707.4580, 52465.00
708.6100, 51641.00
709.7630, 50605.00
710.9150, 49652.00
712.0660, 48790.00
713.2180, 47769.00
714.3700, 46771.00
715.5210, 45716.00
716.6720, 44698.00
717.8240, 43844.00
718.9740, 43084.00
720.1250, 41746.00
721.2760, 40777.00
722.4260, 40263.00
723.5770, 38918.00
724.7270, 38305.00
725.8770, 37407.01
727.0260, 36607.34
728.1760, 35783.00
729.3250, 35266.00
730.4750, 34634.00
731.6240, 34028.00
732.7730, 33479.00
733.9220, 33164.00
735.0700, 32606.00
736.2190, 32157.00
737.3670, 31563.00
738.5150, 31315.00
739.6630, 31053.00
740.8110, 30527.00
741.9590, 30037.00
743.1060, 30035.00
744.2540, 29703.00
745.4010, 29138.00
746.5480, 29297.00
747.6950, 28914.00
748.8410, 28736.00
749.9880, 28141.00
751.1340, 28158.00
752.2800, 27717.00
753.4260, 27765.00
754.5720, 27599.00
755.7180, 27170.00
756.8640, 27254.00
758.0090, 26992.00
759.1540, 27075.00
760.2990, 26795.00
761.4440, 26393.00
762.5890, 26198.00
763.7340, 26131.00
764.8780, 26006.00
766.0220, 25860.71
767.1660, 25630.00
768.3100, 25561.00
769.4540, 25638.00
770.5980, 25438.00
771.7410, 25447.00
772.8840, 25149.00
774.0280, 25236.00
775.1700, 25064.00
776.3130, 25088.00
777.4560, 24956.00
778.5980, 24751.00
779.7410, 24635.00
780.8830, 24667.00
782.0250, 24643.00
783.1670, 24517.00
784.3080, 24433.00
785.4500, 24407.79
786.5910, 24399.00
787.7320, 24361.00
788.8730, 24215.00
790.0140, 24214.00
791.1550, 24407.00
792.2950, 24138.00
793.4360, 24376.00
794.5760, 24125.00
795.7160, 24666.00
796.8560, 24078.00
797.9960, 24098.00
799.1350, 24077.00
800.2750, 23801.00
801.4140, 23869.00
802.5530, 23811.00
803.6920, 23763.00
804.8310, 23631.00
805.9690, 23725.00
807.1080, 23529.00
808.2460, 23819.00
809.3840, 23513.00
810.5220, 23705.00
811.6600, 23602.00
812.7970, 23558.00
813.9350, 23540.00
815.0720, 23306.00
816.2090, 23660.00
817.3460, 23311.00
818.4830, 23428.00
819.6200, 23334.00
820.7560, 23324.00
821.8930, 23279.00
823.0290, 23094.00
824.1650, 23310.00
825.3010, 23086.00
826.4360, 23084.00
827.5720, 23223.00
828.7070, 23323.00
829.8420, 23208.00
830.9770, 23285.93
832.1120, 23173.89
833.2470, 23216.00
834.3820, 23022.00
835.5160, 22661.14
836.6500, 22949.75
837.7840, 23115.98
838.9180, 23166.39
840.0520, 22754.13
841.1860, 22939.32
842.3190, 22885.07
843.4520, 22821.00
844.5850, 23090.27
845.7180, 22745.30
846.8510, 23009.28
847.9840, 23030.18
849.1160, 23162.32
850.2490, 23053.56
851.3810, 22948.00
852.5130, 22850.00
853.6450, 22993.00
854.7760, 22806.00
855.9080, 22714.00
857.0390, 22724.00
858.1700, 22664.12
859.3010, 22552.00
860.4320, 22754.00
861.5630, 22600.00
862.6930, 22765.00
863.8240, 22484.00
864.9540, 22513.00
866.0840, 22712.00
867.2140, 22790.00
868.3440, 22817.00
869.4730, 22520.00
870.6030, 22596.00
871.7320, 23056.00
872.8610, 22508.00
873.9900, 22595.00
875.1190, 22623.00
876.2470, 22326.00
877.3760, 22570.00
878.5040, 22750.00
879.6320, 22528.00
880.7600, 22613.00
881.8880, 22553.00
883.0150, 22602.00
884.1430, 22624.00
885.2700, 22387.00
886.3970, 22559.00
887.5240, 22661.00
888.6510, 22432.00
889.7780, 22451.00
890.9040, 22424.00
892.0310, 22416.00
893.1570, 22387.00
894.2830, 22556.00
895.4090, 22371.00
896.5350, 22429.00
897.6600, 22377.00
898.7860, 22291.00
899.9110, 22226.00
901.0360, 22374.00
902.1610, 22399.00
903.2860, 22534.00
904.4100, 22490.00
905.5350, 22419.00
906.6590, 22455.00
907.7830, 22255.00
908.9070, 22315.00
910.0310, 22452.00
911.1540, 22245.00
912.2780, 22567.00
913.4010, 22288.00
914.5240, 22483.00
915.6470, 22134.00
916.7700, 22231.00
917.8930, 22208.00
919.0150, 22486.00
920.1380, 22489.00
921.2600, 22594.00
922.3820, 22275.00
923.5040, 22378.00
924.6260, 22250.00
925.7470, 22507.00
926.8690, 22271.00
927.9900, 22343.00
929.1110, 22351.00
930.2320, 22116.00
931.3530, 22520.00
932.4730, 22722.00
933.5940, 22563.00
934.7140, 22394.00
935.8340, 22427.00
936.9540, 22391.00
938.0740, 22265.00
939.1930, 22314.00
940.3130, 22297.00
941.4320, 22262.00
942.5510, 22205.00
943.6700, 22265.00
944.7890, 22280.00
945.9080, 22237.00
947.0260, 22324.00
948.1450, 22334.24
949.2630, 22296.00
950.3810, 22415.00
951.4990, 22374.00
952.6170, 22384.00
953.7340, 22302.00
954.8520, 22195.00
955.9690, 22331.00
957.0860, 22394.00
958.2030, 22261.00
959.3200, 22170.00
960.4360, 22163.00
961.5530, 22254.50
962.6690, 22294.89
963.7850, 22489.00
964.9010, 22418.00
966.0170, 22334.00
967.1330, 22168.00
968.2480, 22093.00
969.3630, 22373.00
970.4790, 22491.00
971.5940, 22102.00
972.7080, 22328.00
973.8230, 22241.71
974.9380, 22489.00
976.0520, 22219.00
977.1660, 22294.00
978.2800, 22194.00
979.3940, 22388.00
980.5080, 22270.00
981.6220, 22360.52
982.7350, 22339.37
983.8480, 22461.00
984.9610, 22289.00
986.0740, 22072.79
987.1870, 22366.11
988.3000, 22537.05
989.4120, 22592.16
990.5250, 22184.61
991.6370, 22374.49
992.7490, 22324.95
993.8610, 22265.59
994.9720, 22539.55
996.0840, 22199.28
997.1950, 22467.96
998.3060, 22493.55
999.4170, 22630.39
1000.528, 22526.33
1001.639, 22496.67
1002.750, 22708.01
1003.860, 22785.89
1004.970, 22654.08
1006.080, 22515.00
1007.190, 22328.00
1008.300, 22709.00
1009.410, 22515.76
1010.519, 22730.00
1011.628, 22501.00
1012.738, 22484.00
1013.846, 22651.00
1014.955, 22364.00
1016.064, 22394.00
1017.172, 22623.00
1018.281, 22447.66
1019.389, 22745.00
1020.497, 22351.00
1021.605, 22441.00
1022.713, 22289.41
1023.820, 22517.00
1024.928, 22465.00
1026.035, 22455.00
1027.142, 22409.00
1028.249, 22431.00
1029.356, 22439.00
1030.462, 22301.00
1031.569, 22584.00
1032.675, 22352.00
1033.781, 22614.00
1034.887, 22355.52
1035.993, 22653.09
1037.098, 22828.26
1038.204, 22887.63
1039.309, 22484.31
1040.415, 22678.46
1041.520, 22633.16
1042.624, 22578.03
1043.729, 22856.24
1044.834, 22890.00
1045.938, 22664.00
1047.042, 22707.00
1048.146, 22717.00
1049.250, 22602.00
1050.354, 22728.00
1051.458, 22612.00
1052.561, 22675.00
1053.664, 22805.00
1054.767, 22717.00
1055.870, 22705.00
1056.973, 22796.54
1058.076, 22844.00
1059.178, 22928.96
1060.281, 22927.00
1061.383, 22972.00
1062.485, 23013.98
1063.587, 23103.00
1064.688, 23056.00
1065.790, 23014.54
1066.891, 22965.00
1067.993, 22979.69
1069.094, 23190.00
1070.195, 23003.00
1071.295, 23114.00
1072.396, 23094.73
1073.496, 23033.20
1074.597, 23076.00
1075.697, 22963.00
1076.797, 23197.00
1077.897, 23172.00
1078.996, 23212.00
1080.096, 23212.00
1081.195, 23220.00
1082.294, 23156.00
1083.393, 23218.29
1084.492, 23331.00
1085.591, 23264.00
1086.689, 23200.00
1087.788, 23118.00
1088.886, 23379.00
1089.984, 23516.00
1091.082, 23742.00
1092.180, 23674.08
1093.277, 23904.00
1094.375, 23537.00
1095.472, 23354.00
1096.569, 23423.00
1097.666, 23480.00
1098.763, 23484.00
1099.860, 23594.00
1100.956, 23471.00
1102.053, 23429.00
1103.149, 23780.00
1104.245, 23575.00
1105.341, 23622.00
1106.436, 23545.00
1107.532, 23704.00
1108.627, 23700.00
1109.723, 23588.00
1110.818, 23641.00
1111.913, 23915.00
1113.007, 23548.00
1114.102, 23946.00
1115.197, 23780.00
1116.291, 23926.00
1117.385, 23880.00
1118.479, 23956.00
1119.573, 24060.00
1120.666, 24040.00
1121.760, 24142.00
1122.853, 23979.00
1123.947, 23971.00
1125.040, 24179.00
1126.132, 24225.00
1127.225, 24057.00
1128.318, 23879.00
1129.410, 23957.91
1130.502, 23916.02
1131.595, 24059.00
1132.687, 24017.00
1133.778, 24127.00
1134.870, 24110.00
1135.961, 24411.00
1137.053, 24093.00
1138.144, 24078.00
1139.235, 24205.00
1140.326, 23984.00
1141.416, 23836.00
1142.507, 23951.00
1143.597, 24108.00
1144.688, 24013.00
1145.778, 24055.00
1146.868, 24344.00
1147.957, 24189.08
1149.047, 23949.00
1150.136, 24151.00
1151.226, 24019.00
1152.315, 24094.00
1153.404, 23971.00
1154.493, 23945.00
1155.581, 24056.00
1156.670, 24178.00
1157.758, 24131.00
1158.846, 24118.00
1159.934, 24071.00
1161.022, 24101.53
1162.110, 23977.45
1163.198, 23842.98
1164.285, 24109.77
1165.372, 24254.18
1166.459, 24282.77
1167.546, 23848.69
1168.633, 24012.05
1169.720, 23935.99
1170.806, 23850.12
1171.892, 24097.59
1172.979, 23730.80
1174.065, 23972.98
1175.150, 23972.09
1176.236, 24082.44
1177.322, 23919.00
1178.407, 23879.00
1179.492, 23942.00
1180.577, 23842.00
1181.662, 24116.00
1182.747, 23820.00
1183.832, 24079.00
1184.916, 23852.00
1186.000, 23970.00
1187.084, 23969.00
1188.168, 23773.00
1189.252, 23673.00
1190.336, 23719.00
1191.419, 23775.00
1192.503, 23523.00
1193.586, 23791.00
1194.669, 23557.00
1195.752, 23461.00
1196.835, 23812.00
1197.917, 23515.00
1199.000, 23802.00
1200.082, 23633.00
1201.164, 23745.00
1202.246, 23720.00
1203.328, 23676.00
1204.409, 23817.00
1205.491, 23751.00
1206.572, 23646.72
1207.653, 23485.00
1208.734, 23452.00
1209.815, 23715.00
1210.896, 23879.00
1211.976, 23863.00
1213.057, 23576.00
1214.137, 23437.00
1215.217, 23466.18
1216.297, 23808.00
1217.377, 23544.00
1218.456, 23560.00
1219.536, 23620.00
1220.615, 23417.00
1221.694, 23400.00
1222.773, 23454.00
1223.852, 23743.00
1224.931, 23546.00
1226.009, 23555.00
1227.088, 23534.00
1228.166, 23443.00
1229.244, 23554.00
1230.322, 23472.00
1231.400, 23735.00
1232.477, 23588.00
1233.555, 23406.00
1234.632, 23622.00
1235.709, 23519.00
1236.786, 23446.00
1237.863, 23308.00
1238.939, 23269.00
1240.016, 23337.00
1241.092, 23276.87
1242.168, 23338.00
1243.245, 23327.00
1244.320, 23355.00
1245.396, 23447.00
1246.472, 23573.00
1247.547, 23488.00
1248.622, 23671.00
1249.697, 23487.00
1250.772, 23520.00
1251.847, 23419.00
1252.922, 23425.00
1253.996, 23322.00
1255.071, 23472.00
1256.145, 23788.00
1257.219, 23789.00
1258.293, 23612.00
1259.366, 23592.00
1260.440, 23432.00
1261.513, 23371.00
1262.587, 23502.00
1263.660, 23249.00
1264.733, 23474.00
1265.805, 23613.00
1266.878, 23286.00
1267.951, 23315.00
1269.023, 23250.00
1270.095, 23440.00
1271.167, 23316.00
1272.239, 23239.00
1273.311, 23393.00
1274.382, 23343.00
1275.454, 23415.00
1276.525, 23394.00
1277.596, 23339.00
1278.667, 23392.46
1279.738, 23370.00
1280.808, 23388.00
1281.879, 23449.00
1282.949, 23358.00
1284.019, 23403.22
1285.089, 23433.00
1286.159, 23411.00
1287.229, 23425.00
1288.298, 23441.00
1289.368, 23595.00
1290.437, 23528.00
1291.506, 23781.00
1292.575, 23452.00
1293.644, 23707.00
1294.712, 23491.00
1295.781, 23123.00
1296.849, 23336.00
1297.917, 23554.00
1298.985, 23352.00
1300.053, 23340.00
1301.121, 23646.00
1302.188, 23415.00
1303.255, 23593.00
1304.323, 23459.00
