##NAMES=Magnetite
##RRUFFID=R060222
##IDEAL CHEMISTRY=Fe^2+^Fe^3+^_2_O_4_
##LOCALITY=Cerro Hua√±aquino, Potosi Department, Bolivia
##OWNER=RRUFF
##SOURCE=Rock Currier
##DESCRIPTION=Black octahedra, the surface is hematite and the interior is magnetite
##STATUS=The identification of this mineral has been confirmed by X-ray diffraction and chemical analysis
##URL=rruff.info/R060222
##MEASURED CHEMISTRY=(Fe^2+^_0.95_Mg_0.05_)(Fe^3+^_0.99_Al_0.01_)_2_O_4_
##PIN_ID=L01600
##ORIENTATION=Laser parallel to a* (1 0 0). Fiducial mark perpendicular to laser is parallel to b [0 1 0]
131.4920, 29421.00
132.7250, 29289.00
133.9580, 29372.00
135.1910, 29196.00
136.4230, 29416.00
137.6560, 29302.01
138.8880, 29194.02
140.1200, 29397.00
141.3520, 28906.00
142.5830, 29316.00
143.8150, 29206.00
145.0460, 29158.00
146.2770, 29537.00
147.5080, 29051.00
148.7390, 28318.00
149.9700, 28360.00
151.2000, 28270.00
152.4310, 28191.00
153.6610, 28815.00
154.8910, 28423.00
156.1210, 28244.00
157.3500, 27584.00
158.5800, 27637.00
159.8090, 27867.00
161.0380, 27692.00
162.2670, 28418.00
163.4960, 29375.00
164.7240, 29270.00
165.9530, 28398.00
167.1810, 27497.00
168.4090, 27304.00
169.6370, 27506.00
170.8650, 27231.00
172.0920, 27073.00
173.3200, 27251.00
174.5470, 27127.00
175.7740, 27453.00
177.0010, 27623.00
178.2280, 27812.00
179.4540, 27396.00
180.6810, 27017.00
181.9070, 27111.00
183.1330, 27084.00
184.3590, 27296.00
185.5850, 27151.00
186.8100, 27249.40
188.0350, 26932.00
189.2610, 27235.00
190.4860, 27223.00
191.7110, 27046.00
192.9350, 27021.00
194.1600, 27201.00
195.3840, 27032.00
196.6080, 27572.00
197.8320, 27748.00
199.0560, 27250.00
200.2800, 27124.00
201.5030, 26864.00
202.7270, 26911.00
203.9500, 26702.00
205.1730, 26452.00
206.3950, 26451.00
207.6180, 26521.00
208.8410, 26456.00
210.0630, 26398.00
211.2850, 26238.00
212.5070, 26303.00
213.7290, 26147.03
214.9500, 26468.00
216.1720, 26206.00
217.3930, 25987.00
218.6140, 26588.00
219.8350, 26318.00
221.0560, 26098.00
222.2770, 26342.00
223.4970, 26280.00
224.7170, 26185.00
225.9370, 26333.00
227.1570, 25992.00
228.3770, 26192.00
229.5970, 25973.00
230.8160, 25772.00
232.0350, 26036.00
233.2540, 25595.00
234.4730, 25496.00
235.6920, 25630.00
236.9110, 25682.00
238.1290, 25739.00
239.3470, 25629.00
240.5650, 25690.00
241.7830, 25728.00
243.0010, 25589.00
244.2180, 25633.00
245.4360, 25576.00
246.6530, 25734.00
247.8700, 25685.00
249.0870, 25871.00
250.3040, 26023.65
251.5200, 26410.00
252.7370, 26481.00
253.9530, 26368.23
255.1690, 26512.92
256.3850, 26396.38
257.6000, 26023.48
258.8160, 25619.00
260.0310, 25642.00
261.2460, 25707.00
262.4610, 25574.64
263.6760, 25705.00
264.8910, 25518.00
266.1050, 25548.00
267.3200, 25550.00
268.5340, 25668.00
269.7480, 25831.00
270.9620, 26255.00
272.1750, 26278.00
273.3890, 25612.00
274.6020, 25834.00
275.8150, 25520.00
277.0280, 25702.00
278.2410, 25622.00
279.4540, 25606.00
280.6660, 25698.00
281.8790, 25679.00
283.0910, 25781.00
284.3030, 25949.00
285.5140, 26030.00
286.7260, 26066.00
287.9380, 26077.00
289.1490, 26048.00
290.3600, 26005.00
291.5710, 26325.00
292.7820, 26225.00
293.9920, 26303.00
295.2030, 26210.00
296.4130, 26124.00
297.6230, 25863.28
298.8330, 26016.84
300.0430, 26087.38
301.2520, 26079.39
302.4620, 25757.55
303.6710, 25945.36
304.8800, 25856.79
306.0890, 25761.55
307.2980, 25892.42
308.5070, 25606.65
309.7150, 25733.97
310.9230, 25696.41
312.1310, 25904.00
313.3390, 25879.00
314.5470, 25871.00
315.7550, 25809.00
316.9620, 26099.00
318.1690, 26024.18
319.3760, 25960.24
320.5830, 25984.00
321.7900, 25849.00
322.9960, 25575.00
324.2030, 25810.00
325.4090, 25642.00
326.6150, 25746.00
327.8210, 25725.00
329.0270, 25821.00
330.2320, 25800.27
331.4380, 25775.00
332.6430, 25740.00
333.8480, 25716.00
335.0530, 25638.00
336.2580, 25609.00
337.4620, 25732.00
338.6670, 25775.00
339.8710, 25575.00
341.0750, 25609.28
342.2790, 25521.00
343.4820, 25515.00
344.6860, 25560.00
345.8890, 25524.01
347.0920, 25520.00
348.2960, 25518.00
349.4980, 25487.00
350.7010, 25440.00
351.9040, 25449.15
353.1060, 25445.64
354.3080, 25464.00
355.5100, 25487.00
356.7120, 25534.00
357.9140, 25571.00
359.1150, 25586.00
360.3170, 25602.44
361.5180, 25613.00
362.7190, 25613.00
363.9200, 25642.00
365.1200, 25662.00
366.3210, 25597.00
367.5210, 25676.00
368.7210, 25644.00
369.9210, 25779.00
371.1210, 25738.00
372.3210, 25613.00
373.5200, 25506.00
374.7200, 25512.76
375.9190, 25481.77
377.1180, 25514.00
378.3170, 25581.00
379.5150, 25580.71
380.7140, 25726.00
381.9120, 25672.00
383.1110, 25827.00
384.3090, 25769.00
385.5060, 25700.00
386.7040, 25679.00
387.9020, 25739.00
389.0990, 25677.93
390.2960, 25827.23
391.4930, 25654.00
392.6900, 26012.00
393.8860, 26067.00
395.0830, 25936.00
396.2790, 26126.00
397.4750, 26333.00
398.6710, 26097.00
399.8670, 25992.00
401.0630, 26375.00
402.2580, 26327.00
403.4540, 26748.00
404.6490, 26474.00
405.8440, 26342.00
407.0390, 26736.00
408.2330, 26526.58
409.4280, 26711.21
410.6220, 26812.83
411.8160, 26835.90
413.0100, 26545.13
414.2040, 26659.62
415.3980, 26611.70
416.5910, 26557.12
417.7850, 26728.64
418.9780, 26483.53
420.1710, 26651.46
421.3640, 26654.52
422.5560, 26733.04
423.7490, 26648.15
424.9410, 26688.00
426.1330, 26545.00
427.3250, 26464.00
428.5170, 26895.00
429.7090, 26489.00
430.9000, 26702.00
432.0910, 26372.00
433.2820, 26693.00
434.4730, 26641.00
435.6640, 26657.00
436.8550, 26771.00
438.0450, 26494.00
439.2360, 26491.00
440.4260, 26591.00
441.6160, 26640.00
442.8060, 26570.00
443.9950, 26589.00
445.1850, 26833.00
446.3740, 26672.00
447.5630, 26626.00
448.7520, 26506.00
449.9410, 26678.00
451.1300, 26681.00
452.3180, 26827.00
453.5060, 26673.00
454.6950, 26727.00
455.8830, 26674.00
457.0700, 26832.00
458.2580, 26827.00
459.4450, 26790.00
460.6330, 26826.00
461.8200, 26557.17
463.0070, 26777.08
464.1940, 26913.99
465.3800, 26972.31
466.5670, 26716.83
467.7530, 26866.57
468.9390, 26853.91
470.1250, 26834.59
471.3110, 27041.36
472.4970, 26831.50
473.6820, 27034.67
474.8680, 27072.97
476.0530, 27186.72
477.2380, 27137.05
478.4230, 27170.01
479.6070, 27237.00
480.7920, 27276.00
481.9760, 27309.00
483.1600, 27365.00
484.3440, 27375.00
485.5280, 27390.00
486.7120, 27521.00
487.8950, 27562.00
489.0780, 27559.00
490.2620, 27732.00
491.4450, 27847.00
492.6270, 27904.00
493.8100, 27984.29
494.9920, 27872.68
496.1750, 28040.65
497.3570, 28144.75
498.5390, 28188.43
499.7210, 27990.69
500.9020, 28104.66
502.0840, 28093.73
503.2650, 28077.66
504.4460, 28235.51
505.6270, 28072.87
506.8080, 28227.96
507.9890, 28222.00
509.1690, 28409.00
510.3500, 28472.00
511.5300, 28446.00
512.7100, 28599.85
513.8900, 28671.90
515.0690, 28821.00
516.2490, 28888.00
517.4280, 29080.00
518.6070, 29137.00
519.7860, 29392.00
520.9650, 29129.00
522.1440, 29483.00
523.3220, 29398.00
524.5010, 29778.00
525.6790, 29597.00
526.8570, 29616.00
528.0350, 29809.00
529.2130, 30041.00
530.3900, 30145.00
531.5670, 29965.00
532.7450, 30152.00
533.9220, 29935.45
535.0980, 30134.59
536.2750, 30269.93
537.4520, 30344.84
538.6280, 30178.29
539.8040, 30323.47
540.9800, 30343.72
542.1560, 30358.86
543.3320, 30547.91
544.5070, 30416.43
545.6830, 30527.00
546.8580, 30575.00
548.0330, 30816.00
549.2080, 30724.00
550.3830, 30890.00
551.5570, 30931.00
552.7310, 30703.00
553.9060, 30830.00
555.0800, 30834.00
556.2540, 30663.00
557.4270, 30612.00
558.6010, 30588.00
559.7740, 30398.00
560.9470, 30468.88
562.1210, 30499.00
563.2930, 30556.00
564.4660, 30461.00
565.6390, 30550.00
566.8110, 30503.00
567.9830, 30458.00
569.1550, 30495.00
570.3270, 30364.00
571.4990, 30448.00
572.6710, 30209.00
573.8420, 30237.00
575.0130, 29935.00
576.1840, 29974.00
577.3550, 29750.00
578.5260, 29696.00
579.6970, 29417.00
580.8670, 29176.00
582.0370, 28985.00
583.2070, 28909.00
584.3770, 28637.62
585.5470, 28230.00
586.7170, 28279.00
587.8860, 28029.00
589.0550, 28031.52
590.2240, 28092.96
591.3930, 28126.79
592.5620, 28136.45
593.7310, 27940.95
594.8990, 28093.36
596.0670, 28105.00
597.2350, 28018.00
598.4030, 28163.00
599.5710, 28134.00
600.7390, 28157.42
601.9060, 28144.00
603.0740, 28215.00
604.2410, 28330.00
605.4080, 28400.11
606.5740, 28420.00
607.7410, 28463.00
608.9080, 28509.00
610.0740, 28487.00
611.2400, 28446.00
612.4060, 28511.00
613.5720, 28593.42
614.7370, 28511.00
615.9030, 28821.00
617.0680, 29043.00
618.2330, 29091.00
619.3980, 29193.00
620.5630, 29109.00
621.7280, 29086.00
622.8920, 29214.00
624.0570, 29190.00
625.2210, 29351.71
626.3850, 29536.00
627.5490, 29696.00
628.7120, 29799.00
629.8760, 30018.00
631.0390, 30092.00
632.2020, 30140.00
633.3650, 30281.00
634.5280, 30626.00
635.6910, 30757.00
636.8530, 31132.00
638.0160, 31309.00
639.1780, 31369.00
640.3400, 32000.00
641.5020, 31997.00
642.6640, 32071.00
643.8250, 32449.00
644.9870, 32780.00
646.1480, 33325.00
647.3090, 33656.00
648.4700, 33964.00
649.6300, 34438.29
650.7910, 34713.00
651.9510, 35264.00
653.1120, 35665.00
654.2720, 36078.00
655.4320, 36555.61
656.5910, 37052.00
657.7510, 37447.00
658.9100, 37989.00
660.0690, 38460.00
661.2290, 38974.00
662.3880, 39268.00
663.5460, 39688.00
664.7050, 39725.00
665.8630, 40082.00
667.0220, 40558.00
668.1800, 40551.00
669.3380, 40596.00
670.4950, 40645.00
671.6530, 40659.00
672.8100, 40354.00
673.9680, 40478.00
675.1250, 40094.00
676.2820, 39566.00
677.4390, 39175.00
678.5950, 39070.00
679.7520, 38655.00
680.9080, 38173.00
682.0640, 37476.00
683.2200, 37059.00
684.3760, 36575.00
685.5320, 36176.00
686.6870, 35601.00
687.8420, 34892.00
688.9980, 34633.00
690.1530, 34177.00
691.3070, 33754.00
692.4620, 33498.00
693.6170, 33060.00
694.7710, 32735.00
695.9250, 32256.00
697.0790, 31849.00
698.2330, 31482.00
699.3870, 31117.00
700.5400, 30708.00
701.6940, 30437.00
702.8470, 30328.00
704.0000, 30042.00
705.1530, 29690.00
706.3050, 29638.00
707.4580, 29387.00
708.6100, 28994.00
709.7630, 28855.00
710.9150, 28692.00
712.0660, 28559.00
713.2180, 28359.00
714.3700, 28210.00
715.5210, 27986.37
716.6720, 27837.00
717.8240, 27646.00
718.9740, 27555.00
720.1250, 27653.00
721.2760, 27225.00
722.4260, 27455.00
723.5770, 27205.00
724.7270, 27140.20
725.8770, 27063.00
727.0260, 27014.00
728.1760, 27104.00
729.3250, 27042.00
730.4750, 26840.00
731.6240, 27014.00
732.7730, 26913.00
733.9220, 26636.00
735.0700, 26488.00
736.2190, 26525.00
737.3670, 26530.00
738.5150, 26498.00
739.6630, 26420.00
740.8110, 26355.00
741.9590, 26472.00
743.1060, 26237.00
744.2540, 26306.00
745.4010, 26337.00
746.5480, 25965.00
747.6950, 26103.00
748.8410, 26046.00
749.9880, 25927.00
751.1340, 26234.00
752.2800, 26239.00
753.4260, 25998.00
754.5720, 25868.00
755.7180, 25876.00
756.8640, 25850.00
758.0090, 25879.00
759.1540, 25940.00
760.2990, 25990.00
761.4440, 25879.00
762.5890, 25758.00
763.7340, 25739.00
764.8780, 25838.00
766.0220, 25661.38
767.1660, 25836.58
768.3100, 25928.77
769.4540, 25942.41
770.5980, 25642.22
771.7410, 25747.28
772.8840, 25689.94
774.0280, 25625.93
775.1700, 25788.05
776.3130, 25533.51
777.4560, 25692.03
778.5980, 25685.68
779.7410, 25754.78
780.8830, 25660.48
782.0250, 25616.66
783.1670, 25736.29
784.3080, 25765.43
785.4500, 25652.32
786.5910, 25588.00
787.7320, 25518.00
788.8730, 25688.00
790.0140, 25664.00
791.1550, 25503.00
792.2950, 25639.00
793.4360, 25515.00
794.5760, 25621.00
795.7160, 25556.00
796.8560, 25532.00
797.9960, 25406.00
799.1350, 25399.00
800.2750, 25605.00
801.4140, 25551.00
802.5530, 25625.00
803.6920, 25658.00
804.8310, 25485.00
805.9690, 25461.00
807.1080, 25563.00
808.2460, 25558.00
809.3840, 25592.60
810.5220, 25681.00
811.6600, 25649.00
812.7970, 25607.00
813.9350, 25628.00
815.0720, 25485.00
816.2090, 25467.00
817.3460, 25691.00
818.4830, 25469.00
819.6200, 25595.55
820.7560, 25393.00
821.8930, 25628.00
823.0290, 25577.00
824.1650, 25528.00
825.3010, 25527.00
826.4360, 25469.00
827.5720, 25551.00
828.7070, 25546.00
829.8420, 25664.00
830.9770, 25455.00
832.1120, 25433.00
833.2470, 25389.00
834.3820, 25456.00
835.5160, 25544.00
836.6500, 25449.00
837.7840, 25533.00
838.9180, 25615.00
840.0520, 25514.00
841.1860, 25512.00
842.3190, 25401.00
843.4520, 25520.00
844.5850, 25651.00
845.7180, 25321.00
846.8510, 25430.00
847.9840, 25732.00
849.1160, 25552.00
850.2490, 25605.00
851.3810, 25630.00
852.5130, 25588.00
853.6450, 25754.00
854.7760, 25568.00
855.9080, 25678.00
857.0390, 25672.00
858.1700, 25454.00
859.3010, 25753.00
860.4320, 25561.00
861.5630, 25741.00
862.6930, 25473.00
863.8240, 25564.00
864.9540, 25590.53
866.0840, 25481.00
867.2140, 25749.00
868.3440, 25561.00
869.4730, 25757.00
870.6030, 25794.00
871.7320, 25639.00
872.8610, 25684.00
873.9900, 25710.00
875.1190, 25833.00
876.2470, 25650.00
877.3760, 25799.00
878.5040, 25766.00
879.6320, 25887.00
880.7600, 26027.00
881.8880, 25765.00
883.0150, 25819.00
884.1430, 25840.00
885.2700, 25832.00
886.3970, 25836.32
887.5240, 25841.61
888.6510, 25807.00
889.7780, 25810.00
890.9040, 25818.00
892.0310, 25727.00
893.1570, 25842.00
894.2830, 25801.00
895.4090, 25988.00
896.5350, 25793.00
897.6600, 26002.00
898.7860, 25773.00
899.9110, 26057.00
901.0360, 26076.00
902.1610, 25906.00
903.2860, 25714.00
904.4100, 25922.00
905.5350, 26052.00
906.6590, 26226.00
907.7830, 26263.61
908.9070, 26352.19
910.0310, 26256.00
911.1540, 26361.00
912.2780, 26279.00
913.4010, 26112.00
914.5240, 26149.00
915.6470, 26088.00
916.7700, 26145.00
917.8930, 26075.00
919.0150, 26052.00
920.1380, 26201.00
921.2600, 26186.00
922.3820, 26202.00
923.5040, 26189.17
924.6260, 26077.00
925.7470, 26121.00
926.8690, 26129.00
927.9900, 26193.00
929.1110, 26238.00
930.2320, 26035.00
931.3530, 26057.00
932.4730, 26068.68
933.5940, 26068.00
934.7140, 26182.00
935.8340, 26194.00
936.9540, 26322.00
938.0740, 26399.00
939.1930, 26431.39
940.3130, 26500.52
941.4320, 26484.00
942.5510, 26450.00
943.6700, 26411.00
944.7890, 26411.55
945.9080, 26271.00
947.0260, 26431.00
948.1450, 26237.00
949.2630, 26284.00
950.3810, 26197.00
951.4990, 26459.00
952.6170, 26353.20
953.7340, 26413.74
954.8520, 26276.00
955.9690, 26495.00
957.0860, 26413.00
958.2030, 26554.00
959.3200, 26310.00
960.4360, 26537.00
961.5530, 26520.00
962.6690, 26579.00
963.7850, 26254.00
964.9010, 26422.97
966.0170, 26361.21
967.1330, 26483.00
968.2480, 26439.00
969.3630, 26305.00
970.4790, 26384.00
971.5940, 26567.00
972.7080, 26414.00
973.8230, 26493.00
974.9380, 26408.00
976.0520, 26660.00
977.1660, 26547.00
978.2800, 26598.00
979.3940, 26762.00
980.5080, 26702.00
981.6220, 26924.00
982.7350, 26621.00
983.8480, 26461.00
984.9610, 26729.00
986.0740, 26596.00
987.1870, 26755.00
988.3000, 26565.00
989.4120, 26693.00
990.5250, 26750.00
991.6370, 26734.00
992.7490, 26794.00
993.8610, 26638.00
994.9720, 26766.00
996.0840, 26743.00
997.1950, 26893.00
998.3060, 26833.00
999.4170, 27046.00
1000.528, 26942.00
1001.639, 26860.00
1002.750, 27117.00
1003.860, 27064.00
1004.970, 26885.00
1006.080, 26869.00
1007.190, 26805.00
1008.300, 27050.00
1009.410, 27059.00
1010.519, 27145.00
1011.628, 27229.00
1012.738, 27013.00
1013.846, 27176.00
1014.955, 27049.00
1016.064, 27024.00
1017.172, 27026.00
1018.281, 26972.00
1019.389, 26970.71
1020.497, 27049.39
1021.605, 27096.15
1022.713, 27112.70
1023.820, 27008.53
1024.928, 27060.24
1026.035, 27049.47
1027.142, 27036.15
1028.249, 27109.79
1029.356, 27023.18
1030.462, 27095.43
1031.569, 27104.27
1032.675, 27142.13
1033.781, 27117.15
1034.887, 27111.57
1035.993, 27074.00
1037.098, 27102.00
1038.204, 27220.00
1039.309, 26972.00
1040.415, 27190.00
1041.520, 27031.00
1042.624, 27172.00
1043.729, 27192.00
1044.834, 27166.00
1045.938, 27480.00
1047.042, 27253.00
1048.146, 27177.00
1049.250, 27344.00
1050.354, 27395.00
1051.458, 27292.00
1052.561, 27366.00
1053.664, 27441.00
1054.767, 27351.00
1055.870, 27538.00
1056.973, 27443.65
1058.076, 27513.00
1059.178, 27386.00
1060.281, 27485.00
1061.383, 27548.00
1062.485, 27341.00
1063.587, 27553.00
1064.688, 27219.00
1065.790, 27386.00
1066.891, 27477.00
1067.993, 27568.00
1069.094, 27702.00
1070.195, 27696.25
1071.295, 27445.00
1072.396, 27592.00
1073.496, 27608.00
1074.597, 27343.00
1075.697, 27609.00
1076.797, 27365.00
1077.897, 27545.00
1078.996, 27508.00
1080.096, 27458.27
1081.195, 27641.00
1082.294, 27429.00
1083.393, 27319.00
1084.492, 27310.00
1085.591, 27593.00
1086.689, 27725.33
1087.788, 27657.69
1088.886, 27755.26
1089.984, 27530.00
1091.082, 27644.00
1092.180, 27624.00
1093.277, 27464.00
1094.375, 27587.00
1095.472, 27690.00
1096.569, 27492.00
1097.666, 27542.00
1098.763, 27523.00
1099.860, 27379.00
1100.956, 27651.00
1102.053, 27707.00
1103.149, 27608.00
1104.245, 27446.00
1105.341, 27437.00
1106.436, 27349.00
1107.532, 27368.19
1108.627, 27419.00
1109.723, 27461.00
1110.818, 27465.00
1111.913, 27516.00
1113.007, 27254.00
1114.102, 27541.00
1115.197, 27289.00
1116.291, 27267.12
1117.385, 27417.26
1118.479, 27497.15
1119.573, 27510.57
1120.666, 27258.45
1121.760, 27349.22
1122.853, 27302.59
1123.947, 27250.31
1125.040, 27389.35
1126.132, 27175.87
1127.225, 27311.88
1128.318, 27308.38
1129.410, 27368.73
1130.502, 27290.82
1131.595, 27255.61
1132.687, 27358.72
1133.778, 27385.25
1134.870, 27291.42
1135.961, 27355.85
1137.053, 27291.53
1138.144, 27180.00
1139.235, 27208.00
1140.326, 27132.00
1141.416, 27089.00
1142.507, 27322.00
1143.597, 27026.00
1144.688, 27298.00
1145.778, 27339.00
1146.868, 27322.00
1147.957, 27133.00
1149.047, 27164.00
1150.136, 26980.00
1151.226, 27195.00
1152.315, 27277.00
1153.404, 27345.00
1154.493, 27192.00
1155.581, 27103.00
1156.670, 26955.00
1157.758, 27163.00
1158.846, 27055.00
1159.934, 27118.00
1161.022, 27172.00
1162.110, 26911.00
1163.198, 27132.00
1164.285, 27034.00
1165.372, 27201.00
1166.459, 27144.00
1167.546, 27062.00
1168.633, 27109.00
1169.720, 27088.00
1170.806, 27125.00
1171.892, 27136.32
1172.979, 27115.00
1174.065, 27168.00
1175.150, 27161.00
1176.236, 27182.00
1177.322, 27108.00
1178.407, 27050.00
1179.492, 26993.95
1180.577, 27152.39
1181.662, 27240.59
1182.747, 27262.31
1183.832, 27018.49
1184.916, 27117.57
1186.000, 27079.23
1187.084, 27035.26
1188.168, 27182.60
1189.252, 26977.40
1190.336, 27121.71
1191.419, 27126.50
1192.503, 27195.15
1193.586, 27125.53
1194.669, 27098.61
1195.752, 27210.01
1196.835, 27244.82
1197.917, 27159.28
1199.000, 27231.99
1200.082, 27021.96
1201.164, 27060.04
1202.246, 27205.16
1203.328, 27126.58
1204.409, 27201.81
1205.491, 27218.46
1206.572, 26879.00
1207.653, 26906.00
1208.734, 27073.00
1209.815, 27080.00
1210.896, 27283.00
1211.976, 27105.00
1213.057, 27040.00
1214.137, 27082.00
1215.217, 27064.00
1216.297, 27035.51
1217.377, 27076.47
1218.456, 27054.00
1219.536, 27038.00
1220.615, 27190.00
1221.694, 26994.00
1222.773, 27089.00
1223.852, 27239.00
1224.931, 27081.00
1226.009, 27247.00
1227.088, 27150.00
1228.166, 27230.00
1229.244, 27238.00
1230.322, 27228.00
1231.400, 27308.00
1232.477, 27391.00
1233.555, 27381.00
1234.632, 27280.00
1235.709, 27306.00
1236.786, 27218.00
1237.863, 27220.00
1238.939, 27270.00
1240.016, 27466.00
1241.092, 27334.00
1242.168, 27390.38
1243.245, 27162.00
1244.320, 27284.00
1245.396, 27302.00
1246.472, 27171.00
1247.547, 27256.00
1248.622, 27409.00
1249.697, 27520.00
1250.772, 27360.00
1251.847, 27147.00
1252.922, 27397.00
1253.996, 27300.00
1255.071, 27603.00
1256.145, 27496.00
1257.219, 27361.00
1258.293, 27547.00
1259.366, 27420.56
1260.440, 27530.00
1261.513, 27554.00
1262.587, 27188.00
1263.660, 27579.00
1264.733, 27346.00
1265.805, 27572.00
1266.878, 27402.00
1267.951, 27421.00
1269.023, 27574.00
1270.095, 27675.00
1271.167, 27571.00
1272.239, 27514.00
1273.311, 27513.00
1274.382, 27679.00
1275.454, 27457.00
1276.525, 27554.00
1277.596, 27803.00
1278.667, 27608.00
1279.738, 27716.00
1280.808, 27801.87
1281.879, 27750.69
1282.949, 27833.00
1284.019, 27850.00
1285.089, 27560.00
1286.159, 27704.00
1287.229, 27673.00
1288.298, 27940.00
1289.368, 27959.00
1290.437, 27937.00
1291.506, 27757.00
1292.575, 28033.00
1293.644, 27806.00
1294.712, 28023.00
1295.781, 27765.00
1296.849, 27786.00
1297.917, 27988.00
1298.985, 28016.00
1300.053, 28238.00
1301.121, 28258.00
1302.188, 28282.36
1303.255, 28069.00
1304.323, 28199.00
