##NAMES=Magnesio-hastingsite
##RRUFFID=R040010
##IDEAL CHEMISTRY=NaCa_2_(Mg_4_Fe^3+^)Si_6_Al_2_O_22_(OH)_2_
##LOCALITY=Amity, New York, USA
##OWNER=RRUFF
##SOURCE=University of Arizona Mineral Museum
##DESCRIPTION=Group of black prismatic crystals
##STATUS=The identification of this mineral has been confirmed by X-ray diffraction and chemical analysis
##URL=rruff.info/R040010
##MEASURED CHEMISTRY=(Na_0.50_K_0.43_[box]_0.07_)_Σ=1_(Ca_1.77_Na_0.23_)_Σ=2_(Mg_1.74_Fe_1.22_Fe^3+^_0.79_Mn_0.57_Al_0.30_Zn_0.25_Ti_0.13_)_Σ=5_(Si_5.95_Al_2.05_)_Σ=8_O_22_((OH)_1.75_F_0.22_Cl_0.03_)_Σ=2_; OH estimated by charge balance
##PIN_ID=L00491
##ORIENTATION=Laser parallel to [1 0 1]. Fiducial mark perpendicular to laser is parallel to b* (0 1 0)
162.1560, 30834.00
163.3880, 31358.00
164.6200, 31480.00
165.8510, 31334.00
167.0820, 31049.00
168.3130, 31409.00
169.5440, 31381.00
170.7750, 31751.00
172.0050, 31522.00
173.2350, 31901.00
174.4650, 31913.00
175.6950, 31879.00
176.9250, 31926.00
178.1550, 32096.00
179.3840, 32518.00
180.6130, 32437.00
181.8420, 32509.00
183.0710, 32181.00
184.3000, 32761.00
185.5280, 32612.00
186.7570, 32779.00
187.9850, 32679.00
189.2130, 32512.00
190.4400, 32672.00
191.6680, 32625.00
192.8960, 32466.00
194.1230, 33069.00
195.3500, 32648.61
196.5770, 32792.00
197.8030, 32563.00
199.0300, 32838.00
200.2560, 33547.00
201.4830, 33362.00
202.7090, 33233.00
203.9340, 32520.00
205.1600, 31830.00
206.3860, 31617.00
207.6110, 31460.00
208.8360, 31504.63
210.0610, 32226.00
211.2860, 32160.00
212.5100, 32660.00
213.7350, 33311.00
214.9590, 33711.00
216.1830, 34353.00
217.4070, 34869.00
218.6310, 34808.00
219.8540, 35286.00
221.0780, 35313.00
222.3010, 35281.00
223.5240, 35268.46
224.7470, 35050.89
225.9690, 34875.00
227.1920, 34530.00
228.4140, 34290.00
229.6360, 34001.00
230.8580, 33788.00
232.0800, 33511.00
233.3020, 33423.00
234.5230, 33184.00
235.7440, 32856.00
236.9650, 32583.00
238.1860, 32618.00
239.4070, 32468.00
240.6280, 32196.00
241.8480, 32321.00
243.0680, 31754.04
244.2880, 31939.14
245.5080, 32039.18
246.7280, 32058.74
247.9470, 31756.75
249.1660, 31869.98
250.3860, 31816.80
251.6040, 31756.81
252.8230, 31928.48
254.0420, 31673.26
255.2600, 31841.26
256.4790, 31840.32
257.6970, 31916.70
258.9150, 31825.65
260.1320, 31786.33
261.3500, 31914.48
262.5670, 31949.90
263.7840, 31839.58
265.0010, 31920.89
266.2180, 31659.83
267.4350, 31699.20
268.6510, 31868.20
269.8680, 31975.00
271.0840, 31772.00
272.3000, 32154.00
273.5160, 32065.00
274.7310, 32244.00
275.9470, 32523.00
277.1620, 32453.00
278.3770, 32410.00
279.5920, 32944.00
280.8070, 32766.00
282.0210, 32813.00
283.2360, 33566.00
284.4500, 33032.00
285.6640, 33052.00
286.8780, 33282.00
288.0920, 33296.00
289.3050, 33155.00
290.5180, 33302.00
291.7320, 33379.00
292.9450, 33084.00
294.1570, 33525.00
295.3700, 33132.00
296.5830, 33427.00
297.7950, 33798.00
299.0070, 33085.00
300.2190, 33035.00
301.4310, 32975.00
302.6420, 32884.00
303.8540, 32847.00
305.0650, 32946.00
306.2760, 32763.00
307.4870, 33046.00
308.6980, 32858.00
309.9080, 32834.00
311.1190, 32709.00
312.3290, 32658.00
313.5390, 32655.00
314.7490, 32831.00
315.9580, 32769.00
317.1680, 32878.00
318.3770, 32712.00
319.5860, 32581.00
320.7950, 32739.00
322.0040, 32662.28
323.2130, 32639.68
324.4210, 32753.00
325.6290, 32900.00
326.8380, 32939.00
328.0460, 32993.05
329.2530, 32693.00
330.4610, 32810.05
331.6680, 33045.46
332.8760, 33195.84
334.0830, 33265.71
335.2890, 33013.98
336.4960, 33177.50
337.7030, 33174.63
338.9090, 33164.90
340.1150, 33386.83
341.3210, 33181.88
342.5270, 33400.14
343.7330, 33449.45
344.9380, 33576.06
346.1440, 33535.27
347.3490, 33546.16
348.5540, 33724.53
349.7590, 33810.16
350.9630, 33750.03
352.1680, 33791.00
353.3720, 34024.00
354.5760, 34300.00
355.7800, 34218.00
356.9840, 34477.00
358.1870, 34809.00
359.3910, 34753.00
360.5940, 35004.00
361.7970, 34927.00
363.0000, 34969.00
364.2030, 35203.00
365.4050, 35038.00
366.6080, 35194.00
367.8100, 35073.61
369.0120, 35238.00
370.2140, 34962.00
371.4150, 34970.00
372.6170, 35239.00
373.8180, 34950.00
375.0190, 34961.00
376.2200, 34776.00
377.4210, 34986.00
378.6220, 34961.00
379.8220, 34898.00
381.0230, 34825.00
382.2230, 34751.00
383.4230, 34722.00
384.6220, 34656.00
385.8220, 34720.00
387.0220, 34380.00
388.2210, 34457.00
389.4200, 34238.00
390.6190, 34303.00
391.8180, 33900.83
393.0160, 34075.41
394.2150, 34164.91
395.4130, 34173.95
396.6110, 33861.42
397.8090, 33964.12
399.0060, 33900.43
400.2040, 33829.90
401.4010, 33991.06
402.5980, 33725.32
403.7950, 33882.80
404.9920, 33871.34
406.1890, 33922.00
407.3860, 34132.00
408.5820, 34071.00
409.7780, 34213.00
410.9740, 34193.00
412.1700, 34088.00
413.3650, 34337.00
414.5610, 34015.00
415.7560, 34290.00
416.9510, 34543.00
418.1460, 34591.00
419.3410, 34536.00
420.5360, 34893.00
421.7300, 34612.00
422.9240, 35168.00
424.1180, 35134.00
425.3120, 35396.00
426.5060, 35353.00
427.7000, 35268.00
428.8930, 35540.00
430.0860, 35449.00
431.2790, 35272.00
432.4720, 35303.00
433.6650, 35401.00
434.8580, 35472.00
436.0500, 34991.00
437.2420, 35185.00
438.4340, 35086.00
439.6260, 35131.00
440.8180, 35116.93
442.0090, 35408.00
443.2010, 34994.00
444.3920, 34597.00
445.5830, 34447.00
446.7740, 34767.00
447.9640, 34569.00
449.1550, 34415.00
450.3450, 34307.00
451.5350, 34205.14
452.7250, 34372.00
453.9150, 34146.00
455.1050, 34249.00
456.2940, 34379.00
457.4830, 34057.00
458.6720, 34206.00
459.8610, 34136.00
461.0500, 33870.00
462.2390, 34141.00
463.4270, 33900.00
464.6150, 33807.00
465.8040, 33634.00
466.9910, 33922.00
468.1790, 33958.00
469.3670, 33940.00
470.5540, 34114.00
471.7410, 34050.00
472.9280, 33960.00
474.1150, 33988.00
475.3020, 34163.00
476.4890, 34071.00
477.6750, 34117.00
478.8610, 34323.00
480.0470, 34342.00
481.2330, 34544.00
482.4190, 34781.00
483.6040, 34647.00
484.7900, 34722.00
485.9750, 34865.00
487.1600, 35169.00
488.3450, 35223.00
489.5290, 35465.00
490.7140, 35775.00
491.8980, 35790.00
493.0820, 35928.00
494.2660, 36152.00
495.4500, 36417.00
496.6340, 36469.00
497.8170, 36616.00
499.0010, 36844.00
500.1840, 37476.00
501.3670, 37464.61
502.5500, 37679.00
503.7320, 37618.00
504.9150, 37993.00
506.0970, 37841.00
507.2790, 38018.00
508.4610, 38389.00
509.6430, 38516.00
510.8250, 38723.00
512.0060, 38877.00
513.1870, 38856.00
514.3680, 39131.57
515.5490, 39272.00
516.7300, 39560.00
517.9110, 39751.00
519.0910, 39988.00
520.2710, 39785.00
521.4510, 40028.00
522.6310, 40334.00
523.8110, 40761.00
524.9910, 40981.00
526.1700, 41181.00
527.3490, 41347.00
528.5280, 41540.00
529.7070, 41430.00
530.8860, 41680.00
532.0650, 41517.00
533.2430, 41653.00
534.4210, 41398.00
535.5990, 41681.00
536.7770, 41469.00
537.9550, 41211.00
539.1320, 40963.00
540.3100, 40768.00
541.4870, 40901.00
542.6640, 40599.00
543.8410, 40623.00
545.0170, 40258.00
546.1940, 40213.00
547.3700, 40038.00
548.5470, 39724.00
549.7230, 39931.00
550.8980, 39669.00
552.0740, 39771.00
553.2500, 39339.00
554.4250, 39128.00
555.6000, 39132.00
556.7750, 38982.00
557.9500, 39007.00
559.1250, 38698.00
560.2990, 38817.00
561.4730, 38613.00
562.6480, 38701.00
563.8220, 38397.00
564.9950, 38359.00
566.1690, 38073.00
567.3430, 37991.00
568.5160, 37787.00
569.6890, 37711.00
570.8620, 37522.00
572.0350, 37343.00
573.2070, 37062.00
574.3800, 36944.00
575.5520, 36643.00
576.7240, 36559.00
577.8960, 36386.00
579.0680, 36255.00
580.2400, 35926.00
581.4110, 35832.00
582.5830, 35812.00
583.7540, 35492.00
584.9250, 35622.00
586.0950, 35387.00
587.2660, 35229.00
588.4370, 35370.00
589.6070, 35446.00
590.7770, 35150.00
591.9470, 35188.00
593.1170, 35141.00
594.2860, 35000.00
595.4560, 34930.00
596.6250, 35087.00
597.7940, 35298.00
598.9630, 35021.00
600.1320, 35229.00
601.3000, 35186.00
602.4690, 34920.00
603.6370, 34984.00
604.8050, 35008.00
605.9730, 35037.00
607.1410, 35206.00
608.3090, 35357.00
609.4760, 35205.00
610.6430, 35094.00
611.8100, 35431.00
612.9770, 35196.00
614.1440, 35570.00
615.3110, 35567.00
616.4770, 35473.00
617.6430, 35579.00
618.8090, 35685.00
619.9750, 35662.00
621.1410, 35759.59
622.3070, 35843.61
623.4720, 35924.00
624.6370, 36077.00
625.8020, 36311.00
626.9670, 36514.00
628.1320, 36492.00
629.2970, 36747.00
630.4610, 37081.00
631.6250, 36962.00
632.7890, 37361.00
633.9530, 37412.00
635.1170, 37678.00
636.2810, 37756.00
637.4440, 37997.00
638.6070, 37946.00
639.7700, 38080.00
640.9330, 38335.00
642.0960, 38595.00
643.2590, 38619.00
644.4210, 38578.00
645.5830, 38698.00
646.7450, 39007.00
647.9070, 39051.00
649.0690, 39217.00
650.2310, 39477.00
651.3920, 39475.00
652.5530, 39743.00
653.7140, 40012.00
654.8750, 40181.00
656.0360, 40335.04
657.1970, 40661.00
658.3570, 40577.00
659.5170, 40612.00
660.6770, 40805.00
661.8370, 40983.00
662.9970, 40646.00
664.1570, 40680.00
665.3160, 40566.00
666.4750, 40292.00
667.6340, 40463.00
668.7930, 39976.00
669.9520, 40177.00
671.1110, 39887.00
672.2690, 39397.00
673.4270, 40130.00
674.5850, 39649.00
675.7430, 39514.00
676.9010, 39645.00
678.0590, 39417.00
679.2160, 39539.00
680.3730, 39364.00
681.5300, 39382.00
682.6870, 39079.00
683.8440, 39256.00
685.0010, 39046.00
686.1570, 38804.00
687.3130, 38602.00
688.4690, 38523.00
689.6250, 38144.00
690.7810, 38195.00
691.9370, 37934.00
693.0920, 38123.00
694.2470, 38036.00
695.4020, 37714.00
696.5570, 37608.00
697.7120, 37861.00
698.8670, 38123.00
700.0210, 38019.00
701.1750, 38107.00
702.3290, 38152.36
703.4830, 38480.35
704.6370, 38723.30
705.7910, 38885.75
706.9440, 38726.52
708.0970, 38982.53
709.2510, 39072.24
710.4030, 39154.91
711.5560, 39296.00
712.7090, 39490.00
713.8610, 39684.00
715.0140, 39816.00
716.1660, 40033.49
717.3180, 40236.00
718.4690, 40442.00
719.6210, 40663.00
720.7730, 40898.00
721.9240, 40852.00
723.0750, 40826.00
724.2260, 40985.00
725.3770, 41234.00
726.5270, 41298.00
727.6780, 41359.00
728.8280, 41514.98
729.9780, 41587.23
731.1280, 41631.00
732.2780, 41767.00
733.4280, 41627.00
734.5770, 41619.00
735.7260, 41703.00
736.8760, 41838.00
738.0250, 41723.53
739.1730, 41460.00
740.3220, 41518.00
741.4700, 41230.00
742.6190, 41056.00
743.7670, 41161.00
744.9150, 40884.00
746.0630, 40652.00
747.2100, 40510.00
748.3580, 40460.00
749.5050, 40126.00
750.6520, 39884.00
751.7990, 39829.00
752.9460, 39802.00
754.0930, 39557.00
755.2390, 39375.00
756.3860, 39527.00
757.5320, 38948.00
758.6780, 39105.00
759.8240, 39251.00
760.9690, 39172.00
762.1150, 39061.00
763.2600, 38900.00
764.4060, 39126.00
765.5510, 38834.00
766.6950, 39222.00
767.8400, 39059.00
768.9850, 38916.00
770.1290, 39396.00
771.2730, 38947.00
772.4170, 39226.00
773.5610, 39173.00
774.7050, 39134.00
775.8480, 39242.00
776.9920, 39263.00
778.1350, 39318.00
779.2780, 39116.00
780.4210, 39307.00
781.5640, 39222.00
782.7060, 39281.00
783.8490, 39303.00
784.9910, 39157.00
786.1330, 39103.00
787.2750, 39048.00
788.4170, 38975.00
789.5580, 39012.00
790.7000, 38930.00
791.8410, 38925.34
792.9820, 38907.00
794.1230, 38890.00
795.2640, 38829.00
796.4040, 38806.00
797.5450, 38813.00
798.6850, 38723.00
799.8250, 38670.00
800.9650, 38647.00
802.1050, 38709.00
803.2450, 38744.00
804.3840, 38655.00
805.5230, 38515.00
806.6630, 38671.00
807.8020, 38603.00
808.9400, 38406.00
810.0790, 38427.00
811.2170, 38517.00
812.3560, 38579.00
813.4940, 38533.00
814.6320, 38435.00
815.7700, 38527.00
816.9070, 38517.00
818.0450, 38351.00
819.1820, 38261.00
820.3190, 38073.00
821.4560, 38397.00
822.5930, 38211.00
823.7300, 38266.00
824.8670, 37960.00
826.0030, 38004.00
827.1390, 38022.00
828.2750, 38377.00
829.4110, 38247.00
830.5470, 37875.00
831.6820, 38120.00
832.8180, 37798.00
833.9530, 37732.00
835.0880, 37869.00
836.2230, 38058.00
837.3580, 38030.00
838.4920, 38131.23
839.6270, 38129.60
840.7610, 38107.00
841.8950, 38162.00
843.0290, 38142.37
844.1630, 38154.00
845.2960, 38143.00
846.4300, 38134.00
847.5630, 38124.00
848.6960, 38357.00
849.8290, 38327.00
850.9620, 38285.00
852.0940, 38080.00
853.2270, 38378.00
854.3590, 38449.00
855.4910, 38547.00
856.6230, 38661.00
857.7550, 38805.00
858.8870, 38640.00
860.0180, 38604.00
861.1500, 38627.00
862.2810, 38706.00
863.4120, 38716.90
864.5430, 38788.31
865.6730, 38828.00
866.8040, 38922.00
867.9340, 39006.00
869.0640, 39087.00
870.1940, 39241.00
871.3240, 38887.00
872.4540, 39066.00
873.5830, 39158.00
874.7130, 39187.00
875.8420, 39451.00
876.9710, 39513.00
878.1000, 39444.00
879.2290, 39452.00
880.3570, 39285.00
881.4860, 39418.00
882.6140, 39433.00
883.7420, 39673.00
884.8700, 39376.00
885.9980, 39573.00
887.1250, 39571.00
888.2530, 39516.00
889.3800, 39769.00
890.5070, 39728.00
891.6340, 39471.00
892.7610, 39579.00
893.8880, 39511.00
895.0140, 39717.00
896.1400, 39691.00
897.2670, 39464.00
898.3930, 40017.00
899.5180, 39773.00
900.6440, 40050.00
901.7700, 39879.00
902.8950, 39820.00
904.0200, 40062.00
905.1450, 39999.00
906.2700, 40185.00
907.3950, 40036.00
908.5190, 40158.00
909.6440, 40217.00
910.7680, 40243.00
911.8920, 40232.00
913.0160, 40419.00
914.1400, 40369.00
915.2630, 40335.00
916.3870, 40193.00
917.5100, 40249.94
918.6330, 40249.96
919.7560, 40339.00
920.8790, 40369.00
922.0010, 40459.00
923.1240, 40538.00
924.2460, 40588.92
925.3680, 40664.77
926.4900, 40716.00
927.6120, 40772.00
928.7340, 40842.00
929.8550, 40863.00
930.9760, 40873.00
932.0980, 40966.16
933.2190, 40769.00
934.3390, 41063.00
935.4600, 41062.00
936.5810, 40960.00
937.7010, 41095.00
938.8210, 41084.00
939.9410, 41116.00
941.0610, 41172.00
942.1810, 41255.00
943.3010, 41353.00
944.4200, 41468.00
945.5390, 41503.00
946.6580, 41517.00
947.7770, 41514.00
948.8960, 41569.00
950.0150, 41667.00
951.1330, 41655.00
952.2510, 41774.00
953.3690, 41785.00
954.4870, 41753.00
955.6050, 41849.68
956.7230, 41887.54
957.8400, 41929.00
958.9580, 42041.00
960.0750, 42017.00
961.1920, 42071.00
962.3090, 42104.32
963.4250, 42202.27
964.5420, 42306.00
965.6580, 42446.87
966.7740, 42485.00
967.8900, 42602.00
969.0060, 42601.00
970.1220, 42752.00
971.2380, 42799.00
972.3530, 42722.00
973.4680, 42987.00
974.5830, 42815.00
975.6980, 42619.00
976.8130, 43131.00
977.9280, 43264.00
979.0420, 43615.00
980.1560, 43769.00
981.2710, 43311.00
982.3850, 43354.00
983.4980, 43429.00
984.6120, 43579.00
985.7260, 43934.00
986.8390, 43841.00
987.9520, 43788.00
989.0650, 44213.00
990.1780, 44045.00
991.2910, 44245.00
992.4030, 44569.00
993.5160, 44725.00
994.6280, 44342.00
995.7400, 44675.00
996.8520, 44760.00
997.9640, 44670.00
999.0750, 44828.00
1000.187, 44913.00
1001.298, 44897.00
1002.409, 45057.00
1003.520, 45357.00
1004.631, 45099.00
1005.741, 45180.00
1006.852, 45009.00
1007.962, 45235.00
1009.072, 45440.00
1010.182, 45483.00
1011.292, 45509.00
1012.402, 45614.00
1013.511, 45635.00
1014.621, 45287.00
1015.730, 45698.00
1016.839, 45292.00
1017.948, 45619.00
1019.056, 45563.21
1020.165, 45525.00
1021.273, 45577.00
1022.382, 45516.45
1023.490, 45384.00
1024.598, 45471.00
1025.706, 45466.00
1026.813, 45450.86
1027.921, 45271.00
1029.028, 45252.00
1030.135, 45137.00
1031.242, 44847.00
1032.349, 44875.00
1033.456, 44670.00
1034.562, 44941.00
1035.668, 45008.00
1036.775, 44952.00
1037.881, 44865.00
1038.987, 44636.00
1040.092, 44760.00
1041.198, 44567.62
1042.303, 44566.23
1043.408, 44412.00
1044.514, 44495.00
1045.618, 44547.00
1046.723, 44436.00
1047.828, 44573.00
1048.932, 44419.00
1050.037, 44513.00
1051.141, 44339.00
1052.245, 44450.00
1053.349, 44183.00
1054.452, 44332.00
1055.556, 44188.00
1056.659, 44291.00
1057.762, 44196.00
1058.865, 44219.00
1059.968, 44142.00
1061.071, 44120.00
1062.174, 43979.00
1063.276, 44080.00
1064.378, 43849.00
1065.480, 43812.00
1066.582, 43755.00
1067.684, 44116.00
1068.786, 43941.00
1069.887, 44460.00
1070.988, 43883.00
1072.090, 43837.00
1073.191, 43878.00
1074.291, 43930.00
1075.392, 44013.00
1076.493, 43992.00
1077.593, 44043.00
1078.693, 43966.00
1079.793, 43937.00
1080.893, 43618.00
1081.993, 43960.00
1083.092, 43708.00
1084.192, 43766.00
1085.291, 43462.00
1086.390, 43398.00
1087.489, 43707.00
1088.588, 43582.00
1089.686, 43869.00
1090.785, 43603.00
1091.883, 43491.00
1092.981, 43287.00
1094.079, 43234.00
1095.177, 43270.00
1096.275, 43329.00
1097.373, 43061.00
1098.470, 43297.00
1099.567, 42746.00
1100.664, 42994.00
1101.761, 42940.00
1102.858, 42988.00
1103.954, 42697.00
1105.051, 42724.91
1106.147, 42890.76
1107.243, 42971.54
1108.339, 42971.84
1109.435, 42650.58
1110.531, 42744.55
1111.626, 42672.14
1112.722, 42592.88
1113.817, 42745.31
1114.912, 42470.85
1116.007, 42619.61
1117.101, 42599.45
1118.196, 42656.59
1119.290, 42546.32
1120.385, 42487.74
1121.479, 42596.68
1122.573, 42612.87
1123.666, 42483.35
1124.760, 42545.43
1125.853, 42265.17
1126.947, 42285.32
1128.040, 42435.11
1129.133, 42314.01
1130.226, 42379.18
1131.318, 42373.43
1132.411, 42045.27
1133.503, 42277.80
1134.596, 42267.83
1135.688, 42008.93
1136.780, 42052.00
1137.871, 41907.00
1138.963, 41669.00
1140.054, 42176.00
1141.146, 42031.00
1142.237, 42108.00
1143.328, 41888.00
1144.419, 41873.00
1145.509, 41916.00
1146.600, 42081.00
1147.690, 41853.00
1148.780, 42127.00
1149.870, 41892.00
1150.960, 42035.00
1152.050, 42251.00
1153.139, 41914.00
1154.229, 42182.00
1155.318, 42075.00
1156.407, 41803.00
1157.496, 41957.00
1158.585, 41951.00
1159.674, 42002.00
1160.762, 42065.00
1161.850, 42069.00
1162.939, 42282.00
1164.027, 41947.00
1165.114, 41991.00
1166.202, 42497.00
1167.290, 42161.00
1168.377, 42198.00
1169.464, 42136.00
1170.551, 42290.00
1171.638, 42119.00
1172.725, 42492.00
1173.812, 42135.00
1174.898, 42212.00
1175.984, 41934.00
1177.071, 42268.00
1178.157, 42003.00
1179.242, 42191.00
1180.328, 41979.00
1181.414, 42527.00
1182.499, 42291.00
1183.584, 42377.00
1184.669, 42303.00
1185.754, 42069.00
1186.839, 42216.00
1187.924, 42187.00
1189.008, 42397.00
1190.092, 42398.00
1191.177, 42484.00
1192.260, 42306.00
1193.344, 42124.00
1194.428, 42475.00
1195.512, 42409.00
1196.595, 42439.00
1197.678, 42602.00
1198.761, 42567.00
1199.844, 42816.00
1200.927, 42625.00
1202.009, 42834.00
1203.092, 42161.00
1204.174, 42543.00
1205.256, 42503.00
1206.338, 42427.00
1207.420, 42780.00
1208.502, 42603.00
1209.583, 42762.00
1210.665, 42790.00
1211.746, 42999.00
1212.827, 42699.00
1213.908, 42786.00
1214.988, 42784.00
1216.069, 42794.00
1217.149, 42803.00
1218.230, 42785.00
1219.310, 42830.00
1220.390, 43058.00
1221.470, 43021.00
1222.549, 42770.00
1223.629, 42970.00
1224.708, 43092.00
1225.787, 42757.00
1226.866, 43059.00
1227.945, 43156.00
1229.024, 42973.00
1230.103, 42795.00
1231.181, 43284.00
1232.259, 43098.00
1233.337, 43017.00
1234.415, 43264.00
1235.493, 43134.00
1236.571, 43454.00
1237.648, 43093.00
1238.726, 42985.00
1239.803, 43008.00
1240.880, 43186.00
1241.957, 43164.00
1243.034, 43271.00
1244.110, 43179.00
1245.187, 43314.57
1246.263, 43264.00
1247.339, 43466.00
1248.415, 43468.00
1249.491, 43394.00
1250.566, 43362.00
1251.642, 43324.00
1252.717, 43175.00
1253.793, 43223.00
1254.868, 43059.00
1255.943, 43257.00
1257.017, 43231.00
1258.092, 43179.00
1259.166, 43193.00
1260.241, 43154.00
1261.315, 43268.00
1262.389, 43456.00
1263.462, 43327.00
1264.536, 43498.00
1265.610, 43357.00
1266.683, 43470.00
1267.756, 43294.00
1268.829, 43415.00
1269.902, 43370.00
1270.975, 43542.00
1272.048, 43381.00
1273.120, 43349.00
1274.192, 43465.00
1275.264, 43576.00
1276.336, 43554.00
1277.408, 43373.00
1278.480, 43296.00
1279.551, 43435.00
1280.623, 43644.00
1281.694, 43392.00
1282.765, 43398.00
1283.836, 43799.00
1284.907, 43477.00
1285.977, 43457.00
1287.048, 43730.00
1288.118, 43766.00
1289.188, 43402.00
1290.258, 43561.00
1291.328, 43517.00
1292.398, 43672.00
1293.467, 43461.00
1294.537, 43596.00
1295.606, 43644.00
1296.675, 43711.00
1297.744, 43718.00
1298.813, 44008.00
1299.882, 43851.00
1300.950, 44202.00
1302.018, 44079.47
1303.086, 43899.00
1304.155, 43905.00
1305.222, 43966.00
1306.290, 43856.00
1307.358, 43923.00
1308.425, 44290.00
1309.492, 44069.00
1310.559, 44290.00
1311.626, 44001.00
1312.693, 44131.00
1313.760, 44079.00
1314.826, 44370.00
1315.893, 44423.00
1316.959, 43919.24
1318.025, 44137.70
1319.091, 44271.10
1320.157, 44324.01
1321.222, 44055.35
1322.288, 44201.93
