##NAMES=Magnesiotaaffeite-6N3S
##RRUFFID=X070005
##IDEAL CHEMISTRY=Mg_2_BeAl_6_O_12_
##LOCALITY=Tunduru, Tanzania
##OWNER=www.multicolour.com
##SOURCE=www.multicolour.com
##DESCRIPTION=Pale lavendar cut gemstone, 0.65 cts, formerly known as musgravite-18R
##STATUS=The identification of this mineral has been confirmed by single-crystal X-ray diffraction.
##URL=rruff.info/X070005
164.0825, 19906.90
164.5646, 19865.71
165.0467, 19850.89
165.5288, 19838.13
166.0110, 19814.54
166.4931, 19782.64
166.9752, 19755.41
167.4573, 19730.42
167.9394, 19715.98
168.4215, 19720.77
168.9037, 19775.32
169.3858, 19829.69
169.8679, 19852.10
170.3500, 19840.51
170.8321, 19811.92
171.3142, 19758.85
171.7964, 19696.81
172.2785, 19654.46
172.7606, 19668.16
173.2427, 19697.88
173.7248, 19702.27
174.2069, 19670.20
174.6891, 19629.21
175.1712, 19601.09
175.6533, 19584.37
176.1354, 19571.84
176.6175, 19556.63
177.0996, 19543.35
177.5818, 19540.86
178.0639, 19564.53
178.5460, 19587.20
179.0281, 19563.26
179.5102, 19494.46
179.9923, 19431.01
180.4745, 19417.59
180.9566, 19442.78
181.4387, 19479.37
181.9208, 19535.87
182.4029, 19591.94
182.8850, 19600.61
183.3672, 19553.67
183.8493, 19497.35
184.3314, 19500.39
184.8135, 19550.58
185.2956, 19581.13
185.7777, 19529.53
186.2599, 19428.50
186.7420, 19377.21
187.2241, 19401.65
187.7062, 19455.75
188.1883, 19459.58
188.6705, 19414.32
189.1526, 19359.29
189.6347, 19317.38
190.1168, 19289.02
190.5989, 19279.48
191.0810, 19302.49
191.5632, 19339.70
192.0453, 19331.18
192.5274, 19270.97
193.0095, 19204.11
193.4916, 19180.25
193.9737, 19198.46
194.4559, 19219.38
194.9380, 19228.08
195.4201, 19227.00
195.9022, 19236.04
196.3843, 19257.46
196.8664, 19283.58
197.3486, 19301.17
197.8307, 19309.21
198.3128, 19317.66
198.7949, 19330.98
199.2770, 19348.99
199.7591, 19369.04
200.2413, 19392.13
200.7234, 19414.80
201.2055, 19425.07
201.6876, 19418.49
202.1697, 19416.24
202.6518, 19444.78
203.1340, 19510.72
203.6161, 19534.39
204.0982, 19483.72
204.5803, 19379.26
205.0624, 19344.29
205.5445, 19398.66
206.0267, 19474.92
206.5088, 19504.63
206.9909, 19478.41
207.4730, 19453.52
207.9551, 19447.61
208.4372, 19461.13
208.9194, 19463.45
209.4015, 19453.99
209.8836, 19435.23
210.3657, 19409.29
210.8478, 19374.60
211.3299, 19339.86
211.8121, 19308.71
212.2942, 19282.17
212.7763, 19256.11
213.2584, 19228.18
213.7405, 19202.87
214.2226, 19191.61
214.7048, 19198.50
215.1869, 19210.11
215.6690, 19217.82
216.1511, 19217.25
216.6332, 19226.69
217.1153, 19249.59
217.5975, 19283.26
218.0796, 19314.02
218.5617, 19341.28
219.0438, 19365.59
219.5259, 19385.73
220.0080, 19398.06
220.4902, 19415.62
220.9723, 19447.93
221.4544, 19494.48
221.9365, 19500.65
222.4186, 19442.20
222.9007, 19371.90
223.3829, 19352.51
223.8650, 19409.99
224.3471, 19464.52
224.8292, 19495.96
225.3113, 19500.48
225.7934, 19506.94
226.2756, 19512.68
226.7577, 19522.94
227.2398, 19548.00
227.7219, 19599.18
228.2040, 19645.58
228.6861, 19673.00
229.1683, 19666.51
229.6504, 19682.51
230.1325, 19732.85
230.6146, 19801.50
231.0967, 19846.02
231.5789, 19842.42
232.0610, 19848.34
232.5431, 19893.75
233.0252, 19993.11
233.5073, 20102.20
233.9894, 20234.45
234.4716, 20377.73
234.9537, 20467.88
235.4358, 20458.71
235.9179, 20453.69
236.4000, 20527.34
236.8821, 20719.04
237.3643, 20909.88
237.8464, 21081.38
238.3285, 21232.89
238.8106, 21402.32
239.2927, 21609.80
239.7748, 21814.81
240.2570, 21982.70
240.7391, 22136.50
241.2212, 22212.68
241.7033, 22203.87
242.1854, 22111.94
242.6675, 21903.90
243.1497, 21510.62
243.6318, 21055.18
244.1139, 20695.80
244.5960, 20462.57
245.0781, 20275.03
245.5602, 20107.43
246.0424, 19945.02
246.5245, 19863.91
247.0066, 19905.49
247.4887, 20005.68
247.9708, 20046.49
248.4529, 20002.76
248.9351, 19939.08
249.4172, 19875.57
249.8993, 19801.41
250.3814, 19754.15
250.8635, 19743.47
251.3456, 19757.63
251.8278, 19763.42
252.3099, 19752.53
252.7920, 19745.26
253.2741, 19756.00
253.7562, 19803.83
254.2383, 19822.92
254.7205, 19795.08
255.2026, 19733.91
255.6847, 19704.44
256.1668, 19715.93
256.6489, 19745.86
257.1310, 19781.86
257.6132, 19828.84
258.0953, 19869.31
258.5774, 19893.42
259.0595, 19905.42
259.5416, 19951.07
260.0237, 20054.69
260.5059, 20159.05
260.9880, 20204.80
261.4701, 20152.48
261.9522, 20142.69
262.4343, 20213.61
262.9164, 20363.97
263.3986, 20494.48
263.8807, 20601.14
264.3628, 20695.02
264.8449, 20792.67
265.3270, 20910.75
265.8091, 20988.29
266.2913, 21001.99
266.7734, 20947.17
267.2555, 20895.26
267.7376, 20852.02
268.2197, 20803.61
268.7018, 20726.88
269.1840, 20612.34
269.6661, 20498.36
270.1482, 20402.63
270.6303, 20329.86
271.1124, 20228.17
271.5945, 20074.09
272.0767, 19920.47
272.5588, 19864.68
273.0409, 19933.92
273.5230, 20013.08
274.0051, 20057.94
274.4872, 20065.14
274.9694, 20061.59
275.4515, 20048.68
275.9336, 20024.24
276.4157, 19975.20
276.8978, 19891.96
277.3799, 19823.38
277.8621, 19792.62
278.3442, 19800.93
278.8263, 19837.77
279.3084, 19912.00
279.7905, 20002.81
280.2726, 20065.77
280.7548, 20100.49
281.2369, 20108.78
281.7190, 20083.65
282.2011, 20023.75
282.6832, 19966.17
283.1653, 19912.21
283.6475, 19866.04
284.1296, 19841.80
284.6117, 19841.76
285.0938, 19849.81
285.5759, 19858.73
286.0580, 19868.74
286.5402, 19871.78
287.0223, 19866.77
287.5044, 19855.26
287.9865, 19836.70
288.4686, 19810.38
288.9507, 19789.42
289.4329, 19788.44
289.9150, 19805.01
290.3971, 19817.89
290.8792, 19822.25
291.3614, 19820.34
291.8435, 19817.82
292.3256, 19814.51
292.8077, 19808.45
293.2898, 19788.00
293.7719, 19759.12
294.2541, 19753.89
294.7362, 19788.69
295.2183, 19847.07
295.7004, 19897.69
296.1825, 19940.42
296.6646, 19978.62
297.1468, 20010.43
297.6289, 20038.97
298.1110, 20075.30
298.5931, 20131.30
299.0752, 20191.95
299.5573, 20223.15
300.0395, 20224.32
300.5216, 20232.42
301.0037, 20287.73
301.4858, 20376.16
301.9679, 20463.28
302.4500, 20538.84
302.9322, 20604.65
303.4143, 20671.88
303.8964, 20741.54
304.3785, 20782.19
304.8606, 20729.77
305.3427, 20631.04
305.8249, 20576.60
306.3070, 20649.24
306.7891, 20760.87
307.2712, 20802.22
307.7533, 20770.99
308.2354, 20745.43
308.7176, 20782.60
309.1997, 20865.61
309.6818, 20965.94
310.1639, 21087.09
310.6460, 21211.64
311.1281, 21316.99
311.6103, 21402.33
312.0924, 21499.54
312.5745, 21644.80
313.0566, 21812.86
313.5387, 21964.68
314.0208, 22126.13
314.5030, 22237.57
314.9851, 22250.93
315.4672, 22159.06
315.9493, 22033.55
316.4314, 21900.92
316.9135, 21759.74
317.3957, 21605.93
317.8778, 21435.94
318.3599, 21256.45
318.8420, 21056.89
319.3241, 20830.98
319.8062, 20642.50
320.2884, 20523.42
320.7705, 20449.16
321.2526, 20387.71
321.7347, 20317.40
322.2168, 20267.46
322.6989, 20257.92
323.1811, 20299.49
323.6632, 20325.45
324.1453, 20312.14
324.6274, 20278.57
325.1095, 20248.00
325.5916, 20219.19
326.0738, 20199.73
326.5559, 20195.64
327.0380, 20212.77
327.5201, 20224.78
328.0022, 20240.64
328.4843, 20248.12
328.9665, 20232.23
329.4486, 20154.74
329.9307, 20092.23
330.4128, 20064.72
330.8949, 20082.79
331.3770, 20093.15
331.8592, 20091.17
332.3413, 20083.37
332.8234, 20075.92
333.3055, 20052.42
333.7876, 20051.81
334.2697, 20092.92
334.7519, 20189.23
335.2340, 20244.30
335.7161, 20231.78
336.1982, 20058.89
336.6803, 20160.04
337.1624, 20219.07
337.6446, 20236.15
338.1267, 20202.69
338.6088, 20144.90
339.0909, 20042.09
339.5730, 19899.94
340.0551, 20026.09
340.5373, 20024.89
341.0194, 20045.30
341.5015, 20048.37
341.9836, 20013.38
342.4657, 19944.12
342.9478, 19906.99
343.4300, 19907.95
343.9121, 19927.87
344.3942, 19954.23
344.8763, 19988.55
345.3584, 19997.73
345.8405, 19950.17
346.3227, 19866.32
346.8048, 19857.96
347.2869, 19936.00
347.7690, 20030.67
348.2511, 20068.19
348.7332, 20054.46
349.2154, 20033.26
349.6975, 20008.71
350.1796, 19989.04
350.6617, 20000.30
351.1438, 20043.75
351.6259, 20090.99
352.1081, 20122.82
352.5902, 20138.57
353.0723, 20135.32
353.5544, 20102.63
354.0365, 20056.30
354.5186, 20009.21
355.0008, 19962.16
355.4829, 19934.06
355.9650, 19962.60
356.4471, 20015.30
356.9292, 20041.26
357.4113, 19995.53
357.8935, 19939.75
358.3756, 19925.82
358.8577, 19951.52
359.3398, 19989.35
359.8219, 20038.02
360.3040, 20085.00
360.7862, 20117.44
361.2683, 20111.68
361.7504, 20109.18
362.2325, 20128.18
362.7146, 20167.65
363.1967, 20220.45
363.6789, 20288.64
364.1610, 20365.49
364.6431, 20445.98
365.1252, 20556.37
365.6073, 20638.90
366.0894, 20664.44
366.5716, 20642.99
367.0537, 20624.64
367.5358, 20618.38
368.0179, 20617.88
368.5000, 20619.87
368.9821, 20635.48
369.4643, 20640.24
369.9464, 20619.61
370.4285, 20584.38
370.9106, 20575.99
371.3927, 20622.39
371.8748, 20671.64
372.3570, 20700.68
372.8391, 20694.38
373.3212, 20698.21
373.8033, 20716.79
374.2855, 20746.02
374.7676, 20774.71
375.2497, 20802.32
375.7318, 20831.53
376.2139, 20861.56
376.6960, 20888.02
377.1782, 20935.99
377.6603, 21018.31
378.1424, 21109.48
378.6245, 21162.38
379.1066, 21176.34
379.5887, 21151.59
380.0709, 21068.66
380.5530, 20925.74
381.0351, 20822.13
381.5172, 20761.43
381.9993, 20728.23
382.4814, 20660.55
382.9636, 20720.80
383.4457, 20747.12
383.9278, 20741.35
384.4099, 20607.32
384.8920, 20638.90
385.3741, 20604.11
385.8563, 20566.60
386.3384, 20621.49
386.8205, 20506.11
387.3026, 20559.54
387.7847, 20545.58
388.2668, 20562.46
388.7490, 20512.56
389.2311, 20483.29
389.7132, 20520.82
390.1953, 20487.96
390.6774, 20564.62
391.1595, 20644.15
391.6417, 20728.26
392.1238, 20800.60
392.6059, 20834.88
393.0880, 20837.05
393.5701, 20860.51
394.0522, 20942.75
394.5344, 21054.46
395.0165, 21169.22
395.4986, 21276.45
395.9807, 21387.88
396.4628, 21494.28
396.9449, 21602.12
397.4271, 21745.64
397.9092, 21927.07
398.3913, 22150.03
398.8734, 22417.13
399.3555, 22752.67
399.8376, 23099.90
400.3198, 23437.68
400.8019, 23780.63
401.2840, 24178.64
401.7661, 24705.70
402.2482, 25215.65
402.7303, 25652.28
403.2125, 25995.19
403.6946, 26315.06
404.1767, 26631.40
404.6588, 26919.93
405.1409, 27131.86
405.6230, 27272.69
406.1052, 27329.79
406.5873, 27270.54
407.0694, 27074.93
407.5515, 26936.52
408.0336, 26831.06
408.5157, 26823.91
408.9979, 27010.34
409.4800, 27394.53
409.9621, 27905.23
410.4442, 28556.44
410.9263, 29315.30
411.4084, 30071.89
411.8906, 30822.19
412.3727, 31551.94
412.8548, 32321.22
413.3369, 33074.10
413.8190, 33588.33
414.3011, 33865.85
414.7833, 33811.39
415.2654, 33206.25
415.7475, 32082.14
416.2296, 30723.22
416.7117, 29121.38
417.1938, 27480.09
417.6760, 26064.63
418.1581, 24964.09
418.6402, 24071.54
419.1223, 23326.79
419.6044, 22726.65
420.0865, 22247.29
420.5687, 21934.18
421.0508, 21707.90
421.5329, 21518.68
422.0150, 21356.63
422.4971, 21228.21
422.9792, 21153.68
423.4614, 21112.51
423.9435, 21061.30
424.4256, 20961.85
424.9077, 20876.03
425.3898, 20830.92
425.8719, 20847.24
426.3541, 20847.82
426.8362, 20810.88
427.3183, 20765.55
427.8004, 20747.92
428.2825, 20790.84
428.7646, 20811.57
429.2468, 20776.54
429.7289, 20681.71
430.2110, 20657.04
430.6931, 20729.62
431.1752, 20831.58
431.6573, 20898.98
432.1395, 20924.00
432.6216, 20954.76
433.1037, 20998.43
433.5858, 21054.51
434.0679, 21124.14
434.5500, 21207.89
435.0322, 21299.27
435.5143, 21392.32
435.9964, 21487.90
436.4785, 21589.10
436.9606, 21696.02
437.4427, 21808.76
437.9249, 21926.86
438.4070, 22051.76
438.8891, 22182.21
439.3712, 22304.93
439.8533, 22438.55
440.3354, 22613.07
440.8176, 22834.98
441.2997, 23076.14
441.7818, 23292.24
442.2639, 23515.52
442.7460, 23799.98
443.2281, 24190.58
443.7103, 24629.98
444.1924, 25102.05
444.6745, 25606.83
445.1566, 26091.83
445.6387, 26574.04
446.1208, 27012.27
446.6030, 27365.75
447.0851, 27704.96
447.5672, 27873.06
448.0493, 27845.81
448.5314, 27621.81
449.0135, 27207.47
449.4957, 26459.44
449.9778, 25653.70
450.4599, 24916.61
450.9420, 24232.62
451.4241, 23661.96
451.9063, 23211.11
452.3884, 22866.63
452.8705, 22609.63
453.3526, 22450.29
453.8347, 22344.07
454.3168, 22282.23
454.7990, 22265.65
455.2811, 22260.53
455.7632, 22269.73
456.2453, 22281.63
456.7274, 22288.96
457.2096, 22289.79
457.6917, 22263.70
458.1738, 22200.98
458.6559, 22107.39
459.1380, 21987.07
459.6201, 21842.24
460.1023, 21688.98
460.5844, 21528.25
461.0665, 21371.56
461.5486, 21243.03
462.0307, 21155.96
462.5128, 21085.35
462.9950, 21007.49
463.4771, 20927.71
463.9592, 20867.68
464.4413, 20848.57
464.9234, 20844.60
465.4055, 20838.22
465.8877, 20824.15
466.3698, 20813.78
466.8519, 20808.76
467.3340, 20809.55
467.8161, 20817.25
468.2982, 20831.69
468.7804, 20853.64
469.2625, 20886.44
469.7446, 20931.94
470.2267, 20973.81
470.7088, 21015.72
471.1909, 21051.68
471.6731, 21075.68
472.1552, 21081.57
472.6373, 21091.26
473.1194, 21101.87
473.6015, 21120.17
474.0836, 21177.14
474.5658, 21278.49
475.0479, 21391.85
475.5300, 21497.08
476.0121, 21594.89
476.4942, 21691.48
476.9763, 21782.13
477.4585, 21884.57
477.9406, 22023.49
478.4227, 22197.21
478.9048, 22393.86
479.3869, 22604.43
479.8690, 22837.50
480.3512, 23111.13
480.8333, 23426.41
481.3154, 23755.39
481.7975, 24094.15
482.2796, 24430.17
482.7617, 24748.05
483.2439, 25037.59
483.7260, 25316.87
484.2081, 25622.38
484.6902, 25935.57
485.1723, 26168.09
485.6544, 26248.75
486.1366, 26271.98
486.6187, 26282.99
487.1008, 26263.67
487.5829, 26269.29
488.0650, 26260.63
488.5471, 26288.89
489.0293, 26438.51
489.5114, 26704.45
489.9935, 27097.47
490.4756, 27641.69
490.9577, 28330.26
491.4398, 29070.38
491.9220, 29884.63
492.4041, 30703.84
492.8862, 31509.87
493.3683, 32308.41
493.8504, 32957.45
494.3326, 33472.77
494.8147, 33784.04
495.2968, 33775.17
495.7789, 33448.23
496.2610, 32819.24
496.7431, 31783.76
497.2253, 30483.34
497.7074, 29086.61
498.1895, 27570.49
498.6716, 26167.03
499.1537, 25008.21
499.6358, 24079.81
500.1180, 23331.51
500.6001, 22802.60
501.0822, 22407.78
501.5643, 22139.30
502.0464, 21994.32
502.5285, 21866.76
503.0107, 21733.10
503.4928, 21600.73
503.9749, 21473.37
504.4570, 21333.12
504.9391, 21223.06
505.4212, 21156.73
505.9034, 21121.19
506.3855, 21077.03
506.8676, 21014.05
507.3497, 20961.62
507.8318, 20935.97
508.3139, 20942.04
508.7961, 20934.86
509.2782, 20911.59
509.7603, 20882.70
510.2424, 20859.97
510.7245, 20843.60
511.2066, 20829.56
511.6888, 20813.97
512.1709, 20801.52
512.6530, 20806.58
513.1351, 20827.22
513.6172, 20844.55
514.0994, 20834.59
514.5815, 20814.99
515.0636, 20812.56
515.5457, 20834.64
516.0278, 20863.67
516.5099, 20896.53
516.9921, 20926.80
517.4742, 20943.04
517.9563, 20930.45
518.4384, 20913.15
518.9205, 20896.87
519.4026, 20881.79
519.8848, 20886.41
520.3669, 20946.26
520.8490, 21008.17
521.3311, 21032.10
521.8132, 20971.91
522.2953, 20949.88
522.7775, 20977.00
523.2596, 21046.49
523.7417, 21142.64
524.2238, 21274.32
524.7059, 21405.70
525.1880, 21524.42
525.6702, 21628.79
526.1523, 21708.28
526.6344, 21757.49
527.1165, 21798.09
527.5986, 21863.12
528.0807, 21942.51
528.5629, 21996.68
529.0450, 22017.55
529.5271, 22002.43
530.0092, 21941.00
530.4913, 21838.25
530.9734, 21714.28
531.4556, 21550.01
531.9377, 21390.66
532.4198, 21281.49
532.9019, 21245.81
533.3840, 21210.82
533.8661, 21142.27
534.3483, 21060.02
534.8304, 20991.35
535.3125, 20935.40
535.7946, 20899.00
536.2767, 20891.68
536.7589, 20911.11
537.2410, 20913.97
537.7231, 20879.80
538.2052, 20854.03
538.6873, 20870.56
539.1694, 20942.08
539.6516, 20993.56
540.1337, 21018.19
540.6158, 21023.48
541.0979, 21025.09
541.5800, 21022.86
542.0621, 21001.84
542.5443, 20949.37
543.0264, 20876.18
543.5085, 20795.79
543.9906, 20708.75
544.4727, 20647.35
544.9548, 20658.19
545.4370, 20704.26
545.9191, 20735.97
546.4012, 20743.03
546.8833, 20731.15
547.3654, 20685.38
547.8475, 20622.94
548.3297, 20581.82
548.8118, 20584.81
549.2939, 20599.59
549.7760, 20613.13
550.2581, 20622.85
550.7402, 20637.35
551.2224, 20658.73
551.7045, 20681.49
552.1866, 20705.19
552.6687, 20741.81
553.1508, 20741.11
553.6329, 20679.50
554.1151, 20590.89
554.5972, 20566.88
555.0793, 20613.78
555.5614, 20661.11
556.0435, 20672.58
556.5256, 20656.40
557.0078, 20636.96
557.4899, 20614.04
557.9720, 20600.84
558.4541, 20619.02
558.9362, 20654.04
559.4183, 20678.95
559.9005, 20679.99
560.3826, 20678.51
560.8647, 20685.75
561.3468, 20701.85
561.8289, 20726.62
562.3110, 20774.28
562.7932, 20818.52
563.2753, 20840.33
563.7574, 20825.94
564.2395, 20842.74
564.7216, 20907.94
565.2037, 20995.97
565.6859, 21081.78
566.1680, 21158.30
566.6501, 21252.47
567.1322, 21370.96
567.6143, 21505.85
568.0964, 21637.97
568.5786, 21767.18
569.0607, 21881.64
569.5428, 21952.70
570.0249, 21999.21
570.5070, 22096.83
570.9891, 22249.13
571.4713, 22417.76
571.9534, 22555.57
572.4355, 22684.88
572.9176, 22845.44
573.3997, 23076.91
573.8818, 23305.37
574.3640, 23465.79
574.8461, 23584.30
575.3282, 23739.45
575.8103, 24015.05
576.2924, 24283.99
576.7745, 24494.92
577.2567, 24633.16
577.7388, 24745.89
578.2209, 24849.38
578.7030, 24918.10
579.1851, 24933.05
579.6672, 24895.91
580.1494, 24796.94
580.6315, 24627.56
581.1136, 24400.46
581.5957, 24145.30
582.0778, 23859.61
582.5599, 23576.41
583.0421, 23300.28
583.5242, 23037.85
584.0063, 22804.97
584.4884, 22600.98
584.9705, 22421.56
585.4526, 22269.18
585.9348, 22132.71
586.4169, 21994.13
586.8990, 21836.54
587.3811, 21696.43
587.8632, 21597.47
588.3453, 21528.78
588.8275, 21466.96
589.3096, 21410.82
589.7917, 21356.78
590.2738, 21300.31
590.7559, 21240.15
591.2380, 21202.36
591.7202, 21203.83
592.2023, 21206.77
592.6844, 21180.72
593.1665, 21120.90
593.6486, 21069.37
594.1307, 21029.95
594.6129, 21000.72
595.0950, 20976.43
595.5771, 20958.20
596.0592, 20953.63
596.5413, 20962.75
597.0234, 20989.17
597.5056, 21054.76
597.9877, 21152.72
598.4698, 21226.39
598.9519, 21215.07
599.4340, 21176.28
599.9161, 21158.67
600.3983, 21170.57
600.8804, 21202.05
601.3625, 21257.18
601.8446, 21327.62
602.3267, 21403.72
602.8088, 21509.34
603.2910, 21587.03
603.7731, 21618.76
604.2552, 21613.53
604.7373, 21619.60
605.2194, 21639.33
605.7015, 21663.65
606.1837, 21701.79
606.6658, 21748.94
607.1479, 21732.02
607.6300, 21640.89
608.1121, 21537.89
608.5942, 21500.23
609.0764, 21503.31
609.5585, 21491.73
610.0406, 21437.64
610.5227, 21379.96
611.0048, 21331.44
611.4869, 21302.05
611.9691, 21317.57
612.4512, 21437.50
612.9333, 21561.97
613.4154, 21635.83
613.8975, 21642.17
614.3796, 21689.03
614.8618, 21802.83
615.3439, 21935.35
615.8260, 22053.10
616.3081, 22145.96
616.7902, 22250.70
617.2723, 22371.70
617.7545, 22504.34
618.2366, 22635.97
618.7187, 22768.41
619.2008, 22925.02
619.6829, 23143.68
620.1650, 23374.27
620.6472, 23530.16
621.1293, 23616.38
621.6114, 23681.36
622.0935, 23781.79
622.5756, 23861.54
623.0577, 23864.14
623.5399, 23767.69
624.0220, 23643.91
624.5041, 23505.49
624.9862, 23356.72
625.4683, 23202.25
625.9504, 23031.48
626.4326, 22869.56
626.9147, 22720.55
627.3968, 22582.11
627.8789, 22446.46
628.3610, 22315.63
628.8431, 22186.14
629.3253, 22051.04
629.8074, 21914.82
630.2895, 21801.85
630.7716, 21712.15
631.2537, 21650.57
631.7358, 21650.35
632.2180, 21675.39
632.7001, 21657.46
633.1822, 21567.46
633.6643, 21470.67
634.1464, 21390.54
634.6285, 21335.53
635.1107, 21319.94
635.5928, 21409.42
636.0749, 21475.07
636.5570, 21457.87
637.0391, 21369.72
637.5212, 21322.58
638.0034, 21339.62
638.4855, 21363.39
638.9676, 21358.91
639.4497, 21317.79
639.9318, 21334.40
640.4139, 21422.17
640.8961, 21518.42
641.3782, 21552.79
641.8603, 21535.41
642.3424, 21506.28
642.8245, 21469.53
643.3066, 21434.74
643.7888, 21406.66
644.2709, 21388.35
644.7530, 21386.36
645.2351, 21423.95
645.7172, 21461.25
646.1993, 21472.44
646.6815, 21458.09
647.1636, 21459.04
647.6457, 21500.05
648.1278, 21542.94
648.6099, 21566.46
649.0920, 21554.48
649.5742, 21582.76
650.0563, 21661.71
650.5384, 21763.07
651.0205, 21855.33
651.5026, 21937.26
651.9847, 22007.32
652.4669, 22057.92
652.9490, 22104.80
653.4311, 22165.73
653.9132, 22241.73
654.3953, 22338.08
654.8774, 22463.61
655.3596, 22605.79
655.8417, 22767.85
656.3238, 22947.00
656.8059, 23103.59
657.2880, 23175.33
657.7701, 23255.60
658.2523, 23411.67
658.7344, 23717.75
659.2165, 23925.59
659.6986, 23994.44
660.1807, 24016.46
660.6628, 24114.21
661.1450, 24296.67
