##NAMES=Magnesiotaaffeite-6N3S
##RRUFFID=X070005
##IDEAL CHEMISTRY=Mg_2_BeAl_6_O_12_
##LOCALITY=Tunduru, Tanzania
##OWNER=www.multicolour.com
##SOURCE=www.multicolour.com
##DESCRIPTION=Pale lavendar cut gemstone, 0.65 cts, formerly known as musgravite-18R
##STATUS=The identification of this mineral has been confirmed by single-crystal X-ray diffraction.
##URL=rruff.info/X070005
156.8507, 11527.42
157.3329, 11433.61
157.8150, 11368.20
158.2971, 11368.47
158.7792, 11388.29
159.2613, 11384.83
159.7434, 11322.18
160.2256, 11257.65
160.7077, 11213.47
161.1898, 11195.96
161.6719, 11179.56
162.1540, 11146.47
162.6361, 11109.57
163.1183, 11093.31
163.6004, 11140.90
164.0825, 11189.86
164.5646, 11199.59
165.0467, 11128.55
165.5288, 11061.62
166.0110, 11041.43
166.4931, 11060.40
166.9752, 11080.23
167.4573, 11082.24
167.9394, 11075.35
168.4215, 11068.68
168.9037, 11072.60
169.3858, 11072.58
169.8679, 11057.13
170.3500, 11025.01
170.8321, 10989.92
171.3142, 10957.39
171.7964, 10928.11
172.2785, 10903.47
172.7606, 10889.77
173.2427, 10878.61
173.7248, 10858.38
174.2069, 10822.42
174.6891, 10791.78
175.1712, 10791.95
175.6533, 10815.95
176.1354, 10837.08
176.6175, 10831.95
177.0996, 10814.38
177.5818, 10806.05
178.0639, 10815.63
178.5460, 10833.36
179.0281, 10851.34
179.5102, 10869.15
179.9923, 10878.38
180.4745, 10867.08
180.9566, 10840.69
181.4387, 10812.82
181.9208, 10781.30
182.4029, 10753.07
182.8850, 10747.06
183.3672, 10767.57
183.8493, 10789.18
184.3314, 10778.09
184.8135, 10739.26
185.2956, 10699.39
185.7777, 10671.92
186.2599, 10654.90
186.7420, 10644.13
187.2241, 10642.58
187.7062, 10641.99
188.1883, 10623.87
188.6705, 10588.62
189.1526, 10557.12
189.6347, 10551.95
190.1168, 10567.56
190.5989, 10571.92
191.0810, 10554.97
191.5632, 10523.67
192.0453, 10496.44
192.5274, 10473.87
193.0095, 10453.04
193.4916, 10428.93
193.9737, 10402.25
194.4559, 10380.75
194.9380, 10366.02
195.4201, 10358.46
195.9022, 10361.95
196.3843, 10378.83
196.8664, 10401.05
197.3486, 10415.49
197.8307, 10421.33
198.3128, 10426.89
198.7949, 10434.31
199.2770, 10443.48
199.7591, 10461.79
200.2413, 10495.03
200.7234, 10531.91
201.2055, 10537.86
201.6876, 10504.73
202.1697, 10475.02
202.6518, 10487.80
203.1340, 10550.18
203.6161, 10583.03
204.0982, 10563.12
204.5803, 10502.95
205.0624, 10476.74
205.5445, 10495.36
206.0267, 10521.73
206.5088, 10516.42
206.9909, 10472.57
207.4730, 10431.56
207.9551, 10404.28
208.4372, 10390.92
208.9194, 10379.93
209.4015, 10369.96
209.8836, 10364.83
210.3657, 10375.85
210.8478, 10413.20
211.3299, 10434.87
211.8121, 10416.43
212.2942, 10343.72
212.7763, 10302.57
213.2584, 10302.53
213.7405, 10328.43
214.2226, 10344.48
214.7048, 10348.95
215.1869, 10348.21
215.6690, 10344.31
216.1511, 10335.29
216.6332, 10329.72
217.1153, 10329.99
217.5975, 10333.94
218.0796, 10329.77
218.5617, 10311.12
219.0438, 10293.68
219.5259, 10290.75
220.0080, 10307.73
220.4902, 10324.82
220.9723, 10342.99
221.4544, 10361.99
221.9365, 10354.74
222.4186, 10302.21
222.9007, 10245.63
223.3829, 10234.30
223.8650, 10289.39
224.3471, 10345.60
224.8292, 10388.24
225.3113, 10415.84
225.7934, 10438.06
226.2756, 10451.62
226.7577, 10462.25
227.2398, 10479.00
227.7219, 10505.25
228.2040, 10531.98
228.6861, 10558.00
229.1683, 10587.82
229.6504, 10601.83
230.1325, 10589.48
230.6146, 10563.85
231.0967, 10558.58
231.5789, 10578.91
232.0610, 10611.66
232.5431, 10649.04
233.0252, 10684.26
233.5073, 10740.12
233.9894, 10830.65
234.4716, 10945.37
234.9537, 11028.78
235.4358, 11051.31
235.9179, 11079.60
236.4000, 11162.38
236.8821, 11328.22
237.3643, 11490.57
237.8464, 11633.85
238.3285, 11757.77
238.8106, 11901.02
239.2927, 12076.95
239.7748, 12258.66
240.2570, 12424.07
240.7391, 12595.57
241.2212, 12712.15
241.7033, 12775.15
242.1854, 12793.20
242.6675, 12672.86
243.1497, 12350.64
243.6318, 11940.28
244.1139, 11582.30
244.5960, 11276.26
245.0781, 11024.43
245.5602, 10834.44
246.0424, 10716.75
246.5245, 10621.33
247.0066, 10551.10
247.4887, 10501.45
247.9708, 10466.31
248.4529, 10451.77
248.9351, 10441.79
249.4172, 10429.14
249.8993, 10407.77
250.3814, 10399.77
250.8635, 10415.82
251.3456, 10442.87
251.8278, 10440.24
252.3099, 10385.03
252.7920, 10334.45
253.2741, 10322.72
253.7562, 10377.79
254.2383, 10404.97
254.7205, 10383.43
255.2026, 10328.09
255.6847, 10312.40
256.1668, 10357.75
256.6489, 10412.59
257.1310, 10441.15
257.6132, 10428.14
258.0953, 10425.07
258.5774, 10439.00
259.0595, 10468.81
259.5416, 10505.19
260.0237, 10555.16
260.5059, 10602.12
260.9880, 10627.89
261.4701, 10618.34
261.9522, 10623.45
262.4343, 10653.62
262.9164, 10708.74
263.3986, 10776.06
263.8807, 10866.94
264.3628, 10956.12
264.8449, 11013.20
265.3270, 11029.06
265.8091, 11037.32
266.2913, 11047.29
266.7734, 11059.45
267.2555, 11061.19
267.7376, 11059.93
268.2197, 11038.14
268.7018, 10961.41
269.1840, 10807.56
269.6661, 10665.70
270.1482, 10569.38
270.6303, 10524.27
271.1124, 10476.79
271.5945, 10422.31
272.0767, 10371.69
272.5588, 10346.40
273.0409, 10354.85
273.5230, 10362.12
274.0051, 10351.81
274.4872, 10320.48
274.9694, 10295.77
275.4515, 10277.87
275.9336, 10266.24
276.4157, 10260.91
276.8978, 10263.26
277.3799, 10265.81
277.8621, 10222.78
278.3442, 10258.44
278.8263, 10276.55
279.3084, 10278.03
279.7905, 10213.13
280.2726, 10233.95
280.7548, 10220.42
281.2369, 10205.48
281.7190, 10238.37
282.2011, 10183.12
282.6832, 10215.25
283.1653, 10212.50
283.6475, 10225.72
284.1296, 10204.36
284.6117, 10193.69
285.0938, 10217.59
285.5759, 10222.35
286.0580, 10197.01
286.5402, 10179.86
287.0223, 10163.25
287.5044, 10144.46
287.9865, 10151.54
288.4686, 10187.08
288.9507, 10221.47
289.4329, 10224.17
289.9150, 10199.79
290.3971, 10189.32
290.8792, 10207.52
291.3614, 10239.78
291.8435, 10249.14
292.3256, 10234.60
292.8077, 10214.45
293.2898, 10201.03
293.7719, 10194.44
294.2541, 10197.08
294.7362, 10214.64
295.2183, 10238.55
295.7004, 10244.97
296.1825, 10233.31
296.6646, 10230.15
297.1468, 10269.74
297.6289, 10339.97
298.1110, 10400.11
298.5931, 10433.14
299.0752, 10450.22
299.5573, 10465.58
300.0395, 10478.98
300.5216, 10502.96
301.0037, 10554.10
301.4858, 10624.79
301.9679, 10696.66
302.4500, 10774.73
302.9322, 10844.12
303.4143, 10882.43
303.8964, 10890.00
304.3785, 10878.89
304.8606, 10853.64
305.3427, 10817.48
305.8249, 10776.03
306.3070, 10722.13
306.7891, 10668.86
307.2712, 10631.95
307.7533, 10611.02
308.2354, 10600.10
308.7176, 10587.85
309.1997, 10582.81
309.6818, 10599.33
310.1639, 10668.47
310.6460, 10745.69
311.1281, 10785.87
311.6103, 10786.38
312.0924, 10792.32
312.5745, 10842.23
313.0566, 10914.38
313.5387, 10976.43
314.0208, 11022.08
314.5030, 11049.17
314.9851, 11054.15
315.4672, 11036.36
315.9493, 11007.76
316.4314, 10979.20
316.9135, 10942.90
317.3957, 10888.15
317.8778, 10791.07
318.3599, 10691.22
318.8420, 10604.04
319.3241, 10530.70
319.8062, 10475.09
320.2884, 10440.69
320.7705, 10423.23
321.2526, 10417.02
321.7347, 10408.69
322.2168, 10420.59
322.6989, 10472.03
323.1811, 10574.31
323.6632, 10654.47
324.1453, 10689.23
324.6274, 10695.99
325.1095, 10695.94
325.5916, 10663.70
326.0738, 10652.52
326.5559, 10686.90
327.0380, 10783.71
327.5201, 10861.05
328.0022, 10914.38
328.4843, 10945.26
328.9665, 10956.45
329.4486, 10914.70
329.9307, 10886.83
330.4128, 10891.55
330.8949, 10940.37
331.3770, 10975.09
331.8592, 10975.91
332.3413, 10972.32
332.8234, 10999.57
333.3055, 11058.76
333.7876, 11148.03
334.2697, 11275.27
334.7519, 11452.48
335.2340, 11604.27
335.7161, 11732.81
336.1982, 11833.56
336.6803, 11901.18
337.1624, 11938.41
337.6446, 11936.13
338.1267, 11892.92
338.6088, 11808.44
339.0909, 11673.37
339.5730, 11471.48
340.0551, 11243.78
340.5373, 11033.08
341.0194, 10837.27
341.5015, 10665.71
341.9836, 10520.27
342.4657, 10401.88
342.9478, 10302.32
343.4300, 10223.37
343.9121, 10163.86
344.3942, 10131.91
344.8763, 10128.59
345.3584, 10119.40
345.8405, 10090.23
346.3227, 10045.81
346.8048, 10004.18
347.2869, 9962.512
347.7690, 9936.480
348.2511, 9957.964
348.7332, 10018.02
349.2154, 10054.78
349.6975, 10032.47
350.1796, 9976.807
350.6617, 9951.032
351.1438, 9955.820
351.6259, 9970.169
352.1081, 9975.632
352.5902, 9975.054
353.0723, 9976.375
353.5544, 9986.961
354.0365, 9998.049
354.5186, 9993.213
355.0008, 9973.087
355.4829, 9957.924
355.9650, 9976.352
356.4471, 10007.66
356.9292, 10019.32
357.4113, 9981.831
357.8935, 9935.883
358.3756, 9916.902
358.8577, 9922.915
359.3398, 9932.107
359.8219, 9933.429
360.3040, 9930.761
360.7862, 9927.796
361.2683, 9916.116
361.7504, 9913.805
362.2325, 9934.899
362.7146, 9976.242
363.1967, 10015.75
363.6789, 10046.90
364.1610, 10071.18
364.6431, 10089.47
365.1252, 10089.49
365.6073, 10096.08
366.0894, 10123.38
366.5716, 10165.20
367.0537, 10192.05
367.5358, 10174.07
368.0179, 10155.15
368.5000, 10158.91
368.9821, 10227.16
369.4643, 10271.64
369.9464, 10271.16
370.4285, 10239.11
370.9106, 10226.42
371.3927, 10249.72
371.8748, 10277.95
372.3570, 10296.59
372.8391, 10289.56
373.3212, 10303.39
373.8033, 10345.45
374.2855, 10407.53
374.7676, 10470.40
375.2497, 10539.24
375.7318, 10600.94
376.2139, 10649.21
376.6960, 10679.85
377.1782, 10715.04
377.6603, 10761.78
378.1424, 10806.39
378.6245, 10821.73
379.1066, 10805.08
379.5887, 10768.58
380.0709, 10709.98
380.5530, 10628.38
381.0351, 10553.90
381.5172, 10484.73
381.9993, 10424.75
382.4814, 10382.24
382.9636, 10324.56
383.4457, 10358.13
383.9278, 10374.14
384.4099, 10373.53
384.8920, 10306.53
385.3741, 10325.26
385.8563, 10309.63
386.3384, 10292.60
386.8205, 10323.39
387.3026, 10266.05
387.7847, 10296.09
388.2668, 10291.24
388.7490, 10302.36
389.2311, 10305.05
389.7132, 10333.74
390.1953, 10362.01
390.6774, 10394.96
391.1595, 10440.17
391.6417, 10512.79
392.1238, 10589.17
392.6059, 10648.47
393.0880, 10693.54
393.5701, 10746.20
394.0522, 10824.66
394.5344, 10912.76
395.0165, 10995.27
395.4986, 11025.52
395.9807, 11094.10
396.4628, 11243.74
396.9449, 11462.34
397.4271, 11691.21
397.9092, 11892.69
398.3913, 12114.43
398.8734, 12383.24
399.3555, 12713.07
399.8376, 13075.62
400.3198, 13469.12
400.8019, 13893.50
401.2840, 14349.66
401.7661, 14870.17
402.2482, 15389.83
402.7303, 15878.66
403.2125, 16301.35
403.6946, 16780.13
404.1767, 17366.54
404.6588, 17989.51
405.1409, 18499.03
405.6230, 18875.30
406.1052, 19191.72
406.5873, 19438.81
407.0694, 19595.59
407.5515, 19881.79
408.0336, 20278.89
408.5157, 20842.58
408.9979, 21641.68
409.4800, 22680.70
409.9621, 23922.14
410.4442, 25423.13
410.9263, 27116.84
411.4084, 28803.93
411.8906, 30482.99
412.3727, 32057.58
412.8548, 33541.98
413.3369, 34860.41
413.8190, 35702.96
414.3011, 36085.67
414.7833, 35850.39
415.2654, 34622.34
415.7475, 32458.66
416.2296, 29866.67
416.7117, 26824.02
417.1938, 23704.88
417.6760, 20991.06
418.1581, 18822.28
418.6402, 17059.66
419.1223, 15653.40
419.6044, 14578.21
420.0865, 13722.57
420.5687, 13149.95
421.0508, 12714.19
421.5329, 12321.57
422.0150, 11945.59
422.4971, 11624.27
422.9792, 11374.84
423.4614, 11187.47
423.9435, 11034.58
424.4256, 10919.52
424.9077, 10828.60
425.3898, 10763.60
425.8719, 10742.79
426.3541, 10693.76
426.8362, 10585.99
427.3183, 10460.99
427.8004, 10366.18
428.2825, 10313.98
428.7646, 10272.02
429.2468, 10229.52
429.7289, 10185.14
430.2110, 10176.47
430.6931, 10219.15
431.1752, 10273.98
431.6573, 10305.25
432.1395, 10309.81
432.6216, 10304.88
433.1037, 10285.03
433.5858, 10261.35
434.0679, 10280.17
434.5500, 10346.59
435.0322, 10417.81
435.5143, 10450.63
435.9964, 10455.66
436.4785, 10493.72
436.9606, 10581.10
437.4427, 10687.82
437.9249, 10768.00
438.4070, 10827.28
438.8891, 10889.66
439.3712, 10963.47
439.8533, 11051.46
440.3354, 11154.15
440.8176, 11269.21
441.2997, 11411.90
441.7818, 11594.81
442.2639, 11814.63
442.7460, 12063.27
443.2281, 12360.42
443.7103, 12666.17
444.1924, 12957.32
444.6745, 13232.47
445.1566, 13505.96
445.6387, 13819.39
446.1208, 14117.29
446.6030, 14347.51
447.0851, 14527.31
447.5672, 14608.57
448.0493, 14590.68
448.5314, 14469.93
449.0135, 14221.28
449.4957, 13748.82
449.9778, 13236.46
450.4599, 12767.54
450.9420, 12324.93
451.4241, 11969.01
451.9063, 11708.46
452.3884, 11528.49
452.8705, 11401.87
453.3526, 11333.50
453.8347, 11301.68
454.3168, 11306.25
454.7990, 11349.00
455.2811, 11385.40
455.7632, 11414.69
456.2453, 11441.27
456.7274, 11478.08
457.2096, 11522.65
457.6917, 11544.36
458.1738, 11535.41
458.6559, 11495.46
459.1380, 11421.93
459.6201, 11316.06
460.1023, 11180.52
460.5844, 10987.95
461.0665, 10773.41
461.5486, 10601.70
462.0307, 10501.63
462.5128, 10427.86
462.9950, 10340.79
463.4771, 10247.91
463.9592, 10178.24
464.4413, 10155.44
464.9234, 10153.29
465.4055, 10154.43
465.8877, 10154.98
466.3698, 10161.86
466.8519, 10179.72
467.3340, 10204.41
467.8161, 10229.48
468.2982, 10252.71
468.7804, 10277.46
469.2625, 10304.32
469.7446, 10333.02
470.2267, 10365.39
470.7088, 10389.62
471.1909, 10428.68
471.6731, 10509.32
472.1552, 10654.28
472.6373, 10778.09
473.1194, 10856.39
473.6015, 10907.54
474.0836, 11004.42
474.5658, 11151.58
475.0479, 11323.27
475.5300, 11507.79
476.0121, 11704.16
476.4942, 11898.65
476.9763, 12084.21
477.4585, 12282.98
477.9406, 12516.35
478.4227, 12788.30
478.9048, 13110.24
479.3869, 13502.23
479.8690, 13943.62
480.3512, 14405.21
480.8333, 14885.90
481.3154, 15399.35
481.7975, 15997.62
482.2796, 16622.49
482.7617, 17201.48
483.2439, 17760.18
483.7260, 18226.17
484.2081, 18583.58
484.6902, 18827.10
485.1723, 18931.04
485.6544, 18860.11
486.1366, 18666.51
486.6187, 18363.72
487.1008, 17847.03
487.5829, 17407.70
488.0650, 17033.88
488.5471, 16744.92
489.0293, 16568.17
489.5114, 16479.03
489.9935, 16546.88
490.4756, 16811.38
490.9577, 17270.50
491.4398, 17802.89
491.9220, 18419.81
492.4041, 19088.02
492.8862, 19829.97
493.3683, 20652.22
493.8504, 21353.33
494.3326, 21934.48
494.8147, 22335.96
495.2968, 22497.67
495.7789, 22411.10
496.2610, 21986.24
496.7431, 21036.84
497.2253, 19741.51
497.7074, 18328.65
498.1895, 16778.46
498.6716, 15336.53
499.1537, 14144.65
499.6358, 13186.52
500.1180, 12407.39
500.6001, 11856.66
501.0822, 11429.04
501.5643, 11088.22
502.0464, 10831.86
502.5285, 10636.58
503.0107, 10545.64
503.4928, 10483.27
503.9749, 10394.91
504.4570, 10209.31
504.9391, 10080.18
505.4212, 10043.34
505.9034, 10065.93
506.3855, 10051.12
506.8676, 9976.271
507.3497, 9903.489
507.8318, 9859.398
508.3139, 9848.150
508.7961, 9831.717
509.2782, 9810.431
509.7603, 9783.582
510.2424, 9741.032
510.7245, 9684.496
511.2066, 9653.073
511.6888, 9667.978
512.1709, 9706.866
512.6530, 9721.605
513.1351, 9713.590
513.6172, 9705.605
514.0994, 9724.467
514.5815, 9749.782
515.0636, 9746.300
515.5457, 9696.039
516.0278, 9653.040
516.5099, 9664.723
516.9921, 9708.999
517.4742, 9746.038
517.9563, 9723.660
518.4384, 9741.242
518.9205, 9754.271
519.4026, 9762.993
519.8848, 9754.503
520.3669, 9768.237
520.8490, 9773.065
521.3311, 9777.527
521.8132, 9794.390
522.2953, 9788.401
522.7775, 9886.238
523.2596, 9959.163
523.7417, 10029.15
524.2238, 10095.31
524.7059, 10161.52
525.1880, 10227.21
525.6702, 10291.69
526.1523, 10371.54
526.6344, 10470.31
527.1165, 10564.70
527.5986, 10626.48
528.0807, 10659.65
528.5629, 10681.25
529.0450, 10706.36
529.5271, 10711.79
530.0092, 10664.08
530.4913, 10568.38
530.9734, 10446.19
531.4556, 10276.11
531.9377, 10107.33
532.4198, 9985.725
532.9019, 9930.208
533.3840, 9886.850
533.8661, 9834.637
534.3483, 9782.830
534.8304, 9744.164
535.3125, 9737.551
535.7946, 9726.116
536.2767, 9694.747
536.7589, 9645.322
537.2410, 9615.352
537.7231, 9608.607
538.2052, 9616.179
538.6873, 9636.654
539.1694, 9675.337
539.6516, 9699.047
540.1337, 9701.278
540.6158, 9693.980
541.0979, 9704.536
541.5800, 9732.589
542.0621, 9742.456
542.5443, 9712.595
543.0264, 9656.559
543.5085, 9597.505
543.9906, 9535.609
544.4727, 9491.599
544.9548, 9506.198
545.4370, 9541.173
545.9191, 9540.938
546.4012, 9475.425
546.8833, 9404.258
547.3654, 9359.347
547.8475, 9333.728
548.3297, 9312.364
548.8118, 9280.047
549.2939, 9259.446
549.7760, 9265.448
550.2581, 9305.082
550.7402, 9328.042
551.2224, 9314.335
551.7045, 9298.678
552.1866, 9312.815
552.6687, 9378.729
553.1508, 9413.183
553.6329, 9398.611
554.1151, 9353.926
554.5972, 9324.033
555.0793, 9309.777
555.5614, 9303.124
556.0435, 9307.082
556.5256, 9316.459
557.0078, 9306.376
557.4899, 9274.936
557.9720, 9246.904
558.4541, 9245.974
558.9362, 9264.115
559.4183, 9287.729
559.9005, 9318.092
560.3826, 9346.005
560.8647, 9361.049
561.3468, 9368.261
561.8289, 9381.763
562.3110, 9414.224
562.7932, 9447.895
563.2753, 9472.970
563.7574, 9484.981
564.2395, 9504.457
564.7216, 9529.952
565.2037, 9565.296
565.6859, 9612.576
566.1680, 9671.390
566.6501, 9745.185
567.1322, 9838.272
567.6143, 9943.563
568.0964, 10038.51
568.5786, 10120.62
569.0607, 10204.72
569.5428, 10295.74
570.0249, 10393.58
570.5070, 10493.54
570.9891, 10593.53
571.4713, 10706.47
571.9534, 10853.22
572.4355, 11019.16
572.9176, 11174.37
573.3997, 11293.60
573.8818, 11421.41
574.3640, 11601.94
574.8461, 11815.89
575.3282, 12013.78
575.8103, 12166.74
576.2924, 12307.72
576.7745, 12456.15
577.2567, 12617.61
577.7388, 12759.29
578.2209, 12906.37
578.7030, 13014.35
579.1851, 13045.19
579.6672, 12987.60
580.1494, 12881.59
580.6315, 12724.40
581.1136, 12526.61
581.5957, 12321.11
582.0778, 12107.15
582.5599, 11878.71
583.0421, 11608.49
583.5242, 11321.61
584.0063, 11090.68
584.4884, 10916.89
584.9705, 10758.67
585.4526, 10562.48
585.9348, 10363.28
586.4169, 10211.30
586.8990, 10143.72
587.3811, 10083.96
587.8632, 9986.711
588.3453, 9869.501
588.8275, 9769.656
589.3096, 9701.205
589.7917, 9648.188
590.2738, 9611.062
590.7559, 9590.676
591.2380, 9565.240
591.7202, 9531.877
592.2023, 9497.698
592.6844, 9468.063
593.1665, 9444.509
593.6486, 9420.539
594.1307, 9395.837
594.6129, 9370.826
595.0950, 9338.708
595.5771, 9302.583
596.0592, 9287.728
596.5413, 9323.804
597.0234, 9377.665
597.5056, 9396.914
597.9877, 9384.734
598.4698, 9367.130
598.9519, 9349.086
599.4340, 9339.145
599.9161, 9347.438
600.3983, 9383.829
600.8804, 9416.279
601.3625, 9431.951
601.8446, 9439.376
602.3267, 9450.536
602.8088, 9463.178
603.2910, 9484.162
603.7731, 9519.156
604.2552, 9564.438
604.7373, 9597.698
605.2194, 9618.517
605.7015, 9629.068
606.1837, 9631.277
606.6658, 9624.956
607.1479, 9600.854
607.6300, 9555.905
608.1121, 9512.125
608.5942, 9498.607
609.0764, 9504.944
609.5585, 9506.850
610.0406, 9487.415
610.5227, 9475.134
611.0048, 9498.231
611.4869, 9546.936
611.9691, 9595.226
612.4512, 9628.293
612.9333, 9661.647
613.4154, 9701.934
613.8975, 9750.192
614.3796, 9799.659
614.8618, 9843.517
615.3439, 9893.352
615.8260, 9959.877
616.3081, 10047.56
616.7902, 10130.73
617.2723, 10202.94
617.7545, 10277.26
618.2366, 10381.51
618.7187, 10515.47
619.2008, 10651.71
619.6829, 10787.26
620.1650, 10913.11
620.6472, 11019.39
621.1293, 11105.53
621.6114, 11171.19
622.0935, 11212.42
622.5756, 11235.32
623.0577, 11250.23
623.5399, 11267.23
624.0220, 11244.51
624.5041, 11146.79
624.9862, 11010.31
625.4683, 10876.87
625.9504, 10760.50
626.4326, 10631.40
626.9147, 10471.60
627.3968, 10299.10
627.8789, 10177.91
628.3610, 10119.44
628.8431, 10074.68
629.3253, 10024.71
629.8074, 9970.518
630.2895, 9915.342
630.7716, 9858.804
631.2537, 9809.354
631.7358, 9783.066
632.2180, 9767.619
632.7001, 9738.576
633.1822, 9682.626
633.6643, 9633.566
634.1464, 9620.236
634.6285, 9627.281
635.1107, 9629.074
635.5928, 9609.780
636.0749, 9591.893
636.5570, 9581.755
637.0391, 9578.825
637.5212, 9578.358
638.0034, 9577.514
638.4855, 9583.299
638.9676, 9601.954
639.4497, 9636.067
639.9318, 9659.508
640.4139, 9670.470
640.8961, 9676.994
641.3782, 9680.665
641.8603, 9685.663
642.3424, 9712.214
642.8245, 9773.629
643.3066, 9840.642
643.7888, 9881.074
644.2709, 9903.081
644.7530, 9927.265
645.2351, 9960.565
645.7172, 10000.34
646.1993, 10042.82
646.6815, 10088.68
647.1636, 10148.29
647.6457, 10236.60
648.1278, 10327.87
648.6099, 10407.88
649.0920, 10463.64
649.5742, 10554.88
650.0563, 10692.33
650.5384, 10845.69
651.0205, 10972.73
651.5026, 11073.82
651.9847, 11185.62
652.4669, 11320.24
652.9490, 11460.77
653.4311, 11585.42
653.9132, 11695.43
