##NAMES=Magnesio-hastingsite
##RRUFFID=R040010
##IDEAL CHEMISTRY=NaCa_2_(Mg_4_Fe^3+^)Si_6_Al_2_O_22_(OH)_2_
##LOCALITY=Amity, New York, USA
##OWNER=RRUFF
##SOURCE=University of Arizona Mineral Museum
##DESCRIPTION=Group of black prismatic crystals
##STATUS=The identification of this mineral has been confirmed by X-ray diffraction and chemical analysis
##URL=rruff.info/R040010
##MEASURED CHEMISTRY=(Na_0.50_K_0.43_[box]_0.07_)_Σ=1_(Ca_1.77_Na_0.23_)_Σ=2_(Mg_1.74_Fe_1.22_Fe^3+^_0.79_Mn_0.57_Al_0.30_Zn_0.25_Ti_0.13_)_Σ=5_(Si_5.95_Al_2.05_)_Σ=8_O_22_((OH)_1.75_F_0.22_Cl_0.03_)_Σ=2_; OH estimated by charge balance
##PIN_ID=L00491
##ORIENTATION=Laser parallel to [1 0 1]. Fiducial mark perpendicular to laser is parallel to b* (0 1 0)
164.6200, 29343.00
165.8510, 28894.00
167.0820, 29147.00
168.3130, 29233.00
169.5440, 29255.00
170.7750, 29528.00
172.0050, 29295.00
173.2350, 29163.00
174.4650, 29474.00
175.6950, 29327.00
176.9250, 29397.00
178.1550, 29542.00
179.3840, 29577.00
180.6130, 29300.00
181.8420, 29224.00
183.0710, 29435.00
184.3000, 29487.00
185.5280, 29504.59
186.7570, 29657.33
187.9850, 29642.00
189.2130, 29794.00
190.4400, 30039.00
191.6680, 29985.00
192.8960, 29778.00
194.1230, 29702.00
195.3500, 29969.00
196.5770, 29886.00
197.8030, 30263.00
199.0300, 30314.00
200.2560, 30910.00
201.4830, 30778.00
202.7090, 30744.00
203.9340, 29810.00
205.1600, 29315.00
206.3860, 28995.00
207.6110, 29028.00
208.8360, 29196.00
210.0610, 29567.00
211.2860, 29869.00
212.5100, 30064.00
213.7350, 30368.00
214.9590, 30843.00
216.1830, 30849.00
217.4070, 31214.00
218.6310, 31296.00
219.8540, 31677.00
221.0780, 31874.00
222.3010, 31762.00
223.5240, 32017.00
224.7470, 31857.00
225.9690, 31767.00
227.1920, 31956.00
228.4140, 31771.00
229.6360, 31414.00
230.8580, 31331.00
232.0800, 31219.00
233.3020, 31051.00
234.5230, 30734.00
235.7440, 30764.00
236.9650, 30514.00
238.1860, 30278.00
239.4070, 30179.00
240.6280, 29986.00
241.8480, 29856.00
243.0680, 29860.00
244.2880, 29740.00
245.5080, 29496.00
246.7280, 29231.00
247.9470, 29296.00
249.1660, 29388.00
250.3860, 29320.00
251.6040, 29201.00
252.8230, 28969.17
254.0420, 29172.97
255.2600, 29291.69
256.4790, 29329.94
257.6970, 29046.62
258.9150, 29178.53
260.1320, 29144.02
261.3500, 29102.70
262.5670, 29293.04
263.7840, 29056.48
265.0010, 29243.15
266.2180, 29260.87
267.4350, 29390.00
268.6510, 29564.00
269.8680, 29716.00
271.0840, 29887.29
272.3000, 30033.60
273.5160, 30218.00
274.7310, 30334.00
275.9470, 30483.00
277.1620, 30654.00
278.3770, 30966.00
279.5920, 30719.00
280.8070, 31077.00
282.0210, 31109.00
283.2360, 31155.00
284.4500, 31405.00
285.6640, 31376.00
286.8780, 31860.00
288.0920, 31936.00
289.3050, 32330.00
290.5180, 32014.00
291.7320, 32149.00
292.9450, 32150.00
294.1570, 31892.00
295.3700, 32106.00
296.5830, 31652.00
297.7950, 31940.00
299.0070, 31879.00
300.2190, 31788.00
301.4310, 31444.00
302.6420, 31582.00
303.8540, 31675.00
305.0650, 31039.00
306.2760, 31158.00
307.4870, 31334.00
308.6980, 30952.00
309.9080, 31044.00
311.1190, 31077.00
312.3290, 31107.00
313.5390, 30775.00
314.7490, 30925.00
315.9580, 30557.00
317.1680, 30822.00
318.3770, 30780.00
319.5860, 30521.00
320.7950, 30604.00
322.0040, 30402.00
323.2130, 30462.00
324.4210, 30352.00
325.6290, 30318.00
326.8380, 30247.00
328.0460, 30331.00
329.2530, 30376.00
330.4610, 30275.00
331.6680, 30176.00
332.8760, 30255.00
334.0830, 30388.00
335.2890, 30082.00
336.4960, 29899.00
337.7030, 30076.00
338.9090, 30173.00
340.1150, 29897.00
341.3210, 30025.00
342.5270, 30238.00
343.7330, 29972.00
344.9380, 29956.00
346.1440, 30036.00
347.3490, 30102.00
348.5540, 30122.00
349.7590, 30193.55
350.9630, 30521.00
352.1680, 30206.00
353.3720, 30526.00
354.5760, 30365.00
355.7800, 30623.00
356.9840, 30499.00
358.1870, 30774.00
359.3910, 30665.00
360.5940, 30987.00
361.7970, 30997.00
363.0000, 31163.00
364.2030, 31316.00
365.4050, 31440.00
366.6080, 31624.00
367.8100, 31771.67
369.0120, 31785.00
370.2140, 32023.00
371.4150, 32224.00
372.6170, 32192.00
373.8180, 32488.00
375.0190, 32370.00
376.2200, 32693.00
377.4210, 32668.00
378.6220, 32901.00
379.8220, 32766.00
381.0230, 32777.00
382.2230, 32681.00
383.4230, 32827.00
384.6220, 32725.00
385.8220, 32769.00
387.0220, 32718.21
388.2210, 32800.00
389.4200, 32585.00
390.6190, 32542.00
391.8180, 32505.00
393.0160, 32359.00
394.2150, 32499.00
395.4130, 32384.00
396.6110, 32542.00
397.8090, 32247.00
399.0060, 32169.00
400.2040, 32357.00
401.4010, 32354.00
402.5980, 32244.00
403.7950, 32414.00
404.9920, 32312.00
406.1890, 32362.00
407.3860, 32275.00
408.5820, 32179.00
409.7780, 32391.00
410.9740, 32425.00
412.1700, 32563.00
413.3650, 32709.00
414.5610, 33029.00
415.7560, 32829.00
416.9510, 33142.00
418.1460, 33180.00
419.3410, 33263.00
420.5360, 33746.00
421.7300, 33916.00
422.9240, 34093.00
424.1180, 34426.00
425.3120, 34547.07
426.5060, 34872.00
427.7000, 34740.00
428.8930, 35126.00
430.0860, 34908.00
431.2790, 34907.62
432.4720, 35024.00
433.6650, 34694.00
434.8580, 34920.00
436.0500, 34812.00
437.2420, 34429.00
438.4340, 34439.00
439.6260, 34234.00
440.8180, 34288.00
442.0090, 34127.23
443.2010, 33777.00
444.3920, 33810.00
445.5830, 33536.00
446.7740, 33247.00
447.9640, 33038.00
449.1550, 32886.00
450.3450, 32705.00
451.5350, 32514.00
452.7250, 32371.00
453.9150, 32267.00
455.1050, 32215.00
456.2940, 32019.00
457.4830, 31928.07
458.6720, 31702.00
459.8610, 31665.00
461.0500, 31586.00
462.2390, 31460.00
463.4270, 31424.00
464.6150, 31289.00
465.8040, 31304.00
466.9910, 31531.00
468.1790, 31133.00
469.3670, 31409.00
470.5540, 31126.00
471.7410, 31352.00
472.9280, 31476.00
474.1150, 31207.00
475.3020, 31457.00
476.4890, 31435.00
477.6750, 31400.00
478.8610, 31627.00
480.0470, 31642.00
481.2330, 31723.00
482.4190, 31909.00
483.6040, 32042.00
484.7900, 32009.00
485.9750, 32640.00
487.1600, 32836.00
488.3450, 32802.00
489.5290, 33146.00
490.7140, 33313.00
491.8980, 33463.00
493.0820, 33461.00
494.2660, 33896.00
495.4500, 34067.00
496.6340, 34513.00
497.8170, 34583.00
499.0010, 34758.00
500.1840, 34967.00
501.3670, 35337.00
502.5500, 35477.00
503.7320, 35583.00
504.9150, 35740.00
506.0970, 36195.00
507.2790, 36328.00
508.4610, 36375.00
509.6430, 36722.00
510.8250, 36637.00
512.0060, 36788.00
513.1870, 37001.00
514.3680, 37291.00
515.5490, 37676.00
516.7300, 37531.00
517.9110, 37873.00
519.0910, 37646.00
520.2710, 38207.00
521.4510, 38413.00
522.6310, 38607.00
523.8110, 38971.00
524.9910, 38863.00
526.1700, 39094.00
527.3490, 39268.00
528.5280, 39331.00
529.7070, 39528.00
530.8860, 39526.00
532.0650, 39569.00
533.2430, 39573.00
534.4210, 39667.00
535.5990, 39472.20
536.7770, 38953.00
537.9550, 39066.00
539.1320, 38522.00
540.3100, 38275.00
541.4870, 38144.00
542.6640, 38114.00
543.8410, 37898.00
545.0170, 37641.00
546.1940, 37233.00
547.3700, 37013.00
548.5470, 36805.00
549.7230, 36502.00
550.8980, 36574.00
552.0740, 36378.00
553.2500, 36243.00
554.4250, 35974.00
555.6000, 35766.00
556.7750, 35489.00
557.9500, 35279.20
559.1250, 35132.42
560.2990, 34915.00
561.4730, 34857.00
562.6480, 34830.00
563.8220, 34661.00
564.9950, 34417.00
566.1690, 34146.00
567.3430, 34127.00
568.5160, 33892.00
569.6890, 33698.00
570.8620, 33345.00
572.0350, 33362.00
573.2070, 33044.00
574.3800, 32762.00
575.5520, 32730.00
576.7240, 32241.00
577.8960, 32210.00
579.0680, 32126.00
580.2400, 31726.00
581.4110, 31826.00
582.5830, 31265.00
583.7540, 31445.00
584.9250, 31153.00
586.0950, 31215.00
587.2660, 30647.00
588.4370, 30517.00
589.6070, 30651.00
590.7770, 30675.00
591.9470, 30565.00
593.1170, 30399.00
594.2860, 30423.00
595.4560, 30558.00
596.6250, 30318.00
597.7940, 30305.00
598.9630, 30204.00
600.1320, 30036.00
601.3000, 30046.00
602.4690, 30225.00
603.6370, 30116.00
604.8050, 30244.00
605.9730, 30062.00
607.1410, 30052.00
608.3090, 30373.00
609.4760, 30600.00
610.6430, 30366.00
611.8100, 30283.00
612.9770, 30270.00
614.1440, 30355.00
615.3110, 30450.00
616.4770, 30430.00
617.6430, 30785.00
618.8090, 30751.00
619.9750, 30523.00
621.1410, 31119.00
622.3070, 31149.00
623.4720, 31504.00
624.6370, 31173.00
625.8020, 31544.00
626.9670, 31601.00
628.1320, 31839.00
629.2970, 31947.00
630.4610, 32108.00
631.6250, 32443.00
632.7890, 32308.00
633.9530, 32456.00
635.1170, 32796.00
636.2810, 33048.00
637.4440, 33162.00
638.6070, 33570.00
639.7700, 33386.00
640.9330, 33550.00
642.0960, 33663.00
643.2590, 33821.00
644.4210, 34139.00
645.5830, 34092.00
646.7450, 34329.00
647.9070, 34256.00
649.0690, 34513.00
650.2310, 34830.00
651.3920, 34983.00
652.5530, 35077.00
653.7140, 35270.00
654.8750, 35333.00
656.0360, 35665.00
657.1970, 35687.00
658.3570, 35958.00
659.5170, 35898.00
660.6770, 36086.00
661.8370, 35986.00
662.9970, 36257.00
664.1570, 35428.00
665.3160, 35318.00
666.4750, 35184.00
667.6340, 35005.00
668.7930, 34757.00
669.9520, 34432.00
671.1110, 34333.00
672.2690, 34024.00
673.4270, 33886.00
674.5850, 33729.00
675.7430, 33504.00
676.9010, 33427.00
678.0590, 33154.00
679.2160, 33035.85
680.3730, 32917.12
681.5300, 32776.00
682.6870, 32769.00
683.8440, 32722.00
685.0010, 32795.00
686.1570, 32421.00
687.3130, 32355.00
688.4690, 32123.00
689.6250, 32147.00
690.7810, 31977.00
691.9370, 31843.00
693.0920, 32045.00
694.2470, 31972.00
695.4020, 31831.00
696.5570, 31968.00
697.7120, 31774.00
698.8670, 32107.00
700.0210, 32144.00
701.1750, 32241.00
702.3290, 32091.00
703.4830, 32319.00
704.6370, 32360.00
705.7910, 32702.00
706.9440, 32900.00
708.0970, 32790.00
709.2510, 33130.00
710.4030, 33290.00
711.5560, 33197.00
712.7090, 33470.00
713.8610, 33643.00
715.0140, 33583.00
716.1660, 33996.00
717.3180, 34298.00
718.4690, 34233.00
719.6210, 34382.00
720.7730, 34490.00
721.9240, 34717.00
723.0750, 34702.00
724.2260, 34817.00
725.3770, 35033.00
726.5270, 35176.00
727.6780, 35302.00
728.8280, 35382.22
729.9780, 35403.98
731.1280, 35354.00
732.2780, 35384.00
733.4280, 35130.00
734.5770, 35117.00
735.7260, 35268.00
736.8760, 35257.00
738.0250, 35437.00
739.1730, 35108.00
740.3220, 35234.00
741.4700, 35103.00
742.6190, 35177.00
743.7670, 35044.00
744.9150, 34804.00
746.0630, 34865.00
747.2100, 34595.00
748.3580, 34395.00
749.5050, 34365.42
750.6520, 34647.00
751.7990, 34136.00
752.9460, 34160.00
754.0930, 33921.00
755.2390, 33754.00
756.3860, 33942.00
757.5320, 33612.00
758.6780, 33827.00
759.8240, 33682.00
760.9690, 33852.00
762.1150, 33586.00
763.2600, 33497.00
764.4060, 33824.00
765.5510, 33568.00
766.6950, 33786.00
767.8400, 33893.00
768.9850, 33742.00
770.1290, 33855.00
771.2730, 33801.00
772.4170, 33932.00
773.5610, 33952.00
774.7050, 34042.00
775.8480, 34224.00
776.9920, 33898.00
778.1350, 33913.00
779.2780, 34008.00
780.4210, 33906.00
781.5640, 33963.00
782.7060, 34058.00
783.8490, 33752.00
784.9910, 33983.00
786.1330, 33833.82
787.2750, 33857.00
788.4170, 33774.00
789.5580, 33506.00
790.7000, 33606.00
791.8410, 33208.00
792.9820, 33626.00
794.1230, 33259.00
795.2640, 33407.00
796.4040, 33048.00
797.5450, 33011.00
798.6850, 33082.00
799.8250, 33404.00
800.9650, 33087.00
802.1050, 33237.00
803.2450, 32933.00
804.3840, 32949.00
805.5230, 33047.00
806.6630, 32859.00
807.8020, 32892.00
808.9400, 32947.00
810.0790, 32886.00
811.2170, 32837.86
812.3560, 32826.00
813.4940, 32666.00
814.6320, 32587.00
815.7700, 32549.00
816.9070, 32647.00
818.0450, 32581.00
819.1820, 32519.00
820.3190, 32532.91
821.4560, 32385.00
822.5930, 32446.00
823.7300, 32378.00
824.8670, 32270.00
826.0030, 32123.00
827.1390, 32159.00
828.2750, 32023.00
829.4110, 31975.54
830.5470, 32084.00
831.6820, 31914.00
832.8180, 31910.00
833.9530, 32012.00
835.0880, 31845.00
836.2230, 32062.00
837.3580, 32106.00
838.4920, 31967.00
839.6270, 32104.00
840.7610, 31924.00
841.8950, 31919.00
843.0290, 32097.00
844.1630, 31808.00
845.2960, 32402.00
846.4300, 32222.00
847.5630, 32181.00
848.6960, 32319.00
849.8290, 32351.00
850.9620, 32230.00
852.0940, 32262.00
853.2270, 32456.00
854.3590, 32158.00
855.4910, 32439.00
856.6230, 32648.00
857.7550, 32585.00
858.8870, 32797.00
860.0180, 32603.00
861.1500, 32636.00
862.2810, 32683.00
863.4120, 32858.00
864.5430, 32993.00
865.6730, 32816.10
866.8040, 33039.37
867.9340, 33177.56
869.0640, 33235.27
870.1940, 32971.41
871.3240, 33122.78
872.4540, 33107.75
873.5830, 33085.87
874.7130, 33295.68
875.8420, 33078.57
876.9710, 33284.68
878.1000, 33321.84
879.2290, 33436.33
880.3570, 33383.36
881.4860, 33335.00
882.6140, 33722.00
883.7420, 33636.00
884.8700, 33687.00
885.9980, 33438.00
887.1250, 33468.00
888.2530, 33526.00
889.3800, 33383.00
890.5070, 33379.00
891.6340, 33480.00
892.7610, 33555.00
893.8880, 33754.00
895.0140, 33571.85
896.1400, 33530.00
897.2670, 33250.00
898.3930, 33583.00
899.5180, 33536.00
900.6440, 33576.00
901.7700, 33364.00
902.8950, 33729.00
904.0200, 33574.00
905.1450, 33523.00
906.2700, 33642.00
907.3950, 33645.00
908.5190, 33784.00
909.6440, 33673.00
910.7680, 33802.00
911.8920, 34059.00
913.0160, 33820.00
914.1400, 33913.00
915.2630, 33861.00
916.3870, 34159.00
917.5100, 34271.00
918.6330, 34149.00
919.7560, 34191.00
920.8790, 34219.00
922.0010, 34236.32
923.1240, 34225.00
924.2460, 34391.00
925.3680, 34363.00
926.4900, 34491.00
927.6120, 34471.00
928.7340, 34571.00
929.8550, 34626.00
930.9760, 34621.00
932.0980, 34754.00
933.2190, 34762.85
934.3390, 34860.32
935.4600, 34854.00
936.5810, 35058.00
937.7010, 35133.96
938.8210, 35256.17
939.9410, 35241.00
941.0610, 35427.00
942.1810, 35327.00
943.3010, 35475.00
944.4200, 35471.00
945.5390, 35681.00
946.6580, 35703.00
947.7770, 35693.00
948.8960, 35686.00
950.0150, 35828.00
951.1330, 35906.00
952.2510, 35976.00
953.3690, 36179.00
954.4870, 36102.00
955.6050, 35911.00
956.7230, 35964.00
957.8400, 36035.00
958.9580, 36299.00
960.0750, 35911.00
961.1920, 36074.00
962.3090, 36440.00
963.4250, 36632.00
964.5420, 36404.00
965.6580, 36610.00
966.7740, 36484.00
967.8900, 36618.00
969.0060, 36494.00
970.1220, 36668.00
971.2380, 36902.00
972.3530, 36774.00
973.4680, 37164.00
974.5830, 37119.00
975.6980, 37258.00
976.8130, 37200.00
977.9280, 37319.00
979.0420, 37723.00
980.1560, 37658.00
981.2710, 37670.00
982.3850, 38051.00
983.4980, 38093.00
984.6120, 38256.00
985.7260, 38137.00
986.8390, 38523.00
987.9520, 38508.00
989.0650, 38640.00
990.1780, 39146.00
991.2910, 38959.00
992.4030, 39191.00
993.5160, 39307.00
994.6280, 39403.00
995.7400, 39446.00
996.8520, 39713.00
997.9640, 39719.00
999.0750, 40044.00
1000.187, 40059.00
1001.298, 40208.00
1002.409, 40245.00
1003.520, 40273.00
1004.631, 40221.00
1005.741, 40608.00
1006.852, 40563.00
1007.962, 40858.00
1009.072, 40831.00
1010.182, 40623.00
1011.292, 40817.00
1012.402, 40877.00
1013.511, 41032.00
1014.621, 40636.00
1015.730, 40357.00
1016.839, 40757.00
1017.948, 40940.00
1019.056, 40877.00
1020.165, 40930.73
1021.273, 40678.00
1022.382, 40625.00
1023.490, 40476.00
1024.598, 40206.00
1025.706, 40062.00
1026.813, 39882.00
1027.921, 39710.00
1029.028, 39966.00
1030.135, 39825.00
1031.242, 39381.00
1032.349, 39583.00
1033.456, 39300.00
1034.562, 39423.00
1035.668, 39285.00
1036.775, 39016.00
1037.881, 38974.00
1038.987, 38705.00
1040.092, 38865.00
1041.198, 38576.00
1042.303, 38433.00
1043.408, 38619.00
1044.514, 38572.00
1045.618, 38290.00
1046.723, 38361.00
1047.828, 38161.00
1048.932, 37880.00
1050.037, 37959.00
1051.141, 38074.00
1052.245, 38039.00
1053.349, 37858.00
1054.452, 37900.00
1055.556, 37926.00
1056.659, 37547.00
1057.762, 37692.99
1058.865, 38011.00
1059.968, 37824.00
1061.071, 37494.00
1062.174, 37786.00
1063.276, 37764.00
1064.378, 37500.00
1065.480, 37563.00
1066.582, 37315.00
1067.684, 37385.00
1068.786, 37302.00
1069.887, 37324.00
1070.988, 37372.00
1072.090, 37322.69
1073.191, 37281.00
1074.291, 37376.00
1075.392, 37072.00
1076.493, 37247.00
1077.593, 37069.00
1078.693, 37610.00
1079.793, 37087.00
1080.893, 37205.00
1081.993, 37651.00
1083.092, 37187.00
1084.192, 37050.00
1085.291, 37045.00
1086.390, 36797.00
1087.489, 37010.00
1088.588, 36818.00
1089.686, 36731.00
1090.785, 36559.00
1091.883, 36429.00
1092.981, 36406.00
1094.079, 36312.00
1095.177, 36032.00
1096.275, 36183.00
1097.373, 35816.00
1098.470, 35926.00
1099.567, 35924.00
1100.664, 36069.00
1101.761, 35527.00
1102.858, 35529.00
1103.954, 35258.00
1105.051, 35538.00
1106.147, 35231.00
1107.243, 35315.00
1108.339, 34785.05
1109.435, 34936.46
1110.531, 35002.82
1111.626, 34988.73
1112.722, 34653.04
1113.817, 34732.62
1114.912, 34645.79
1116.007, 34552.14
1117.101, 34690.20
1118.196, 34401.32
1119.290, 34535.70
1120.385, 34501.10
1121.479, 34543.86
1122.573, 34419.20
1123.666, 34346.28
1124.760, 34440.80
1125.853, 34442.64
1126.947, 34298.70
1128.040, 34346.41
1129.133, 34051.76
1130.226, 34057.55
1131.318, 34192.98
1132.411, 34057.50
1133.503, 34108.31
1134.596, 33934.00
1135.688, 33892.00
1136.780, 34034.00
1137.871, 33754.00
1138.963, 33700.00
1140.054, 33914.00
1141.146, 34114.00
1142.237, 34120.00
1143.328, 33843.00
1144.419, 33717.00
1145.509, 33840.00
1146.600, 33644.00
1147.690, 33722.00
1148.780, 33597.00
1149.870, 33635.00
1150.960, 33708.00
1152.050, 33619.00
1153.139, 33601.00
1154.229, 34344.00
1155.318, 33821.00
1156.407, 34096.00
1157.496, 33400.00
1158.585, 33528.00
1159.674, 33699.00
1160.762, 33580.00
1161.850, 33559.00
1162.939, 33759.00
1164.027, 33241.00
1165.114, 33470.00
1166.202, 33780.00
1167.290, 33480.00
1168.377, 33624.00
1169.464, 33485.00
1170.551, 33750.00
1171.638, 33642.00
1172.725, 33502.00
1173.812, 33523.00
1174.898, 33407.56
1175.984, 33610.01
1177.071, 33727.41
1178.157, 33764.31
1179.242, 33479.65
1180.328, 33610.22
1181.414, 33574.39
1182.499, 33531.72
1183.584, 33720.73
1184.669, 33482.84
1185.754, 33668.16
1186.839, 33684.55
1187.924, 33778.26
1189.008, 33704.53
1190.092, 33682.52
1191.177, 33827.99
1192.260, 33880.71
1193.344, 33787.71
1194.428, 33886.33
1195.512, 33642.58
1196.595, 33699.25
1197.678, 33885.55
1198.761, 33566.00
1199.844, 33765.00
1200.927, 33968.00
1202.009, 33831.91
1203.092, 33894.00
1204.174, 33801.00
1205.256, 33500.00
1206.338, 33623.00
1207.420, 33578.26
1208.502, 33537.00
1209.583, 33686.00
1210.665, 33676.00
1211.746, 33631.00
1212.827, 33783.00
1213.908, 33925.00
1214.988, 33689.00
1216.069, 33889.00
1217.149, 33703.00
1218.230, 34026.00
1219.310, 33894.00
1220.390, 34111.00
1221.470, 33903.00
1222.549, 33979.00
1223.629, 34030.00
1224.708, 34093.00
1225.787, 34022.00
1226.866, 33911.00
1227.945, 33629.00
1229.024, 34085.00
1230.103, 33927.00
1231.181, 33946.00
1232.259, 33606.00
1233.337, 33829.00
1234.415, 33909.00
1235.493, 33764.00
1236.571, 33848.00
1237.648, 33843.00
1238.726, 33830.50
1239.803, 33871.00
1240.880, 33971.00
1241.957, 33788.00
1243.034, 34062.00
1244.110, 33974.00
1245.187, 34016.00
1246.263, 33772.00
1247.339, 33718.00
1248.415, 34002.00
1249.491, 34349.00
1250.566, 34430.00
1251.642, 34237.00
1252.717, 33988.00
1253.793, 33913.00
1254.868, 34090.00
1255.943, 34006.00
1257.017, 33959.00
1258.092, 33855.00
1259.166, 34014.00
1260.241, 33855.00
1261.315, 33872.00
1262.389, 34214.00
1263.462, 33867.00
1264.536, 33891.00
1265.610, 34049.00
1266.683, 34221.00
1267.756, 34018.00
1268.829, 33974.00
1269.902, 33888.00
1270.975, 33975.00
1272.048, 33870.00
1273.120, 33927.52
1274.192, 33990.00
1275.264, 34013.00
1276.336, 34188.00
1277.408, 34252.00
1278.480, 33856.00
1279.551, 33980.00
1280.623, 33833.00
1281.694, 33767.00
1282.765, 34123.00
1283.836, 34216.00
1284.907, 34300.00
1285.977, 34003.00
1287.048, 34275.00
1288.118, 34246.00
1289.188, 33995.00
1290.258, 34011.00
1291.328, 33962.00
1292.398, 34146.00
1293.467, 34332.00
1294.537, 34151.00
1295.606, 34271.00
1296.675, 34028.00
1297.744, 34065.60
1298.813, 34248.00
1299.882, 34057.00
1300.950, 34175.00
1302.018, 34192.00
1303.086, 34452.00
1304.155, 34411.00
1305.222, 34491.00
1306.290, 34485.00
1307.358, 34464.70
1308.425, 34292.00
1309.492, 34387.00
1310.559, 34486.00
1311.626, 34396.00
1312.693, 34489.00
1313.760, 34470.00
1314.826, 34341.00
1315.893, 34480.00
1316.959, 34692.00
1318.025, 34651.00
1319.091, 34746.86
1320.157, 34689.00
1321.222, 34704.00
1322.288, 34539.00
1323.353, 34360.00
1324.418, 34363.00
