##NAMES=Magnetite
##RRUFFID=R060222
##IDEAL CHEMISTRY=Fe^2+^Fe^3+^_2_O_4_
##LOCALITY=Cerro Hua√±aquino, Potosi Department, Bolivia
##OWNER=RRUFF
##SOURCE=Rock Currier
##DESCRIPTION=Black octahedra, the surface is hematite and the interior is magnetite
##STATUS=The identification of this mineral has been confirmed by X-ray diffraction and chemical analysis
##URL=rruff.info/R060222
##MEASURED CHEMISTRY=(Fe^2+^_0.95_Mg_0.05_)(Fe^3+^_0.99_Al_0.01_)_2_O_4_
##PIN_ID=L01600
##ORIENTATION=Laser parallel to a* (1 0 0). Fiducial mark perpendicular to laser is parallel to b [0 1 0]
124.0900, 29987.00
125.3240, 30040.00
126.5580, 30042.00
127.7920, 30111.00
129.0260, 30135.00
130.2590, 30192.00
131.4920, 29463.00
132.7250, 29364.00
133.9580, 29400.00
135.1910, 29243.00
136.4230, 29899.00
137.6560, 29623.91
138.8880, 30220.00
140.1200, 29505.00
141.3520, 29273.00
142.5830, 29173.00
143.8150, 29283.00
145.0460, 29115.00
146.2770, 29223.00
147.5080, 28901.00
148.7390, 28632.00
149.9700, 28712.00
151.2000, 28783.00
152.4310, 28833.00
153.6610, 28852.00
154.8910, 28575.00
156.1210, 28185.00
157.3500, 28043.00
158.5800, 27771.00
159.8090, 27850.00
161.0380, 28074.00
162.2670, 28757.00
163.4960, 28672.55
164.7240, 29630.00
165.9530, 28806.00
167.1810, 28179.00
168.4090, 28065.00
169.6370, 28134.00
170.8650, 27864.00
172.0920, 27849.00
173.3200, 28259.00
174.5470, 28069.00
175.7740, 28456.00
177.0010, 28642.00
178.2280, 28677.00
179.4540, 28365.00
180.6810, 28351.42
181.9070, 27779.00
183.1330, 28009.00
184.3590, 27888.00
185.5850, 27840.00
186.8100, 28263.00
188.0350, 27972.00
189.2610, 27722.00
190.4860, 27990.00
191.7110, 28245.00
192.9350, 28196.00
194.1600, 28185.00
195.3840, 28502.00
196.6080, 28426.00
197.8320, 28193.00
199.0560, 28402.00
200.2800, 28459.00
201.5030, 28461.00
202.7270, 28678.00
203.9500, 28218.00
205.1730, 27760.00
206.3950, 27170.00
207.6180, 27075.00
208.8410, 26899.00
210.0630, 26721.00
211.2850, 26807.00
212.5070, 26488.00
213.7290, 26521.00
214.9500, 27011.00
216.1720, 26929.00
217.3930, 26878.00
218.6140, 26978.00
219.8350, 26975.00
221.0560, 26768.00
222.2770, 27174.00
223.4970, 27166.00
224.7170, 26881.00
225.9370, 26961.00
227.1570, 26809.53
228.3770, 26777.00
229.5970, 26601.00
230.8160, 26516.91
232.0350, 26457.09
233.2540, 26366.00
234.4730, 26333.00
235.6920, 26281.90
236.9110, 26320.00
238.1290, 26208.00
239.3470, 26241.00
240.5650, 26201.16
241.7830, 26203.56
243.0010, 26199.00
244.2180, 26235.00
245.4360, 26199.00
246.6530, 26192.00
247.8700, 26469.00
249.0870, 26492.00
250.3040, 26986.00
251.5200, 27159.00
252.7370, 27164.00
253.9530, 27182.00
255.1690, 26955.21
256.3850, 27108.00
257.6000, 26411.00
258.8160, 26274.00
260.0310, 26167.00
261.2460, 26171.00
262.4610, 26523.00
263.6760, 26370.00
264.8910, 26513.00
266.1050, 26214.87
267.3200, 26440.85
268.5340, 26577.47
269.7480, 26629.56
270.9620, 26343.89
272.1750, 26494.34
273.3890, 26470.02
274.6020, 26438.52
275.8150, 26650.35
277.0280, 26413.79
278.2410, 26621.76
279.4540, 26652.28
280.6660, 26764.00
281.8790, 26842.00
283.0910, 26821.00
284.3030, 26885.00
285.5140, 26824.00
286.7260, 27371.00
287.9380, 27201.11
289.1490, 27300.00
290.3600, 27124.00
291.5710, 27375.00
292.7820, 27194.00
293.9920, 27277.00
295.2030, 27398.00
296.4130, 27262.00
297.6230, 27217.00
298.8330, 27251.84
300.0430, 27399.00
301.2520, 27218.00
302.4620, 27324.00
303.6710, 27224.00
304.8800, 27136.00
306.0890, 27141.00
307.2980, 27346.00
308.5070, 27279.00
309.7150, 27339.00
310.9230, 27064.00
312.1310, 27117.00
313.3390, 27009.00
314.5470, 27420.00
315.7550, 27228.00
316.9620, 27236.00
318.1690, 27010.00
319.3760, 26950.00
320.5830, 26823.00
321.7900, 27120.00
322.9960, 27139.00
324.2030, 26957.00
325.4090, 26771.00
326.6150, 26746.00
327.8210, 26844.00
329.0270, 26837.00
330.2320, 26838.00
331.4380, 26708.00
332.6430, 26790.00
333.8480, 26702.00
335.0530, 26737.00
336.2580, 26574.00
337.4620, 26678.00
338.6670, 26722.00
339.8710, 26783.00
341.0750, 26646.00
342.2790, 26764.00
343.4820, 26446.00
344.6860, 26644.00
345.8890, 26765.00
347.0920, 26459.00
348.2960, 26520.00
349.4980, 26345.00
350.7010, 26576.00
351.9040, 26634.00
353.1060, 26539.00
354.3080, 26513.00
355.5100, 26490.79
356.7120, 26323.00
357.9140, 26396.00
359.1150, 26496.00
360.3170, 26422.00
361.5180, 26345.00
362.7190, 26151.00
363.9200, 26233.00
365.1200, 26285.00
366.3210, 26299.00
367.5210, 26365.00
368.7210, 26510.00
369.9210, 26537.00
371.1210, 26602.40
372.3210, 26437.00
373.5200, 26533.00
374.7200, 26631.00
375.9190, 26290.00
377.1180, 26410.00
378.3170, 26596.00
379.5150, 26472.00
380.7140, 26542.00
381.9120, 26554.00
383.1110, 26513.42
384.3090, 26671.00
385.5060, 26550.00
386.7040, 26488.00
387.9020, 26629.00
389.0990, 26620.00
390.2960, 26721.00
391.4930, 26486.00
392.6900, 26653.00
393.8860, 26544.00
395.0830, 26643.21
396.2790, 26805.73
397.4750, 26914.11
398.6710, 26971.25
399.8670, 26823.69
401.0630, 26940.46
402.2580, 26951.27
403.4540, 26957.76
404.6490, 27111.70
405.8440, 26993.88
407.0390, 27145.48
408.2330, 27215.00
409.4280, 27131.00
410.6220, 27330.00
411.8160, 27162.00
413.0100, 27243.00
414.2040, 27224.00
415.3980, 27352.00
416.5910, 27157.00
417.7850, 27056.00
418.9780, 27141.00
420.1710, 27362.00
421.3640, 27085.00
422.5560, 27297.00
423.7490, 27221.00
424.9410, 27011.00
426.1330, 27234.00
427.3250, 27101.00
428.5170, 27275.00
429.7090, 27253.00
430.9000, 27061.00
432.0910, 27187.00
433.2820, 27000.00
434.4730, 27253.00
435.6640, 27202.00
436.8550, 27288.00
438.0450, 27059.00
439.2360, 27104.00
440.4260, 27231.00
441.6160, 27062.00
442.8060, 27138.00
443.9950, 27246.00
445.1850, 27350.00
446.3740, 27296.00
447.5630, 27166.00
448.7520, 27357.00
449.9410, 27166.00
451.1300, 27212.00
452.3180, 27552.00
453.5060, 27229.00
454.6950, 27281.00
455.8830, 27517.00
457.0700, 27287.00
458.2580, 27126.00
459.4450, 27461.00
460.6330, 27547.00
461.8200, 27390.00
463.0070, 27508.00
464.1940, 27502.00
465.3800, 27476.00
466.5670, 27595.00
467.7530, 27498.00
468.9390, 27641.00
470.1250, 27553.00
471.3110, 27616.00
472.4970, 27598.00
473.6820, 27516.00
474.8680, 27452.71
476.0530, 27692.68
477.2380, 27843.31
478.4230, 27909.39
479.6070, 27637.70
480.7920, 27802.16
481.9760, 27791.82
483.1600, 27774.31
484.3440, 28000.13
485.5280, 27777.56
486.7120, 27999.52
487.8950, 28044.00
489.0780, 28169.70
490.2620, 27955.31
491.4450, 28199.14
492.6270, 28353.59
493.8100, 28423.54
494.9920, 28155.70
496.1750, 28324.03
497.3570, 28317.54
498.5390, 28303.89
499.7210, 28533.57
500.9020, 28314.83
502.0840, 28540.65
503.2650, 28588.99
504.4460, 28718.54
505.6270, 28672.23
506.8080, 28680.24
507.9890, 28864.17
509.1690, 28950.65
510.3500, 28713.53
511.5300, 28745.00
512.7100, 28824.00
513.8900, 28698.00
515.0690, 28773.00
516.2490, 28893.00
517.4280, 29127.00
518.6070, 29071.00
519.7860, 29107.00
520.9650, 29036.00
522.1440, 29336.00
523.3220, 29121.00
524.5010, 29441.00
525.6790, 29408.00
526.8570, 29486.00
528.0350, 29547.00
529.2130, 29662.00
530.3900, 29434.00
531.5670, 29328.00
532.7450, 29415.00
533.9220, 29366.00
535.0980, 29706.00
536.2750, 29673.00
537.4520, 29535.00
538.6280, 29947.00
539.8040, 29744.00
540.9800, 29894.00
542.1560, 30006.00
543.3320, 29846.00
544.5070, 29965.00
545.6830, 29987.00
546.8580, 30009.00
548.0330, 29967.00
549.2080, 30116.00
550.3830, 30094.00
551.5570, 30254.00
552.7310, 30222.00
553.9060, 30208.00
555.0800, 30185.00
556.2540, 30071.00
557.4270, 29992.00
558.6010, 30022.00
559.7740, 30064.00
560.9470, 30057.00
562.1210, 29930.00
563.2930, 30084.00
564.4660, 30038.00
565.6390, 30245.00
566.8110, 30339.00
567.9830, 30311.41
569.1550, 30375.24
570.3270, 30269.23
571.4990, 30278.76
572.6710, 30228.95
573.8420, 30068.75
575.0130, 29954.46
576.1840, 29819.99
577.3550, 29669.97
578.5260, 29497.00
579.6970, 29382.47
580.8670, 29179.10
582.0370, 29043.12
583.2070, 28851.13
584.3770, 28636.97
585.5470, 28727.00
586.7170, 28558.00
587.8860, 28221.00
589.0550, 28066.82
590.2240, 28306.56
591.3930, 28456.96
592.5620, 28522.82
593.7310, 28250.93
594.8990, 28415.14
596.0670, 28404.57
597.2350, 28386.83
598.4030, 28612.42
599.5710, 28389.62
600.7390, 28611.36
601.9060, 28655.61
603.0740, 28781.11
604.2410, 28730.72
605.4080, 28734.65
606.5740, 28914.46
607.7410, 28996.90
608.9080, 28968.00
610.0740, 28923.00
611.2400, 28932.00
612.4060, 28989.52
613.5720, 29226.00
614.7370, 29115.00
615.9030, 29309.00
617.0680, 29285.07
618.2330, 29584.00
619.3980, 29407.00
620.5630, 29590.00
621.7280, 29654.00
622.8920, 29864.00
624.0570, 29844.00
625.2210, 30097.00
626.3850, 30135.00
627.5490, 30267.00
628.7120, 30413.00
629.8760, 30507.00
631.0390, 30523.00
632.2020, 30734.00
633.3650, 30848.64
634.5280, 31037.07
635.6910, 31195.00
636.8530, 31479.00
638.0160, 31661.00
639.1780, 31905.00
640.3400, 32012.00
641.5020, 32250.00
642.6640, 32537.32
643.8250, 32957.00
644.9870, 33231.00
646.1480, 33664.00
647.3090, 34166.00
648.4700, 34197.00
649.6300, 34775.00
650.7910, 35045.00
651.9510, 35465.00
653.1120, 35995.00
654.2720, 36358.71
655.4320, 36807.43
656.5910, 37219.00
657.7510, 37671.00
658.9100, 38028.00
660.0690, 38533.00
661.2290, 38928.67
662.3880, 39218.00
663.5460, 39729.00
664.7050, 40043.00
665.8630, 40333.18
667.0220, 40534.00
668.1800, 40561.00
669.3380, 40798.00
670.4950, 40654.00
671.6530, 40692.00
672.8100, 40777.00
673.9680, 40618.00
675.1250, 40297.00
676.2820, 40013.00
677.4390, 39600.00
678.5950, 39130.00
679.7520, 38803.89
680.9080, 38502.00
682.0640, 38055.00
683.2200, 37476.00
684.3760, 37105.00
685.5320, 36557.00
686.6870, 36205.00
687.8420, 35718.00
688.9980, 35088.00
690.1530, 34755.00
691.3070, 34427.00
692.4620, 34305.00
693.6170, 33560.00
694.7710, 33388.00
695.9250, 33323.00
697.0790, 32638.98
698.2330, 32577.00
699.3870, 31737.00
700.5400, 31362.00
701.6940, 31211.00
702.8470, 31291.00
704.0000, 30986.00
705.1530, 30849.43
706.3050, 30460.00
707.4580, 30409.00
708.6100, 29975.00
709.7630, 29777.00
710.9150, 29521.00
712.0660, 29315.00
713.2180, 29207.00
714.3700, 29032.00
715.5210, 29080.00
716.6720, 29017.00
717.8240, 28750.00
718.9740, 28850.00
720.1250, 28472.00
721.2760, 28297.00
722.4260, 28445.00
723.5770, 28121.00
724.7270, 27887.00
725.8770, 28092.00
727.0260, 27997.00
728.1760, 27876.00
729.3250, 27880.00
730.4750, 27648.00
731.6240, 27630.53
732.7730, 27569.00
733.9220, 27333.59
735.0700, 27463.24
736.2190, 27511.61
737.3670, 27483.18
738.5150, 27147.70
739.6630, 27208.70
740.8110, 27110.82
741.9590, 27006.42
743.1060, 27123.27
744.2540, 26832.46
745.4010, 26977.00
746.5480, 26963.00
747.6950, 27106.00
748.8410, 27020.00
749.9880, 26873.00
751.1340, 27088.00
752.2800, 27065.00
753.4260, 26950.00
754.5720, 26887.00
755.7180, 26893.00
756.8640, 26725.00
758.0090, 26949.00
759.1540, 26939.00
760.2990, 26912.00
761.4440, 26805.00
762.5890, 26815.00
763.7340, 26795.00
764.8780, 26861.00
766.0220, 26810.00
767.1660, 26856.00
768.3100, 26718.00
769.4540, 26893.00
770.5980, 26644.00
771.7410, 26757.00
772.8840, 26783.00
774.0280, 26637.00
775.1700, 26791.00
776.3130, 26761.00
777.4560, 26732.00
778.5980, 26537.00
779.7410, 26626.97
780.8830, 26533.38
782.0250, 26758.00
783.1670, 26448.00
784.3080, 26576.00
785.4500, 26495.00
786.5910, 26343.00
787.7320, 26344.00
788.8730, 26334.48
790.0140, 26408.00
791.1550, 26458.00
792.2950, 26575.00
793.4360, 26730.00
794.5760, 26376.00
795.7160, 26618.00
796.8560, 26435.00
797.9960, 26325.00
799.1350, 26498.00
800.2750, 26599.00
801.4140, 26525.00
802.5530, 26361.00
803.6920, 26508.00
804.8310, 26431.00
805.9690, 26545.00
807.1080, 26293.00
808.2460, 26511.00
809.3840, 26432.00
810.5220, 26396.00
811.6600, 26520.00
812.7970, 26571.00
813.9350, 26529.00
815.0720, 26226.00
816.2090, 26494.00
817.3460, 26293.00
818.4830, 26554.00
819.6200, 26695.00
820.7560, 26678.00
821.8930, 26726.79
823.0290, 26456.00
824.1650, 26579.00
825.3010, 26526.00
826.4360, 26399.00
827.5720, 26620.00
828.7070, 26503.00
829.8420, 26577.00
830.9770, 26457.00
832.1120, 26498.00
833.2470, 26375.00
834.3820, 26556.00
835.5160, 26453.00
836.6500, 26500.00
837.7840, 26459.00
838.9180, 26554.00
840.0520, 26612.00
841.1860, 26613.00
842.3190, 26426.00
843.4520, 26546.00
844.5850, 26440.00
845.7180, 26368.00
846.8510, 26555.00
847.9840, 26360.00
849.1160, 26485.73
850.2490, 26527.88
851.3810, 26503.00
852.5130, 26717.00
853.6450, 26505.76
854.7760, 26710.00
855.9080, 26630.00
857.0390, 26599.00
858.1700, 26520.00
859.3010, 26582.00
860.4320, 26557.00
861.5630, 26656.00
862.6930, 26276.00
863.8240, 26546.00
864.9540, 26716.00
866.0840, 26373.00
867.2140, 26693.00
868.3440, 26517.00
869.4730, 26729.00
870.6030, 26531.00
871.7320, 26854.00
872.8610, 26602.00
873.9900, 26624.00
875.1190, 26644.00
876.2470, 26783.00
877.3760, 26751.21
878.5040, 26713.00
879.6320, 26758.00
880.7600, 26756.74
881.8880, 26748.98
883.0150, 26824.00
884.1430, 26710.00
885.2700, 26738.00
886.3970, 26654.00
887.5240, 26871.00
888.6510, 26835.00
889.7780, 26948.00
890.9040, 26788.00
892.0310, 26794.00
893.1570, 26933.00
894.2830, 26792.00
895.4090, 26863.54
896.5350, 26991.00
897.6600, 26745.00
898.7860, 26999.00
899.9110, 26691.00
901.0360, 26759.44
902.1610, 26972.98
903.2860, 27097.18
904.4100, 27136.83
905.5350, 26838.74
906.6590, 26976.78
907.7830, 26940.03
908.9070, 26896.12
910.0310, 27095.54
911.1540, 26846.56
912.2780, 27042.12
913.4010, 27060.22
914.5240, 27159.54
915.6470, 27082.99
916.7700, 27060.77
917.8930, 27214.46
919.0150, 27270.73
920.1380, 27173.94
921.2600, 27278.41
922.3820, 27023.28
923.5040, 27083.71
924.6260, 27280.28
925.7470, 27192.31
926.8690, 27300.00
927.9900, 27333.17
929.1110, 27027.71
930.2320, 27311.15
931.3530, 27339.92
932.4730, 27107.17
933.5940, 27370.44
934.7140, 27173.74
935.8340, 27141.22
936.9540, 27232.25
938.0740, 27194.48
939.1930, 27359.77
940.3130, 27329.45
941.4320, 27281.63
942.5510, 27310.09
943.6700, 27268.20
944.7890, 27335.71
945.9080, 27275.11
947.0260, 27350.65
948.1450, 27457.07
949.2630, 27327.17
950.3810, 27447.44
951.4990, 27179.75
952.6170, 27236.68
953.7340, 27258.65
954.8520, 27488.12
955.9690, 27222.31
957.0860, 27270.22
958.2030, 27451.69
959.3200, 27446.27
960.4360, 27518.98
961.5530, 27360.37
962.6690, 27419.07
963.7850, 27417.86
964.9010, 27623.66
966.0170, 27401.00
967.1330, 27609.00
968.2480, 27376.00
969.3630, 27518.00
970.4790, 27749.00
971.5940, 27438.00
972.7080, 27628.00
973.8230, 27507.00
974.9380, 27348.00
976.0520, 27655.00
977.1660, 27623.00
978.2800, 27324.00
979.3940, 27728.00
980.5080, 27420.00
981.6220, 27729.00
982.7350, 27577.00
983.8480, 27556.00
984.9610, 27752.00
986.0740, 27792.00
987.1870, 27764.00
988.3000, 27729.00
989.4120, 27568.00
990.5250, 27621.00
991.6370, 27751.00
992.7490, 27902.00
993.8610, 27890.00
994.9720, 27689.00
996.0840, 27859.00
997.1950, 27809.00
998.3060, 27610.00
999.4170, 27649.00
1000.528, 27831.00
1001.639, 27574.10
1002.750, 27767.50
1003.860, 27879.67
1004.970, 27914.99
1006.080, 27643.26
1007.190, 27768.02
1008.300, 27733.89
1009.410, 27693.23
1010.519, 27873.79
1011.628, 27646.71
1012.738, 27823.77
1013.846, 27839.49
1014.955, 27929.04
1016.064, 27858.73
1017.172, 27925.20
1018.281, 28171.00
1019.389, 27925.00
1020.497, 28018.00
1021.605, 27844.00
1022.713, 27859.00
1023.820, 27883.00
1024.928, 27994.00
1026.035, 27907.00
1027.142, 28103.00
1028.249, 28123.00
1029.356, 27899.00
1030.462, 28117.00
1031.569, 28104.00
1032.675, 28021.00
1033.781, 28111.08
1034.887, 28031.01
1035.993, 28228.99
1037.098, 28345.73
1038.204, 28385.63
1039.309, 28118.47
1040.415, 28247.81
1041.520, 28218.25
1042.624, 28182.15
1043.729, 28367.29
1044.834, 28144.79
1045.938, 28326.40
1047.042, 28346.69
1048.146, 28440.82
1049.250, 28375.07
1050.354, 28358.70
1051.458, 28502.25
1052.561, 28557.25
1053.664, 28473.08
1054.767, 28571.89
1055.870, 28343.78
1056.973, 28647.00
1058.076, 28455.00
1059.178, 28666.00
1060.281, 28412.00
1061.383, 28487.00
1062.485, 28619.00
1063.587, 28578.00
1064.688, 28575.00
1065.790, 28457.00
1066.891, 28305.00
1067.993, 28533.00
1069.094, 28522.00
1070.195, 28336.00
1071.295, 28443.00
1072.396, 28667.00
1073.496, 28457.14
1074.597, 28575.00
1075.697, 28310.00
1076.797, 28425.00
1077.897, 28522.00
1078.996, 28581.00
1080.096, 28615.76
1081.195, 28665.35
1082.294, 28499.14
1083.393, 28602.60
1084.492, 28629.20
1085.591, 28348.76
1086.689, 28464.81
1087.788, 28421.96
1088.886, 28372.59
1089.984, 28544.44
1091.082, 28308.66
1092.180, 28477.00
1093.277, 28484.02
1094.375, 28564.88
1095.472, 28593.92
1096.569, 28403.00
1097.666, 28581.00
1098.763, 28553.00
1099.860, 28493.00
1100.956, 28741.00
1102.053, 28364.00
1103.149, 28646.00
1104.245, 28495.00
1105.341, 28507.00
1106.436, 28405.00
1107.532, 28393.46
1108.627, 28417.00
1109.723, 28386.00
1110.818, 28426.00
1111.913, 28420.00
1113.007, 28468.00
1114.102, 28486.00
1115.197, 28551.00
1116.291, 28576.00
1117.385, 28705.00
1118.479, 28395.00
1119.573, 28181.00
1120.666, 28324.00
1121.760, 28386.00
1122.853, 28278.00
1123.947, 28415.00
1125.040, 28485.00
1126.132, 28420.00
1127.225, 28465.68
1128.318, 28425.00
1129.410, 28328.00
1130.502, 28424.00
1131.595, 28198.00
1132.687, 28340.00
1133.778, 28019.00
1134.870, 28108.00
1135.961, 28095.00
1137.053, 28132.00
1138.144, 28184.00
1139.235, 28175.00
1140.326, 28311.00
1141.416, 28292.00
1142.507, 28273.00
1143.597, 28266.00
1144.688, 28155.00
1145.778, 28125.70
1146.868, 28341.00
1147.957, 27941.00
1149.047, 28155.00
1150.136, 27976.00
1151.226, 28239.00
1152.315, 28025.00
1153.404, 28047.00
1154.493, 27838.00
1155.581, 27907.92
1156.670, 28087.00
1157.758, 28008.00
1158.846, 28070.00
1159.934, 28037.45
1161.022, 28135.90
1162.110, 28039.00
1163.198, 28344.00
1164.285, 28095.00
1165.372, 28121.00
1166.459, 27944.00
1167.546, 27907.00
1168.633, 27998.00
1169.720, 27981.00
1170.806, 27914.00
1171.892, 28024.00
1172.979, 27897.00
1174.065, 28139.00
1175.150, 28085.00
1176.236, 27903.00
1177.322, 27976.00
1178.407, 28209.00
1179.492, 27855.00
1180.577, 28374.00
1181.662, 27995.00
1182.747, 28187.00
1183.832, 28149.00
1184.916, 27932.00
1186.000, 27935.00
1187.084, 27883.22
1188.168, 27974.00
1189.252, 27928.00
1190.336, 28034.00
1191.419, 28201.00
1192.503, 28277.00
1193.586, 28058.00
1194.669, 27900.00
1195.752, 27721.00
1196.835, 27967.30
1197.917, 28157.23
1199.000, 28265.96
1200.082, 28297.81
1201.164, 28022.63
1202.246, 28143.93
1203.328, 28106.33
1204.409, 28062.22
1205.491, 28239.32
1206.572, 28008.79
1207.653, 28182.38
1208.734, 28194.66
1209.815, 28280.76
1210.896, 28206.99
1211.976, 28182.60
1213.057, 28318.13
1214.137, 28365.12
1215.217, 28272.94
1216.297, 28363.73
1217.377, 28127.61
1218.456, 28178.36
1219.536, 28352.88
1220.615, 28268.74
1221.694, 27920.00
1222.773, 28368.00
1223.852, 28119.00
1224.931, 28090.00
1226.009, 28253.00
1227.088, 28284.00
1228.166, 27987.00
1229.244, 28146.00
1230.322, 28163.00
1231.400, 28022.00
1232.477, 28123.00
1233.555, 28132.70
1234.632, 28135.00
1235.709, 28280.00
1236.786, 28080.00
1237.863, 28165.42
1238.939, 28199.00
1240.016, 28239.00
1241.092, 28239.00
1242.168, 28217.57
1243.245, 28424.00
1244.320, 28192.00
1245.396, 28071.00
1246.472, 28176.00
1247.547, 28591.00
1248.622, 28396.85
1249.697, 28396.00
1250.772, 28299.00
1251.847, 28281.00
1252.922, 28204.27
1253.996, 28760.00
1255.071, 28520.00
1256.145, 28514.00
1257.219, 28545.00
1258.293, 28378.00
1259.366, 28411.00
1260.440, 28545.00
1261.513, 28224.00
1262.587, 28309.00
1263.660, 28628.00
1264.733, 28476.00
1265.805, 28358.00
1266.878, 28485.00
1267.951, 28404.00
1269.023, 28659.00
1270.095, 28172.00
1271.167, 28250.00
1272.239, 28526.00
1273.311, 28527.00
1274.382, 28662.00
1275.454, 28633.00
1276.525, 28708.00
1277.596, 28624.00
1278.667, 28611.00
1279.738, 28562.00
1280.808, 28563.00
1281.879, 28515.79
1282.949, 28512.99
1284.019, 28583.00
1285.089, 28450.00
1286.159, 28550.59
1287.229, 28675.00
1288.298, 28635.00
1289.368, 28697.00
1290.437, 28691.00
1291.506, 28737.00
1292.575, 28769.00
1293.644, 28788.00
1294.712, 28778.00
1295.781, 28741.00
1296.849, 28736.22
1297.917, 28751.67
