##NAMES=Magnesio-hastingsite
##RRUFFID=R040010
##IDEAL CHEMISTRY=NaCa_2_(Mg_4_Fe^3+^)Si_6_Al_2_O_22_(OH)_2_
##LOCALITY=Amity, New York, USA
##OWNER=RRUFF
##SOURCE=University of Arizona Mineral Museum
##DESCRIPTION=Group of black prismatic crystals
##STATUS=The identification of this mineral has been confirmed by X-ray diffraction and chemical analysis
##URL=rruff.info/R040010
##MEASURED CHEMISTRY=(Na_0.50_K_0.43_[box]_0.07_)_Σ=1_(Ca_1.77_Na_0.23_)_Σ=2_(Mg_1.74_Fe_1.22_Fe^3+^_0.79_Mn_0.57_Al_0.30_Zn_0.25_Ti_0.13_)_Σ=5_(Si_5.95_Al_2.05_)_Σ=8_O_22_((OH)_1.75_F_0.22_Cl_0.03_)_Σ=2_; OH estimated by charge balance
##PIN_ID=L00361
##ORIENTATION=Laser parallel to -b* (0 -1 0). Fiducial mark perpendicular to laser is parallel to c [0 0 1]
173.2350, 32445.00
174.4650, 32520.00
175.6950, 32787.00
176.9250, 32924.00
178.1550, 33095.85
179.3840, 33151.00
180.6130, 33460.00
181.8420, 33549.00
183.0710, 33751.00
184.3000, 33736.00
185.5280, 33784.01
186.7570, 33835.00
187.9850, 33748.00
189.2130, 33819.00
190.4400, 33791.45
191.6680, 33873.00
192.8960, 33933.00
194.1230, 34109.00
195.3500, 34110.00
196.5770, 34576.00
197.8030, 34460.00
199.0300, 35356.00
200.2560, 35980.00
201.4830, 36662.00
202.7090, 36578.00
203.9340, 36431.00
205.1600, 37032.00
206.3860, 37719.00
207.6110, 38746.00
208.8360, 40187.00
210.0610, 41767.00
211.2860, 43712.00
212.5100, 45963.00
213.7350, 47532.00
214.9590, 49619.00
216.1830, 51132.00
217.4070, 53107.00
218.6310, 54537.12
219.8540, 56069.00
221.0780, 56840.00
222.3010, 57007.00
223.5240, 56993.00
224.7470, 56153.00
225.9690, 55454.00
227.1920, 54400.00
228.4140, 52232.00
229.6360, 50487.00
230.8580, 48854.00
232.0800, 47561.00
233.3020, 45938.00
234.5230, 44733.00
235.7440, 43389.00
236.9650, 42945.00
238.1860, 42370.00
239.4070, 41540.00
240.6280, 41170.00
241.8480, 40701.00
243.0680, 40425.00
244.2880, 40301.00
245.5080, 40031.00
246.7280, 39659.00
247.9470, 39957.00
249.1660, 39514.00
250.3860, 39605.00
251.6040, 39545.00
252.8230, 39273.00
254.0420, 39105.00
255.2600, 39046.00
256.4790, 39600.00
257.6970, 40642.00
258.9150, 40097.01
260.1320, 40239.00
261.3500, 39621.00
262.5670, 39335.00
263.7840, 39360.00
265.0010, 39326.00
266.2180, 39510.00
267.4350, 39668.66
268.6510, 39875.18
269.8680, 40244.00
271.0840, 40448.00
272.3000, 40919.00
273.5160, 41281.00
274.7310, 41474.00
275.9470, 42286.00
277.1620, 42589.00
278.3770, 42816.00
279.5920, 43723.00
280.8070, 44146.00
282.0210, 44885.00
283.2360, 45202.00
284.4500, 45649.00
285.6640, 45932.00
286.8780, 46235.00
288.0920, 46495.00
289.3050, 46717.29
290.5180, 46964.00
291.7320, 47077.00
292.9450, 47263.00
294.1570, 47343.00
295.3700, 47084.00
296.5830, 46736.00
297.7950, 46619.00
299.0070, 46412.00
300.2190, 46050.00
301.4310, 45630.00
302.6420, 45248.00
303.8540, 44832.78
305.0650, 44381.00
306.2760, 44048.00
307.4870, 43743.00
308.6980, 43478.00
309.9080, 42862.00
311.1190, 42426.00
312.3290, 41754.00
313.5390, 41598.00
314.7490, 40938.00
315.9580, 40586.00
317.1680, 40097.00
318.3770, 39758.00
319.5860, 39268.00
320.7950, 38700.00
322.0040, 38292.00
323.2130, 38035.00
324.4210, 37578.00
325.6290, 37584.00
326.8380, 37083.00
328.0460, 36856.00
329.2530, 36350.00
330.4610, 36239.00
331.6680, 36041.00
332.8760, 35696.00
334.0830, 35581.00
335.2890, 35461.00
336.4960, 35562.00
337.7030, 35587.00
338.9090, 35457.00
340.1150, 35297.00
341.3210, 35347.00
342.5270, 35618.00
343.7330, 35410.00
344.9380, 35398.00
346.1440, 35126.00
347.3490, 35553.00
348.5540, 35518.00
349.7590, 35530.00
350.9630, 35584.00
352.1680, 35628.00
353.3720, 35749.00
354.5760, 36017.00
355.7800, 36152.00
356.9840, 36276.00
358.1870, 36506.00
359.3910, 36665.00
360.5940, 36684.00
361.7970, 36689.00
363.0000, 37074.00
364.2030, 37083.00
365.4050, 36962.00
366.6080, 37257.00
367.8100, 37593.00
369.0120, 37518.00
370.2140, 37617.00
371.4150, 37581.00
372.6170, 37604.00
373.8180, 37603.89
375.0190, 37746.00
376.2200, 37597.00
377.4210, 37520.00
378.6220, 37577.00
379.8220, 37188.00
381.0230, 37139.00
382.2230, 36705.00
383.4230, 36688.00
384.6220, 36850.00
385.8220, 36291.00
387.0220, 36202.00
388.2210, 35715.00
389.4200, 35796.00
390.6190, 35535.00
391.8180, 35211.00
393.0160, 35003.00
394.2150, 34597.00
395.4130, 34163.00
396.6110, 34302.00
397.8090, 34227.00
399.0060, 33856.00
400.2040, 33727.00
401.4010, 33630.00
402.5980, 33529.00
403.7950, 33462.00
404.9920, 33272.00
406.1890, 33312.00
407.3860, 33269.00
408.5820, 33059.00
409.7780, 33230.00
410.9740, 33260.00
412.1700, 33406.00
413.3650, 33648.00
414.5610, 33685.00
415.7560, 33885.00
416.9510, 34152.00
418.1460, 34255.00
419.3410, 34676.00
420.5360, 34867.00
421.7300, 35300.00
422.9240, 35249.00
424.1180, 35455.00
425.3120, 35720.00
426.5060, 35973.00
427.7000, 35726.00
428.8930, 35865.00
430.0860, 35913.00
431.2790, 35143.00
432.4720, 34920.00
433.6650, 34736.00
434.8580, 34304.00
436.0500, 33993.00
437.2420, 33845.00
438.4340, 33396.00
439.6260, 33050.00
440.8180, 32872.00
442.0090, 32824.00
443.2010, 32671.00
444.3920, 32429.00
445.5830, 31975.00
446.7740, 32004.00
447.9640, 31645.00
449.1550, 31614.00
450.3450, 31288.00
451.5350, 31289.00
452.7250, 31200.00
453.9150, 31156.00
455.1050, 31081.00
456.2940, 30979.99
457.4830, 30843.00
458.6720, 30782.00
459.8610, 30661.00
461.0500, 30585.00
462.2390, 30418.00
463.4270, 30330.00
464.6150, 30283.00
465.8040, 30095.00
466.9910, 30133.00
468.1790, 29987.00
469.3670, 29931.00
470.5540, 29860.00
471.7410, 29788.00
472.9280, 29875.00
474.1150, 29744.00
475.3020, 29679.00
476.4890, 29871.00
477.6750, 29780.00
478.8610, 29649.00
480.0470, 30066.00
481.2330, 30210.00
482.4190, 30153.00
483.6040, 30277.00
484.7900, 30364.00
485.9750, 30591.00
487.1600, 30681.00
488.3450, 30891.00
489.5290, 31031.00
490.7140, 31303.00
491.8980, 31363.00
493.0820, 31765.00
494.2660, 31650.00
495.4500, 32032.00
496.6340, 32315.00
497.8170, 32589.00
499.0010, 33139.00
500.1840, 33009.00
501.3670, 33404.00
502.5500, 33374.00
503.7320, 33821.00
504.9150, 34063.00
506.0970, 34388.00
507.2790, 34692.00
508.4610, 34948.00
509.6430, 35370.00
510.8250, 35716.00
512.0060, 36171.51
513.1870, 36513.00
514.3680, 37188.00
515.5490, 37612.00
516.7300, 38206.00
517.9110, 39033.00
519.0910, 39779.00
520.2710, 40719.00
521.4510, 41863.00
522.6310, 42825.00
523.8110, 43969.00
524.9910, 44992.00
526.1700, 45931.00
527.3490, 46954.00
528.5280, 47581.26
529.7070, 48465.00
530.8860, 48643.00
532.0650, 49095.00
533.2430, 49357.00
534.4210, 49456.00
535.5990, 49101.00
536.7770, 48487.00
537.9550, 48111.00
539.1320, 47394.00
540.3100, 46977.00
541.4870, 45826.00
542.6640, 45276.00
543.8410, 44129.00
545.0170, 43601.00
546.1940, 42484.00
547.3700, 41549.00
548.5470, 41154.00
549.7230, 40276.00
550.8980, 40061.00
552.0740, 39078.00
553.2500, 38376.00
554.4250, 37893.00
555.6000, 37497.00
556.7750, 36762.00
557.9500, 36526.00
559.1250, 35910.00
560.2990, 35644.00
561.4730, 35236.00
562.6480, 34875.00
563.8220, 34389.00
564.9950, 33954.00
566.1690, 33819.00
567.3430, 33600.00
568.5160, 33326.00
569.6890, 33188.00
570.8620, 32942.57
572.0350, 32654.96
573.2070, 32535.00
574.3800, 32088.00
575.5520, 31890.00
576.7240, 31690.00
577.8960, 31437.00
579.0680, 31205.00
580.2400, 31134.00
581.4110, 30601.00
582.5830, 30749.00
583.7540, 30390.00
584.9250, 29981.00
586.0950, 29846.00
587.2660, 29473.00
588.4370, 29222.00
589.6070, 29246.00
590.7770, 28931.00
591.9470, 28897.00
593.1170, 28576.00
594.2860, 28422.62
595.4560, 28298.00
596.6250, 28134.00
597.7940, 28227.00
598.9630, 28263.00
600.1320, 28131.00
601.3000, 28378.00
602.4690, 28442.00
603.6370, 28285.00
604.8050, 28250.00
605.9730, 28717.00
607.1410, 28784.00
608.3090, 29222.00
609.4760, 29186.00
610.6430, 29579.00
611.8100, 29741.00
612.9770, 30189.00
614.1440, 30596.00
615.3110, 30983.00
616.4770, 31468.00
617.6430, 32075.00
618.8090, 32692.00
619.9750, 33397.00
621.1410, 34199.00
622.3070, 34924.00
623.4720, 35721.00
624.6370, 36574.00
625.8020, 37229.00
626.9670, 38402.00
628.1320, 39263.00
629.2970, 40250.00
630.4610, 41068.00
631.6250, 41790.00
632.7890, 42710.00
633.9530, 43358.00
635.1170, 44272.00
636.2810, 44796.00
637.4440, 45636.00
638.6070, 46405.00
639.7700, 46868.00
640.9330, 47640.00
642.0960, 48128.00
643.2590, 48371.00
644.4210, 49298.00
645.5830, 49626.00
646.7450, 49959.00
647.9070, 50639.00
649.0690, 51279.00
650.2310, 51603.00
651.3920, 52450.00
652.5530, 52638.00
653.7140, 53534.00
654.8750, 53930.00
656.0360, 54490.00
657.1970, 54978.00
658.3570, 54939.00
659.5170, 54604.00
660.6770, 54485.00
661.8370, 53787.00
662.9970, 52850.00
664.1570, 51984.00
665.3160, 51317.00
666.4750, 50481.39
667.6340, 50656.00
668.7930, 49310.00
669.9520, 47600.00
671.1110, 47569.00
672.2690, 47113.00
673.4270, 46870.00
674.5850, 46737.00
675.7430, 46927.00
676.9010, 47032.00
678.0590, 47422.00
679.2160, 46977.00
680.3730, 46778.00
681.5300, 46716.00
682.6870, 46119.00
683.8440, 44878.00
685.0010, 44127.00
686.1570, 42973.00
687.3130, 41381.00
688.4690, 40535.00
689.6250, 38898.00
690.7810, 37476.00
691.9370, 36362.00
693.0920, 35601.00
694.2470, 34838.00
695.4020, 34121.00
696.5570, 33569.75
697.7120, 32934.00
698.8670, 32722.00
700.0210, 32276.00
701.1750, 32218.00
702.3290, 32245.00
703.4830, 31984.00
704.6370, 32151.00
705.7910, 32071.00
706.9440, 32392.00
708.0970, 32483.00
709.2510, 32771.00
710.4030, 32931.00
711.5560, 33221.00
712.7090, 33662.00
713.8610, 33776.00
715.0140, 34007.00
716.1660, 34319.00
717.3180, 34451.00
718.4690, 34790.00
719.6210, 34986.00
720.7730, 35129.00
721.9240, 35137.00
723.0750, 35480.00
724.2260, 35437.00
725.3770, 35754.00
726.5270, 35611.00
727.6780, 36032.00
728.8280, 35865.00
729.9780, 36226.00
731.1280, 36202.00
732.2780, 36188.00
733.4280, 36114.00
734.5770, 36041.80
735.7260, 36128.00
736.8760, 35826.00
738.0250, 35722.00
739.1730, 35573.00
740.3220, 35273.60
741.4700, 35442.00
742.6190, 34829.00
743.7670, 34526.00
744.9150, 34526.00
746.0630, 34117.00
747.2100, 33406.00
748.3580, 33314.00
749.5050, 32771.00
750.6520, 32480.00
751.7990, 32114.00
752.9460, 31534.00
754.0930, 31553.00
755.2390, 30854.00
756.3860, 31059.00
757.5320, 30552.00
758.6780, 30389.00
759.8240, 30293.00
760.9690, 29987.00
762.1150, 29963.00
763.2600, 29941.00
764.4060, 29862.00
765.5510, 29787.00
766.6950, 29772.00
767.8400, 29814.18
768.9850, 29864.00
770.1290, 29947.00
771.2730, 29971.00
772.4170, 29972.00
773.5610, 29876.00
774.7050, 29908.88
775.8480, 30052.00
776.9920, 29848.00
778.1350, 30000.00
779.2780, 29881.00
780.4210, 30091.00
781.5640, 29886.00
782.7060, 29614.00
783.8490, 29652.00
784.9910, 29872.00
786.1330, 29837.00
787.2750, 29713.00
788.4170, 29576.00
789.5580, 29660.00
790.7000, 29455.13
791.8410, 29707.00
792.9820, 29408.00
794.1230, 29308.00
795.2640, 29769.00
796.4040, 29273.00
797.5450, 29572.00
798.6850, 29423.00
799.8250, 29081.00
800.9650, 28941.00
802.1050, 28893.00
803.2450, 28820.00
804.3840, 28718.00
805.5230, 28765.00
806.6630, 28875.00
807.8020, 28761.00
808.9400, 28589.00
810.0790, 28836.00
811.2170, 28595.00
812.3560, 28579.00
813.4940, 28427.00
814.6320, 28349.00
815.7700, 28334.00
816.9070, 28060.00
818.0450, 28178.00
819.1820, 28359.00
820.3190, 28239.00
821.4560, 28097.00
822.5930, 27989.00
823.7300, 27876.00
824.8670, 27757.30
826.0030, 27757.00
827.1390, 27599.00
828.2750, 27638.00
829.4110, 27706.00
830.5470, 27513.00
831.6820, 27556.00
832.8180, 27460.00
833.9530, 27526.00
835.0880, 27669.00
836.2230, 27650.00
837.3580, 27681.11
838.4920, 27819.00
839.6270, 27674.00
840.7610, 27676.00
841.8950, 27733.00
843.0290, 27906.00
844.1630, 27799.00
845.2960, 27841.00
846.4300, 28089.00
847.5630, 27927.00
848.6960, 28090.00
849.8290, 28040.00
850.9620, 28091.00
852.0940, 28340.00
853.2270, 28338.00
854.3590, 28428.00
855.4910, 28602.00
856.6230, 28659.00
857.7550, 28690.00
858.8870, 28747.00
860.0180, 28796.00
861.1500, 29041.00
862.2810, 29003.00
863.4120, 28940.00
864.5430, 29183.00
865.6730, 29424.00
866.8040, 29425.00
867.9340, 29694.00
869.0640, 29591.00
870.1940, 29953.00
871.3240, 30110.00
872.4540, 30185.00
873.5830, 30227.00
874.7130, 30348.00
875.8420, 30496.00
876.9710, 30642.00
878.1000, 30617.00
879.2290, 30678.00
880.3570, 30773.00
881.4860, 30761.64
882.6140, 30803.00
883.7420, 30798.00
884.8700, 30781.00
885.9980, 30785.00
887.1250, 30804.00
888.2530, 30828.66
889.3800, 30867.00
890.5070, 30942.42
891.6340, 31043.00
892.7610, 31178.00
893.8880, 31330.00
895.0140, 31401.00
896.1400, 31553.55
897.2670, 31793.00
898.3930, 31837.00
899.5180, 32189.00
900.6440, 32407.00
901.7700, 32716.00
902.8950, 32867.00
904.0200, 33188.00
905.1450, 33663.00
906.2700, 34098.00
907.3950, 34324.00
908.5190, 34820.00
909.6440, 35045.00
910.7680, 35372.00
911.8920, 35485.00
913.0160, 35712.55
914.1400, 35800.00
915.2630, 36072.00
916.3870, 36132.00
917.5100, 36109.76
918.6330, 35965.00
919.7560, 35895.00
920.8790, 35665.00
922.0010, 35412.00
923.1240, 34987.00
924.2460, 34873.00
925.3680, 34259.00
926.4900, 34328.00
927.6120, 34073.00
928.7340, 33610.00
929.8550, 33418.00
930.9760, 33191.00
932.0980, 33118.00
933.2190, 33042.00
934.3390, 33121.00
935.4600, 32965.04
936.5810, 32872.00
937.7010, 32798.00
938.8210, 32633.00
939.9410, 32657.00
941.0610, 32541.00
942.1810, 32470.00
943.3010, 32421.00
944.4200, 32376.00
945.5390, 32377.00
946.6580, 32368.00
947.7770, 32559.00
948.8960, 32572.00
950.0150, 32487.00
951.1330, 32335.00
952.2510, 32387.00
953.3690, 32347.00
954.4870, 32280.00
955.6050, 32173.00
956.7230, 32334.00
957.8400, 32239.00
958.9580, 31870.00
960.0750, 32093.00
961.1920, 31937.00
962.3090, 31939.00
963.4250, 31884.00
964.5420, 32078.00
965.6580, 32045.00
966.7740, 32116.00
967.8900, 31964.00
969.0060, 32074.00
970.1220, 32143.00
971.2380, 31858.00
972.3530, 31917.00
973.4680, 32087.00
974.5830, 32454.00
975.6980, 32180.00
976.8130, 32370.00
977.9280, 32461.00
979.0420, 32533.43
980.1560, 32901.00
981.2710, 32970.00
982.3850, 33239.00
983.4980, 33648.00
984.6120, 33813.00
985.7260, 33696.00
986.8390, 33921.00
987.9520, 34213.00
989.0650, 34749.00
990.1780, 35027.00
991.2910, 35246.00
992.4030, 35479.00
993.5160, 35890.00
994.6280, 36541.00
995.7400, 36651.00
996.8520, 37401.00
997.9640, 37713.00
999.0750, 38424.00
1000.187, 38578.00
1001.298, 39268.00
1002.409, 39695.00
1003.520, 40309.00
1004.631, 40497.00
1005.741, 41232.00
1006.852, 41592.00
1007.962, 41784.00
1009.072, 42229.00
1010.182, 42865.00
1011.292, 42958.00
1012.402, 42994.00
1013.511, 42972.00
1014.621, 43054.00
1015.730, 42946.00
1016.839, 42910.00
1017.948, 42785.00
1019.056, 42596.00
1020.165, 42113.00
1021.273, 42230.00
1022.382, 41679.00
1023.490, 41513.00
1024.598, 41027.00
1025.706, 40786.00
1026.813, 40369.00
1027.921, 39613.00
1029.028, 39412.00
1030.135, 39233.00
1031.242, 38524.00
1032.349, 38208.00
1033.456, 37776.00
1034.562, 37117.00
1035.668, 36744.00
1036.775, 36386.00
1037.881, 36834.00
1038.987, 35822.00
1040.092, 35409.00
1041.198, 35751.00
1042.303, 34956.00
1043.408, 34755.00
1044.514, 34387.00
1045.618, 34225.00
1046.723, 33979.00
1047.828, 33835.00
1048.932, 33642.00
1050.037, 33614.00
1051.141, 33583.00
1052.245, 33537.00
1053.349, 33317.56
1054.452, 32921.00
1055.556, 32775.00
1056.659, 32634.00
1057.762, 32280.00
1058.865, 32139.00
1059.968, 32137.00
1061.071, 32073.00
1062.174, 31846.00
1063.276, 31689.00
1064.378, 31266.00
1065.480, 31273.00
1066.582, 31183.00
1067.684, 31234.00
1068.786, 31075.50
1069.887, 30908.00
1070.988, 30798.00
1072.090, 30557.00
1073.191, 30447.00
1074.291, 30303.00
1075.392, 30274.00
1076.493, 30194.52
1077.593, 30155.00
1078.693, 30120.00
1079.793, 29904.00
1080.893, 29864.00
1081.993, 29718.42
1083.092, 29681.00
1084.192, 29495.00
1085.291, 29333.00
1086.390, 29305.00
1087.489, 29179.00
1088.588, 29086.92
1089.686, 28899.00
1090.785, 28946.00
1091.883, 28702.00
1092.981, 28710.00
1094.079, 28684.00
1095.177, 28472.00
1096.275, 28203.00
1097.373, 28123.00
1098.470, 27995.00
1099.567, 28029.00
1100.664, 27858.00
1101.761, 27629.00
1102.858, 27467.00
1103.954, 27342.00
1105.051, 27355.00
1106.147, 26989.79
1107.243, 27094.35
1108.339, 27113.87
1109.435, 27052.89
1110.531, 26670.37
1111.626, 26703.15
1112.722, 26569.44
1113.817, 26428.99
1114.912, 26520.21
1116.007, 26184.54
1117.101, 26272.16
1118.196, 26190.75
1119.290, 26186.76
1120.385, 26015.25
1121.479, 25895.54
1122.573, 25943.31
1123.666, 25898.42
1124.760, 25707.72
1125.853, 25708.72
1126.947, 25367.28
1128.040, 25326.34
1129.133, 25415.03
1130.226, 25232.83
1131.318, 25236.97
1132.411, 25170.09
1133.503, 24780.90
1134.596, 24952.31
1135.688, 24881.32
1136.780, 24576.00
1137.871, 24855.00
1138.963, 24779.00
1140.054, 25050.00
1141.146, 24750.00
1142.237, 24509.00
1143.328, 24528.00
1144.419, 24353.00
1145.509, 24493.00
1146.600, 24389.00
1147.690, 24326.00
1148.780, 24386.00
1149.870, 24283.00
1150.960, 24421.00
1152.050, 24537.00
1153.139, 24312.00
1154.229, 24251.00
1155.318, 24306.00
1156.407, 24319.00
1157.496, 24398.00
1158.585, 24349.00
1159.674, 24379.00
1160.762, 24278.00
1161.850, 24236.00
1162.939, 24163.00
1164.027, 24089.00
1165.114, 24295.00
1166.202, 24159.00
1167.290, 24359.00
1168.377, 24051.00
1169.464, 24188.34
1170.551, 24187.00
1171.638, 24269.00
1172.725, 24332.00
1173.812, 24317.00
1174.898, 24284.46
1175.984, 24283.28
1177.071, 24050.00
1178.157, 24307.00
1179.242, 24058.00
1180.328, 24239.00
1181.414, 24144.00
1182.499, 23990.00
1183.584, 24222.00
1184.669, 24243.00
1185.754, 24277.00
1186.839, 24264.00
1187.924, 24239.00
1189.008, 24369.00
1190.092, 24131.00
1191.177, 24016.00
1192.260, 24312.00
1193.344, 24291.00
1194.428, 24133.00
1195.512, 24183.00
1196.595, 24306.00
1197.678, 24213.00
1198.761, 24215.00
1199.844, 24134.00
1200.927, 24223.00
1202.009, 24212.00
1203.092, 24206.00
1204.174, 24137.00
1205.256, 24162.00
1206.338, 24099.00
1207.420, 24197.00
1208.502, 24247.00
1209.583, 24499.00
1210.665, 24301.00
1211.746, 24217.00
1212.827, 24372.00
1213.908, 24213.00
1214.988, 24281.00
1216.069, 24317.00
1217.149, 24174.00
1218.230, 24369.00
1219.310, 24278.00
1220.390, 24256.00
1221.470, 24289.00
1222.549, 24265.00
1223.629, 24241.00
1224.708, 24242.95
1225.787, 24525.00
1226.866, 24219.00
1227.945, 24423.00
1229.024, 24437.00
1230.103, 24357.00
1231.181, 24532.00
1232.259, 24415.00
1233.337, 24520.00
1234.415, 24339.00
1235.493, 24368.00
1236.571, 24291.00
1237.648, 24417.00
1238.726, 24470.00
1239.803, 24269.00
1240.880, 24272.00
1241.957, 24411.00
1243.034, 24287.00
1244.110, 24291.00
1245.187, 24283.00
1246.263, 24215.00
1247.339, 24267.61
1248.415, 24215.91
1249.491, 24372.00
1250.566, 24196.00
1251.642, 24308.00
1252.717, 24374.00
1253.793, 24347.00
1254.868, 24360.00
1255.943, 24192.00
1257.017, 24322.00
1258.092, 24266.00
1259.166, 24390.00
1260.241, 24336.00
1261.315, 24434.00
1262.389, 24158.00
1263.462, 24375.00
1264.536, 24415.00
1265.610, 24204.00
1266.683, 24343.00
1267.756, 24198.00
1268.829, 24281.00
1269.902, 24276.00
1270.975, 24314.00
1272.048, 24378.00
1273.120, 24485.00
1274.192, 24368.00
1275.264, 24387.00
1276.336, 24399.00
1277.408, 24217.00
1278.480, 24374.00
1279.551, 24294.00
1280.623, 24403.00
1281.694, 24221.00
1282.765, 24387.00
1283.836, 24336.00
1284.907, 24397.00
1285.977, 24639.00
1287.048, 24400.00
1288.118, 24383.00
1289.188, 24669.00
1290.258, 24362.00
1291.328, 24259.00
1292.398, 24266.00
1293.467, 24445.00
1294.537, 24469.00
1295.606, 24387.00
1296.675, 24647.00
1297.744, 24533.49
1298.813, 24416.00
1299.882, 24444.00
1300.950, 24613.40
1302.018, 24506.00
1303.086, 24546.00
1304.155, 24598.00
1305.222, 24350.00
1306.290, 24491.47
1307.358, 24401.33
1308.425, 24605.00
1309.492, 24369.00
1310.559, 24449.00
1311.626, 24484.00
1312.693, 24576.00
1313.760, 24584.00
1314.826, 24603.00
1315.893, 24451.00
1316.959, 24448.00
1318.025, 24452.00
1319.091, 24552.00
1320.157, 24544.00
1321.222, 24643.00
1322.288, 24508.00
1323.353, 24532.00
1324.418, 24566.00
1325.483, 24407.00
1326.548, 24460.00
1327.612, 24775.00
1328.677, 24389.00
1329.741, 24617.00
1330.806, 24298.00
1331.870, 24567.00
