##NAMES=Marialite
##RRUFFID=R040113
##IDEAL CHEMISTRY=Na_4_Al_3_Si_9_O_24_Cl
##LOCALITY=Gouverneur, New York, USA
##OWNER=RRUFF
##SOURCE=University of Arizona Mineral Museum
##DESCRIPTION=Green prismatic crystal
##STATUS=The identification of this mineral has been confirmed by X-ray diffraction and chemical analysis
##URL=rruff.info/R040113
##MEASURED CHEMISTRY=(Na_0.50_Ca_0.43_K_0.07_)_4_(Si_0.64_Al_0.36_)_12_O_24_(Cl_0.60_(CO_3_)_0.40_)
##PIN_ID=L01738
##ORIENTATION=Laser parallel to -a* (-1 0 0). Fiducial mark perpendicular to laser is parallel to c [0 0 1]
88.42900, 40429.00
89.67000, 40474.00
90.91000, 40977.00
92.14900, 41392.00
93.38900, 41470.00
94.62900, 41935.00
95.86800, 42039.00
97.10700, 42149.00
98.34600, 42489.00
99.58500, 43134.00
100.8230, 43317.00
102.0620, 43763.00
103.3000, 44599.00
104.5380, 45029.00
105.7760, 45298.00
107.0140, 46178.00
108.2510, 46913.00
109.4890, 47251.00
110.7260, 48030.00
111.9630, 48109.00
113.2000, 48484.00
114.4360, 48505.00
115.6730, 48636.00
116.9090, 48523.00
118.1450, 48506.14
119.3810, 48462.00
120.6170, 48397.00
121.8530, 48407.00
123.0880, 48509.00
124.3230, 48196.00
125.5590, 48440.00
126.7930, 48648.00
128.0280, 49024.00
129.2630, 48928.00
130.4970, 49069.00
131.7310, 49178.00
132.9650, 49152.00
134.1990, 49224.00
135.4330, 49283.00
136.6670, 49582.00
137.9000, 49589.00
139.1330, 49737.00
140.3660, 49954.00
141.5990, 50432.00
142.8320, 50993.00
144.0640, 51089.00
145.2960, 51843.00
146.5290, 52719.00
147.7610, 53439.00
148.9920, 54469.00
150.2240, 55395.00
151.4550, 56532.00
152.6870, 57781.00
153.9180, 58867.00
155.1490, 60107.00
156.3800, 61614.00
157.6100, 62770.00
158.8400, 63814.00
160.0710, 64750.00
161.3010, 65130.00
162.5310, 65692.00
163.7600, 65586.00
164.9900, 64529.00
166.2190, 64211.00
167.4480, 63304.00
168.6770, 62391.00
169.9060, 61306.00
171.1350, 60021.00
172.3630, 58823.00
173.5920, 57897.00
174.8200, 57132.00
176.0480, 56141.00
177.2760, 55250.00
178.5030, 54973.00
179.7310, 54566.00
180.9580, 54464.00
182.1850, 54134.00
183.4120, 53968.00
184.6390, 54068.36
185.8650, 54175.00
187.0920, 54282.00
188.3180, 54745.00
189.5440, 54739.00
190.7700, 54559.00
191.9960, 55087.00
193.2210, 54760.00
194.4470, 54534.00
195.6720, 54612.00
196.8970, 54440.00
198.1220, 54281.00
199.3460, 53853.00
200.5710, 53672.00
201.7950, 53253.00
203.0190, 52940.00
204.2430, 52699.00
205.4670, 52344.00
206.6910, 52137.04
207.9140, 51937.00
209.1370, 51728.00
210.3610, 51634.00
211.5840, 51510.00
212.8060, 51393.00
214.0290, 51414.00
215.2510, 51315.00
216.4740, 51490.00
217.6960, 51249.00
218.9180, 51396.00
220.1390, 51129.00
221.3610, 51458.00
222.5820, 51466.00
223.8030, 51195.00
225.0240, 51398.00
226.2450, 51480.00
227.4660, 51386.00
228.6870, 50922.00
229.9070, 51009.00
231.1270, 50627.00
232.3470, 50777.00
233.5670, 50470.00
234.7870, 49956.00
236.0060, 49990.00
237.2250, 49375.00
238.4440, 49212.00
239.6630, 49118.00
240.8820, 49122.00
242.1010, 48859.00
243.3190, 48840.00
244.5380, 48830.00
245.7560, 48998.00
246.9740, 48990.00
248.1910, 49056.00
249.4090, 49339.00
250.6260, 49130.00
251.8440, 49795.00
253.0610, 50154.00
254.2780, 50341.00
255.4940, 51435.00
256.7110, 51513.00
257.9270, 52121.00
259.1430, 52821.00
260.3600, 53836.00
261.5750, 54021.00
262.7910, 54301.00
264.0070, 54231.00
265.2220, 54151.74
266.4370, 54182.00
267.6520, 53512.00
268.8670, 53155.00
270.0820, 52407.00
271.2960, 51921.00
272.5100, 51352.00
273.7250, 50831.55
274.9390, 50447.00
276.1520, 50047.00
277.3660, 49914.00
278.5790, 49875.00
279.7930, 50116.00
281.0060, 50315.00
282.2190, 50050.00
283.4320, 50355.00
284.6440, 51000.00
285.8570, 51139.00
287.0690, 51770.00
288.2810, 52041.00
289.4930, 52100.00
290.7050, 52937.00
291.9160, 52341.00
293.1270, 52864.00
294.3390, 52594.00
295.5500, 52518.00
296.7610, 52247.00
297.9710, 51806.00
299.1820, 51644.00
300.3920, 50953.52
301.6020, 50486.00
302.8120, 49758.00
304.0220, 49379.00
305.2320, 49139.00
306.4410, 48726.67
307.6510, 48362.00
308.8600, 48330.00
310.0690, 48351.00
311.2780, 48391.34
312.4860, 48301.00
313.6950, 48498.00
314.9030, 48486.00
316.1110, 48542.00
317.3190, 48455.00
318.5270, 48611.00
319.7350, 48759.00
320.9420, 48696.00
322.1490, 48775.00
323.3570, 48982.26
324.5630, 49110.82
325.7700, 49525.00
326.9770, 49612.00
328.1830, 50076.00
329.3900, 50436.00
330.5960, 51145.00
331.8020, 51341.00
333.0070, 51636.00
334.2130, 51871.00
335.4180, 52098.00
336.6230, 52482.00
337.8290, 52244.00
339.0330, 52264.00
340.2380, 52067.00
341.4430, 52208.00
342.6470, 51805.00
343.8510, 51494.00
345.0550, 51218.00
346.2590, 51237.00
347.4630, 51123.33
348.6660, 51154.39
349.8700, 51212.00
351.0730, 51531.00
352.2760, 51671.00
353.4790, 52320.00
354.6810, 52601.00
355.8840, 52666.00
357.0860, 53426.00
358.2880, 53486.00
359.4900, 54213.00
360.6920, 54806.00
361.8940, 54322.00
363.0950, 54136.00
364.2960, 53524.00
365.4980, 53627.00
366.6990, 53614.00
367.8990, 52729.00
369.1000, 52456.00
370.3000, 52291.00
371.5010, 52346.00
372.7010, 52442.00
373.9010, 52348.00
375.1010, 52463.00
376.3000, 52147.00
377.5000, 52659.00
378.6990, 52328.00
379.8980, 52919.00
381.0970, 52757.00
382.2960, 52578.00
383.4940, 53126.00
384.6920, 52644.00
385.8910, 52953.00
387.0890, 52647.00
388.2870, 52687.00
389.4840, 52792.00
390.6820, 52607.00
391.8790, 52687.00
393.0770, 52305.00
394.2740, 52640.00
395.4700, 52545.00
396.6670, 52773.00
397.8640, 52354.00
399.0600, 53089.00
400.2560, 52637.00
401.4520, 52556.00
402.6480, 52816.00
403.8440, 52835.00
405.0390, 52701.00
406.2350, 53068.00
407.4300, 53146.00
408.6250, 53451.00
409.8200, 53499.00
411.0140, 53557.00
412.2090, 53759.00
413.4030, 53997.00
414.5970, 53987.38
415.7910, 54362.00
416.9850, 54653.65
418.1790, 54866.79
419.3720, 54766.11
420.5660, 55070.62
421.7590, 55212.65
422.9520, 55348.03
424.1440, 55709.23
425.3370, 55654.18
426.5300, 56011.95
427.7220, 56204.77
428.9140, 56473.02
430.1060, 56577.95
431.2980, 56784.00
432.4890, 57068.00
433.6810, 57388.00
434.8720, 57968.66
436.0630, 58767.00
437.2540, 59360.00
438.4450, 60376.00
439.6350, 61319.00
440.8260, 62368.00
442.0160, 63941.00
443.2060, 65692.00
444.3960, 67771.00
445.5860, 69961.00
446.7750, 73036.00
447.9650, 75852.00
449.1540, 79319.00
450.3430, 82923.00
451.5320, 87315.00
452.7210, 90973.00
453.9090, 94443.00
455.0980, 96654.00
456.2860, 98545.00
457.4740, 98642.00
458.6620, 98980.00
459.8500, 98342.00
461.0370, 97418.00
462.2250, 96115.00
463.4120, 93595.00
464.5990, 90800.00
465.7860, 87182.00
466.9720, 84246.00
468.1590, 80922.00
469.3450, 78116.00
470.5320, 75177.41
471.7180, 71931.00
472.9030, 69997.00
474.0890, 68050.00
475.2750, 66550.00
476.4600, 65182.00
477.6450, 64195.00
478.8300, 63088.91
480.0150, 62088.00
481.2000, 61516.00
482.3840, 60710.00
483.5690, 60365.00
484.7530, 60078.00
485.9370, 59777.00
487.1210, 59586.00
488.3040, 58951.00
489.4880, 59190.00
490.6710, 59053.00
491.8540, 59105.00
493.0370, 58646.00
494.2200, 58413.00
495.4030, 58562.00
496.5850, 58516.00
497.7680, 58340.00
498.9500, 58704.00
500.1320, 58499.00
501.3140, 58677.00
502.4950, 58302.00
503.6770, 58461.00
504.8580, 58334.00
506.0390, 58443.00
507.2200, 58649.00
508.4010, 58444.00
509.5820, 58738.00
510.7620, 58493.00
511.9420, 58723.00
513.1230, 59120.00
514.3030, 59029.00
515.4820, 58844.00
516.6620, 59038.00
517.8420, 59153.00
519.0210, 59424.01
520.2000, 60020.00
521.3790, 60261.00
522.5580, 60847.00
523.7360, 61457.00
524.9150, 62058.00
526.0930, 63005.00
527.2710, 63816.00
528.4490, 65164.00
529.6270, 66222.00
530.8050, 67754.00
531.9820, 69511.00
533.1590, 70758.00
534.3360, 71927.00
535.5130, 72877.00
536.6900, 72883.00
537.8670, 72800.00
539.0430, 71759.00
540.2200, 70598.00
541.3960, 68901.00
542.5720, 67605.00
543.7470, 66467.00
544.9230, 65181.00
546.0980, 64404.00
547.2740, 63645.00
548.4490, 63380.00
549.6240, 63042.00
550.7990, 62503.68
551.9730, 62202.00
553.1480, 61792.00
554.3220, 61449.00
555.4960, 61441.00
556.6700, 61271.75
557.8440, 61313.00
559.0170, 61343.00
560.1910, 61399.00
561.3640, 61596.00
562.5370, 61074.00
563.7100, 61415.00
564.8830, 61331.00
566.0550, 61097.00
567.2280, 61327.00
568.4000, 61358.00
569.5720, 61601.00
570.7440, 61490.00
571.9160, 61551.00
573.0870, 61584.00
574.2590, 61556.00
575.4300, 61757.00
576.6010, 61500.00
577.7720, 61822.00
578.9430, 61754.00
580.1140, 61831.00
581.2840, 61836.00
582.4540, 62218.00
583.6240, 62260.00
584.7940, 62226.00
585.9640, 62234.00
587.1340, 61988.00
588.3030, 62638.00
589.4720, 62318.00
590.6410, 62701.00
591.8100, 62325.00
592.9790, 62545.00
594.1480, 62600.00
595.3160, 62851.00
596.4840, 62725.00
597.6520, 62725.00
598.8200, 63148.00
599.9880, 63139.00
601.1560, 63078.00
602.3230, 63422.00
603.4900, 63823.00
604.6570, 63817.00
605.8240, 64161.00
606.9910, 64028.00
608.1580, 64240.00
609.3240, 64413.00
610.4900, 64377.00
611.6570, 64422.00
612.8230, 64275.00
613.9880, 64372.00
615.1540, 64350.00
616.3190, 64233.00
617.4850, 64224.00
618.6500, 63980.00
619.8150, 64063.00
620.9790, 63781.00
622.1440, 63965.00
623.3080, 64176.00
624.4730, 64303.00
625.6370, 64105.00
626.8010, 64701.00
627.9640, 64437.00
629.1280, 64384.00
630.2910, 64583.00
631.4550, 64628.00
632.6180, 64551.00
633.7810, 64797.00
634.9440, 64603.00
636.1060, 64908.00
637.2690, 65090.00
638.4310, 64866.00
639.5930, 64850.00
640.7550, 65207.00
641.9170, 65052.00
643.0780, 65174.00
644.2400, 65210.00
645.4010, 65347.00
646.5620, 65511.00
647.7230, 65784.00
648.8840, 65774.00
650.0450, 65636.00
651.2050, 65966.00
652.3650, 66011.00
653.5250, 66059.00
654.6850, 66210.45
655.8450, 66221.12
657.0050, 66397.00
658.1640, 66321.00
659.3230, 66497.00
660.4830, 66578.00
661.6420, 66665.00
662.8000, 66787.00
663.9590, 66775.00
665.1170, 67031.00
666.2760, 66941.00
667.4340, 67243.00
668.5920, 67235.00
669.7500, 67347.00
670.9070, 67272.00
672.0650, 67408.00
673.2220, 67681.00
674.3790, 67891.00
675.5360, 68081.00
676.6930, 68291.00
677.8500, 68355.00
679.0060, 68578.00
680.1620, 68633.00
681.3190, 68462.00
682.4750, 68087.00
683.6300, 68283.00
684.7860, 67934.00
685.9420, 68486.00
687.0970, 68239.00
688.2520, 67887.00
689.4070, 68379.00
690.5620, 68415.00
691.7170, 68300.00
692.8710, 68208.00
694.0250, 68314.16
695.1800, 68546.00
696.3340, 68570.00
697.4870, 68861.00
698.6410, 69158.00
699.7950, 69063.00
700.9480, 69460.00
702.1010, 69080.00
703.2540, 69196.00
704.4070, 69618.00
705.5600, 69534.00
706.7120, 69513.00
707.8640, 69567.00
709.0170, 69807.00
710.1690, 69715.00
711.3210, 69615.00
712.4720, 70062.00
713.6240, 70059.00
714.7750, 69931.00
715.9260, 70038.00
717.0770, 70254.00
718.2280, 70227.00
719.3790, 70391.00
720.5290, 70543.00
721.6800, 70516.00
722.8300, 70588.47
723.9800, 70524.00
725.1300, 70545.00
726.2800, 70435.00
727.4290, 70345.00
728.5790, 70483.00
729.7280, 70879.00
730.8770, 70656.00
732.0260, 70961.00
733.1750, 71042.00
734.3230, 70475.00
735.4720, 71071.00
736.6200, 70976.00
737.7680, 71016.00
738.9160, 71177.00
740.0640, 70954.00
741.2110, 71379.00
742.3590, 71641.00
743.5060, 71487.05
744.6530, 71356.00
745.8000, 71470.00
746.9470, 71574.00
748.0930, 71850.00
749.2400, 71734.00
750.3860, 72291.00
751.5320, 72244.00
752.6780, 72171.00
753.8240, 72220.00
754.9690, 72476.00
756.1150, 72597.05
757.2600, 72891.00
758.4050, 73132.00
759.5500, 73306.00
760.6950, 73653.00
761.8400, 73902.00
762.9840, 74203.00
764.1280, 74576.58
765.2730, 74810.00
766.4170, 75295.00
767.5600, 75926.00
768.7040, 76235.00
769.8470, 76653.00
770.9910, 76151.00
772.1340, 76772.00
773.2770, 76375.00
774.4200, 76535.00
775.5620, 76420.00
776.7050, 76053.00
777.8470, 75748.00
778.9890, 75862.00
780.1310, 75302.00
781.2730, 75453.00
782.4150, 74484.00
783.5570, 74731.00
784.6980, 74205.00
785.8390, 74516.00
786.9800, 74149.00
788.1210, 73906.00
789.2620, 74075.00
790.4020, 74241.00
791.5430, 74011.00
792.6830, 74613.00
793.8230, 74103.00
794.9630, 74993.00
796.1020, 74190.00
797.2420, 74790.00
798.3810, 74917.00
799.5210, 74900.00
800.6600, 75418.00
801.7990, 75309.00
802.9370, 75593.00
804.0760, 75603.00
805.2140, 76110.00
806.3530, 76016.00
807.4910, 76180.00
808.6290, 76035.00
809.7660, 76016.00
810.9040, 75917.00
812.0420, 76017.00
813.1790, 75786.00
814.3160, 75399.00
815.4530, 75696.00
816.5900, 75547.00
817.7260, 75150.00
818.8630, 75569.00
819.9990, 75243.00
821.1350, 75702.00
822.2710, 75840.00
823.4070, 76023.00
824.5430, 76089.00
825.6780, 76061.00
826.8130, 76053.00
827.9490, 76110.49
829.0840, 76319.00
830.2180, 76215.00
831.3530, 76463.00
832.4880, 76566.00
833.6220, 76710.00
834.7560, 76860.00
835.8900, 76560.00
837.0240, 76452.00
838.1580, 76458.00
839.2910, 76737.00
840.4250, 76863.00
841.5580, 77117.00
842.6910, 76881.00
843.8240, 76949.00
844.9560, 77127.00
846.0890, 77287.00
847.2210, 77365.00
848.3540, 77437.00
849.4860, 77110.00
850.6180, 77496.00
851.7490, 77240.00
852.8810, 77267.00
854.0120, 77693.00
855.1440, 78035.00
856.2750, 77975.00
857.4060, 77562.00
858.5360, 78480.00
859.6670, 78017.00
860.7980, 77708.00
861.9280, 78180.00
863.0580, 78416.00
864.1880, 78522.00
865.3180, 78290.00
866.4470, 78351.00
867.5770, 78410.00
868.7060, 78482.00
869.8350, 78561.00
870.9640, 78814.00
872.0930, 78618.00
873.2220, 78961.00
874.3500, 79051.00
875.4790, 78681.00
876.6070, 79369.00
877.7350, 79186.00
878.8630, 79735.00
879.9900, 79525.00
881.1180, 79540.00
882.2450, 79479.00
883.3730, 79507.38
884.5000, 79582.00
885.6260, 79723.00
886.7530, 80016.00
887.8800, 80274.00
889.0060, 80154.00
890.1320, 80372.00
891.2580, 80193.00
892.3840, 80608.00
893.5100, 80566.00
894.6360, 80704.00
895.7610, 80853.00
896.8860, 80808.00
898.0120, 81020.27
899.1360, 81154.00
900.2610, 81222.00
901.3860, 81373.00
902.5100, 81253.77
903.6350, 81448.00
904.7590, 81298.00
905.8830, 81711.00
907.0070, 81811.00
908.1300, 81914.00
909.2540, 82056.00
910.3770, 81989.00
911.5000, 82150.00
912.6230, 82435.00
913.7460, 82397.00
914.8690, 82054.00
915.9910, 82437.00
917.1140, 82487.00
918.2360, 82244.00
919.3580, 82767.00
920.4800, 83129.00
921.6020, 82524.00
922.7230, 82803.00
923.8440, 82900.00
924.9660, 82823.00
926.0870, 83070.00
927.2080, 83280.00
928.3280, 83019.00
929.4490, 82684.00
930.5700, 83106.00
931.6900, 83341.00
932.8100, 83018.00
933.9300, 83355.00
935.0500, 83453.00
936.1690, 83592.00
937.2890, 83977.00
938.4080, 83638.00
939.5270, 83948.00
940.6460, 83883.00
941.7650, 84108.00
942.8840, 84446.00
944.0020, 84407.00
945.1200, 84442.00
946.2390, 84711.00
947.3570, 85129.00
948.4750, 85072.00
949.5920, 84765.00
950.7100, 85134.00
951.8270, 85100.00
952.9440, 85483.00
954.0610, 85182.00
955.1780, 85311.00
956.2950, 85711.00
957.4120, 85663.00
958.5280, 85556.00
959.6440, 85548.00
960.7600, 85779.00
961.8760, 85960.00
962.9920, 86139.00
964.1080, 86249.00
965.2230, 86391.27
966.3380, 86078.00
967.4540, 86461.00
968.5690, 86491.00
969.6830, 86191.00
970.7980, 86663.00
971.9120, 86705.00
973.0270, 86204.00
974.1410, 86870.00
975.2550, 86854.00
976.3690, 87014.00
977.4820, 86745.00
978.5960, 87001.00
979.7090, 87015.00
980.8230, 87053.00
981.9360, 87189.00
983.0490, 87041.00
984.1610, 86906.55
985.2740, 87128.16
986.3860, 87266.77
987.4980, 87326.88
988.6110, 87073.34
989.7220, 87224.77
990.8340, 87213.92
991.9460, 87196.42
993.0570, 87404.87
994.1690, 87196.92
995.2800, 87401.79
996.3910, 87441.85
997.5010, 87557.31
998.6120, 87509.48
999.7230, 87512.09
1000.833, 87678.05
1001.943, 87753.55
1003.053, 87686.88
1004.163, 87807.14
1005.273, 87593.44
1006.382, 87672.76
1007.492, 87878.55
1008.601, 87820.07
1009.710, 87943.28
1010.819, 87569.00
1011.927, 87493.00
1013.036, 87395.54
1014.144, 87150.00
1015.253, 87274.00
1016.361, 87339.00
1017.469, 87204.00
1018.576, 86986.00
1019.684, 87819.00
1020.791, 87750.00
1021.899, 88027.00
1023.006, 87885.00
1024.113, 88575.00
1025.220, 88686.00
1026.326, 89016.00
1027.433, 89333.00
1028.539, 89938.00
1029.645, 90278.00
1030.751, 90424.00
1031.857, 90983.00
1032.963, 91125.00
1034.068, 91170.00
1035.174, 91373.00
1036.279, 92214.00
1037.384, 92269.00
1038.489, 92414.00
1039.594, 92528.00
1040.698, 92603.00
1041.803, 92955.00
1042.907, 93350.00
1044.011, 93373.00
1045.115, 93665.00
1046.219, 93822.00
1047.323, 94101.00
1048.426, 94062.00
1049.529, 94360.00
1050.632, 94413.00
1051.735, 94637.00
1052.838, 94922.00
1053.941, 95453.00
1055.043, 95358.00
1056.146, 95587.00
1057.248, 96255.00
1058.350, 96023.00
1059.452, 96136.00
1060.554, 96464.00
1061.655, 96603.00
1062.757, 96747.97
1063.858, 96920.00
1064.959, 97048.00
1066.060, 97346.00
1067.161, 97624.00
1068.261, 97608.00
1069.362, 98213.00
1070.462, 98668.00
1071.562, 98724.00
1072.662, 99133.00
1073.762, 99106.00
1074.862, 98762.00
1075.961, 98668.00
1077.061, 98653.00
1078.160, 99485.00
1079.259, 99593.00
1080.358, 99909.00
1081.456, 100708.0
1082.555, 100920.0
1083.653, 101447.0
1084.751, 101812.0
1085.850, 102310.0
1086.947, 102940.0
1088.045, 103869.0
1089.143, 104758.0
1090.240, 105415.0
1091.338, 106890.0
1092.435, 107637.0
1093.532, 108062.0
1094.628, 109438.0
1095.725, 109295.0
1096.822, 110343.0
1097.918, 109423.0
1099.014, 109996.0
1100.110, 109320.0
1101.206, 109599.0
1102.302, 109786.0
1103.397, 109663.0
1104.493, 109989.0
1105.588, 110849.0
1106.683, 111723.0
1107.778, 112159.0
1108.873, 112270.0
1109.967, 112476.0
1111.062, 111859.0
1112.156, 110605.0
1113.250, 108573.0
1114.344, 106089.0
1115.438, 104053.0
1116.531, 102284.0
1117.625, 101486.0
1118.718, 100335.0
1119.811, 99835.00
1120.904, 99712.00
1121.997, 99434.00
1123.090, 99210.00
1124.183, 99321.00
1125.275, 99314.00
1126.367, 98857.00
1127.459, 99526.00
1128.551, 99742.00
1129.643, 99303.00
1130.735, 99815.00
1131.826, 99445.00
1132.917, 99685.00
1134.008, 99744.00
1135.099, 99979.00
1136.190, 100480.0
1137.281, 99658.00
1138.371, 99826.00
1139.462, 100157.0
1140.552, 100172.0
1141.642, 100279.0
1142.732, 100353.9
1143.821, 100398.8
1144.911, 100380.0
1146.000, 100463.0
1147.090, 100490.0
1148.179, 100418.0
1149.268, 100664.0
1150.356, 100376.0
1151.445, 100744.0
1152.533, 100464.0
1153.622, 101026.0
1154.710, 101252.0
1155.798, 101098.0
1156.886, 101051.0
1157.973, 101188.0
1159.061, 101624.0
1160.148, 101432.0
1161.235, 101564.0
1162.322, 102270.0
1163.409, 102225.0
1164.496, 102407.3
1165.583, 102174.0
1166.669, 102237.0
1167.755, 102325.0
1168.841, 102354.6
1169.927, 102478.9
1171.013, 102516.0
1172.099, 102748.0
1173.184, 102611.0
1174.269, 102805.0
1175.355, 102820.0
1176.440, 102792.0
1177.524, 103050.9
1178.609, 103337.0
1179.694, 103367.0
1180.778, 103744.0
1181.862, 103675.0
1182.946, 103850.0
1184.030, 103829.0
1185.114, 104193.0
1186.197, 104114.0
1187.281, 104437.0
1188.364, 104403.0
1189.447, 104565.0
1190.530, 104742.8
1191.613, 104804.8
1192.696, 105046.0
1193.778, 105143.0
1194.860, 105261.0
1195.943, 105638.0
1197.025, 105343.0
1198.107, 105616.0
1199.188, 105631.7
1200.270, 106092.0
1201.351, 105716.0
1202.432, 105887.0
1203.514, 105944.0
1204.594, 105775.0
1205.675, 105837.0
1206.756, 105996.0
1207.836, 106186.0
1208.917, 106248.6
1209.997, 105923.0
1211.077, 106166.0
1212.157, 106199.0
1213.236, 105572.0
1214.316, 106505.0
1215.395, 105812.0
1216.474, 106438.0
1217.553, 106454.0
1218.632, 106483.0
1219.711, 106525.0
1220.790, 106448.0
1221.868, 106589.4
1222.946, 106826.0
1224.024, 106808.0
1225.102, 106940.0
1226.180, 107029.0
1227.258, 107117.2
1228.335, 106914.0
1229.413, 107295.0
1230.490, 107158.0
1231.567, 107106.0
1232.644, 107395.0
1233.720, 107449.0
1234.797, 107588.0
1235.873, 107741.6
1236.950, 108062.0
1238.026, 107907.0
1239.102, 108186.0
1240.177, 108125.0
1241.253, 108155.0
1242.328, 108364.0
1243.404, 108854.0
1244.479, 108061.0
1245.554, 108265.0
1246.629, 108971.0
1247.703, 108308.0
1248.778, 109132.0
1249.852, 109128.0
1250.926, 109364.0
1252.001, 109475.0
1253.074, 109404.0
1254.148, 109503.0
1255.222, 109383.0
1256.295, 109725.0
1257.369, 109879.0
1258.442, 109687.0
1259.515, 110223.0
1260.587, 110363.0
1261.660, 110073.0
1262.733, 110223.0
1263.805, 110419.0
1264.877, 111191.0
1265.949, 110697.0
1267.021, 111068.0
