##NAMES=Marialite
##RRUFFID=R040113
##IDEAL CHEMISTRY=Na_4_Al_3_Si_9_O_24_Cl
##LOCALITY=Gouverneur, New York, USA
##OWNER=RRUFF
##SOURCE=University of Arizona Mineral Museum
##DESCRIPTION=Green prismatic crystal
##STATUS=The identification of this mineral has been confirmed by X-ray diffraction and chemical analysis
##URL=rruff.info/R040113
##MEASURED CHEMISTRY=(Na_0.50_Ca_0.43_K_0.07_)_4_(Si_0.64_Al_0.36_)_12_O_24_(Cl_0.60_(CO_3_)_0.40_)
##PIN_ID=L01482
##ORIENTATION=Laser parallel to c* (0 0 1). Fiducial mark perpendicular to laser is parallel to a [1 0 0]
90.91000, 25927.00
92.14900, 26276.00
93.38900, 26781.00
94.62900, 27357.00
95.86800, 27068.00
97.10700, 27486.00
98.34600, 27773.16
99.58500, 27901.36
100.8230, 28456.00
102.0620, 28555.00
103.3000, 28911.00
104.5380, 29450.00
105.7760, 29877.00
107.0140, 30633.00
108.2510, 30998.00
109.4890, 31930.00
110.7260, 32694.00
111.9630, 32612.00
113.2000, 32715.00
114.4360, 32257.00
115.6730, 32191.00
116.9090, 31655.00
118.1450, 31072.00
119.3810, 30614.00
120.6170, 30521.00
121.8530, 29757.00
123.0880, 30363.00
124.3230, 28511.00
125.5590, 28282.00
126.7930, 28508.00
128.0280, 28153.00
129.2630, 28251.00
130.4970, 28119.00
131.7310, 27830.00
132.9650, 27983.00
134.1990, 27945.00
135.4330, 28586.00
136.6670, 28291.00
137.9000, 27948.00
139.1330, 28288.00
140.3660, 27718.00
141.5990, 28546.00
142.8320, 28802.00
144.0640, 29582.00
145.2960, 29630.00
146.5290, 30599.00
147.7610, 30833.00
148.9920, 31556.00
150.2240, 32050.00
151.4550, 33617.00
152.6870, 34289.00
153.9180, 35289.00
155.1490, 36414.00
156.3800, 37498.00
157.6100, 39051.00
158.8400, 39757.00
160.0710, 40308.00
161.3010, 41152.00
162.5310, 41263.00
163.7600, 40890.00
164.9900, 40567.00
166.2190, 40039.00
167.4480, 39103.00
168.6770, 37853.00
169.9060, 36953.00
171.1350, 35984.00
172.3630, 34025.00
173.5920, 33135.00
174.8200, 31943.00
176.0480, 31138.00
177.2760, 30174.00
178.5030, 29647.00
179.7310, 29251.00
180.9580, 29048.00
182.1850, 28515.00
183.4120, 28247.00
184.6390, 28282.00
185.8650, 28086.00
187.0920, 28476.00
188.3180, 28485.00
189.5440, 28436.00
190.7700, 28364.00
191.9960, 28273.94
193.2210, 28085.00
194.4470, 27980.94
195.6720, 27808.00
196.8970, 27557.00
198.1220, 27406.00
199.3460, 27192.00
200.5710, 26952.00
201.7950, 26550.80
203.0190, 26036.00
204.2430, 25683.00
205.4670, 25339.00
206.6910, 25007.00
207.9140, 24583.00
209.1370, 24361.00
210.3610, 23937.00
211.5840, 24308.00
212.8060, 23746.00
214.0290, 23137.00
215.2510, 23512.00
216.4740, 23289.00
217.6960, 23190.00
218.9180, 22840.00
220.1390, 22647.00
221.3610, 22845.00
222.5820, 22546.00
223.8030, 22420.00
225.0240, 22355.00
226.2450, 22116.00
227.4660, 22146.00
228.6870, 21822.00
229.9070, 21652.00
231.1270, 21303.00
232.3470, 21018.00
233.5670, 20777.00
234.7870, 20840.00
236.0060, 20455.00
237.2250, 20100.00
238.4440, 19432.00
239.6630, 19346.00
240.8820, 19014.00
242.1010, 18974.00
243.3190, 18839.00
244.5380, 18489.00
245.7560, 18535.00
246.9740, 18528.00
248.1910, 18342.00
249.4090, 18459.00
250.6260, 18631.00
251.8440, 18866.00
253.0610, 19248.00
254.2780, 19467.00
255.4940, 19801.00
256.7110, 20030.00
257.9270, 20338.00
259.1430, 21295.00
260.3600, 21633.00
261.5750, 22312.00
262.7910, 22312.00
264.0070, 22405.00
265.2220, 22481.00
266.4370, 22050.00
267.6520, 21453.00
268.8670, 20753.00
270.0820, 19925.00
271.2960, 19342.00
272.5100, 18839.00
273.7250, 18271.00
274.9390, 17861.00
276.1520, 17420.00
277.3660, 17220.00
278.5790, 17026.04
279.7930, 16939.96
281.0060, 17000.00
282.2190, 17020.00
283.4320, 17319.00
284.6440, 17508.00
285.8570, 17872.00
287.0690, 18086.00
288.2810, 18300.00
289.4930, 18498.49
290.7050, 18676.00
291.9160, 18809.00
293.1270, 18818.00
294.3390, 18999.00
295.5500, 19024.00
296.7610, 18513.00
297.9710, 18298.00
299.1820, 17650.00
300.3920, 17177.00
301.6020, 16484.00
302.8120, 15731.00
304.0220, 15136.00
305.2320, 14692.00
306.4410, 14341.62
307.6510, 14128.00
308.8600, 14031.00
310.0690, 13908.00
311.2780, 13998.00
312.4860, 13625.00
313.6950, 13493.00
314.9030, 13680.00
316.1110, 13384.00
317.3190, 13471.00
318.5270, 13779.00
319.7350, 13817.00
320.9420, 13840.00
322.1490, 13729.00
323.3570, 14066.00
324.5630, 14316.00
325.7700, 14353.00
326.9770, 14540.00
328.1830, 14743.00
329.3900, 14875.00
330.5960, 15246.00
331.8020, 15364.00
333.0070, 15834.00
334.2130, 15725.00
335.4180, 16035.00
336.6230, 16079.00
337.8290, 16339.00
339.0330, 16243.00
340.2380, 15909.00
341.4430, 15741.00
342.6470, 15438.00
343.8510, 15277.00
345.0550, 14981.00
346.2590, 14855.00
347.4630, 14649.00
348.6660, 14660.00
349.8700, 14592.00
351.0730, 14546.00
352.2760, 14899.00
353.4790, 15072.00
354.6810, 15228.00
355.8840, 15518.00
357.0860, 15832.00
358.2880, 16353.00
359.4900, 16703.00
360.6920, 16819.00
361.8940, 16838.00
363.0950, 16743.40
364.2960, 16328.00
365.4980, 16133.00
366.6990, 15747.00
367.8990, 15129.00
369.1000, 14871.00
370.3000, 14674.00
371.5010, 14754.00
372.7010, 14406.00
373.9010, 14214.00
375.1010, 14127.00
376.3000, 14080.00
377.5000, 14117.00
378.6990, 14091.00
379.8980, 14201.00
381.0970, 14281.00
382.2960, 14224.00
383.4940, 14254.84
384.6920, 14219.00
385.8910, 14154.00
387.0890, 14093.00
388.2870, 13979.00
389.4840, 13741.00
390.6820, 13784.00
391.8790, 13671.00
393.0770, 13660.00
394.2740, 13707.00
395.4700, 13567.00
396.6670, 13418.00
397.8640, 13359.00
399.0600, 13270.59
400.2560, 13506.00
401.4520, 13250.00
402.6480, 13228.00
403.8440, 13392.00
405.0390, 13267.00
406.2350, 13364.00
407.4300, 13583.00
408.6250, 13505.00
409.8200, 13538.00
411.0140, 13674.00
412.2090, 13935.00
413.4030, 14125.00
414.5970, 14334.00
415.7910, 14624.00
416.9850, 14805.40
418.1790, 15050.53
419.3720, 15208.00
420.5660, 15423.00
421.7590, 15569.00
422.9520, 15577.00
424.1440, 15327.00
425.3370, 15487.00
426.5300, 15478.00
427.7220, 15741.00
428.9140, 15702.00
430.1060, 15931.00
431.2980, 16191.00
432.4890, 16346.27
433.6810, 16416.00
434.8720, 16897.00
436.0630, 17311.00
437.2540, 17723.00
438.4450, 18733.00
439.6350, 19593.00
440.8260, 21048.00
442.0160, 22309.00
443.2060, 23741.00
444.3960, 25344.00
445.5860, 27793.00
446.7750, 30196.00
447.9650, 32612.00
449.1540, 35831.00
450.3430, 39378.00
451.5320, 43173.00
452.7210, 46917.00
453.9090, 49956.00
455.0980, 52473.00
456.2860, 53718.00
457.4740, 54199.00
458.6620, 54237.00
459.8500, 54234.00
461.0370, 53081.00
462.2250, 52058.00
463.4120, 49920.00
464.5990, 46790.00
465.7860, 43889.00
466.9720, 41202.00
468.1590, 37670.00
469.3450, 34363.00
470.5320, 31612.00
471.7180, 29261.00
472.9030, 27055.00
474.0890, 24989.00
475.2750, 23363.00
476.4600, 21788.00
477.6450, 20672.00
478.8300, 19670.00
480.0150, 18835.00
481.2000, 18006.00
482.3840, 17432.00
483.5690, 16865.00
484.7530, 16594.00
485.9370, 16248.00
487.1210, 15900.00
488.3040, 15649.00
489.4880, 15340.00
490.6710, 15193.00
491.8540, 14967.00
493.0370, 14983.00
494.2200, 14852.00
495.4030, 14684.00
496.5850, 14557.00
497.7680, 14449.00
498.9500, 14316.00
500.1320, 14291.00
501.3140, 14089.00
502.4950, 13955.00
503.6770, 14046.00
504.8580, 14119.00
506.0390, 13834.00
507.2200, 14126.00
508.4010, 13917.00
509.5820, 13901.00
510.7620, 13885.00
511.9420, 13892.73
513.1230, 13982.64
514.3030, 14012.00
515.4820, 14282.00
516.6620, 14292.00
517.8420, 14594.00
519.0210, 14682.00
520.2000, 14954.00
521.3790, 15310.00
522.5580, 15798.00
523.7360, 16127.00
524.9150, 16741.00
526.0930, 17341.00
527.2710, 18282.00
528.4490, 19381.00
529.6270, 20378.00
530.8050, 21768.00
531.9820, 23127.00
533.1590, 24629.00
534.3360, 25697.00
535.5130, 26641.00
536.6900, 26607.00
537.8670, 26452.00
539.0430, 25612.00
540.2200, 24062.00
541.3960, 22824.00
542.5720, 21674.00
543.7470, 20265.00
544.9230, 19430.00
546.0980, 18409.00
547.2740, 17530.00
548.4490, 16826.00
549.6240, 16347.00
550.7990, 15996.00
551.9730, 15639.00
553.1480, 15318.98
554.3220, 15021.35
555.4960, 14801.00
556.6700, 14545.00
557.8440, 14359.00
559.0170, 14301.00
560.1910, 14150.00
561.3640, 14192.00
562.5370, 14141.00
563.7100, 14124.00
564.8830, 14219.00
566.0550, 14205.00
567.2280, 13992.00
568.4000, 14172.00
569.5720, 14215.00
570.7440, 14101.00
571.9160, 14205.00
573.0870, 13980.00
574.2590, 14053.00
575.4300, 14108.00
576.6010, 13896.00
577.7720, 13742.00
578.9430, 14034.00
580.1140, 13890.00
581.2840, 14032.00
582.4540, 13995.00
583.6240, 13969.00
584.7940, 13900.00
585.9640, 13759.00
587.1340, 13702.00
588.3030, 13736.00
589.4720, 13764.00
590.6410, 13692.00
591.8100, 13533.00
592.9790, 13826.00
594.1480, 13641.00
595.3160, 13786.00
596.4840, 13835.00
597.6520, 13703.00
598.8200, 14008.00
599.9880, 13984.00
601.1560, 14001.00
602.3230, 13886.00
603.4900, 14215.00
604.6570, 14265.00
605.8240, 14329.00
606.9910, 14349.00
608.1580, 14453.00
609.3240, 14540.00
610.4900, 14501.46
611.6570, 14455.00
612.8230, 14436.00
613.9880, 14325.00
615.1540, 14295.00
616.3190, 14060.00
617.4850, 14168.00
618.6500, 14019.00
619.8150, 13868.00
620.9790, 13919.00
622.1440, 13925.00
623.3080, 13808.00
624.4730, 13743.00
625.6370, 13620.00
626.8010, 13837.00
627.9640, 13583.00
629.1280, 13834.00
630.2910, 13755.00
631.4550, 13654.00
632.6180, 13880.00
633.7810, 13743.00
634.9440, 13875.00
636.1060, 13784.00
637.2690, 13837.00
638.4310, 13956.00
639.5930, 13843.00
640.7550, 14040.00
641.9170, 13948.00
643.0780, 14082.00
644.2400, 13999.00
645.4010, 13989.00
646.5620, 14075.00
647.7230, 14032.00
648.8840, 14034.00
650.0450, 14233.00
651.2050, 14126.00
652.3650, 14242.00
653.5250, 14286.00
654.6850, 14290.00
655.8450, 14448.00
657.0050, 14428.00
658.1640, 14410.00
659.3230, 14447.00
660.4830, 14294.00
661.6420, 14530.00
662.8000, 14579.00
663.9590, 14597.00
665.1170, 14499.00
666.2760, 14582.00
667.4340, 14521.00
668.5920, 14646.00
669.7500, 14550.00
670.9070, 14675.00
672.0650, 14720.00
673.2220, 14875.00
674.3790, 14965.00
675.5360, 14951.00
676.6930, 15153.00
677.8500, 15170.00
679.0060, 15244.00
680.1620, 15319.00
681.3190, 15040.00
682.4750, 14919.00
683.6300, 14820.00
684.7860, 14828.00
685.9420, 14734.41
687.0970, 14684.00
688.2520, 14658.00
689.4070, 14635.00
690.5620, 14632.00
691.7170, 14718.00
692.8710, 14775.00
694.0250, 14621.00
695.1800, 14722.00
696.3340, 14530.00
697.4870, 14675.00
698.6410, 14633.00
699.7950, 14843.00
700.9480, 14810.00
702.1010, 14892.00
703.2540, 14913.00
704.4070, 14819.00
705.5600, 14832.00
706.7120, 14873.02
707.8640, 15074.00
709.0170, 14990.00
710.1690, 15041.00
711.3210, 15095.00
712.4720, 15104.00
713.6240, 15159.70
714.7750, 15159.58
715.9260, 15227.00
717.0770, 15181.00
718.2280, 15179.00
719.3790, 15231.00
720.5290, 15210.07
721.6800, 15239.00
722.8300, 15285.00
723.9800, 15232.00
725.1300, 15376.00
726.2800, 15299.00
727.4290, 15510.00
728.5790, 15443.00
729.7280, 15354.00
730.8770, 15509.00
732.0260, 15495.00
733.1750, 15489.00
734.3230, 15396.00
735.4720, 15458.00
736.6200, 15640.00
737.7680, 15623.00
738.9160, 15458.00
740.0640, 15615.00
741.2110, 15556.46
742.3590, 15627.00
743.5060, 15664.00
744.6530, 15731.90
745.8000, 15851.81
746.9470, 15976.00
748.0930, 16083.00
749.2400, 16308.00
750.3860, 16367.00
751.5320, 16409.00
752.6780, 16678.00
753.8240, 16805.00
754.9690, 16942.00
756.1150, 17106.00
757.2600, 17301.00
758.4050, 17536.18
759.5500, 17743.00
760.6950, 18101.00
761.8400, 18444.00
762.9840, 18809.00
764.1280, 19137.48
765.2730, 19472.00
766.4170, 19791.00
767.5600, 20135.00
768.7040, 20450.00
769.8470, 20840.00
770.9910, 20834.00
772.1340, 20983.00
773.2770, 20809.00
774.4200, 20933.00
775.5620, 20693.00
776.7050, 20205.00
777.8470, 19927.00
778.9890, 19369.85
780.1310, 18699.00
781.2730, 18197.00
782.4150, 17722.00
783.5570, 17077.00
784.6980, 16909.00
785.8390, 16710.00
786.9800, 16369.00
788.1210, 16346.00
789.2620, 16126.00
790.4020, 16141.00
791.5430, 16038.00
792.6830, 16070.00
793.8230, 16010.00
794.9630, 16235.00
796.1020, 16198.00
797.2420, 16331.00
798.3810, 16444.00
799.5210, 16521.00
800.6600, 16624.00
801.7990, 16754.00
802.9370, 16843.00
804.0760, 16917.00
805.2140, 17164.00
806.3530, 17069.00
807.4910, 17178.00
808.6290, 17037.00
809.7660, 16793.00
810.9040, 16498.00
812.0420, 16305.00
813.1790, 16237.00
814.3160, 16079.58
815.4530, 16082.00
816.5900, 15964.00
817.7260, 15905.00
818.8630, 15912.00
819.9990, 15706.00
821.1350, 15834.00
822.2710, 15937.00
823.4070, 15842.00
824.5430, 15891.00
825.6780, 15957.00
826.8130, 15843.00
827.9490, 15913.00
829.0840, 15946.00
830.2180, 15901.00
831.3530, 15990.00
832.4880, 15980.87
833.6220, 15987.96
834.7560, 15967.00
835.8900, 16022.00
837.0240, 15907.00
838.1580, 15965.00
839.2910, 15937.00
840.4250, 15872.00
841.5580, 15926.00
842.6910, 16089.00
843.8240, 15889.00
844.9560, 15984.00
846.0890, 15941.00
847.2210, 15909.00
848.3540, 16101.00
849.4860, 16002.00
850.6180, 16057.00
851.7490, 15979.00
852.8810, 16197.00
854.0120, 16030.00
855.1440, 16280.00
856.2750, 16141.00
857.4060, 16081.00
858.5360, 16236.00
859.6670, 16130.00
860.7980, 16134.00
861.9280, 16402.00
863.0580, 16213.00
864.1880, 16253.00
865.3180, 16276.00
866.4470, 16363.00
867.5770, 16430.00
868.7060, 16427.00
869.8350, 16460.25
870.9640, 16494.40
872.0930, 16437.00
873.2220, 16517.00
874.3500, 16478.00
875.4790, 16408.00
876.6070, 16438.00
877.7350, 16430.00
878.8630, 16430.67
879.9900, 16483.00
881.1180, 16500.00
882.2450, 16545.00
883.3730, 16661.00
884.5000, 16627.00
885.6260, 16624.00
886.7530, 16759.00
887.8800, 16735.00
889.0060, 16616.00
890.1320, 16596.00
891.2580, 16864.00
892.3840, 16957.00
893.5100, 16804.00
894.6360, 16942.00
895.7610, 16856.00
896.8860, 16838.00
898.0120, 16809.00
899.1360, 17110.00
900.2610, 16883.00
901.3860, 17126.00
902.5100, 17017.00
903.6350, 17164.00
904.7590, 17017.00
905.8830, 17069.00
907.0070, 17153.00
908.1300, 17159.00
909.2540, 17117.00
910.3770, 17297.00
911.5000, 17039.00
912.6230, 17296.00
913.7460, 17147.00
914.8690, 17190.00
915.9910, 17401.00
917.1140, 17261.00
918.2360, 17365.00
919.3580, 17294.00
920.4800, 17302.00
921.6020, 17289.00
922.7230, 17296.00
923.8440, 17473.00
924.9660, 17332.00
926.0870, 17446.00
927.2080, 17306.00
928.3280, 17377.00
929.4490, 17385.00
930.5700, 17475.00
931.6900, 17483.00
932.8100, 17364.00
933.9300, 17511.00
935.0500, 17542.00
936.1690, 17422.00
937.2890, 17381.00
938.4080, 17622.00
939.5270, 17602.00
940.6460, 17730.00
941.7650, 17724.59
942.8840, 17785.30
944.0020, 17730.00
945.1200, 17794.00
946.2390, 17970.00
947.3570, 17780.00
948.4750, 17943.00
949.5920, 17723.00
950.7100, 18006.00
951.8270, 18152.00
952.9440, 18181.00
954.0610, 18303.00
955.1780, 18185.00
956.2950, 18238.00
957.4120, 18234.00
958.5280, 18317.00
959.6440, 18258.00
960.7600, 18315.00
961.8760, 18388.00
962.9920, 18512.00
964.1080, 18568.00
965.2230, 18535.00
966.3380, 18436.00
967.4540, 18480.00
968.5690, 18616.00
969.6830, 18497.00
970.7980, 18639.00
971.9120, 18548.00
973.0270, 18851.00
974.1410, 18816.00
975.2550, 18856.00
976.3690, 18957.00
977.4820, 18986.00
978.5960, 18944.00
979.7090, 19139.00
980.8230, 19081.00
981.9360, 19209.00
983.0490, 19252.00
984.1610, 19313.00
985.2740, 19258.00
986.3860, 19093.00
987.4980, 19251.00
988.6110, 19297.00
989.7220, 19156.00
990.8340, 19282.00
991.9460, 19189.00
993.0570, 19102.00
994.1690, 19179.00
995.2800, 19174.00
996.3910, 19196.00
997.5010, 19206.06
998.6120, 19098.00
999.7230, 19210.00
1000.833, 19153.00
1001.943, 19182.00
1003.053, 19218.00
1004.163, 19321.00
1005.273, 19362.00
1006.382, 19253.00
1007.492, 19498.00
1008.601, 19215.00
1009.710, 19228.00
1010.819, 19328.00
1011.927, 19123.00
1013.036, 19308.00
1014.144, 19095.00
1015.253, 19458.00
1016.361, 19166.00
1017.469, 19278.00
1018.576, 19392.00
1019.684, 19371.00
1020.791, 19356.00
1021.899, 19451.00
1023.006, 19561.00
1024.113, 19683.00
1025.220, 19656.00
1026.326, 19780.00
1027.433, 19919.63
1028.539, 19996.00
1029.645, 20187.00
1030.751, 20327.00
1031.857, 20316.00
1032.963, 20481.00
1034.068, 20529.00
1035.174, 20877.00
1036.279, 20824.00
1037.384, 21009.00
1038.489, 21099.00
1039.594, 21147.00
1040.698, 21338.00
1041.803, 21170.00
1042.907, 21334.00
1044.011, 21308.00
1045.115, 21468.00
1046.219, 21345.00
1047.323, 21692.00
1048.426, 21588.00
1049.529, 21954.00
1050.632, 21811.00
1051.735, 22047.00
1052.838, 22018.00
1053.941, 21977.00
1055.043, 22128.00
1056.146, 22392.00
1057.248, 22489.00
1058.350, 22765.00
1059.452, 22814.00
1060.554, 23050.00
1061.655, 23035.00
1062.757, 23124.00
1063.858, 23114.00
1064.959, 23279.00
1066.060, 23480.00
1067.161, 23619.00
1068.261, 23728.53
1069.362, 23844.15
1070.462, 23906.00
1071.562, 24016.00
1072.662, 24114.00
1073.762, 24222.00
1074.862, 24327.00
1075.961, 24224.00
1077.061, 24550.00
1078.160, 24235.00
1079.259, 24576.00
1080.358, 24805.00
1081.456, 25041.00
1082.555, 25337.00
1083.653, 25912.00
1084.751, 26284.00
1085.850, 26925.00
1086.947, 27727.00
1088.045, 28440.00
1089.143, 29436.00
1090.240, 30355.00
1091.338, 31177.00
1092.435, 31942.88
1093.532, 32685.00
1094.628, 33171.00
1095.725, 33614.00
1096.822, 33904.00
1097.918, 33846.00
1099.014, 33728.00
1100.110, 33525.00
1101.206, 33367.00
1102.302, 33329.00
1103.397, 33568.00
1104.493, 33798.00
1105.588, 33876.00
1106.683, 34686.00
1107.778, 35203.00
1108.873, 35361.00
1109.967, 35007.00
1111.062, 34266.00
1112.156, 32598.00
1113.250, 31202.00
1114.344, 29206.00
1115.438, 26996.00
1116.531, 25082.00
1117.625, 23804.00
1118.718, 22985.00
1119.811, 22288.00
1120.904, 22082.00
1121.997, 21731.00
1123.090, 21744.00
1124.183, 21593.00
1125.275, 21471.00
1126.367, 21573.00
1127.459, 21370.00
1128.551, 21363.45
1129.643, 21451.00
1130.735, 21265.00
1131.826, 21285.00
1132.917, 21282.00
1134.008, 21291.00
1135.099, 21418.00
1136.190, 21335.00
1137.281, 21326.00
1138.371, 21203.00
1139.462, 21411.00
1140.552, 21569.00
1141.642, 21222.00
1142.732, 21510.00
1143.821, 21239.00
1144.911, 21508.00
1146.000, 21321.00
1147.090, 21272.00
1148.179, 21340.00
1149.268, 21410.00
1150.356, 21657.00
1151.445, 21562.00
1152.533, 21609.00
1153.622, 21624.00
1154.710, 21475.00
1155.798, 21292.00
1156.886, 21578.00
1157.973, 21641.00
1159.061, 21780.00
1160.148, 21675.00
1161.235, 21579.00
1162.322, 21562.00
1163.409, 21701.00
1164.496, 21791.00
1165.583, 21852.00
1166.669, 21824.00
1167.755, 21835.00
1168.841, 21855.00
1169.927, 21975.00
1171.013, 21844.00
1172.099, 22023.00
1173.184, 22032.00
1174.269, 21855.00
1175.355, 22313.00
1176.440, 22197.00
1177.524, 22235.00
1178.609, 22082.00
1179.694, 22263.00
1180.778, 22421.00
1181.862, 22369.00
1182.946, 22706.00
1184.030, 22523.00
1185.114, 22602.00
1186.197, 22731.00
1187.281, 22800.00
1188.364, 22943.00
1189.447, 23026.06
1190.530, 22946.00
1191.613, 23161.00
1192.696, 23118.00
1193.778, 23068.00
1194.860, 23205.00
1195.943, 23269.00
1197.025, 23300.00
1198.107, 23489.00
1199.188, 23360.00
1200.270, 23191.00
1201.351, 23308.00
1202.432, 23179.00
1203.514, 23183.00
1204.594, 23408.00
1205.675, 23033.00
1206.756, 23127.00
1207.836, 22795.00
1208.917, 22885.00
1209.997, 22836.00
1211.077, 22756.00
1212.157, 22793.00
1213.236, 22754.00
1214.316, 22696.00
1215.395, 22746.00
1216.474, 22553.00
1217.553, 22655.00
1218.632, 22758.00
1219.711, 22660.00
1220.790, 22544.00
1221.868, 22584.00
1222.946, 22694.00
1224.024, 22607.00
1225.102, 22731.00
1226.180, 22604.00
1227.258, 22599.00
1228.335, 22578.00
1229.413, 22518.28
1230.490, 22668.00
1231.567, 22470.00
1232.644, 22564.07
1233.720, 22686.95
1234.797, 22762.66
1235.873, 22793.72
1236.950, 22646.44
1238.026, 22729.45
1239.102, 22720.16
1240.177, 22707.07
1241.253, 22822.50
1242.328, 22783.00
1243.404, 22765.00
1244.479, 22822.00
1245.554, 22803.00
1246.629, 22830.00
1247.703, 22898.00
1248.778, 23048.00
1249.852, 23097.00
1250.926, 23175.00
1252.001, 23190.30
1253.074, 23221.70
1254.148, 23125.00
1255.222, 23191.00
1256.295, 23021.14
1257.369, 23153.24
1258.442, 23238.13
1259.515, 23278.38
1260.587, 23140.26
1261.660, 23232.47
1262.733, 23232.38
1263.805, 23228.48
1264.877, 23353.07
1265.949, 23240.89
1267.021, 23363.45
1268.093, 23392.31
1269.164, 23442.00
