##NAMES=Marialite
##RRUFFID=R060297
##IDEAL CHEMISTRY=Na_4_Al_3_Si_9_O_24_Cl
##LOCALITY=Morogoro District, Marasi, Tanzania
##OWNER=RRUFF
##SOURCE=Herb Obodda
##DESCRIPTION=Pale yellow crystal fragment
##STATUS=The identification of this mineral has been confirmed by X-ray diffraction and chemical analysis
##URL=rruff.info/R060297
##MEASURED CHEMISTRY=(Na_0.66_Ca_0.29_K_0.06_)_4_(Si_0.68_Al_0.32_)_12_O_24_(Cl_0.70_(CO_3_)_0.30_)
##PIN_ID=L01219
##ORIENTATION=Laser parallel to c* (0 0 1). Fiducial mark perpendicular to laser is parallel to a [1 0 0]
93.28600, 30966.00
94.52300, 31311.00
95.75900, 31724.00
96.99500, 31953.00
98.23100, 32520.00
99.46700, 33285.00
100.7030, 34128.00
101.9390, 35409.00
103.1740, 37169.00
104.4090, 38570.00
105.6440, 40237.00
106.8790, 42295.00
108.1140, 43861.00
109.3490, 44092.00
110.5830, 44280.00
111.8180, 43956.00
113.0520, 42935.00
114.2860, 41959.00
115.5200, 41056.00
116.7530, 39224.00
117.9870, 38088.00
119.2200, 37560.00
120.4530, 36462.00
121.6860, 35792.00
122.9190, 35494.00
124.1520, 35153.00
125.3850, 35193.00
126.6170, 35092.00
127.8490, 34943.00
129.0810, 34806.00
130.3130, 34839.00
131.5450, 34987.00
132.7770, 34755.00
134.0080, 34838.00
135.2390, 35140.00
136.4710, 34785.00
137.7020, 34770.00
138.9320, 35141.00
140.1630, 35531.00
141.3930, 36015.00
142.6240, 36403.00
143.8540, 37645.00
145.0840, 38342.00
146.3140, 39696.00
147.5440, 40813.00
148.7730, 42518.00
150.0020, 44017.00
151.2320, 45973.00
152.4610, 47789.00
153.6900, 50224.00
154.9180, 52197.00
156.1470, 53911.00
157.3750, 55861.00
158.6040, 57383.00
159.8320, 58339.00
161.0600, 58954.00
162.2870, 58700.00
163.5150, 58082.00
164.7420, 57064.00
165.9700, 55836.00
167.1970, 53604.00
168.4240, 51587.00
169.6510, 49381.00
170.8770, 46896.00
172.1040, 45238.00
173.3300, 43513.00
174.5560, 41798.00
175.7820, 41008.00
177.0080, 40031.00
178.2340, 39092.00
179.4590, 38482.00
180.6850, 38300.00
181.9100, 38143.00
183.1350, 37735.00
184.3600, 38036.00
185.5850, 37841.00
186.8090, 37725.00
188.0340, 37807.00
189.2580, 37348.00
190.4820, 37299.00
191.7060, 37223.00
192.9300, 37146.00
194.1530, 36567.00
195.3770, 36036.00
196.6000, 35208.00
197.8230, 34951.00
199.0460, 34693.00
200.2690, 33806.00
201.4910, 33435.00
202.7140, 32991.00
203.9360, 32984.00
205.1580, 32420.00
206.3800, 32358.00
207.6020, 31830.00
208.8240, 31314.00
210.0450, 31296.00
211.2670, 30790.00
212.4880, 30067.00
213.7090, 30150.00
214.9300, 29659.00
216.1510, 29543.00
217.3710, 29300.00
218.5920, 29142.51
219.8120, 29362.00
221.0320, 29089.00
222.2520, 29069.00
223.4720, 29296.00
224.6910, 29172.00
225.9110, 29033.00
227.1300, 29034.00
228.3490, 28718.00
229.5680, 28477.00
230.7870, 28153.00
232.0050, 27459.00
233.2240, 27271.00
234.4420, 26685.00
235.6600, 26489.00
236.8780, 26058.00
238.0960, 25713.00
239.3140, 25582.00
240.5310, 25444.00
241.7490, 25077.00
242.9660, 24778.00
244.1830, 24876.00
245.4000, 24938.00
246.6160, 24780.00
247.8330, 25209.00
249.0490, 25421.00
250.2660, 25680.00
251.4820, 25973.00
252.6980, 26540.71
253.9130, 27138.00
255.1290, 27904.00
256.3440, 28607.00
257.5600, 29494.00
258.7750, 30540.00
259.9900, 31223.00
261.2040, 31971.00
262.4190, 32388.00
263.6330, 32161.00
264.8480, 31855.00
266.0620, 31074.00
267.2760, 30018.00
268.4900, 28694.00
269.7030, 27875.00
270.9170, 26746.00
272.1300, 25841.00
273.3430, 25544.00
274.5560, 24994.00
275.7690, 24702.00
276.9820, 24547.00
278.1940, 24523.83
279.4070, 24667.04
280.6190, 24966.00
281.8310, 25410.00
283.0430, 25971.00
284.2550, 26778.00
285.4660, 27223.00
286.6770, 27900.00
287.8890, 28409.00
289.1000, 28557.00
290.3110, 28174.00
291.5210, 27464.00
292.7320, 27024.00
293.9420, 26514.00
295.1530, 25967.00
296.3630, 25504.00
297.5730, 25005.08
298.7830, 24589.00
299.9920, 23924.00
301.2020, 23251.00
302.4110, 22409.00
303.6200, 21943.00
304.8290, 21201.00
306.0380, 20962.00
307.2470, 20690.00
308.4550, 20630.00
309.6630, 20676.00
310.8720, 20583.00
312.0800, 20412.00
313.2880, 20309.00
314.4950, 20337.00
315.7030, 20431.00
316.9100, 20539.00
318.1170, 20907.00
319.3240, 20848.00
320.5310, 20942.00
321.7380, 21120.00
322.9450, 21593.00
324.1510, 21856.00
325.3570, 22119.00
326.5630, 22368.00
327.7690, 22683.00
328.9750, 23244.00
330.1810, 23682.00
331.3860, 24100.00
332.5910, 24422.00
333.7960, 24766.00
335.0010, 25041.00
336.2060, 24968.00
337.4110, 24768.00
338.6150, 24516.00
339.8200, 23863.00
341.0240, 23640.00
342.2280, 23291.00
343.4320, 22856.00
344.6350, 22635.00
345.8390, 22423.34
347.0420, 22363.87
348.2450, 22299.00
349.4480, 22503.00
350.6510, 22772.00
351.8540, 23006.00
353.0560, 23088.00
354.2590, 23379.00
355.4610, 23931.00
356.6630, 24634.00
357.8650, 25021.00
359.0670, 25699.00
360.2680, 25754.00
361.4700, 25776.00
362.6710, 25445.00
363.8720, 24774.00
365.0730, 24066.00
366.2740, 23396.00
367.4740, 22947.00
368.6750, 22543.00
369.8750, 22198.00
371.0750, 22061.00
372.2750, 21939.00
373.4750, 21969.00
374.6740, 21897.00
375.8740, 21951.00
377.0730, 21892.00
378.2720, 21772.00
379.4710, 21624.00
380.6700, 21616.00
381.8690, 21529.00
383.0670, 21560.00
384.2660, 21424.00
385.4640, 21263.00
386.6620, 21161.00
387.8600, 21156.00
389.0570, 21014.80
390.2550, 20979.00
391.4520, 20859.00
392.6490, 20858.00
393.8460, 20842.00
395.0430, 20783.00
396.2400, 20921.00
397.4370, 20843.82
398.6330, 20870.00
399.8290, 20817.00
401.0250, 20812.00
402.2210, 20832.00
403.4170, 20790.00
404.6130, 21002.00
405.8080, 20938.00
407.0030, 21056.00
408.1980, 21371.00
409.3930, 21402.00
410.5880, 21785.00
411.7830, 21950.00
412.9770, 22025.00
414.1720, 22329.00
415.3660, 22630.00
416.5600, 22951.00
417.7530, 23152.00
418.9470, 23486.00
420.1410, 23689.00
421.3340, 23853.00
422.5270, 23727.00
423.7200, 23928.00
424.9130, 23914.00
426.1060, 23976.00
427.2980, 24073.00
428.4900, 24288.60
429.6830, 24543.01
430.8750, 24859.00
432.0670, 25298.00
433.2580, 25648.00
434.4500, 26231.00
435.6410, 26758.00
436.8320, 27798.00
438.0240, 29031.00
439.2140, 29897.00
440.4050, 30998.00
441.5960, 32604.00
442.7860, 34113.00
443.9760, 36434.00
445.1670, 39006.00
446.3560, 41945.00
447.5460, 45958.00
448.7360, 50868.00
449.9250, 56721.00
451.1150, 62939.00
452.3040, 69317.00
453.4930, 74957.00
454.6810, 79535.00
455.8700, 82784.00
457.0590, 84612.00
458.2470, 85278.83
459.4350, 84355.00
460.6230, 82631.00
461.8110, 79382.00
462.9980, 74860.00
464.1860, 69501.00
465.3730, 64172.00
466.5600, 58408.00
467.7470, 53436.00
468.9340, 48852.00
470.1210, 44897.00
471.3080, 41438.00
472.4940, 38421.00
473.6800, 36031.00
474.8660, 33960.00
476.0520, 32228.00
477.2380, 30814.00
478.4230, 29665.00
479.6090, 28727.00
480.7940, 27992.00
481.9790, 27093.00
483.1640, 26669.00
484.3490, 26415.00
485.5330, 25805.00
486.7180, 25521.00
487.9020, 25219.00
489.0860, 24887.00
490.2700, 24768.00
491.4540, 24515.00
492.6370, 24668.00
493.8210, 24537.74
495.0040, 24498.00
496.1870, 24419.00
497.3700, 24297.00
498.5530, 24013.00
499.7360, 24025.00
500.9180, 24212.00
502.1000, 24222.00
503.2830, 23974.00
504.4650, 24067.00
505.6460, 23900.00
506.8280, 24027.00
508.0100, 23912.00
509.1910, 24233.00
510.3720, 24028.00
511.5530, 24100.00
512.7340, 24349.00
513.9150, 24504.00
515.0950, 24529.00
516.2760, 24834.00
517.4560, 24746.00
518.6360, 25064.00
519.8160, 25408.00
520.9950, 25476.00
522.1750, 26409.00
523.3540, 26912.00
524.5340, 27063.00
525.7130, 27875.00
526.8920, 28953.00
528.0700, 30274.00
529.2490, 31940.00
530.4270, 33687.00
531.6060, 36045.00
532.7840, 38110.00
533.9620, 40615.93
535.1390, 43212.42
536.3170, 44618.38
537.4940, 44838.22
538.6720, 43523.36
539.8490, 41741.88
541.0260, 39334.00
542.2030, 37392.00
543.3790, 35075.00
544.5560, 33213.00
545.7320, 31208.00
546.9080, 30335.00
548.0840, 29403.00
549.2600, 28399.00
550.4360, 27835.00
551.6110, 27343.00
552.7860, 26810.00
553.9620, 26496.00
555.1370, 26211.54
556.3110, 25962.00
557.4860, 25889.00
558.6610, 25751.00
559.8350, 25698.00
561.0090, 25585.00
562.1830, 25751.00
563.3570, 25746.00
564.5310, 25586.00
565.7040, 25466.00
566.8780, 25562.00
568.0510, 25653.00
569.2240, 25424.00
570.3970, 25577.00
571.5700, 25739.00
572.7420, 25540.00
573.9150, 25654.00
575.0870, 25623.00
576.2590, 25636.00
577.4310, 25794.00
578.6030, 25665.00
579.7740, 25782.00
580.9460, 25720.00
582.1170, 25809.00
583.2880, 25745.00
584.4590, 26046.00
585.6300, 25884.00
586.8010, 26094.00
587.9710, 25911.00
589.1410, 26000.00
590.3110, 25969.00
591.4810, 26192.00
592.6510, 26160.00
593.8210, 26413.00
594.9900, 26449.00
596.1600, 26693.00
597.3290, 26896.00
598.4980, 27242.00
599.6670, 27623.00
600.8350, 27588.00
602.0040, 27624.00
603.1720, 28051.00
604.3400, 27810.00
605.5080, 27883.00
606.6760, 27741.00
607.8440, 27808.00
609.0120, 27858.00
610.1790, 27678.00
611.3460, 27698.00
612.5130, 27690.00
613.6800, 27579.00
614.8470, 27678.00
616.0130, 27380.00
617.1800, 27457.00
618.3460, 27376.00
619.5120, 27227.00
620.6780, 27169.00
621.8440, 27212.00
623.0090, 27268.00
624.1750, 27391.00
625.3400, 27087.00
626.5050, 27292.00
627.6700, 27101.00
628.8350, 27186.00
629.9990, 26937.00
631.1640, 27169.00
632.3280, 27104.00
633.4920, 27016.00
634.6560, 27295.00
635.8200, 27373.00
636.9840, 27246.00
638.1470, 27429.00
639.3100, 27368.70
640.4730, 27708.57
641.6360, 27925.30
642.7990, 28025.51
643.9620, 27660.21
645.1240, 27895.97
646.2870, 27890.88
647.4490, 27875.86
648.6110, 28196.22
649.7730, 27898.58
650.9340, 28213.57
652.0960, 28284.04
653.2570, 28486.00
654.4180, 28331.00
655.5790, 28520.00
656.7400, 28536.00
657.9010, 28677.00
659.0620, 28745.00
660.2220, 29012.00
661.3820, 28683.00
662.5420, 28789.00
663.7020, 29217.00
664.8620, 28863.00
666.0210, 29157.00
667.1810, 29200.00
668.3400, 28978.00
669.4990, 28975.00
670.6580, 29018.00
671.8170, 29153.00
672.9750, 28948.00
674.1340, 29191.00
675.2920, 29258.00
676.4500, 29654.00
677.6080, 29791.00
678.7660, 29895.00
679.9230, 29813.00
681.0810, 29796.65
682.2380, 29720.00
683.3950, 29618.00
684.5520, 29812.00
685.7090, 29843.00
686.8660, 29861.00
688.0220, 29705.00
689.1780, 29839.00
690.3340, 29754.00
691.4900, 29749.00
692.6460, 29931.00
693.8020, 29954.00
694.9570, 30077.00
696.1130, 29860.00
697.2680, 30231.00
698.4230, 30159.00
699.5780, 30350.63
700.7320, 30420.00
701.8870, 30583.00
703.0410, 30856.00
704.1950, 30615.00
705.3490, 30574.00
706.5030, 30620.00
707.6570, 31053.00
708.8110, 30975.00
709.9640, 31183.00
711.1170, 31217.00
712.2700, 31410.00
713.4230, 31567.00
714.5760, 31417.00
715.7280, 31498.00
716.8810, 31481.00
718.0330, 31607.00
719.1850, 31627.00
720.3370, 31585.00
721.4890, 31677.00
722.6400, 31671.17
723.7920, 31933.00
724.9430, 31731.00
726.0940, 31943.00
727.2450, 31998.00
728.3960, 31973.00
729.5460, 32086.18
730.6970, 32174.00
731.8470, 32193.00
732.9970, 32187.00
734.1470, 32300.00
735.2970, 32444.00
736.4460, 32320.00
737.5960, 32481.00
738.7450, 32395.00
739.8940, 32472.00
741.0430, 32553.00
742.1920, 32869.00
743.3410, 32723.00
744.4890, 33055.00
745.6370, 33010.00
746.7850, 33183.00
747.9330, 33379.00
749.0810, 33508.00
750.2290, 33749.00
751.3760, 33922.00
752.5240, 34179.00
753.6710, 34451.00
754.8180, 34811.00
755.9650, 34834.00
757.1110, 35118.00
758.2580, 35441.00
759.4040, 35546.00
760.5510, 35875.00
761.6970, 36494.00
762.8420, 36982.00
763.9880, 37615.00
765.1340, 38195.00
766.2790, 38668.00
767.4240, 38924.00
768.5690, 39874.00
769.7140, 40322.00
770.8590, 40296.00
772.0030, 40725.00
773.1480, 40873.00
774.2920, 41100.00
775.4360, 41006.00
776.5800, 40511.00
777.7240, 40231.00
778.8670, 39743.00
780.0110, 39136.00
781.1540, 38616.00
782.2970, 37898.00
783.4400, 37334.00
784.5830, 37117.00
785.7250, 36426.00
786.8680, 36353.00
788.0100, 35951.00
789.1520, 36026.00
790.2940, 35700.00
791.4360, 35711.00
792.5780, 35887.00
793.7190, 35850.00
794.8600, 35952.00
796.0010, 36326.00
797.1420, 36070.00
798.2830, 36453.00
799.4240, 36484.00
800.5640, 36847.00
801.7050, 37234.00
802.8450, 37325.00
803.9850, 37993.00
805.1250, 38232.00
806.2640, 38568.00
807.4040, 38941.00
808.5430, 39097.00
809.6820, 39275.00
810.8210, 38886.00
811.9600, 38708.00
813.0990, 38113.00
814.2370, 37822.00
815.3760, 37456.00
816.5140, 37306.00
817.6520, 37283.00
818.7900, 36985.00
819.9270, 36850.00
821.0650, 37111.00
822.2020, 36636.00
823.3390, 37082.00
824.4760, 37149.00
825.6130, 37007.00
826.7500, 37298.00
827.8870, 37298.00
829.0230, 37351.00
830.1590, 37286.00
831.2950, 37500.00
832.4310, 37453.25
833.5670, 37651.00
834.7030, 37528.00
835.8380, 37643.00
836.9730, 37765.00
838.1080, 37689.00
839.2430, 37956.00
840.3780, 37765.00
841.5130, 38157.00
842.6470, 38229.00
843.7810, 38102.00
844.9150, 38224.13
846.0490, 38428.01
847.1830, 38570.32
848.3170, 38654.38
849.4500, 38505.62
850.5830, 38657.42
851.7160, 38688.76
852.8490, 38715.17
853.9820, 38909.27
855.1150, 38794.36
856.2470, 38985.75
857.3800, 39395.00
858.5120, 39213.00
859.6440, 39430.00
860.7760, 39788.00
861.9070, 39486.00
863.0390, 39707.00
864.1700, 39778.00
865.3010, 40013.00
866.4320, 40177.00
867.5630, 40011.00
868.6940, 40092.00
869.8240, 40136.00
870.9540, 40391.00
872.0850, 40532.00
873.2150, 40532.00
874.3450, 40404.00
875.4740, 40646.00
876.6040, 41061.00
877.7330, 40852.07
878.8620, 41032.94
879.9910, 40780.00
881.1200, 40910.00
882.2490, 41074.00
883.3770, 40859.00
884.5060, 40790.00
885.6340, 40778.00
886.7620, 41369.00
887.8900, 41015.00
889.0180, 41169.00
890.1450, 41557.00
891.2730, 41192.00
892.4000, 41419.00
893.5270, 41679.00
894.6540, 41799.00
895.7810, 41997.00
896.9070, 42099.12
898.0340, 42176.25
899.1600, 42300.00
900.2860, 42251.00
901.4120, 42419.00
902.5380, 42402.00
903.6630, 42544.00
904.7890, 42775.00
905.9140, 42575.00
907.0390, 42818.00
908.1640, 42931.00
909.2890, 42998.00
910.4130, 43106.00
911.5380, 42935.00
912.6620, 43254.00
913.7860, 43396.00
914.9100, 43639.00
916.0340, 43473.00
917.1580, 43506.00
918.2810, 43561.00
919.4040, 43611.00
920.5280, 43720.00
921.6510, 43876.00
922.7730, 44005.00
923.8960, 44057.88
925.0180, 44106.00
926.1410, 44186.00
927.2630, 44267.36
928.3850, 44215.00
929.5070, 44457.00
930.6280, 44558.00
931.7500, 44649.00
932.8710, 44275.00
933.9920, 44643.00
935.1130, 44644.00
936.2340, 45037.00
937.3550, 44807.00
938.4760, 45040.00
939.5960, 45115.00
940.7160, 45277.00
941.8360, 45432.00
942.9560, 45790.00
944.0760, 45427.00
945.1950, 45568.00
946.3150, 45961.00
947.4340, 46318.00
948.5530, 46308.00
949.6720, 46533.00
950.7900, 46347.00
951.9090, 46701.00
953.0270, 46687.00
954.1460, 46802.00
955.2640, 46823.00
956.3820, 46866.00
957.4990, 47297.00
958.6170, 47187.00
959.7340, 47527.00
960.8520, 47518.00
961.9690, 47279.00
963.0860, 47304.00
964.2020, 47556.00
965.3190, 47740.00
966.4350, 47914.00
967.5520, 47939.00
968.6680, 47865.00
969.7840, 48197.00
970.8990, 48285.00
972.0150, 48425.00
973.1310, 48759.95
974.2460, 49102.00
975.3610, 49232.00
976.4760, 49580.00
977.5910, 49528.00
978.7050, 50465.00
979.8200, 50636.00
980.9340, 50955.00
982.0480, 51806.00
983.1620, 52788.00
984.2760, 53698.00
985.3900, 53900.00
986.5030, 55298.00
987.6160, 55742.00
988.7300, 56641.00
989.8430, 57747.00
990.9550, 59104.00
992.0680, 59480.00
993.1810, 58920.00
994.2930, 59238.00
995.4050, 58308.00
996.5170, 57018.00
997.6290, 55783.00
998.7410, 54324.00
999.8520, 53199.00
1000.964, 52189.00
1002.075, 52044.00
1003.186, 51309.00
1004.297, 51552.00
1005.407, 51263.00
1006.518, 51247.00
1007.628, 51280.00
1008.738, 51313.00
1009.848, 51058.00
1010.958, 50699.00
1012.068, 50753.04
1013.178, 50622.38
1014.287, 50681.00
1015.396, 50656.00
1016.505, 50644.00
1017.614, 50660.00
1018.723, 50718.00
1019.831, 50851.00
1020.940, 51239.00
1022.048, 51063.00
1023.156, 51555.00
1024.264, 51617.00
1025.372, 51872.00
1026.479, 52042.00
1027.587, 52480.00
1028.694, 52844.00
1029.801, 52793.00
1030.908, 53142.00
1032.015, 53671.00
1033.121, 53907.00
1034.228, 54277.00
1035.334, 54740.00
1036.440, 54848.00
1037.546, 54935.00
1038.652, 55540.00
1039.758, 55411.00
1040.863, 55690.00
1041.968, 55847.00
1043.074, 55894.00
1044.178, 56100.00
1045.283, 56284.52
1046.388, 56454.32
1047.492, 56720.00
1048.597, 56916.00
1049.701, 57104.00
1050.805, 57421.00
1051.909, 57647.30
1053.012, 57885.00
1054.116, 58168.00
1055.219, 58524.00
1056.322, 58723.00
1057.425, 58853.00
1058.528, 58996.00
1059.631, 59858.00
1060.733, 60470.00
1061.836, 60840.00
1062.938, 60787.00
1064.040, 60945.00
1065.142, 61215.00
1066.243, 61468.42
1067.345, 61686.00
1068.446, 62178.00
1069.547, 62480.00
1070.648, 62732.00
1071.749, 62834.00
1072.850, 63088.00
1073.951, 63066.00
1075.051, 63442.00
1076.151, 63380.00
1077.251, 63070.00
1078.351, 63529.00
1079.451, 63431.00
1080.550, 63713.00
1081.650, 63987.00
1082.749, 63919.00
1083.848, 63755.00
1084.947, 64334.00
1086.046, 64663.00
1087.144, 64971.00
1088.243, 65541.00
1089.341, 66053.13
1090.439, 66893.00
1091.537, 67386.00
1092.635, 68260.00
1093.732, 69112.00
1094.830, 69763.00
1095.927, 70316.30
1097.024, 70945.00
1098.121, 71015.00
1099.218, 71252.00
1100.314, 71223.00
1101.411, 70645.00
1102.507, 69871.00
1103.603, 69037.00
1104.699, 68677.00
1105.795, 67952.00
1106.890, 67717.00
1107.986, 67936.00
1109.081, 69277.00
1110.176, 70037.00
1111.271, 70716.00
1112.366, 72091.00
1113.461, 72458.00
1114.555, 71457.00
1115.649, 69437.00
1116.744, 67708.00
1117.838, 66439.00
1118.931, 65425.13
1120.025, 64640.00
1121.119, 64251.00
1122.212, 64192.00
1123.305, 63951.00
1124.398, 64145.00
1125.491, 64182.00
1126.584, 64338.00
1127.676, 64363.00
1128.768, 64555.00
1129.861, 64575.00
1130.953, 64486.00
1132.044, 64638.68
1133.136, 64648.00
1134.228, 64733.00
1135.319, 64823.00
1136.410, 64766.00
1137.501, 65292.00
1138.592, 65266.00
1139.683, 65122.00
1140.773, 65724.00
1141.864, 65688.00
1142.954, 65273.00
1144.044, 65578.00
1145.134, 65631.00
1146.224, 65848.00
1147.313, 66086.00
1148.402, 66017.00
1149.492, 65797.00
1150.581, 65899.00
1151.670, 66219.00
1152.758, 66582.00
1153.847, 66598.00
1154.935, 66668.00
1156.024, 66907.00
1157.112, 67176.00
1158.200, 67206.55
1159.287, 67334.00
1160.375, 67248.00
1161.462, 67619.00
1162.550, 67447.00
1163.637, 67555.00
1164.724, 67814.00
1165.810, 67990.00
1166.897, 68068.95
1167.983, 68607.00
1169.070, 68103.00
1170.156, 68756.00
1171.242, 68570.00
1172.327, 69022.00
1173.413, 68845.00
1174.499, 68851.00
1175.584, 68946.00
1176.669, 69267.00
1177.754, 69480.00
1178.839, 69869.00
1179.923, 69674.00
1181.008, 70080.41
1182.092, 70176.00
1183.176, 70523.54
1184.260, 70745.00
1185.344, 70837.00
1186.428, 70639.00
1187.511, 71114.00
1188.595, 71213.00
1189.678, 71639.00
1190.761, 72065.00
1191.843, 71742.00
1192.926, 72082.00
1194.009, 72380.00
1195.091, 72529.00
1196.173, 72958.00
1197.255, 73141.75
1198.337, 73394.10
1199.419, 73578.00
1200.500, 73828.00
1201.582, 73944.00
1202.663, 74084.00
1203.744, 73970.00
1204.825, 74278.00
1205.905, 74188.00
1206.986, 74650.00
1208.066, 74140.00
1209.146, 74499.00
1210.226, 74334.00
1211.306, 74447.00
1212.386, 74569.00
1213.466, 74310.00
1214.545, 74531.87
1215.624, 75111.00
1216.703, 74807.00
1217.782, 74901.00
1218.861, 75214.00
1219.939, 75043.00
1221.018, 75405.00
1222.096, 75287.00
1223.174, 75399.00
1224.252, 75989.00
1225.330, 75608.00
1226.407, 75522.00
1227.485, 76284.00
1228.562, 76144.00
1229.639, 76073.00
1230.716, 76604.00
1231.793, 76382.00
1232.869, 76537.00
1233.946, 76488.00
1235.022, 76674.72
1236.098, 76990.00
1237.174, 77180.00
1238.250, 76950.00
1239.325, 77213.00
1240.401, 77442.00
1241.476, 77780.00
1242.551, 77851.00
1243.626, 78302.00
1244.701, 78075.00
1245.776, 78542.00
1246.850, 78536.00
1247.924, 78902.00
1248.999, 78925.00
1250.073, 79086.00
1251.146, 79178.00
1252.220, 79348.00
1253.293, 79607.00
1254.367, 79612.00
1255.440, 79653.00
1256.513, 80220.00
1257.586, 79774.00
1258.658, 80084.00
1259.731, 80557.00
1260.803, 80418.00
1261.875, 81251.00
1262.947, 80766.00
1264.019, 81056.00
1265.091, 80953.00
1266.162, 81437.00
1267.234, 82034.00
1268.305, 81602.00
1269.376, 81727.00
1270.447, 82151.00
1271.517, 82348.00
1272.588, 82166.00
