##NAMES=Marialite
##RRUFFID=R060297
##IDEAL CHEMISTRY=Na_4_Al_3_Si_9_O_24_Cl
##LOCALITY=Morogoro District, Marasi, Tanzania
##OWNER=RRUFF
##SOURCE=Herb Obodda
##DESCRIPTION=Pale yellow crystal fragment
##STATUS=The identification of this mineral has been confirmed by X-ray diffraction and chemical analysis
##URL=rruff.info/R060297
##MEASURED CHEMISTRY=(Na_0.66_Ca_0.29_K_0.06_)_4_(Si_0.68_Al_0.32_)_12_O_24_(Cl_0.70_(CO_3_)_0.30_)
##PIN_ID=L01219
##ORIENTATION=Laser parallel to c* (0 0 1). Fiducial mark perpendicular to laser is parallel to a [1 0 0]
93.28600, 31087.00
94.52300, 31374.00
95.75900, 31740.00
96.99500, 32475.00
98.23100, 33023.00
99.46700, 33389.00
100.7030, 34152.00
101.9390, 35294.00
103.1740, 35959.00
104.4090, 37293.00
105.6440, 39208.00
106.8790, 40802.00
108.1140, 41518.00
109.3490, 41916.00
110.5830, 41818.00
111.8180, 41452.00
113.0520, 40904.00
114.2860, 39745.00
115.5200, 39182.00
116.7530, 38097.00
117.9870, 37002.00
119.2200, 36580.00
120.4530, 35968.00
121.6860, 35896.00
122.9190, 35588.00
124.1520, 35552.00
125.3850, 35445.00
126.6170, 35447.00
127.8490, 35240.00
129.0810, 35898.00
130.3130, 35952.00
131.5450, 35952.00
132.7770, 36012.00
134.0080, 36016.00
135.2390, 36155.00
136.4710, 36428.00
137.7020, 36986.00
138.9320, 37498.00
140.1630, 38028.00
141.3930, 39257.00
142.6240, 40178.00
143.8540, 42441.00
145.0840, 44033.00
146.3140, 45938.00
147.5440, 45938.00
148.7730, 48162.00
150.0020, 50431.00
151.2320, 52736.00
152.4610, 55132.00
153.6900, 57241.00
154.9180, 59224.00
156.1470, 60968.00
157.3750, 62403.00
158.6040, 63691.00
159.8320, 64531.00
161.0600, 65163.00
162.2870, 64743.00
163.5150, 64345.00
164.7420, 61811.00
165.9700, 59922.00
167.1970, 57434.00
168.4240, 55501.00
169.6510, 52885.00
170.8770, 51805.00
172.1040, 50064.00
173.3300, 46221.00
174.5560, 44602.00
175.7820, 43255.00
177.0080, 42106.00
178.2340, 41189.00
179.4590, 40576.00
180.6850, 40096.00
181.9100, 39780.00
183.1350, 39655.00
184.3600, 39754.00
185.5850, 39665.00
186.8090, 39412.00
188.0340, 39397.80
189.2580, 39226.02
190.4820, 39094.00
191.7060, 38883.00
192.9300, 38622.00
194.1530, 38252.00
195.3770, 37641.00
196.6000, 37225.00
197.8230, 36428.00
199.0460, 36335.00
200.2690, 35889.00
201.4910, 35863.00
202.7140, 35100.00
203.9360, 34861.00
205.1580, 34713.00
206.3800, 34779.00
207.6020, 34265.00
208.8240, 33570.00
210.0450, 33112.00
211.2670, 32526.00
212.4880, 31939.00
213.7090, 31417.00
214.9300, 31045.00
216.1510, 30568.00
217.3710, 30452.00
218.5920, 30187.00
219.8120, 30289.00
221.0320, 30330.00
222.2520, 30154.00
223.4720, 30186.00
224.6910, 30118.00
225.9110, 29788.00
227.1300, 29856.00
228.3490, 29407.00
229.5680, 29236.00
230.7870, 28602.00
232.0050, 28074.00
233.2240, 27896.00
234.4420, 27177.00
235.6600, 26878.00
236.8780, 26717.00
238.0960, 26091.00
239.3140, 25708.00
240.5310, 25547.00
241.7490, 25391.00
242.9660, 25137.00
244.1830, 25177.00
245.4000, 25045.00
246.6160, 25049.00
247.8330, 25486.00
249.0490, 25769.00
250.2660, 25989.00
251.4820, 26479.00
252.6980, 26897.00
253.9130, 27642.00
255.1290, 28262.00
256.3440, 29053.00
257.5600, 30091.00
258.7750, 31062.00
259.9900, 32005.00
261.2040, 32717.00
262.4190, 32771.00
263.6330, 33023.00
264.8480, 32474.00
266.0620, 31770.00
267.2760, 30499.00
268.4900, 29236.00
269.7030, 28027.00
270.9170, 26320.00
272.1300, 25703.00
273.3430, 24522.00
274.5560, 24093.00
275.7690, 23652.00
276.9820, 23252.00
278.1940, 22918.00
279.4070, 22523.00
280.6190, 22544.00
281.8310, 22311.00
283.0430, 22492.00
284.2550, 22708.00
285.4660, 22762.00
286.6770, 22963.00
287.8890, 23157.00
289.1000, 23171.00
290.3110, 23322.00
291.5210, 23350.00
292.7320, 23469.00
293.9420, 23739.00
295.1530, 23575.00
296.3630, 24020.00
297.5730, 24161.00
298.7830, 24196.00
299.9920, 23642.00
301.2020, 23348.00
302.4110, 22727.00
303.6200, 22102.00
304.8290, 21552.00
306.0380, 21574.00
307.2470, 21325.00
308.4550, 21300.00
309.6630, 21176.00
310.8720, 21078.00
312.0800, 20924.00
313.2880, 21183.00
314.4950, 21369.00
315.7030, 21359.00
316.9100, 21695.00
318.1170, 21735.00
319.3240, 21477.00
320.5310, 21839.00
321.7380, 21926.00
322.9450, 22057.00
324.1510, 22177.00
325.3570, 22500.00
326.5630, 22570.00
327.7690, 22697.00
328.9750, 22941.00
330.1810, 23018.39
331.3860, 23364.00
332.5910, 23314.00
333.7960, 23608.00
335.0010, 23831.00
336.2060, 23567.00
337.4110, 23398.00
338.6150, 23243.00
339.8200, 23170.00
341.0240, 23081.00
342.2280, 22930.00
343.4320, 22992.00
344.6350, 22699.00
345.8390, 22753.00
347.0420, 22936.00
348.2450, 23053.00
349.4480, 23282.00
350.6510, 23492.00
351.8540, 23978.00
353.0560, 24577.00
354.2590, 24747.00
355.4610, 25495.00
356.6630, 26037.00
357.8650, 26896.00
359.0670, 27330.00
360.2680, 27510.00
361.4700, 27177.00
362.6710, 26991.00
363.8720, 26302.00
365.0730, 25753.00
366.2740, 25020.00
367.4740, 24646.00
368.6750, 24435.00
369.8750, 23879.00
371.0750, 23805.00
372.2750, 23690.00
373.4750, 23644.00
374.6740, 23590.38
375.8740, 23520.00
377.0730, 23557.00
378.2720, 23460.00
379.4710, 23512.00
380.6700, 23428.00
381.8690, 23284.00
383.0670, 23401.00
384.2660, 23334.00
385.4640, 22994.00
386.6620, 22903.00
387.8600, 22948.00
389.0570, 22711.00
390.2550, 22631.00
391.4520, 22614.00
392.6490, 22526.00
393.8460, 22633.00
395.0430, 22388.00
396.2400, 22791.00
397.4370, 22517.00
398.6330, 22543.00
399.8290, 22563.00
401.0250, 22689.00
402.2210, 22468.00
403.4170, 22746.00
404.6130, 22679.00
405.8080, 22841.00
407.0030, 23038.00
408.1980, 23099.00
409.3930, 23430.00
410.5880, 23632.00
411.7830, 23951.00
412.9770, 24189.00
414.1720, 24509.92
415.3660, 24819.74
416.5600, 25166.00
417.7530, 25511.00
418.9470, 25831.00
420.1410, 26275.00
421.3340, 26491.00
422.5270, 26472.00
423.7200, 26800.00
424.9130, 26773.00
426.1060, 26743.00
427.2980, 26970.00
428.4900, 27386.00
429.6830, 27501.00
430.8750, 27929.00
432.0670, 28010.00
433.2580, 28496.00
434.4500, 29007.00
435.6410, 29498.00
436.8320, 30502.00
438.0240, 31368.00
439.2140, 32575.00
440.4050, 33796.00
441.5960, 35091.00
442.7860, 36926.00
443.9760, 39128.00
445.1670, 41435.00
446.3560, 45276.00
447.5460, 49701.00
448.7360, 54849.00
449.9250, 61218.00
451.1150, 67897.00
452.3040, 74574.00
453.4930, 80582.00
454.6810, 85870.00
455.8700, 89446.00
457.0590, 91305.00
458.2470, 92148.00
459.4350, 91469.00
460.6230, 89681.00
461.8110, 85955.00
462.9980, 81082.00
464.1860, 75046.00
465.3730, 69172.00
466.5600, 63586.00
467.7470, 57833.00
468.9340, 52811.00
470.1210, 48734.00
471.3080, 44779.00
472.4940, 41397.00
473.6800, 38759.00
474.8660, 36744.00
476.0520, 34857.00
477.2380, 33686.00
478.4230, 32093.00
479.6090, 31181.00
480.7940, 30369.00
481.9790, 29485.00
483.1640, 29176.00
484.3490, 28523.00
485.5330, 28232.00
486.7180, 27872.00
487.9020, 27375.00
489.0860, 27212.00
490.2700, 27168.00
491.4540, 26756.00
492.6370, 26846.00
493.8210, 26735.00
495.0040, 26450.00
496.1870, 26450.00
497.3700, 26224.00
498.5530, 26120.00
499.7360, 26429.00
500.9180, 26288.00
502.1000, 26512.00
503.2830, 26532.00
504.4650, 26539.00
505.6460, 26631.07
506.8280, 26401.00
508.0100, 26667.00
509.1910, 26431.00
510.3720, 26382.00
511.5530, 26565.00
512.7340, 26755.00
513.9150, 27068.00
515.0950, 27162.36
516.2760, 27174.00
517.4560, 27436.00
518.6360, 27643.00
519.8160, 27815.00
520.9950, 28027.00
522.1750, 28328.00
523.3540, 29035.00
524.5340, 29597.00
525.7130, 30579.00
526.8920, 31571.00
528.0700, 33082.90
529.2490, 34735.00
530.4270, 36771.00
531.6060, 39041.00
532.7840, 41451.00
533.9620, 44026.00
535.1390, 47183.00
536.3170, 48064.00
537.4940, 48782.00
538.6720, 47436.00
539.8490, 45278.00
541.0260, 42833.00
542.2030, 40170.00
543.3790, 37465.00
544.5560, 35943.00
545.7320, 34110.00
546.9080, 32670.00
548.0840, 31560.00
549.2600, 31071.00
550.4360, 30319.00
551.6110, 29700.00
552.7860, 29359.00
553.9620, 28992.00
555.1370, 28406.00
556.3110, 28310.00
557.4860, 28295.00
558.6610, 28163.00
559.8350, 27881.00
561.0090, 27825.00
562.1830, 27741.00
563.3570, 27828.00
564.5310, 27989.00
565.7040, 27904.00
566.8780, 27612.00
568.0510, 27842.00
569.2240, 27746.00
570.3970, 27905.00
571.5700, 27909.00
572.7420, 27897.00
573.9150, 27820.00
575.0870, 27779.00
576.2590, 27815.00
577.4310, 27666.00
578.6030, 27771.00
579.7740, 28068.00
580.9460, 28007.00
582.1170, 28006.00
583.2880, 28176.00
584.4590, 28032.00
585.6300, 28104.00
586.8010, 28227.00
587.9710, 28282.00
589.1410, 28339.00
590.3110, 28430.00
591.4810, 28570.00
592.6510, 28581.08
593.8210, 28602.71
594.9900, 28784.00
596.1600, 28499.00
597.3290, 28878.00
598.4980, 28744.00
599.6670, 29124.00
600.8350, 29334.00
602.0040, 29483.00
603.1720, 29478.00
604.3400, 29409.00
605.5080, 29338.00
606.6760, 29412.35
607.8440, 29444.52
609.0120, 29558.00
610.1790, 29651.00
611.3460, 29736.00
612.5130, 29859.00
613.6800, 29617.00
614.8470, 30004.00
616.0130, 29867.00
617.1800, 29525.00
618.3460, 29501.00
619.5120, 29804.00
620.6780, 29865.00
621.8440, 29633.00
623.0090, 29989.00
624.1750, 29681.00
625.3400, 29749.00
626.5050, 29601.00
627.6700, 29866.00
628.8350, 29797.00
629.9990, 29569.00
631.1640, 29902.00
632.3280, 29810.00
633.4920, 29439.00
634.6560, 29876.00
635.8200, 29980.00
636.9840, 29913.00
638.1470, 29863.00
639.3100, 30085.00
640.4730, 30226.00
641.6360, 30345.00
642.7990, 30411.00
643.9620, 30525.00
645.1240, 30405.00
646.2870, 30522.00
647.4490, 30638.99
648.6110, 30466.00
649.7730, 30869.00
650.9340, 30878.00
652.0960, 30802.00
653.2570, 30872.00
654.4180, 31052.00
655.5790, 30934.00
656.7400, 31155.00
657.9010, 31119.00
659.0620, 31400.00
660.2220, 31467.00
661.3820, 31481.00
662.5420, 31745.00
663.7020, 31778.00
664.8620, 31835.00
666.0210, 31764.00
667.1810, 31786.00
668.3400, 31973.00
669.4990, 31884.00
670.6580, 32111.00
671.8170, 31841.00
672.9750, 31880.00
674.1340, 31951.00
675.2920, 32173.00
676.4500, 32151.00
677.6080, 32319.00
678.7660, 32359.00
679.9230, 32400.00
681.0810, 32287.00
682.2380, 32405.00
683.3950, 32345.00
684.5520, 32291.00
685.7090, 32445.00
686.8660, 32349.00
688.0220, 32448.82
689.1780, 32469.04
690.3340, 32557.00
691.4900, 32570.00
692.6460, 32678.68
693.8020, 32712.00
694.9570, 32874.00
696.1130, 32965.00
697.2680, 33025.00
698.4230, 32920.00
699.5780, 32961.00
700.7320, 33163.00
701.8870, 33179.00
703.0410, 33380.00
704.1950, 33287.00
705.3490, 33596.00
706.5030, 33515.00
707.6570, 34010.00
708.8110, 33697.00
709.9640, 34005.00
711.1170, 33807.00
712.2700, 34251.00
713.4230, 34061.00
714.5760, 34221.00
715.7280, 34108.00
716.8810, 34367.00
718.0330, 34460.00
719.1850, 34297.00
720.3370, 34355.00
721.4890, 34521.00
722.6400, 34302.00
723.7920, 34717.00
724.9430, 34655.00
726.0940, 34708.00
727.2450, 34721.00
728.3960, 34800.00
729.5460, 35056.00
730.6970, 35027.00
731.8470, 35240.00
732.9970, 35320.11
734.1470, 35239.78
735.2970, 35494.00
736.4460, 35164.00
737.5960, 35209.00
738.7450, 35388.00
739.8940, 35569.00
741.0430, 35612.00
742.1920, 35466.00
743.3410, 35694.00
744.4890, 35805.00
745.6370, 35720.00
746.7850, 35903.00
747.9330, 36478.00
749.0810, 36519.00
750.2290, 36599.00
751.3760, 36952.00
752.5240, 37035.00
753.6710, 37417.00
754.8180, 37459.00
755.9650, 38019.00
757.1110, 38090.00
758.2580, 38314.00
759.4040, 38665.00
760.5510, 39242.00
761.6970, 39833.00
762.8420, 40325.00
763.9880, 40925.00
765.1340, 41265.00
766.2790, 42054.00
767.4240, 42391.00
768.5690, 43163.00
769.7140, 43689.00
770.8590, 44314.00
772.0030, 44603.00
773.1480, 44718.00
774.2920, 45010.00
775.4360, 44568.00
776.5800, 44370.00
777.7240, 44357.00
778.8670, 43680.00
780.0110, 43085.00
781.1540, 42401.00
782.2970, 41608.00
783.4400, 40863.00
784.5830, 40134.00
785.7250, 39831.00
786.8680, 39280.00
788.0100, 39023.31
789.1520, 39062.00
790.2940, 38762.00
791.4360, 38670.00
792.5780, 38848.00
793.7190, 38589.00
794.8600, 38790.00
796.0010, 38660.00
797.1420, 38930.00
798.2830, 38811.00
799.4240, 38995.00
800.5640, 38905.00
801.7050, 38746.00
802.8450, 39106.00
803.9850, 39174.00
805.1250, 39625.00
806.2640, 39814.00
807.4040, 39863.00
808.5430, 40031.00
809.6820, 39987.00
810.8210, 40255.00
811.9600, 40095.00
813.0990, 39704.00
814.2370, 39763.00
815.3760, 39658.00
816.5140, 39730.00
817.6520, 39668.00
818.7900, 39690.00
819.9270, 39652.00
821.0650, 39544.00
822.2020, 39676.00
823.3390, 39716.57
824.4760, 40078.00
825.6130, 39983.00
826.7500, 40097.00
827.8870, 40265.00
829.0230, 39994.00
830.1590, 40508.00
831.2950, 40414.00
832.4310, 40473.00
833.5670, 40712.00
834.7030, 40635.00
835.8380, 40764.02
836.9730, 40699.00
838.1080, 40855.00
839.2430, 40935.00
840.3780, 40928.00
841.5130, 41108.00
842.6470, 41132.00
843.7810, 41167.00
844.9150, 41335.00
846.0490, 41127.00
847.1830, 41237.00
848.3170, 41308.00
849.4500, 41679.00
850.5830, 41886.00
851.7160, 41929.00
852.8490, 41823.00
853.9820, 42131.00
855.1150, 41979.00
856.2470, 41999.00
857.3800, 42400.00
858.5120, 42472.00
859.6440, 42520.00
860.7760, 42782.00
861.9070, 42920.00
863.0390, 42854.00
864.1700, 42872.00
865.3010, 43059.00
866.4320, 43170.00
867.5630, 43289.00
868.6940, 43281.00
869.8240, 43431.00
870.9540, 43477.00
872.0850, 43613.00
873.2150, 43673.00
874.3450, 43569.00
875.4740, 44006.00
876.6040, 43667.00
877.7330, 43987.00
878.8620, 43978.00
879.9910, 43817.00
881.1200, 43876.00
882.2490, 43699.00
883.3770, 43976.00
884.5060, 44049.00
885.6340, 43983.00
886.7620, 43995.00
887.8900, 44220.00
889.0180, 44404.00
890.1450, 44674.00
891.2730, 44774.29
892.4000, 44770.00
893.5270, 44915.00
894.6540, 45050.00
895.7810, 44962.00
896.9070, 45200.00
898.0340, 45473.00
899.1600, 45255.00
900.2860, 45335.00
901.4120, 45371.00
902.5380, 45558.00
903.6630, 45427.49
904.7890, 45685.74
905.9140, 45872.08
907.0390, 45990.45
908.1640, 45837.26
909.2890, 46034.73
910.4130, 46091.59
911.5380, 46142.77
912.6620, 46389.50
913.7860, 46275.73
914.9100, 46519.36
916.0340, 46620.32
917.1580, 46786.58
918.2810, 46811.36
919.4040, 46879.82
920.5280, 47089.79
921.6510, 46892.00
922.7730, 47019.00
923.8960, 47201.00
925.0180, 47410.00
926.1410, 47386.00
927.2630, 47292.00
928.3850, 47405.00
929.5070, 47596.00
930.6280, 47464.00
931.7500, 47993.00
932.8710, 47961.00
933.9920, 47745.00
935.1130, 48326.00
936.2340, 48228.00
937.3550, 48285.00
938.4760, 48410.00
939.5960, 48512.00
940.7160, 48495.00
941.8360, 48615.00
942.9560, 48644.00
944.0760, 48925.00
945.1950, 49048.00
946.3150, 49254.00
947.4340, 49465.00
948.5530, 49491.00
949.6720, 49605.00
950.7900, 49739.00
951.9090, 49815.00
953.0270, 49827.00
954.1460, 50232.00
955.2640, 50042.00
956.3820, 50239.00
957.4990, 50599.00
958.6170, 50467.00
959.7340, 50761.00
960.8520, 50884.00
961.9690, 50713.00
963.0860, 50833.00
964.2020, 50851.00
965.3190, 50751.00
966.4350, 51180.00
967.5520, 51312.00
968.6680, 51252.00
969.7840, 51692.00
970.8990, 51760.00
972.0150, 51539.00
973.1310, 52341.00
974.2460, 52473.00
975.3610, 52726.00
976.4760, 52765.00
977.5910, 53046.00
978.7050, 53680.00
979.8200, 54121.00
980.9340, 54859.00
982.0480, 55157.00
983.1620, 56169.00
984.2760, 56966.00
985.3900, 58034.00
986.5030, 58640.00
987.6160, 59480.00
988.7300, 60498.00
989.8430, 61645.00
990.9550, 62737.00
992.0680, 63453.00
993.1810, 63306.00
994.2930, 63013.00
995.4050, 61800.00
996.5170, 60478.00
997.6290, 59058.00
998.7410, 57309.00
999.8520, 56355.00
1000.964, 55685.00
1002.075, 55456.00
1003.186, 55015.00
1004.297, 54968.00
1005.407, 54658.00
1006.518, 54566.00
1007.628, 54388.00
1008.738, 54532.00
1009.848, 54553.00
1010.958, 54124.18
1012.068, 54294.44
1013.178, 54370.73
1014.287, 54359.72
1015.396, 53912.33
1016.505, 54095.18
1017.614, 54066.26
1018.723, 54056.60
1019.831, 54411.34
1020.940, 54177.28
1022.048, 54584.89
1023.156, 54777.00
1024.264, 55110.14
1025.372, 55229.93
1026.479, 55453.00
1027.587, 55768.00
1028.694, 56146.00
1029.801, 56377.00
1030.908, 56681.00
1032.015, 57064.00
1033.121, 57303.00
1034.228, 57420.00
1035.334, 57569.00
1036.440, 58232.00
1037.546, 58194.00
1038.652, 58732.00
1039.758, 58745.00
1040.863, 58779.00
1041.968, 58963.00
1043.074, 59218.00
1044.178, 59444.34
1045.283, 59677.00
1046.388, 60031.00
1047.492, 60155.00
1048.597, 60370.00
1049.701, 60394.00
1050.805, 60737.00
1051.909, 61028.00
1053.012, 61164.53
1054.116, 61611.00
1055.219, 61649.00
1056.322, 62015.00
1057.425, 62463.00
1058.528, 62717.00
1059.631, 63052.00
1060.733, 63457.00
1061.836, 63804.00
1062.938, 64096.00
1064.040, 64367.00
1065.142, 64699.33
1066.243, 65043.00
1067.345, 65361.00
1068.446, 65610.00
1069.547, 66019.00
1070.648, 66461.00
1071.749, 66701.00
1072.850, 66780.00
1073.951, 66509.00
1075.051, 67001.00
1076.151, 66821.00
1077.251, 67456.00
1078.351, 67139.00
1079.451, 67114.00
1080.550, 67175.00
1081.650, 67358.00
1082.749, 67493.00
1083.848, 67647.00
1084.947, 68079.00
1086.046, 68087.00
1087.144, 69092.00
1088.243, 69019.00
1089.341, 69212.00
1090.439, 70692.00
1091.537, 71593.00
1092.635, 72148.00
1093.732, 73125.00
1094.830, 73736.00
1095.927, 74307.00
1097.024, 74706.00
1098.121, 75152.00
1099.218, 75085.00
1100.314, 74940.00
1101.411, 74220.00
1102.507, 73703.00
1103.603, 72794.00
1104.699, 71631.00
1105.795, 71192.00
1106.890, 71202.00
1107.986, 71984.00
1109.081, 72774.00
1110.176, 73256.00
1111.271, 74960.00
1112.366, 75634.00
1113.461, 76242.00
1114.555, 75810.00
1115.649, 73407.00
1116.744, 71072.00
1117.838, 69829.00
1118.931, 68710.00
1120.025, 68312.00
1121.119, 67428.00
1122.212, 67970.00
1123.305, 67432.00
1124.398, 67310.00
1125.491, 67400.00
1126.584, 67481.00
1127.676, 67486.00
1128.768, 67615.32
1129.861, 67605.00
1130.953, 67797.00
1132.044, 67984.00
1133.136, 68024.00
1134.228, 68341.00
1135.319, 68282.00
1136.410, 68333.00
1137.501, 68126.00
1138.592, 68387.00
1139.683, 68599.00
1140.773, 68561.00
1141.864, 69022.00
1142.954, 68822.00
1144.044, 69048.00
1145.134, 68821.00
1146.224, 68790.00
1147.313, 69155.00
1148.402, 69512.00
1149.492, 69064.00
1150.581, 69529.00
1151.670, 69449.00
1152.758, 69945.00
1153.847, 69935.00
1154.935, 69802.00
1156.024, 69809.00
1157.112, 70070.00
1158.200, 70159.00
1159.287, 70570.00
1160.375, 70564.00
1161.462, 70704.00
1162.550, 71106.00
1163.637, 70825.00
1164.724, 71181.00
1165.810, 70911.00
1166.897, 71313.00
1167.983, 71490.00
1169.070, 71571.00
1170.156, 71652.00
1171.242, 72164.00
1172.327, 72051.00
1173.413, 72259.00
1174.499, 72199.00
1175.584, 72551.00
1176.669, 72616.55
1177.754, 72530.00
1178.839, 72964.00
1179.923, 73091.00
1181.008, 73388.00
1182.092, 73069.00
1183.176, 73676.00
1184.260, 73459.00
1185.344, 73745.00
1186.428, 73964.00
1187.511, 74470.00
1188.595, 74455.00
1189.678, 74278.00
1190.761, 74870.00
1191.843, 74922.00
1192.926, 74977.00
1194.009, 75413.00
1195.091, 75390.00
1196.173, 75871.00
1197.255, 75882.00
1198.337, 76186.00
1199.419, 76050.00
1200.500, 76275.43
1201.582, 76655.00
1202.663, 76553.00
1203.744, 76670.00
1204.825, 76756.39
1205.905, 76827.00
1206.986, 77079.00
1208.066, 77261.00
1209.146, 77293.00
1210.226, 77332.00
1211.306, 77353.00
1212.386, 77933.00
1213.466, 77512.00
1214.545, 78210.00
1215.624, 77534.00
1216.703, 78021.00
1217.782, 78666.00
1218.861, 78143.00
1219.939, 78820.00
1221.018, 78795.00
1222.096, 78730.00
1223.174, 78848.00
1224.252, 78890.00
1225.330, 78965.00
1226.407, 79093.73
1227.485, 79163.00
1228.562, 79342.00
1229.639, 79463.00
1230.716, 79576.00
1231.793, 79620.00
1232.869, 79775.00
1233.946, 79865.00
1235.022, 80088.00
1236.098, 80314.00
1237.174, 80184.00
1238.250, 80647.00
1239.325, 80500.00
1240.401, 81160.00
1241.476, 80785.00
1242.551, 80937.00
1243.626, 81487.00
1244.701, 81461.00
1245.776, 81878.00
1246.850, 81635.00
1247.924, 82214.00
1248.999, 82105.00
1250.073, 82526.00
1251.146, 82525.00
1252.220, 82732.00
1253.293, 82438.00
1254.367, 82772.00
1255.440, 83036.00
1256.513, 83302.00
1257.586, 83667.00
1258.658, 83648.00
1259.731, 83696.00
1260.803, 83980.00
1261.875, 83823.00
1262.947, 84312.00
1264.019, 84633.00
1265.091, 84252.00
1266.162, 85302.00
1267.234, 85122.00
1268.305, 84991.00
1269.376, 85125.00
1270.447, 85345.00
1271.517, 85382.00
1272.588, 85714.00
