##NAMES=Marialite
##RRUFFID=R060458
##IDEAL CHEMISTRY=Na_4_Al_3_Si_9_O_24_Cl
##LOCALITY=Dading, Nepal
##OWNER=RRUFF
##SOURCE=Michael Scott
##DESCRIPTION=Colorless elongated prism
##STATUS=The identification of this mineral has been confirmed by X-ray diffraction and chemical analysis
##URL=rruff.info/R060458
##MEASURED CHEMISTRY=(Na_0.52_Ca_0.47_K_0.01_)_4_(Al_0.36_Si_0.64_)_12_O_24_(Cl_0.44_(CO_3_)_0.56_)
##PIN_ID=L01838
##ORIENTATION=Laser parallel to a* (1 0 0). Fiducial mark perpendicular to laser is parallel to -c [0 0 -1]
115.5200, 31058.00
116.7530, 31033.00
117.9870, 30901.00
119.2200, 31647.00
120.4530, 34026.00
121.6860, 34488.00
122.9190, 33413.00
124.1520, 32549.00
125.3850, 32309.00
126.6170, 31725.00
127.8490, 31761.00
129.0810, 32012.00
130.3130, 31851.00
131.5450, 31810.00
132.7770, 31323.00
134.0080, 30976.00
135.2390, 30468.00
136.4710, 30001.00
137.7020, 29476.00
138.9320, 29148.00
140.1630, 28574.00
141.3930, 28172.00
142.6240, 27949.00
143.8540, 27465.00
145.0840, 27318.00
146.3140, 26953.00
147.5440, 26899.00
148.7730, 26686.00
150.0020, 26920.00
151.2320, 26842.00
152.4610, 27272.00
153.6900, 27800.00
154.9180, 28311.00
156.1470, 29018.00
157.3750, 29211.00
158.6040, 29795.00
159.8320, 30158.00
161.0600, 30411.00
162.2870, 30398.00
163.5150, 30005.00
164.7420, 29562.00
165.9700, 28876.00
167.1970, 28059.00
168.4240, 27176.00
169.6510, 25988.00
170.8770, 25024.00
172.1040, 24047.00
173.3300, 23164.00
174.5560, 22434.00
175.7820, 21497.00
177.0080, 21057.00
178.2340, 20595.00
179.4590, 20268.00
180.6850, 20125.00
181.9100, 20008.00
183.1350, 20060.00
184.3600, 20011.20
185.5850, 20028.00
186.8090, 20089.00
188.0340, 20173.00
189.2580, 20250.00
190.4820, 20328.00
191.7060, 20618.00
192.9300, 20480.00
194.1530, 20406.00
195.3770, 20516.00
196.6000, 20095.00
197.8230, 20065.00
199.0460, 20079.00
200.2690, 19785.00
201.4910, 19581.00
202.7140, 19520.72
203.9360, 19326.56
205.1580, 19350.00
206.3800, 19125.00
207.6020, 19092.00
208.8240, 19036.00
210.0450, 18943.00
211.2670, 19002.00
212.4880, 19107.00
213.7090, 19159.00
214.9300, 19233.00
216.1510, 19339.00
217.3710, 19415.18
218.5920, 19551.00
219.8120, 19556.00
221.0320, 19576.00
222.2520, 19532.00
223.4720, 19643.00
224.6910, 19582.00
225.9110, 19378.00
227.1300, 19369.00
228.3490, 19116.00
229.5680, 18756.00
230.7870, 18728.00
232.0050, 18379.00
233.2240, 18134.00
234.4420, 17815.00
235.6600, 17668.00
236.8780, 17535.00
238.0960, 16992.00
239.3140, 17022.00
240.5310, 16884.00
241.7490, 16879.00
242.9660, 16920.00
244.1830, 16838.00
245.4000, 16965.00
246.6160, 17512.00
247.8330, 17568.00
249.0490, 18281.00
250.2660, 18784.00
251.4820, 19432.00
252.6980, 20607.00
253.9130, 21218.00
255.1290, 22294.00
256.3440, 23530.00
257.5600, 24541.00
258.7750, 25614.00
259.9900, 26863.00
261.2040, 27512.00
262.4190, 27577.00
263.6330, 27202.00
264.8480, 26786.00
266.0620, 25596.00
267.2760, 24073.00
268.4900, 22473.00
269.7030, 21067.00
270.9170, 19790.00
272.1300, 18733.00
273.3430, 17927.00
274.5560, 17050.00
275.7690, 16458.00
276.9820, 16130.00
278.1940, 15800.00
279.4070, 15634.00
280.6190, 15557.70
281.8310, 15586.35
283.0430, 15693.00
284.2550, 15928.00
285.4660, 16236.00
286.6770, 16547.96
287.8890, 16878.00
289.1000, 17258.00
290.3110, 17684.13
291.5210, 18040.00
292.7320, 18665.00
293.9420, 19214.00
295.1530, 19830.00
296.3630, 19989.00
297.5730, 19621.00
298.7830, 19135.00
299.9920, 17810.00
301.2020, 16818.00
302.4110, 16020.00
303.6200, 15134.00
304.8290, 14574.00
306.0380, 14134.00
307.2470, 13853.00
308.4550, 13561.00
309.6630, 13458.00
310.8720, 13305.00
312.0800, 13284.00
313.2880, 12980.00
314.4950, 13157.00
315.7030, 13126.00
316.9100, 12889.00
318.1170, 13165.00
319.3240, 13076.00
320.5310, 13308.00
321.7380, 13060.00
322.9450, 13245.00
324.1510, 13341.00
325.3570, 13288.00
326.5630, 13487.00
327.7690, 13437.00
328.9750, 13596.00
330.1810, 13848.00
331.3860, 13993.00
332.5910, 14111.00
333.7960, 14182.00
335.0010, 14322.32
336.2060, 14586.00
337.4110, 14518.00
338.6150, 14708.00
339.8200, 14731.00
341.0240, 14638.00
342.2280, 14804.00
343.4320, 14715.00
344.6350, 14711.00
345.8390, 15043.00
347.0420, 14936.00
348.2450, 15018.00
349.4480, 15265.00
350.6510, 15836.00
351.8540, 15972.00
353.0560, 16488.00
354.2590, 16803.00
355.4610, 17358.00
356.6630, 17780.00
357.8650, 18362.00
359.0670, 18660.00
360.2680, 18888.00
361.4700, 18992.00
362.6710, 18544.00
363.8720, 18229.00
365.0730, 17568.00
366.2740, 17048.00
367.4740, 16518.00
368.6750, 16146.00
369.8750, 15800.00
371.0750, 15768.00
372.2750, 15722.00
373.4750, 15411.00
374.6740, 15660.00
375.8740, 15689.00
377.0730, 15747.00
378.2720, 16016.00
379.4710, 16092.00
380.6700, 16072.00
381.8690, 16077.00
383.0670, 16061.15
384.2660, 15995.11
385.4640, 15981.00
386.6620, 15844.00
387.8600, 15787.00
389.0570, 15708.00
390.2550, 15552.00
391.4520, 15223.00
392.6490, 15175.00
393.8460, 14939.00
395.0430, 14760.00
396.2400, 14554.00
397.4370, 14492.00
398.6330, 14644.00
399.8290, 14547.00
401.0250, 14420.00
402.2210, 14303.00
403.4170, 14510.00
404.6130, 14531.00
405.8080, 14645.00
407.0030, 14650.00
408.1980, 14983.00
409.3930, 15059.00
410.5880, 15406.00
411.7830, 15557.00
412.9770, 16057.00
414.1720, 16447.00
415.3660, 16914.00
416.5600, 17381.00
417.7530, 18152.00
418.9470, 18883.00
420.1410, 19160.00
421.3340, 19268.00
422.5270, 19386.00
423.7200, 18951.00
424.9130, 18600.00
426.1060, 17949.00
427.2980, 17536.00
428.4900, 17088.00
429.6830, 17017.00
430.8750, 16751.00
432.0670, 16902.00
433.2580, 17125.00
434.4500, 17477.00
435.6410, 18027.00
436.8320, 18635.00
438.0240, 19114.00
439.2140, 20126.00
440.4050, 21132.00
441.5960, 22172.00
442.7860, 23723.00
443.9760, 25230.00
445.1670, 27191.00
446.3560, 29592.00
447.5460, 31834.00
448.7360, 34585.00
449.9250, 38078.00
451.1150, 41642.00
452.3040, 45253.00
453.4930, 48069.00
454.6810, 49979.00
455.8700, 51169.00
457.0590, 51130.00
458.2470, 51352.00
459.4350, 51207.00
460.6230, 50713.00
461.8110, 49656.00
462.9980, 47819.00
464.1860, 45616.00
465.3730, 42909.00
466.5600, 39708.00
467.7470, 36739.00
468.9340, 33918.00
470.1210, 31343.59
471.3080, 29049.05
472.4940, 26895.00
473.6800, 25185.00
474.8660, 23738.00
476.0520, 22525.00
477.2380, 21724.00
478.4230, 20868.00
479.6090, 19890.00
480.7940, 19406.00
481.9790, 18754.00
483.1640, 18380.00
484.3490, 17831.00
485.5330, 17547.00
486.7180, 17378.00
487.9020, 16973.00
489.0860, 16737.00
490.2700, 16513.00
491.4540, 16393.00
492.6370, 16282.00
493.8210, 16161.89
495.0040, 16175.00
496.1870, 16035.00
497.3700, 15982.00
498.5530, 16001.00
499.7360, 15828.00
500.9180, 15931.00
502.1000, 15715.00
503.2830, 15787.00
504.4650, 15781.00
505.6460, 15816.00
506.8280, 15829.19
508.0100, 15751.00
509.1910, 15815.00
510.3720, 15773.00
511.5530, 15711.00
512.7340, 16067.00
513.9150, 16311.00
515.0950, 16157.00
516.2760, 16686.00
517.4560, 16947.00
518.6360, 17244.00
519.8160, 17747.00
520.9950, 18177.00
522.1750, 18903.00
523.3540, 19567.00
524.5340, 20819.00
525.7130, 21997.00
526.8920, 23617.00
528.0700, 25342.00
529.2490, 27584.00
530.4270, 29978.00
531.6060, 32621.00
532.7840, 35119.00
533.9620, 37336.00
535.1390, 38865.00
536.3170, 38822.00
537.4940, 37489.00
538.6720, 35485.00
539.8490, 33052.00
541.0260, 30340.00
542.2030, 28105.00
543.3790, 26058.00
544.5560, 24241.00
545.7320, 22983.00
546.9080, 21718.00
548.0840, 20918.00
549.2600, 20211.00
550.4360, 19527.00
551.6110, 19186.00
552.7860, 19038.00
553.9620, 18310.00
555.1370, 18279.00
556.3110, 18612.00
557.4860, 17928.00
558.6610, 17951.00
559.8350, 17755.00
561.0090, 18127.00
562.1830, 17786.00
563.3570, 17647.00
564.5310, 17665.00
565.7040, 17677.00
566.8780, 17707.00
568.0510, 17827.00
569.2240, 17766.00
570.3970, 17819.56
571.5700, 17687.00
572.7420, 17848.00
573.9150, 17796.00
575.0870, 17831.00
576.2590, 17798.00
577.4310, 17908.00
578.6030, 17933.00
579.7740, 18014.00
580.9460, 18158.21
582.1170, 18155.00
583.2880, 18268.75
584.4590, 18310.07
585.6300, 18309.76
586.8010, 18376.00
587.9710, 18297.97
589.1410, 18286.00
590.3110, 18265.00
591.4810, 18277.18
592.6510, 18408.00
593.8210, 18374.00
594.9900, 18367.00
596.1600, 18474.00
597.3290, 18411.00
598.4980, 18355.00
599.6670, 18464.00
600.8350, 18554.00
602.0040, 18616.00
603.1720, 18834.00
604.3400, 19020.00
605.5080, 18990.36
606.6760, 19081.00
607.8440, 19039.00
609.0120, 19087.50
610.1790, 19125.00
611.3460, 19185.00
612.5130, 19194.00
613.6800, 19303.00
614.8470, 19232.00
616.0130, 19128.00
617.1800, 19192.00
618.3460, 19169.73
619.5120, 19256.71
620.6780, 19322.00
621.8440, 19479.00
623.0090, 19723.00
624.1750, 19833.00
625.3400, 19881.00
626.5050, 19826.00
627.6700, 19746.00
628.8350, 19898.00
629.9990, 19737.00
631.1640, 19965.00
632.3280, 19791.25
633.4920, 19646.00
634.6560, 19546.00
635.8200, 19588.23
636.9840, 19601.21
638.1470, 19799.00
639.3100, 19846.00
640.4730, 20004.00
641.6360, 20249.00
642.7990, 20224.00
643.9620, 20409.00
645.1240, 20511.00
646.2870, 20571.00
647.4490, 20559.00
648.6110, 20637.52
649.7730, 20700.00
650.9340, 20737.00
652.0960, 20795.00
653.2570, 20887.00
654.4180, 20786.00
655.5790, 20864.00
656.7400, 20604.00
657.9010, 20821.00
659.0620, 20786.00
660.2220, 20747.00
661.3820, 21007.00
662.5420, 20721.00
663.7020, 21074.00
664.8620, 21041.00
666.0210, 21112.00
667.1810, 21052.00
668.3400, 21285.00
669.4990, 21109.00
670.6580, 21151.00
671.8170, 21259.00
672.9750, 21171.00
674.1340, 21352.00
675.2920, 21567.00
676.4500, 21595.00
677.6080, 21702.00
678.7660, 21695.00
679.9230, 21740.00
681.0810, 21649.00
682.2380, 21804.00
683.3950, 21544.00
684.5520, 21646.00
685.7090, 22162.00
686.8660, 22529.00
688.0220, 21987.00
689.1780, 22916.00
690.3340, 22626.00
691.4900, 22073.00
692.6460, 22290.00
693.8020, 22380.00
694.9570, 22476.00
696.1130, 22595.25
697.2680, 22628.00
698.4230, 22735.00
699.5780, 22862.00
700.7320, 22880.00
701.8870, 22963.00
703.0410, 23389.00
704.1950, 23145.00
705.3490, 23146.00
706.5030, 23561.00
707.6570, 23863.00
708.8110, 23745.00
709.9640, 23804.00
711.1170, 23807.00
712.2700, 24049.00
713.4230, 24173.00
714.5760, 24064.00
715.7280, 24412.00
716.8810, 24179.00
718.0330, 24213.00
719.1850, 24428.00
720.3370, 24135.00
721.4890, 24265.00
722.6400, 25011.00
723.7920, 25666.00
724.9430, 24641.00
726.0940, 24755.00
727.2450, 24559.00
728.3960, 24795.00
729.5460, 24553.00
730.6970, 24906.00
731.8470, 25220.00
732.9970, 25186.00
734.1470, 25063.00
735.2970, 25243.00
736.4460, 25534.00
737.5960, 25209.00
738.7450, 25342.00
739.8940, 25683.00
741.0430, 25759.00
742.1920, 26197.00
743.3410, 26314.00
744.4890, 26528.00
745.6370, 26602.00
746.7850, 26850.25
747.9330, 27024.00
749.0810, 27347.00
750.2290, 27667.00
751.3760, 27988.00
752.5240, 28462.00
753.6710, 28854.00
754.8180, 29220.14
755.9650, 29664.00
757.1110, 30035.00
758.2580, 30643.00
759.4040, 31217.00
760.5510, 31940.60
761.6970, 32851.00
762.8420, 33638.00
763.9880, 34534.00
765.1340, 35579.00
766.2790, 36079.00
767.4240, 36884.00
768.5690, 37529.00
769.7140, 37971.00
770.8590, 38208.00
772.0030, 37788.00
773.1480, 37364.00
774.2920, 36747.00
775.4360, 35668.00
776.5800, 34793.00
777.7240, 33743.00
778.8670, 32578.00
780.0110, 31530.00
781.1540, 30591.00
782.2970, 29979.00
783.4400, 29184.00
784.5830, 28779.00
785.7250, 28261.00
786.8680, 28084.00
788.0100, 27809.00
789.1520, 27654.00
790.2940, 27786.00
791.4360, 27681.00
792.5780, 27547.00
793.7190, 27682.00
794.8600, 27309.00
796.0010, 27673.00
797.1420, 27562.00
798.2830, 28017.00
799.4240, 27795.00
800.5640, 28108.00
801.7050, 28167.00
802.8450, 28516.00
803.9850, 28433.00
805.1250, 28493.00
806.2640, 28619.00
807.4040, 28353.00
808.5430, 28721.00
809.6820, 28274.00
810.8210, 28442.00
811.9600, 28298.00
813.0990, 28242.00
814.2370, 28320.00
815.3760, 28382.00
816.5140, 28214.00
817.6520, 28297.95
818.7900, 28427.00
819.9270, 28280.00
821.0650, 28318.00
822.2020, 28290.00
823.3390, 29186.00
824.4760, 28850.77
825.6130, 28935.00
826.7500, 28753.00
827.8870, 28654.00
829.0230, 28624.00
830.1590, 29000.00
831.2950, 29271.00
832.4310, 29237.33
833.5670, 29302.00
834.7030, 29318.00
835.8380, 29368.95
836.9730, 29301.00
838.1080, 29460.00
839.2430, 29555.00
840.3780, 29524.00
841.5130, 29702.00
842.6470, 29769.00
843.7810, 29703.00
844.9150, 29906.00
846.0490, 29694.00
847.1830, 30054.00
848.3170, 30111.00
849.4500, 30420.00
850.5830, 30320.00
851.7160, 30398.00
852.8490, 30537.00
853.9820, 30381.00
855.1150, 30633.00
856.2470, 30888.00
857.3800, 31037.00
858.5120, 31146.00
859.6440, 31199.00
860.7760, 31194.00
861.9070, 31213.00
863.0390, 31273.18
864.1700, 31532.00
865.3010, 31324.00
866.4320, 31514.00
867.5630, 31411.00
868.6940, 31642.00
869.8240, 31658.00
870.9540, 31453.00
872.0850, 31657.00
873.2150, 31818.00
874.3450, 31884.00
875.4740, 31970.11
876.6040, 31976.00
877.7330, 31980.00
878.8620, 32104.00
879.9910, 32022.00
881.1200, 32279.00
882.2490, 32162.00
883.3770, 32577.00
884.5060, 32472.00
885.6340, 32491.00
886.7620, 32750.00
887.8900, 32600.00
889.0180, 33203.00
890.1450, 33056.54
891.2730, 33125.00
892.4000, 33070.00
893.5270, 33370.00
894.6540, 33447.00
895.7810, 33340.00
896.9070, 33627.00
898.0340, 33435.00
899.1600, 33770.00
900.2860, 34029.00
901.4120, 33783.00
902.5380, 34046.00
903.6630, 34068.00
904.7890, 34194.00
905.9140, 33967.00
907.0390, 34168.00
908.1640, 34374.00
909.2890, 34559.00
910.4130, 34759.00
911.5380, 34793.62
912.6620, 34686.00
913.7860, 34882.00
914.9100, 34875.00
916.0340, 35046.00
917.1580, 35128.00
918.2810, 35146.00
919.4040, 35049.00
920.5280, 35210.25
921.6510, 35316.32
922.7730, 35385.00
923.8960, 35585.00
925.0180, 35559.00
926.1410, 35791.27
927.2630, 35942.00
928.3850, 36187.00
929.5070, 36208.00
930.6280, 36396.86
931.7500, 36339.00
932.8710, 36417.00
933.9920, 36345.00
935.1130, 36333.00
936.2340, 36773.00
937.3550, 36902.00
938.4760, 36636.00
939.5960, 37070.00
940.7160, 37216.00
941.8360, 37398.00
942.9560, 37482.00
944.0760, 37575.00
945.1950, 37636.00
946.3150, 37786.47
947.4340, 37928.48
948.5530, 38108.00
949.6720, 38287.00
950.7900, 38501.00
951.9090, 38703.00
953.0270, 38824.52
954.1460, 38933.00
955.2640, 39062.00
956.3820, 39335.00
957.4990, 39474.14
958.6170, 39555.43
959.7340, 39658.00
960.8520, 39677.00
961.9690, 39669.00
963.0860, 39747.00
964.2020, 39740.00
965.3190, 39863.20
966.4350, 39935.00
967.5520, 40116.00
968.6680, 40142.00
969.7840, 40261.00
970.8990, 40218.00
972.0150, 40342.00
973.1310, 40936.00
974.2460, 40833.00
975.3610, 40886.00
976.4760, 41023.00
977.5910, 40967.00
978.7050, 41308.00
979.8200, 41244.00
980.9340, 41243.00
982.0480, 41795.00
983.1620, 41836.00
984.2760, 41891.00
985.3900, 42049.00
986.5030, 42153.00
987.6160, 42307.00
988.7300, 42374.00
989.8430, 42865.00
990.9550, 42901.00
992.0680, 43011.00
993.1810, 43022.00
994.2930, 43217.00
995.4050, 43392.00
996.5170, 43513.00
997.6290, 43843.00
998.7410, 44125.00
999.8520, 44302.00
1000.964, 44528.00
1002.075, 45004.00
1003.186, 44781.00
1004.297, 44926.89
1005.407, 45243.00
1006.518, 44866.00
1007.628, 44355.00
1008.738, 44462.00
1009.848, 44373.00
1010.958, 44466.00
1012.068, 44240.00
1013.178, 44463.00
1014.287, 44698.00
1015.396, 44616.00
1016.505, 44366.00
1017.614, 45075.00
1018.723, 45234.00
1019.831, 45429.00
1020.940, 45908.00
1022.048, 45694.00
1023.156, 46302.00
1024.264, 46256.00
1025.372, 46652.00
1026.479, 46797.00
1027.587, 47000.00
1028.694, 47408.00
1029.801, 47509.00
1030.908, 48006.00
1032.015, 48198.00
1033.121, 48250.00
1034.228, 48530.00
1035.334, 48753.00
1036.440, 49259.00
1037.546, 49271.00
1038.652, 49469.00
1039.758, 49302.00
1040.863, 49950.00
1041.968, 50344.00
1043.074, 50357.00
1044.178, 50868.00
1045.283, 50973.00
1046.388, 50851.00
1047.492, 51413.00
1048.597, 51321.00
1049.701, 51774.00
1050.805, 51906.00
1051.909, 51803.00
1053.012, 52140.00
1054.116, 52721.00
1055.219, 52643.00
1056.322, 53330.00
1057.425, 53184.00
1058.528, 53471.00
1059.631, 54082.00
1060.733, 54469.00
1061.836, 54281.00
1062.938, 55040.00
1064.040, 55277.00
1065.142, 55755.00
1066.243, 56147.00
1067.345, 56514.51
1068.446, 56896.68
1069.547, 57339.00
1070.648, 57541.00
1071.749, 57980.00
1072.850, 58220.00
1073.951, 58670.00
1075.051, 59164.00
1076.151, 59169.00
1077.251, 59464.00
1078.351, 59967.00
1079.451, 60164.00
1080.550, 60839.00
1081.650, 61439.00
1082.749, 62058.00
1083.848, 62919.00
1084.947, 63321.00
1086.046, 64578.00
1087.144, 65425.00
1088.243, 66585.00
1089.341, 68167.00
1090.439, 68759.00
1091.537, 70101.00
1092.635, 70601.00
1093.732, 71626.00
1094.830, 71867.00
1095.927, 71945.00
1097.024, 72078.00
1098.121, 71551.00
1099.218, 70989.00
1100.314, 70065.00
1101.411, 69516.00
1102.507, 68911.00
1103.603, 68387.00
1104.699, 67860.00
1105.795, 67554.16
1106.890, 67459.00
1107.986, 67006.00
1109.081, 66971.00
1110.176, 66622.00
1111.271, 65155.00
1112.366, 63821.00
1113.461, 62379.00
1114.555, 61090.00
1115.649, 59721.00
1116.744, 59021.00
1117.838, 58746.00
1118.931, 58682.00
1120.025, 58382.00
1121.119, 57918.00
1122.212, 58109.00
1123.305, 58299.00
1124.398, 58836.00
1125.491, 58519.00
1126.584, 58474.00
1127.676, 58613.00
1128.768, 58909.00
1129.861, 58828.00
1130.953, 58918.00
1132.044, 59116.00
1133.136, 58906.00
1134.228, 58934.00
1135.319, 59280.00
1136.410, 59229.00
1137.501, 58882.00
1138.592, 59323.00
1139.683, 59009.00
1140.773, 59212.00
1141.864, 59197.00
1142.954, 59092.00
1144.044, 59253.00
1145.134, 59380.00
1146.224, 59565.00
1147.313, 59372.00
1148.402, 59708.00
1149.492, 59956.00
1150.581, 59452.00
1151.670, 60162.00
1152.758, 60026.00
1153.847, 60220.00
1154.935, 60394.00
1156.024, 60501.00
1157.112, 60691.26
1158.200, 60906.60
1159.287, 61007.00
1160.375, 61382.00
1161.462, 61545.00
1162.550, 61777.00
1163.637, 61745.00
1164.724, 62323.00
1165.810, 61856.00
1166.897, 61984.00
1167.983, 62497.00
1169.070, 62592.00
1170.156, 62729.00
1171.242, 63015.00
1172.327, 62955.00
1173.413, 63170.00
1174.499, 63363.00
1175.584, 63348.00
1176.669, 63518.00
1177.754, 64009.00
1178.839, 63769.00
1179.923, 63952.00
1181.008, 64547.00
1182.092, 64470.00
1183.176, 64590.00
1184.260, 64753.00
1185.344, 65061.00
1186.428, 64889.00
1187.511, 65325.00
1188.595, 65847.00
1189.678, 65512.00
1190.761, 65900.00
1191.843, 65949.00
1192.926, 65777.00
1194.009, 66771.00
1195.091, 66505.00
1196.173, 66923.00
1197.255, 66988.00
1198.337, 66980.00
1199.419, 67474.00
1200.500, 67641.00
1201.582, 67763.00
1202.663, 67690.00
1203.744, 68028.00
1204.825, 68197.00
1205.905, 67880.00
1206.986, 68096.00
1208.066, 67939.00
1209.146, 67827.00
1210.226, 68273.00
1211.306, 68416.00
1212.386, 68897.00
1213.466, 68656.00
1214.545, 69080.00
1215.624, 68761.00
1216.703, 69191.00
1217.782, 69316.00
1218.861, 69291.00
1219.939, 69604.00
1221.018, 69580.00
1222.096, 69492.00
1223.174, 69999.00
1224.252, 69764.00
1225.330, 70311.00
1226.407, 70319.00
1227.485, 70489.00
1228.562, 70264.00
1229.639, 70578.00
1230.716, 70685.00
1231.793, 71040.00
1232.869, 71451.00
1233.946, 71355.00
1235.022, 71596.00
1236.098, 71838.00
1237.174, 71949.00
1238.250, 72288.00
1239.325, 72133.00
1240.401, 72274.00
1241.476, 72319.00
1242.551, 72919.00
1243.626, 73053.00
1244.701, 72967.00
1245.776, 73629.00
1246.850, 73432.00
1247.924, 73411.00
1248.999, 73981.00
1250.073, 74294.00
1251.146, 74323.00
1252.220, 74354.00
1253.293, 74643.00
1254.367, 74595.00
1255.440, 74931.00
1256.513, 75110.00
1257.586, 75178.00
1258.658, 75877.00
1259.731, 75555.00
1260.803, 75747.00
1261.875, 75847.00
1262.947, 76564.00
1264.019, 76602.00
1265.091, 76863.00
1266.162, 77281.00
1267.234, 77367.00
1268.305, 77481.00
1269.376, 77641.00
1270.447, 77361.00
1271.517, 77999.00
1272.588, 78125.00
1273.658, 77735.00
1274.729, 78154.00
1275.799, 78600.00
1276.868, 78195.00
1277.938, 78671.00
1279.008, 78961.00
1280.077, 79090.00
1281.146, 79170.00
1282.215, 79270.00
1283.284, 80217.00
1284.353, 79767.00
1285.421, 80128.00
1286.490, 80724.00
1287.558, 80584.00
1288.626, 80494.00
1289.694, 80743.00
1290.762, 81221.00
1291.829, 81298.00
1292.897, 81424.00
