##NAMES=Marialite
##RRUFFID=R060458
##IDEAL CHEMISTRY=Na_4_Al_3_Si_9_O_24_Cl
##LOCALITY=Dading, Nepal
##OWNER=RRUFF
##SOURCE=Michael Scott
##DESCRIPTION=Colorless elongated prism
##STATUS=The identification of this mineral has been confirmed by X-ray diffraction and chemical analysis
##URL=rruff.info/R060458
##MEASURED CHEMISTRY=(Na_0.52_Ca_0.47_K_0.01_)_4_(Al_0.36_Si_0.64_)_12_O_24_(Cl_0.44_(CO_3_)_0.56_)
##PIN_ID=L00702
##ORIENTATION=Laser parallel to c* (0 0 1). Fiducial mark perpendicular to laser is parallel to a [1 0 0]
89.57500, 37539.00
90.81200, 37456.00
92.04900, 37014.00
93.28600, 37371.00
94.52300, 37267.00
95.75900, 37535.00
96.99500, 38132.00
98.23100, 38766.00
99.46700, 39598.52
100.7030, 39834.00
101.9390, 41725.00
103.1740, 42956.00
104.4090, 44372.00
105.6440, 46641.00
106.8790, 47152.00
108.1140, 48316.00
109.3490, 49487.00
110.5830, 49782.00
111.8180, 49277.00
113.0520, 49071.00
114.2860, 47824.00
115.5200, 47292.00
116.7530, 45800.00
117.9870, 44350.00
119.2200, 43538.00
120.4530, 43236.00
121.6860, 42643.00
122.9190, 41885.00
124.1520, 40574.00
125.3850, 39814.00
126.6170, 38708.00
127.8490, 38890.00
129.0810, 39001.00
130.3130, 39155.00
131.5450, 38768.00
132.7770, 38396.00
134.0080, 38425.00
135.2390, 39061.00
136.4710, 38948.00
137.7020, 39792.00
138.9320, 39767.00
140.1630, 39764.00
141.3930, 40667.00
142.6240, 41687.00
143.8540, 42629.00
145.0840, 43875.00
146.3140, 45146.00
147.5440, 46854.00
148.7730, 48078.00
150.0020, 49772.00
151.2320, 51531.00
152.4610, 54424.00
153.6900, 56112.00
154.9180, 58613.00
156.1470, 60185.00
157.3750, 61964.00
158.6040, 63214.00
159.8320, 63655.00
161.0600, 64169.00
162.2870, 63987.00
163.5150, 62631.00
164.7420, 61862.00
165.9700, 60327.00
167.1970, 58001.00
168.4240, 56060.00
169.6510, 53755.00
170.8770, 51505.00
172.1040, 49367.00
173.3300, 47774.00
174.5560, 46371.00
175.7820, 44863.00
177.0080, 43676.00
178.2340, 42780.00
179.4590, 42304.00
180.6850, 41983.00
181.9100, 41614.00
183.1350, 41359.00
184.3600, 41366.00
185.5850, 41350.00
186.8090, 41953.00
188.0340, 41828.00
189.2580, 41973.00
190.4820, 41951.42
191.7060, 41491.00
192.9300, 41582.00
194.1530, 41065.00
195.3770, 40706.00
196.6000, 40489.00
197.8230, 40076.00
199.0460, 39585.00
200.2690, 39201.00
201.4910, 38657.00
202.7140, 38803.00
203.9360, 38323.00
205.1580, 37802.00
206.3800, 37931.00
207.6020, 37224.00
208.8240, 37331.00
210.0450, 36920.00
211.2670, 37005.00
212.4880, 36897.00
213.7090, 36359.00
214.9300, 35817.00
216.1510, 35125.00
217.3710, 35116.00
218.5920, 34689.00
219.8120, 35038.00
221.0320, 34879.00
222.2520, 34825.00
223.4720, 34703.00
224.6910, 34519.00
225.9110, 34488.00
227.1300, 34040.00
228.3490, 33772.00
229.5680, 33306.00
230.7870, 33038.00
232.0050, 32532.00
233.2240, 31986.00
234.4420, 31466.00
235.6600, 30908.00
236.8780, 31088.00
238.0960, 30291.00
239.3140, 30289.00
240.5310, 30164.00
241.7490, 29640.00
242.9660, 29162.00
244.1830, 29469.00
245.4000, 29424.00
246.6160, 29308.00
247.8330, 29734.00
249.0490, 30265.00
250.2660, 30589.00
251.4820, 31184.31
252.6980, 31544.00
253.9130, 32406.00
255.1290, 33032.00
256.3440, 33858.00
257.5600, 34666.00
258.7750, 35127.00
259.9900, 35367.00
261.2040, 35744.00
262.4190, 35493.00
263.6330, 35154.00
264.8480, 34179.00
266.0620, 33002.00
267.2760, 31914.00
268.4900, 30675.00
269.7030, 29838.00
270.9170, 28786.00
272.1300, 27952.00
273.3430, 27702.00
274.5560, 27597.00
275.7690, 26926.00
276.9820, 26624.00
278.1940, 26853.00
279.4070, 26677.00
280.6190, 27109.00
281.8310, 27283.00
283.0430, 27932.00
284.2550, 28357.00
285.4660, 28898.00
286.6770, 29514.00
287.8890, 29991.00
289.1000, 30267.00
290.3110, 30556.00
291.5210, 30954.00
292.7320, 31053.00
293.9420, 30785.00
295.1530, 30511.00
296.3630, 29905.00
297.5730, 29242.00
298.7830, 28345.00
299.9920, 27069.00
301.2020, 26173.00
302.4110, 25263.00
303.6200, 24797.00
304.8290, 24052.00
306.0380, 23899.00
307.2470, 23509.00
308.4550, 23163.00
309.6630, 22718.00
310.8720, 22721.00
312.0800, 22783.00
313.2880, 22601.00
314.4950, 22751.77
315.7030, 22749.00
316.9100, 22898.00
318.1170, 22944.00
319.3240, 22935.00
320.5310, 23007.00
321.7380, 23077.02
322.9450, 23241.83
324.1510, 23330.00
325.3570, 23628.00
326.5630, 23921.00
327.7690, 24080.00
328.9750, 24276.00
330.1810, 24660.30
331.3860, 25235.00
332.5910, 25376.00
333.7960, 25840.00
335.0010, 26102.00
336.2060, 26170.00
337.4110, 26331.00
338.6150, 26371.00
339.8200, 26184.00
341.0240, 26027.00
342.2280, 25530.00
343.4320, 25122.00
344.6350, 25046.00
345.8390, 24761.00
347.0420, 24650.00
348.2450, 24853.00
349.4480, 24895.00
350.6510, 25050.00
351.8540, 25340.00
353.0560, 25919.00
354.2590, 26160.00
355.4610, 26765.00
356.6630, 27259.00
357.8650, 27812.00
359.0670, 28258.00
360.2680, 28326.00
361.4700, 28095.00
362.6710, 28005.00
363.8720, 27443.00
365.0730, 26845.00
366.2740, 26168.00
367.4740, 25475.00
368.6750, 25352.00
369.8750, 24793.00
371.0750, 24350.00
372.2750, 24533.00
373.4750, 24165.00
374.6740, 24306.00
375.8740, 24164.00
377.0730, 24121.00
378.2720, 24384.00
379.4710, 24138.00
380.6700, 24153.00
381.8690, 24243.00
383.0670, 24190.00
384.2660, 24012.00
385.4640, 23898.00
386.6620, 23817.00
387.8600, 23719.00
389.0570, 23664.00
390.2550, 23576.00
391.4520, 23687.00
392.6490, 23521.00
393.8460, 23583.00
395.0430, 23320.00
396.2400, 23166.00
397.4370, 23570.00
398.6330, 23278.00
399.8290, 23188.00
401.0250, 23223.00
402.2210, 23562.00
403.4170, 23432.00
404.6130, 23531.00
405.8080, 23546.00
407.0030, 23595.00
408.1980, 23917.20
409.3930, 24159.39
410.5880, 24572.00
411.7830, 24916.00
412.9770, 25165.00
414.1720, 25529.00
415.3660, 25920.97
416.5600, 26504.00
417.7530, 26753.00
418.9470, 27259.00
420.1410, 27661.00
421.3340, 27821.00
422.5270, 27904.00
423.7200, 27911.00
424.9130, 28140.00
426.1060, 28101.00
427.2980, 28218.00
428.4900, 28079.00
429.6830, 28484.00
430.8750, 28805.00
432.0670, 29447.00
433.2580, 29758.00
434.4500, 30428.00
435.6410, 31314.00
436.8320, 32503.00
438.0240, 33523.00
439.2140, 35417.00
440.4050, 36969.00
441.5960, 39632.00
442.7860, 42083.00
443.9760, 45699.00
445.1670, 49260.00
446.3560, 53676.00
447.5460, 58801.00
448.7360, 64247.00
449.9250, 69869.00
451.1150, 76340.00
452.3040, 81625.00
453.4930, 86431.00
454.6810, 88397.00
455.8700, 89968.00
457.0590, 90029.00
458.2470, 90278.00
459.4350, 89389.00
460.6230, 87464.00
461.8110, 85098.00
462.9980, 81665.00
464.1860, 76964.00
465.3730, 71574.00
466.5600, 66166.00
467.7470, 60552.00
468.9340, 55251.00
470.1210, 50862.00
471.3080, 46963.00
472.4940, 43698.00
473.6800, 41063.00
474.8660, 38558.00
476.0520, 36520.00
477.2380, 34979.00
478.4230, 33603.00
479.6090, 32476.00
480.7940, 31749.00
481.9790, 30738.00
483.1640, 30269.00
484.3490, 29663.00
485.5330, 29347.00
486.7180, 28649.00
487.9020, 28299.00
489.0860, 27872.00
490.2700, 27532.00
491.4540, 27427.00
492.6370, 27323.00
493.8210, 26918.00
495.0040, 26857.00
496.1870, 26698.00
497.3700, 26891.00
498.5530, 26256.00
499.7360, 26470.00
500.9180, 26365.00
502.1000, 26112.00
503.2830, 26241.00
504.4650, 26037.00
505.6460, 26109.00
506.8280, 25911.00
508.0100, 25916.00
509.1910, 25898.00
510.3720, 25980.00
511.5530, 25976.00
512.7340, 26462.00
513.9150, 26471.00
515.0950, 27226.00
516.2760, 27288.00
517.4560, 27434.00
518.6360, 27985.00
519.8160, 28411.00
520.9950, 29041.00
522.1750, 29565.00
523.3540, 30684.00
524.5340, 32138.00
525.7130, 33247.00
526.8920, 35067.00
528.0700, 36744.00
529.2490, 38927.00
530.4270, 41600.00
531.6060, 44118.00
532.7840, 46175.00
533.9620, 47763.00
535.1390, 48115.00
536.3170, 47814.00
537.4940, 46017.00
538.6720, 44025.00
539.8490, 42245.00
541.0260, 39354.00
542.2030, 37535.00
543.3790, 35610.00
544.5560, 34134.00
545.7320, 32872.00
546.9080, 31857.90
548.0840, 31011.79
549.2600, 30489.00
550.4360, 29931.00
551.6110, 29442.00
552.7860, 29299.00
553.9620, 29003.00
555.1370, 28531.00
556.3110, 28825.00
557.4860, 28896.00
558.6610, 28670.00
559.8350, 28516.00
561.0090, 28266.00
562.1830, 28240.00
563.3570, 28427.00
564.5310, 28266.00
565.7040, 28440.00
566.8780, 28506.00
568.0510, 28312.00
569.2240, 28526.00
570.3970, 28471.00
571.5700, 28557.00
572.7420, 28609.00
573.9150, 28398.00
575.0870, 28473.00
576.2590, 28373.00
577.4310, 28373.00
578.6030, 28288.00
579.7740, 28304.00
580.9460, 28435.00
582.1170, 28524.00
583.2880, 28502.00
584.4590, 28360.00
585.6300, 28579.00
586.8010, 28554.00
587.9710, 28894.00
589.1410, 28590.00
590.3110, 28676.00
591.4810, 28596.00
592.6510, 28721.00
593.8210, 29090.00
594.9900, 28675.00
596.1600, 29262.00
597.3290, 28968.00
598.4980, 29317.00
599.6670, 29638.00
600.8350, 29903.00
602.0040, 30176.82
603.1720, 30397.58
604.3400, 30689.00
605.5080, 30737.45
606.6760, 31055.88
607.8440, 31108.00
609.0120, 31436.00
610.1790, 31507.00
611.3460, 31705.00
612.5130, 31333.00
613.6800, 31178.00
614.8470, 30835.00
616.0130, 30643.00
617.1800, 30881.00
618.3460, 30499.00
619.5120, 30246.00
620.6780, 30373.00
621.8440, 30125.00
623.0090, 30176.00
624.1750, 30235.00
625.3400, 30185.40
626.5050, 30269.00
627.6700, 30284.00
628.8350, 30374.00
629.9990, 30466.00
631.1640, 30451.00
632.3280, 30436.00
633.4920, 30344.00
634.6560, 30559.00
635.8200, 30462.00
636.9840, 30797.00
638.1470, 30806.00
639.3100, 30773.00
640.4730, 30966.00
641.6360, 30990.00
642.7990, 31047.00
643.9620, 31286.00
645.1240, 31560.00
646.2870, 31590.00
647.4490, 31451.00
648.6110, 31414.00
649.7730, 31502.00
650.9340, 31735.00
652.0960, 31892.00
653.2570, 31806.00
654.4180, 31848.00
655.5790, 31926.00
656.7400, 31998.00
657.9010, 32178.00
659.0620, 32118.00
660.2220, 32226.00
661.3820, 32317.00
662.5420, 32535.00
663.7020, 32466.00
664.8620, 32521.00
666.0210, 32617.00
667.1810, 32600.00
668.3400, 32582.00
669.4990, 32756.00
670.6580, 32929.00
671.8170, 33321.00
672.9750, 33609.00
674.1340, 33731.00
675.2920, 33918.00
676.4500, 34462.00
677.6080, 34849.00
678.7660, 34722.00
679.9230, 34770.00
681.0810, 34191.00
682.2380, 34052.00
683.3950, 33651.00
684.5520, 33794.00
685.7090, 33779.00
686.8660, 33737.00
688.0220, 33766.00
689.1780, 33685.00
690.3340, 33608.00
691.4900, 33720.00
692.6460, 33698.38
693.8020, 33909.00
694.9570, 33925.00
696.1130, 34149.00
697.2680, 34260.24
698.4230, 34162.00
699.5780, 34505.00
700.7320, 34574.00
701.8870, 34635.00
703.0410, 34877.00
704.1950, 34860.00
705.3490, 34990.00
706.5030, 35037.00
707.6570, 35220.00
708.8110, 35393.00
709.9640, 35380.00
711.1170, 35744.00
712.2700, 35615.00
713.4230, 35839.00
714.5760, 35656.00
715.7280, 35961.00
716.8810, 35860.00
718.0330, 36035.00
719.1850, 36565.00
720.3370, 36171.00
721.4890, 36607.00
722.6400, 36538.00
723.7920, 36862.00
724.9430, 37013.00
726.0940, 36724.00
727.2450, 37123.00
728.3960, 37137.00
729.5460, 37428.00
730.6970, 37350.00
731.8470, 37336.00
732.9970, 37778.00
734.1470, 37783.00
735.2970, 37682.00
736.4460, 37988.00
737.5960, 37909.00
738.7450, 38021.00
739.8940, 38385.00
741.0430, 38448.00
742.1920, 38661.00
743.3410, 38618.00
744.4890, 38691.00
745.6370, 39024.00
746.7850, 39070.00
747.9330, 39686.00
749.0810, 39681.00
750.2290, 39774.00
751.3760, 40237.00
752.5240, 40339.00
753.6710, 40529.00
754.8180, 40910.00
755.9650, 41263.00
757.1110, 41782.00
758.2580, 42042.00
759.4040, 42685.00
760.5510, 43160.00
761.6970, 43715.00
762.8420, 44633.00
763.9880, 45359.00
765.1340, 46123.00
766.2790, 46827.00
767.4240, 47499.00
768.5690, 48444.00
769.7140, 48802.00
770.8590, 48931.00
772.0030, 49062.00
773.1480, 48565.00
774.2920, 48532.00
775.4360, 47610.00
776.5800, 46820.00
777.7240, 46067.00
778.8670, 45023.00
780.0110, 44137.00
781.1540, 43197.00
782.2970, 42706.00
783.4400, 41965.00
784.5830, 41914.00
785.7250, 41442.00
786.8680, 41337.00
788.0100, 41336.00
789.1520, 41133.00
790.2940, 41058.00
791.4360, 41045.00
792.5780, 41447.00
793.7190, 41493.00
794.8600, 41709.00
796.0010, 42037.00
797.1420, 42089.00
798.2830, 42197.00
799.4240, 42876.00
800.5640, 42966.82
801.7050, 43122.00
802.8450, 43682.00
803.9850, 43391.00
805.1250, 43864.00
806.2640, 43676.00
807.4040, 43613.00
808.5430, 43476.00
809.6820, 43323.52
810.8210, 42876.00
811.9600, 42989.00
813.0990, 42677.00
814.2370, 42420.00
815.3760, 42573.00
816.5140, 42756.00
817.6520, 42352.00
818.7900, 42336.00
819.9270, 42730.00
821.0650, 42701.00
822.2020, 42718.00
823.3390, 42858.00
824.4760, 42937.00
825.6130, 42777.00
826.7500, 43120.00
827.8870, 43264.00
829.0230, 43161.00
830.1590, 43304.00
831.2950, 43511.00
832.4310, 43487.00
833.5670, 43879.00
834.7030, 43665.00
835.8380, 43946.00
836.9730, 43762.00
838.1080, 43977.00
839.2430, 44098.00
840.3780, 44414.00
841.5130, 44228.00
842.6470, 44327.00
843.7810, 44357.00
844.9150, 44502.00
846.0490, 44355.00
847.1830, 44470.00
848.3170, 44804.00
849.4500, 44735.00
850.5830, 44939.00
851.7160, 45138.00
852.8490, 45068.00
853.9820, 45379.25
855.1150, 45513.29
856.2470, 45813.00
857.3800, 45881.00
858.5120, 46053.00
859.6440, 46116.00
860.7760, 46236.00
861.9070, 46317.02
863.0390, 46461.00
864.1700, 46483.00
865.3010, 46517.00
866.4320, 46661.00
867.5630, 46907.00
868.6940, 47412.00
869.8240, 47352.04
870.9540, 47445.00
872.0850, 47391.00
873.2150, 47382.00
874.3450, 47348.00
875.4740, 47414.00
876.6040, 47602.00
877.7330, 47900.00
878.8620, 47818.00
879.9910, 48159.00
881.1200, 48033.00
882.2490, 48474.00
883.3770, 48067.00
884.5060, 48151.00
885.6340, 48400.00
886.7620, 48507.00
887.8900, 48854.00
889.0180, 48774.00
890.1450, 48944.00
891.2730, 48860.00
892.4000, 49033.38
893.5270, 49476.00
894.6540, 49386.00
895.7810, 49708.00
896.9070, 49954.00
898.0340, 49833.00
899.1600, 50045.00
900.2860, 50256.00
901.4120, 50535.00
902.5380, 50657.00
903.6630, 50769.78
904.7890, 50894.00
905.9140, 50947.00
907.0390, 50863.00
908.1640, 51078.00
909.2890, 51449.00
910.4130, 51326.00
911.5380, 51079.00
912.6620, 51495.00
913.7860, 51352.00
914.9100, 52003.00
916.0340, 51540.00
917.1580, 51564.00
918.2810, 51728.00
919.4040, 52108.00
920.5280, 52327.00
921.6510, 52095.00
922.7730, 52459.00
923.8960, 52268.00
925.0180, 52326.00
926.1410, 52578.00
927.2630, 52784.00
928.3850, 53248.00
929.5070, 53451.00
930.6280, 53275.00
931.7500, 53555.00
932.8710, 53492.00
933.9920, 53328.00
935.1130, 53439.00
936.2340, 54021.00
937.3550, 54196.00
938.4760, 54140.00
939.5960, 54421.00
940.7160, 54543.00
941.8360, 54465.00
942.9560, 54837.00
944.0760, 54776.00
945.1950, 55349.00
946.3150, 55336.00
947.4340, 55517.00
948.5530, 55600.00
949.6720, 55977.00
950.7900, 56010.00
951.9090, 56351.00
953.0270, 56695.00
954.1460, 56695.00
955.2640, 56950.00
956.3820, 56711.00
957.4990, 57413.00
958.6170, 57284.00
959.7340, 57697.00
960.8520, 57792.00
961.9690, 57623.00
963.0860, 57985.00
964.2020, 57733.00
965.3190, 58442.00
966.4350, 58485.00
967.5520, 58394.00
968.6680, 58688.00
969.7840, 58797.00
970.8990, 59223.00
972.0150, 59107.00
973.1310, 59547.00
974.2460, 59752.00
975.3610, 59730.00
976.4760, 60111.00
977.5910, 60003.00
978.7050, 60491.00
979.8200, 60346.00
980.9340, 60730.00
982.0480, 60721.00
983.1620, 61034.00
984.2760, 61068.00
985.3900, 61250.00
986.5030, 61337.00
987.6160, 61174.00
988.7300, 61202.00
989.8430, 61690.00
990.9550, 61428.00
992.0680, 61610.00
993.1810, 61488.00
994.2930, 62042.00
995.4050, 62206.00
996.5170, 62258.00
997.6290, 62283.00
998.7410, 62344.00
999.8520, 62407.00
1000.964, 62545.00
1002.075, 63060.00
1003.186, 62477.00
1004.297, 62953.00
1005.407, 62631.00
1006.518, 62693.00
1007.628, 62715.00
1008.738, 62711.00
1009.848, 62691.00
1010.958, 62798.00
1012.068, 62919.00
1013.178, 62838.00
1014.287, 62748.00
1015.396, 63170.00
1016.505, 62839.00
1017.614, 63054.00
1018.723, 63623.00
1019.831, 63884.00
1020.940, 63912.00
1022.048, 64098.00
1023.156, 64604.00
1024.264, 65030.00
1025.372, 65723.00
1026.479, 65867.00
1027.587, 66532.00
1028.694, 66576.00
1029.801, 67216.00
1030.908, 67386.00
1032.015, 67997.00
1033.121, 68261.00
1034.228, 68896.00
1035.334, 69039.00
1036.440, 69508.00
1037.546, 70035.00
1038.652, 70261.00
1039.758, 70315.00
1040.863, 70658.00
1041.968, 71098.00
1043.074, 70994.00
1044.178, 71607.00
1045.283, 71601.00
1046.388, 72400.00
1047.492, 72161.00
1048.597, 72412.00
1049.701, 73014.00
1050.805, 73136.00
1051.909, 73693.00
1053.012, 73601.00
1054.116, 74101.00
1055.219, 74251.00
1056.322, 74923.00
1057.425, 75299.00
1058.528, 75409.00
1059.631, 76033.00
1060.733, 76244.00
1061.836, 76994.00
1062.938, 77265.00
1064.040, 78194.00
1065.142, 78569.43
1066.243, 78945.00
1067.345, 79540.00
1068.446, 79906.00
1069.547, 80437.00
1070.648, 80737.94
1071.749, 81241.00
1072.850, 81383.00
1073.951, 81441.00
1075.051, 81938.00
1076.151, 81961.00
1077.251, 81933.00
1078.351, 82986.00
1079.451, 83413.06
1080.550, 84350.00
1081.650, 85478.00
1082.749, 86784.00
1083.848, 88559.00
1084.947, 90338.00
1086.046, 92181.00
1087.144, 94107.00
1088.243, 96739.00
1089.341, 99067.00
1090.439, 101503.0
1091.537, 103232.0
1092.635, 104549.0
1093.732, 106409.0
1094.830, 106883.0
1095.927, 106822.0
1097.024, 106698.0
1098.121, 105842.0
1099.218, 104557.0
1100.314, 103462.0
1101.411, 102404.0
1102.507, 101393.0
1103.603, 100893.0
1104.699, 101426.0
1105.795, 100981.0
1106.890, 100090.0
1107.986, 100094.0
1109.081, 98216.00
1110.176, 96777.00
1111.271, 93621.00
1112.366, 90963.00
1113.461, 88354.00
1114.555, 86127.25
1115.649, 84009.00
1116.744, 82690.00
1117.838, 81638.00
1118.931, 81152.00
1120.025, 81234.00
1121.119, 81145.00
1122.212, 81091.00
1123.305, 80966.00
1124.398, 81138.00
1125.491, 81326.00
1126.584, 81459.00
1127.676, 81418.00
1128.768, 81592.00
1129.861, 81519.00
1130.953, 81968.00
1132.044, 82056.00
1133.136, 82160.00
1134.228, 82266.00
1135.319, 82279.00
1136.410, 82575.00
1137.501, 82619.29
1138.592, 82891.00
1139.683, 82929.00
1140.773, 82879.00
1141.864, 83160.00
1142.954, 82968.00
1144.044, 83379.00
1145.134, 83483.00
1146.224, 83682.00
1147.313, 83742.00
1148.402, 84137.00
1149.492, 84538.00
1150.581, 84214.00
1151.670, 85032.00
1152.758, 84839.00
1153.847, 85302.00
1154.935, 85790.00
1156.024, 85551.00
1157.112, 86069.00
1158.200, 85778.00
1159.287, 86202.00
1160.375, 86341.00
1161.462, 86805.00
1162.550, 87099.00
1163.637, 87289.00
1164.724, 87506.00
1165.810, 87853.00
1166.897, 88219.00
1167.983, 87879.00
1169.070, 88181.00
1170.156, 88425.00
1171.242, 88787.00
1172.327, 89308.00
1173.413, 89725.00
1174.499, 89015.00
1175.584, 90120.00
1176.669, 90007.00
1177.754, 89883.00
1178.839, 90549.00
1179.923, 90281.00
1181.008, 90575.00
1182.092, 90795.00
1183.176, 91588.00
1184.260, 91619.00
1185.344, 92131.00
1186.428, 92330.00
1187.511, 92624.00
1188.595, 92938.00
1189.678, 93356.00
1190.761, 93556.43
1191.843, 93367.00
1192.926, 94004.00
1194.009, 94178.00
1195.091, 94365.00
1196.173, 95155.00
1197.255, 95302.00
1198.337, 94953.00
1199.419, 95908.00
1200.500, 94889.00
1201.582, 95526.00
1202.663, 95958.00
1203.744, 95832.00
1204.825, 95944.00
1205.905, 96027.00
1206.986, 96051.00
1208.066, 96251.00
1209.146, 96109.00
1210.226, 96291.00
1211.306, 95974.00
1212.386, 96511.00
1213.466, 96610.00
1214.545, 97155.00
1215.624, 96480.00
1216.703, 97223.00
1217.782, 97387.00
1218.861, 96669.00
1219.939, 97593.00
1221.018, 97529.00
1222.096, 98046.00
1223.174, 97748.00
1224.252, 97846.00
1225.330, 98086.00
1226.407, 98303.00
1227.485, 98306.00
1228.562, 98754.00
1229.639, 98629.00
1230.716, 99195.00
1231.793, 99069.00
1232.869, 99430.00
1233.946, 100047.0
1235.022, 99996.00
1236.098, 100397.0
1237.174, 100682.0
1238.250, 101317.0
1239.325, 100676.0
1240.401, 101286.0
1241.476, 101028.0
1242.551, 101455.0
1243.626, 101527.0
1244.701, 101917.0
1245.776, 102350.0
1246.850, 102164.0
1247.924, 103469.0
1248.999, 103074.0
1250.073, 102940.0
1251.146, 103773.0
1252.220, 103936.0
1253.293, 104212.3
1254.367, 104359.0
1255.440, 104736.0
1256.513, 104924.4
1257.586, 104837.0
1258.658, 105356.0
1259.731, 105494.0
1260.803, 105616.0
1261.875, 106095.0
1262.947, 106143.0
1264.019, 106467.0
1265.091, 106800.0
1266.162, 107097.0
1267.234, 107334.1
1268.305, 107658.0
1269.376, 107682.0
1270.447, 108101.0
