##NAMES=Marialite
##RRUFFID=R040113
##IDEAL CHEMISTRY=Na_4_Al_3_Si_9_O_24_Cl
##LOCALITY=Gouverneur, New York, USA
##OWNER=RRUFF
##SOURCE=University of Arizona Mineral Museum
##DESCRIPTION=Green prismatic crystal
##STATUS=The identification of this mineral has been confirmed by X-ray diffraction and chemical analysis
##URL=rruff.info/R040113
##MEASURED CHEMISTRY=(Na_0.50_Ca_0.43_K_0.07_)_4_(Si_0.64_Al_0.36_)_12_O_24_(Cl_0.60_(CO_3_)_0.40_)
##PIN_ID=L01738
##ORIENTATION=Laser parallel to -a* (-1 0 0). Fiducial mark perpendicular to laser is parallel to c [0 0 1]
88.42900, 70942.00
89.67000, 70959.00
90.91000, 71463.00
92.14900, 71003.00
93.38900, 70915.00
94.62900, 71237.00
95.86800, 71671.00
97.10700, 71147.00
98.34600, 70785.00
99.58500, 71616.00
100.8230, 71505.00
102.0620, 71146.00
103.3000, 71010.00
104.5380, 71209.00
105.7760, 71436.00
107.0140, 72303.00
108.2510, 71596.00
109.4890, 72116.00
110.7260, 72898.00
111.9630, 72861.00
113.2000, 73723.00
114.4360, 73757.00
115.6730, 74482.00
116.9090, 75046.00
118.1450, 75524.00
119.3810, 76064.00
120.6170, 76051.00
121.8530, 76465.09
123.0880, 76392.00
124.3230, 76874.00
125.5590, 77175.00
126.7930, 77345.00
128.0280, 77819.00
129.2630, 78173.00
130.4970, 77868.00
131.7310, 78425.00
132.9650, 78875.00
134.1990, 78779.00
135.4330, 79436.00
136.6670, 79139.00
137.9000, 78860.00
139.1330, 78612.00
140.3660, 78366.00
141.5990, 78387.00
142.8320, 78355.00
144.0640, 77974.00
145.2960, 77659.00
146.5290, 77640.00
147.7610, 77813.00
148.9920, 76924.00
150.2240, 76631.00
151.4550, 77201.00
152.6870, 76230.00
153.9180, 76238.00
155.1490, 76543.00
156.3800, 76384.00
157.6100, 76416.00
158.8400, 76369.00
160.0710, 76748.00
161.3010, 76706.00
162.5310, 76816.00
163.7600, 76398.00
164.9900, 76714.00
166.2190, 76293.00
167.4480, 76084.00
168.6770, 76459.00
169.9060, 76636.00
171.1350, 76445.00
172.3630, 76330.00
173.5920, 76293.00
174.8200, 76170.00
176.0480, 76171.00
177.2760, 75913.00
178.5030, 75824.00
179.7310, 76030.00
180.9580, 75975.00
182.1850, 76376.00
183.4120, 76521.00
184.6390, 76557.00
185.8650, 76984.00
187.0920, 76952.00
188.3180, 77666.00
189.5440, 77477.00
190.7700, 78308.00
191.9960, 78677.00
193.2210, 78571.00
194.4470, 79037.00
195.6720, 78563.00
196.8970, 78872.00
198.1220, 78849.00
199.3460, 78970.00
200.5710, 79378.00
201.7950, 79237.00
203.0190, 79544.00
204.2430, 79103.00
205.4670, 78990.00
206.6910, 78790.00
207.9140, 78701.00
209.1370, 78801.73
210.3610, 79024.00
211.5840, 79283.00
212.8060, 79257.00
214.0290, 79867.00
215.2510, 79776.00
216.4740, 80086.00
217.6960, 80192.00
218.9180, 80171.00
220.1390, 80854.00
221.3610, 80730.00
222.5820, 80372.00
223.8030, 81345.00
225.0240, 81204.00
226.2450, 81129.00
227.4660, 81623.00
228.6870, 81838.00
229.9070, 81780.00
231.1270, 81987.17
232.3470, 81631.00
233.5670, 81997.00
234.7870, 81657.00
236.0060, 81601.00
237.2250, 81540.00
238.4440, 81447.73
239.6630, 81538.00
240.8820, 81475.00
242.1010, 81717.00
243.3190, 81827.00
244.5380, 82363.00
245.7560, 82277.00
246.9740, 82563.00
248.1910, 82913.00
249.4090, 83630.00
250.6260, 84074.00
251.8440, 84751.00
253.0610, 85665.00
254.2780, 86925.00
255.4940, 87523.00
256.7110, 88379.00
257.9270, 89586.00
259.1430, 91438.00
260.3600, 92663.00
261.5750, 93414.00
262.7910, 93797.00
264.0070, 94162.51
265.2220, 94035.17
266.4370, 93748.00
267.6520, 93090.00
268.8670, 91841.00
270.0820, 90641.00
271.2960, 89445.00
272.5100, 88699.00
273.7250, 86833.00
274.9390, 85546.00
276.1520, 85140.00
277.3660, 84847.00
278.5790, 84572.00
279.7930, 84170.00
281.0060, 83887.00
282.2190, 83308.00
283.4320, 83745.00
284.6440, 83538.00
285.8570, 84132.00
287.0690, 84484.00
288.2810, 84648.00
289.4930, 84891.00
290.7050, 85471.00
291.9160, 86827.00
293.1270, 86909.00
294.3390, 87798.00
295.5500, 89035.00
296.7610, 88742.00
297.9710, 89754.00
299.1820, 89550.00
300.3920, 88980.00
301.6020, 87986.00
302.8120, 87033.00
304.0220, 86289.00
305.2320, 85384.00
306.4410, 84779.00
307.6510, 84227.00
308.8600, 83866.00
310.0690, 84356.00
311.2780, 84215.00
312.4860, 83941.00
313.6950, 83903.00
314.9030, 83964.00
316.1110, 84295.00
317.3190, 84104.00
318.5270, 84567.00
319.7350, 84471.00
320.9420, 84536.59
322.1490, 84432.00
323.3570, 84572.00
324.5630, 84762.00
325.7700, 84756.00
326.9770, 84854.23
328.1830, 84970.50
329.3900, 84972.00
330.5960, 85181.00
331.8020, 85375.19
333.0070, 85489.00
334.2130, 85627.00
335.4180, 85774.44
336.6230, 85919.73
337.8290, 86055.00
339.0330, 86289.00
340.2380, 86465.00
341.4430, 86766.00
342.6470, 86937.00
343.8510, 87131.00
345.0550, 87274.00
346.2590, 88219.00
347.4630, 87771.00
348.6660, 88818.00
349.8700, 89161.00
351.0730, 89550.00
352.2760, 90021.00
353.4790, 90544.00
354.6810, 90595.00
355.8840, 90901.00
357.0860, 91567.00
358.2880, 92434.00
359.4900, 92040.00
360.6920, 92499.00
361.8940, 92345.00
363.0950, 92018.00
364.2960, 91561.00
365.4980, 91713.00
366.6990, 91167.00
367.8990, 90900.00
369.1000, 90486.00
370.3000, 90691.55
371.5010, 90814.14
372.7010, 90858.20
373.9010, 90588.61
375.1010, 90724.05
376.3000, 90697.15
377.5000, 90663.62
378.6990, 90856.05
379.8980, 90826.00
381.0970, 91025.00
382.2960, 91024.00
383.4940, 91058.34
384.6920, 91222.73
385.8910, 91304.12
387.0890, 91307.03
388.2870, 90996.27
389.4840, 91090.57
390.6820, 91022.53
391.8790, 90947.85
393.0770, 91099.13
394.2740, 90834.02
395.4700, 90981.76
396.6670, 91071.00
397.8640, 91121.00
399.0600, 91211.00
400.2560, 91378.00
401.4520, 91323.00
402.6480, 91668.00
403.8440, 91545.00
405.0390, 91846.00
406.2350, 91961.00
407.4300, 92552.00
408.6250, 92723.00
409.8200, 93324.00
411.0140, 93710.00
412.2090, 94135.00
413.4030, 94596.45
414.5970, 95323.08
415.7910, 95966.76
416.9850, 96531.93
418.1790, 96783.43
419.3720, 97439.52
420.5660, 97933.73
421.7590, 98458.00
422.9520, 98376.00
424.1440, 98089.00
425.3370, 97131.00
426.5300, 96863.00
427.7220, 95888.00
428.9140, 95516.00
430.1060, 95417.00
431.2980, 95077.00
432.4890, 95090.50
433.6810, 95294.00
434.8720, 95246.00
436.0630, 95774.00
437.2540, 96100.00
438.4450, 96693.00
439.6350, 97460.00
440.8260, 97912.00
442.0160, 98365.00
443.2060, 99379.00
444.3960, 99618.00
445.5860, 100780.0
446.7750, 102161.0
447.9650, 103217.0
449.1540, 104336.0
450.3430, 105885.0
451.5320, 107884.0
452.7210, 109131.0
453.9090, 110628.0
455.0980, 110492.0
456.2860, 111578.0
457.4740, 111531.0
458.6620, 111290.0
459.8500, 111448.0
461.0370, 111096.0
462.2250, 110487.0
463.4120, 109866.0
464.5990, 108814.0
465.7860, 107227.0
466.9720, 106361.0
468.1590, 105328.0
469.3450, 104871.0
470.5320, 103471.0
471.7180, 102988.0
472.9030, 102193.0
474.0890, 101785.0
475.2750, 101425.0
476.4600, 100842.0
477.6450, 100563.0
478.8300, 100729.0
480.0150, 100362.0
481.2000, 99692.00
482.3840, 99885.00
483.5690, 99409.00
484.7530, 99329.00
485.9370, 99303.00
487.1210, 99173.00
488.3040, 99218.65
489.4880, 98830.00
490.6710, 99208.00
491.8540, 99455.00
493.0370, 99298.00
494.2200, 99672.00
495.4030, 99293.00
496.5850, 99187.00
497.7680, 99055.00
498.9500, 99314.00
500.1320, 99320.00
501.3140, 99830.00
502.4950, 99546.00
503.6770, 99847.00
504.8580, 100028.0
506.0390, 99672.00
507.2200, 100210.0
508.4010, 100067.0
509.5820, 100305.0
510.7620, 100420.0
511.9420, 100852.0
513.1230, 100639.0
514.3030, 101144.0
515.4820, 101503.0
516.6620, 101950.0
517.8420, 102010.0
519.0210, 102662.0
520.2000, 103161.0
521.3790, 103654.0
522.5580, 104385.0
523.7360, 104988.0
524.9150, 106417.0
526.0930, 107907.0
527.2710, 109763.0
528.4490, 111377.0
529.6270, 113487.0
530.8050, 115337.0
531.9820, 117441.0
533.1590, 119529.0
534.3360, 121138.0
535.5130, 122007.0
536.6900, 122127.0
537.8670, 121436.0
539.0430, 119451.0
540.2200, 118077.0
541.3960, 115951.0
542.5720, 113283.0
543.7470, 112466.0
544.9230, 110688.0
546.0980, 109475.0
547.2740, 108318.0
548.4490, 107491.0
549.6240, 106946.0
550.7990, 106641.0
551.9730, 106077.0
553.1480, 105914.2
554.3220, 105686.0
555.4960, 105712.0
556.6700, 105548.7
557.8440, 105423.0
559.0170, 105409.0
560.1910, 105284.0
561.3640, 105266.0
562.5370, 104991.0
563.7100, 105258.0
564.8830, 105518.0
566.0550, 105345.0
567.2280, 105551.0
568.4000, 105111.0
569.5720, 105282.0
570.7440, 105525.0
571.9160, 105425.0
573.0870, 105549.0
574.2590, 105702.0
575.4300, 105547.0
576.6010, 105783.0
577.7720, 106008.0
578.9430, 105361.0
580.1140, 105736.0
581.2840, 105955.0
582.4540, 106061.0
583.6240, 105570.0
584.7940, 106078.0
585.9640, 106136.0
587.1340, 105941.0
588.3030, 106461.0
589.4720, 106218.0
590.6410, 105902.0
591.8100, 106084.0
592.9790, 105976.8
594.1480, 106478.0
595.3160, 106109.0
596.4840, 106471.0
597.6520, 106505.0
598.8200, 106601.0
599.9880, 106609.0
601.1560, 106891.0
602.3230, 106888.0
603.4900, 106870.0
604.6570, 107232.0
605.8240, 107300.0
606.9910, 107012.0
608.1580, 107292.0
609.3240, 107477.0
610.4900, 107380.0
611.6570, 107786.0
612.8230, 107883.0
613.9880, 108532.0
615.1540, 108444.0
616.3190, 108663.9
617.4850, 108139.0
618.6500, 108707.0
619.8150, 108537.0
620.9790, 108301.0
622.1440, 108406.0
623.3080, 108416.0
624.4730, 109091.0
625.6370, 108981.0
626.8010, 109058.0
627.9640, 109253.7
629.1280, 108733.0
630.2910, 109255.0
631.4550, 109298.0
632.6180, 109122.0
633.7810, 109610.0
634.9440, 109688.0
636.1060, 109642.0
637.2690, 109948.0
638.4310, 109931.0
639.5930, 110023.0
640.7550, 110463.0
641.9170, 110109.0
643.0780, 110247.0
644.2400, 110257.0
645.4010, 110905.0
646.5620, 110593.0
647.7230, 110897.0
648.8840, 111147.0
650.0450, 110996.0
651.2050, 111146.0
652.3650, 111402.0
653.5250, 111261.0
654.6850, 110982.0
655.8450, 111624.0
657.0050, 111173.0
658.1640, 111549.0
659.3230, 111957.0
660.4830, 111876.0
661.6420, 112530.0
662.8000, 112187.0
663.9590, 112445.0
665.1170, 112249.0
666.2760, 112903.0
667.4340, 112585.0
668.5920, 113112.0
669.7500, 112996.0
670.9070, 112869.0
672.0650, 113349.0
673.2220, 112614.0
674.3790, 113248.0
675.5360, 112860.0
676.6930, 113108.0
677.8500, 113479.0
679.0060, 113437.0
680.1620, 113552.0
681.3190, 113853.0
682.4750, 113450.0
683.6300, 113655.0
684.7860, 113453.0
685.9420, 113807.0
687.0970, 114345.0
688.2520, 114273.0
689.4070, 114223.0
690.5620, 114685.0
691.7170, 114682.0
692.8710, 115101.0
694.0250, 115202.0
695.1800, 114714.0
696.3340, 115150.0
697.4870, 115420.0
698.6410, 115336.0
699.7950, 115804.0
700.9480, 115857.9
702.1010, 116450.0
703.2540, 116232.0
704.4070, 116133.0
705.5600, 116424.0
706.7120, 116755.0
707.8640, 116892.0
709.0170, 116745.9
710.1690, 117025.6
711.3210, 117222.4
712.4720, 117340.6
713.6240, 117145.2
714.7750, 117354.7
715.9260, 117401.9
717.0770, 117442.5
718.2280, 117709.1
719.3790, 117559.2
720.5290, 117822.1
721.6800, 117920.3
722.8300, 117573.0
723.9800, 117616.0
725.1300, 117620.0
726.2800, 118115.0
727.4290, 118069.0
728.5790, 117867.0
729.7280, 118117.0
730.8770, 117797.0
732.0260, 118112.0
733.1750, 117842.0
734.3230, 118739.0
735.4720, 118261.0
736.6200, 118659.0
737.7680, 118761.0
738.9160, 119094.0
740.0640, 119381.0
741.2110, 118948.0
742.3590, 119319.0
743.5060, 119754.0
744.6530, 119835.0
745.8000, 119340.0
746.9470, 119889.0
748.0930, 120845.0
749.2400, 120315.0
750.3860, 121085.0
751.5320, 121585.0
752.6780, 121999.0
753.8240, 122482.2
754.9690, 122684.0
756.1150, 123125.0
757.2600, 123527.0
758.4050, 123985.8
759.5500, 124382.0
760.6950, 125030.0
761.8400, 125574.0
762.9840, 126079.0
764.1280, 127625.0
765.2730, 127090.0
766.4170, 128657.0
767.5600, 128638.0
768.7040, 129622.0
769.8470, 129810.0
770.9910, 129259.0
772.1340, 129326.0
773.2770, 129045.0
774.4200, 128564.0
775.5620, 128221.0
776.7050, 128054.0
777.8470, 126612.0
778.9890, 126738.0
780.1310, 125450.0
781.2730, 125345.0
782.4150, 124253.0
783.5570, 123925.0
784.6980, 123871.0
785.8390, 123408.0
786.9800, 123593.0
788.1210, 123180.0
789.2620, 123371.0
790.4020, 123201.0
791.5430, 122804.0
792.6830, 123256.0
793.8230, 122900.0
794.9630, 123126.0
796.1020, 123217.0
797.2420, 123271.0
798.3810, 123502.0
799.5210, 123378.0
800.6600, 123375.0
801.7990, 123601.0
802.9370, 123548.0
804.0760, 123458.0
805.2140, 123828.0
806.3530, 123655.0
807.4910, 124225.0
808.6290, 123912.0
809.7660, 123957.0
810.9040, 124247.0
812.0420, 124369.0
813.1790, 124233.0
814.3160, 124871.0
815.4530, 124957.0
816.5900, 124441.0
817.7260, 125079.0
818.8630, 124853.0
819.9990, 124874.0
821.1350, 125151.0
822.2710, 125051.0
823.4070, 125129.0
824.5430, 125198.0
825.6780, 125101.0
826.8130, 125912.0
827.9490, 125351.0
829.0840, 126108.0
830.2180, 125420.0
831.3530, 125628.0
832.4880, 125990.0
833.6220, 126528.0
834.7560, 126181.0
835.8900, 125945.0
837.0240, 126173.0
838.1580, 126412.0
839.2910, 126226.0
840.4250, 126362.0
841.5580, 126039.0
842.6910, 126078.0
843.8240, 126401.0
844.9560, 126858.0
846.0890, 126626.0
847.2210, 126849.0
848.3540, 126869.0
849.4860, 127208.0
850.6180, 127218.0
851.7490, 127332.5
852.8810, 127120.0
854.0120, 127378.0
855.1440, 127764.0
856.2750, 127608.0
857.4060, 127421.0
858.5360, 128058.0
859.6670, 127516.0
860.7980, 127824.0
861.9280, 127947.0
863.0580, 128766.0
864.1880, 128501.0
865.3180, 128187.0
866.4470, 128982.0
867.5770, 128969.0
868.7060, 128739.0
869.8350, 128926.0
870.9640, 129132.0
872.0930, 129106.0
873.2220, 129303.0
874.3500, 129439.6
875.4790, 129511.0
876.6070, 129645.0
877.7350, 129475.0
878.8630, 129294.0
879.9900, 129434.0
881.1180, 129569.0
882.2450, 129545.0
883.3730, 129929.0
884.5000, 130036.0
885.6260, 130212.0
886.7530, 130602.0
887.8800, 130423.0
889.0060, 130598.0
890.1320, 131059.0
891.2580, 131009.0
892.3840, 131039.0
893.5100, 130815.0
894.6360, 131266.0
895.7610, 131618.0
896.8860, 131980.0
898.0120, 132545.0
899.1360, 132122.0
900.2610, 132718.0
901.3860, 132602.0
902.5100, 132872.0
903.6350, 133236.0
904.7590, 132848.0
905.8830, 132485.0
907.0070, 133089.0
908.1300, 133574.0
909.2540, 132801.0
910.3770, 133367.0
911.5000, 133336.0
912.6230, 133133.0
913.7460, 133768.0
914.8690, 133335.0
915.9910, 133416.0
917.1140, 133551.0
918.2360, 134299.0
919.3580, 135002.0
920.4800, 134334.0
921.6020, 134631.0
922.7230, 134402.0
923.8440, 134452.0
924.9660, 134680.0
926.0870, 134714.5
927.2080, 134899.0
928.3280, 134989.0
929.4490, 134828.0
930.5700, 134703.0
931.6900, 135151.0
932.8100, 134652.0
933.9300, 135049.0
935.0500, 135114.0
936.1690, 135963.0
937.2890, 135542.0
938.4080, 136193.0
939.5270, 136049.0
940.6460, 136031.0
941.7650, 136539.0
942.8840, 136335.0
944.0020, 136965.0
945.1200, 136622.0
946.2390, 136670.0
947.3570, 137069.0
948.4750, 137002.0
949.5920, 136992.0
950.7100, 137263.0
951.8270, 137447.0
952.9440, 137691.0
954.0610, 137840.5
955.1780, 137969.0
956.2950, 137897.0
957.4120, 138101.0
958.5280, 138140.3
959.6440, 137906.0
960.7600, 138350.0
961.8760, 138135.0
962.9920, 138283.0
964.1080, 138438.0
965.2230, 138599.0
966.3380, 138744.0
967.4540, 139228.0
968.5690, 139328.0
969.6830, 139407.0
970.7980, 138953.0
971.9120, 138996.0
973.0270, 139321.0
974.1410, 139430.0
975.2550, 139648.0
976.3690, 139550.0
977.4820, 139924.0
978.5960, 139237.0
979.7090, 139336.0
980.8230, 139182.0
981.9360, 139193.2
983.0490, 139802.7
984.1610, 140163.2
985.2740, 140288.3
986.3860, 139472.4
987.4980, 139871.5
988.6110, 139783.7
989.7220, 139675.9
990.8340, 140246.0
991.9460, 139566.9
993.0570, 139907.0
994.1690, 140421.0
995.2800, 140063.0
996.3910, 140484.0
997.5010, 140611.0
998.6120, 140309.0
999.7230, 140117.0
1000.833, 140575.0
1001.943, 140021.0
1003.053, 139896.0
1004.163, 140516.0
1005.273, 140078.0
1006.382, 140071.0
1007.492, 139962.0
1008.601, 139771.0
1009.710, 139568.0
1010.819, 139074.0
1011.927, 139069.0
1013.036, 139022.0
1014.144, 138395.0
1015.253, 138730.0
1016.361, 138723.0
1017.469, 137862.0
1018.576, 138578.0
1019.684, 138545.0
1020.791, 139176.0
1021.899, 138944.0
1023.006, 139276.0
1024.113, 139565.0
1025.220, 139762.0
1026.326, 140237.0
1027.433, 140822.0
1028.539, 141899.0
1029.645, 142018.0
1030.751, 143215.0
1031.857, 143515.0
1032.963, 144216.0
1034.068, 144113.0
1035.174, 144884.0
1036.279, 145391.0
1037.384, 146023.0
1038.489, 146248.0
1039.594, 146039.0
1040.698, 146900.0
1041.803, 147060.0
1042.907, 147985.0
1044.011, 147781.0
1045.115, 147396.0
1046.219, 148159.0
1047.323, 148138.0
1048.426, 148835.0
1049.529, 148958.0
1050.632, 148847.0
1051.735, 149596.0
1052.838, 149649.0
1053.941, 149903.0
1055.043, 150153.0
1056.146, 150503.0
1057.248, 150721.0
1058.350, 150937.6
1059.452, 151181.6
1060.554, 151406.0
1061.655, 151486.0
1062.757, 151925.0
1063.858, 151880.0
1064.959, 152657.0
1066.060, 152056.0
1067.161, 153037.0
1068.261, 153378.0
1069.362, 153267.0
1070.462, 153937.0
1071.562, 153543.0
1072.662, 154477.0
1073.762, 154534.0
1074.862, 155282.0
1075.961, 155126.0
1077.061, 155521.0
1078.160, 155921.0
1079.259, 156381.0
1080.358, 156613.0
1081.456, 157150.0
1082.555, 157031.0
1083.653, 157002.0
1084.751, 157707.0
1085.850, 158009.0
1086.947, 158589.0
1088.045, 158585.0
1089.143, 158369.0
1090.240, 158401.0
1091.338, 159083.0
1092.435, 159062.0
1093.532, 159501.0
1094.628, 159827.0
1095.725, 159656.0
1096.822, 159807.0
1097.918, 159720.0
1099.014, 159440.0
1100.110, 158815.0
1101.206, 158491.0
1102.302, 158330.0
1103.397, 158057.0
1104.493, 158000.0
1105.588, 157775.0
1106.683, 157650.0
1107.778, 157462.0
1108.873, 157754.0
1109.967, 157769.0
1111.062, 157150.0
1112.156, 157710.0
1113.250, 156826.0
1114.344, 156359.0
1115.438, 156356.0
1116.531, 156010.0
1117.625, 155963.0
1118.718, 155994.0
1119.811, 156144.0
1120.904, 155695.0
1121.997, 155929.0
1123.090, 156863.0
1124.183, 156311.0
1125.275, 156836.0
1126.367, 156252.0
1127.459, 156907.0
1128.551, 156697.0
1129.643, 156182.0
1130.735, 157005.0
1131.826, 156642.0
1132.917, 156962.0
1134.008, 156428.0
1135.099, 156481.0
1136.190, 156982.0
1137.281, 156999.0
1138.371, 157379.0
1139.462, 157077.0
1140.552, 157220.0
1141.642, 157014.0
1142.732, 157016.0
1143.821, 156791.0
1144.911, 156277.0
1146.000, 156508.0
1147.090, 156529.0
1148.179, 157156.0
1149.268, 157288.0
1150.356, 157056.0
1151.445, 158079.0
1152.533, 157526.0
1153.622, 157673.0
1154.710, 157953.0
1155.798, 157897.0
1156.886, 157929.0
1157.973, 158166.0
1159.061, 158413.0
1160.148, 158365.0
1161.235, 157893.0
1162.322, 158711.0
1163.409, 157891.0
1164.496, 158520.0
1165.583, 158623.0
1166.669, 159000.0
1167.755, 158916.0
1168.841, 159366.0
1169.927, 158802.0
1171.013, 159510.0
1172.099, 159491.0
1173.184, 159409.0
1174.269, 159676.0
1175.355, 160228.0
1176.440, 159738.0
1177.524, 160371.0
1178.609, 159988.0
1179.694, 159946.0
1180.778, 160302.0
1181.862, 160229.0
1182.946, 160459.0
1184.030, 160643.0
1185.114, 160872.0
1186.197, 161148.0
1187.281, 161111.0
1188.364, 161183.0
1189.447, 161624.0
1190.530, 161354.0
1191.613, 161760.0
1192.696, 161492.0
1193.778, 161539.0
1194.860, 162179.0
1195.943, 162094.0
1197.025, 161849.0
1198.107, 162034.0
1199.188, 162173.0
1200.270, 162704.0
1201.351, 162317.0
1202.432, 162384.0
1203.514, 162596.0
1204.594, 163259.0
1205.675, 162835.0
1206.756, 163468.0
1207.836, 162843.0
1208.917, 163371.0
1209.997, 163098.0
1211.077, 163409.0
1212.157, 163589.0
1213.236, 163972.0
1214.316, 163996.0
1215.395, 164073.0
1216.474, 164234.0
1217.553, 164271.0
1218.632, 164302.0
1219.711, 164905.0
1220.790, 165165.0
1221.868, 164984.0
1222.946, 164858.0
1224.024, 165069.0
1225.102, 165580.0
1226.180, 165470.0
1227.258, 165612.0
1228.335, 165444.0
1229.413, 165536.0
1230.490, 165666.9
1231.567, 165351.0
1232.644, 166207.0
1233.720, 165928.0
1234.797, 166625.0
1235.873, 165753.0
1236.950, 166367.0
1238.026, 166820.0
1239.102, 166278.0
1240.177, 166695.0
1241.253, 167178.0
1242.328, 166696.0
1243.404, 167849.0
1244.479, 167005.0
1245.554, 167568.0
1246.629, 167360.0
1247.703, 167589.0
1248.778, 167910.0
1249.852, 167975.0
1250.926, 168421.0
1252.001, 168169.0
1253.074, 168610.0
1254.148, 168483.0
1255.222, 168599.0
1256.295, 168930.0
1257.369, 168902.0
1258.442, 169151.0
1259.515, 169284.0
1260.587, 168676.0
1261.660, 169202.0
1262.733, 169004.2
1263.805, 169644.0
1264.877, 169168.0
1265.949, 169798.0
1267.021, 170167.0
