##NAMES=Marialite
##RRUFFID=R040113
##IDEAL CHEMISTRY=Na_4_Al_3_Si_9_O_24_Cl
##LOCALITY=Gouverneur, New York, USA
##OWNER=RRUFF
##SOURCE=University of Arizona Mineral Museum
##DESCRIPTION=Green prismatic crystal
##STATUS=The identification of this mineral has been confirmed by X-ray diffraction and chemical analysis
##URL=rruff.info/R040113
##MEASURED CHEMISTRY=(Na_0.50_Ca_0.43_K_0.07_)_4_(Si_0.64_Al_0.36_)_12_O_24_(Cl_0.60_(CO_3_)_0.40_)
##PIN_ID=L01482
##ORIENTATION=Laser parallel to c* (0 0 1). Fiducial mark perpendicular to laser is parallel to a [1 0 0]
90.91000, 20354.00
92.14900, 20441.00
93.38900, 21033.00
94.62900, 21096.00
95.86800, 21177.00
97.10700, 21697.00
98.34600, 21855.00
99.58500, 22214.00
100.8230, 22962.00
102.0620, 23716.00
103.3000, 24268.19
104.5380, 25078.04
105.7760, 25586.00
107.0140, 26551.00
108.2510, 27234.00
109.4890, 27932.00
110.7260, 28421.00
111.9630, 28548.81
113.2000, 28716.00
114.4360, 28322.00
115.6730, 27874.00
116.9090, 27310.00
118.1450, 26483.00
119.3810, 25928.00
120.6170, 25353.00
121.8530, 25022.00
123.0880, 24613.00
124.3230, 24249.00
125.5590, 24017.00
126.7930, 23724.00
128.0280, 23829.00
129.2630, 23956.00
130.4970, 23900.00
131.7310, 23977.00
132.9650, 24032.00
134.1990, 23991.00
135.4330, 24088.00
136.6670, 24146.00
137.9000, 24335.00
139.1330, 24482.00
140.3660, 24599.00
141.5990, 24812.00
142.8320, 25359.00
144.0640, 25744.00
145.2960, 26426.00
146.5290, 27072.00
147.7610, 28150.00
148.9920, 28762.00
150.2240, 29738.00
151.4550, 30944.00
152.6870, 32396.00
153.9180, 33603.00
155.1490, 34683.00
156.3800, 36002.00
157.6100, 37160.00
158.8400, 38207.00
160.0710, 38686.00
161.3010, 38834.00
162.5310, 39199.00
163.7600, 38718.00
164.9900, 38339.00
166.2190, 37544.00
167.4480, 36421.00
168.6770, 35527.00
169.9060, 34300.00
171.1350, 33161.00
172.3630, 31833.00
173.5920, 30743.00
174.8200, 29629.00
176.0480, 28662.00
177.2760, 27981.00
178.5030, 27418.00
179.7310, 26727.00
180.9580, 26479.00
182.1850, 26432.00
183.4120, 26046.00
184.6390, 25587.00
185.8650, 25827.00
187.0920, 25762.00
188.3180, 26007.00
189.5440, 26045.00
190.7700, 25767.00
191.9960, 25776.00
193.2210, 25556.00
194.4470, 25588.00
195.6720, 25576.00
196.8970, 25288.00
198.1220, 25205.00
199.3460, 25070.00
200.5710, 24770.00
201.7950, 24831.00
203.0190, 24227.00
204.2430, 23872.00
205.4670, 23831.00
206.6910, 23600.00
207.9140, 23510.00
209.1370, 23282.00
210.3610, 22923.00
211.5840, 23050.00
212.8060, 22441.00
214.0290, 22130.00
215.2510, 21630.00
216.4740, 21606.00
217.6960, 21629.00
218.9180, 21153.00
220.1390, 20967.00
221.3610, 20915.00
222.5820, 20759.00
223.8030, 20775.00
225.0240, 20691.00
226.2450, 20566.00
227.4660, 20476.00
228.6870, 20371.00
229.9070, 19856.00
231.1270, 19653.00
232.3470, 19437.00
233.5670, 19291.00
234.7870, 18936.00
236.0060, 18590.00
237.2250, 18117.00
238.4440, 17828.00
239.6630, 17569.00
240.8820, 17435.00
242.1010, 17264.00
243.3190, 17065.00
244.5380, 17024.00
245.7560, 16950.00
246.9740, 16957.00
248.1910, 16731.00
249.4090, 17168.00
250.6260, 17082.00
251.8440, 17274.00
253.0610, 17632.00
254.2780, 17840.00
255.4940, 18375.00
256.7110, 18534.00
257.9270, 19130.00
259.1430, 19693.00
260.3600, 20148.00
261.5750, 20515.00
262.7910, 20772.00
264.0070, 20820.41
265.2220, 20794.00
266.4370, 20498.00
267.6520, 20072.00
268.8670, 19455.00
270.0820, 18715.00
271.2960, 17863.00
272.5100, 17280.00
273.7250, 16542.00
274.9390, 16190.00
276.1520, 15868.00
277.3660, 15621.00
278.5790, 15544.00
279.7930, 15566.00
281.0060, 15343.00
282.2190, 15335.00
283.4320, 15533.00
284.6440, 15467.00
285.8570, 15835.00
287.0690, 15992.00
288.2810, 16190.00
289.4930, 16258.00
290.7050, 16550.00
291.9160, 16663.00
293.1270, 16523.00
294.3390, 16602.00
295.5500, 16780.00
296.7610, 16618.00
297.9710, 16552.84
299.1820, 16319.00
300.3920, 16011.00
301.6020, 15299.00
302.8120, 14632.00
304.0220, 14215.00
305.2320, 13979.00
306.4410, 13542.00
307.6510, 13397.00
308.8600, 13266.00
310.0690, 13211.00
311.2780, 13168.00
312.4860, 13116.00
313.6950, 13122.00
314.9030, 13068.00
316.1110, 12923.00
317.3190, 13054.00
318.5270, 13147.00
319.7350, 13131.00
320.9420, 13429.00
322.1490, 13452.00
323.3570, 13508.00
324.5630, 13526.00
325.7700, 13519.00
326.9770, 13726.00
328.1830, 13960.00
329.3900, 14021.00
330.5960, 14403.00
331.8020, 14488.00
333.0070, 14605.00
334.2130, 14511.00
335.4180, 14874.00
336.6230, 14867.00
337.8290, 15070.00
339.0330, 15012.00
340.2380, 14723.00
341.4430, 14708.00
342.6470, 14550.00
343.8510, 14495.00
345.0550, 14064.00
346.2590, 13987.00
347.4630, 13998.00
348.6660, 13961.00
349.8700, 14110.00
351.0730, 14294.00
352.2760, 14343.00
353.4790, 14567.00
354.6810, 14923.00
355.8840, 15190.00
357.0860, 15567.00
358.2880, 15730.00
359.4900, 16342.00
360.6920, 16456.00
361.8940, 16520.00
363.0950, 16447.00
364.2960, 16114.00
365.4980, 15844.00
366.6990, 15399.00
367.8990, 15322.00
369.1000, 14807.00
370.3000, 14483.00
371.5010, 14229.00
372.7010, 14096.00
373.9010, 14060.00
375.1010, 13871.00
376.3000, 14215.00
377.5000, 14084.00
378.6990, 14166.00
379.8980, 14104.00
381.0970, 14144.00
382.2960, 14062.00
383.4940, 14164.00
384.6920, 14090.00
385.8910, 14059.00
387.0890, 14135.00
388.2870, 13993.00
389.4840, 14052.00
390.6820, 13894.00
391.8790, 13751.00
393.0770, 13717.00
394.2740, 13679.00
395.4700, 13542.00
396.6670, 13561.00
397.8640, 13422.00
399.0600, 13445.00
400.2560, 13315.00
401.4520, 13427.00
402.6480, 13506.00
403.8440, 13463.00
405.0390, 13571.00
406.2350, 13604.00
407.4300, 13589.00
408.6250, 13814.00
409.8200, 13877.00
411.0140, 14016.00
412.2090, 14224.00
413.4030, 14353.13
414.5970, 14485.00
415.7910, 14724.00
416.9850, 14902.00
418.1790, 15116.00
419.3720, 15446.00
420.5660, 15522.00
421.7590, 15639.00
422.9520, 15784.00
424.1440, 15797.00
425.3370, 15910.00
426.5300, 15901.00
427.7220, 15887.00
428.9140, 16028.00
430.1060, 16090.00
431.2980, 16236.00
432.4890, 16615.00
433.6810, 16872.00
434.8720, 16919.00
436.0630, 17432.00
437.2540, 18028.00
438.4450, 19048.00
439.6350, 19851.00
440.8260, 20973.00
442.0160, 22081.00
443.2060, 23774.00
444.3960, 25641.00
445.5860, 27634.00
446.7750, 29888.00
447.9650, 32698.00
449.1540, 35486.00
450.3430, 39360.00
451.5320, 42547.00
452.7210, 46264.00
453.9090, 49624.00
455.0980, 51618.00
456.2860, 52777.00
457.4740, 53954.00
458.6620, 54129.00
459.8500, 53664.00
461.0370, 52511.00
462.2250, 51504.00
463.4120, 49292.00
464.5990, 46919.00
465.7860, 43899.00
466.9720, 40871.00
468.1590, 37647.00
469.3450, 34669.00
470.5320, 31772.00
471.7180, 29246.00
472.9030, 27158.00
474.0890, 25119.00
475.2750, 23564.00
476.4600, 22436.00
477.6450, 20938.00
478.8300, 20118.00
480.0150, 19121.00
481.2000, 18512.00
482.3840, 18058.00
483.5690, 17269.00
484.7530, 17041.00
485.9370, 16721.00
487.1210, 16195.00
488.3040, 16229.00
489.4880, 15866.00
490.6710, 15718.00
491.8540, 15354.00
493.0370, 15306.00
494.2200, 15230.00
495.4030, 15207.00
496.5850, 14822.00
497.7680, 14832.00
498.9500, 14726.00
500.1320, 14506.00
501.3140, 14504.00
502.4950, 14583.00
503.6770, 14509.00
504.8580, 14470.00
506.0390, 14421.00
507.2200, 14376.00
508.4010, 14336.00
509.5820, 14296.00
510.7620, 14419.00
511.9420, 14332.00
513.1230, 14440.00
514.3030, 14431.00
515.4820, 14469.00
516.6620, 14596.00
517.8420, 14808.00
519.0210, 15015.00
520.2000, 15445.00
521.3790, 15593.00
522.5580, 15888.00
523.7360, 16539.00
524.9150, 17057.00
526.0930, 17732.00
527.2710, 18603.80
528.4490, 19547.00
529.6270, 20714.00
530.8050, 21771.00
531.9820, 23371.00
533.1590, 24621.00
534.3360, 25687.00
535.5130, 26713.00
536.6900, 27050.00
537.8670, 26444.00
539.0430, 25576.00
540.2200, 25807.00
541.3960, 24214.00
542.5720, 22933.00
543.7470, 20916.00
544.9230, 19571.00
546.0980, 18750.00
547.2740, 17961.00
548.4490, 17513.00
549.6240, 16789.00
550.7990, 16496.00
551.9730, 16116.00
553.1480, 15758.00
554.3220, 15659.00
555.4960, 15344.00
556.6700, 15225.00
557.8440, 15178.00
559.0170, 15012.00
560.1910, 14862.00
561.3640, 14685.00
562.5370, 14771.00
563.7100, 14696.00
564.8830, 14758.00
566.0550, 14634.00
567.2280, 14514.00
568.4000, 14810.00
569.5720, 14649.00
570.7440, 14651.00
571.9160, 14616.00
573.0870, 14519.00
574.2590, 14608.00
575.4300, 14700.00
576.6010, 14487.00
577.7720, 14541.00
578.9430, 14628.00
580.1140, 14665.00
581.2840, 14458.00
582.4540, 14492.00
583.6240, 14519.00
584.7940, 14637.00
585.9640, 14519.00
587.1340, 14422.00
588.3030, 14442.00
589.4720, 14462.00
590.6410, 14470.00
591.8100, 14474.00
592.9790, 14490.00
594.1480, 14535.00
595.3160, 14454.00
596.4840, 14637.00
597.6520, 14613.00
598.8200, 14475.00
599.9880, 14743.00
601.1560, 14718.00
602.3230, 14867.00
603.4900, 14874.00
604.6570, 15065.00
605.8240, 15096.00
606.9910, 15062.00
608.1580, 15147.00
609.3240, 15157.13
610.4900, 15316.00
611.6570, 15207.00
612.8230, 15155.00
613.9880, 15116.00
615.1540, 14987.00
616.3190, 15001.00
617.4850, 14870.00
618.6500, 14805.00
619.8150, 14774.00
620.9790, 14620.00
622.1440, 14798.00
623.3080, 14579.00
624.4730, 14620.00
625.6370, 14626.00
626.8010, 14605.00
627.9640, 14579.00
629.1280, 14629.00
630.2910, 14652.00
631.4550, 14738.00
632.6180, 14671.00
633.7810, 14760.00
634.9440, 14897.00
636.1060, 14726.00
637.2690, 14819.00
638.4310, 14802.00
639.5930, 14780.00
640.7550, 14883.00
641.9170, 14743.00
643.0780, 15071.00
644.2400, 15009.00
645.4010, 14877.00
646.5620, 15074.00
647.7230, 14974.00
648.8840, 15077.00
650.0450, 15089.00
651.2050, 15125.00
652.3650, 15039.00
653.5250, 15306.00
654.6850, 15170.00
655.8450, 15314.00
657.0050, 15102.00
658.1640, 15410.00
659.3230, 15214.00
660.4830, 15389.00
661.6420, 15367.00
662.8000, 15525.00
663.9590, 15528.00
665.1170, 15537.00
666.2760, 15594.00
667.4340, 15537.00
668.5920, 15501.00
669.7500, 15528.00
670.9070, 15542.00
672.0650, 15603.00
673.2220, 15737.00
674.3790, 15745.00
675.5360, 15824.00
676.6930, 16031.00
677.8500, 16254.00
679.0060, 16213.00
680.1620, 16185.00
681.3190, 15886.00
682.4750, 15939.00
683.6300, 15754.00
684.7860, 15653.00
685.9420, 15652.00
687.0970, 15713.00
688.2520, 15804.00
689.4070, 15789.00
690.5620, 15576.00
691.7170, 15661.00
692.8710, 15494.00
694.0250, 15730.00
695.1800, 15699.00
696.3340, 15708.00
697.4870, 15831.00
698.6410, 15785.00
699.7950, 15751.00
700.9480, 15790.00
702.1010, 15901.00
703.2540, 15986.00
704.4070, 15815.00
705.5600, 16133.00
706.7120, 16038.00
707.8640, 16229.00
709.0170, 16094.00
710.1690, 16156.00
711.3210, 16128.00
712.4720, 16044.00
713.6240, 16139.00
714.7750, 16219.00
715.9260, 16227.00
717.0770, 16274.39
718.2280, 16274.90
719.3790, 16320.00
720.5290, 16229.00
721.6800, 16291.00
722.8300, 16218.00
723.9800, 16351.00
725.1300, 16439.00
726.2800, 16307.00
727.4290, 16375.00
728.5790, 16467.00
729.7280, 16502.00
730.8770, 16653.00
732.0260, 16476.00
733.1750, 16521.00
734.3230, 16587.00
735.4720, 16634.00
736.6200, 16654.39
737.7680, 16644.00
738.9160, 16651.00
740.0640, 16707.00
741.2110, 16639.00
742.3590, 16651.00
743.5060, 16918.00
744.6530, 16873.00
745.8000, 17040.00
746.9470, 17072.00
748.0930, 17152.00
749.2400, 17400.00
750.3860, 17312.00
751.5320, 17511.00
752.6780, 17778.00
753.8240, 17949.00
754.9690, 18002.00
756.1150, 18146.00
757.2600, 18462.00
758.4050, 18732.00
759.5500, 19010.00
760.6950, 19181.00
761.8400, 19603.00
762.9840, 19773.00
764.1280, 20428.00
765.2730, 20817.00
766.4170, 21192.00
767.5600, 21527.00
768.7040, 21920.00
769.8470, 22142.53
770.9910, 22266.00
772.1340, 22576.00
773.2770, 22413.00
774.4200, 22599.00
775.5620, 22359.00
776.7050, 21771.00
777.8470, 21271.00
778.9890, 20730.00
780.1310, 20065.00
781.2730, 19623.00
782.4150, 18981.00
783.5570, 18712.00
784.6980, 18021.00
785.8390, 17890.00
786.9800, 17599.00
788.1210, 17408.00
789.2620, 17311.00
790.4020, 17166.32
791.5430, 17194.00
792.6830, 17037.00
793.8230, 17154.00
794.9630, 17131.00
796.1020, 17297.00
797.2420, 17273.00
798.3810, 17257.00
799.5210, 17344.00
800.6600, 17572.00
801.7990, 17638.00
802.9370, 17742.00
804.0760, 17670.00
805.2140, 17767.00
806.3530, 17896.00
807.4910, 17926.00
808.6290, 17974.00
809.7660, 17669.00
810.9040, 17609.00
812.0420, 17648.00
813.1790, 17306.00
814.3160, 17186.00
815.4530, 17144.00
816.5900, 17153.00
817.7260, 17013.00
818.8630, 17048.00
819.9990, 17040.00
821.1350, 16978.00
822.2710, 17037.00
823.4070, 17013.00
824.5430, 17056.00
825.6780, 17048.22
826.8130, 17049.29
827.9490, 17049.00
829.0840, 17042.00
830.2180, 17081.00
831.3530, 17068.00
832.4880, 17097.68
833.6220, 17140.19
834.7560, 17136.00
835.8900, 17198.00
837.0240, 17197.00
838.1580, 17140.00
839.2910, 17216.00
840.4250, 17149.00
841.5580, 17186.77
842.6910, 17245.00
843.8240, 17216.00
844.9560, 17170.00
846.0890, 17137.00
847.2210, 17239.00
848.3540, 17318.00
849.4860, 17365.00
850.6180, 17370.00
851.7490, 17236.00
852.8810, 17489.00
854.0120, 17302.00
855.1440, 17563.00
856.2750, 17242.00
857.4060, 17362.00
858.5360, 17537.00
859.6670, 17460.00
860.7980, 17362.00
861.9280, 17361.00
863.0580, 17484.00
864.1880, 17545.00
865.3180, 17560.00
866.4470, 17692.00
867.5770, 17536.00
868.7060, 17490.00
869.8350, 17830.00
870.9640, 17621.00
872.0930, 17493.00
873.2220, 17751.00
874.3500, 17873.00
875.4790, 17767.00
876.6070, 17723.00
877.7350, 17662.00
878.8630, 17680.88
879.9900, 17681.09
881.1180, 17762.00
882.2450, 17806.00
883.3730, 17844.00
884.5000, 18038.00
885.6260, 18041.00
886.7530, 18090.96
887.8800, 17915.00
889.0060, 18050.00
890.1320, 18147.00
891.2580, 17990.00
892.3840, 18145.00
893.5100, 18133.00
894.6360, 18224.00
895.7610, 18282.96
896.8860, 18261.00
898.0120, 18361.00
899.1360, 18278.00
900.2610, 18257.00
901.3860, 18402.00
902.5100, 18336.00
903.6350, 18316.00
904.7590, 18325.00
905.8830, 18374.00
907.0070, 18479.00
908.1300, 18498.77
909.2540, 18542.75
910.3770, 18602.00
911.5000, 18548.00
912.6230, 18597.16
913.7460, 18513.00
914.8690, 18594.00
915.9910, 18480.00
917.1140, 18545.00
918.2360, 18598.00
919.3580, 18561.00
920.4800, 18615.00
921.6020, 18641.00
922.7230, 18668.00
923.8440, 18630.00
924.9660, 18714.00
926.0870, 18547.00
927.2080, 18688.00
928.3280, 18882.00
929.4490, 18729.51
930.5700, 18881.61
931.6900, 18578.00
932.8100, 18970.00
933.9300, 18897.00
935.0500, 18966.00
936.1690, 18864.00
937.2890, 18918.00
938.4080, 19122.00
939.5270, 18844.00
940.6460, 18876.00
941.7650, 19019.00
942.8840, 19114.00
944.0020, 19131.00
945.1200, 19240.00
946.2390, 19317.00
947.3570, 19336.35
948.4750, 19388.33
949.5920, 19417.00
950.7100, 19405.18
951.8270, 19500.00
952.9440, 19479.00
954.0610, 19633.00
955.1780, 19730.00
956.2950, 19633.00
957.4120, 19895.00
958.5280, 19834.00
959.6440, 19898.00
960.7600, 19993.46
961.8760, 19842.00
962.9920, 20048.00
964.1080, 20003.00
965.2230, 19908.00
966.3380, 19855.00
967.4540, 20048.00
968.5690, 20000.00
969.6830, 20045.00
970.7980, 20256.00
971.9120, 20129.00
973.0270, 20153.00
974.1410, 20185.00
975.2550, 20191.00
976.3690, 20333.62
977.4820, 20368.62
978.5960, 20438.28
979.7090, 20521.00
980.8230, 20572.00
981.9360, 20627.00
983.0490, 20696.00
984.1610, 20792.00
985.2740, 20823.00
986.3860, 20828.25
987.4980, 20536.00
988.6110, 20802.00
989.7220, 20617.00
990.8340, 20625.00
991.9460, 20639.00
993.0570, 20718.00
994.1690, 20561.00
995.2800, 20505.00
996.3910, 20545.00
997.5010, 20512.00
998.6120, 20535.00
999.7230, 20544.00
1000.833, 20715.00
1001.943, 20638.00
1003.053, 20853.00
1004.163, 20510.00
1005.273, 20607.00
1006.382, 20638.00
1007.492, 20582.00
1008.601, 20572.00
1009.710, 20593.08
1010.819, 20658.00
1011.927, 20645.00
1013.036, 20660.00
1014.144, 20716.00
1015.253, 20593.00
1016.361, 20647.00
1017.469, 20815.00
1018.576, 20656.00
1019.684, 20810.00
1020.791, 20883.00
1021.899, 20853.00
1023.006, 21024.00
1024.113, 21238.00
1025.220, 21145.00
1026.326, 21490.00
1027.433, 21364.00
1028.539, 21470.00
1029.645, 21632.00
1030.751, 21670.00
1031.857, 21712.00
1032.963, 22194.00
1034.068, 22248.00
1035.174, 22002.00
1036.279, 22399.00
1037.384, 22137.00
1038.489, 22498.00
1039.594, 22468.00
1040.698, 22572.00
1041.803, 22783.00
1042.907, 22655.00
1044.011, 22810.00
1045.115, 22939.00
1046.219, 23076.00
1047.323, 23110.00
1048.426, 22988.00
1049.529, 23261.00
1050.632, 23149.00
1051.735, 23221.00
1052.838, 23511.00
1053.941, 23439.00
1055.043, 23712.00
1056.146, 23918.00
1057.248, 23799.00
1058.350, 23827.00
1059.452, 24158.00
1060.554, 24452.00
1061.655, 24333.00
1062.757, 24414.00
1063.858, 24676.00
1064.959, 24955.00
1066.060, 24964.00
1067.161, 25036.00
1068.261, 25190.00
1069.362, 25561.00
1070.462, 25478.00
1071.562, 25613.00
1072.662, 25427.00
1073.762, 25620.00
1074.862, 25544.00
1075.961, 25855.00
1077.061, 25574.00
1078.160, 26081.00
1079.259, 26220.00
1080.358, 26443.00
1081.456, 26387.00
1082.555, 26900.00
1083.653, 27335.00
1084.751, 27917.00
1085.850, 28502.00
1086.947, 29314.00
1088.045, 30106.00
1089.143, 30887.00
1090.240, 31527.00
1091.338, 32453.00
1092.435, 33279.00
1093.532, 34079.00
1094.628, 34519.00
1095.725, 35049.00
1096.822, 35210.00
1097.918, 35259.00
1099.014, 35027.00
1100.110, 35232.00
1101.206, 34789.00
1102.302, 34780.00
1103.397, 34869.00
1104.493, 35257.00
1105.588, 35648.00
1106.683, 36156.00
1107.778, 36740.00
1108.873, 36688.00
1109.967, 36562.00
1111.062, 35783.00
1112.156, 34548.00
1113.250, 32583.00
1114.344, 30722.00
1115.438, 28432.00
1116.531, 26684.00
1117.625, 25354.00
1118.718, 24461.00
1119.811, 23920.00
1120.904, 23636.00
1121.997, 23294.00
1123.090, 23110.00
1124.183, 23131.00
1125.275, 23029.00
1126.367, 23157.00
1127.459, 23174.00
1128.551, 23149.00
1129.643, 23086.00
1130.735, 22991.00
1131.826, 22972.00
1132.917, 22969.00
1134.008, 22935.00
1135.099, 23098.00
1136.190, 23018.00
1137.281, 22977.00
1138.371, 22982.00
1139.462, 22791.00
1140.552, 22769.00
1141.642, 22908.00
1142.732, 23111.00
1143.821, 22928.00
1144.911, 22977.00
1146.000, 23026.00
1147.090, 22869.00
1148.179, 23266.00
1149.268, 23106.02
1150.356, 23383.00
1151.445, 23084.00
1152.533, 23017.00
1153.622, 23058.00
1154.710, 23171.00
1155.798, 23185.00
1156.886, 23099.00
1157.973, 23340.00
1159.061, 23413.00
1160.148, 23227.00
1161.235, 23358.00
1162.322, 23264.00
1163.409, 23401.00
1164.496, 23447.00
1165.583, 23273.00
1166.669, 23439.00
1167.755, 23550.00
1168.841, 23599.00
1169.927, 23580.00
1171.013, 23545.00
1172.099, 23749.00
1173.184, 23700.00
1174.269, 23518.00
1175.355, 23586.00
1176.440, 23726.00
1177.524, 23858.00
1178.609, 23915.77
1179.694, 24003.11
1180.778, 24027.00
1181.862, 24074.00
1182.946, 24073.00
1184.030, 24035.00
1185.114, 24147.00
1186.197, 24164.00
1187.281, 24247.00
1188.364, 24332.00
1189.447, 24438.00
1190.530, 24319.00
1191.613, 24593.00
1192.696, 24649.00
1193.778, 24569.00
1194.860, 24827.00
1195.943, 24868.00
1197.025, 24686.00
1198.107, 24858.00
1199.188, 24814.00
1200.270, 24784.00
1201.351, 24767.00
1202.432, 24909.00
1203.514, 24647.00
1204.594, 24751.00
1205.675, 24454.00
1206.756, 24891.00
1207.836, 24521.00
1208.917, 24547.00
1209.997, 24462.00
1211.077, 24401.00
1212.157, 24310.00
1213.236, 24367.00
1214.316, 24370.00
1215.395, 24313.00
1216.474, 24304.00
1217.553, 24551.00
1218.632, 24479.00
1219.711, 24303.00
1220.790, 24471.00
1221.868, 24170.00
1222.946, 24199.00
1224.024, 24239.00
1225.102, 24526.00
1226.180, 24221.00
1227.258, 24379.00
1228.335, 24321.00
1229.413, 24392.00
1230.490, 24379.00
1231.567, 24469.00
1232.644, 24450.00
1233.720, 24428.00
1234.797, 24390.00
1235.873, 24429.00
1236.950, 24393.00
1238.026, 24534.00
1239.102, 24588.00
1240.177, 24345.00
1241.253, 24676.00
1242.328, 24552.00
1243.404, 24776.00
1244.479, 24590.00
1245.554, 24776.00
1246.629, 24679.00
1247.703, 24606.00
1248.778, 24807.00
1249.852, 24961.00
1250.926, 24925.22
1252.001, 24822.00
1253.074, 24908.00
1254.148, 24841.00
1255.222, 24754.00
1256.295, 24691.00
1257.369, 24953.00
1258.442, 24949.00
1259.515, 24960.78
1260.587, 25176.00
1261.660, 24984.00
1262.733, 25009.00
1263.805, 25006.03
1264.877, 25120.91
1265.949, 25188.62
1267.021, 25211.68
1268.093, 25056.38
1269.164, 25131.39
