##NAMES=Marialite
##RRUFFID=R040113
##IDEAL CHEMISTRY=Na_4_Al_3_Si_9_O_24_Cl
##LOCALITY=Gouverneur, New York, USA
##OWNER=RRUFF
##SOURCE=University of Arizona Mineral Museum
##DESCRIPTION=Green prismatic crystal
##STATUS=The identification of this mineral has been confirmed by X-ray diffraction and chemical analysis
##URL=rruff.info/R040113
##MEASURED CHEMISTRY=(Na_0.50_Ca_0.43_K_0.07_)_4_(Si_0.64_Al_0.36_)_12_O_24_(Cl_0.60_(CO_3_)_0.40_)
##PIN_ID=L01482
##ORIENTATION=Laser parallel to c* (0 0 1). Fiducial mark perpendicular to laser is parallel to a [1 0 0]
90.91000, 24156.00
92.14900, 24186.00
93.38900, 24242.00
94.62900, 23837.00
95.86800, 24914.00
97.10700, 24670.00
98.34600, 25235.00
99.58500, 25255.00
100.8230, 26163.00
102.0620, 26208.00
103.3000, 26890.00
104.5380, 27626.00
105.7760, 28843.00
107.0140, 30257.00
108.2510, 31587.00
109.4890, 32348.00
110.7260, 32296.00
111.9630, 31655.00
113.2000, 31714.00
114.4360, 31669.00
115.6730, 30747.00
116.9090, 30246.00
118.1450, 29315.00
119.3810, 29189.00
120.6170, 28034.00
121.8530, 28015.00
123.0880, 27705.00
124.3230, 27254.00
125.5590, 27104.00
126.7930, 26893.00
128.0280, 26575.00
129.2630, 26551.60
130.4970, 26534.66
131.7310, 26445.00
132.9650, 26711.00
134.1990, 26712.00
135.4330, 26765.00
136.6670, 27097.00
137.9000, 26745.00
139.1330, 27192.00
140.3660, 27164.00
141.5990, 27451.00
142.8320, 28319.00
144.0640, 28508.00
145.2960, 29069.00
146.5290, 29587.00
147.7610, 30550.00
148.9920, 31553.00
150.2240, 33076.00
151.4550, 34099.95
152.6870, 35340.00
153.9180, 36490.00
155.1490, 38184.00
156.3800, 39258.00
157.6100, 40188.00
158.8400, 40982.00
160.0710, 41474.61
161.3010, 42380.00
162.5310, 41815.00
163.7600, 41781.00
164.9900, 41197.00
166.2190, 40222.00
167.4480, 39607.00
168.6770, 38025.00
169.9060, 36726.00
171.1350, 35589.00
172.3630, 34459.00
173.5920, 32853.00
174.8200, 31608.00
176.0480, 31021.00
177.2760, 30589.00
178.5030, 29727.00
179.7310, 29081.00
180.9580, 29029.00
182.1850, 28539.00
183.4120, 28373.00
184.6390, 28065.19
185.8650, 28191.17
187.0920, 28269.98
188.3180, 28304.14
189.5440, 28159.95
190.7700, 28246.07
191.9960, 28385.00
193.2210, 28277.00
194.4470, 28187.00
195.6720, 28078.00
196.8970, 27846.39
198.1220, 27606.51
199.3460, 27219.00
200.5710, 27124.00
201.7950, 26553.00
203.0190, 26576.00
204.2430, 26050.00
205.4670, 25905.00
206.6910, 25825.00
207.9140, 25316.00
209.1370, 24995.00
210.3610, 24624.00
211.5840, 24628.00
212.8060, 24362.00
214.0290, 23870.00
215.2510, 23675.00
216.4740, 23243.00
217.6960, 22905.00
218.9180, 23134.00
220.1390, 23176.00
221.3610, 23079.00
222.5820, 22943.00
223.8030, 22921.00
225.0240, 22672.00
226.2450, 22570.44
227.4660, 22325.00
228.6870, 22191.00
229.9070, 21893.00
231.1270, 21554.00
232.3470, 21067.00
233.5670, 21024.00
234.7870, 20548.00
236.0060, 20272.00
237.2250, 20074.00
238.4440, 19619.00
239.6630, 19425.00
240.8820, 19377.00
242.1010, 19077.00
243.3190, 18773.00
244.5380, 18656.00
245.7560, 18475.00
246.9740, 18624.00
248.1910, 19010.00
249.4090, 19110.00
250.6260, 19023.00
251.8440, 19501.00
253.0610, 19487.00
254.2780, 20059.00
255.4940, 20273.00
256.7110, 20587.00
257.9270, 21597.00
259.1430, 21850.00
260.3600, 22611.00
261.5750, 23029.00
262.7910, 23098.00
264.0070, 23359.00
265.2220, 22844.00
266.4370, 22582.00
267.6520, 21830.00
268.8670, 21222.00
270.0820, 20709.00
271.2960, 19688.00
272.5100, 19003.00
273.7250, 18445.00
274.9390, 18004.67
276.1520, 18048.00
277.3660, 17685.00
278.5790, 17650.00
279.7930, 17896.00
281.0060, 17736.00
282.2190, 18019.00
283.4320, 18346.00
284.6440, 18466.00
285.8570, 18968.00
287.0690, 19317.00
288.2810, 19516.00
289.4930, 19789.00
290.7050, 20040.00
291.9160, 20113.00
293.1270, 20059.37
294.3390, 19934.65
295.5500, 19610.00
296.7610, 19334.00
297.9710, 18846.00
299.1820, 18336.00
300.3920, 17721.00
301.6020, 16963.00
302.8120, 16072.00
304.0220, 15747.00
305.2320, 15491.00
306.4410, 15155.00
307.6510, 14997.00
308.8600, 14651.00
310.0690, 14581.00
311.2780, 14426.00
312.4860, 14366.00
313.6950, 14399.00
314.9030, 14439.00
316.1110, 14377.00
317.3190, 14240.00
318.5270, 14190.00
319.7350, 14454.00
320.9420, 14510.00
322.1490, 14661.00
323.3570, 14740.00
324.5630, 15071.00
325.7700, 15134.00
326.9770, 15555.00
328.1830, 15538.00
329.3900, 15775.00
330.5960, 16214.00
331.8020, 16333.00
333.0070, 16825.00
334.2130, 17117.00
335.4180, 17099.00
336.6230, 17164.00
337.8290, 17122.57
339.0330, 17049.00
340.2380, 16847.00
341.4430, 16609.00
342.6470, 16372.00
343.8510, 16051.00
345.0550, 15770.00
346.2590, 15432.00
347.4630, 15724.00
348.6660, 15461.00
349.8700, 15546.00
351.0730, 15742.00
352.2760, 15828.00
353.4790, 16165.00
354.6810, 16313.00
355.8840, 16345.00
357.0860, 17108.00
358.2880, 18116.00
359.4900, 17819.00
360.6920, 17677.00
361.8940, 17916.00
363.0950, 17704.00
364.2960, 17407.00
365.4980, 16900.00
366.6990, 16506.00
367.8990, 16027.00
369.1000, 15738.00
370.3000, 15368.00
371.5010, 15430.00
372.7010, 15206.00
373.9010, 15137.00
375.1010, 15177.00
376.3000, 14976.87
377.5000, 15079.00
378.6990, 14885.00
379.8980, 14826.00
381.0970, 15123.00
382.2960, 15071.00
383.4940, 15073.00
384.6920, 15171.00
385.8910, 15032.00
387.0890, 15075.00
388.2870, 15094.00
389.4840, 14951.00
390.6820, 14849.00
391.8790, 14698.00
393.0770, 14826.00
394.2740, 14678.00
395.4700, 14451.00
396.6670, 14221.00
397.8640, 14343.00
399.0600, 14409.00
400.2560, 14295.00
401.4520, 14171.00
402.6480, 14324.00
403.8440, 14437.00
405.0390, 14257.00
406.2350, 14366.00
407.4300, 14506.00
408.6250, 14731.00
409.8200, 14958.00
411.0140, 14727.00
412.2090, 14961.00
413.4030, 15110.00
414.5970, 15606.00
415.7910, 15511.00
416.9850, 15982.00
418.1790, 16027.00
419.3720, 16397.00
420.5660, 16628.00
421.7590, 16702.00
422.9520, 16677.00
424.1440, 16667.00
425.3370, 16789.00
426.5300, 16833.00
427.7220, 17004.00
428.9140, 16997.00
430.1060, 17201.00
431.2980, 17503.00
432.4890, 17681.00
433.6810, 18124.00
434.8720, 18350.00
436.0630, 18769.00
437.2540, 19580.00
438.4450, 20690.00
439.6350, 21612.00
440.8260, 22775.00
442.0160, 24561.00
443.2060, 26228.00
444.3960, 28204.00
445.5860, 30342.00
446.7750, 33453.00
447.9650, 36288.00
449.1540, 39860.00
450.3430, 43726.00
451.5320, 47768.00
452.7210, 51132.00
453.9090, 54193.00
455.0980, 56105.09
456.2860, 57600.00
457.4740, 58198.00
458.6620, 58128.00
459.8500, 57579.00
461.0370, 56456.01
462.2250, 54781.00
463.4120, 52536.00
464.5990, 49627.00
465.7860, 46260.00
466.9720, 42997.00
468.1590, 39424.00
469.3450, 36301.00
470.5320, 33419.00
471.7180, 30975.00
472.9030, 28309.00
474.0890, 26578.00
475.2750, 24778.00
476.4600, 23170.00
477.6450, 22122.00
478.8300, 21172.00
480.0150, 20220.00
481.2000, 19478.00
482.3840, 19013.00
483.5690, 18430.00
484.7530, 17927.00
485.9370, 17715.00
487.1210, 17094.00
488.3040, 17092.00
489.4880, 16655.00
490.6710, 16589.00
491.8540, 16361.00
493.0370, 16224.00
494.2200, 16065.00
495.4030, 15869.00
496.5850, 15769.00
497.7680, 15574.00
498.9500, 15610.00
500.1320, 15525.00
501.3140, 15520.00
502.4950, 15333.00
503.6770, 15249.00
504.8580, 15279.00
506.0390, 15214.00
507.2200, 15158.00
508.4010, 15117.00
509.5820, 15121.00
510.7620, 15207.00
511.9420, 15269.00
513.1230, 15294.00
514.3030, 15374.00
515.4820, 15452.00
516.6620, 15598.00
517.8420, 15827.29
519.0210, 16008.00
520.2000, 16400.00
521.3790, 16758.00
522.5580, 17109.00
523.7360, 17519.00
524.9150, 18440.00
526.0930, 19291.00
527.2710, 20243.00
528.4490, 21177.00
529.6270, 22380.00
530.8050, 24452.00
531.9820, 26033.00
533.1590, 26648.00
534.3360, 27805.00
535.5130, 28698.00
536.6900, 28355.00
537.8670, 28120.00
539.0430, 27117.00
540.2200, 26015.00
541.3960, 24366.00
542.5720, 22890.00
543.7470, 21320.00
544.9230, 20468.00
546.0980, 19595.00
547.2740, 18806.00
548.4490, 18133.00
549.6240, 17826.00
550.7990, 17432.00
551.9730, 16883.00
553.1480, 17059.00
554.3220, 16542.03
555.4960, 16334.00
556.6700, 16029.00
557.8440, 15936.00
559.0170, 15867.00
560.1910, 15706.00
561.3640, 15698.00
562.5370, 15523.00
563.7100, 15656.00
564.8830, 15582.00
566.0550, 15636.00
567.2280, 15596.50
568.4000, 15533.32
569.5720, 15478.00
570.7440, 15432.00
571.9160, 15363.00
573.0870, 15395.00
574.2590, 15376.00
575.4300, 15407.00
576.6010, 15307.00
577.7720, 15407.00
578.9430, 15216.00
580.1140, 15341.00
581.2840, 15324.00
582.4540, 15437.00
583.6240, 15230.00
584.7940, 15236.00
585.9640, 15251.00
587.1340, 15292.00
588.3030, 15205.00
589.4720, 15266.00
590.6410, 15219.00
591.8100, 15388.00
592.9790, 15306.00
594.1480, 15551.00
595.3160, 15386.00
596.4840, 15451.00
597.6520, 15468.00
598.8200, 15505.00
599.9880, 15607.00
601.1560, 15603.00
602.3230, 15892.00
603.4900, 15821.00
604.6570, 16282.00
605.8240, 16293.00
606.9910, 16264.00
608.1580, 16331.00
609.3240, 16528.00
610.4900, 16411.82
611.6570, 16440.00
612.8230, 16215.00
613.9880, 16110.00
615.1540, 15840.00
616.3190, 15760.38
617.4850, 15738.00
618.6500, 15562.00
619.8150, 15567.00
620.9790, 15469.00
622.1440, 15370.00
623.3080, 15505.00
624.4730, 15403.00
625.6370, 15542.00
626.8010, 15643.00
627.9640, 15553.00
629.1280, 15561.00
630.2910, 15539.00
631.4550, 15327.00
632.6180, 15499.00
633.7810, 15631.00
634.9440, 15418.00
636.1060, 15639.00
637.2690, 15507.00
638.4310, 15709.00
639.5930, 15439.00
640.7550, 15570.00
641.9170, 15824.00
643.0780, 15760.00
644.2400, 15754.00
645.4010, 15638.00
646.5620, 15783.00
647.7230, 15735.00
648.8840, 15696.00
650.0450, 15827.00
651.2050, 15894.00
652.3650, 15888.00
653.5250, 15986.00
654.6850, 15914.00
655.8450, 16072.00
657.0050, 16000.00
658.1640, 16055.00
659.3230, 16093.00
660.4830, 16256.00
661.6420, 16247.00
662.8000, 16106.00
663.9590, 16411.00
665.1170, 16310.00
666.2760, 16155.00
667.4340, 16274.00
668.5920, 16154.00
669.7500, 16360.00
670.9070, 16314.00
672.0650, 16431.00
673.2220, 16583.00
674.3790, 16692.00
675.5360, 16789.00
676.6930, 16953.00
677.8500, 17120.00
679.0060, 17017.00
680.1620, 17392.00
681.3190, 16766.00
682.4750, 16630.00
683.6300, 16540.00
684.7860, 16549.00
685.9420, 16248.00
687.0970, 16479.00
688.2520, 16292.00
689.4070, 16549.00
690.5620, 16415.00
691.7170, 16528.00
692.8710, 16638.00
694.0250, 16429.00
695.1800, 16493.00
696.3340, 16430.00
697.4870, 16512.00
698.6410, 16630.00
699.7950, 16496.00
700.9480, 16712.00
702.1010, 16554.00
703.2540, 16882.00
704.4070, 16724.00
705.5600, 16891.00
706.7120, 16905.00
707.8640, 16836.00
709.0170, 16937.00
710.1690, 16931.00
711.3210, 17045.00
712.4720, 17000.00
713.6240, 17034.00
714.7750, 16934.00
715.9260, 17049.00
717.0770, 17133.00
718.2280, 17051.00
719.3790, 17076.00
720.5290, 17234.00
721.6800, 17109.00
722.8300, 17253.00
723.9800, 17148.00
725.1300, 17218.00
726.2800, 17275.00
727.4290, 17347.00
728.5790, 17456.00
729.7280, 17442.00
730.8770, 17467.00
732.0260, 17425.00
733.1750, 17468.00
734.3230, 17469.00
735.4720, 17519.12
736.6200, 17578.99
737.7680, 17633.00
738.9160, 17723.84
740.0640, 17753.61
741.2110, 17826.44
742.3590, 17788.00
743.5060, 17860.00
744.6530, 17864.00
745.8000, 17949.00
746.9470, 18057.06
748.0930, 18157.01
749.2400, 18278.00
750.3860, 18453.00
751.5320, 18490.00
752.6780, 18675.00
753.8240, 18784.00
754.9690, 19063.00
756.1150, 19371.00
757.2600, 19416.00
758.4050, 19615.00
759.5500, 20031.00
760.6950, 20375.00
761.8400, 20827.00
762.9840, 21088.00
764.1280, 21445.00
765.2730, 21869.00
766.4170, 22220.00
767.5600, 22793.00
768.7040, 22989.00
769.8470, 23310.00
770.9910, 23404.77
772.1340, 23585.00
773.2770, 23420.00
774.4200, 23194.00
775.5620, 23204.00
776.7050, 22587.00
777.8470, 21988.00
778.9890, 21599.00
780.1310, 20645.00
781.2730, 20423.00
782.4150, 19764.00
783.5570, 19396.00
784.6980, 19009.00
785.8390, 18696.00
786.9800, 18498.00
788.1210, 18353.00
789.2620, 18288.00
790.4020, 18115.00
791.5430, 18102.00
792.6830, 18318.00
793.8230, 18371.00
794.9630, 18253.00
796.1020, 18377.00
797.2420, 18424.00
798.3810, 18458.00
799.5210, 18724.00
800.6600, 18986.00
801.7990, 18958.00
802.9370, 19230.44
804.0760, 19243.16
805.2140, 19518.00
806.3530, 19264.00
807.4910, 19281.00
808.6290, 19196.00
809.7660, 18958.00
810.9040, 18838.00
812.0420, 18453.00
813.1790, 18307.00
814.3160, 18199.00
815.4530, 18058.00
816.5900, 17872.00
817.7260, 17815.00
818.8630, 17908.00
819.9990, 18015.00
821.1350, 18050.00
822.2710, 18035.00
823.4070, 18048.37
824.5430, 17893.00
825.6780, 17985.00
826.8130, 17881.00
827.9490, 17844.00
829.0840, 17858.00
830.2180, 17906.00
831.3530, 17920.00
832.4880, 17974.00
833.6220, 18027.00
834.7560, 18062.00
835.8900, 18157.00
837.0240, 18074.00
838.1580, 17970.00
839.2910, 18187.00
840.4250, 18140.00
841.5580, 18075.00
842.6910, 18301.00
843.8240, 17993.00
844.9560, 18318.00
846.0890, 18243.00
847.2210, 18139.00
848.3540, 18218.00
849.4860, 18169.00
850.6180, 18080.00
851.7490, 18207.84
852.8810, 18247.00
854.0120, 18296.00
855.1440, 18417.00
856.2750, 18255.00
857.4060, 18245.00
858.5360, 18502.00
859.6670, 18387.00
860.7980, 18351.00
861.9280, 18472.00
863.0580, 18473.00
864.1880, 18497.00
865.3180, 18448.00
866.4470, 18439.00
867.5770, 18550.00
868.7060, 18673.00
869.8350, 18481.00
870.9640, 18570.31
872.0930, 18658.00
873.2220, 18656.00
874.3500, 18690.70
875.4790, 18791.00
876.6070, 18672.00
877.7350, 18735.00
878.8630, 18716.00
879.9900, 18758.00
881.1180, 18940.00
882.2450, 18886.00
883.3730, 18705.00
884.5000, 18737.00
885.6260, 18919.00
886.7530, 18742.00
887.8800, 19010.00
889.0060, 18873.00
890.1320, 19123.00
891.2580, 19230.00
892.3840, 19017.00
893.5100, 19076.00
894.6360, 19149.00
895.7610, 19167.00
896.8860, 19331.00
898.0120, 19171.00
899.1360, 19219.00
900.2610, 19380.00
901.3860, 19238.00
902.5100, 19270.00
903.6350, 19325.00
904.7590, 19337.00
905.8830, 19456.00
907.0070, 19363.00
908.1300, 19659.00
909.2540, 19442.00
910.3770, 19461.00
911.5000, 19415.00
912.6230, 19597.00
913.7460, 19477.00
914.8690, 19480.00
915.9910, 19454.00
917.1140, 19512.00
918.2360, 19526.00
919.3580, 19523.00
920.4800, 19645.00
921.6020, 19593.00
922.7230, 19659.00
923.8440, 19498.00
924.9660, 19773.00
926.0870, 19682.00
927.2080, 19563.00
928.3280, 19633.00
929.4490, 19812.00
930.5700, 19784.00
931.6900, 19811.00
932.8100, 19651.00
933.9300, 19799.00
935.0500, 19919.00
936.1690, 19887.58
937.2890, 20133.00
938.4080, 20005.00
939.5270, 19977.00
940.6460, 20118.00
941.7650, 20213.00
942.8840, 20266.00
944.0020, 20060.00
945.1200, 20137.00
946.2390, 20271.00
947.3570, 20490.00
948.4750, 20434.00
949.5920, 20376.00
950.7100, 20481.00
951.8270, 20460.00
952.9440, 20480.00
954.0610, 20705.00
955.1780, 20566.00
956.2950, 20705.00
957.4120, 20760.00
958.5280, 20782.00
959.6440, 20806.00
960.7600, 20923.00
961.8760, 20974.00
962.9920, 21001.25
964.1080, 20937.00
965.2230, 21075.00
966.3380, 21079.00
967.4540, 21176.00
968.5690, 21106.00
969.6830, 21328.00
970.7980, 20977.00
971.9120, 21134.00
973.0270, 21342.00
974.1410, 21367.00
975.2550, 21648.00
976.3690, 21579.00
977.4820, 21555.00
978.5960, 21666.00
979.7090, 21559.00
980.8230, 21811.00
981.9360, 21746.00
983.0490, 21784.00
984.1610, 21917.00
985.2740, 21889.00
986.3860, 21919.00
987.4980, 21747.00
988.6110, 21815.58
989.7220, 21706.55
990.8340, 21821.00
991.9460, 21626.00
993.0570, 21545.00
994.1690, 21672.00
995.2800, 21744.00
996.3910, 21723.00
997.5010, 21631.00
998.6120, 21625.00
999.7230, 21752.00
1000.833, 21692.00
1001.943, 22037.00
1003.053, 21782.00
1004.163, 21720.00
1005.273, 21976.00
1006.382, 21778.00
1007.492, 21895.00
1008.601, 21757.00
1009.710, 21900.00
1010.819, 22013.00
1011.927, 21974.00
1013.036, 21974.00
1014.144, 21959.00
1015.253, 22019.00
1016.361, 21891.00
1017.469, 22107.00
1018.576, 22146.00
1019.684, 22278.00
1020.791, 22211.00
1021.899, 22191.00
1023.006, 22420.00
1024.113, 22480.00
1025.220, 22739.00
1026.326, 22857.31
1027.433, 22801.00
1028.539, 23078.00
1029.645, 23168.00
1030.751, 23134.00
1031.857, 23345.00
1032.963, 23240.00
1034.068, 23543.00
1035.174, 23549.00
1036.279, 23656.00
1037.384, 23819.00
1038.489, 23933.00
1039.594, 23962.00
1040.698, 24097.00
1041.803, 24355.00
1042.907, 24290.00
1044.011, 24325.00
1045.115, 24099.00
1046.219, 24448.00
1047.323, 24367.00
1048.426, 24471.00
1049.529, 24866.00
1050.632, 24654.00
1051.735, 25039.00
1052.838, 24902.00
1053.941, 24878.00
1055.043, 25111.00
1056.146, 25479.00
1057.248, 25572.00
1058.350, 25618.00
1059.452, 25696.00
1060.554, 25884.00
1061.655, 25843.00
1062.757, 26156.00
1063.858, 26236.00
1064.959, 26472.00
1066.060, 26553.00
1067.161, 26510.57
1068.261, 26734.15
1069.362, 26910.67
1070.462, 27042.43
1071.562, 26995.83
1072.662, 27179.54
1073.762, 27270.96
1074.862, 27512.00
1075.961, 27556.00
1077.061, 27631.11
1078.160, 27715.00
1079.259, 27927.00
1080.358, 28121.00
1081.456, 28470.00
1082.555, 28957.31
1083.653, 29414.25
1084.751, 30137.00
1085.850, 30713.00
1086.947, 31363.00
1088.045, 32344.00
1089.143, 33243.00
1090.240, 34207.00
1091.338, 35376.00
1092.435, 35931.00
1093.532, 36669.00
1094.628, 37477.00
1095.725, 37882.00
1096.822, 37982.00
1097.918, 37989.00
1099.014, 37853.00
1100.110, 37770.00
1101.206, 37555.00
1102.302, 37600.00
1103.397, 37721.00
1104.493, 38357.00
1105.588, 38619.00
1106.683, 39042.00
1107.778, 39604.00
1108.873, 39754.00
1109.967, 39212.00
1111.062, 37992.00
1112.156, 36812.00
1113.250, 34403.00
1114.344, 32148.00
1115.438, 29698.00
1116.531, 27838.00
1117.625, 26365.00
1118.718, 25573.00
1119.811, 25188.00
1120.904, 24886.00
1121.997, 24563.00
1123.090, 24485.00
1124.183, 24438.00
1125.275, 24293.00
1126.367, 24468.00
1127.459, 24323.00
1128.551, 24355.00
1129.643, 24241.00
1130.735, 24320.00
1131.826, 24192.00
1132.917, 24234.00
1134.008, 24283.00
1135.099, 24237.00
1136.190, 24270.00
1137.281, 24156.00
1138.371, 24281.00
1139.462, 24064.00
1140.552, 24455.00
1141.642, 24175.00
1142.732, 24253.00
1143.821, 24170.00
1144.911, 24127.00
1146.000, 24234.00
1147.090, 24141.00
1148.179, 24251.00
1149.268, 24297.00
1150.356, 24301.00
1151.445, 24287.00
1152.533, 24327.00
1153.622, 24372.18
1154.710, 24399.00
1155.798, 24487.00
1156.886, 24556.00
1157.973, 24574.00
1159.061, 24765.00
1160.148, 24585.00
1161.235, 24826.00
1162.322, 24705.00
1163.409, 24714.00
1164.496, 24890.00
1165.583, 24795.00
1166.669, 24860.00
1167.755, 24965.00
1168.841, 24981.00
1169.927, 25014.00
1171.013, 24968.00
1172.099, 25032.00
1173.184, 25174.00
1174.269, 25176.00
1175.355, 25260.90
1176.440, 25245.00
1177.524, 25341.00
1178.609, 25388.00
1179.694, 25377.00
1180.778, 25515.00
1181.862, 25552.00
1182.946, 25671.00
1184.030, 25781.18
1185.114, 25786.00
1186.197, 25946.00
1187.281, 26050.00
1188.364, 25987.00
1189.447, 26004.00
1190.530, 26130.00
1191.613, 26172.00
1192.696, 26363.00
1193.778, 26334.00
1194.860, 26368.00
1195.943, 26350.00
1197.025, 26659.00
1198.107, 26357.00
1199.188, 26601.00
1200.270, 26682.00
1201.351, 26413.00
1202.432, 26256.00
1203.514, 26258.00
1204.594, 26353.00
1205.675, 26184.00
1206.756, 26231.00
1207.836, 25922.00
1208.917, 26224.00
1209.997, 25843.00
1211.077, 25885.00
1212.157, 26074.00
1213.236, 25864.00
1214.316, 25891.00
1215.395, 25870.00
1216.474, 25770.00
1217.553, 25771.00
1218.632, 25778.00
1219.711, 25730.45
1220.790, 25755.15
1221.868, 25695.00
1222.946, 25788.00
1224.024, 25779.97
1225.102, 25827.73
1226.180, 25783.00
1227.258, 25795.00
1228.335, 25830.00
1229.413, 25665.00
1230.490, 25832.00
1231.567, 25583.00
1232.644, 25875.00
1233.720, 25615.00
1234.797, 25884.00
1235.873, 25730.00
1236.950, 25946.00
1238.026, 25855.00
1239.102, 25954.00
1240.177, 25973.00
1241.253, 25965.00
1242.328, 25711.00
1243.404, 25930.00
1244.479, 25816.00
1245.554, 26271.00
1246.629, 26000.00
1247.703, 26052.00
1248.778, 26221.00
1249.852, 26059.00
1250.926, 26197.00
1252.001, 26164.00
1253.074, 26175.00
1254.148, 26360.00
1255.222, 26182.00
1256.295, 26576.00
1257.369, 26243.00
1258.442, 26417.00
1259.515, 26520.00
1260.587, 26418.00
1261.660, 26405.00
1262.733, 26455.00
1263.805, 26477.00
1264.877, 26330.00
1265.949, 26446.80
1267.021, 26449.00
1268.093, 26555.00
1269.164, 26648.00
