##NAMES=Marialite
##RRUFFID=R060458
##IDEAL CHEMISTRY=Na_4_Al_3_Si_9_O_24_Cl
##LOCALITY=Dading, Nepal
##OWNER=RRUFF
##SOURCE=Michael Scott
##DESCRIPTION=Colorless elongated prism
##STATUS=The identification of this mineral has been confirmed by X-ray diffraction and chemical analysis
##URL=rruff.info/R060458
##MEASURED CHEMISTRY=(Na_0.52_Ca_0.47_K_0.01_)_4_(Al_0.36_Si_0.64_)_12_O_24_(Cl_0.44_(CO_3_)_0.56_)
##PIN_ID=L00702
##ORIENTATION=Laser parallel to c* (0 0 1). Fiducial mark perpendicular to laser is parallel to a [1 0 0]
89.57500, 24545.00
90.81200, 24931.00
92.04900, 25205.00
93.28600, 25480.00
94.52300, 26117.00
95.75900, 26443.00
96.99500, 27165.00
98.23100, 27965.00
99.46700, 29287.00
100.7030, 30429.00
101.9390, 31703.00
103.1740, 33224.00
104.4090, 34779.00
105.6440, 36654.00
106.8790, 38376.00
108.1140, 39335.00
109.3490, 40211.00
110.5830, 41015.00
111.8180, 40972.00
113.0520, 40316.00
114.2860, 39225.00
115.5200, 38004.00
116.7530, 36607.00
117.9870, 35241.00
119.2200, 35062.00
120.4530, 35274.00
121.6860, 34766.00
122.9190, 33871.00
124.1520, 32877.00
125.3850, 32293.00
126.6170, 32504.00
127.8490, 32058.00
129.0810, 32429.00
130.3130, 32516.00
131.5450, 32819.00
132.7770, 33191.00
134.0080, 33318.00
135.2390, 33554.00
136.4710, 33854.00
137.7020, 34062.00
138.9320, 34511.00
140.1630, 34988.00
141.3930, 35728.00
142.6240, 36761.00
143.8540, 37559.00
145.0840, 38991.00
146.3140, 40550.00
147.5440, 42404.00
148.7730, 44146.00
150.0020, 46219.00
151.2320, 48309.00
152.4610, 51409.00
153.6900, 54016.00
154.9180, 56413.00
156.1470, 58945.00
157.3750, 60989.00
158.6040, 63046.00
159.8320, 64349.00
161.0600, 65309.00
162.2870, 65432.00
163.5150, 64646.00
164.7420, 63387.00
165.9700, 61850.00
167.1970, 59605.00
168.4240, 57386.00
169.6510, 55030.00
170.8770, 52429.00
172.1040, 49966.00
173.3300, 47914.00
174.5560, 45980.98
175.7820, 44334.00
177.0080, 42977.00
178.2340, 41780.00
179.4590, 41028.00
180.6850, 40855.00
181.9100, 40295.00
183.1350, 39867.00
184.3600, 40159.00
185.5850, 40055.00
186.8090, 40353.00
188.0340, 40664.00
189.2580, 40755.00
190.4820, 40675.00
191.7060, 40606.07
192.9300, 40355.49
194.1530, 40148.00
195.3770, 39686.00
196.6000, 39423.00
197.8230, 39052.00
199.0460, 38255.00
200.2690, 37909.00
201.4910, 37459.00
202.7140, 36801.00
203.9360, 36624.00
205.1580, 36089.00
206.3800, 36160.00
207.6020, 35808.00
208.8240, 35345.00
210.0450, 34939.00
211.2670, 34881.00
212.4880, 34360.00
213.7090, 34115.00
214.9300, 33706.00
216.1510, 33523.05
217.3710, 33456.00
218.5920, 33218.00
219.8120, 33146.00
221.0320, 32962.00
222.2520, 33335.00
223.4720, 33280.00
224.6910, 33378.00
225.9110, 33056.00
227.1300, 33118.00
228.3490, 32732.00
229.5680, 32223.00
230.7870, 31876.00
232.0050, 31385.29
233.2240, 30906.00
234.4420, 30404.00
235.6600, 29834.00
236.8780, 29244.00
238.0960, 28718.00
239.3140, 28511.00
240.5310, 28168.00
241.7490, 27947.00
242.9660, 28079.00
244.1830, 27951.00
245.4000, 27788.00
246.6160, 28037.00
247.8330, 28372.00
249.0490, 28505.00
250.2660, 29207.00
251.4820, 30067.00
252.6980, 30533.00
253.9130, 31546.00
255.1290, 32568.00
256.3440, 33441.00
257.5600, 34315.00
258.7750, 35077.00
259.9900, 35602.00
261.2040, 35776.80
262.4190, 35648.23
263.6330, 35274.00
264.8480, 34455.00
266.0620, 33165.00
267.2760, 31738.00
268.4900, 30125.00
269.7030, 28769.00
270.9170, 27844.00
272.1300, 26846.00
273.3430, 26121.00
274.5560, 25467.00
275.7690, 25316.00
276.9820, 25036.00
278.1940, 25283.00
279.4070, 25209.00
280.6190, 25602.00
281.8310, 26042.00
283.0430, 26316.00
284.2550, 26949.00
285.4660, 27446.00
286.6770, 28183.00
287.8890, 29073.00
289.1000, 29512.00
290.3110, 29886.00
291.5210, 30090.00
292.7320, 30171.00
293.9420, 30132.00
295.1530, 29751.78
296.3630, 29225.00
297.5730, 28457.00
298.7830, 27280.00
299.9920, 26049.00
301.2020, 25048.00
302.4110, 23741.00
303.6200, 23133.00
304.8290, 22379.00
306.0380, 21862.00
307.2470, 21587.00
308.4550, 21184.00
309.6630, 20989.00
310.8720, 20839.00
312.0800, 20629.00
313.2880, 20598.00
314.4950, 20633.00
315.7030, 20887.00
316.9100, 20925.00
318.1170, 21034.00
319.3240, 21255.00
320.5310, 21399.00
321.7380, 21374.00
322.9450, 21723.00
324.1510, 22029.00
325.3570, 22031.00
326.5630, 22531.00
327.7690, 22759.00
328.9750, 23111.00
330.1810, 23623.00
331.3860, 23785.00
332.5910, 24386.00
333.7960, 24844.00
335.0010, 25253.00
336.2060, 25421.00
337.4110, 25485.00
338.6150, 25494.77
339.8200, 25186.00
341.0240, 25090.00
342.2280, 24752.00
343.4320, 24218.00
344.6350, 23975.00
345.8390, 23741.00
347.0420, 23721.00
348.2450, 23720.00
349.4480, 23740.00
350.6510, 23958.00
351.8540, 24211.00
353.0560, 24968.00
354.2590, 25428.00
355.4610, 26162.00
356.6630, 26887.00
357.8650, 27499.00
359.0670, 28355.00
360.2680, 28679.00
361.4700, 28784.00
362.6710, 28472.00
363.8720, 27748.00
365.0730, 27111.00
366.2740, 26509.00
367.4740, 25749.38
368.6750, 25136.24
369.8750, 24507.00
371.0750, 23923.00
372.2750, 23794.00
373.4750, 23466.00
374.6740, 23734.00
375.8740, 23588.00
377.0730, 23444.00
378.2720, 23528.00
379.4710, 23496.00
380.6700, 23368.00
381.8690, 23328.00
383.0670, 23109.00
384.2660, 23204.00
385.4640, 23316.00
386.6620, 23009.00
387.8600, 22931.00
389.0570, 22904.00
390.2550, 22772.00
391.4520, 22603.00
392.6490, 22574.00
393.8460, 22511.00
395.0430, 22463.00
396.2400, 22601.00
397.4370, 22346.00
398.6330, 22584.00
399.8290, 22435.00
401.0250, 22540.00
402.2210, 22436.00
403.4170, 22605.00
404.6130, 22637.00
405.8080, 22804.00
407.0030, 22892.00
408.1980, 23203.00
409.3930, 23486.00
410.5880, 23619.00
411.7830, 24237.00
412.9770, 24479.00
414.1720, 24937.00
415.3660, 25347.00
416.5600, 25992.00
417.7530, 26612.00
418.9470, 27186.00
420.1410, 27590.00
421.3340, 27826.00
422.5270, 28120.00
423.7200, 27980.00
424.9130, 27984.00
426.1060, 27993.00
427.2980, 27964.00
428.4900, 28330.00
429.6830, 28433.00
430.8750, 28889.00
432.0670, 29410.00
433.2580, 29724.00
434.4500, 30566.00
435.6410, 31687.00
436.8320, 33176.00
438.0240, 34469.00
439.2140, 36497.00
440.4050, 38867.00
441.5960, 41740.00
442.7860, 45304.00
443.9760, 48809.00
445.1670, 53602.00
446.3560, 59056.00
447.5460, 64685.00
448.7360, 71401.00
449.9250, 78974.00
451.1150, 86488.00
452.3040, 94507.00
453.4930, 100002.0
454.6810, 103510.0
455.8700, 105094.0
457.0590, 105345.0
458.2470, 105737.0
459.4350, 105368.0
460.6230, 103438.0
461.8110, 100593.0
462.9980, 96042.00
464.1860, 90595.00
465.3730, 83672.00
466.5600, 76514.00
467.7470, 69403.00
468.9340, 62984.00
470.1210, 57443.00
471.3080, 52096.00
472.4940, 48087.00
473.6800, 44733.00
474.8660, 41711.00
476.0520, 39066.00
477.2380, 37128.00
478.4230, 35704.00
479.6090, 34118.00
480.7940, 32930.00
481.9790, 32237.00
483.1640, 31117.00
484.3490, 30417.00
485.5330, 29863.00
486.7180, 29449.00
487.9020, 28796.00
489.0860, 28474.00
490.2700, 28160.00
491.4540, 28037.00
492.6370, 27574.00
493.8210, 27172.00
495.0040, 26784.00
496.1870, 26873.00
497.3700, 26759.00
498.5530, 26611.00
499.7360, 26472.00
500.9180, 26384.98
502.1000, 26271.27
503.2830, 26222.00
504.4650, 26083.00
505.6460, 26022.00
506.8280, 25905.00
508.0100, 25993.00
509.1910, 26171.00
510.3720, 26006.00
511.5530, 25969.00
512.7340, 26540.00
513.9150, 26486.00
515.0950, 26695.00
516.2760, 27277.00
517.4560, 27417.00
518.6360, 27933.00
519.8160, 28757.00
520.9950, 29323.00
522.1750, 30064.00
523.3540, 31270.00
524.5340, 32581.29
525.7130, 34264.69
526.8920, 36213.00
528.0700, 38410.00
529.2490, 41140.00
530.4270, 43857.00
531.6060, 47012.00
532.7840, 49834.00
533.9620, 52180.00
535.1390, 53140.00
536.3170, 52734.00
537.4940, 50705.00
538.6720, 48238.00
539.8490, 45536.00
541.0260, 42358.00
542.2030, 39865.00
543.3790, 37463.00
544.5560, 35974.00
545.7320, 34242.00
546.9080, 32952.00
548.0840, 31761.00
549.2600, 31090.00
550.4360, 30438.00
551.6110, 29687.00
552.7860, 29485.00
553.9620, 29280.00
555.1370, 28890.00
556.3110, 28881.00
557.4860, 28425.00
558.6610, 28342.00
559.8350, 28434.00
561.0090, 28104.00
562.1830, 28116.00
563.3570, 28315.00
564.5310, 28208.67
565.7040, 28171.42
566.8780, 28296.00
568.0510, 28114.00
569.2240, 28059.00
570.3970, 28417.00
571.5700, 28641.00
572.7420, 29072.00
573.9150, 28397.00
575.0870, 28385.00
576.2590, 28504.00
577.4310, 28406.00
578.6030, 28503.00
579.7740, 28455.00
580.9460, 28715.00
582.1170, 29004.00
583.2880, 28797.00
584.4590, 29016.00
585.6300, 28745.00
586.8010, 29011.00
587.9710, 28989.00
589.1410, 29162.00
590.3110, 29008.00
591.4810, 29146.00
592.6510, 29095.00
593.8210, 29288.00
594.9900, 29529.00
596.1600, 29426.00
597.3290, 29774.00
598.4980, 29748.00
599.6670, 30016.00
600.8350, 30307.00
602.0040, 30486.00
603.1720, 30711.00
604.3400, 31019.00
605.5080, 31449.00
606.6760, 31759.00
607.8440, 31664.00
609.0120, 31988.00
610.1790, 31968.00
611.3460, 32225.00
612.5130, 31847.00
613.6800, 31953.00
614.8470, 31477.00
616.0130, 31467.00
617.1800, 31198.00
618.3460, 31139.00
619.5120, 30827.00
620.6780, 30903.00
621.8440, 30876.00
623.0090, 30694.00
624.1750, 30942.00
625.3400, 30995.00
626.5050, 30907.00
627.6700, 30865.00
628.8350, 30958.00
629.9990, 31049.00
631.1640, 30919.00
632.3280, 31051.00
633.4920, 31091.00
634.6560, 31114.00
635.8200, 31153.00
636.9840, 31202.00
638.1470, 31278.00
639.3100, 31387.00
640.4730, 31563.00
641.6360, 31783.00
642.7990, 31721.00
643.9620, 31850.00
645.1240, 32084.00
646.2870, 32222.00
647.4490, 32223.00
648.6110, 32369.00
649.7730, 32371.00
650.9340, 32504.00
652.0960, 32701.00
653.2570, 32682.00
654.4180, 32853.00
655.5790, 32923.00
656.7400, 32849.00
657.9010, 32908.00
659.0620, 32972.37
660.2220, 33060.00
661.3820, 33180.00
662.5420, 33291.14
663.7020, 33486.00
664.8620, 33501.00
666.0210, 33632.00
667.1810, 33735.00
668.3400, 33654.00
669.4990, 33709.00
670.6580, 33908.00
671.8170, 34006.00
672.9750, 34570.00
674.1340, 34749.00
675.2920, 35261.00
676.4500, 35709.00
677.6080, 35647.00
678.7660, 35592.00
679.9230, 35443.00
681.0810, 35164.00
682.2380, 35170.00
683.3950, 34642.00
684.5520, 34906.00
685.7090, 34519.00
686.8660, 34425.00
688.0220, 34723.00
689.1780, 34529.00
690.3340, 34559.00
691.4900, 34665.00
692.6460, 34624.00
693.8020, 34746.79
694.9570, 34942.00
696.1130, 35026.00
697.2680, 35087.00
698.4230, 35411.00
699.5780, 35171.00
700.7320, 35431.00
701.8870, 35541.00
703.0410, 35964.00
704.1950, 35674.00
705.3490, 35965.00
706.5030, 36219.00
707.6570, 36282.00
708.8110, 36700.00
709.9640, 36256.00
711.1170, 36776.00
712.2700, 36717.00
713.4230, 36962.00
714.5760, 37081.00
715.7280, 37014.00
716.8810, 36895.00
718.0330, 37517.00
719.1850, 37566.00
720.3370, 37451.00
721.4890, 37703.00
722.6400, 37548.00
723.7920, 37782.00
724.9430, 37930.00
726.0940, 38021.00
727.2450, 38287.00
728.3960, 38429.00
729.5460, 38590.00
730.6970, 38628.00
731.8470, 38928.00
732.9970, 38693.00
734.1470, 38882.00
735.2970, 39128.00
736.4460, 39439.00
737.5960, 39181.00
738.7450, 39472.00
739.8940, 39650.00
741.0430, 39456.00
742.1920, 39590.00
743.3410, 39964.00
744.4890, 40072.00
745.6370, 40418.81
746.7850, 40538.00
747.9330, 40970.00
749.0810, 41174.00
750.2290, 41228.00
751.3760, 41844.00
752.5240, 41849.00
753.6710, 42489.00
754.8180, 42353.00
755.9650, 42940.00
757.1110, 43019.00
758.2580, 43789.00
759.4040, 44628.00
760.5510, 45165.00
761.6970, 45650.00
762.8420, 46572.00
763.9880, 47705.00
765.1340, 48214.00
766.2790, 48967.00
767.4240, 49996.00
768.5690, 50630.00
769.7140, 50922.38
770.8590, 51232.00
772.0030, 50982.00
773.1480, 50943.00
774.2920, 50464.00
775.4360, 49732.00
776.5800, 48740.00
777.7240, 47502.00
778.8670, 46833.00
780.0110, 45843.00
781.1540, 45246.00
782.2970, 44173.00
783.4400, 43651.00
784.5830, 43415.00
785.7250, 42870.00
786.8680, 43024.00
788.0100, 42674.00
789.1520, 42706.00
790.2940, 42985.00
791.4360, 42541.00
792.5780, 42998.00
793.7190, 43004.00
794.8600, 43245.00
796.0010, 43302.00
797.1420, 43510.00
798.2830, 43770.00
799.4240, 44061.00
800.5640, 44212.00
801.7050, 44730.00
802.8450, 45074.00
803.9850, 45353.00
805.1250, 45566.00
806.2640, 45455.00
807.4040, 45287.00
808.5430, 45150.00
809.6820, 44923.00
810.8210, 44757.64
811.9600, 44670.00
813.0990, 44451.00
814.2370, 44094.00
815.3760, 44092.00
816.5140, 44056.00
817.6520, 44138.00
818.7900, 44133.54
819.9270, 43992.00
821.0650, 44325.00
822.2020, 44379.00
823.3390, 44750.00
824.4760, 44491.00
825.6130, 44102.00
826.7500, 44518.00
827.8870, 44740.00
829.0230, 44995.00
830.1590, 44905.00
831.2950, 45222.00
832.4310, 45110.00
833.5670, 45253.23
834.7030, 45387.00
835.8380, 45367.00
836.9730, 45263.00
838.1080, 45126.00
839.2430, 45858.00
840.3780, 45760.00
841.5130, 46420.00
842.6470, 46081.00
843.7810, 45767.00
844.9150, 46075.00
846.0490, 46073.00
847.1830, 46167.00
848.3170, 46173.00
849.4500, 46477.00
850.5830, 46745.00
851.7160, 47027.00
852.8490, 46975.00
853.9820, 46868.00
855.1150, 47187.00
856.2470, 47184.00
857.3800, 47516.00
858.5120, 47905.00
859.6440, 47894.00
860.7760, 47981.00
861.9070, 48109.00
863.0390, 48075.00
864.1700, 48177.00
865.3010, 48306.00
866.4320, 48506.00
867.5630, 48469.00
868.6940, 48666.00
869.8240, 48887.00
870.9540, 48602.00
872.0850, 48853.00
873.2150, 49145.00
874.3450, 48960.00
875.4740, 49260.00
876.6040, 49440.00
877.7330, 49318.00
878.8620, 49928.00
879.9910, 49745.00
881.1200, 50070.00
882.2490, 49916.00
883.3770, 50323.00
884.5060, 50162.00
885.6340, 50262.00
886.7620, 50491.00
887.8900, 50645.00
889.0180, 50934.00
890.1450, 51131.00
891.2730, 51316.14
892.4000, 51457.05
893.5270, 51555.00
894.6540, 51652.00
895.7810, 51492.00
896.9070, 51562.00
898.0340, 51804.00
899.1600, 52016.00
900.2860, 52165.00
901.4120, 52339.00
902.5380, 52433.19
903.6630, 52470.00
904.7890, 52575.00
905.9140, 52756.00
907.0390, 52816.00
908.1640, 53118.00
909.2890, 52965.00
910.4130, 53422.00
911.5380, 53448.00
912.6620, 53347.00
913.7860, 53656.00
914.9100, 53788.00
916.0340, 54117.00
917.1580, 53781.00
918.2810, 53956.00
919.4040, 53957.00
920.5280, 54342.00
921.6510, 54420.49
922.7730, 54585.00
923.8960, 54624.00
925.0180, 54783.00
926.1410, 54581.00
927.2630, 54869.00
928.3850, 55108.00
929.5070, 55538.00
930.6280, 55588.73
931.7500, 55626.00
932.8710, 55686.00
933.9920, 55805.00
935.1130, 55717.00
936.2340, 56079.00
937.3550, 56194.00
938.4760, 56397.00
939.5960, 56287.00
940.7160, 56461.00
941.8360, 56677.00
942.9560, 56997.00
944.0760, 57211.00
945.1950, 57466.00
946.3150, 57574.00
947.4340, 57735.00
948.5530, 57810.00
949.6720, 57783.00
950.7900, 58316.00
951.9090, 58798.00
953.0270, 58622.00
954.1460, 59075.00
955.2640, 58957.00
956.3820, 58702.00
957.4990, 59268.00
958.6170, 59299.00
959.7340, 59666.00
960.8520, 59477.00
961.9690, 60190.00
963.0860, 60063.00
964.2020, 60284.00
965.3190, 60505.00
966.4350, 60607.00
967.5520, 60713.00
968.6680, 60879.00
969.7840, 61089.00
970.8990, 61573.00
972.0150, 61295.00
973.1310, 62034.00
974.2460, 61839.00
975.3610, 62141.00
976.4760, 62421.05
977.5910, 62832.00
978.7050, 62910.00
979.8200, 62587.00
980.9340, 62922.00
982.0480, 63317.00
983.1620, 63203.00
984.2760, 63740.00
985.3900, 63720.00
986.5030, 63878.00
987.6160, 63606.00
988.7300, 64146.00
989.8430, 63872.00
990.9550, 63884.00
992.0680, 64218.00
993.1810, 63944.00
994.2930, 64321.00
995.4050, 64384.00
996.5170, 64424.00
997.6290, 64642.00
998.7410, 64892.00
999.8520, 65096.00
1000.964, 65274.00
1002.075, 65440.06
1003.186, 65803.00
1004.297, 65486.00
1005.407, 65629.00
1006.518, 65167.00
1007.628, 65770.00
1008.738, 65402.00
1009.848, 65648.00
1010.958, 65340.00
1012.068, 65817.00
1013.178, 65612.00
1014.287, 65805.00
1015.396, 65823.00
1016.505, 65738.00
1017.614, 66007.00
1018.723, 66374.00
1019.831, 66462.00
1020.940, 66843.00
1022.048, 67047.00
1023.156, 67418.00
1024.264, 67955.00
1025.372, 68425.00
1026.479, 68327.00
1027.587, 69067.00
1028.694, 69347.00
1029.801, 70077.00
1030.908, 70687.00
1032.015, 70822.00
1033.121, 71495.00
1034.228, 71814.00
1035.334, 71924.00
1036.440, 72586.00
1037.546, 72963.00
1038.652, 73377.00
1039.758, 73647.00
1040.863, 74015.00
1041.968, 74406.00
1043.074, 74363.00
1044.178, 75155.00
1045.283, 74809.00
1046.388, 75170.00
1047.492, 75842.00
1048.597, 75747.00
1049.701, 76371.00
1050.805, 76873.00
1051.909, 77102.00
1053.012, 77278.00
1054.116, 77793.00
1055.219, 78050.00
1056.322, 78658.00
1057.425, 78756.00
1058.528, 79039.00
1059.631, 79839.00
1060.733, 80244.00
1061.836, 80782.00
1062.938, 81365.00
1064.040, 81662.00
1065.142, 82679.00
1066.243, 83044.00
1067.345, 83433.00
1068.446, 84316.00
1069.547, 84580.00
1070.648, 85568.00
1071.749, 85699.00
1072.850, 86173.00
1073.951, 86229.00
1075.051, 86327.00
1076.151, 86400.00
1077.251, 86820.00
1078.351, 87282.00
1079.451, 88379.00
1080.550, 89183.00
1081.650, 90803.00
1082.749, 92471.00
1083.848, 95148.00
1084.947, 96072.00
1086.046, 99231.00
1087.144, 101251.0
1088.243, 104016.0
1089.341, 106890.0
1090.439, 109713.0
1091.537, 111891.0
1092.635, 113836.0
1093.732, 115492.0
1094.830, 116155.0
1095.927, 116158.0
1097.024, 115680.0
1098.121, 114575.0
1099.218, 113543.0
1100.314, 111990.0
1101.411, 111060.0
1102.507, 110049.0
1103.603, 109398.0
1104.699, 109028.0
1105.795, 109149.0
1106.890, 108754.0
1107.986, 108046.0
1109.081, 106605.0
1110.176, 104099.0
1111.271, 100788.0
1112.366, 97235.00
1113.461, 93500.00
1114.555, 91052.00
1115.649, 88680.00
1116.744, 86759.00
1117.838, 85383.00
1118.931, 84751.00
1120.025, 85054.00
1121.119, 84743.00
1122.212, 84628.00
1123.305, 84841.00
1124.398, 84457.00
1125.491, 85164.00
1126.584, 84868.00
1127.676, 84947.00
1128.768, 85153.00
1129.861, 85351.00
1130.953, 85454.00
1132.044, 85345.00
1133.136, 85685.00
1134.228, 85828.00
1135.319, 85658.00
1136.410, 85842.00
1137.501, 85979.00
1138.592, 86316.00
1139.683, 86293.00
1140.773, 86636.00
1141.864, 86639.89
1142.954, 87002.03
1144.044, 87263.28
1145.134, 87429.08
1146.224, 87213.44
1147.313, 87490.20
1148.402, 87569.59
1149.492, 88388.00
1150.581, 87973.00
1151.670, 88229.00
1152.758, 88725.00
1153.847, 88860.00
1154.935, 89112.00
1156.024, 88889.00
1157.112, 89436.00
1158.200, 89628.00
1159.287, 90033.00
1160.375, 90432.00
1161.462, 90433.00
1162.550, 90780.00
1163.637, 90762.00
1164.724, 91127.00
1165.810, 91299.00
1166.897, 91242.00
1167.983, 91935.00
1169.070, 91801.00
1170.156, 91918.00
1171.242, 92290.00
1172.327, 92623.00
1173.413, 92890.00
1174.499, 93286.00
1175.584, 93447.00
1176.669, 93658.00
1177.754, 93877.00
1178.839, 94247.00
1179.923, 94440.00
1181.008, 94740.00
1182.092, 95020.00
1183.176, 95202.00
1184.260, 95665.00
1185.344, 95693.00
1186.428, 96031.00
1187.511, 96654.00
1188.595, 97050.00
1189.678, 97319.00
1190.761, 97688.84
1191.843, 97505.00
1192.926, 98187.00
1194.009, 98345.00
1195.091, 98609.00
1196.173, 99091.00
1197.255, 98745.00
1198.337, 98955.00
1199.419, 99242.00
1200.500, 99617.00
1201.582, 99680.00
1202.663, 99933.00
1203.744, 100026.7
1204.825, 100224.0
1205.905, 100223.0
1206.986, 100205.0
1208.066, 100443.0
1209.146, 100035.0
1210.226, 100297.0
1211.306, 100019.0
1212.386, 100263.0
1213.466, 100507.0
1214.545, 100623.0
1215.624, 101119.0
1216.703, 101224.0
1217.782, 100731.0
1218.861, 101260.0
1219.939, 101391.0
1221.018, 101853.0
1222.096, 101314.0
1223.174, 102129.0
1224.252, 101911.0
1225.330, 102337.0
1226.407, 102076.0
1227.485, 102411.0
1228.562, 102689.0
1229.639, 103165.0
1230.716, 103343.0
1231.793, 103316.0
1232.869, 103372.0
1233.946, 103686.7
1235.022, 104042.0
1236.098, 104292.0
1237.174, 104391.0
1238.250, 104599.0
1239.325, 104403.0
1240.401, 105142.0
1241.476, 105685.0
1242.551, 105592.0
1243.626, 105958.0
1244.701, 105990.0
1245.776, 105701.0
1246.850, 106537.0
1247.924, 106613.0
1248.999, 107160.0
1250.073, 107188.0
1251.146, 107421.0
1252.220, 107519.0
1253.293, 107848.0
1254.367, 108427.0
1255.440, 108484.0
1256.513, 108879.0
1257.586, 108730.0
1258.658, 109004.0
1259.731, 109563.0
1260.803, 109631.5
1261.875, 110322.0
1262.947, 110287.0
1264.019, 110499.0
1265.091, 110986.0
1266.162, 110378.0
1267.234, 111786.0
1268.305, 111289.0
1269.376, 111851.0
1270.447, 112139.0
