##NAMES=Marialite
##RRUFFID=R060297
##IDEAL CHEMISTRY=Na_4_Al_3_Si_9_O_24_Cl
##LOCALITY=Morogoro District, Marasi, Tanzania
##OWNER=RRUFF
##SOURCE=Herb Obodda
##DESCRIPTION=Pale yellow crystal fragment
##STATUS=The identification of this mineral has been confirmed by X-ray diffraction and chemical analysis
##URL=rruff.info/R060297
##MEASURED CHEMISTRY=(Na_0.66_Ca_0.29_K_0.06_)_4_(Si_0.68_Al_0.32_)_12_O_24_(Cl_0.70_(CO_3_)_0.30_)
##PIN_ID=L01156
##ORIENTATION=Laser parallel to a* (1 0 0). Fiducial mark perpendicular to laser is parallel to c [0 0 1]
88.33800, 26630.00
89.57500, 27489.00
90.81200, 29031.00
92.04900, 28697.00
93.28600, 28973.00
94.52300, 29530.00
95.75900, 30161.00
96.99500, 30658.00
98.23100, 31155.00
99.46700, 31423.00
100.7030, 31902.00
101.9390, 31790.00
103.1740, 32152.00
104.4090, 32350.00
105.6440, 32779.00
106.8790, 33052.00
108.1140, 33170.00
109.3490, 33424.00
110.5830, 33578.00
111.8180, 33750.00
113.0520, 34000.00
114.2860, 34225.00
115.5200, 34583.00
116.7530, 35068.00
117.9870, 35076.00
119.2200, 35342.00
120.4530, 35898.00
121.6860, 36549.00
122.9190, 37499.00
124.1520, 37863.00
125.3850, 38008.00
126.6170, 38708.00
127.8490, 39006.00
129.0810, 39073.00
130.3130, 39256.00
131.5450, 38813.00
132.7770, 38469.00
134.0080, 37971.00
135.2390, 37436.00
136.4710, 37333.00
137.7020, 36594.00
138.9320, 36147.00
140.1630, 35829.00
141.3930, 35703.00
142.6240, 35548.05
143.8540, 35633.00
145.0840, 35689.00
146.3140, 36083.00
147.5440, 36577.00
148.7730, 37015.00
150.0020, 37598.00
151.2320, 38835.00
152.4610, 39726.00
153.6900, 40778.00
154.9180, 42227.00
156.1470, 43279.00
157.3750, 44806.00
158.6040, 45726.00
159.8320, 46686.00
161.0600, 47139.00
162.2870, 47392.00
163.5150, 47306.00
164.7420, 46325.00
165.9700, 45235.00
167.1970, 44229.00
168.4240, 42675.00
169.6510, 40829.00
170.8770, 40053.00
172.1040, 38750.00
173.3300, 36529.00
174.5560, 35450.00
175.7820, 34717.00
177.0080, 33980.00
178.2340, 33366.00
179.4590, 32987.71
180.6850, 33026.00
181.9100, 32589.00
183.1350, 32546.00
184.3600, 32750.00
185.5850, 32798.00
186.8090, 33114.00
188.0340, 32939.00
189.2580, 33290.00
190.4820, 33140.00
191.7060, 32974.00
192.9300, 32859.00
194.1530, 32700.00
195.3770, 32326.00
196.6000, 31743.00
197.8230, 31425.00
199.0460, 31128.00
200.2690, 30860.00
201.4910, 30470.91
202.7140, 29990.00
203.9360, 29715.00
205.1580, 29407.00
206.3800, 29057.00
207.6020, 29069.00
208.8240, 28864.00
210.0450, 28785.00
211.2670, 28817.00
212.4880, 28787.00
213.7090, 28973.00
214.9300, 29208.00
216.1510, 29275.00
217.3710, 29630.00
218.5920, 29492.00
219.8120, 29788.00
221.0320, 30026.00
222.2520, 29814.00
223.4720, 30351.00
224.6910, 30108.00
225.9110, 30085.00
227.1300, 30012.00
228.3490, 29854.00
229.5680, 29433.00
230.7870, 29220.00
232.0050, 28935.00
233.2240, 28417.00
234.4420, 28057.00
235.6600, 27843.00
236.8780, 27423.00
238.0960, 27068.00
239.3140, 27152.00
240.5310, 26786.00
241.7490, 26904.00
242.9660, 26662.00
244.1830, 26881.00
245.4000, 26810.00
246.6160, 27127.00
247.8330, 27770.00
249.0490, 28199.00
250.2660, 28996.40
251.4820, 29585.00
252.6980, 30778.00
253.9130, 31970.00
255.1290, 33080.00
256.3440, 34915.00
257.5600, 36606.00
258.7750, 38316.00
259.9900, 40425.00
261.2040, 41947.00
262.4190, 43049.00
263.6330, 43387.00
264.8480, 43218.00
266.0620, 42119.00
267.2760, 40277.00
268.4900, 38505.00
269.7030, 36309.00
270.9170, 34199.00
272.1300, 32568.00
273.3430, 31122.00
274.5560, 29957.00
275.7690, 28883.00
276.9820, 28268.00
278.1940, 27925.00
279.4070, 27529.00
280.6190, 27401.00
281.8310, 27504.00
283.0430, 27698.00
284.2550, 28426.00
285.4660, 28753.00
286.6770, 29046.00
287.8890, 29733.00
289.1000, 30044.00
290.3110, 30404.00
291.5210, 30427.00
292.7320, 30535.00
293.9420, 30924.00
295.1530, 31668.00
296.3630, 32347.00
297.5730, 32975.00
298.7830, 32810.00
299.9920, 31289.00
301.2020, 29991.00
302.4110, 28968.00
303.6200, 27582.00
304.8290, 26444.00
306.0380, 25454.00
307.2470, 24711.00
308.4550, 24541.00
309.6630, 23837.00
310.8720, 23857.00
312.0800, 23666.00
313.2880, 23575.00
314.4950, 23601.00
315.7030, 23833.00
316.9100, 23881.99
318.1170, 23911.28
319.3240, 24175.00
320.5310, 23985.00
321.7380, 24013.00
322.9450, 24190.00
324.1510, 24649.00
325.3570, 24768.00
326.5630, 25063.00
327.7690, 25316.00
328.9750, 25511.00
330.1810, 25648.00
331.3860, 25882.00
332.5910, 26473.00
333.7960, 26702.00
335.0010, 26903.00
336.2060, 27012.00
337.4110, 26822.00
338.6150, 26548.00
339.8200, 26471.00
341.0240, 26378.00
342.2280, 26395.00
343.4320, 26274.00
344.6350, 26285.00
345.8390, 26244.00
347.0420, 26428.00
348.2450, 26888.00
349.4480, 27143.00
350.6510, 27503.00
351.8540, 27826.00
353.0560, 28202.00
354.2590, 29111.00
355.4610, 29989.00
356.6630, 30589.00
357.8650, 31459.00
359.0670, 32239.00
360.2680, 32231.00
361.4700, 32418.00
362.6710, 31910.00
363.8720, 30967.00
365.0730, 30127.00
366.2740, 29106.00
367.4740, 28772.00
368.6750, 28568.00
369.8750, 27513.00
371.0750, 27507.00
372.2750, 27597.00
373.4750, 27734.00
374.6740, 27737.00
375.8740, 27712.00
377.0730, 27611.00
378.2720, 27854.00
379.4710, 27604.00
380.6700, 27524.00
381.8690, 27490.00
383.0670, 27190.00
384.2660, 26946.00
385.4640, 26784.00
386.6620, 26384.00
387.8600, 26368.00
389.0570, 26078.00
390.2550, 25959.00
391.4520, 25679.00
392.6490, 25519.00
393.8460, 25353.00
395.0430, 25332.00
396.2400, 25031.00
397.4370, 25149.00
398.6330, 25292.00
399.8290, 25117.00
401.0250, 25159.00
402.2210, 25420.00
403.4170, 25515.00
404.6130, 25772.00
405.8080, 26163.00
407.0030, 26207.00
408.1980, 26784.00
409.3930, 27546.00
410.5880, 28546.00
411.7830, 28378.00
412.9770, 29278.00
414.1720, 29969.00
415.3660, 30700.00
416.5600, 31516.00
417.7530, 32364.00
418.9470, 32679.00
420.1410, 33104.00
421.3340, 32662.00
422.5270, 32306.00
423.7200, 31574.00
424.9130, 30975.00
426.1060, 31062.00
427.2980, 30671.00
428.4900, 30092.00
429.6830, 29815.00
430.8750, 29279.00
432.0670, 29545.00
433.2580, 29717.00
434.4500, 30115.00
435.6410, 30878.00
436.8320, 31684.00
438.0240, 32556.00
439.2140, 33376.00
440.4050, 34428.00
441.5960, 35583.00
442.7860, 36865.00
443.9760, 38645.00
445.1670, 40737.00
446.3560, 43324.00
447.5460, 46664.00
448.7360, 51079.00
449.9250, 55825.00
451.1150, 62080.00
452.3040, 68145.00
453.4930, 73224.00
454.6810, 77231.00
455.8700, 80197.00
457.0590, 81833.00
458.2470, 82409.00
459.4350, 82768.00
460.6230, 81160.00
461.8110, 78680.00
462.9980, 74891.00
464.1860, 70560.00
465.3730, 65395.00
466.5600, 60693.00
467.7470, 56432.00
468.9340, 52298.00
470.1210, 48840.00
471.3080, 45602.00
472.4940, 42830.31
473.6800, 40428.00
474.8660, 38511.00
476.0520, 36966.00
477.2380, 35812.00
478.4230, 34234.00
479.6090, 33531.00
480.7940, 32630.00
481.9790, 31833.00
483.1640, 31257.00
484.3490, 30699.00
485.5330, 30061.00
486.7180, 29743.00
487.9020, 29346.00
489.0860, 28833.00
490.2700, 28945.00
491.4540, 28525.00
492.6370, 28622.00
493.8210, 28277.00
495.0040, 28446.00
496.1870, 28200.00
497.3700, 28061.00
498.5530, 28048.00
499.7360, 28178.00
500.9180, 28017.00
502.1000, 27912.00
503.2830, 27915.00
504.4650, 27833.00
505.6460, 27856.89
506.8280, 27841.00
508.0100, 27920.00
509.1910, 28011.00
510.3720, 28049.61
511.5530, 28022.00
512.7340, 28293.00
513.9150, 28429.00
515.0950, 28609.00
516.2760, 28924.00
517.4560, 28897.00
518.6360, 29587.00
519.8160, 30013.00
520.9950, 30462.00
522.1750, 31333.00
523.3540, 32149.07
524.5340, 33063.00
525.7130, 34615.00
526.8920, 36107.00
528.0700, 38264.00
529.2490, 40856.00
530.4270, 43585.00
531.6060, 47359.00
532.7840, 51889.00
533.9620, 55887.00
535.1390, 60344.00
536.3170, 62611.00
537.4940, 63379.00
538.6720, 61845.00
539.8490, 58489.00
541.0260, 54788.00
542.2030, 50734.00
543.3790, 47023.00
544.5560, 43420.00
545.7320, 40966.00
546.9080, 38616.87
548.0840, 37069.00
549.2600, 35376.00
550.4360, 34577.00
551.6110, 33501.00
552.7860, 32890.00
553.9620, 32567.00
555.1370, 31981.00
556.3110, 31946.00
557.4860, 31383.00
558.6610, 31319.00
559.8350, 31056.00
561.0090, 30867.00
562.1830, 30732.00
563.3570, 30699.00
564.5310, 30731.00
565.7040, 30783.00
566.8780, 30646.00
568.0510, 30547.00
569.2240, 30589.00
570.3970, 30710.00
571.5700, 30645.00
572.7420, 30681.00
573.9150, 30506.00
575.0870, 30747.00
576.2590, 30610.00
577.4310, 30879.00
578.6030, 30815.00
579.7740, 31157.00
580.9460, 31020.00
582.1170, 30812.00
583.2880, 30834.00
584.4590, 31049.00
585.6300, 31102.00
586.8010, 31213.72
587.9710, 31355.00
589.1410, 31382.00
590.3110, 31495.00
591.4810, 31499.00
592.6510, 31587.00
593.8210, 31764.00
594.9900, 31652.00
596.1600, 32018.00
597.3290, 32114.00
598.4980, 32109.00
599.6670, 32516.00
600.8350, 32876.00
602.0040, 32913.00
603.1720, 32966.00
604.3400, 33083.00
605.5080, 33069.00
606.6760, 32742.00
607.8440, 33053.00
609.0120, 32785.00
610.1790, 33024.00
611.3460, 32724.00
612.5130, 32967.00
613.6800, 32866.00
614.8470, 32741.00
616.0130, 32744.00
617.1800, 32715.00
618.3460, 32824.00
619.5120, 32845.00
620.6780, 32631.00
621.8440, 32550.00
623.0090, 32672.00
624.1750, 32583.16
625.3400, 32740.00
626.5050, 32664.00
627.6700, 32651.00
628.8350, 32734.00
629.9990, 32826.00
631.1640, 32776.00
632.3280, 32840.00
633.4920, 32846.00
634.6560, 32822.00
635.8200, 32883.00
636.9840, 33093.00
638.1470, 33028.00
639.3100, 33234.00
640.4730, 33124.00
641.6360, 33345.00
642.7990, 33294.00
643.9620, 33208.00
645.1240, 33427.00
646.2870, 33735.00
647.4490, 33822.00
648.6110, 33802.00
649.7730, 33675.00
650.9340, 33689.00
652.0960, 33784.00
653.2570, 34057.00
654.4180, 33923.00
655.5790, 34222.00
656.7400, 34370.00
657.9010, 34133.00
659.0620, 34177.00
660.2220, 34423.00
661.3820, 34843.00
662.5420, 34686.00
663.7020, 34796.00
664.8620, 34921.00
666.0210, 34782.00
667.1810, 34666.00
668.3400, 34562.00
669.4990, 34596.00
670.6580, 34751.00
671.8170, 34497.00
672.9750, 34856.00
674.1340, 34757.00
675.2920, 34843.00
676.4500, 35057.00
677.6080, 34984.00
678.7660, 35127.00
679.9230, 35143.00
681.0810, 35269.00
682.2380, 35057.00
683.3950, 34973.00
684.5520, 35412.00
685.7090, 35219.00
686.8660, 35418.00
688.0220, 35512.00
689.1780, 35516.00
690.3340, 35636.00
691.4900, 35568.00
692.6460, 35632.00
693.8020, 35693.00
694.9570, 35864.00
696.1130, 36020.00
697.2680, 36129.38
698.4230, 36268.00
699.5780, 36420.00
700.7320, 36431.00
701.8870, 36620.00
703.0410, 36838.00
704.1950, 37118.00
705.3490, 37027.00
706.5030, 37203.00
707.6570, 37369.00
708.8110, 37424.00
709.9640, 37537.00
711.1170, 37490.00
712.2700, 37572.00
713.4230, 37738.00
714.5760, 37772.00
715.7280, 37951.00
716.8810, 37901.00
718.0330, 37967.00
719.1850, 37849.00
720.3370, 37794.00
721.4890, 37697.00
722.6400, 37808.00
723.7920, 37765.00
724.9430, 37879.00
726.0940, 37741.00
727.2450, 37895.68
728.3960, 37819.00
729.5460, 38097.00
730.6970, 38223.00
731.8470, 38246.00
732.9970, 38377.00
734.1470, 38248.00
735.2970, 38210.00
736.4460, 38146.00
737.5960, 38250.00
738.7450, 38597.00
739.8940, 38535.00
741.0430, 38881.00
742.1920, 38955.00
743.3410, 39088.00
744.4890, 39087.00
745.6370, 39397.04
746.7850, 39855.00
747.9330, 40121.00
749.0810, 40311.00
750.2290, 40918.00
751.3760, 41141.00
752.5240, 41781.00
753.6710, 42230.00
754.8180, 42866.00
755.9650, 43222.00
757.1110, 44246.00
758.2580, 44808.00
759.4040, 45402.00
760.5510, 46422.00
761.6970, 47435.00
762.8420, 48587.00
763.9880, 50027.00
765.1340, 50765.00
766.2790, 52182.00
767.4240, 53458.00
768.5690, 55439.00
769.7140, 56962.00
770.8590, 57780.00
772.0030, 57960.00
773.1480, 57420.00
774.2920, 57637.00
775.4360, 56162.00
776.5800, 54644.00
777.7240, 53586.00
778.8670, 52110.00
780.0110, 50613.00
781.1540, 49384.00
782.2970, 47833.00
783.4400, 46676.00
784.5830, 45789.00
785.7250, 44993.00
786.8680, 44322.34
788.0100, 43963.00
789.1520, 43385.00
790.2940, 43145.00
791.4360, 42918.00
792.5780, 42756.00
793.7190, 42629.00
794.8600, 42678.00
796.0010, 42677.00
797.1420, 42595.00
798.2830, 42579.00
799.4240, 42565.00
800.5640, 42506.00
801.7050, 42814.00
802.8450, 42679.00
803.9850, 42824.00
805.1250, 43210.00
806.2640, 43593.00
807.4040, 43577.00
808.5430, 43742.00
809.6820, 43746.00
810.8210, 43791.00
811.9600, 43625.00
813.0990, 43653.00
814.2370, 43210.00
815.3760, 42869.00
816.5140, 42901.00
817.6520, 42985.00
818.7900, 43016.00
819.9270, 43107.00
821.0650, 43101.00
822.2020, 43040.00
823.3390, 43275.00
824.4760, 43256.16
825.6130, 43454.00
826.7500, 43425.00
827.8870, 43525.00
829.0230, 43640.00
830.1590, 43790.00
831.2950, 43729.00
832.4310, 43658.00
833.5670, 43890.00
834.7030, 44271.00
835.8380, 44387.00
836.9730, 44392.00
838.1080, 44415.00
839.2430, 44520.00
840.3780, 44486.00
841.5130, 44421.00
842.6470, 44803.00
843.7810, 44580.00
844.9150, 44889.00
846.0490, 45011.00
847.1830, 45022.00
848.3170, 44902.00
849.4500, 45221.00
850.5830, 44942.00
851.7160, 45385.00
852.8490, 45540.00
853.9820, 45351.00
855.1150, 45820.00
856.2470, 45706.00
857.3800, 45793.00
858.5120, 46026.00
859.6440, 46016.00
860.7760, 46121.00
861.9070, 46459.00
863.0390, 46769.00
864.1700, 46541.00
865.3010, 46690.00
866.4320, 46728.00
867.5630, 46883.00
868.6940, 46916.00
869.8240, 47113.00
870.9540, 47188.00
872.0850, 47217.00
873.2150, 47571.00
874.3450, 47345.00
875.4740, 47556.00
876.6040, 47484.00
877.7330, 47370.00
878.8620, 47724.00
879.9910, 47358.00
881.1200, 47453.00
882.2490, 47595.34
883.3770, 47688.00
884.5060, 47695.00
885.6340, 47818.00
886.7620, 47934.47
887.8900, 48078.00
889.0180, 48317.00
890.1450, 48170.00
891.2730, 48536.00
892.4000, 48304.00
893.5270, 48384.00
894.6540, 48852.00
895.7810, 48749.00
896.9070, 48617.00
898.0340, 48948.00
899.1600, 48981.00
900.2860, 49219.00
901.4120, 49396.00
902.5380, 49148.00
903.6630, 49348.00
904.7890, 49660.00
905.9140, 49420.00
907.0390, 49959.00
908.1640, 49945.00
909.2890, 50112.00
910.4130, 49809.00
911.5380, 49956.00
912.6620, 49991.00
913.7860, 50500.00
914.9100, 50161.00
916.0340, 50523.00
917.1580, 50309.00
918.2810, 50375.00
919.4040, 50558.00
920.5280, 50714.00
921.6510, 50615.00
922.7730, 51037.00
923.8960, 51321.00
925.0180, 51079.00
926.1410, 51323.00
927.2630, 51183.00
928.3850, 51261.00
929.5070, 51587.00
930.6280, 51538.00
931.7500, 51654.00
932.8710, 51570.00
933.9920, 51836.00
935.1130, 51708.00
936.2340, 52045.00
937.3550, 52262.00
938.4760, 52325.00
939.5960, 52498.00
940.7160, 52334.00
941.8360, 52350.00
942.9560, 52544.00
944.0760, 52933.00
945.1950, 52986.00
946.3150, 53292.00
947.4340, 53393.00
948.5530, 53571.00
949.6720, 53622.00
950.7900, 53789.00
951.9090, 53862.00
953.0270, 53961.00
954.1460, 53918.00
955.2640, 54137.00
956.3820, 54279.00
957.4990, 54307.95
958.6170, 54508.00
959.7340, 54436.00
960.8520, 54794.00
961.9690, 54884.00
963.0860, 54673.00
964.2020, 54900.00
965.3190, 54852.00
966.4350, 54799.00
967.5520, 54981.00
968.6680, 55019.32
969.7840, 55157.00
970.8990, 55306.00
972.0150, 55486.00
973.1310, 55668.00
974.2460, 56190.00
975.3610, 56138.00
976.4760, 56970.00
977.5910, 56900.00
978.7050, 57228.00
979.8200, 58176.00
980.9340, 58577.00
982.0480, 59442.00
983.1620, 60651.00
984.2760, 61817.00
985.3900, 62855.00
986.5030, 64111.00
987.6160, 65539.00
988.7300, 66947.00
989.8430, 68402.00
990.9550, 70187.00
992.0680, 70758.00
993.1810, 71013.00
994.2930, 70419.00
995.4050, 69468.00
996.5170, 68190.00
997.6290, 66125.00
998.7410, 63826.00
999.8520, 62467.00
1000.964, 61420.00
1002.075, 60522.00
1003.186, 60649.00
1004.297, 60140.00
1005.407, 60146.00
1006.518, 59844.00
1007.628, 59894.00
1008.738, 59503.00
1009.848, 59372.00
1010.958, 59105.00
1012.068, 59053.00
1013.178, 59222.00
1014.287, 59219.00
1015.396, 59111.02
1016.505, 58755.00
1017.614, 58949.00
1018.723, 58892.00
1019.831, 59040.00
1020.940, 59488.00
1022.048, 59363.00
1023.156, 59679.00
1024.264, 59789.00
1025.372, 59961.00
1026.479, 60153.00
1027.587, 60865.00
1028.694, 61108.00
1029.801, 61560.00
1030.908, 61569.00
1032.015, 62085.00
1033.121, 62533.00
1034.228, 62663.00
1035.334, 63116.00
1036.440, 63503.00
1037.546, 63543.00
1038.652, 64173.00
1039.758, 64050.00
1040.863, 64094.00
1041.968, 64558.00
1043.074, 64891.00
1044.178, 64847.00
1045.283, 64973.00
1046.388, 65200.00
1047.492, 65476.00
1048.597, 65538.00
1049.701, 65924.00
1050.805, 66122.00
1051.909, 66594.00
1053.012, 66625.00
1054.116, 66732.00
1055.219, 67283.00
1056.322, 67296.00
1057.425, 67741.00
1058.528, 68107.00
1059.631, 68707.00
1060.733, 69019.87
1061.836, 69407.00
1062.938, 69665.00
1064.040, 70260.00
1065.142, 70414.00
1066.243, 70445.00
1067.345, 70956.00
1068.446, 71758.00
1069.547, 72170.00
1070.648, 72891.00
1071.749, 72608.00
1072.850, 73179.00
1073.951, 73527.00
1075.051, 74035.00
1076.151, 74450.00
1077.251, 74841.00
1078.351, 75254.00
1079.451, 75811.00
1080.550, 75921.00
1081.650, 76108.00
1082.749, 76833.00
1083.848, 77180.00
1084.947, 77449.00
1086.046, 78163.00
1087.144, 78069.00
1088.243, 78797.00
1089.341, 79555.00
1090.439, 79947.00
1091.537, 80627.00
1092.635, 81600.00
1093.732, 82247.00
1094.830, 83023.00
1095.927, 83535.00
1097.024, 83823.00
1098.121, 83900.00
1099.218, 83397.00
1100.314, 82749.00
1101.411, 82322.00
1102.507, 81112.00
1103.603, 80216.00
1104.699, 79824.00
1105.795, 78959.00
1106.890, 78667.00
1107.986, 78335.00
1109.081, 78522.00
1110.176, 79027.00
1111.271, 79919.00
1112.366, 80785.00
1113.461, 80731.00
1114.555, 80536.00
1115.649, 78687.00
1116.744, 76934.00
1117.838, 75392.00
1118.931, 74837.00
1120.025, 74299.00
1121.119, 74172.00
1122.212, 74045.00
1123.305, 74502.00
1124.398, 73741.00
1125.491, 73755.00
1126.584, 74179.00
1127.676, 73909.00
1128.768, 74048.00
1129.861, 74146.90
1130.953, 74130.00
1132.044, 74402.00
1133.136, 74329.00
1134.228, 74710.00
1135.319, 74342.00
1136.410, 74728.00
1137.501, 74519.00
1138.592, 74658.00
1139.683, 74254.00
1140.773, 74734.00
1141.864, 74697.00
1142.954, 74587.00
1144.044, 74622.00
1145.134, 74899.00
1146.224, 74578.00
1147.313, 74557.00
1148.402, 74685.00
1149.492, 74468.00
1150.581, 74765.00
1151.670, 75305.00
1152.758, 75164.00
1153.847, 75380.00
1154.935, 75641.00
1156.024, 75131.00
1157.112, 75584.00
1158.200, 75416.00
1159.287, 76021.00
1160.375, 76162.00
1161.462, 75957.00
1162.550, 76127.00
1163.637, 76517.00
1164.724, 76577.00
1165.810, 76606.00
1166.897, 76676.00
1167.983, 76803.09
1169.070, 76964.00
1170.156, 77141.00
1171.242, 77271.00
1172.327, 77544.00
1173.413, 77349.00
1174.499, 77692.00
1175.584, 77687.00
1176.669, 78090.00
1177.754, 78265.00
1178.839, 78619.00
1179.923, 78413.00
1181.008, 79027.00
1182.092, 78893.00
1183.176, 79309.00
1184.260, 79406.00
1185.344, 79387.00
1186.428, 79453.00
1187.511, 79688.00
1188.595, 79886.00
1189.678, 80109.00
1190.761, 80192.00
1191.843, 80725.00
1192.926, 80766.00
1194.009, 81491.00
1195.091, 81842.00
1196.173, 81939.00
1197.255, 81600.00
1198.337, 82019.00
1199.419, 82385.00
1200.500, 82146.00
1201.582, 82378.00
1202.663, 82409.00
1203.744, 82433.00
1204.825, 83078.00
1205.905, 82708.00
1206.986, 83617.00
1208.066, 82925.00
1209.146, 83032.00
1210.226, 83210.00
1211.306, 83055.00
1212.386, 83953.00
1213.466, 83448.00
1214.545, 84012.00
1215.624, 83847.00
1216.703, 83647.00
1217.782, 84079.00
1218.861, 84026.00
1219.939, 84321.00
1221.018, 84269.00
1222.096, 84202.00
1223.174, 84859.00
1224.252, 84876.00
1225.330, 85019.00
1226.407, 84833.00
1227.485, 84930.00
1228.562, 85218.00
1229.639, 85663.00
1230.716, 85479.00
1231.793, 85533.00
1232.869, 85497.00
1233.946, 85682.00
1235.022, 85884.00
1236.098, 86074.00
1237.174, 86347.00
1238.250, 86571.00
1239.325, 86758.00
1240.401, 86917.00
1241.476, 86851.00
1242.551, 87356.00
1243.626, 86980.00
1244.701, 87462.00
1245.776, 87608.00
1246.850, 87849.51
1247.924, 88097.59
1248.999, 88318.85
1250.073, 88514.36
1251.146, 88607.55
1252.220, 88832.81
1253.293, 89005.05
1254.367, 89175.28
1255.440, 89418.94
1256.513, 89526.99
1257.586, 89203.00
1258.658, 89709.00
1259.731, 90028.00
1260.803, 89767.00
1261.875, 90309.00
1262.947, 90220.00
1264.019, 90419.00
1265.091, 90790.00
1266.162, 90719.00
1267.234, 91298.00
1268.305, 91146.00
