##NAMES=Marialite
##RRUFFID=R040113
##IDEAL CHEMISTRY=Na_4_Al_3_Si_9_O_24_Cl
##LOCALITY=Gouverneur, New York, USA
##OWNER=RRUFF
##SOURCE=University of Arizona Mineral Museum
##DESCRIPTION=Green prismatic crystal
##STATUS=The identification of this mineral has been confirmed by X-ray diffraction and chemical analysis
##URL=rruff.info/R040113
##MEASURED CHEMISTRY=(Na_0.50_Ca_0.43_K_0.07_)_4_(Si_0.64_Al_0.36_)_12_O_24_(Cl_0.60_(CO_3_)_0.40_)
##PIN_ID=L01482
##ORIENTATION=Laser parallel to c* (0 0 1). Fiducial mark perpendicular to laser is parallel to a [1 0 0]
90.91000, 32278.00
92.14900, 34713.00
93.38900, 34048.00
94.62900, 32653.00
95.86800, 33415.00
97.10700, 32842.99
98.34600, 32880.00
99.58500, 33232.00
100.8230, 33618.00
102.0620, 34298.00
103.3000, 34599.00
104.5380, 35554.00
105.7760, 35671.00
107.0140, 36879.00
108.2510, 37166.00
109.4890, 37848.00
110.7260, 38975.00
111.9630, 40683.00
113.2000, 40021.00
114.4360, 40287.68
115.6730, 36477.00
116.9090, 38445.00
118.1450, 36477.00
119.3810, 34060.00
120.6170, 33565.00
121.8530, 33048.00
123.0880, 33754.00
124.3230, 31684.00
125.5590, 31371.00
126.7930, 30638.00
128.0280, 30447.00
129.2630, 31081.00
130.4970, 30161.00
131.7310, 30483.00
132.9650, 31001.00
134.1990, 30725.00
135.4330, 30629.00
136.6670, 30693.00
137.9000, 30745.00
139.1330, 30481.00
140.3660, 30060.00
141.5990, 30988.00
142.8320, 31386.00
144.0640, 32140.00
145.2960, 32930.00
146.5290, 33050.00
147.7610, 34421.00
148.9920, 35576.00
150.2240, 35529.00
151.4550, 36828.00
152.6870, 38696.00
153.9180, 39337.00
155.1490, 40368.00
156.3800, 42036.00
157.6100, 42947.00
158.8400, 43692.00
160.0710, 44086.00
161.3010, 43892.00
162.5310, 43723.00
163.7600, 43245.12
164.9900, 42616.00
166.2190, 41650.00
167.4480, 40607.00
168.6770, 39365.00
169.9060, 38522.00
171.1350, 36908.00
172.3630, 36847.00
173.5920, 35653.00
174.8200, 34548.00
176.0480, 33016.00
177.2760, 32046.00
178.5030, 31676.00
179.7310, 31151.00
180.9580, 30752.00
182.1850, 30782.00
183.4120, 30574.00
184.6390, 30083.00
185.8650, 29924.00
187.0920, 29571.00
188.3180, 30141.00
189.5440, 30498.00
190.7700, 30695.00
191.9960, 30901.15
193.2210, 29917.00
194.4470, 30671.00
195.6720, 30176.00
196.8970, 29278.00
198.1220, 29862.00
199.3460, 29394.42
200.5710, 28951.00
201.7950, 29101.00
203.0190, 28773.00
204.2430, 27966.00
205.4670, 28420.00
206.6910, 28366.00
207.9140, 27685.00
209.1370, 27284.00
210.3610, 27337.00
211.5840, 27440.00
212.8060, 26559.00
214.0290, 26288.00
215.2510, 25860.00
216.4740, 25753.00
217.6960, 25545.00
218.9180, 25014.00
220.1390, 24631.00
221.3610, 24095.00
222.5820, 24325.00
223.8030, 23991.00
225.0240, 24081.00
226.2450, 23661.00
227.4660, 23584.00
228.6870, 23444.00
229.9070, 23189.00
231.1270, 23016.53
232.3470, 22821.95
233.5670, 22567.00
234.7870, 22445.00
236.0060, 22296.00
237.2250, 22138.12
238.4440, 21096.00
239.6630, 21604.00
240.8820, 20792.00
242.1010, 20428.00
243.3190, 20349.00
244.5380, 20438.00
245.7560, 20231.00
246.9740, 20230.00
248.1910, 20240.98
249.4090, 19979.00
250.6260, 20312.00
251.8440, 20204.00
253.0610, 20312.00
254.2780, 20697.00
255.4940, 21361.00
256.7110, 20979.00
257.9270, 21325.00
259.1430, 22170.00
260.3600, 22461.00
261.5750, 23283.00
262.7910, 23106.00
264.0070, 23022.00
265.2220, 23204.00
266.4370, 22478.00
267.6520, 22015.00
268.8670, 21815.00
270.0820, 20991.00
271.2960, 20199.00
272.5100, 19289.00
273.7250, 18826.00
274.9390, 18584.00
276.1520, 17926.00
277.3660, 17817.00
278.5790, 17585.73
279.7930, 17363.43
281.0060, 17529.00
282.2190, 17273.00
283.4320, 17594.00
284.6440, 17814.00
285.8570, 17912.00
287.0690, 17874.00
288.2810, 17978.00
289.4930, 18474.00
290.7050, 18048.00
291.9160, 18348.00
293.1270, 18623.00
294.3390, 18099.00
295.5500, 18668.00
296.7610, 18719.00
297.9710, 18446.00
299.1820, 18067.00
300.3920, 17866.49
301.6020, 17326.00
302.8120, 17217.01
304.0220, 16613.00
305.2320, 16325.00
306.4410, 16216.00
307.6510, 16018.00
308.8600, 15728.00
310.0690, 15638.00
311.2780, 15477.00
312.4860, 15706.00
313.6950, 15472.00
314.9030, 15729.00
316.1110, 15585.94
317.3190, 15116.00
318.5270, 15363.00
319.7350, 15421.00
320.9420, 15292.00
322.1490, 15385.00
323.3570, 15771.00
324.5630, 15852.00
325.7700, 16051.00
326.9770, 15974.00
328.1830, 16043.00
329.3900, 16047.00
330.5960, 16134.42
331.8020, 16237.00
333.0070, 16398.00
334.2130, 16496.00
335.4180, 16701.00
336.6230, 16891.00
337.8290, 16884.83
339.0330, 16699.00
340.2380, 16763.00
341.4430, 16783.00
342.6470, 16475.00
343.8510, 16471.00
345.0550, 15904.00
346.2590, 16212.00
347.4630, 16004.00
348.6660, 16142.00
349.8700, 16137.00
351.0730, 16197.00
352.2760, 16482.00
353.4790, 16747.00
354.6810, 16702.00
355.8840, 17005.00
357.0860, 17356.00
358.2880, 17571.00
359.4900, 17721.00
360.6920, 18052.00
361.8940, 17966.00
363.0950, 18023.00
364.2960, 17736.00
365.4980, 17515.00
366.6990, 17180.00
367.8990, 16811.00
369.1000, 16779.00
370.3000, 16027.00
371.5010, 15945.00
372.7010, 15998.00
373.9010, 15794.00
375.1010, 16008.00
376.3000, 15896.00
377.5000, 15615.00
378.6990, 15910.00
379.8980, 15873.00
381.0970, 15820.00
382.2960, 15809.00
383.4940, 15775.30
384.6920, 15765.00
385.8910, 15757.00
387.0890, 15739.00
388.2870, 15695.20
389.4840, 15677.00
390.6820, 15592.00
391.8790, 15482.00
393.0770, 15424.00
394.2740, 15528.00
395.4700, 15298.00
396.6670, 15306.00
397.8640, 15132.00
399.0600, 15096.00
400.2560, 15082.00
401.4520, 15304.00
402.6480, 15253.00
403.8440, 15368.00
405.0390, 15462.86
406.2350, 15316.00
407.4300, 15596.00
408.6250, 15514.00
409.8200, 15493.00
411.0140, 15655.00
412.2090, 15948.00
413.4030, 15996.00
414.5970, 16316.00
415.7910, 16297.00
416.9850, 16599.00
418.1790, 16928.00
419.3720, 16928.00
420.5660, 17192.00
421.7590, 17495.00
422.9520, 17645.00
424.1440, 17471.00
425.3370, 17424.00
426.5300, 17233.00
427.7220, 17591.00
428.9140, 17512.00
430.1060, 17653.00
431.2980, 17891.00
432.4890, 18136.00
433.6810, 18891.00
434.8720, 19244.00
436.0630, 20018.00
437.2540, 20407.00
438.4450, 20406.00
439.6350, 21210.00
440.8260, 22274.00
442.0160, 23416.00
443.2060, 24658.00
444.3960, 26253.00
445.5860, 28210.00
446.7750, 30398.00
447.9650, 33066.00
449.1540, 35743.00
450.3430, 38692.00
451.5320, 42077.00
452.7210, 44831.00
453.9090, 47733.00
455.0980, 49468.00
456.2860, 50570.00
457.4740, 51112.00
458.6620, 50786.00
459.8500, 50471.00
461.0370, 49755.00
462.2250, 48250.00
463.4120, 46573.00
464.5990, 43925.00
465.7860, 41322.00
466.9720, 38331.00
468.1590, 35715.00
469.3450, 33373.00
470.5320, 30916.00
471.7180, 28812.00
472.9030, 26881.00
474.0890, 25403.00
475.2750, 23951.00
476.4600, 22760.00
477.6450, 21805.00
478.8300, 20895.00
480.0150, 20105.27
481.2000, 19601.00
482.3840, 18799.00
483.5690, 18552.00
484.7530, 18022.00
485.9370, 17887.00
487.1210, 17408.00
488.3040, 17114.00
489.4880, 17040.00
490.6710, 16878.00
491.8540, 17000.00
493.0370, 16728.00
494.2200, 16471.00
495.4030, 16636.00
496.5850, 16391.00
497.7680, 16173.00
498.9500, 16169.00
500.1320, 15930.00
501.3140, 16020.00
502.4950, 16004.00
503.6770, 15853.00
504.8580, 16062.00
506.0390, 15906.00
507.2200, 16008.00
508.4010, 15762.00
509.5820, 15747.00
510.7620, 15884.00
511.9420, 16020.00
513.1230, 16016.00
514.3030, 16089.00
515.4820, 16076.00
516.6620, 16222.00
517.8420, 16532.00
519.0210, 16659.00
520.2000, 16963.00
521.3790, 17358.00
522.5580, 17701.00
523.7360, 17870.00
524.9150, 18693.00
526.0930, 19050.00
527.2710, 19847.00
528.4490, 20729.00
529.6270, 21952.00
530.8050, 23353.00
531.9820, 24357.00
533.1590, 25621.00
534.3360, 26267.00
535.5130, 26768.00
536.6900, 26885.00
537.8670, 26604.00
539.0430, 25506.00
540.2200, 24640.00
541.3960, 23379.00
542.5720, 22365.00
543.7470, 21521.31
544.9230, 20508.00
546.0980, 19901.00
547.2740, 19157.00
548.4490, 18444.00
549.6240, 18108.00
550.7990, 17689.00
551.9730, 17284.00
553.1480, 17131.00
554.3220, 16892.00
555.4960, 16757.00
556.6700, 16482.00
557.8440, 16307.00
559.0170, 16198.34
560.1910, 16173.00
561.3640, 16082.00
562.5370, 16065.00
563.7100, 16181.00
564.8830, 16306.00
566.0550, 16253.00
567.2280, 16168.00
568.4000, 16007.00
569.5720, 16066.00
570.7440, 15949.00
571.9160, 16143.00
573.0870, 16242.00
574.2590, 16071.00
575.4300, 16132.00
576.6010, 16069.00
577.7720, 15925.00
578.9430, 15965.00
580.1140, 15882.48
581.2840, 15852.85
582.4540, 15861.00
583.6240, 15776.00
584.7940, 15859.00
585.9640, 15761.00
587.1340, 15686.00
588.3030, 15574.00
589.4720, 15547.00
590.6410, 15552.00
591.8100, 15532.77
592.9790, 15583.39
594.1480, 15599.00
595.3160, 15645.00
596.4840, 15728.00
597.6520, 15644.00
598.8200, 15831.00
599.9880, 15850.00
601.1560, 15788.00
602.3230, 15886.00
603.4900, 15926.00
604.6570, 16193.00
605.8240, 16161.00
606.9910, 16259.00
608.1580, 16188.00
609.3240, 16342.00
610.4900, 16337.00
611.6570, 16400.00
612.8230, 16376.00
613.9880, 16160.00
615.1540, 16143.00
616.3190, 15956.00
617.4850, 15998.00
618.6500, 15939.00
619.8150, 15872.00
620.9790, 15784.00
622.1440, 15778.26
623.3080, 15859.00
624.4730, 15807.00
625.6370, 15858.00
626.8010, 15975.00
627.9640, 15700.00
629.1280, 15796.00
630.2910, 15885.00
631.4550, 15717.00
632.6180, 15817.00
633.7810, 15994.00
634.9440, 16038.00
636.1060, 15894.00
637.2690, 15991.00
638.4310, 16004.00
639.5930, 15984.00
640.7550, 16047.00
641.9170, 16029.00
643.0780, 16081.66
644.2400, 15996.00
645.4010, 16130.00
646.5620, 16124.00
647.7230, 16037.00
648.8840, 16192.00
650.0450, 16181.00
651.2050, 16143.00
652.3650, 16280.00
653.5250, 16370.00
654.6850, 16341.00
655.8450, 16265.00
657.0050, 16159.00
658.1640, 16396.00
659.3230, 16340.77
660.4830, 16461.00
661.6420, 16573.00
662.8000, 16456.00
663.9590, 16762.00
665.1170, 16641.00
666.2760, 16653.00
667.4340, 16597.00
668.5920, 16720.00
669.7500, 16671.00
670.9070, 16743.00
672.0650, 16606.00
673.2220, 16686.00
674.3790, 16983.00
675.5360, 16882.00
676.6930, 17063.00
677.8500, 17012.00
679.0060, 17267.00
680.1620, 17172.00
681.3190, 17232.00
682.4750, 16962.00
683.6300, 16994.00
684.7860, 16758.00
685.9420, 16736.00
687.0970, 16685.00
688.2520, 16785.00
689.4070, 16759.00
690.5620, 16925.00
691.7170, 16787.00
692.8710, 16855.00
694.0250, 16816.00
695.1800, 16846.00
696.3340, 16872.42
697.4870, 16983.00
698.6410, 16943.00
699.7950, 16954.00
700.9480, 17034.00
702.1010, 16975.00
703.2540, 17149.00
704.4070, 17085.00
705.5600, 17118.00
706.7120, 17209.00
707.8640, 17051.00
709.0170, 17428.00
710.1690, 17391.00
711.3210, 17232.00
712.4720, 17340.00
713.6240, 17179.00
714.7750, 17383.00
715.9260, 17393.00
717.0770, 17242.00
718.2280, 17284.00
719.3790, 17142.00
720.5290, 17420.00
721.6800, 17415.00
722.8300, 17324.00
723.9800, 17517.00
725.1300, 17591.00
726.2800, 17458.00
727.4290, 17530.00
728.5790, 17538.00
729.7280, 17552.00
730.8770, 17616.00
732.0260, 17538.00
733.1750, 17670.00
734.3230, 17602.00
735.4720, 17676.00
736.6200, 17710.36
737.7680, 17678.00
738.9160, 17759.00
740.0640, 17765.00
741.2110, 17749.00
742.3590, 17778.00
743.5060, 17853.21
744.6530, 17912.00
745.8000, 18046.00
746.9470, 18122.00
748.0930, 18218.00
749.2400, 18441.00
750.3860, 18583.00
751.5320, 18510.00
752.6780, 18780.00
753.8240, 18827.00
754.9690, 19065.00
756.1150, 19194.00
757.2600, 19318.00
758.4050, 19917.00
759.5500, 19855.00
760.6950, 20487.00
761.8400, 20672.00
762.9840, 20915.00
764.1280, 21541.00
765.2730, 21706.00
766.4170, 22116.00
767.5600, 22460.00
768.7040, 23010.00
769.8470, 23258.00
770.9910, 23223.00
772.1340, 23611.00
773.2770, 23717.00
774.4200, 23869.00
775.5620, 23468.00
776.7050, 23090.00
777.8470, 22546.00
778.9890, 21962.00
780.1310, 21400.00
781.2730, 20709.00
782.4150, 20152.00
783.5570, 19633.00
784.6980, 19345.00
785.8390, 18866.00
786.9800, 18769.00
788.1210, 18433.00
789.2620, 18417.00
790.4020, 18184.00
791.5430, 18185.00
792.6830, 18266.00
793.8230, 18282.00
794.9630, 18197.00
796.1020, 18194.00
797.2420, 18200.00
798.3810, 18198.00
799.5210, 18348.00
800.6600, 18484.00
801.7990, 18504.00
802.9370, 18679.00
804.0760, 18552.00
805.2140, 18769.00
806.3530, 18732.00
807.4910, 18723.00
808.6290, 18615.00
809.7660, 18639.00
810.9040, 18443.00
812.0420, 18418.00
813.1790, 18312.06
814.3160, 18503.00
815.4530, 18096.00
816.5900, 18273.00
817.7260, 18174.00
818.8630, 18026.00
819.9990, 18058.00
821.1350, 17943.00
822.2710, 17987.00
823.4070, 18023.00
824.5430, 18053.00
825.6780, 18150.00
826.8130, 18087.00
827.9490, 18188.00
829.0840, 17970.00
830.2180, 18122.00
831.3530, 18111.00
832.4880, 18247.00
833.6220, 18196.00
834.7560, 18523.00
835.8900, 18359.25
837.0240, 18599.00
838.1580, 18206.00
839.2910, 18337.00
840.4250, 18382.00
841.5580, 18328.00
842.6910, 18185.00
843.8240, 18435.00
844.9560, 18118.00
846.0890, 18377.00
847.2210, 18285.00
848.3540, 18359.00
849.4860, 18409.00
850.6180, 18416.00
851.7490, 18476.00
852.8810, 18410.00
854.0120, 18405.00
855.1440, 18528.00
856.2750, 18514.00
857.4060, 18456.00
858.5360, 18637.00
859.6670, 18607.00
860.7980, 18578.00
861.9280, 18568.00
863.0580, 18580.00
864.1880, 18576.00
865.3180, 18578.57
866.4470, 18666.00
867.5770, 18540.00
868.7060, 18731.00
869.8350, 18633.00
870.9640, 18769.00
872.0930, 18711.00
873.2220, 18854.00
874.3500, 18656.00
875.4790, 18691.00
876.6070, 18983.00
877.7350, 18874.00
878.8630, 18956.00
879.9900, 18943.00
881.1180, 18838.00
882.2450, 18987.00
883.3730, 18959.00
884.5000, 19152.00
885.6260, 18909.00
886.7530, 18941.00
887.8800, 19027.00
889.0060, 19050.00
890.1320, 19011.00
891.2580, 19045.00
892.3840, 19094.00
893.5100, 19118.00
894.6360, 19125.04
895.7610, 19151.98
896.8860, 19142.00
898.0120, 19204.00
899.1360, 19265.00
900.2610, 19352.00
901.3860, 19481.00
902.5100, 19441.00
903.6350, 19570.86
904.7590, 19548.00
905.8830, 19677.00
907.0070, 19716.00
908.1300, 19644.00
909.2540, 19510.00
910.3770, 19631.00
911.5000, 19620.00
912.6230, 19655.15
913.7460, 19645.00
914.8690, 19729.00
915.9910, 19740.00
917.1140, 19672.00
918.2360, 19779.00
919.3580, 19704.00
920.4800, 19585.00
921.6020, 19632.00
922.7230, 19688.00
923.8440, 19707.00
924.9660, 19825.00
926.0870, 19939.00
927.2080, 19885.00
928.3280, 19679.00
929.4490, 19653.00
930.5700, 19773.00
931.6900, 19903.00
932.8100, 19699.00
933.9300, 19902.00
935.0500, 19881.00
936.1690, 19979.00
937.2890, 20048.00
938.4080, 20120.00
939.5270, 20129.00
940.6460, 20111.00
941.7650, 20248.00
942.8840, 20338.00
944.0020, 20151.00
945.1200, 20437.00
946.2390, 20320.00
947.3570, 20310.00
948.4750, 20290.00
949.5920, 20684.00
950.7100, 20404.00
951.8270, 20696.00
952.9440, 20652.00
954.0610, 20626.00
955.1780, 20690.00
956.2950, 20699.72
957.4120, 20743.79
958.5280, 20817.00
959.6440, 20854.00
960.7600, 20933.00
961.8760, 21006.00
962.9920, 21205.00
964.1080, 20995.00
965.2230, 21454.00
966.3380, 21115.00
967.4540, 21279.00
968.5690, 21223.00
969.6830, 21307.00
970.7980, 21199.00
971.9120, 21514.00
973.0270, 21404.00
974.1410, 21451.00
975.2550, 21567.00
976.3690, 21574.00
977.4820, 21666.97
978.5960, 21762.45
979.7090, 21788.00
980.8230, 21906.00
981.9360, 21918.00
983.0490, 21852.00
984.1610, 22076.00
985.2740, 21976.00
986.3860, 22029.00
987.4980, 21832.00
988.6110, 21784.00
989.7220, 21799.00
990.8340, 21668.00
991.9460, 21604.00
993.0570, 21798.00
994.1690, 21642.00
995.2800, 21859.00
996.3910, 21666.00
997.5010, 21708.00
998.6120, 21592.00
999.7230, 21577.34
1000.833, 21719.00
1001.943, 21582.00
1003.053, 21679.00
1004.163, 21708.00
1005.273, 21783.00
1006.382, 21627.00
1007.492, 21786.00
1008.601, 21698.00
1009.710, 21780.00
1010.819, 21745.00
1011.927, 21642.00
1013.036, 21683.11
1014.144, 21695.00
1015.253, 21667.00
1016.361, 21762.00
1017.469, 21786.00
1018.576, 21784.00
1019.684, 21938.00
1020.791, 22023.00
1021.899, 21955.00
1023.006, 22116.00
1024.113, 22119.00
1025.220, 22207.00
1026.326, 22082.00
1027.433, 22347.00
1028.539, 22646.00
1029.645, 22577.00
1030.751, 22660.00
1031.857, 22769.00
1032.963, 22939.00
1034.068, 23279.00
1035.174, 23125.00
1036.279, 23204.00
1037.384, 23434.00
1038.489, 23370.00
1039.594, 23399.00
1040.698, 23649.00
1041.803, 23664.00
1042.907, 23940.00
1044.011, 23806.00
1045.115, 23748.00
1046.219, 23935.00
1047.323, 24015.00
1048.426, 24164.00
1049.529, 24149.00
1050.632, 24246.00
1051.735, 24380.02
1052.838, 24613.00
1053.941, 24615.00
1055.043, 24701.00
1056.146, 24719.00
1057.248, 24907.00
1058.350, 24853.00
1059.452, 25106.00
1060.554, 25181.00
1061.655, 25460.00
1062.757, 25583.00
1063.858, 25728.23
1064.959, 25855.00
1066.060, 25969.00
1067.161, 26126.00
1068.261, 26170.00
1069.362, 26241.00
1070.462, 26302.00
1071.562, 26260.00
1072.662, 26549.00
1073.762, 26537.00
1074.862, 26657.00
1075.961, 26628.00
1077.061, 26429.00
1078.160, 26663.00
1079.259, 26779.00
1080.358, 27028.00
1081.456, 27483.00
1082.555, 27742.00
1083.653, 28122.00
1084.751, 28645.00
1085.850, 29398.00
1086.947, 30039.00
1088.045, 30816.00
1089.143, 31297.00
1090.240, 32283.00
1091.338, 32832.00
1092.435, 33866.00
1093.532, 34432.00
1094.628, 34828.00
1095.725, 35248.00
1096.822, 35393.12
1097.918, 35435.00
1099.014, 35394.00
1100.110, 35384.00
1101.206, 35099.00
1102.302, 35322.00
1103.397, 35026.00
1104.493, 35657.00
1105.588, 35777.00
1106.683, 36323.00
1107.778, 36619.00
1108.873, 36612.00
1109.967, 36455.00
1111.062, 35554.00
1112.156, 34486.00
1113.250, 32818.00
1114.344, 30975.00
1115.438, 29030.00
1116.531, 27297.00
1117.625, 26285.00
1118.718, 25348.00
1119.811, 25077.00
1120.904, 24438.00
1121.997, 24709.00
1123.090, 24181.00
1124.183, 24198.00
1125.275, 24185.00
1126.367, 24297.00
1127.459, 24075.00
1128.551, 24175.00
1129.643, 24096.00
1130.735, 24329.00
1131.826, 24211.00
1132.917, 24156.00
1134.008, 24181.00
1135.099, 24209.00
1136.190, 24115.00
1137.281, 24404.00
1138.371, 24175.00
1139.462, 24431.00
1140.552, 24179.00
1141.642, 24145.00
1142.732, 24084.00
1143.821, 24178.00
1144.911, 24136.00
1146.000, 24217.00
1147.090, 24266.00
1148.179, 24187.00
1149.268, 24263.00
1150.356, 24107.00
1151.445, 24174.62
1152.533, 24236.00
1153.622, 24280.00
1154.710, 24400.00
1155.798, 24547.00
1156.886, 24146.00
1157.973, 24279.00
1159.061, 24380.00
1160.148, 24542.00
1161.235, 24467.00
1162.322, 24614.00
1163.409, 24419.00
1164.496, 24531.00
1165.583, 24370.00
1166.669, 24509.00
1167.755, 24673.00
1168.841, 24736.00
1169.927, 24518.00
1171.013, 24539.00
1172.099, 24838.00
1173.184, 24890.00
1174.269, 25335.00
1175.355, 25026.00
1176.440, 24824.00
1177.524, 25047.00
1178.609, 24985.00
1179.694, 25034.00
1180.778, 25047.00
1181.862, 25170.00
1182.946, 25076.00
1184.030, 25276.00
1185.114, 25253.00
1186.197, 25436.00
1187.281, 25289.00
1188.364, 25514.00
1189.447, 25685.00
1190.530, 25555.00
1191.613, 25566.00
1192.696, 25682.00
1193.778, 25696.00
1194.860, 25573.00
1195.943, 25710.00
1197.025, 25748.00
1198.107, 25822.00
1199.188, 25921.00
1200.270, 25976.00
1201.351, 25658.00
1202.432, 25934.00
1203.514, 25888.00
1204.594, 25673.00
1205.675, 25788.00
1206.756, 25799.00
1207.836, 25685.00
1208.917, 25557.00
1209.997, 25535.00
1211.077, 25506.00
1212.157, 25671.00
1213.236, 25518.00
1214.316, 25557.00
1215.395, 25494.00
1216.474, 25395.00
1217.553, 25391.00
1218.632, 25728.00
1219.711, 25620.00
1220.790, 25517.00
1221.868, 25479.00
1222.946, 25337.00
1224.024, 25617.00
1225.102, 25675.00
1226.180, 25611.00
1227.258, 25542.00
1228.335, 25337.00
1229.413, 25622.00
1230.490, 25523.00
1231.567, 25665.00
1232.644, 25821.00
1233.720, 25640.00
1234.797, 25663.00
1235.873, 25619.00
1236.950, 25742.00
1238.026, 25761.00
1239.102, 25804.73
1240.177, 25820.80
1241.253, 25949.00
1242.328, 25738.00
1243.404, 25879.00
1244.479, 25715.00
1245.554, 25988.00
1246.629, 26021.00
1247.703, 25930.55
1248.778, 25950.62
1249.852, 25900.00
1250.926, 25969.68
1252.001, 26053.00
1253.074, 26132.00
1254.148, 26199.00
1255.222, 26255.00
1256.295, 26274.85
1257.369, 26254.19
1258.442, 26277.00
1259.515, 26179.00
1260.587, 26151.00
1261.660, 26157.00
1262.733, 26128.00
1263.805, 26177.68
1264.877, 26321.00
1265.949, 26264.00
1267.021, 26265.00
1268.093, 26259.00
1269.164, 26575.00
