##NAMES=Marialite
##RRUFFID=R040113
##IDEAL CHEMISTRY=Na_4_Al_3_Si_9_O_24_Cl
##LOCALITY=Gouverneur, New York, USA
##OWNER=RRUFF
##SOURCE=University of Arizona Mineral Museum
##DESCRIPTION=Green prismatic crystal
##STATUS=The identification of this mineral has been confirmed by X-ray diffraction and chemical analysis
##URL=rruff.info/R040113
##MEASURED CHEMISTRY=(Na_0.50_Ca_0.43_K_0.07_)_4_(Si_0.64_Al_0.36_)_12_O_24_(Cl_0.60_(CO_3_)_0.40_)
##PIN_ID=L01738
##ORIENTATION=Laser parallel to -a* (-1 0 0). Fiducial mark perpendicular to laser is parallel to c [0 0 1]
88.42900, 71816.00
89.67000, 71459.00
90.91000, 71954.00
92.14900, 72568.00
93.38900, 72728.00
94.62900, 72701.00
95.86800, 72736.00
97.10700, 72792.80
98.34600, 72932.00
99.58500, 72812.00
100.8230, 72987.00
102.0620, 72930.00
103.3000, 73344.00
104.5380, 73100.00
105.7760, 73346.88
107.0140, 73615.00
108.2510, 73737.00
109.4890, 73829.00
110.7260, 74259.00
111.9630, 74860.00
113.2000, 74815.00
114.4360, 75286.00
115.6730, 75511.00
116.9090, 75751.00
118.1450, 76152.00
119.3810, 76112.00
120.6170, 76419.00
121.8530, 76294.00
123.0880, 76430.00
124.3230, 76420.00
125.5590, 76530.00
126.7930, 76986.00
128.0280, 76980.00
129.2630, 77219.00
130.4970, 76981.00
131.7310, 76745.00
132.9650, 76856.00
134.1990, 77420.00
135.4330, 77037.00
136.6670, 77191.00
137.9000, 77091.00
139.1330, 76746.00
140.3660, 76450.00
141.5990, 76398.00
142.8320, 76575.00
144.0640, 76588.00
145.2960, 76695.00
146.5290, 76798.00
147.7610, 76974.45
148.9920, 77238.00
150.2240, 77404.68
151.4550, 77724.00
152.6870, 77948.00
153.9180, 77920.00
155.1490, 78761.00
156.3800, 78885.00
157.6100, 79584.00
158.8400, 80086.00
160.0710, 80419.00
161.3010, 80587.00
162.5310, 80263.00
163.7600, 80022.00
164.9900, 80173.00
166.2190, 79901.00
167.4480, 79648.00
168.6770, 79294.00
169.9060, 79079.00
171.1350, 78362.00
172.3630, 78165.00
173.5920, 77426.00
174.8200, 77483.00
176.0480, 77024.00
177.2760, 76803.00
178.5030, 76787.00
179.7310, 76476.00
180.9580, 76418.00
182.1850, 76682.00
183.4120, 76609.00
184.6390, 76655.00
185.8650, 76576.00
187.0920, 76964.00
188.3180, 77268.00
189.5440, 77269.00
190.7700, 77148.00
191.9960, 77858.00
193.2210, 77140.00
194.4470, 77879.00
195.6720, 78031.00
196.8970, 77827.00
198.1220, 77814.00
199.3460, 78202.00
200.5710, 77843.00
201.7950, 77807.00
203.0190, 77524.00
204.2430, 77861.00
205.4670, 76998.00
206.6910, 77495.00
207.9140, 77267.00
209.1370, 77369.00
210.3610, 77394.00
211.5840, 77615.00
212.8060, 77629.41
214.0290, 77155.00
215.2510, 77670.00
216.4740, 77678.00
217.6960, 77524.00
218.9180, 77927.00
220.1390, 78020.00
221.3610, 77974.00
222.5820, 78244.00
223.8030, 78032.00
225.0240, 78247.00
226.2450, 77933.00
227.4660, 78168.00
228.6870, 78111.00
229.9070, 78259.00
231.1270, 77917.00
232.3470, 77865.00
233.5670, 77992.00
234.7870, 78133.00
236.0060, 78338.00
237.2250, 77711.00
238.4440, 77715.00
239.6630, 77347.00
240.8820, 77477.00
242.1010, 77975.00
243.3190, 77479.00
244.5380, 77912.00
245.7560, 77655.00
246.9740, 77959.00
248.1910, 77922.00
249.4090, 78360.00
250.6260, 78983.00
251.8440, 79150.00
253.0610, 79598.00
254.2780, 80477.00
255.4940, 80788.00
256.7110, 81674.00
257.9270, 82416.00
259.1430, 82742.00
260.3600, 83377.00
261.5750, 84466.00
262.7910, 84613.00
264.0070, 85016.00
265.2220, 84950.00
266.4370, 84840.00
267.6520, 83966.00
268.8670, 83467.00
270.0820, 82836.00
271.2960, 82351.00
272.5100, 81234.00
273.7250, 80832.00
274.9390, 80500.00
276.1520, 80310.00
277.3660, 80052.00
278.5790, 80012.00
279.7930, 79626.00
281.0060, 79779.00
282.2190, 79507.00
283.4320, 79802.00
284.6440, 80101.00
285.8570, 80200.00
287.0690, 80565.94
288.2810, 80960.00
289.4930, 81196.00
290.7050, 81701.98
291.9160, 82090.98
293.1270, 82632.00
294.3390, 82631.00
295.5500, 82653.00
296.7610, 82831.00
297.9710, 82749.28
299.1820, 82912.00
300.3920, 82662.00
301.6020, 81490.00
302.8120, 81289.00
304.0220, 80857.00
305.2320, 80662.00
306.4410, 80341.00
307.6510, 80217.48
308.8600, 80100.00
310.0690, 80043.00
311.2780, 80143.00
312.4860, 80049.00
313.6950, 80144.18
314.9030, 80213.00
316.1110, 80284.00
317.3190, 80416.00
318.5270, 80468.23
319.7350, 80345.00
320.9420, 80582.00
322.1490, 80106.00
323.3570, 80603.00
324.5630, 80733.00
325.7700, 81423.00
326.9770, 81022.00
328.1830, 81504.00
329.3900, 81587.00
330.5960, 81945.00
331.8020, 82367.00
333.0070, 82381.00
334.2130, 82196.00
335.4180, 82330.00
336.6230, 82656.00
337.8290, 82660.00
339.0330, 82772.00
340.2380, 82900.00
341.4430, 82953.00
342.6470, 83354.00
343.8510, 83363.74
345.0550, 83520.00
346.2590, 83528.00
347.4630, 83767.00
348.6660, 83749.00
349.8700, 83835.00
351.0730, 84206.00
352.2760, 84564.00
353.4790, 84630.49
354.6810, 85308.00
355.8840, 85352.00
357.0860, 85889.00
358.2880, 85897.62
359.4900, 86267.00
360.6920, 85866.00
361.8940, 86746.00
363.0950, 86844.00
364.2960, 86252.00
365.4980, 85882.00
366.6990, 86247.00
367.8990, 86265.00
369.1000, 85611.00
370.3000, 85635.00
371.5010, 85667.00
372.7010, 85920.00
373.9010, 85835.00
375.1010, 85770.00
376.3000, 85519.00
377.5000, 85927.00
378.6990, 85903.86
379.8980, 85720.00
381.0970, 86339.00
382.2960, 86172.00
383.4940, 86488.00
384.6920, 86511.00
385.8910, 86455.00
387.0890, 86464.00
388.2870, 86738.00
389.4840, 86618.00
390.6820, 86627.00
391.8790, 86607.00
393.0770, 86526.48
394.2740, 86660.00
395.4700, 86445.00
396.6670, 86554.00
397.8640, 86608.00
399.0600, 86399.00
400.2560, 86684.00
401.4520, 87259.00
402.6480, 87194.00
403.8440, 87248.00
405.0390, 87237.00
406.2350, 87240.00
407.4300, 87496.00
408.6250, 87870.00
409.8200, 88058.00
411.0140, 88195.00
412.2090, 88659.00
413.4030, 88725.00
414.5970, 89119.00
415.7910, 89465.00
416.9850, 89950.00
418.1790, 90678.00
419.3720, 90057.00
420.5660, 91027.00
421.7590, 91050.00
422.9520, 91579.00
424.1440, 91114.00
425.3370, 91057.00
426.5300, 90763.00
427.7220, 90923.00
428.9140, 90529.00
430.1060, 90318.00
431.2980, 90787.00
432.4890, 90837.00
433.6810, 91011.00
434.8720, 91314.00
436.0630, 91517.00
437.2540, 92387.00
438.4450, 92560.00
439.6350, 93181.00
440.8260, 94315.00
442.0160, 94793.00
443.2060, 95769.00
444.3960, 96549.00
445.5860, 97864.00
446.7750, 99934.00
447.9650, 100878.0
449.1540, 102923.0
450.3430, 104723.0
451.5320, 106660.0
452.7210, 108962.0
453.9090, 110049.0
455.0980, 111480.0
456.2860, 112766.0
457.4740, 112964.0
458.6620, 112456.0
459.8500, 113169.0
461.0370, 112164.0
462.2250, 111625.0
463.4120, 110207.0
464.5990, 109543.0
465.7860, 107505.0
466.9720, 105645.0
468.1590, 104659.0
469.3450, 103206.0
470.5320, 101767.0
471.7180, 100624.0
472.9030, 99565.26
474.0890, 98742.00
475.2750, 97940.00
476.4600, 97245.00
477.6450, 96808.00
478.8300, 96540.00
480.0150, 96342.00
481.2000, 95670.00
482.3840, 95594.00
483.5690, 95353.00
484.7530, 95053.00
485.9370, 95092.00
487.1210, 94538.00
488.3040, 94983.00
489.4880, 94831.00
490.6710, 94568.00
491.8540, 94650.00
493.0370, 94870.00
494.2200, 95088.00
495.4030, 94953.00
496.5850, 95263.00
497.7680, 94629.00
498.9500, 95596.00
500.1320, 95148.00
501.3140, 95498.00
502.4950, 95202.00
503.6770, 95518.00
504.8580, 95651.00
506.0390, 95031.00
507.2200, 95353.00
508.4010, 95804.00
509.5820, 95641.00
510.7620, 95521.00
511.9420, 95871.00
513.1230, 96017.00
514.3030, 96441.00
515.4820, 96316.00
516.6620, 96368.00
517.8420, 96667.00
519.0210, 97367.00
520.2000, 98078.00
521.3790, 98188.00
522.5580, 98605.00
523.7360, 99077.00
524.9150, 100148.0
526.0930, 100572.0
527.2710, 101935.0
528.4490, 102591.0
529.6270, 104071.0
530.8050, 105342.0
531.9820, 106955.0
533.1590, 108499.0
534.3360, 109445.0
535.5130, 109981.2
536.6900, 110011.0
537.8670, 109893.0
539.0430, 108861.0
540.2200, 107823.0
541.3960, 106632.0
542.5720, 105488.0
543.7470, 104546.0
544.9230, 103130.0
546.0980, 102980.0
547.2740, 101745.0
548.4490, 101829.0
549.6240, 101111.0
550.7990, 100894.0
551.9730, 100801.0
553.1480, 100237.0
554.3220, 100604.0
555.4960, 100686.0
556.6700, 100683.0
557.8440, 100689.0
559.0170, 100659.4
560.1910, 100435.0
561.3640, 100654.0
562.5370, 100531.0
563.7100, 100759.0
564.8830, 100914.0
566.0550, 100744.0
567.2280, 101069.0
568.4000, 100823.0
569.5720, 101231.0
570.7440, 101098.0
571.9160, 101162.0
573.0870, 101606.0
574.2590, 101524.0
575.4300, 101627.0
576.6010, 101552.0
577.7720, 101672.0
578.9430, 101405.0
580.1140, 101618.0
581.2840, 101420.0
582.4540, 101892.0
583.6240, 102153.0
584.7940, 101824.0
585.9640, 102113.0
587.1340, 102353.0
588.3030, 101989.0
589.4720, 102215.0
590.6410, 102610.0
591.8100, 102426.0
592.9790, 102910.0
594.1480, 102713.0
595.3160, 103000.0
596.4840, 103203.0
597.6520, 103795.0
598.8200, 103831.0
599.9880, 102721.0
601.1560, 103498.0
602.3230, 103414.0
603.4900, 103198.0
604.6570, 103698.0
605.8240, 103880.0
606.9910, 103535.0
608.1580, 103854.0
609.3240, 104171.0
610.4900, 104478.0
611.6570, 104341.0
612.8230, 104240.0
613.9880, 105048.0
615.1540, 104545.0
616.3190, 104498.0
617.4850, 104768.0
618.6500, 104295.0
619.8150, 104770.0
620.9790, 104945.0
622.1440, 104715.0
623.3080, 105080.0
624.4730, 105430.0
625.6370, 105422.0
626.8010, 105645.0
627.9640, 105751.0
629.1280, 105252.0
630.2910, 105687.0
631.4550, 105141.0
632.6180, 106102.0
633.7810, 105934.0
634.9440, 105991.0
636.1060, 106318.0
637.2690, 106018.0
638.4310, 106132.0
639.5930, 106563.0
640.7550, 106235.0
641.9170, 106389.0
643.0780, 106914.0
644.2400, 107025.0
645.4010, 107155.0
646.5620, 106963.0
647.7230, 107200.0
648.8840, 107361.0
650.0450, 107216.0
651.2050, 107847.0
652.3650, 107854.0
653.5250, 108128.0
654.6850, 108195.0
655.8450, 107990.0
657.0050, 108448.0
658.1640, 108228.0
659.3230, 108591.0
660.4830, 108308.0
661.6420, 109088.0
662.8000, 108862.0
663.9590, 109243.0
665.1170, 109110.0
666.2760, 109308.0
667.4340, 109781.8
668.5920, 110463.0
669.7500, 110409.0
670.9070, 110800.0
672.0650, 110298.0
673.2220, 110202.0
674.3790, 110843.0
675.5360, 110343.0
676.6930, 110089.0
677.8500, 110480.0
679.0060, 110813.0
680.1620, 110942.0
681.3190, 111200.0
682.4750, 111072.0
683.6300, 111295.0
684.7860, 110858.0
685.9420, 110971.0
687.0970, 111650.0
688.2520, 111286.0
689.4070, 111343.0
690.5620, 111446.0
691.7170, 111676.0
692.8710, 111687.0
694.0250, 111766.0
695.1800, 112224.0
696.3340, 111698.0
697.4870, 112422.0
698.6410, 112592.0
699.7950, 112602.0
700.9480, 112512.0
702.1010, 112936.0
703.2540, 113240.0
704.4070, 113141.0
705.5600, 113196.0
706.7120, 113703.0
707.8640, 113699.0
709.0170, 113753.0
710.1690, 114070.0
711.3210, 113920.0
712.4720, 114519.0
713.6240, 114179.0
714.7750, 114119.0
715.9260, 113969.0
717.0770, 114593.0
718.2280, 114714.0
719.3790, 114699.0
720.5290, 114757.0
721.6800, 114637.0
722.8300, 114713.0
723.9800, 114816.0
725.1300, 115423.0
726.2800, 115353.0
727.4290, 115113.0
728.5790, 114638.0
729.7280, 115220.0
730.8770, 115247.0
732.0260, 115407.0
733.1750, 115084.0
734.3230, 116017.0
735.4720, 115445.0
736.6200, 116010.0
737.7680, 115830.0
738.9160, 115648.0
740.0640, 116281.0
741.2110, 116296.0
742.3590, 116028.0
743.5060, 116591.0
744.6530, 116295.0
745.8000, 116875.0
746.9470, 117209.0
748.0930, 117058.0
749.2400, 117211.0
750.3860, 117784.0
751.5320, 117276.0
752.6780, 117827.0
753.8240, 118099.0
754.9690, 117836.0
756.1150, 118447.0
757.2600, 118850.0
758.4050, 119064.0
759.5500, 119340.5
760.6950, 119475.0
761.8400, 119758.0
762.9840, 119897.0
764.1280, 120482.0
765.2730, 121241.0
766.4170, 121749.0
767.5600, 121966.0
768.7040, 122264.0
769.8470, 122458.0
770.9910, 122792.0
772.1340, 122919.0
773.2770, 122970.1
774.4200, 122607.0
775.5620, 122915.0
776.7050, 122498.0
777.8470, 122381.0
778.9890, 121552.0
780.1310, 121641.0
781.2730, 121000.0
782.4150, 121003.0
783.5570, 120723.0
784.6980, 120960.0
785.8390, 120930.0
786.9800, 121087.0
788.1210, 121203.3
789.2620, 121020.0
790.4020, 121367.0
791.5430, 121345.0
792.6830, 121273.0
793.8230, 121037.0
794.9630, 121431.0
796.1020, 121307.0
797.2420, 121819.0
798.3810, 121812.0
799.5210, 121492.0
800.6600, 122346.0
801.7990, 122442.0
802.9370, 122523.0
804.0760, 123723.0
805.2140, 122974.0
806.3530, 123212.0
807.4910, 123149.0
808.6290, 122801.0
809.7660, 122793.0
810.9040, 123430.0
812.0420, 122892.0
813.1790, 123903.0
814.3160, 124702.0
815.4530, 124059.0
816.5900, 123263.0
817.7260, 123892.0
818.8630, 123735.0
819.9990, 123964.0
821.1350, 123752.0
822.2710, 123974.0
823.4070, 124369.0
824.5430, 124331.0
825.6780, 124637.2
826.8130, 124521.0
827.9490, 124916.0
829.0840, 124719.0
830.2180, 124598.0
831.3530, 124964.0
832.4880, 124901.0
833.6220, 125153.0
834.7560, 125417.0
835.8900, 125230.0
837.0240, 125774.0
838.1580, 125968.0
839.2910, 126010.0
840.4250, 125408.0
841.5580, 125723.0
842.6910, 126002.0
843.8240, 125649.0
844.9560, 126011.0
846.0890, 126357.0
847.2210, 126073.0
848.3540, 126519.0
849.4860, 126093.0
850.6180, 126331.0
851.7490, 126304.0
852.8810, 126530.0
854.0120, 126854.0
855.1440, 127014.0
856.2750, 127419.0
857.4060, 127575.0
858.5360, 127275.0
859.6670, 127815.0
860.7980, 127687.0
861.9280, 127983.0
863.0580, 127948.0
864.1880, 128154.0
865.3180, 128576.0
866.4470, 128087.0
867.5770, 128327.0
868.7060, 128761.0
869.8350, 128580.0
870.9640, 129221.0
872.0930, 128883.0
873.2220, 129058.0
874.3500, 129832.0
875.4790, 129301.0
876.6070, 129334.0
877.7350, 129278.0
878.8630, 129967.0
879.9900, 129582.0
881.1180, 130036.0
882.2450, 129737.0
883.3730, 129724.0
884.5000, 130617.0
885.6260, 130223.0
886.7530, 130999.0
887.8800, 130697.0
889.0060, 130927.0
890.1320, 131324.0
891.2580, 131594.0
892.3840, 131900.0
893.5100, 131529.0
894.6360, 131949.0
895.7610, 132334.0
896.8860, 131862.0
898.0120, 132398.0
899.1360, 132608.0
900.2610, 133074.0
901.3860, 132866.0
902.5100, 132982.0
903.6350, 133554.0
904.7590, 133285.0
905.8830, 133599.0
907.0070, 133774.0
908.1300, 133933.0
909.2540, 133795.0
910.3770, 133960.0
911.5000, 134008.0
912.6230, 134054.0
913.7460, 134127.0
914.8690, 134164.4
915.9910, 134229.0
917.1140, 134266.0
918.2360, 134379.0
919.3580, 134457.3
920.4800, 134748.0
921.6020, 134818.0
922.7230, 135169.0
923.8440, 135439.0
924.9660, 135377.0
926.0870, 135735.9
927.2080, 135639.8
928.3280, 136032.0
929.4490, 135879.0
930.5700, 135686.0
931.6900, 136543.0
932.8100, 135818.0
933.9300, 136215.0
935.0500, 136860.0
936.1690, 137204.0
937.2890, 137102.0
938.4080, 137176.0
939.5270, 137787.0
940.6460, 137054.0
941.7650, 137781.0
942.8840, 137417.0
944.0020, 137463.0
945.1200, 137879.0
946.2390, 138056.0
947.3570, 138285.0
948.4750, 137775.0
949.5920, 138525.0
950.7100, 138951.0
951.8270, 138538.0
952.9440, 139440.0
954.0610, 138689.0
955.1780, 139417.0
956.2950, 139920.0
957.4120, 139587.0
958.5280, 139786.0
959.6440, 139970.0
960.7600, 139808.0
961.8760, 139908.0
962.9920, 140115.0
964.1080, 140039.1
965.2230, 139812.0
966.3380, 140288.0
967.4540, 140258.0
968.5690, 140787.0
969.6830, 140791.0
970.7980, 140770.0
971.9120, 140777.0
973.0270, 140956.0
974.1410, 141007.0
975.2550, 141326.0
976.3690, 141369.0
977.4820, 141460.0
978.5960, 141485.4
979.7090, 141510.0
980.8230, 141456.0
981.9360, 141368.0
983.0490, 141506.0
984.1610, 141866.0
985.2740, 141352.0
986.3860, 141945.0
987.4980, 141793.0
988.6110, 141379.0
989.7220, 142070.0
990.8340, 141758.0
991.9460, 142015.0
993.0570, 141719.0
994.1690, 142323.0
995.2800, 142091.0
996.3910, 142570.0
997.5010, 142521.0
998.6120, 142296.0
999.7230, 142531.0
1000.833, 142445.6
1001.943, 142859.0
1003.053, 142626.0
1004.163, 142383.0
1005.273, 142647.0
1006.382, 142256.0
1007.492, 142280.0
1008.601, 142142.0
1009.710, 142113.0
1010.819, 141971.2
1011.927, 141747.7
1013.036, 141707.0
1014.144, 141113.0
1015.253, 141046.0
1016.361, 140471.0
1017.469, 140784.0
1018.576, 140905.0
1019.684, 141123.0
1020.791, 141150.0
1021.899, 141535.0
1023.006, 141918.0
1024.113, 142272.0
1025.220, 142834.0
1026.326, 143388.0
1027.433, 144041.0
1028.539, 144463.0
1029.645, 145069.0
1030.751, 145624.6
1031.857, 146247.0
1032.963, 146698.0
1034.068, 147242.0
1035.174, 147661.6
1036.279, 148452.0
1037.384, 148601.0
1038.489, 148691.0
1039.594, 149060.0
1040.698, 149926.0
1041.803, 149750.0
1042.907, 149554.0
1044.011, 150893.0
1045.115, 150766.0
1046.219, 150223.0
1047.323, 151200.0
1048.426, 151272.0
1049.529, 151517.0
1050.632, 151964.0
1051.735, 152094.0
1052.838, 152715.0
1053.941, 152676.0
1055.043, 152916.0
1056.146, 152935.0
1057.248, 153554.0
1058.350, 154252.0
1059.452, 154070.0
1060.554, 154462.0
1061.655, 154038.0
1062.757, 155101.0
1063.858, 154723.0
1064.959, 155562.0
1066.060, 155754.0
1067.161, 156144.0
1068.261, 156113.0
1069.362, 156478.0
1070.462, 157200.0
1071.562, 156567.0
1072.662, 157123.0
1073.762, 157735.0
1074.862, 158129.0
1075.961, 158123.0
1077.061, 158339.0
1078.160, 158605.0
1079.259, 158399.0
1080.358, 158673.0
1081.456, 159521.0
1082.555, 159350.0
1083.653, 159949.0
1084.751, 160100.0
1085.850, 161012.0
1086.947, 161183.0
1088.045, 161543.0
1089.143, 162535.0
1090.240, 162777.0
1091.338, 163372.0
1092.435, 163730.0
1093.532, 163932.0
1094.628, 164290.0
1095.725, 164468.6
1096.822, 164598.6
1097.918, 164743.0
1099.014, 164788.0
1100.110, 164724.0
1101.206, 164840.0
1102.302, 164984.0
1103.397, 164911.9
1104.493, 164584.0
1105.588, 164996.0
1106.683, 165123.0
1107.778, 165467.0
1108.873, 165694.0
1109.967, 166038.0
1111.062, 165272.0
1112.156, 164577.0
1113.250, 164015.0
1114.344, 162883.0
1115.438, 162633.0
1116.531, 161613.0
1117.625, 161764.0
1118.718, 161006.0
1119.811, 160826.0
1120.904, 160607.0
1121.997, 160735.0
1123.090, 161035.0
1124.183, 160815.0
1125.275, 160685.0
1126.367, 161344.0
1127.459, 160714.0
1128.551, 161229.0
1129.643, 161646.0
1130.735, 161917.0
1131.826, 161429.0
1132.917, 161335.0
1134.008, 161696.0
1135.099, 161931.0
1136.190, 162296.0
1137.281, 162324.3
1138.371, 162002.0
1139.462, 162369.0
1140.552, 162299.0
1141.642, 162375.0
1142.732, 162339.0
1143.821, 162922.0
1144.911, 162931.6
1146.000, 163257.0
1147.090, 163339.0
1148.179, 163204.0
1149.268, 163364.0
1150.356, 163116.0
1151.445, 163663.0
1152.533, 163554.0
1153.622, 163610.0
1154.710, 164093.0
1155.798, 163759.0
1156.886, 164438.0
1157.973, 164078.0
1159.061, 164048.0
1160.148, 164441.0
1161.235, 164285.0
1162.322, 164544.0
1163.409, 164716.0
1164.496, 165276.0
1165.583, 165460.0
1166.669, 164851.0
1167.755, 165502.0
1168.841, 165233.0
1169.927, 166038.0
1171.013, 165270.0
1172.099, 165505.0
1173.184, 166333.0
1174.269, 166168.0
1175.355, 166620.0
1176.440, 166473.0
1177.524, 166592.0
1178.609, 167303.0
1179.694, 166704.0
1180.778, 167497.0
1181.862, 167370.0
1182.946, 167340.0
1184.030, 167874.0
1185.114, 167767.0
1186.197, 168372.0
1187.281, 168387.0
1188.364, 168546.0
1189.447, 168694.0
1190.530, 168399.0
1191.613, 169292.0
1192.696, 168742.0
1193.778, 169325.0
1194.860, 169032.0
1195.943, 169430.0
1197.025, 169954.0
1198.107, 169806.0
1199.188, 170083.0
1200.270, 170224.0
1201.351, 169861.0
1202.432, 170512.0
1203.514, 170762.0
1204.594, 170562.0
1205.675, 170929.0
1206.756, 170418.0
1207.836, 170981.0
1208.917, 170932.0
1209.997, 171160.0
1211.077, 171185.0
1212.157, 171307.0
1213.236, 171432.8
1214.316, 171602.0
1215.395, 171737.0
1216.474, 171978.0
1217.553, 172335.0
1218.632, 172457.0
1219.711, 172683.0
1220.790, 172835.0
1221.868, 172841.0
1222.946, 172702.0
1224.024, 173273.0
1225.102, 173555.0
1226.180, 173633.0
1227.258, 173281.0
1228.335, 173076.0
1229.413, 173351.0
1230.490, 173503.0
1231.567, 173617.0
1232.644, 173830.5
1233.720, 173929.8
1234.797, 174309.0
1235.873, 174229.0
1236.950, 174760.0
1238.026, 175064.0
1239.102, 174467.0
1240.177, 174962.0
1241.253, 175557.0
1242.328, 174917.0
1243.404, 176147.0
1244.479, 175754.0
1245.554, 176112.0
1246.629, 176038.0
1247.703, 176241.0
1248.778, 176388.0
1249.852, 176229.0
1250.926, 176429.0
1252.001, 177079.0
1253.074, 177084.0
1254.148, 177489.0
1255.222, 176870.0
1256.295, 177868.0
1257.369, 177468.0
1258.442, 177558.0
1259.515, 178104.0
1260.587, 178222.0
1261.660, 178119.0
1262.733, 178622.0
1263.805, 178635.0
1264.877, 178399.0
1265.949, 178631.0
1267.021, 179234.0
