##NAMES=Marialite
##RRUFFID=R060297
##IDEAL CHEMISTRY=Na_4_Al_3_Si_9_O_24_Cl
##LOCALITY=Morogoro District, Marasi, Tanzania
##OWNER=RRUFF
##SOURCE=Herb Obodda
##DESCRIPTION=Pale yellow crystal fragment
##STATUS=The identification of this mineral has been confirmed by X-ray diffraction and chemical analysis
##URL=rruff.info/R060297
##MEASURED CHEMISTRY=(Na_0.66_Ca_0.29_K_0.06_)_4_(Si_0.68_Al_0.32_)_12_O_24_(Cl_0.70_(CO_3_)_0.30_)
##PIN_ID=L01219
##ORIENTATION=Laser parallel to c* (0 0 1). Fiducial mark perpendicular to laser is parallel to a [1 0 0]
93.28600, 48726.00
94.52300, 48938.00
95.75900, 49317.00
96.99500, 49979.00
98.23100, 49758.00
99.46700, 50445.02
100.7030, 50866.00
101.9390, 51592.00
103.1740, 52192.00
104.4090, 53273.00
105.6440, 54734.00
106.8790, 56044.00
108.1140, 57030.00
109.3490, 56897.00
110.5830, 57254.16
111.8180, 57595.00
113.0520, 56419.00
114.2860, 55450.00
115.5200, 54230.00
116.7530, 53374.00
117.9870, 52385.00
119.2200, 51688.00
120.4530, 50831.00
121.6860, 50274.00
122.9190, 49689.88
124.1520, 49465.00
125.3850, 48927.00
126.6170, 48701.00
127.8490, 48815.00
129.0810, 49058.00
130.3130, 48873.00
131.5450, 48992.00
132.7770, 48675.00
134.0080, 48917.00
135.2390, 48187.00
136.4710, 48621.00
137.7020, 48679.00
138.9320, 48911.00
140.1630, 49308.00
141.3930, 49750.00
142.6240, 50802.00
143.8540, 51608.00
145.0840, 53062.00
146.3140, 54420.00
147.5440, 55624.00
148.7730, 56721.00
150.0020, 58794.00
151.2320, 61242.00
152.4610, 63027.00
153.6900, 64574.00
154.9180, 67010.00
156.1470, 69104.00
157.3750, 71117.00
158.6040, 73379.00
159.8320, 74161.00
161.0600, 74288.00
162.2870, 73962.00
163.5150, 73402.00
164.7420, 72426.00
165.9700, 70518.00
167.1970, 68394.00
168.4240, 66505.00
169.6510, 63105.00
170.8770, 60931.00
172.1040, 58980.00
173.3300, 57220.00
174.5560, 55197.00
175.7820, 54388.00
177.0080, 52537.00
178.2340, 51472.00
179.4590, 51355.00
180.6850, 50824.00
181.9100, 50901.00
183.1350, 50762.00
184.3600, 50343.00
185.5850, 49940.00
186.8090, 50044.00
188.0340, 49740.79
189.2580, 49616.00
190.4820, 49560.00
191.7060, 49279.00
192.9300, 49204.00
194.1530, 48826.00
195.3770, 48123.00
196.6000, 47324.00
197.8230, 47230.00
199.0460, 47028.00
200.2690, 46123.00
201.4910, 45321.00
202.7140, 44986.00
203.9360, 44020.00
205.1580, 43789.00
206.3800, 43735.00
207.6020, 43196.00
208.8240, 42390.00
210.0450, 42339.00
211.2670, 41639.00
212.4880, 40912.00
213.7090, 40676.00
214.9300, 40123.00
216.1510, 39551.00
217.3710, 39604.00
218.5920, 39580.00
219.8120, 39369.00
221.0320, 39385.00
222.2520, 39597.00
223.4720, 39369.00
224.6910, 39265.00
225.9110, 38901.00
227.1300, 38808.00
228.3490, 38389.00
229.5680, 38069.00
230.7870, 37685.00
232.0050, 37334.00
233.2240, 37154.00
234.4420, 36734.00
235.6600, 35943.00
236.8780, 35778.00
238.0960, 34910.00
239.3140, 34664.00
240.5310, 34265.00
241.7490, 34266.00
242.9660, 34079.00
244.1830, 34252.00
245.4000, 33959.00
246.6160, 33771.00
247.8330, 34001.00
249.0490, 34074.54
250.2660, 34630.00
251.4820, 34896.00
252.6980, 35173.00
253.9130, 36072.00
255.1290, 36504.00
256.3440, 36881.00
257.5600, 38028.00
258.7750, 39020.00
259.9900, 39964.00
261.2040, 40610.00
262.4190, 40880.00
263.6330, 40919.00
264.8480, 40460.00
266.0620, 39770.00
267.2760, 38705.00
268.4900, 37537.00
269.7030, 36144.00
270.9170, 34895.00
272.1300, 33957.00
273.3430, 33279.00
274.5560, 32599.00
275.7690, 31935.00
276.9820, 31824.00
278.1940, 31476.36
279.4070, 31722.00
280.6190, 31446.00
281.8310, 31800.00
283.0430, 32176.00
284.2550, 32409.00
285.4660, 32839.00
286.6770, 33189.00
287.8890, 33525.00
289.1000, 33300.00
290.3110, 33242.00
291.5210, 32973.00
292.7320, 32741.00
293.9420, 32352.00
295.1530, 32678.00
296.3630, 31938.00
297.5730, 32141.00
298.7830, 31974.00
299.9920, 31541.00
301.2020, 30982.00
302.4110, 29844.00
303.6200, 29458.00
304.8290, 28754.00
306.0380, 28642.00
307.2470, 28217.00
308.4550, 28306.00
309.6630, 28112.46
310.8720, 27944.00
312.0800, 27975.00
313.2880, 27891.00
314.4950, 27863.00
315.7030, 28037.00
316.9100, 28031.00
318.1170, 28074.00
319.3240, 28026.00
320.5310, 28295.00
321.7380, 28742.00
322.9450, 28856.84
324.1510, 29157.30
325.3570, 29481.00
326.5630, 29479.00
327.7690, 29962.00
328.9750, 29899.00
330.1810, 30486.00
331.3860, 30551.00
332.5910, 30495.00
333.7960, 31194.00
335.0010, 31418.00
336.2060, 30961.00
337.4110, 31043.00
338.6150, 31040.00
339.8200, 30648.00
341.0240, 30097.00
342.2280, 29822.00
343.4320, 29760.00
344.6350, 29198.00
345.8390, 29191.00
347.0420, 29140.00
348.2450, 29302.00
349.4480, 29728.00
350.6510, 29667.00
351.8540, 30283.00
353.0560, 30540.00
354.2590, 30727.00
355.4610, 31062.00
356.6630, 32018.00
357.8650, 32686.00
359.0670, 32858.00
360.2680, 33226.00
361.4700, 33198.00
362.6710, 32775.00
363.8720, 32250.00
365.0730, 31517.00
366.2740, 30879.00
367.4740, 30222.00
368.6750, 29718.00
369.8750, 29517.00
371.0750, 29417.00
372.2750, 29388.00
373.4750, 29261.45
374.6740, 29045.00
375.8740, 29075.00
377.0730, 29063.00
378.2720, 28875.00
379.4710, 28702.00
380.6700, 28758.00
381.8690, 28906.00
383.0670, 28883.00
384.2660, 28550.00
385.4640, 28576.00
386.6620, 28322.00
387.8600, 28371.00
389.0570, 28359.00
390.2550, 28029.00
391.4520, 28217.00
392.6490, 27971.00
393.8460, 27964.00
395.0430, 27966.00
396.2400, 27642.00
397.4370, 27885.00
398.6330, 27624.00
399.8290, 27778.00
401.0250, 28017.00
402.2210, 27949.00
403.4170, 27972.00
404.6130, 27950.00
405.8080, 28105.00
407.0030, 28196.77
408.1980, 28493.00
409.3930, 28526.00
410.5880, 28800.00
411.7830, 29008.47
412.9770, 29239.00
414.1720, 29603.00
415.3660, 29905.00
416.5600, 30248.00
417.7530, 30416.00
418.9470, 30659.00
420.1410, 30991.00
421.3340, 31279.00
422.5270, 31174.00
423.7200, 31056.00
424.9130, 31444.00
426.1060, 31141.00
427.2980, 31352.00
428.4900, 31579.00
429.6830, 32108.00
430.8750, 32299.00
432.0670, 32458.00
433.2580, 32840.00
434.4500, 33394.50
435.6410, 34016.00
436.8320, 34838.00
438.0240, 35848.00
439.2140, 36792.00
440.4050, 38133.00
441.5960, 39592.00
442.7860, 41313.00
443.9760, 43475.00
445.1670, 46168.00
446.3560, 48998.00
447.5460, 53145.00
448.7360, 58226.00
449.9250, 64316.00
451.1150, 70675.00
452.3040, 77750.00
453.4930, 84089.00
454.6810, 88348.00
455.8700, 92638.00
457.0590, 94366.00
458.2470, 95631.00
459.4350, 95185.00
460.6230, 93366.00
461.8110, 90005.00
462.9980, 84900.00
464.1860, 79753.00
465.3730, 73873.00
466.5600, 68341.00
467.7470, 62364.00
468.9340, 57574.00
470.1210, 53113.00
471.3080, 49673.00
472.4940, 46391.00
473.6800, 43613.00
474.8660, 41640.00
476.0520, 39688.00
477.2380, 38035.00
478.4230, 36966.00
479.6090, 35479.00
480.7940, 35164.00
481.9790, 34275.00
483.1640, 33970.00
484.3490, 33220.00
485.5330, 33087.00
486.7180, 32733.00
487.9020, 32292.00
489.0860, 31954.00
490.2700, 31733.00
491.4540, 31662.00
492.6370, 31482.00
493.8210, 31527.00
495.0040, 31227.00
496.1870, 31140.00
497.3700, 31056.00
498.5530, 31193.00
499.7360, 31055.00
500.9180, 31127.00
502.1000, 31110.00
503.2830, 31128.00
504.4650, 31044.00
505.6460, 30987.00
506.8280, 31222.00
508.0100, 30918.00
509.1910, 31028.00
510.3720, 31077.00
511.5530, 31361.00
512.7340, 31368.00
513.9150, 31447.00
515.0950, 31687.00
516.2760, 31626.00
517.4560, 31803.00
518.6360, 32133.00
519.8160, 32427.00
520.9950, 32508.00
522.1750, 33071.00
523.3540, 33270.00
524.5340, 34306.00
525.7130, 34872.00
526.8920, 36035.00
528.0700, 37512.00
529.2490, 38880.00
530.4270, 40882.00
531.6060, 43085.00
532.7840, 45465.00
533.9620, 48361.00
535.1390, 50654.00
536.3170, 51940.00
537.4940, 52839.00
538.6720, 51682.00
539.8490, 50345.00
541.0260, 47596.00
542.2030, 45231.00
543.3790, 42709.00
544.5560, 40728.00
545.7320, 38897.00
546.9080, 37677.00
548.0840, 36772.00
549.2600, 35560.00
550.4360, 35167.00
551.6110, 34363.00
552.7860, 34043.00
553.9620, 33427.00
555.1370, 33281.00
556.3110, 33299.00
557.4860, 33368.00
558.6610, 33026.00
559.8350, 33058.00
561.0090, 32821.00
562.1830, 32642.00
563.3570, 32614.00
564.5310, 32709.00
565.7040, 32940.00
566.8780, 32577.00
568.0510, 32740.00
569.2240, 32477.00
570.3970, 32872.00
571.5700, 32861.00
572.7420, 32839.00
573.9150, 32652.00
575.0870, 32623.00
576.2590, 32650.00
577.4310, 32463.00
578.6030, 32509.00
579.7740, 32669.00
580.9460, 32465.00
582.1170, 32565.00
583.2880, 32287.00
584.4590, 32347.00
585.6300, 32383.00
586.8010, 32538.00
587.9710, 32524.00
589.1410, 32965.00
590.3110, 32418.00
591.4810, 32574.00
592.6510, 32375.00
593.8210, 32813.00
594.9900, 32722.00
596.1600, 33042.00
597.3290, 33261.00
598.4980, 33370.00
599.6670, 33635.00
600.8350, 33730.00
602.0040, 33822.80
603.1720, 33715.00
604.3400, 33921.00
605.5080, 33976.00
606.6760, 33977.46
607.8440, 33705.00
609.0120, 33948.00
610.1790, 33894.00
611.3460, 33973.00
612.5130, 34058.00
613.6800, 33706.00
614.8470, 33775.00
616.0130, 33756.00
617.1800, 33753.00
618.3460, 33979.00
619.5120, 34010.00
620.6780, 33959.00
621.8440, 33708.00
623.0090, 33952.00
624.1750, 33884.00
625.3400, 34030.00
626.5050, 33892.00
627.6700, 33757.00
628.8350, 34044.00
629.9990, 33492.00
631.1640, 33696.00
632.3280, 34083.00
633.4920, 33790.00
634.6560, 33787.00
635.8200, 33912.00
636.9840, 34105.00
638.1470, 33887.00
639.3100, 34156.00
640.4730, 34040.00
641.6360, 34218.00
642.7990, 34308.00
643.9620, 34443.00
645.1240, 34522.00
646.2870, 34687.00
647.4490, 34757.00
648.6110, 34718.00
649.7730, 34613.00
650.9340, 34787.00
652.0960, 34754.00
653.2570, 34761.00
654.4180, 34945.00
655.5790, 35113.00
656.7400, 35098.00
657.9010, 35187.00
659.0620, 35263.00
660.2220, 35378.00
661.3820, 35451.45
662.5420, 35556.00
663.7020, 35593.00
664.8620, 35695.00
666.0210, 35714.00
667.1810, 35774.00
668.3400, 35771.73
669.4990, 36077.00
670.6580, 35748.00
671.8170, 35766.00
672.9750, 35781.00
674.1340, 36107.00
675.2920, 36017.00
676.4500, 36139.00
677.6080, 36546.00
678.7660, 36508.00
679.9230, 36341.00
681.0810, 36456.00
682.2380, 36322.00
683.3950, 36170.00
684.5520, 36337.00
685.7090, 36243.00
686.8660, 36399.00
688.0220, 36394.00
689.1780, 36371.00
690.3340, 36447.00
691.4900, 36441.00
692.6460, 36525.00
693.8020, 36690.00
694.9570, 36697.00
696.1130, 36875.00
697.2680, 36876.00
698.4230, 36984.00
699.5780, 36869.00
700.7320, 37173.00
701.8870, 37134.00
703.0410, 37349.00
704.1950, 37195.00
705.3490, 37561.00
706.5030, 37605.00
707.6570, 37473.00
708.8110, 37668.89
709.9640, 37898.00
711.1170, 37791.00
712.2700, 37824.00
713.4230, 37963.00
714.5760, 38064.00
715.7280, 38008.00
716.8810, 38143.00
718.0330, 38059.00
719.1850, 38130.91
720.3370, 38403.00
721.4890, 38281.00
722.6400, 38399.00
723.7920, 38602.00
724.9430, 38219.00
726.0940, 38567.00
727.2450, 38406.00
728.3960, 38825.00
729.5460, 38746.00
730.6970, 38825.97
731.8470, 38977.00
732.9970, 38871.00
734.1470, 38865.00
735.2970, 38782.00
736.4460, 38866.00
737.5960, 39066.00
738.7450, 39227.00
739.8940, 39318.00
741.0430, 39310.00
742.1920, 39458.00
743.3410, 39388.44
744.4890, 39567.47
745.6370, 39362.00
746.7850, 39920.00
747.9330, 40127.00
749.0810, 40401.00
750.2290, 40345.00
751.3760, 40812.00
752.5240, 40892.00
753.6710, 41291.00
754.8180, 41355.00
755.9650, 41625.00
757.1110, 42058.00
758.2580, 41925.00
759.4040, 42349.00
760.5510, 42804.00
761.6970, 43301.00
762.8420, 43719.00
763.9880, 44279.00
765.1340, 44774.00
766.2790, 45381.00
767.4240, 45971.00
768.5690, 46253.00
769.7140, 47439.00
770.8590, 47712.00
772.0030, 47883.00
773.1480, 47892.00
774.2920, 47962.00
775.4360, 48080.00
776.5800, 47552.00
777.7240, 47743.00
778.8670, 47044.00
780.0110, 46153.00
781.1540, 45560.00
782.2970, 44830.00
783.4400, 44287.00
784.5830, 43872.00
785.7250, 43549.00
786.8680, 43250.79
788.0100, 43014.59
789.1520, 42864.00
790.2940, 42698.00
791.4360, 42565.00
792.5780, 42527.00
793.7190, 42442.44
794.8600, 42528.00
796.0010, 42468.00
797.1420, 42606.00
798.2830, 42826.00
799.4240, 42894.00
800.5640, 43095.00
801.7050, 43199.00
802.8450, 43493.00
803.9850, 43795.00
805.1250, 43992.00
806.2640, 44354.00
807.4040, 44377.00
808.5430, 44957.00
809.6820, 44874.00
810.8210, 44693.00
811.9600, 44571.00
813.0990, 44214.00
814.2370, 44120.00
815.3760, 43885.00
816.5140, 43672.00
817.6520, 43572.00
818.7900, 43686.00
819.9270, 43470.00
821.0650, 43894.00
822.2020, 43762.00
823.3390, 43457.00
824.4760, 43914.00
825.6130, 43691.00
826.7500, 43914.00
827.8870, 44109.00
829.0230, 43938.00
830.1590, 44241.00
831.2950, 44382.00
832.4310, 44386.00
833.5670, 44370.00
834.7030, 44435.00
835.8380, 44646.00
836.9730, 44651.00
838.1080, 44739.94
839.2430, 44853.00
840.3780, 44800.00
841.5130, 44729.00
842.6470, 44681.00
843.7810, 44957.00
844.9150, 45162.00
846.0490, 45212.00
847.1830, 44983.00
848.3170, 45189.00
849.4500, 45295.00
850.5830, 45310.00
851.7160, 45514.00
852.8490, 45568.00
853.9820, 45498.00
855.1150, 45880.00
856.2470, 45923.00
857.3800, 46252.00
858.5120, 46132.00
859.6440, 46133.00
860.7760, 46442.00
861.9070, 46525.00
863.0390, 46498.00
864.1700, 46837.00
865.3010, 46729.00
866.4320, 47052.00
867.5630, 46849.00
868.6940, 47209.00
869.8240, 47274.00
870.9540, 46982.00
872.0850, 47138.00
873.2150, 47157.00
874.3450, 47280.00
875.4740, 47348.00
876.6040, 47654.00
877.7330, 47269.00
878.8620, 47583.00
879.9910, 47275.00
881.1200, 47821.00
882.2490, 47777.00
883.3770, 47961.00
884.5060, 47802.00
885.6340, 48039.00
886.7620, 48029.00
887.8900, 47959.00
889.0180, 48427.00
890.1450, 48070.00
891.2730, 48450.00
892.4000, 48212.00
893.5270, 48817.00
894.6540, 48429.00
895.7810, 48759.00
896.9070, 48931.00
898.0340, 48963.00
899.1600, 48788.00
900.2860, 49337.00
901.4120, 49255.00
902.5380, 49503.00
903.6630, 49434.00
904.7890, 49478.00
905.9140, 49624.00
907.0390, 49967.00
908.1640, 49786.00
909.2890, 50051.00
910.4130, 50240.00
911.5380, 50093.00
912.6620, 50077.00
913.7860, 50305.00
914.9100, 50196.00
916.0340, 50168.00
917.1580, 50216.00
918.2810, 50455.00
919.4040, 50358.00
920.5280, 50514.00
921.6510, 50923.00
922.7730, 50743.00
923.8960, 50896.00
925.0180, 51054.00
926.1410, 51124.00
927.2630, 51068.00
928.3850, 51208.00
929.5070, 51420.00
930.6280, 51290.00
931.7500, 51482.00
932.8710, 51747.00
933.9920, 51633.00
935.1130, 51557.00
936.2340, 51855.00
937.3550, 52065.00
938.4760, 51796.00
939.5960, 51924.00
940.7160, 52304.00
941.8360, 52166.00
942.9560, 52469.00
944.0760, 52333.00
945.1950, 52512.00
946.3150, 52703.00
947.4340, 52792.00
948.5530, 53033.00
949.6720, 53214.00
950.7900, 53251.00
951.9090, 53481.00
953.0270, 53317.00
954.1460, 53729.00
955.2640, 53858.00
956.3820, 53806.00
957.4990, 54123.00
958.6170, 53846.00
959.7340, 54197.00
960.8520, 53920.00
961.9690, 54424.00
963.0860, 54393.00
964.2020, 54172.00
965.3190, 54599.00
966.4350, 54676.00
967.5520, 54976.00
968.6680, 55053.00
969.7840, 55161.00
970.8990, 55533.00
972.0150, 55396.00
973.1310, 55413.00
974.2460, 55738.00
975.3610, 55839.21
976.4760, 56276.00
977.5910, 56474.00
978.7050, 57029.00
979.8200, 57542.00
980.9340, 58068.00
982.0480, 58737.00
983.1620, 59616.00
984.2760, 60523.00
985.3900, 61097.00
986.5030, 61797.00
987.6160, 62778.00
988.7300, 63754.00
989.8430, 64749.00
990.9550, 65623.00
992.0680, 66295.00
993.1810, 66682.00
994.2930, 66214.00
995.4050, 65167.00
996.5170, 64040.00
997.6290, 62379.00
998.7410, 61356.00
999.8520, 60002.00
1000.964, 59223.00
1002.075, 58844.00
1003.186, 58554.00
1004.297, 58793.00
1005.407, 58130.00
1006.518, 58277.00
1007.628, 58526.00
1008.738, 57977.00
1009.848, 57903.00
1010.958, 58067.00
1012.068, 57368.00
1013.178, 57770.00
1014.287, 57548.00
1015.396, 57197.00
1016.505, 57327.00
1017.614, 57408.00
1018.723, 57530.00
1019.831, 57496.00
1020.940, 57862.00
1022.048, 57697.00
1023.156, 57899.00
1024.264, 58254.00
1025.372, 58459.00
1026.479, 58998.00
1027.587, 59111.00
1028.694, 59537.00
1029.801, 59802.00
1030.908, 59793.00
1032.015, 60265.00
1033.121, 60828.00
1034.228, 60802.00
1035.334, 61336.00
1036.440, 61653.00
1037.546, 61576.00
1038.652, 61881.00
1039.758, 62447.00
1040.863, 62491.00
1041.968, 62827.00
1043.074, 62764.00
1044.178, 62806.00
1045.283, 63315.00
1046.388, 63179.00
1047.492, 63603.00
1048.597, 63953.00
1049.701, 63961.72
1050.805, 64653.00
1051.909, 64248.00
1053.012, 64676.00
1054.116, 64964.00
1055.219, 65319.00
1056.322, 65591.00
1057.425, 65938.00
1058.528, 66047.00
1059.631, 66571.00
1060.733, 66944.00
1061.836, 67046.00
1062.938, 67401.00
1064.040, 67863.00
1065.142, 68406.00
1066.243, 68158.00
1067.345, 68702.00
1068.446, 68936.00
1069.547, 69493.00
1070.648, 70001.00
1071.749, 69623.00
1072.850, 69890.00
1073.951, 70092.00
1075.051, 70194.00
1076.151, 70060.00
1077.251, 70394.00
1078.351, 70330.00
1079.451, 70109.00
1080.550, 70710.00
1081.650, 70994.00
1082.749, 71120.00
1083.848, 71188.00
1084.947, 71275.00
1086.046, 71721.00
1087.144, 71709.00
1088.243, 72791.00
1089.341, 72693.00
1090.439, 73518.00
1091.537, 74664.00
1092.635, 74866.00
1093.732, 76045.00
1094.830, 76660.00
1095.927, 77716.00
1097.024, 78134.00
1098.121, 78165.00
1099.218, 78694.00
1100.314, 78179.00
1101.411, 77460.00
1102.507, 76520.00
1103.603, 76033.00
1104.699, 75200.00
1105.795, 74762.00
1106.890, 74938.00
1107.986, 74503.00
1109.081, 75680.00
1110.176, 76926.00
1111.271, 77769.00
1112.366, 79031.00
1113.461, 79004.00
1114.555, 78780.00
1115.649, 76840.00
1116.744, 74941.00
1117.838, 73073.00
1118.931, 72290.00
1120.025, 71474.00
1121.119, 70927.00
1122.212, 71383.00
1123.305, 71201.00
1124.398, 71120.00
1125.491, 70814.00
1126.584, 71034.00
1127.676, 71027.00
1128.768, 71083.00
1129.861, 71518.00
1130.953, 71137.00
1132.044, 71626.00
1133.136, 71726.00
1134.228, 71616.00
1135.319, 71546.00
1136.410, 71656.00
1137.501, 71990.00
1138.592, 72041.00
1139.683, 72099.00
1140.773, 71934.00
1141.864, 72448.00
1142.954, 71883.00
1144.044, 72585.00
1145.134, 72683.00
1146.224, 72357.00
1147.313, 72306.00
1148.402, 72686.00
1149.492, 73012.00
1150.581, 73054.00
1151.670, 73243.00
1152.758, 73131.00
1153.847, 73008.00
1154.935, 73433.00
1156.024, 73550.59
1157.112, 73800.78
1158.200, 73979.13
1159.287, 74089.44
1160.375, 73928.27
1161.462, 74117.68
1162.550, 74166.63
1163.637, 74209.74
1164.724, 74448.49
1165.810, 74326.66
1166.897, 74562.30
1167.983, 74592.00
1169.070, 74899.20
1170.156, 75100.41
1171.242, 75577.00
1172.327, 75473.00
1173.413, 75533.00
1174.499, 75658.00
1175.584, 76046.00
1176.669, 76272.00
1177.754, 76393.00
1178.839, 76195.00
1179.923, 76550.00
1181.008, 76618.00
1182.092, 76417.00
1183.176, 77184.00
1184.260, 76853.00
1185.344, 77404.00
1186.428, 77372.00
1187.511, 77706.00
1188.595, 78001.00
1189.678, 77917.00
1190.761, 77961.00
1191.843, 78660.00
1192.926, 78332.00
1194.009, 78791.00
1195.091, 79072.00
1196.173, 78989.00
1197.255, 79670.00
1198.337, 79487.00
1199.419, 80026.00
1200.500, 79946.00
1201.582, 80202.00
1202.663, 80320.00
1203.744, 80402.00
1204.825, 80386.00
1205.905, 80589.00
1206.986, 80845.00
1208.066, 80851.00
1209.146, 80508.00
1210.226, 80838.00
1211.306, 80867.00
1212.386, 81390.00
1213.466, 81054.00
1214.545, 81225.00
1215.624, 81287.00
1216.703, 81517.00
1217.782, 81375.00
1218.861, 81341.00
1219.939, 81658.00
1221.018, 81708.00
1222.096, 81811.00
1223.174, 82161.00
1224.252, 82186.00
1225.330, 82567.00
1226.407, 82199.00
1227.485, 82640.00
1228.562, 82589.00
1229.639, 83401.00
1230.716, 82842.00
1231.793, 83160.00
1232.869, 82979.00
1233.946, 83383.00
1235.022, 83642.00
1236.098, 83656.00
1237.174, 83701.00
1238.250, 83767.00
1239.325, 83917.00
1240.401, 84170.00
1241.476, 84179.00
1242.551, 84288.00
1243.626, 84765.00
1244.701, 84782.00
1245.776, 84511.00
1246.850, 85218.00
1247.924, 84985.00
1248.999, 85671.00
1250.073, 85624.00
1251.146, 86229.00
1252.220, 86014.00
1253.293, 85928.00
1254.367, 86274.00
1255.440, 86550.00
1256.513, 86598.00
1257.586, 86792.84
1258.658, 86568.00
1259.731, 86987.00
1260.803, 86951.00
1261.875, 87125.00
1262.947, 87456.00
1264.019, 87384.00
1265.091, 87845.00
1266.162, 87729.00
1267.234, 88227.00
1268.305, 88233.00
1269.376, 88582.00
1270.447, 88451.00
1271.517, 88796.00
1272.588, 89029.00
