##NAMES=Marialite
##RRUFFID=R060458
##IDEAL CHEMISTRY=Na_4_Al_3_Si_9_O_24_Cl
##LOCALITY=Dading, Nepal
##OWNER=RRUFF
##SOURCE=Michael Scott
##DESCRIPTION=Colorless elongated prism
##STATUS=The identification of this mineral has been confirmed by X-ray diffraction and chemical analysis
##URL=rruff.info/R060458
##MEASURED CHEMISTRY=(Na_0.52_Ca_0.47_K_0.01_)_4_(Al_0.36_Si_0.64_)_12_O_24_(Cl_0.44_(CO_3_)_0.56_)
##PIN_ID=L00702
##ORIENTATION=Laser parallel to c* (0 0 1). Fiducial mark perpendicular to laser is parallel to a [1 0 0]
89.57500, 30772.00
90.81200, 30833.00
92.04900, 31172.00
93.28600, 31553.00
94.52300, 31986.00
95.75900, 32842.00
96.99500, 33566.00
98.23100, 34240.00
99.46700, 35186.00
100.7030, 36560.00
101.9390, 37832.00
103.1740, 39276.00
104.4090, 41004.00
105.6440, 43020.00
106.8790, 44702.00
108.1140, 45567.00
109.3490, 46529.00
110.5830, 47043.00
111.8180, 47330.00
113.0520, 46608.00
114.2860, 44332.00
115.5200, 42867.00
116.7530, 41094.00
117.9870, 39305.00
119.2200, 38570.00
120.4530, 38968.00
121.6860, 38459.00
122.9190, 37344.00
124.1520, 35953.00
125.3850, 35353.00
126.6170, 35390.00
127.8490, 35138.00
129.0810, 35056.00
130.3130, 35413.00
131.5450, 35220.00
132.7770, 35614.00
134.0080, 35749.00
135.2390, 35842.00
136.4710, 36609.00
137.7020, 37174.00
138.9320, 37988.00
140.1630, 38818.00
141.3930, 39687.00
142.6240, 40646.00
143.8540, 42081.91
145.0840, 43532.00
146.3140, 45280.00
147.5440, 47083.00
148.7730, 49141.20
150.0020, 51103.00
151.2320, 53722.00
152.4610, 56328.00
153.6900, 58965.00
154.9180, 61166.00
156.1470, 63241.00
157.3750, 65122.00
158.6040, 66561.00
159.8320, 67145.00
161.0600, 67024.00
162.2870, 67257.00
163.5150, 66472.00
164.7420, 64601.00
165.9700, 62975.00
167.1970, 61292.00
168.4240, 59114.00
169.6510, 56254.00
170.8770, 53362.00
172.1040, 50899.00
173.3300, 49164.00
174.5560, 47095.00
175.7820, 45383.00
177.0080, 43946.00
178.2340, 42638.00
179.4590, 42237.00
180.6850, 41725.00
181.9100, 41546.00
183.1350, 41445.00
184.3600, 41220.00
185.5850, 41130.00
186.8090, 40800.00
188.0340, 41416.00
189.2580, 41256.00
190.4820, 41223.00
191.7060, 41021.00
192.9300, 40784.25
194.1530, 40797.00
195.3770, 40231.00
196.6000, 40239.00
197.8230, 40013.00
199.0460, 39712.00
200.2690, 39153.00
201.4910, 38853.00
202.7140, 38744.00
203.9360, 38831.00
205.1580, 38376.00
206.3800, 38680.00
207.6020, 38500.00
208.8240, 38477.00
210.0450, 37827.00
211.2670, 37163.00
212.4880, 36643.00
213.7090, 36128.00
214.9300, 35550.00
216.1510, 35167.00
217.3710, 34687.00
218.5920, 34543.00
219.8120, 34224.00
221.0320, 34067.00
222.2520, 33726.00
223.4720, 33918.00
224.6910, 33680.00
225.9110, 33828.00
227.1300, 33624.00
228.3490, 33326.00
229.5680, 32855.00
230.7870, 32273.00
232.0050, 31622.00
233.2240, 31481.00
234.4420, 30771.00
235.6600, 30207.00
236.8780, 29509.00
238.0960, 29330.00
239.3140, 28892.00
240.5310, 28365.00
241.7490, 28014.00
242.9660, 28044.00
244.1830, 28212.00
245.4000, 28095.00
246.6160, 28149.00
247.8330, 28236.00
249.0490, 28546.00
250.2660, 28963.06
251.4820, 29649.00
252.6980, 30206.00
253.9130, 30742.00
255.1290, 31658.00
256.3440, 32389.00
257.5600, 33062.00
258.7750, 33979.00
259.9900, 34404.00
261.2040, 34483.00
262.4190, 34416.00
263.6330, 33946.00
264.8480, 33058.00
266.0620, 31513.00
267.2760, 30522.00
268.4900, 29507.00
269.7030, 27962.00
270.9170, 26975.00
272.1300, 26223.00
273.3430, 25416.00
274.5560, 24493.00
275.7690, 24391.00
276.9820, 23959.00
278.1940, 24041.00
279.4070, 23895.00
280.6190, 23937.00
281.8310, 23911.00
283.0430, 24137.00
284.2550, 24428.00
285.4660, 24585.00
286.6770, 24947.00
287.8890, 25393.00
289.1000, 25667.00
290.3110, 26063.94
291.5210, 26476.00
292.7320, 26781.00
293.9420, 26991.00
295.1530, 26905.53
296.3630, 26725.51
297.5730, 26312.00
298.7830, 25842.00
299.9920, 25133.00
301.2020, 24357.00
302.4110, 23610.00
303.6200, 22850.00
304.8290, 22394.00
306.0380, 22279.00
307.2470, 21947.00
308.4550, 21904.00
309.6630, 21540.00
310.8720, 21384.00
312.0800, 21433.00
313.2880, 21240.00
314.4950, 21435.00
315.7030, 21790.00
316.9100, 21613.00
318.1170, 21733.00
319.3240, 22001.00
320.5310, 22107.00
321.7380, 22218.00
322.9450, 22405.76
324.1510, 22366.00
325.3570, 22677.00
326.5630, 22772.00
327.7690, 22859.00
328.9750, 23128.00
330.1810, 23140.00
331.3860, 23117.00
332.5910, 23484.00
333.7960, 23742.00
335.0010, 23877.48
336.2060, 24170.00
337.4110, 24168.00
338.6150, 24215.00
339.8200, 24131.00
341.0240, 24130.00
342.2280, 23635.00
343.4320, 23736.00
344.6350, 23690.00
345.8390, 23498.00
347.0420, 23574.00
348.2450, 23595.00
349.4480, 23965.00
350.6510, 24289.00
351.8540, 24825.00
353.0560, 25263.73
354.2590, 25862.62
355.4610, 26238.00
356.6630, 27159.00
357.8650, 27555.00
359.0670, 28211.00
360.2680, 28464.00
361.4700, 28379.00
362.6710, 28321.00
363.8720, 27814.00
365.0730, 27196.00
366.2740, 26677.00
367.4740, 26048.00
368.6750, 25466.00
369.8750, 24911.00
371.0750, 24480.00
372.2750, 24576.00
373.4750, 24497.00
374.6740, 24342.00
375.8740, 24669.00
377.0730, 24194.00
378.2720, 24437.00
379.4710, 24146.00
380.6700, 24188.00
381.8690, 24159.00
383.0670, 24151.00
384.2660, 24133.63
385.4640, 24142.00
386.6620, 24038.00
387.8600, 24095.00
389.0570, 23986.00
390.2550, 23967.00
391.4520, 23727.00
392.6490, 23670.00
393.8460, 23601.73
395.0430, 23545.00
396.2400, 23497.00
397.4370, 23503.00
398.6330, 23456.00
399.8290, 23513.51
401.0250, 23697.00
402.2210, 23722.00
403.4170, 23626.00
404.6130, 23896.00
405.8080, 24087.00
407.0030, 23780.00
408.1980, 24438.00
409.3930, 24654.00
410.5880, 25157.00
411.7830, 25258.00
412.9770, 25753.00
414.1720, 25917.00
415.3660, 26225.00
416.5600, 26890.00
417.7530, 27563.00
418.9470, 27897.00
420.1410, 28311.00
421.3340, 28900.00
422.5270, 28797.00
423.7200, 29166.00
424.9130, 28956.00
426.1060, 29196.00
427.2980, 29388.00
428.4900, 29440.00
429.6830, 29665.00
430.8750, 30008.00
432.0670, 30435.00
433.2580, 30763.00
434.4500, 31236.00
435.6410, 31928.00
436.8320, 33394.00
438.0240, 34740.00
439.2140, 36524.00
440.4050, 38115.00
441.5960, 40782.00
442.7860, 43825.00
443.9760, 46937.00
445.1670, 51174.00
446.3560, 55639.00
447.5460, 60890.00
448.7360, 66330.00
449.9250, 73090.00
451.1150, 79312.00
452.3040, 85736.00
453.4930, 90784.00
454.6810, 93727.00
455.8700, 95794.00
457.0590, 96217.00
458.2470, 95853.00
459.4350, 95197.00
460.6230, 93791.00
461.8110, 91256.00
462.9980, 87953.00
464.1860, 82817.00
465.3730, 77482.00
466.5600, 71385.00
467.7470, 65040.00
468.9340, 59955.00
470.1210, 54688.00
471.3080, 50303.00
472.4940, 46689.00
473.6800, 43220.00
474.8660, 40753.00
476.0520, 38644.00
477.2380, 37019.00
478.4230, 35564.00
479.6090, 34180.00
480.7940, 33324.00
481.9790, 32428.00
483.1640, 31634.94
484.3490, 30847.00
485.5330, 30484.69
486.7180, 29983.00
487.9020, 29627.00
489.0860, 29098.00
490.2700, 28915.00
491.4540, 28709.00
492.6370, 28282.00
493.8210, 28114.00
495.0040, 27705.00
496.1870, 27921.00
497.3700, 27629.00
498.5530, 27315.00
499.7360, 27560.00
500.9180, 27363.00
502.1000, 27375.00
503.2830, 27316.00
504.4650, 27271.00
505.6460, 27327.00
506.8280, 27067.00
508.0100, 27311.00
509.1910, 27127.00
510.3720, 27189.00
511.5530, 27045.00
512.7340, 27230.00
513.9150, 27521.00
515.0950, 27665.00
516.2760, 27940.00
517.4560, 28468.00
518.6360, 28835.00
519.8160, 29288.00
520.9950, 30148.00
522.1750, 30933.00
523.3540, 31757.00
524.5340, 33111.00
525.7130, 34566.00
526.8920, 36348.00
528.0700, 38197.00
529.2490, 40526.00
530.4270, 42901.00
531.6060, 45176.00
532.7840, 47927.00
533.9620, 49388.00
535.1390, 50648.00
536.3170, 49941.80
537.4940, 48845.00
538.6720, 46649.00
539.8490, 44100.00
541.0260, 41672.00
542.2030, 39341.00
543.3790, 37450.00
544.5560, 36247.00
545.7320, 34604.00
546.9080, 33684.00
548.0840, 32529.00
549.2600, 31709.00
550.4360, 31020.00
551.6110, 30821.00
552.7860, 30528.00
553.9620, 30060.00
555.1370, 30001.00
556.3110, 29595.00
557.4860, 29658.00
558.6610, 29600.00
559.8350, 29446.00
561.0090, 29173.00
562.1830, 29273.00
563.3570, 29267.00
564.5310, 29559.00
565.7040, 29597.00
566.8780, 29299.00
568.0510, 29375.00
569.2240, 29172.00
570.3970, 29463.00
571.5700, 29268.00
572.7420, 29481.00
573.9150, 29601.00
575.0870, 29487.00
576.2590, 29639.00
577.4310, 29593.00
578.6030, 29645.00
579.7740, 29844.00
580.9460, 29829.00
582.1170, 29892.00
583.2880, 29769.00
584.4590, 29729.00
585.6300, 29909.00
586.8010, 30163.00
587.9710, 30155.00
589.1410, 30073.00
590.3110, 30007.00
591.4810, 30165.00
592.6510, 30165.00
593.8210, 30311.00
594.9900, 30219.00
596.1600, 30600.00
597.3290, 30558.00
598.4980, 30646.00
599.6670, 31166.00
600.8350, 31270.00
602.0040, 31205.00
603.1720, 31508.00
604.3400, 31884.00
605.5080, 32233.00
606.6760, 32208.00
607.8440, 32102.00
609.0120, 32503.00
610.1790, 32891.00
611.3460, 32824.00
612.5130, 32972.00
613.6800, 32679.00
614.8470, 32562.00
616.0130, 32273.00
617.1800, 32069.00
618.3460, 32094.00
619.5120, 31908.00
620.6780, 31935.00
621.8440, 31706.00
623.0090, 31967.00
624.1750, 31935.00
625.3400, 32137.00
626.5050, 31970.00
627.6700, 32290.00
628.8350, 32121.00
629.9990, 32191.00
631.1640, 32252.00
632.3280, 32251.00
633.4920, 32224.00
634.6560, 32240.00
635.8200, 32345.00
636.9840, 32379.00
638.1470, 32483.00
639.3100, 32638.00
640.4730, 32643.00
641.6360, 32609.00
642.7990, 32907.00
643.9620, 32780.00
645.1240, 33071.00
646.2870, 33271.00
647.4490, 33615.00
648.6110, 33458.00
649.7730, 33541.00
650.9340, 33507.00
652.0960, 33567.00
653.2570, 33773.00
654.4180, 33920.00
655.5790, 33972.00
656.7400, 33866.00
657.9010, 33998.00
659.0620, 34148.00
660.2220, 34473.00
661.3820, 34225.00
662.5420, 34516.00
663.7020, 34417.00
664.8620, 34483.99
666.0210, 34542.00
667.1810, 34637.00
668.3400, 34649.00
669.4990, 34731.00
670.6580, 34846.00
671.8170, 35025.00
672.9750, 35284.00
674.1340, 35753.00
675.2920, 35853.00
676.4500, 36242.00
677.6080, 36519.00
678.7660, 36393.00
679.9230, 36052.00
681.0810, 36144.00
682.2380, 35761.00
683.3950, 35919.00
684.5520, 35680.00
685.7090, 35576.00
686.8660, 35666.22
688.0220, 35619.00
689.1780, 35752.00
690.3340, 35796.00
691.4900, 35810.00
692.6460, 36006.00
693.8020, 36197.00
694.9570, 36210.00
696.1130, 36084.00
697.2680, 36361.00
698.4230, 36204.00
699.5780, 36557.00
700.7320, 36488.00
701.8870, 36892.00
703.0410, 37036.00
704.1950, 36909.00
705.3490, 36930.00
706.5030, 37376.00
707.6570, 37377.00
708.8110, 37493.00
709.9640, 37732.00
711.1170, 37520.00
712.2700, 38082.00
713.4230, 37904.00
714.5760, 38110.00
715.7280, 38251.00
716.8810, 38239.00
718.0330, 38325.00
719.1850, 38433.00
720.3370, 38515.00
721.4890, 38824.00
722.6400, 38713.00
723.7920, 38789.00
724.9430, 39196.00
726.0940, 39269.00
727.2450, 39146.00
728.3960, 39297.00
729.5460, 39416.33
730.6970, 39819.00
731.8470, 39746.00
732.9970, 39934.00
734.1470, 40008.00
735.2970, 39886.00
736.4460, 40332.00
737.5960, 40195.00
738.7450, 40397.00
739.8940, 40472.00
741.0430, 40640.00
742.1920, 40926.00
743.3410, 40666.00
744.4890, 41132.47
745.6370, 41227.00
746.7850, 41768.00
747.9330, 41729.00
749.0810, 41978.00
750.2290, 42254.00
751.3760, 42339.00
752.5240, 42717.00
753.6710, 43180.00
754.8180, 43396.00
755.9650, 44064.00
757.1110, 44318.00
758.2580, 45105.00
759.4040, 45738.00
760.5510, 46009.00
761.6970, 46860.00
762.8420, 47980.00
763.9880, 48614.00
765.1340, 49553.00
766.2790, 50249.00
767.4240, 51551.00
768.5690, 52227.00
769.7140, 52834.00
770.8590, 53340.00
772.0030, 53371.77
773.1480, 53203.00
774.2920, 52786.00
775.4360, 52211.00
776.5800, 51058.00
777.7240, 49996.00
778.8670, 48628.00
780.0110, 47318.00
781.1540, 46632.00
782.2970, 45616.00
783.4400, 44969.00
784.5830, 44270.00
785.7250, 44192.00
786.8680, 44123.00
788.0100, 43822.00
789.1520, 43583.00
790.2940, 43386.00
791.4360, 43510.00
792.5780, 43720.00
793.7190, 43927.00
794.8600, 43762.00
796.0010, 43819.00
797.1420, 44036.00
798.2830, 44195.00
799.4240, 44570.00
800.5640, 44672.00
801.7050, 44909.00
802.8450, 45144.00
803.9850, 45319.00
805.1250, 45449.00
806.2640, 45614.00
807.4040, 45658.00
808.5430, 45303.00
809.6820, 45470.00
810.8210, 45103.00
811.9600, 45081.00
813.0990, 44725.00
814.2370, 44827.00
815.3760, 44802.00
816.5140, 44841.00
817.6520, 45110.00
818.7900, 45165.00
819.9270, 45409.00
821.0650, 45444.07
822.2020, 45291.00
823.3390, 45515.00
824.4760, 45441.00
825.6130, 45486.00
826.7500, 45729.00
827.8870, 46072.00
829.0230, 45905.00
830.1590, 46197.00
831.2950, 46198.00
832.4310, 46674.00
833.5670, 46162.00
834.7030, 46430.00
835.8380, 46275.00
836.9730, 46616.00
838.1080, 46534.00
839.2430, 46609.00
840.3780, 46933.00
841.5130, 47347.00
842.6470, 46951.00
843.7810, 47044.00
844.9150, 47355.00
846.0490, 47268.00
847.1830, 47527.00
848.3170, 47547.61
849.4500, 47657.00
850.5830, 47641.00
851.7160, 47839.00
852.8490, 47973.00
853.9820, 48246.00
855.1150, 48404.38
856.2470, 48343.00
857.3800, 48703.00
858.5120, 48927.00
859.6440, 48898.00
860.7760, 49112.00
861.9070, 49387.00
863.0390, 49331.00
864.1700, 49524.00
865.3010, 49427.00
866.4320, 49642.00
867.5630, 49489.00
868.6940, 49966.00
869.8240, 49605.00
870.9540, 49575.00
872.0850, 50059.00
873.2150, 50267.00
874.3450, 50275.00
875.4740, 50339.00
876.6040, 50661.00
877.7330, 50683.70
878.8620, 50915.00
879.9910, 50943.00
881.1200, 50954.00
882.2490, 51065.00
883.3770, 50991.00
884.5060, 51410.00
885.6340, 51540.00
886.7620, 51796.00
887.8900, 51566.00
889.0180, 52090.00
890.1450, 51981.00
891.2730, 52071.00
892.4000, 52164.00
893.5270, 52468.00
894.6540, 52579.00
895.7810, 52707.00
896.9070, 52691.00
898.0340, 53116.00
899.1600, 53157.00
900.2860, 53081.00
901.4120, 52994.00
902.5380, 53634.00
903.6630, 53567.00
904.7890, 53923.00
905.9140, 53761.00
907.0390, 53987.00
908.1640, 54271.00
909.2890, 54364.00
910.4130, 54566.00
911.5380, 54695.00
912.6620, 54716.00
913.7860, 54823.02
914.9100, 54845.00
916.0340, 54955.00
917.1580, 54990.00
918.2810, 55167.00
919.4040, 55015.00
920.5280, 55377.00
921.6510, 55429.00
922.7730, 55389.00
923.8960, 55778.00
925.0180, 55750.00
926.1410, 56017.00
927.2630, 55888.00
928.3850, 56058.00
929.5070, 56453.00
930.6280, 56111.00
931.7500, 56543.00
932.8710, 56544.00
933.9920, 56646.00
935.1130, 56924.00
936.2340, 57174.00
937.3550, 57060.00
938.4760, 57525.00
939.5960, 57725.00
940.7160, 57793.00
941.8360, 58113.00
942.9560, 57856.00
944.0760, 57902.00
945.1950, 58473.00
946.3150, 58369.00
947.4340, 58870.00
948.5530, 59285.00
949.6720, 59477.00
950.7900, 59126.00
951.9090, 59390.00
953.0270, 59598.00
954.1460, 60232.00
955.2640, 60274.00
956.3820, 60093.00
957.4990, 60516.00
958.6170, 60470.00
959.7340, 60928.00
960.8520, 61070.00
961.9690, 61144.00
963.0860, 61358.00
964.2020, 61662.00
965.3190, 61651.00
966.4350, 61893.00
967.5520, 62093.00
968.6680, 62496.00
969.7840, 62613.00
970.8990, 63003.00
972.0150, 62744.00
973.1310, 62927.00
974.2460, 63239.00
975.3610, 63551.00
976.4760, 63926.00
977.5910, 63947.00
978.7050, 63770.00
979.8200, 64476.00
980.9340, 64312.00
982.0480, 64686.00
983.1620, 64916.00
984.2760, 64744.00
985.3900, 65275.00
986.5030, 65206.00
987.6160, 65414.00
988.7300, 65610.00
989.8430, 65502.00
990.9550, 65271.00
992.0680, 65283.00
993.1810, 65050.00
994.2930, 65227.00
995.4050, 65628.00
996.5170, 65429.00
997.6290, 65709.00
998.7410, 66002.00
999.8520, 65858.00
1000.964, 66666.00
1002.075, 66810.00
1003.186, 66742.00
1004.297, 66971.00
1005.407, 66867.98
1006.518, 66859.00
1007.628, 66840.00
1008.738, 66545.00
1009.848, 66744.00
1010.958, 66593.00
1012.068, 66344.00
1013.178, 66933.00
1014.287, 66848.00
1015.396, 66840.00
1016.505, 67099.00
1017.614, 66959.00
1018.723, 67004.00
1019.831, 67686.00
1020.940, 67486.00
1022.048, 67559.00
1023.156, 68257.00
1024.264, 68391.00
1025.372, 68672.00
1026.479, 69065.00
1027.587, 69561.00
1028.694, 69905.00
1029.801, 70530.00
1030.908, 70912.00
1032.015, 71542.00
1033.121, 71745.00
1034.228, 72272.00
1035.334, 72188.00
1036.440, 72901.00
1037.546, 73165.00
1038.652, 73775.00
1039.758, 73945.00
1040.863, 74546.00
1041.968, 74800.00
1043.074, 74756.00
1044.178, 75111.00
1045.283, 75259.00
1046.388, 76108.00
1047.492, 76289.00
1048.597, 76566.00
1049.701, 76770.00
1050.805, 76848.00
1051.909, 77373.00
1053.012, 77692.00
1054.116, 78099.00
1055.219, 78273.00
1056.322, 78749.00
1057.425, 79111.00
1058.528, 79396.00
1059.631, 79824.00
1060.733, 80418.00
1061.836, 81078.00
1062.938, 81687.00
1064.040, 82203.00
1065.142, 82579.00
1066.243, 83124.00
1067.345, 83468.00
1068.446, 84035.00
1069.547, 84716.00
1070.648, 85311.00
1071.749, 85489.00
1072.850, 85892.00
1073.951, 85990.00
1075.051, 86019.00
1076.151, 86509.00
1077.251, 86674.00
1078.351, 87128.00
1079.451, 87517.00
1080.550, 88832.00
1081.650, 90222.00
1082.749, 91584.00
1083.848, 93545.00
1084.947, 95357.00
1086.046, 97859.00
1087.144, 100089.0
1088.243, 102174.0
1089.341, 105240.0
1090.439, 107483.0
1091.537, 109559.0
1092.635, 110993.0
1093.732, 112067.6
1094.830, 112745.9
1095.927, 112919.0
1097.024, 112681.0
1098.121, 112051.0
1099.218, 110797.0
1100.314, 109853.0
1101.411, 108507.0
1102.507, 107671.0
1103.603, 107116.0
1104.699, 106743.0
1105.795, 106684.0
1106.890, 106261.0
1107.986, 105506.0
1109.081, 104240.0
1110.176, 102253.0
1111.271, 98835.00
1112.366, 96162.00
1113.461, 93507.00
1114.555, 90756.00
1115.649, 88461.00
1116.744, 87000.00
1117.838, 86096.00
1118.931, 85483.00
1120.025, 85808.00
1121.119, 85518.00
1122.212, 85112.00
1123.305, 85364.00
1124.398, 85579.00
1125.491, 85694.00
1126.584, 85719.00
1127.676, 86023.00
1128.768, 86048.00
1129.861, 86128.00
1130.953, 86478.00
1132.044, 85822.00
1133.136, 86197.00
1134.228, 86307.00
1135.319, 86602.00
1136.410, 86999.00
1137.501, 87090.00
1138.592, 86756.00
1139.683, 87362.00
1140.773, 87278.00
1141.864, 87765.00
1142.954, 87903.44
1144.044, 87492.00
1145.134, 88070.00
1146.224, 88355.00
1147.313, 88173.00
1148.402, 88707.00
1149.492, 88714.00
1150.581, 88854.00
1151.670, 89251.00
1152.758, 88918.00
1153.847, 89302.00
1154.935, 89919.00
1156.024, 90024.00
1157.112, 90153.00
1158.200, 90419.00
1159.287, 90715.00
1160.375, 90706.00
1161.462, 91203.00
1162.550, 91285.00
1163.637, 91540.00
1164.724, 91886.00
1165.810, 92256.00
1166.897, 92182.00
1167.983, 92457.00
1169.070, 92584.00
1170.156, 93182.00
1171.242, 93112.00
1172.327, 93548.00
1173.413, 93569.00
1174.499, 93915.00
1175.584, 94087.00
1176.669, 94086.00
1177.754, 94882.00
1178.839, 94722.00
1179.923, 95004.00
1181.008, 95134.00
1182.092, 95168.00
1183.176, 95983.00
1184.260, 95998.00
1185.344, 96313.00
1186.428, 96694.00
1187.511, 97041.00
1188.595, 97335.00
1189.678, 97664.31
1190.761, 97912.00
1191.843, 98311.00
1192.926, 98350.00
1194.009, 98768.00
1195.091, 98629.00
1196.173, 99170.00
1197.255, 99381.00
1198.337, 99981.00
1199.419, 99903.00
1200.500, 99988.00
1201.582, 100155.0
1202.663, 99886.00
1203.744, 100485.0
1204.825, 100623.0
1205.905, 100152.0
1206.986, 100806.0
1208.066, 100819.0
1209.146, 100918.0
1210.226, 101031.0
1211.306, 100746.0
1212.386, 101217.0
1213.466, 101049.0
1214.545, 102001.0
1215.624, 101269.0
1216.703, 101972.0
1217.782, 101906.0
1218.861, 101533.0
1219.939, 102413.0
1221.018, 101983.0
1222.096, 102467.0
1223.174, 102992.0
1224.252, 102925.0
1225.330, 103586.0
1226.407, 103270.0
1227.485, 103494.0
1228.562, 103624.0
1229.639, 103578.0
1230.716, 103931.0
1231.793, 104034.0
1232.869, 104249.0
1233.946, 104278.0
1235.022, 104562.9
1236.098, 104805.3
1237.174, 105115.0
1238.250, 105299.0
1239.325, 105627.0
1240.401, 105922.0
1241.476, 106112.0
1242.551, 106494.0
1243.626, 106731.0
1244.701, 106862.0
1245.776, 107181.3
1246.850, 107524.0
1247.924, 107652.0
1248.999, 107896.0
1250.073, 108102.0
1251.146, 108592.0
1252.220, 108284.0
1253.293, 108980.0
1254.367, 109206.0
1255.440, 109307.0
1256.513, 109760.0
1257.586, 109671.0
1258.658, 110019.0
1259.731, 110561.0
1260.803, 110628.0
1261.875, 110831.0
1262.947, 110995.0
1264.019, 111317.0
1265.091, 111049.0
1266.162, 112282.0
1267.234, 112225.0
1268.305, 112925.0
1269.376, 112601.0
1270.447, 112863.0
