##NAMES=Marialite
##RRUFFID=R040113
##IDEAL CHEMISTRY=Na_4_Al_3_Si_9_O_24_Cl
##LOCALITY=Gouverneur, New York, USA
##OWNER=RRUFF
##SOURCE=University of Arizona Mineral Museum
##DESCRIPTION=Green prismatic crystal
##STATUS=The identification of this mineral has been confirmed by X-ray diffraction and chemical analysis
##URL=rruff.info/R040113
##MEASURED CHEMISTRY=(Na_0.50_Ca_0.43_K_0.07_)_4_(Si_0.64_Al_0.36_)_12_O_24_(Cl_0.60_(CO_3_)_0.40_)
##PIN_ID=L01738
##ORIENTATION=Laser parallel to -a* (-1 0 0). Fiducial mark perpendicular to laser is parallel to c [0 0 1]
88.42900, 46427.00
89.67000, 47228.00
90.91000, 47562.00
92.14900, 47626.00
93.38900, 47863.00
94.62900, 48303.00
95.86800, 48144.00
97.10700, 48418.00
98.34600, 48226.00
99.58500, 47989.00
100.8230, 48007.00
102.0620, 48146.00
103.3000, 48029.00
104.5380, 47973.00
105.7760, 47824.00
107.0140, 48336.00
108.2510, 48265.00
109.4890, 48428.00
110.7260, 48654.00
111.9630, 48585.00
113.2000, 48645.00
114.4360, 49623.00
115.6730, 49767.00
116.9090, 49947.00
118.1450, 49951.00
119.3810, 50350.00
120.6170, 50279.00
121.8530, 50658.00
123.0880, 50516.00
124.3230, 50863.00
125.5590, 50640.00
126.7930, 50710.00
128.0280, 51003.00
129.2630, 51276.00
130.4970, 50759.00
131.7310, 50781.00
132.9650, 50780.00
134.1990, 50751.00
135.4330, 50735.00
136.6670, 50361.00
137.9000, 50339.00
139.1330, 50140.00
140.3660, 49795.00
141.5990, 49856.00
142.8320, 49566.00
144.0640, 49455.00
145.2960, 49613.00
146.5290, 49829.00
147.7610, 49609.00
148.9920, 49739.00
150.2240, 49959.00
151.4550, 50239.00
152.6870, 50620.00
153.9180, 51020.00
155.1490, 51224.82
156.3800, 51490.00
157.6100, 51654.00
158.8400, 51918.00
160.0710, 52099.00
161.3010, 52185.00
162.5310, 52147.00
163.7600, 52238.00
164.9900, 51622.00
166.2190, 51101.00
167.4480, 51183.00
168.6770, 50705.00
169.9060, 50222.00
171.1350, 49814.00
172.3630, 49432.25
173.5920, 49119.45
174.8200, 48768.00
176.0480, 48642.00
177.2760, 48374.00
178.5030, 48252.00
179.7310, 48221.00
180.9580, 48065.00
182.1850, 48002.40
183.4120, 48243.00
184.6390, 47935.00
185.8650, 48252.00
187.0920, 48461.00
188.3180, 48451.00
189.5440, 48399.00
190.7700, 48588.00
191.9960, 48378.00
193.2210, 48936.00
194.4470, 48868.00
195.6720, 48585.00
196.8970, 48803.00
198.1220, 48680.00
199.3460, 48730.00
200.5710, 48703.00
201.7950, 48718.00
203.0190, 48698.29
204.2430, 49015.00
205.4670, 48604.00
206.6910, 48603.00
207.9140, 48480.00
209.1370, 48833.00
210.3610, 48544.00
211.5840, 48927.00
212.8060, 49046.00
214.0290, 48950.00
215.2510, 49111.00
216.4740, 48979.00
217.6960, 49095.00
218.9180, 49458.00
220.1390, 49219.00
221.3610, 49375.00
222.5820, 49294.00
223.8030, 49313.00
225.0240, 48942.00
226.2450, 49121.00
227.4660, 48885.00
228.6870, 49081.00
229.9070, 48885.00
231.1270, 48788.00
232.3470, 48448.00
233.5670, 48820.00
234.7870, 48337.00
236.0060, 48761.00
237.2250, 48297.00
238.4440, 48382.00
239.6630, 48407.00
240.8820, 48391.00
242.1010, 48296.00
243.3190, 48367.20
244.5380, 48577.00
245.7560, 48502.00
246.9740, 48642.00
248.1910, 48838.00
249.4090, 48843.00
250.6260, 49086.00
251.8440, 49657.00
253.0610, 49733.00
254.2780, 50476.00
255.4940, 50400.00
256.7110, 51159.00
257.9270, 51237.00
259.1430, 51830.00
260.3600, 52220.00
261.5750, 52656.00
262.7910, 52762.00
264.0070, 52523.00
265.2220, 52718.00
266.4370, 52435.00
267.6520, 52244.00
268.8670, 52031.00
270.0820, 51511.00
271.2960, 50913.00
272.5100, 50602.00
273.7250, 50393.00
274.9390, 50330.00
276.1520, 50032.00
277.3660, 49846.00
278.5790, 50087.00
279.7930, 49929.00
281.0060, 50224.00
282.2190, 49937.00
283.4320, 50200.00
284.6440, 49906.00
285.8570, 50348.00
287.0690, 50571.00
288.2810, 50770.00
289.4930, 50892.00
290.7050, 51156.00
291.9160, 51518.00
293.1270, 51645.38
294.3390, 51783.21
295.5500, 51965.00
296.7610, 51855.00
297.9710, 51844.00
299.1820, 51791.00
300.3920, 51420.00
301.6020, 51028.00
302.8120, 50836.00
304.0220, 50561.03
305.2320, 50356.46
306.4410, 50226.00
307.6510, 50164.00
308.8600, 50117.20
310.0690, 50348.00
311.2780, 49908.00
312.4860, 49967.00
313.6950, 50136.00
314.9030, 50565.00
316.1110, 50007.00
317.3190, 49905.00
318.5270, 50577.00
319.7350, 50323.00
320.9420, 50422.00
322.1490, 50402.00
323.3570, 50636.00
324.5630, 50879.00
325.7700, 50666.00
326.9770, 50646.00
328.1830, 51109.00
329.3900, 51190.00
330.5960, 51394.00
331.8020, 51377.00
333.0070, 51517.92
334.2130, 51910.00
335.4180, 51706.00
336.6230, 52023.00
337.8290, 52144.00
339.0330, 52213.00
340.2380, 52174.00
341.4430, 52377.00
342.6470, 52387.00
343.8510, 52477.00
345.0550, 52435.00
346.2590, 52510.00
347.4630, 52574.43
348.6660, 52673.16
349.8700, 52772.00
351.0730, 52978.00
352.2760, 53180.00
353.4790, 53404.60
354.6810, 53604.05
355.8840, 53811.00
357.0860, 53964.00
358.2880, 54088.46
359.4900, 54216.00
360.6920, 54256.06
361.8940, 54258.00
363.0950, 54279.00
364.2960, 54065.00
365.4980, 54159.00
366.6990, 54191.00
367.8990, 54000.00
369.1000, 53665.00
370.3000, 53616.00
371.5010, 53903.00
372.7010, 53909.00
373.9010, 54305.00
375.1010, 54431.00
376.3000, 54156.00
377.5000, 54058.00
378.6990, 54616.00
379.8980, 54755.00
381.0970, 54849.00
382.2960, 54969.00
383.4940, 54806.00
384.6920, 54914.00
385.8910, 54900.00
387.0890, 54691.00
388.2870, 55133.00
389.4840, 54902.00
390.6820, 54920.00
391.8790, 54488.00
393.0770, 54829.00
394.2740, 54681.95
395.4700, 54788.00
396.6670, 54728.00
397.8640, 54644.00
399.0600, 54649.00
400.2560, 54838.00
401.4520, 54613.00
402.6480, 54730.00
403.8440, 54624.00
405.0390, 54984.00
406.2350, 55358.00
407.4300, 55323.00
408.6250, 55162.00
409.8200, 55299.00
411.0140, 55647.00
412.2090, 55817.00
413.4030, 55956.00
414.5970, 56181.00
415.7910, 56410.00
416.9850, 56573.23
418.1790, 56684.90
419.3720, 56925.00
420.5660, 56930.00
421.7590, 57049.05
422.9520, 57142.15
424.1440, 57223.00
425.3370, 57282.00
426.5300, 57248.00
427.7220, 57317.00
428.9140, 57277.00
430.1060, 57275.07
431.2980, 57301.50
432.4890, 57548.00
433.6810, 57588.00
434.8720, 58386.00
436.0630, 59155.00
437.2540, 58917.00
438.4450, 59034.00
439.6350, 59642.00
440.8260, 60099.00
442.0160, 60855.00
443.2060, 62044.00
444.3960, 62725.00
445.5860, 63641.00
446.7750, 65090.00
447.9650, 66414.00
449.1540, 67634.00
450.3430, 69038.00
451.5320, 70567.00
452.7210, 72238.00
453.9090, 73309.00
455.0980, 73896.00
456.2860, 74565.00
457.4740, 74420.00
458.6620, 74756.00
459.8500, 74164.00
461.0370, 73676.00
462.2250, 73073.00
463.4120, 72400.00
464.5990, 71423.00
465.7860, 70129.00
466.9720, 68924.00
468.1590, 67807.00
469.3450, 66741.00
470.5320, 66178.00
471.7180, 64915.00
472.9030, 64024.00
474.0890, 63535.00
475.2750, 62533.00
476.4600, 62161.00
477.6450, 61472.00
478.8300, 61294.00
480.0150, 61180.00
481.2000, 60623.00
482.3840, 60641.00
483.5690, 60243.00
484.7530, 60148.00
485.9370, 60056.50
487.1210, 59953.53
488.3040, 59962.00
489.4880, 59910.00
490.6710, 60002.00
491.8540, 59902.00
493.0370, 59970.00
494.2200, 59852.00
495.4030, 60366.00
496.5850, 60016.00
497.7680, 59743.00
498.9500, 60458.00
500.1320, 60235.00
501.3140, 60253.00
502.4950, 60154.00
503.6770, 60101.00
504.8580, 60564.00
506.0390, 60483.00
507.2200, 60578.00
508.4010, 60266.00
509.5820, 60471.00
510.7620, 60471.00
511.9420, 60570.00
513.1230, 60677.00
514.3030, 60906.00
515.4820, 60984.00
516.6620, 61302.00
517.8420, 61003.00
519.0210, 61790.00
520.2000, 61904.00
521.3790, 62039.00
522.5580, 62759.00
523.7360, 63063.00
524.9150, 63528.00
526.0930, 64093.00
527.2710, 65091.00
528.4490, 65880.00
529.6270, 66460.00
530.8050, 67217.00
531.9820, 68601.00
533.1590, 68931.00
534.3360, 69697.00
535.5130, 69792.00
536.6900, 70149.00
537.8670, 69545.00
539.0430, 68885.00
540.2200, 68246.00
541.3960, 67752.00
542.5720, 66608.00
543.7470, 66279.00
544.9230, 65614.83
546.0980, 65543.00
547.2740, 64685.00
548.4490, 64409.00
549.6240, 64194.00
550.7990, 64059.00
551.9730, 63809.69
553.1480, 63707.71
554.3220, 63534.00
555.4960, 63554.00
556.6700, 63717.00
557.8440, 63820.00
559.0170, 64004.00
560.1910, 64057.00
561.3640, 64163.00
562.5370, 63829.00
563.7100, 63905.00
564.8830, 64025.00
566.0550, 64097.00
567.2280, 64212.00
568.4000, 64331.00
569.5720, 64374.51
570.7440, 64360.02
571.9160, 64436.00
573.0870, 64285.00
574.2590, 64215.00
575.4300, 64264.00
576.6010, 64566.00
577.7720, 64374.00
578.9430, 64767.00
580.1140, 64682.00
581.2840, 64735.00
582.4540, 65023.00
583.6240, 64973.00
584.7940, 65169.00
585.9640, 65084.00
587.1340, 65045.00
588.3030, 65157.00
589.4720, 65082.00
590.6410, 65221.00
591.8100, 65317.00
592.9790, 65469.00
594.1480, 65547.55
595.3160, 65537.85
596.4840, 65678.09
597.6520, 65840.00
598.8200, 65837.00
599.9880, 66293.00
601.1560, 65994.00
602.3230, 66039.00
603.4900, 66234.00
604.6570, 66669.00
605.8240, 65880.00
606.9910, 66646.00
608.1580, 66091.00
609.3240, 66739.00
610.4900, 66776.00
611.6570, 66677.00
612.8230, 66773.00
613.9880, 66877.00
615.1540, 67028.61
616.3190, 67079.00
617.4850, 67431.00
618.6500, 67181.00
619.8150, 67233.00
620.9790, 67022.00
622.1440, 67653.00
623.3080, 67111.00
624.4730, 67481.00
625.6370, 67308.00
626.8010, 67809.00
627.9640, 67442.00
629.1280, 67639.00
630.2910, 67887.00
631.4550, 67901.00
632.6180, 67685.00
633.7810, 68070.00
634.9440, 68094.00
636.1060, 67933.00
637.2690, 68104.00
638.4310, 68378.00
639.5930, 68094.00
640.7550, 68504.00
641.9170, 68343.00
643.0780, 68360.00
644.2400, 68420.00
645.4010, 68690.00
646.5620, 68441.00
647.7230, 68811.00
648.8840, 68848.00
650.0450, 69018.00
651.2050, 69427.00
652.3650, 69404.00
653.5250, 69663.00
654.6850, 69353.00
655.8450, 69634.00
657.0050, 69419.00
658.1640, 69473.00
659.3230, 70034.00
660.4830, 69745.00
661.6420, 69948.00
662.8000, 69818.00
663.9590, 69910.00
665.1170, 70139.00
666.2760, 70407.00
667.4340, 70156.00
668.5920, 70331.00
669.7500, 70523.00
670.9070, 70699.00
672.0650, 70805.92
673.2220, 70898.00
674.3790, 70981.79
675.5360, 71097.80
676.6930, 71213.00
677.8500, 71316.30
679.0060, 71396.00
680.1620, 71495.00
681.3190, 71617.00
682.4750, 71738.00
683.6300, 71565.00
684.7860, 71620.00
685.9420, 71876.00
687.0970, 71683.00
688.2520, 72035.00
689.4070, 71826.00
690.5620, 71810.00
691.7170, 72204.00
692.8710, 72131.00
694.0250, 72457.00
695.1800, 72536.00
696.3340, 72385.00
697.4870, 72487.00
698.6410, 72456.00
699.7950, 72898.00
700.9480, 73249.00
702.1010, 73102.00
703.2540, 73420.00
704.4070, 73349.00
705.5600, 73448.00
706.7120, 73898.00
707.8640, 73488.00
709.0170, 73520.00
710.1690, 73748.00
711.3210, 73898.00
712.4720, 73721.00
713.6240, 73936.00
714.7750, 74022.00
715.9260, 74420.00
717.0770, 74446.00
718.2280, 74475.00
719.3790, 74318.00
720.5290, 74679.00
721.6800, 74297.00
722.8300, 74438.00
723.9800, 74584.00
725.1300, 74546.00
726.2800, 74453.00
727.4290, 74598.00
728.5790, 74508.00
729.7280, 74763.00
730.8770, 74686.00
732.0260, 74936.00
733.1750, 75227.00
734.3230, 74813.00
735.4720, 75156.00
736.6200, 74941.00
737.7680, 74917.00
738.9160, 75318.00
740.0640, 75129.00
741.2110, 75440.00
742.3590, 75526.00
743.5060, 75408.00
744.6530, 75683.00
745.8000, 75593.00
746.9470, 76087.00
748.0930, 75865.00
749.2400, 76128.00
750.3860, 76140.00
751.5320, 76482.00
752.6780, 76627.42
753.8240, 76380.00
754.9690, 77031.00
756.1150, 77018.00
757.2600, 77206.00
758.4050, 77763.00
759.5500, 77986.00
760.6950, 78340.00
761.8400, 78673.00
762.9840, 79037.00
764.1280, 79135.00
765.2730, 79706.00
766.4170, 80319.00
767.5600, 80287.00
768.7040, 80928.00
769.8470, 80591.00
770.9910, 80642.00
772.1340, 81039.00
773.2770, 80676.00
774.4200, 80681.00
775.5620, 80536.00
776.7050, 80429.00
777.8470, 80229.13
778.9890, 80005.00
780.1310, 79591.00
781.2730, 79598.00
782.4150, 78973.00
783.5570, 78995.00
784.6980, 79247.00
785.8390, 78992.00
786.9800, 79052.00
788.1210, 79271.00
789.2620, 79426.00
790.4020, 79439.00
791.5430, 79096.00
792.6830, 79550.00
793.8230, 79482.00
794.9630, 79102.00
796.1020, 79666.00
797.2420, 79683.00
798.3810, 80023.00
799.5210, 79955.00
800.6600, 80246.00
801.7990, 80012.00
802.9370, 80526.00
804.0760, 80449.00
805.2140, 80526.00
806.3530, 80716.00
807.4910, 80675.00
808.6290, 80810.00
809.7660, 80879.00
810.9040, 80862.00
812.0420, 80650.00
813.1790, 80869.00
814.3160, 80615.00
815.4530, 81155.00
816.5900, 81339.00
817.7260, 81029.00
818.8630, 80934.00
819.9990, 81651.00
821.1350, 81449.00
822.2710, 81789.00
823.4070, 81394.00
824.5430, 81521.00
825.6780, 81383.00
826.8130, 81897.00
827.9490, 81523.00
829.0840, 82116.00
830.2180, 81860.00
831.3530, 82198.00
832.4880, 82300.00
833.6220, 82216.00
834.7560, 82191.00
835.8900, 82377.00
837.0240, 82540.00
838.1580, 82595.00
839.2910, 82585.00
840.4250, 83001.00
841.5580, 82567.00
842.6910, 82818.00
843.8240, 82632.00
844.9560, 83191.00
846.0890, 83067.00
847.2210, 83522.00
848.3540, 83203.00
849.4860, 83671.00
850.6180, 83469.00
851.7490, 83388.00
852.8810, 83273.00
854.0120, 83692.00
855.1440, 83840.00
856.2750, 84006.00
857.4060, 83971.00
858.5360, 84351.00
859.6670, 84205.00
860.7980, 84247.00
861.9280, 84454.00
863.0580, 84625.00
864.1880, 84702.00
865.3180, 84719.00
866.4470, 84713.00
867.5770, 84919.00
868.7060, 85054.00
869.8350, 84893.00
870.9640, 85346.00
872.0930, 85208.00
873.2220, 85272.00
874.3500, 85776.00
875.4790, 85517.00
876.6070, 85464.00
877.7350, 85878.00
878.8630, 86286.00
879.9900, 86094.00
881.1180, 86161.00
882.2450, 86309.00
883.3730, 86193.00
884.5000, 86491.00
885.6260, 86461.00
886.7530, 86848.00
887.8800, 86894.00
889.0060, 87105.00
890.1320, 87533.00
891.2580, 86943.00
892.3840, 87611.00
893.5100, 87248.00
894.6360, 87472.00
895.7610, 87670.79
896.8860, 87587.98
898.0120, 88062.00
899.1360, 87722.00
900.2610, 88100.00
901.3860, 88203.00
902.5100, 88144.00
903.6350, 88319.00
904.7590, 88415.41
905.8830, 88747.00
907.0070, 88738.00
908.1300, 88944.00
909.2540, 89164.00
910.3770, 89186.59
911.5000, 89190.00
912.6230, 89279.00
913.7460, 89255.00
914.8690, 89164.00
915.9910, 89455.00
917.1140, 89635.00
918.2360, 89486.00
919.3580, 90091.00
920.4800, 90239.00
921.6020, 90173.00
922.7230, 90085.00
923.8440, 90090.00
924.9660, 90245.00
926.0870, 90251.00
927.2080, 90431.00
928.3280, 90591.00
929.4490, 90306.00
930.5700, 90362.00
931.6900, 91366.00
932.8100, 90940.00
933.9300, 91164.00
935.0500, 91043.00
936.1690, 91190.00
937.2890, 91302.00
938.4080, 91618.00
939.5270, 91730.00
940.6460, 91876.00
941.7650, 91982.00
942.8840, 92135.74
944.0020, 92269.35
945.1200, 92497.00
946.2390, 92432.00
947.3570, 92720.00
948.4750, 92556.00
949.5920, 92564.00
950.7100, 92525.00
951.8270, 92654.23
952.9440, 92956.00
954.0610, 93102.00
955.1780, 93117.00
956.2950, 93495.00
957.4120, 93441.00
958.5280, 93548.00
959.6440, 93592.00
960.7600, 93747.00
961.8760, 93454.00
962.9920, 93668.00
964.1080, 93828.00
965.2230, 93884.00
966.3380, 94192.00
967.4540, 93831.00
968.5690, 94008.00
969.6830, 94343.00
970.7980, 94237.00
971.9120, 94479.00
973.0270, 94522.00
974.1410, 94723.00
975.2550, 95003.00
976.3690, 94743.00
977.4820, 94826.00
978.5960, 94953.00
979.7090, 95145.00
980.8230, 95024.00
981.9360, 95310.00
983.0490, 94922.00
984.1610, 95091.12
985.2740, 95460.00
986.3860, 95099.00
987.4980, 95308.00
988.6110, 95169.00
989.7220, 95038.00
990.8340, 95302.00
991.9460, 95281.00
993.0570, 95550.00
994.1690, 95653.00
995.2800, 95201.00
996.3910, 95411.00
997.5010, 95347.00
998.6120, 95248.66
999.7230, 95503.35
1000.833, 95675.02
1001.943, 95768.17
1003.053, 95547.66
1004.163, 95732.17
1005.273, 95754.37
1006.382, 95769.84
1007.492, 96011.36
1008.601, 95709.00
1009.710, 95693.00
1010.819, 95610.00
1011.927, 95661.00
1013.036, 95632.74
1014.144, 95544.00
1015.253, 95734.00
1016.361, 95860.00
1017.469, 96112.00
1018.576, 96272.00
1019.684, 96276.00
1020.791, 96085.00
1021.899, 96556.00
1023.006, 97128.00
1024.113, 97392.00
1025.220, 97074.00
1026.326, 97900.00
1027.433, 97856.00
1028.539, 98408.00
1029.645, 98527.00
1030.751, 98728.00
1031.857, 98976.00
1032.963, 99169.00
1034.068, 99302.00
1035.174, 99820.00
1036.279, 100112.0
1037.384, 100477.0
1038.489, 100573.0
1039.594, 101296.0
1040.698, 101100.0
1041.803, 101585.0
1042.907, 101435.0
1044.011, 101441.0
1045.115, 102032.0
1046.219, 102276.0
1047.323, 102340.0
1048.426, 102663.0
1049.529, 103231.0
1050.632, 103213.0
1051.735, 103095.0
1052.838, 103531.0
1053.941, 103411.0
1055.043, 104009.0
1056.146, 104016.0
1057.248, 104190.0
1058.350, 104609.0
1059.452, 105204.0
1060.554, 105427.0
1061.655, 104931.0
1062.757, 105451.0
1063.858, 105441.0
1064.959, 105709.0
1066.060, 105539.0
1067.161, 105989.0
1068.261, 105950.0
1069.362, 106593.0
1070.462, 106666.0
1071.562, 106554.0
1072.662, 107034.0
1073.762, 106927.0
1074.862, 107066.0
1075.961, 107638.0
1077.061, 107442.0
1078.160, 107825.0
1079.259, 107695.0
1080.358, 108250.0
1081.456, 108646.0
1082.555, 108815.0
1083.653, 109439.0
1084.751, 109689.0
1085.850, 110370.0
1086.947, 110686.0
1088.045, 111236.0
1089.143, 110911.0
1090.240, 111291.0
1091.338, 111847.9
1092.435, 113560.0
1093.532, 112783.0
1094.628, 113288.0
1095.725, 113015.0
1096.822, 113391.0
1097.918, 113412.5
1099.014, 113141.0
1100.110, 113462.0
1101.206, 113191.0
1102.302, 113126.0
1103.397, 113753.0
1104.493, 113272.0
1105.588, 113815.0
1106.683, 113975.0
1107.778, 113998.0
1108.873, 113959.0
1109.967, 113849.3
1111.062, 113498.0
1112.156, 113176.0
1113.250, 112543.0
1114.344, 111563.0
1115.438, 111027.0
1116.531, 110433.0
1117.625, 109660.0
1118.718, 109734.0
1119.811, 109265.0
1120.904, 109518.0
1121.997, 109484.0
1123.090, 109462.0
1124.183, 109559.0
1125.275, 110065.0
1126.367, 109935.0
1127.459, 110512.0
1128.551, 109991.0
1129.643, 109695.0
1130.735, 110286.0
1131.826, 110110.0
1132.917, 110331.0
1134.008, 110722.0
1135.099, 110423.0
1136.190, 110154.0
1137.281, 110212.0
1138.371, 111126.0
1139.462, 110775.0
1140.552, 110977.0
1141.642, 110743.0
1142.732, 110424.0
1143.821, 110600.0
1144.911, 110584.2
1146.000, 111025.0
1147.090, 110891.0
1148.179, 111358.0
1149.268, 111433.0
1150.356, 111513.0
1151.445, 111751.0
1152.533, 111820.2
1153.622, 111875.0
1154.710, 111998.0
1155.798, 112166.0
1156.886, 112091.0
1157.973, 112247.0
1159.061, 112657.0
1160.148, 112267.0
1161.235, 112877.0
1162.322, 112586.0
1163.409, 112535.0
1164.496, 112600.0
1165.583, 112959.0
1166.669, 113057.0
1167.755, 113270.0
1168.841, 113155.0
1169.927, 113384.0
1171.013, 113175.0
1172.099, 113326.4
1173.184, 113882.0
1174.269, 113644.0
1175.355, 113949.0
1176.440, 114402.0
1177.524, 114620.0
1178.609, 114144.0
1179.694, 114023.0
1180.778, 114408.0
1181.862, 114200.0
1182.946, 115034.0
1184.030, 115100.0
1185.114, 115122.0
1186.197, 115096.0
1187.281, 115065.0
1188.364, 115540.0
1189.447, 115439.0
1190.530, 115919.0
1191.613, 116458.0
1192.696, 116373.0
1193.778, 117128.0
1194.860, 116921.0
1195.943, 116994.0
1197.025, 116856.0
1198.107, 116717.0
1199.188, 116804.0
1200.270, 116749.6
1201.351, 117057.0
1202.432, 116771.0
1203.514, 116922.0
1204.594, 116818.0
1205.675, 117301.0
1206.756, 117523.0
1207.836, 117349.0
1208.917, 117577.0
1209.997, 117527.0
1211.077, 117688.0
1212.157, 117512.0
1213.236, 117941.0
1214.316, 118550.0
1215.395, 118261.0
1216.474, 118143.0
1217.553, 117919.0
1218.632, 118570.0
1219.711, 118279.0
1220.790, 118945.0
1221.868, 118724.0
1222.946, 118800.0
1224.024, 119171.0
1225.102, 118992.0
1226.180, 119151.0
1227.258, 118922.0
1228.335, 119172.0
1229.413, 119280.0
1230.490, 119779.0
1231.567, 119667.0
1232.644, 120012.0
1233.720, 119466.0
1234.797, 120099.0
1235.873, 120180.0
1236.950, 120283.0
1238.026, 120552.0
1239.102, 120241.0
1240.177, 120382.0
1241.253, 120700.0
1242.328, 120529.0
1243.404, 121176.0
1244.479, 121039.0
1245.554, 121165.0
1246.629, 121521.0
1247.703, 120861.0
1248.778, 121457.0
1249.852, 121841.0
1250.926, 121592.0
1252.001, 121936.0
1253.074, 122079.0
1254.148, 122016.0
1255.222, 122288.0
1256.295, 122149.0
1257.369, 122135.0
1258.442, 122387.0
1259.515, 122626.0
1260.587, 122927.0
1261.660, 122842.0
1262.733, 122793.0
1263.805, 122831.0
1264.877, 122985.2
1265.949, 123225.0
1267.021, 123330.0
