##NAMES=Marialite
##RRUFFID=R060297
##IDEAL CHEMISTRY=Na_4_Al_3_Si_9_O_24_Cl
##LOCALITY=Morogoro District, Marasi, Tanzania
##OWNER=RRUFF
##SOURCE=Herb Obodda
##DESCRIPTION=Pale yellow crystal fragment
##STATUS=The identification of this mineral has been confirmed by X-ray diffraction and chemical analysis
##URL=rruff.info/R060297
##MEASURED CHEMISTRY=(Na_0.66_Ca_0.29_K_0.06_)_4_(Si_0.68_Al_0.32_)_12_O_24_(Cl_0.70_(CO_3_)_0.30_)
##PIN_ID=L01156
##ORIENTATION=Laser parallel to a* (1 0 0). Fiducial mark perpendicular to laser is parallel to c [0 0 1]
88.33800, 16578.00
89.57500, 16635.00
90.81200, 16853.00
92.04900, 17114.00
93.28600, 17159.00
94.52300, 17460.00
95.75900, 17590.54
96.99500, 17880.00
98.23100, 17922.00
99.46700, 18149.00
100.7030, 18327.00
101.9390, 18312.00
103.1740, 18404.00
104.4090, 18649.00
105.6440, 19123.00
106.8790, 19111.00
108.1140, 19724.00
109.3490, 19924.00
110.5830, 20534.00
111.8180, 21243.00
113.0520, 22056.00
114.2860, 22911.00
115.5200, 23876.79
116.7530, 25165.00
117.9870, 26060.00
119.2200, 27326.00
120.4530, 28678.00
121.6860, 29520.00
122.9190, 30623.00
124.1520, 31935.00
125.3850, 32807.00
126.6170, 33400.00
127.8490, 33796.00
129.0810, 34271.00
130.3130, 34313.00
131.5450, 33958.00
132.7770, 33234.00
134.0080, 32730.00
135.2390, 31967.00
136.4710, 31004.00
137.7020, 30030.00
138.9320, 29346.00
140.1630, 28363.00
141.3930, 27520.00
142.6240, 26561.00
143.8540, 25667.00
145.0840, 24764.00
146.3140, 23986.00
147.5440, 23184.00
148.7730, 22548.00
150.0020, 22071.00
151.2320, 21599.00
152.4610, 20929.00
153.6900, 21052.00
154.9180, 20671.00
156.1470, 20724.00
157.3750, 20812.00
158.6040, 20803.00
159.8320, 20773.00
161.0600, 20764.00
162.2870, 21057.00
163.5150, 21104.00
164.7420, 20719.00
165.9700, 20693.00
167.1970, 20098.00
168.4240, 19985.00
169.6510, 19559.00
170.8770, 19130.00
172.1040, 18788.00
173.3300, 18521.70
174.5560, 18243.00
175.7820, 18155.00
177.0080, 18011.00
178.2340, 17967.00
179.4590, 17741.00
180.6850, 17870.00
181.9100, 18105.00
183.1350, 18144.00
184.3600, 18496.00
185.5850, 18610.00
186.8090, 18869.00
188.0340, 19013.00
189.2580, 19373.00
190.4820, 19388.00
191.7060, 19570.00
192.9300, 19637.00
194.1530, 19632.00
195.3770, 19773.00
196.6000, 19872.00
197.8230, 19597.00
199.0460, 19611.00
200.2690, 19520.00
201.4910, 19399.00
202.7140, 19410.00
203.9360, 19133.00
205.1580, 18965.00
206.3800, 18998.00
207.6020, 18695.00
208.8240, 18923.00
210.0450, 18930.00
211.2670, 18692.00
212.4880, 18935.00
213.7090, 18944.00
214.9300, 19188.00
216.1510, 19448.00
217.3710, 19756.00
218.5920, 20023.03
219.8120, 20363.11
221.0320, 20582.00
222.2520, 20943.00
223.4720, 21179.00
224.6910, 21224.00
225.9110, 21722.00
227.1300, 21649.00
228.3490, 21768.00
229.5680, 21682.00
230.7870, 21532.00
232.0050, 21425.00
233.2240, 21076.00
234.4420, 21171.00
235.6600, 20678.00
236.8780, 20505.00
238.0960, 20340.00
239.3140, 20145.00
240.5310, 20125.00
241.7490, 20250.00
242.9660, 20248.00
244.1830, 20604.00
245.4000, 21019.00
246.6160, 21582.00
247.8330, 22183.00
249.0490, 23131.00
250.2660, 24466.00
251.4820, 25622.00
252.6980, 27233.00
253.9130, 29207.00
255.1290, 31544.00
256.3440, 34084.00
257.5600, 36906.00
258.7750, 39846.00
259.9900, 42850.00
261.2040, 45912.00
262.4190, 47439.00
263.6330, 48892.00
264.8480, 48420.00
266.0620, 46475.00
267.2760, 44011.00
268.4900, 40658.00
269.7030, 37134.00
270.9170, 34090.00
272.1300, 31009.00
273.3430, 28431.00
274.5560, 25901.00
275.7690, 24245.00
276.9820, 22791.00
278.1940, 21810.00
279.4070, 20881.00
280.6190, 20324.00
281.8310, 19660.00
283.0430, 19531.00
284.2550, 19508.00
285.4660, 19470.00
286.6770, 19696.00
287.8890, 20242.00
289.1000, 20565.00
290.3110, 21427.00
291.5210, 22647.00
292.7320, 23985.00
293.9420, 25587.00
295.1530, 27724.00
296.3630, 29999.00
297.5730, 31503.00
298.7830, 31776.00
299.9920, 29838.00
301.2020, 27237.00
302.4110, 24589.00
303.6200, 22321.00
304.8290, 20567.00
306.0380, 19145.00
307.2470, 18139.00
308.4550, 17554.00
309.6630, 16929.00
310.8720, 16745.00
312.0800, 16487.00
313.2880, 16139.00
314.4950, 15977.00
315.7030, 15807.16
316.9100, 15935.00
318.1170, 15648.00
319.3240, 15693.00
320.5310, 15750.00
321.7380, 15608.00
322.9450, 15634.00
324.1510, 15620.60
325.3570, 15556.41
326.5630, 15610.00
327.7690, 15567.00
328.9750, 15541.00
330.1810, 15716.00
331.3860, 15740.00
332.5910, 15699.00
333.7960, 15823.00
335.0010, 15989.00
336.2060, 15989.00
337.4110, 16087.00
338.6150, 16348.00
339.8200, 16454.00
341.0240, 16833.00
342.2280, 17096.00
343.4320, 17418.00
344.6350, 18025.00
345.8390, 18225.00
347.0420, 19203.00
348.2450, 19556.00
349.4480, 20406.00
350.6510, 21019.00
351.8540, 22026.00
353.0560, 22977.00
354.2590, 24157.00
355.4610, 25106.00
356.6630, 26291.00
357.8650, 27431.00
359.0670, 28205.00
360.2680, 28423.00
361.4700, 28056.00
362.6710, 27529.00
363.8720, 26453.00
365.0730, 25119.00
366.2740, 24088.00
367.4740, 23383.00
368.6750, 22950.00
369.8750, 22448.00
371.0750, 22201.00
372.2750, 22356.00
373.4750, 22422.00
374.6740, 22034.00
375.8740, 22106.00
377.0730, 21834.00
378.2720, 21654.00
379.4710, 21359.00
380.6700, 20906.00
381.8690, 20501.00
383.0670, 20366.00
384.2660, 19960.00
385.4640, 19720.00
386.6620, 19151.00
387.8600, 18956.00
389.0570, 18690.00
390.2550, 18391.00
391.4520, 18375.00
392.6490, 18099.00
393.8460, 17974.00
395.0430, 17809.00
396.2400, 17720.00
397.4370, 17824.00
398.6330, 17724.00
399.8290, 17996.00
401.0250, 17981.00
402.2210, 18407.00
403.4170, 18719.00
404.6130, 18993.00
405.8080, 19687.00
407.0030, 20140.00
408.1980, 21110.00
409.3930, 21851.00
410.5880, 22943.00
411.7830, 24466.00
412.9770, 25852.00
414.1720, 27358.00
415.3660, 28737.00
416.5600, 30369.00
417.7530, 31669.00
418.9470, 32558.00
420.1410, 32913.00
421.3340, 32207.00
422.5270, 30446.00
423.7200, 28811.00
424.9130, 27210.00
426.1060, 25426.00
427.2980, 24074.00
428.4900, 22658.00
429.6830, 22156.00
430.8750, 21469.00
432.0670, 21266.00
433.2580, 21441.00
434.4500, 21643.00
435.6410, 22070.00
436.8320, 22707.00
438.0240, 23209.00
439.2140, 24111.00
440.4050, 24668.00
441.5960, 25547.00
442.7860, 26306.00
443.9760, 27058.00
445.1670, 28403.00
446.3560, 29914.00
447.5460, 32095.00
448.7360, 34926.00
449.9250, 38027.00
451.1150, 42318.00
452.3040, 46034.00
453.4930, 49420.00
454.6810, 51970.00
455.8700, 53530.00
457.0590, 54206.00
458.2470, 54530.00
459.4350, 54429.00
460.6230, 53513.00
461.8110, 51766.00
462.9980, 48941.00
464.1860, 46784.00
465.3730, 43659.00
466.5600, 40898.00
467.7470, 37680.00
468.9340, 35330.00
470.1210, 32815.00
471.3080, 30953.00
472.4940, 29401.00
473.6800, 28123.00
474.8660, 26710.00
476.0520, 25793.00
477.2380, 24994.00
478.4230, 24449.00
479.6090, 23847.00
480.7940, 22922.00
481.9790, 22231.00
483.1640, 21765.00
484.3490, 21094.00
485.5330, 20437.00
486.7180, 19958.00
487.9020, 19635.00
489.0860, 19213.00
490.2700, 19136.00
491.4540, 18906.00
492.6370, 18754.00
493.8210, 18631.00
495.0040, 18359.00
496.1870, 18511.00
497.3700, 18227.00
498.5530, 18210.00
499.7360, 18222.00
500.9180, 18235.00
502.1000, 18194.00
503.2830, 18299.00
504.4650, 18048.95
505.6460, 18180.41
506.8280, 18284.92
508.0100, 18363.87
509.1910, 18340.61
510.3720, 18449.25
511.5530, 18505.02
512.7340, 18558.63
513.9150, 18924.00
515.0950, 19067.00
516.2760, 19451.00
517.4560, 19842.00
518.6360, 20285.00
519.8160, 20964.00
520.9950, 21649.00
522.1750, 22593.00
523.3540, 23810.00
524.5340, 25354.00
525.7130, 27724.00
526.8920, 29970.00
528.0700, 33040.00
529.2490, 36765.00
530.4270, 41131.00
531.6060, 46398.00
532.7840, 52736.00
533.9620, 59320.00
535.1390, 65629.00
536.3170, 69059.00
537.4940, 70178.00
538.6720, 67297.00
539.8490, 62449.00
541.0260, 56530.00
542.2030, 50345.00
543.3790, 44440.00
544.5560, 39741.00
545.7320, 35844.00
546.9080, 32402.00
548.0840, 29953.00
549.2600, 27684.00
550.4360, 26172.00
551.6110, 24837.00
552.7860, 23881.00
553.9620, 22994.00
555.1370, 22490.00
556.3110, 21841.00
557.4860, 21332.00
558.6610, 21068.00
559.8350, 20780.00
561.0090, 20647.00
562.1830, 20521.00
563.3570, 20208.00
564.5310, 20037.00
565.7040, 19945.00
566.8780, 20005.00
568.0510, 19627.00
569.2240, 19694.00
570.3970, 19862.00
571.5700, 19766.00
572.7420, 19540.00
573.9150, 19671.00
575.0870, 19650.00
576.2590, 19542.00
577.4310, 19661.00
578.6030, 19623.00
579.7740, 19759.00
580.9460, 19892.00
582.1170, 19837.00
583.2880, 19917.76
584.4590, 19831.00
585.6300, 19962.00
586.8010, 19794.00
587.9710, 19881.00
589.1410, 19840.00
590.3110, 19943.00
591.4810, 19901.73
592.6510, 19815.00
593.8210, 19825.00
594.9900, 19739.00
596.1600, 19663.00
597.3290, 19722.00
598.4980, 19630.00
599.6670, 19598.00
600.8350, 19527.00
602.0040, 19850.00
603.1720, 19630.00
604.3400, 19806.00
605.5080, 19743.00
606.6760, 19770.00
607.8440, 19885.00
609.0120, 19724.00
610.1790, 19966.00
611.3460, 20136.00
612.5130, 19864.00
613.6800, 19983.00
614.8470, 19984.33
616.0130, 19952.00
617.1800, 19948.00
618.3460, 20040.64
619.5120, 20045.00
620.6780, 20254.00
621.8440, 20265.00
623.0090, 20359.00
624.1750, 20167.91
625.3400, 20260.36
626.5050, 20325.79
627.6700, 20365.65
628.8350, 20303.38
629.9990, 20372.97
631.1640, 20389.72
632.3280, 20404.29
633.4920, 20492.44
634.6560, 20523.00
635.8200, 20457.00
636.9840, 20721.00
638.1470, 20712.00
639.3100, 20922.00
640.4730, 20788.00
641.6360, 20989.00
642.7990, 20941.00
643.9620, 21025.00
645.1240, 21112.00
646.2870, 21366.00
647.4490, 21234.00
648.6110, 21321.00
649.7730, 21318.09
650.9340, 21232.00
652.0960, 21288.00
653.2570, 21527.00
654.4180, 21617.00
655.5790, 21813.00
656.7400, 21872.00
657.9010, 21777.00
659.0620, 21893.00
660.2220, 21992.00
661.3820, 22133.00
662.5420, 22064.00
663.7020, 22338.00
664.8620, 22376.00
666.0210, 22268.00
667.1810, 22277.00
668.3400, 22238.41
669.4990, 22233.17
670.6580, 22211.00
671.8170, 22221.00
672.9750, 22303.00
674.1340, 22215.00
675.2920, 22338.00
676.4500, 22336.00
677.6080, 22500.00
678.7660, 22388.00
679.9230, 22542.00
681.0810, 22667.00
682.2380, 22526.00
683.3950, 22541.00
684.5520, 22687.00
685.7090, 22729.00
686.8660, 22818.00
688.0220, 23109.00
689.1780, 23124.00
690.3340, 23247.00
691.4900, 23248.00
692.6460, 23384.00
693.8020, 23339.00
694.9570, 23654.00
696.1130, 23907.00
697.2680, 24125.00
698.4230, 24140.00
699.5780, 24309.00
700.7320, 24661.00
701.8870, 24530.00
703.0410, 24916.00
704.1950, 24928.00
705.3490, 25462.00
706.5030, 25620.00
707.6570, 25643.00
708.8110, 25770.00
709.9640, 25849.79
711.1170, 25885.45
712.2700, 25959.00
713.4230, 25935.00
714.5760, 25870.00
715.7280, 25815.00
716.8810, 25542.00
718.0330, 25646.00
719.1850, 25771.00
720.3370, 25452.00
721.4890, 25645.00
722.6400, 25339.00
723.7920, 25401.00
724.9430, 25374.00
726.0940, 25371.00
727.2450, 25488.00
728.3960, 25454.00
729.5460, 25311.00
730.6970, 25629.00
731.8470, 25427.00
732.9970, 25382.00
734.1470, 25540.00
735.2970, 25631.00
736.4460, 25706.00
737.5960, 25541.00
738.7450, 26010.00
739.8940, 25878.00
741.0430, 26078.00
742.1920, 26348.00
743.3410, 26426.00
744.4890, 26816.00
745.6370, 27212.00
746.7850, 27540.00
747.9330, 28070.00
749.0810, 28535.00
750.2290, 29183.00
751.3760, 29923.00
752.5240, 30773.00
753.6710, 31798.00
754.8180, 32673.00
755.9650, 33601.00
757.1110, 34717.00
758.2580, 35762.00
759.4040, 37170.00
760.5510, 39058.00
761.6970, 40379.00
762.8420, 42444.00
763.9880, 44447.00
765.1340, 46508.00
766.2790, 48667.00
767.4240, 50562.00
768.5690, 52587.00
769.7140, 54286.00
770.8590, 55994.00
772.0030, 56369.00
773.1480, 56319.00
774.2920, 55944.00
775.4360, 54490.00
776.5800, 52550.00
777.7240, 49819.00
778.8670, 47389.00
780.0110, 45002.00
781.1540, 42406.00
782.2970, 39969.00
783.4400, 37698.00
784.5830, 36067.00
785.7250, 34519.00
786.8680, 33232.00
788.0100, 32089.00
789.1520, 31111.00
790.2940, 30482.00
791.4360, 30034.00
792.5780, 29570.00
793.7190, 29265.00
794.8600, 29039.00
796.0010, 28631.00
797.1420, 28591.00
798.2830, 28343.00
799.4240, 28112.00
800.5640, 28106.00
801.7050, 27977.00
802.8450, 27737.00
803.9850, 27839.00
805.1250, 27787.00
806.2640, 27671.00
807.4040, 27681.00
808.5430, 27354.00
809.6820, 27660.00
810.8210, 27684.00
811.9600, 27396.00
813.0990, 27476.00
814.2370, 27693.00
815.3760, 27544.00
816.5140, 27612.00
817.6520, 27661.00
818.7900, 27470.00
819.9270, 27658.70
821.0650, 27716.00
822.2020, 27819.00
823.3390, 27978.00
824.4760, 27929.00
825.6130, 28055.00
826.7500, 28165.00
827.8870, 28024.00
829.0230, 27943.00
830.1590, 28101.00
831.2950, 28101.00
832.4310, 28155.92
833.5670, 28347.00
834.7030, 28326.00
835.8380, 28388.00
836.9730, 28567.00
838.1080, 28448.00
839.2430, 28569.00
840.3780, 28435.00
841.5130, 28452.00
842.6470, 28628.00
843.7810, 28551.54
844.9150, 28663.00
846.0490, 28609.00
847.1830, 28828.00
848.3170, 28907.00
849.4500, 28891.00
850.5830, 28872.00
851.7160, 29014.00
852.8490, 29153.00
853.9820, 29193.00
855.1150, 29251.00
856.2470, 29293.97
857.3800, 29406.82
858.5120, 29492.61
859.6440, 29552.82
860.7760, 29510.91
861.9070, 29600.83
863.0390, 29637.95
864.1700, 29672.85
865.3010, 29781.34
866.4320, 29754.24
867.5630, 29861.56
868.6940, 29915.22
869.8240, 29993.39
870.9540, 30018.39
872.0850, 30059.85
873.2150, 30154.47
874.3450, 30219.63
875.4740, 30238.46
876.6040, 30318.20
877.7330, 30289.14
878.8620, 30355.51
879.9910, 30463.06
881.1200, 30484.55
882.2490, 30565.22
883.3770, 30623.30
884.5060, 30579.04
885.6340, 30712.80
886.7620, 30769.56
887.8900, 30747.24
889.0180, 30874.90
890.1450, 30863.44
891.2730, 30901.66
892.4000, 30977.20
893.5270, 31013.79
894.6540, 31121.00
895.7810, 31282.00
896.9070, 31354.04
898.0340, 31419.56
899.1600, 31489.00
900.2860, 31468.00
901.4120, 31577.00
902.5380, 31540.00
903.6630, 31573.00
904.7890, 31848.00
905.9140, 31778.00
907.0390, 31761.00
908.1640, 31717.00
909.2890, 31994.00
910.4130, 32009.00
911.5380, 31812.00
912.6620, 32241.00
913.7860, 32119.00
914.9100, 32241.00
916.0340, 32259.00
917.1580, 32387.29
918.2810, 32500.73
919.4040, 32696.00
920.5280, 32702.00
921.6510, 32767.00
922.7730, 32729.00
923.8960, 32791.00
925.0180, 32841.81
926.1410, 32908.72
927.2630, 33011.00
928.3850, 33080.00
929.5070, 33250.00
930.6280, 33294.30
931.7500, 33338.00
932.8710, 33483.00
933.9920, 33400.00
935.1130, 33378.00
936.2340, 33772.00
937.3550, 33693.00
938.4760, 33796.00
939.5960, 34151.00
940.7160, 33999.00
941.8360, 34255.00
942.9560, 34166.00
944.0760, 34276.00
945.1950, 34336.00
946.3150, 34528.00
947.4340, 34710.00
948.5530, 34867.00
949.6720, 34918.00
950.7900, 35170.00
951.9090, 35215.00
953.0270, 35145.00
954.1460, 35189.00
955.2640, 35315.00
956.3820, 35306.00
957.4990, 35385.00
958.6170, 35413.00
959.7340, 35455.51
960.8520, 35482.00
961.9690, 35555.00
963.0860, 35572.00
964.2020, 35625.00
965.3190, 35689.71
966.4350, 35775.88
967.5520, 35889.00
968.6680, 35976.00
969.7840, 36224.00
970.8990, 36307.51
972.0150, 36529.00
973.1310, 36697.00
974.2460, 36865.00
975.3610, 37052.00
976.4760, 37446.00
977.5910, 37640.00
978.7050, 38405.00
979.8200, 38839.00
980.9340, 39860.00
982.0480, 40822.00
983.1620, 41851.00
984.2760, 42942.00
985.3900, 44369.00
986.5030, 45425.00
987.6160, 46936.00
988.7300, 48275.00
989.8430, 50270.00
990.9550, 51682.00
992.0680, 52909.00
993.1810, 53006.00
994.2930, 52979.00
995.4050, 51858.00
996.5170, 50285.00
997.6290, 47949.00
998.7410, 46024.00
999.8520, 44304.00
1000.964, 43382.00
1002.075, 42737.00
1003.186, 42300.00
1004.297, 41979.00
1005.407, 41715.00
1006.518, 41544.00
1007.628, 41260.00
1008.738, 41059.00
1009.848, 41015.00
1010.958, 40608.00
1012.068, 40725.00
1013.178, 40782.00
1014.287, 40628.00
1015.396, 40387.00
1016.505, 40399.00
1017.614, 40421.00
1018.723, 40243.00
1019.831, 40501.00
1020.940, 40485.00
1022.048, 40366.00
1023.156, 40760.00
1024.264, 40810.00
1025.372, 41170.00
1026.479, 41603.00
1027.587, 41740.49
1028.694, 42263.00
1029.801, 42278.00
1030.908, 42444.00
1032.015, 42831.00
1033.121, 43045.00
1034.228, 43386.00
1035.334, 44017.00
1036.440, 43825.00
1037.546, 44473.00
1038.652, 44321.00
1039.758, 44656.00
1040.863, 45051.00
1041.968, 45574.00
1043.074, 45151.00
1044.178, 45241.00
1045.283, 45406.00
1046.388, 45058.00
1047.492, 45678.00
1048.597, 45403.00
1049.701, 45472.00
1050.805, 45776.00
1051.909, 45764.00
1053.012, 45836.00
1054.116, 46127.00
1055.219, 46401.00
1056.322, 46676.00
1057.425, 47053.00
1058.528, 47158.00
1059.631, 47755.00
1060.733, 47819.00
1061.836, 48193.00
1062.938, 48952.00
1064.040, 49030.00
1065.142, 49300.00
1066.243, 49918.00
1067.345, 50355.00
1068.446, 50966.00
1069.547, 51379.00
1070.648, 52128.00
1071.749, 52598.00
1072.850, 53038.00
1073.951, 54018.00
1075.051, 54400.00
1076.151, 55548.00
1077.251, 55997.00
1078.351, 56475.00
1079.451, 57264.00
1080.550, 58185.00
1081.650, 59045.00
1082.749, 59468.00
1083.848, 59999.00
1084.947, 60709.00
1086.046, 60846.00
1087.144, 61292.00
1088.243, 62096.00
1089.341, 62343.00
1090.439, 62867.00
1091.537, 63118.00
1092.635, 63370.00
1093.732, 63862.00
1094.830, 63775.00
1095.927, 63952.00
1097.024, 63841.00
1098.121, 63389.00
1099.218, 62872.00
1100.314, 62142.00
1101.411, 61052.00
1102.507, 59977.00
1103.603, 59146.00
1104.699, 58263.00
1105.795, 57403.00
1106.890, 56687.00
1107.986, 56113.00
1109.081, 55796.00
1110.176, 55371.00
1111.271, 55169.00
1112.366, 55331.00
1113.461, 54847.00
1114.555, 54763.00
1115.649, 53774.00
1116.744, 53240.00
1117.838, 52570.00
1118.931, 51983.00
1120.025, 51880.00
1121.119, 51828.00
1122.212, 51615.00
1123.305, 51863.00
1124.398, 51652.00
1125.491, 51788.00
1126.584, 51608.00
1127.676, 51288.00
1128.768, 51625.00
1129.861, 51651.00
1130.953, 51578.00
1132.044, 51331.00
1133.136, 51262.00
1134.228, 51349.00
1135.319, 51167.00
1136.410, 51165.00
1137.501, 50875.00
1138.592, 50843.00
1139.683, 50692.00
1140.773, 50478.00
1141.864, 50279.00
1142.954, 50218.79
1144.044, 50143.52
1145.134, 50099.00
1146.224, 50183.00
1147.313, 50119.00
1148.402, 50232.00
1149.492, 50397.00
1150.581, 50011.00
1151.670, 50231.00
1152.758, 50511.00
1153.847, 49978.00
1154.935, 50426.00
1156.024, 50401.00
1157.112, 50511.00
1158.200, 50280.00
1159.287, 50737.00
1160.375, 50697.00
1161.462, 50426.00
1162.550, 50377.00
1163.637, 50761.00
1164.724, 50765.00
1165.810, 51174.00
1166.897, 50979.00
1167.983, 50847.00
1169.070, 51163.00
1170.156, 51436.00
1171.242, 51545.00
1172.327, 51355.00
1173.413, 51390.00
1174.499, 51668.00
1175.584, 51497.00
1176.669, 51828.00
1177.754, 51949.00
1178.839, 51863.00
1179.923, 52344.00
1181.008, 52154.00
1182.092, 52219.00
1183.176, 52341.00
1184.260, 52586.00
1185.344, 52541.00
1186.428, 52809.00
1187.511, 52653.00
1188.595, 53149.00
1189.678, 53130.00
1190.761, 53136.00
1191.843, 53130.00
1192.926, 53127.42
1194.009, 53537.00
1195.091, 53269.00
1196.173, 53567.00
1197.255, 53965.00
1198.337, 53616.00
1199.419, 54172.00
1200.500, 54651.00
1201.582, 54590.00
1202.663, 54357.00
1203.744, 54832.00
1204.825, 54782.00
1205.905, 54627.00
1206.986, 54854.00
1208.066, 54854.00
1209.146, 55041.00
1210.226, 55172.00
1211.306, 55156.00
1212.386, 55438.00
1213.466, 55140.00
1214.545, 55746.00
1215.624, 55536.00
1216.703, 55606.00
1217.782, 55486.00
1218.861, 55563.71
1219.939, 56186.00
1221.018, 55892.00
1222.096, 56226.00
1223.174, 56677.00
1224.252, 56311.00
1225.330, 56361.00
1226.407, 56786.00
1227.485, 56351.00
1228.562, 57269.00
1229.639, 57177.00
1230.716, 57019.00
1231.793, 56883.00
1232.869, 56964.46
1233.946, 57264.00
1235.022, 57297.00
1236.098, 57479.00
1237.174, 57945.00
1238.250, 57692.00
1239.325, 57622.00
1240.401, 58050.00
1241.476, 57795.00
1242.551, 58197.00
1243.626, 58232.00
1244.701, 58431.00
1245.776, 58375.00
1246.850, 58816.00
1247.924, 58583.00
1248.999, 59041.00
1250.073, 59166.00
1251.146, 59407.00
1252.220, 59451.00
1253.293, 59541.00
1254.367, 59691.00
1255.440, 59764.81
1256.513, 59833.00
1257.586, 59989.00
1258.658, 60146.00
1259.731, 60274.00
1260.803, 60509.00
1261.875, 60267.00
1262.947, 60642.00
1264.019, 60861.00
1265.091, 60713.00
1266.162, 60516.00
1267.234, 61099.00
1268.305, 61030.00
