##NAMES=Marialite
##RRUFFID=R060526
##IDEAL CHEMISTRY=Na_4_Al_3_Si_9_O_24_Cl
##LOCALITY=Minas Gerais, Brazil
##OWNER=RRUFF
##SOURCE=Michael Scott
##DESCRIPTION=Heavily striated pale yellow elongated prism
##STATUS=The identification of this mineral has been confirmed by X-ray diffraction and chemical analysis
##URL=rruff.info/R060526
##MEASURED CHEMISTRY=(Na_0.62_Ca_0.33_K_0.05_)_4_(Si_0.66_Al_0.34_)_12_O_24_(Cl_0.77_(CO_3_)_0.23_)
##PIN_ID=L01495
##ORIENTATION=Laser parallel to c* (0 0 1). Fiducial mark perpendicular to laser is parallel to a [1 0 0]
60.89500, 7648.000
62.13700, 7729.000
63.38000, 7854.000
64.62300, 7803.000
65.86500, 7956.000
67.10700, 7924.000
68.34900, 8019.000
69.59100, 8279.000
70.83300, 8109.000
72.07400, 8435.000
73.31600, 8382.000
74.55700, 8469.000
75.79800, 8578.000
77.03900, 8532.000
78.27900, 8695.000
79.52000, 8739.000
80.76000, 8890.000
82.00000, 8925.008
83.24000, 8959.000
84.48000, 8992.000
85.72000, 9071.000
86.95900, 9107.000
88.19900, 9092.000
89.43800, 9054.000
90.67700, 9102.620
91.91600, 9186.000
93.15400, 9179.000
94.39300, 9278.000
95.63100, 9352.000
96.86900, 9456.000
98.10700, 9381.000
99.34500, 9540.000
100.5820, 9524.000
101.8200, 9679.000
103.0570, 9762.000
104.2940, 9727.000
105.5310, 9669.000
106.7680, 10064.00
108.0040, 10166.00
109.2410, 10150.00
110.4770, 10421.00
111.7130, 10425.00
112.9490, 10270.00
114.1850, 10320.00
115.4200, 10093.00
116.6560, 10295.00
117.8910, 10174.00
119.1260, 10250.00
120.3610, 10309.00
121.5960, 10361.00
122.8300, 10506.00
124.0640, 10464.00
125.2990, 10532.00
126.5330, 10688.00
127.7670, 10706.00
129.0000, 10798.00
130.2340, 10809.00
131.4670, 10783.00
132.7000, 10756.00
133.9330, 10715.00
135.1660, 10669.37
136.3990, 10670.43
137.6310, 10655.49
138.8640, 10684.00
140.0960, 10698.00
141.3280, 10735.00
142.5600, 10830.00
143.7910, 10834.00
145.0230, 10898.00
146.2540, 10913.00
147.4850, 11059.00
148.7160, 11103.00
149.9470, 11363.00
151.1780, 11484.00
152.4080, 11536.00
153.6380, 11651.00
154.8690, 11792.92
156.0980, 12138.00
157.3280, 12136.00
158.5580, 12405.00
159.7870, 12663.00
161.0170, 12809.00
162.2460, 12954.18
163.4750, 13012.00
164.7030, 13069.00
165.9320, 13085.00
167.1600, 13014.97
168.3890, 12934.00
169.6170, 12763.00
170.8450, 12520.00
172.0730, 12381.00
173.3000, 12090.00
174.5280, 11930.00
175.7550, 11921.00
176.9820, 11562.00
178.2090, 11688.00
179.4350, 11618.00
180.6620, 11604.00
181.8880, 11523.00
183.1150, 11640.00
184.3410, 11579.00
185.5670, 11604.00
186.7920, 11737.00
188.0180, 11799.00
189.2430, 11840.00
190.4690, 11812.00
191.6940, 12072.00
192.9180, 11855.00
194.1430, 11769.00
195.3680, 12034.00
196.5920, 11820.00
197.8160, 11832.00
199.0400, 11915.00
200.2640, 11845.00
201.4880, 11782.00
202.7110, 11898.00
203.9350, 11794.00
205.1580, 11777.00
206.3810, 11701.00
207.6040, 11716.00
208.8270, 11807.00
210.0490, 11802.00
211.2710, 11794.00
212.4940, 11808.00
213.7160, 11757.00
214.9370, 11777.00
216.1590, 11795.00
217.3810, 11626.00
218.6020, 11700.00
219.8230, 11698.00
221.0440, 11720.00
222.2650, 11792.00
223.4860, 11834.00
224.7060, 11864.00
225.9260, 11911.00
227.1470, 11960.00
228.3670, 11952.00
229.5860, 11864.00
230.8060, 11879.00
232.0260, 11800.00
233.2450, 11824.00
234.4640, 11842.00
235.6830, 11720.00
236.9020, 11631.00
238.1200, 11789.00
239.3390, 11826.00
240.5570, 11748.00
241.7750, 11592.00
242.9930, 11808.00
244.2110, 11711.00
245.4290, 11709.00
246.6460, 11753.00
247.8630, 11634.00
249.0810, 11853.00
250.2980, 11765.00
251.5140, 11940.00
252.7310, 11765.00
253.9470, 12032.00
255.1640, 12044.00
256.3800, 11973.00
257.5960, 12088.00
258.8120, 12239.00
260.0270, 12292.00
261.2430, 12485.00
262.4580, 12409.00
263.6730, 12668.00
264.8880, 12773.00
266.1030, 12629.00
267.3170, 12561.00
268.5320, 12413.00
269.7460, 12383.15
270.9600, 12360.00
272.1740, 12345.00
273.3880, 12353.20
274.6010, 12381.00
275.8150, 12317.00
277.0280, 12240.00
278.2410, 12159.00
279.4540, 12158.00
280.6670, 12077.00
281.8790, 12146.00
283.0920, 12170.00
284.3040, 12447.00
285.5160, 12275.00
286.7280, 12476.00
287.9400, 12619.00
289.1510, 12589.00
290.3630, 12786.00
291.5740, 12568.00
292.7850, 12732.00
293.9960, 12511.00
295.2070, 12641.00
296.4170, 12509.00
297.6280, 12578.00
298.8380, 12692.00
300.0480, 12649.00
301.2580, 12554.00
302.4680, 12551.00
303.6770, 12512.00
304.8870, 12468.04
306.0960, 12391.00
307.3050, 12383.00
308.5140, 12440.00
309.7230, 12359.00
310.9310, 12244.00
312.1400, 12383.00
313.3480, 12489.00
314.5560, 12318.00
315.7640, 12376.00
316.9720, 12427.00
318.1790, 12408.00
319.3870, 12423.00
320.5940, 12447.00
321.8010, 12690.00
323.0080, 12673.00
324.2150, 12726.00
325.4210, 12565.00
326.6280, 12644.00
327.8340, 12767.00
329.0400, 12751.00
330.2460, 12900.00
331.4510, 12987.00
332.6570, 12977.00
333.8620, 13042.00
335.0680, 13142.00
336.2730, 13197.00
337.4780, 13205.00
338.6820, 13134.00
339.8870, 13080.00
341.0910, 13110.00
342.2950, 13076.00
343.5000, 13085.00
344.7030, 13020.00
345.9070, 13045.00
347.1110, 13004.00
348.3140, 12930.00
349.5170, 12991.00
350.7200, 13025.00
351.9230, 12852.00
353.1260, 13105.00
354.3290, 13047.00
355.5310, 13116.00
356.7330, 13291.00
357.9350, 13254.00
359.1370, 13397.00
360.3390, 13341.00
361.5400, 13587.00
362.7420, 13434.00
363.9430, 13426.00
365.1440, 13371.00
366.3450, 13517.00
367.5460, 13404.00
368.7460, 13282.00
369.9470, 13151.00
371.1470, 13373.00
372.3470, 13366.00
373.5470, 13408.00
374.7460, 13298.00
375.9460, 13382.00
377.1450, 13382.00
378.3450, 13351.00
379.5440, 13420.00
380.7430, 13494.00
381.9410, 13584.00
383.1400, 13399.00
384.3380, 13483.00
385.5370, 13400.00
386.7350, 13504.00
387.9320, 13378.00
389.1300, 13592.00
390.3280, 13480.00
391.5250, 13506.00
392.7220, 13499.00
393.9190, 13454.00
395.1160, 13525.00
396.3130, 13536.00
397.5100, 13566.80
398.7060, 13539.00
399.9020, 13639.00
401.0980, 13598.00
402.2940, 13601.00
403.4900, 13636.00
404.6860, 13596.00
405.8810, 13842.00
407.0760, 13838.00
408.2710, 13606.00
409.4660, 13866.00
410.6610, 13772.00
411.8550, 13757.00
413.0500, 13791.00
414.2440, 13986.00
415.4380, 13897.00
416.6320, 14080.00
417.8260, 14205.00
419.0190, 14075.00
420.2130, 14163.00
421.4060, 14111.00
422.5990, 14163.00
423.7920, 14258.00
424.9850, 14151.00
426.1770, 14154.00
427.3700, 14149.00
428.5620, 14217.00
429.7540, 14270.00
430.9460, 14379.00
432.1380, 14425.00
433.3290, 14366.00
434.5210, 14522.00
435.7120, 14519.67
436.9030, 14499.00
438.0940, 14615.00
439.2850, 14721.00
440.4750, 14766.00
441.6660, 14747.00
442.8560, 14930.00
444.0460, 14966.00
445.2360, 15106.00
446.4260, 15310.00
447.6160, 15438.00
448.8050, 15529.00
449.9940, 16099.00
451.1830, 16424.00
452.3720, 17035.00
453.5610, 17821.00
454.7500, 18151.00
455.9380, 18585.00
457.1260, 18867.00
458.3150, 19089.00
459.5020, 19229.00
460.6900, 19223.20
461.8780, 19150.00
463.0650, 18954.00
464.2530, 18681.00
465.4400, 18318.00
466.6270, 17822.00
467.8130, 17370.00
469.0000, 17106.00
470.1870, 16736.00
471.3730, 16572.00
472.5590, 16294.54
473.7450, 16176.00
474.9310, 15888.00
476.1160, 15626.00
477.3020, 15512.00
478.4870, 15453.00
479.6720, 15483.00
480.8570, 15441.00
482.0420, 15391.29
483.2270, 15394.82
484.4110, 15288.00
485.5960, 15275.00
486.7800, 15249.00
487.9640, 15007.00
489.1480, 14996.00
490.3310, 14975.00
491.5150, 15118.00
492.6980, 15239.00
493.8810, 15248.00
495.0640, 15202.00
496.2470, 15239.00
497.4300, 15236.00
498.6120, 15232.21
499.7950, 15300.00
500.9770, 15240.00
502.1590, 15282.00
503.3410, 15289.00
504.5220, 15292.00
505.7040, 15298.00
506.8850, 15359.00
508.0660, 15361.00
509.2470, 15425.00
510.4280, 15303.00
511.6090, 15500.00
512.7890, 15413.00
513.9700, 15364.00
515.1500, 15520.00
516.3300, 15415.00
517.5100, 15526.00
518.6900, 15513.00
519.8690, 15452.00
521.0490, 15512.00
522.2280, 15578.00
523.4070, 15815.00
524.5860, 15638.00
525.7640, 15860.00
526.9430, 15806.00
528.1210, 15734.00
529.3000, 15995.00
530.4780, 16006.00
531.6560, 16477.00
532.8330, 16315.00
534.0110, 16706.00
535.1880, 17006.00
536.3650, 17333.00
537.5430, 17437.00
538.7190, 17596.00
539.8960, 17575.00
541.0730, 17314.00
542.2490, 17108.00
543.4250, 16960.00
544.6020, 16668.00
545.7780, 16502.00
546.9530, 16479.00
548.1290, 16456.00
549.3040, 16460.00
550.4800, 16323.00
551.6550, 16241.00
552.8300, 16241.00
554.0040, 16218.00
555.1790, 16219.00
556.3540, 16233.00
557.5280, 16275.00
558.7020, 16250.00
559.8760, 16274.00
561.0500, 16171.00
562.2230, 16178.00
563.3970, 16358.00
564.5700, 16165.00
565.7430, 16222.00
566.9160, 16390.00
568.0890, 16249.00
569.2620, 16461.00
570.4340, 16424.00
571.6070, 16368.00
572.7790, 16428.00
573.9510, 16455.00
575.1230, 16496.00
576.2940, 16527.00
577.4660, 16491.00
578.6370, 16394.00
579.8080, 16446.00
580.9790, 16422.26
582.1500, 16553.00
583.3210, 16467.00
584.4910, 16593.00
585.6620, 16633.00
586.8320, 16753.00
588.0020, 16670.00
589.1720, 16739.00
590.3410, 16679.00
591.5110, 16678.75
592.6800, 16830.00
593.8500, 16684.00
595.0190, 16762.00
596.1880, 16809.00
597.3560, 16836.00
598.5250, 16800.00
599.6930, 16867.00
600.8620, 16820.00
602.0300, 16956.00
603.1970, 16881.00
604.3650, 16918.00
605.5330, 16959.00
606.7000, 16875.00
607.8680, 17208.00
609.0350, 17063.00
610.2020, 17194.00
611.3680, 17211.00
612.5350, 17158.00
613.7010, 17226.00
614.8680, 17345.00
616.0340, 17288.00
617.2000, 17218.00
618.3660, 17364.00
619.5310, 17305.00
620.6970, 17347.00
621.8620, 17299.00
623.0270, 17482.00
624.1920, 17184.00
625.3570, 17347.00
626.5220, 17489.00
627.6860, 17249.00
628.8500, 17377.00
630.0140, 17408.00
631.1780, 17496.00
632.3420, 17544.00
633.5060, 17598.00
634.6700, 17464.00
635.8330, 17494.00
636.9960, 17555.00
638.1590, 17531.00
639.3220, 17594.55
640.4850, 17575.00
641.6470, 17680.00
642.8100, 17645.00
643.9720, 17681.00
645.1340, 17701.00
646.2960, 17841.00
647.4570, 17892.00
648.6190, 17882.35
649.7800, 17868.00
650.9420, 17831.00
652.1030, 17886.00
653.2640, 17849.00
654.4240, 18006.00
655.5850, 18121.00
656.7450, 17908.00
657.9060, 18150.00
659.0660, 17939.00
660.2260, 18157.00
661.3850, 18011.00
662.5450, 18047.00
663.7040, 18300.00
664.8640, 17998.00
666.0230, 18200.00
667.1820, 18146.00
668.3410, 18188.00
669.4990, 18212.00
670.6580, 18177.00
671.8160, 18128.00
672.9740, 18175.93
674.1320, 18192.11
675.2900, 18250.00
676.4480, 18310.00
677.6050, 18364.00
678.7630, 18437.00
679.9200, 18380.00
681.0770, 18513.00
682.2340, 18535.84
683.3900, 18543.00
684.5470, 18623.00
685.7030, 18570.00
686.8590, 18534.00
688.0150, 18608.00
689.1710, 18621.79
690.3270, 18614.00
691.4830, 18754.00
692.6380, 18731.00
693.7930, 18788.00
694.9480, 18813.00
696.1030, 18739.00
697.2580, 18727.00
698.4130, 18716.00
699.5670, 18942.00
700.7210, 18750.00
701.8750, 18691.00
703.0290, 18977.00
704.1830, 18777.00
705.3370, 18949.00
706.4900, 18914.00
707.6430, 19011.00
708.7970, 18946.00
709.9490, 19116.00
711.1020, 19184.00
712.2550, 19200.00
713.4070, 19157.00
714.5600, 19081.00
715.7120, 19116.45
716.8640, 19041.00
718.0160, 19184.00
719.1670, 19167.00
720.3190, 19285.00
721.4700, 19229.00
722.6210, 19202.00
723.7720, 19447.00
724.9230, 19228.00
726.0740, 19568.00
727.2250, 19362.00
728.3750, 19499.00
729.5250, 19405.00
730.6750, 19642.00
731.8250, 19503.00
732.9750, 19305.00
734.1240, 19554.00
735.2740, 19565.00
736.4230, 19556.00
737.5720, 19554.00
738.7210, 19666.00
739.8700, 19730.00
741.0190, 19765.00
742.1670, 19831.05
743.3150, 19772.00
744.4630, 19905.00
745.6110, 19769.00
746.7590, 19780.00
747.9070, 19925.00
749.0540, 19913.00
750.2020, 20017.00
751.3490, 19865.00
752.4960, 20007.00
753.6430, 20087.00
754.7890, 20080.00
755.9360, 20188.00
757.0820, 20140.00
758.2280, 20306.00
759.3740, 20161.00
760.5200, 20273.00
761.6660, 20322.00
762.8120, 20471.00
763.9570, 20608.00
765.1020, 20561.00
766.2470, 20665.17
767.3920, 20540.00
768.5370, 20750.00
769.6810, 20773.00
770.8260, 20877.00
771.9700, 20969.00
773.1140, 20913.00
774.2580, 21067.00
775.4020, 20828.00
776.5460, 20905.00
777.6890, 21183.00
778.8320, 20901.00
779.9750, 20966.00
781.1180, 20963.00
782.2610, 20738.00
783.4040, 20960.00
784.5460, 20887.00
785.6890, 20554.00
786.8310, 20761.00
787.9730, 20783.00
789.1150, 20801.00
790.2560, 20703.00
791.3980, 20815.00
792.5390, 20900.00
793.6810, 21029.00
794.8220, 20848.00
795.9630, 20936.00
797.1030, 20895.00
798.2440, 20825.00
799.3840, 20833.00
800.5240, 21032.00
801.6650, 20926.00
802.8040, 21058.00
803.9440, 21131.00
805.0840, 20984.00
806.2230, 21250.00
807.3630, 21332.00
808.5020, 21242.00
809.6410, 21363.00
810.7790, 21305.00
811.9180, 21438.00
813.0570, 21300.00
814.1950, 21380.00
815.3330, 21288.00
816.4710, 21353.00
817.6090, 21401.00
818.7470, 21295.00
819.8840, 21351.00
821.0220, 21532.00
822.1590, 21397.00
823.2960, 21542.00
824.4330, 21609.00
825.5690, 21521.00
826.7060, 21604.00
827.8420, 21595.41
828.9790, 21511.00
830.1150, 21639.00
831.2510, 21746.00
832.3860, 21813.00
833.5220, 21754.00
834.6570, 21871.00
835.7930, 21643.00
836.9280, 21800.00
838.0630, 21899.00
839.1980, 21777.00
840.3320, 21937.00
841.4670, 22057.00
842.6010, 21733.00
843.7350, 22114.00
844.8690, 22090.00
846.0030, 22048.00
847.1370, 22098.00
848.2700, 22038.00
849.4040, 22023.00
850.5370, 22335.00
851.6700, 22367.00
852.8030, 22211.00
853.9360, 22298.00
855.0680, 22189.00
856.2000, 22197.29
857.3330, 22385.00
858.4650, 22234.00
859.5970, 22338.00
860.7290, 22414.00
861.8600, 22420.00
862.9920, 22542.00
864.1230, 22326.00
865.2540, 22669.00
866.3850, 22416.00
867.5160, 22782.00
868.6460, 22587.00
869.7770, 22590.00
870.9070, 22860.00
872.0370, 22709.00
873.1670, 22695.00
874.2970, 22671.00
875.4270, 22962.00
876.5570, 22620.00
877.6860, 22919.00
878.8150, 22790.00
879.9440, 22913.00
881.0730, 23070.00
882.2020, 22969.00
883.3300, 22998.00
884.4590, 23002.00
885.5870, 23048.00
886.7150, 23025.00
887.8430, 23107.00
888.9710, 23328.00
890.0990, 23238.00
891.2260, 23411.00
892.3530, 23311.00
893.4810, 23259.00
894.6080, 23547.00
895.7340, 23440.00
896.8610, 23314.00
897.9880, 23286.00
899.1140, 23312.00
900.2400, 23242.00
901.3660, 23533.00
902.4920, 23554.00
903.6180, 23569.00
904.7430, 23669.00
905.8690, 23529.00
906.9940, 23742.00
908.1190, 23609.00
909.2440, 23646.00
910.3690, 23489.00
911.4930, 23697.00
912.6180, 23673.00
913.7420, 23521.00
914.8660, 23796.00
915.9900, 23937.00
917.1140, 23686.00
918.2380, 23965.00
919.3610, 24102.00
920.4850, 23981.00
921.6080, 23974.00
922.7310, 23992.00
923.8540, 24096.00
924.9760, 24134.00
926.0990, 24207.00
927.2210, 24137.00
928.3440, 24260.00
929.4660, 24197.00
930.5880, 24289.00
931.7090, 24309.00
932.8310, 24397.00
933.9520, 24422.00
935.0740, 24420.40
936.1950, 24430.00
937.3160, 24377.00
938.4360, 24500.00
939.5570, 24455.00
940.6780, 24497.78
941.7980, 24563.00
942.9180, 24573.00
944.0380, 24651.00
945.1580, 24729.00
946.2780, 24688.00
947.3970, 24716.00
948.5170, 24810.00
949.6360, 24867.00
950.7550, 24797.00
951.8740, 25039.00
952.9930, 24913.00
954.1110, 25031.00
955.2300, 24988.00
956.3480, 25263.00
957.4660, 25267.00
958.5840, 25119.00
959.7020, 25496.00
960.8190, 25100.00
961.9370, 25182.00
963.0540, 25198.00
964.1710, 25417.00
965.2880, 25259.00
966.4050, 25326.00
967.5220, 25228.00
968.6380, 25369.00
969.7550, 25310.00
970.8710, 25263.00
971.9870, 25247.00
973.1030, 25421.00
974.2190, 25439.00
975.3340, 25445.00
976.4500, 25572.90
977.5650, 25601.00
978.6800, 25744.00
979.7950, 25755.00
980.9100, 25835.00
982.0250, 25700.00
983.1390, 26145.00
984.2530, 25837.00
985.3680, 25992.00
986.4820, 25824.00
987.5950, 25848.00
988.7090, 25836.00
989.8230, 25850.39
990.9360, 25892.52
992.0490, 25998.00
993.1620, 25986.00
994.2750, 26096.00
995.3880, 26148.00
996.5010, 26290.00
997.6130, 26192.00
998.7250, 26335.00
999.8370, 26374.00
1000.949, 26335.00
1002.061, 26414.00
1003.173, 26334.00
1004.284, 26591.00
1005.396, 26400.00
1006.507, 26612.00
1007.618, 26520.00
1008.729, 26442.00
1009.839, 26669.00
1010.950, 26638.00
1012.060, 26958.00
1013.171, 26716.00
1014.281, 26764.00
1015.391, 26681.00
1016.500, 26897.00
1017.610, 26841.00
1018.719, 26882.00
1019.829, 26986.00
1020.938, 26991.56
1022.047, 26825.00
1023.156, 27115.00
1024.264, 27112.00
1025.373, 27190.00
1026.481, 26971.00
1027.589, 27241.00
1028.697, 26998.00
1029.805, 27372.00
1030.913, 27454.00
1032.020, 27493.00
1033.128, 27385.00
1034.235, 27309.00
1035.342, 27590.00
1036.449, 27800.00
1037.556, 27600.00
1038.663, 27751.00
1039.769, 27477.00
1040.875, 27817.00
1041.981, 27704.00
1043.087, 27827.00
1044.193, 27755.00
1045.299, 27670.00
1046.404, 27848.00
1047.510, 28067.00
1048.615, 27883.00
1049.720, 27906.00
1050.825, 28148.00
1051.930, 28047.00
1053.034, 28099.00
1054.139, 28027.00
1055.243, 28207.00
1056.347, 28169.00
1057.451, 28282.00
1058.555, 28556.00
1059.658, 28485.00
1060.762, 28580.00
1061.865, 28583.00
1062.968, 28481.00
1064.071, 28461.00
1065.174, 28501.55
1066.277, 28796.00
1067.380, 28642.00
1068.482, 28851.00
1069.584, 29004.00
1070.686, 29022.00
1071.788, 29115.68
1072.890, 29154.00
1073.992, 29151.00
1075.093, 29156.00
1076.194, 29173.00
1077.295, 29178.42
1078.396, 29381.00
1079.497, 29202.00
1080.598, 29282.00
1081.698, 29296.00
1082.799, 29208.00
1083.899, 29301.00
1084.999, 29427.00
1086.099, 29565.00
1087.199, 29407.00
1088.298, 29618.00
1089.398, 29592.00
1090.497, 29909.00
1091.596, 29767.00
1092.695, 29821.00
1093.794, 29973.00
1094.892, 29787.00
1095.991, 30083.00
1097.089, 29935.00
1098.187, 30074.00
1099.285, 30150.00
1100.383, 30178.00
1101.481, 30278.00
1102.579, 30118.00
1103.676, 30066.00
1104.773, 30182.00
1105.870, 30172.00
1106.967, 30222.00
1108.064, 30337.00
1109.161, 30619.00
1110.257, 30566.00
1111.353, 30702.00
1112.449, 31181.00
1113.545, 31125.00
1114.641, 31257.00
1115.737, 31244.00
1116.832, 31091.00
1117.928, 30752.00
1119.023, 30572.00
1120.118, 30294.00
1121.213, 30391.00
1122.308, 30380.00
1123.402, 30429.00
1124.497, 30489.00
1125.591, 30472.24
1126.685, 30512.17
1127.779, 30488.00
1128.873, 30547.00
1129.967, 30598.00
1131.060, 30639.00
1132.153, 30635.00
1133.247, 30820.00
1134.340, 30529.00
1135.433, 31015.00
1136.525, 31125.00
1137.618, 31022.00
1138.710, 30964.00
1139.802, 30897.00
1140.895, 30907.00
1141.987, 31095.00
1143.078, 31230.00
1144.170, 30950.00
1145.261, 31283.00
1146.353, 31126.00
1147.444, 31248.00
1148.535, 31381.00
1149.626, 31003.00
1150.716, 31273.00
1151.807, 31518.00
1152.897, 31673.00
1153.988, 31422.00
1155.078, 31446.00
1156.168, 31623.00
1157.257, 31490.00
1158.347, 31837.00
1159.436, 31775.00
1160.526, 31765.00
1161.615, 31949.00
1162.704, 31807.00
1163.793, 31846.00
1164.881, 31712.00
1165.970, 31727.00
1167.058, 31669.00
1168.147, 31654.00
1169.235, 31765.00
1170.323, 31787.00
1171.410, 31977.00
1172.498, 32198.00
1173.585, 32240.00
1174.673, 32212.00
1175.760, 32193.00
1176.847, 32096.00
1177.934, 32287.00
1179.020, 32451.00
1180.107, 32456.00
1181.193, 32355.00
1182.279, 32301.00
1183.365, 32408.00
1184.451, 32506.00
1185.537, 32490.00
1186.623, 32533.00
1187.708, 32585.02
1188.793, 32624.00
1189.878, 32636.00
1190.963, 32723.00
1192.048, 32670.78
1193.133, 32799.78
1194.217, 32862.00
1195.302, 32911.00
1196.386, 33267.00
1197.470, 33120.00
1198.554, 33261.00
1199.638, 33187.00
1200.721, 33479.00
1201.805, 33355.00
1202.888, 33374.00
1203.971, 33272.00
1205.054, 33365.00
1206.137, 33447.00
1207.219, 33366.00
1208.302, 33720.00
1209.384, 33589.00
1210.466, 33607.00
1211.548, 33705.00
1212.630, 33537.00
1213.712, 33900.00
1214.794, 33812.00
1215.875, 34070.00
1216.956, 33983.00
1218.037, 34014.85
1219.118, 34033.00
1220.199, 33981.00
1221.280, 33930.00
1222.360, 33876.00
1223.441, 34244.00
1224.521, 34237.00
1225.601, 34029.00
1226.681, 34289.00
1227.760, 34226.00
1228.840, 34318.00
1229.919, 34294.00
1230.999, 34374.00
1232.078, 34377.00
1233.157, 34448.00
1234.236, 34463.00
1235.314, 34654.00
1236.393, 34641.00
1237.471, 34759.00
1238.549, 34816.00
1239.627, 34598.00
1240.705, 35059.00
1241.783, 34790.00
1242.860, 34995.00
1243.938, 34807.00
1245.015, 34901.00
