##NAMES=Marialite
##RRUFFID=R060297
##IDEAL CHEMISTRY=Na_4_Al_3_Si_9_O_24_Cl
##LOCALITY=Morogoro District, Marasi, Tanzania
##OWNER=RRUFF
##SOURCE=Herb Obodda
##DESCRIPTION=Pale yellow crystal fragment
##STATUS=The identification of this mineral has been confirmed by X-ray diffraction and chemical analysis
##URL=rruff.info/R060297
##MEASURED CHEMISTRY=(Na_0.66_Ca_0.29_K_0.06_)_4_(Si_0.68_Al_0.32_)_12_O_24_(Cl_0.70_(CO_3_)_0.30_)
##PIN_ID=L01156
##ORIENTATION=Laser parallel to a* (1 0 0). Fiducial mark perpendicular to laser is parallel to c [0 0 1]
88.33800, 21587.00
89.57500, 22081.00
90.81200, 22049.00
92.04900, 23540.00
93.28600, 22731.00
94.52300, 23176.00
95.75900, 23567.00
96.99500, 24059.00
98.23100, 24463.00
99.46700, 25296.00
100.7030, 25576.00
101.9390, 26369.00
103.1740, 27383.00
104.4090, 28423.00
105.6440, 29385.00
106.8790, 30407.00
108.1140, 31581.00
109.3490, 32093.17
110.5830, 32860.00
111.8180, 32910.00
113.0520, 33258.00
114.2860, 33157.00
115.5200, 33341.00
116.7530, 33107.00
117.9870, 32982.00
119.2200, 32948.00
120.4530, 33312.00
121.6860, 33356.00
122.9190, 34471.00
124.1520, 34533.00
125.3850, 35358.00
126.6170, 35589.00
127.8490, 36021.00
129.0810, 36654.00
130.3130, 36896.00
131.5450, 37047.00
132.7770, 36798.00
134.0080, 37149.00
135.2390, 36924.00
136.4710, 36934.00
137.7020, 37490.00
138.9320, 37792.00
140.1630, 38161.00
141.3930, 39061.00
142.6240, 40041.00
143.8540, 41522.00
145.0840, 43014.00
146.3140, 45012.00
147.5440, 46908.00
148.7730, 49800.00
150.0020, 51903.00
151.2320, 55507.00
152.4610, 58761.00
153.6900, 61744.00
154.9180, 65614.00
156.1470, 68678.00
157.3750, 72475.00
158.6040, 74982.00
159.8320, 77088.00
161.0600, 78720.00
162.2870, 79647.00
163.5150, 78896.00
164.7420, 77344.00
165.9700, 74738.00
167.1970, 72145.00
168.4240, 68487.00
169.6510, 65531.00
170.8770, 61282.00
172.1040, 57595.00
173.3300, 54914.00
174.5560, 52031.00
175.7820, 50192.00
177.0080, 48015.00
178.2340, 46893.00
179.4590, 45741.00
180.6850, 45156.00
181.9100, 44615.00
183.1350, 44244.00
184.3600, 44005.00
185.5850, 44440.00
186.8090, 44243.00
188.0340, 43811.00
189.2580, 44141.00
190.4820, 43784.00
191.7060, 43634.00
192.9300, 42659.00
194.1530, 41843.00
195.3770, 40857.00
196.6000, 39901.00
197.8230, 39045.00
199.0460, 38000.00
200.2690, 36920.00
201.4910, 35999.00
202.7140, 35038.00
203.9360, 34158.00
205.1580, 33356.00
206.3800, 32759.04
207.6020, 32222.04
208.8240, 31805.00
210.0450, 31514.00
211.2670, 31176.00
212.4880, 31031.00
213.7090, 30803.67
214.9300, 30759.00
216.1510, 30604.00
217.3710, 30679.00
218.5920, 30846.00
219.8120, 31135.00
221.0320, 31162.00
222.2520, 31365.00
223.4720, 31526.00
224.6910, 31507.00
225.9110, 31153.00
227.1300, 31278.00
228.3490, 30872.00
229.5680, 30267.00
230.7870, 30077.00
232.0050, 28982.00
233.2240, 28550.00
234.4420, 28003.00
235.6600, 27104.00
236.8780, 26771.00
238.0960, 25997.00
239.3140, 25661.00
240.5310, 25454.00
241.7490, 24711.00
242.9660, 24518.00
244.1830, 24572.00
245.4000, 24479.00
246.6160, 24469.00
247.8330, 24802.00
249.0490, 24985.00
250.2660, 25461.00
251.4820, 25928.00
252.6980, 27122.00
253.9130, 27733.00
255.1290, 29183.00
256.3440, 30302.00
257.5600, 31900.00
258.7750, 33399.00
259.9900, 35175.00
261.2040, 36375.00
262.4190, 37341.00
263.6330, 37607.00
264.8480, 37222.00
266.0620, 36416.00
267.2760, 34578.00
268.4900, 32693.00
269.7030, 30879.00
270.9170, 28843.00
272.1300, 27739.00
273.3430, 26528.00
274.5560, 25560.00
275.7690, 25053.00
276.9820, 24388.00
278.1940, 24551.00
279.4070, 24785.00
280.6190, 25157.00
281.8310, 25597.00
283.0430, 26373.00
284.2550, 27350.00
285.4660, 28343.00
286.6770, 29635.00
287.8890, 30557.00
289.1000, 30904.00
290.3110, 30508.00
291.5210, 29937.00
292.7320, 28972.00
293.9420, 28339.00
295.1530, 27672.00
296.3630, 26893.00
297.5730, 26544.00
298.7830, 25735.00
299.9920, 24920.00
301.2020, 23387.00
302.4110, 21800.00
303.6200, 21124.00
304.8290, 20008.00
306.0380, 19371.00
307.2470, 18897.00
308.4550, 18567.00
309.6630, 18171.00
310.8720, 18243.00
312.0800, 18151.00
313.2880, 18015.00
314.4950, 18072.00
315.7030, 18232.00
316.9100, 18418.00
318.1170, 18476.00
319.3240, 18753.00
320.5310, 19010.00
321.7380, 19433.00
322.9450, 19970.00
324.1510, 20245.00
325.3570, 20857.00
326.5630, 21608.00
327.7690, 21998.00
328.9750, 23010.00
330.1810, 23683.00
331.3860, 24394.00
332.5910, 25340.00
333.7960, 25917.00
335.0010, 26188.00
336.2060, 26418.00
337.4110, 25843.00
338.6150, 25360.00
339.8200, 24615.00
341.0240, 23848.00
342.2280, 23020.00
343.4320, 22242.00
344.6350, 21719.00
345.8390, 21321.91
347.0420, 21237.00
348.2450, 21139.00
349.4480, 21121.00
350.6510, 21675.00
351.8540, 21704.00
353.0560, 22315.00
354.2590, 22822.00
355.4610, 23746.00
356.6630, 24747.00
357.8650, 25720.00
359.0670, 26490.00
360.2680, 27120.00
361.4700, 27059.00
362.6710, 26435.00
363.8720, 25821.00
365.0730, 24434.00
366.2740, 23531.00
367.4740, 22426.00
368.6750, 21514.00
369.8750, 21123.00
371.0750, 20790.00
372.2750, 20812.00
373.4750, 20544.00
374.6740, 20572.00
375.8740, 20554.00
377.0730, 20499.00
378.2720, 20517.00
379.4710, 20326.00
380.6700, 20304.00
381.8690, 20234.00
383.0670, 20018.00
384.2660, 19716.00
385.4640, 19680.00
386.6620, 19492.00
387.8600, 19302.00
389.0570, 19195.00
390.2550, 19106.00
391.4520, 18851.00
392.6490, 18953.00
393.8460, 18754.00
395.0430, 18563.00
396.2400, 18532.00
397.4370, 18534.00
398.6330, 18478.29
399.8290, 18701.00
401.0250, 18515.00
402.2210, 18590.00
403.4170, 18664.00
404.6130, 18502.00
405.8080, 18979.00
407.0030, 19003.00
408.1980, 19550.00
409.3930, 19260.00
410.5880, 19487.00
411.7830, 19975.00
412.9770, 20212.00
414.1720, 20474.00
415.3660, 20870.00
416.5600, 21356.00
417.7530, 21897.00
418.9470, 22315.00
420.1410, 22864.00
421.3340, 23183.00
422.5270, 23384.00
423.7200, 23237.00
424.9130, 23534.00
426.1060, 23777.00
427.2980, 23815.00
428.4900, 24144.00
429.6830, 24542.00
430.8750, 24959.00
432.0670, 25294.00
433.2580, 25979.00
434.4500, 26859.00
435.6410, 27771.00
436.8320, 28851.00
438.0240, 30592.00
439.2140, 32105.00
440.4050, 34056.00
441.5960, 35820.00
442.7860, 38385.00
443.9760, 41791.00
445.1670, 45331.00
446.3560, 50293.00
447.5460, 56529.00
448.7360, 64589.00
449.9250, 74157.00
451.1150, 84875.00
452.3040, 96087.00
453.4930, 106537.0
454.6810, 114267.0
455.8700, 120580.0
457.0590, 124066.0
458.2470, 126371.0
459.4350, 126317.0
460.6230, 124019.0
461.8110, 119390.0
462.9980, 112337.0
464.1860, 103667.0
465.3730, 94476.00
466.5600, 85523.00
467.7470, 76171.00
468.9340, 68100.00
470.1210, 60786.00
471.3080, 54383.00
472.4940, 48678.00
473.6800, 44174.00
474.8660, 40949.00
476.0520, 37969.00
477.2380, 34946.00
478.4230, 32723.00
479.6090, 31291.00
480.7940, 29562.00
481.9790, 28207.00
483.1640, 27380.00
484.3490, 26397.00
485.5330, 25649.00
486.7180, 24986.00
487.9020, 24578.00
489.0860, 23991.00
490.2700, 23746.00
491.4540, 23326.00
492.6370, 23105.00
493.8210, 22989.00
495.0040, 22843.00
496.1870, 22747.00
497.3700, 22479.00
498.5530, 22239.00
499.7360, 22109.00
500.9180, 21868.00
502.1000, 22066.00
503.2830, 22009.00
504.4650, 21850.00
505.6460, 21611.00
506.8280, 21517.00
508.0100, 21699.00
509.1910, 21598.00
510.3720, 21680.00
511.5530, 21649.00
512.7340, 21824.00
513.9150, 22037.00
515.0950, 22045.00
516.2760, 22449.00
517.4560, 22633.00
518.6360, 22915.00
519.8160, 23317.00
520.9950, 23770.00
522.1750, 24451.00
523.3540, 24968.00
524.5340, 26176.00
525.7130, 27543.00
526.8920, 28925.00
528.0700, 30815.00
529.2490, 33142.00
530.4270, 36040.00
531.6060, 39619.00
532.7840, 43845.00
533.9620, 48157.00
535.1390, 52482.00
536.3170, 55431.00
537.4940, 56704.00
538.6720, 55405.00
539.8490, 52561.00
541.0260, 49042.00
542.2030, 44676.00
543.3790, 40706.00
544.5560, 37402.00
545.7320, 34765.00
546.9080, 32241.09
548.0840, 30641.00
549.2600, 28760.00
550.4360, 27543.00
551.6110, 26789.00
552.7860, 25870.00
553.9620, 25660.00
555.1370, 25087.00
556.3110, 24783.00
557.4860, 24522.00
558.6610, 24011.00
559.8350, 23923.00
561.0090, 23974.00
562.1830, 23692.00
563.3570, 23659.00
564.5310, 23418.00
565.7040, 23527.00
566.8780, 23326.00
568.0510, 23206.00
569.2240, 23486.00
570.3970, 23199.00
571.5700, 23282.00
572.7420, 23485.00
573.9150, 23403.00
575.0870, 23414.00
576.2590, 23491.00
577.4310, 23573.00
578.6030, 23566.00
579.7740, 23641.00
580.9460, 23762.00
582.1170, 23803.00
583.2880, 23870.55
584.4590, 23917.00
585.6300, 23999.00
586.8010, 24072.23
587.9710, 24175.67
589.1410, 24266.22
590.3110, 24420.00
591.4810, 24584.00
592.6510, 24742.00
593.8210, 24843.00
594.9900, 25109.49
596.1600, 25389.26
597.3290, 25705.00
598.4980, 26120.00
599.6670, 26605.00
600.8350, 27071.00
602.0040, 27517.00
603.1720, 28024.00
604.3400, 27971.00
605.5080, 27928.00
606.6760, 27441.00
607.8440, 27576.00
609.0120, 27222.00
610.1790, 27315.00
611.3460, 26910.00
612.5130, 26663.00
613.6800, 26720.00
614.8470, 26685.00
616.0130, 26449.00
617.1800, 26160.00
618.3460, 26083.00
619.5120, 25934.00
620.6780, 25669.00
621.8440, 25477.00
623.0090, 25453.00
624.1750, 25332.00
625.3400, 25303.00
626.5050, 25181.00
627.6700, 25265.00
628.8350, 25202.00
629.9990, 25301.00
631.1640, 25324.00
632.3280, 25454.00
633.4920, 25447.38
634.6560, 25496.75
635.8200, 25466.00
636.9840, 25524.00
638.1470, 25561.00
639.3100, 25530.00
640.4730, 25685.00
641.6360, 25796.00
642.7990, 25943.00
643.9620, 26012.00
645.1240, 25786.00
646.2870, 26117.00
647.4490, 26203.00
648.6110, 25973.00
649.7730, 26206.00
650.9340, 26317.00
652.0960, 26333.00
653.2570, 26384.00
654.4180, 26424.00
655.5790, 26557.70
656.7400, 26681.26
657.9010, 26853.00
659.0620, 26993.00
660.2220, 27122.00
661.3820, 27235.00
662.5420, 27313.00
663.7020, 27392.00
664.8620, 27603.00
666.0210, 27399.00
667.1810, 27451.00
668.3400, 27541.00
669.4990, 27289.00
670.6580, 27478.00
671.8170, 27421.00
672.9750, 27418.00
674.1340, 27545.00
675.2920, 27942.00
676.4500, 28156.00
677.6080, 28338.00
678.7660, 28397.00
679.9230, 28478.00
681.0810, 28415.00
682.2380, 28076.00
683.3950, 27979.00
684.5520, 27998.00
685.7090, 27864.48
686.8660, 27755.00
688.0220, 27901.00
689.1780, 28044.00
690.3340, 28216.00
691.4900, 27985.00
692.6460, 28072.00
693.8020, 28443.00
694.9570, 28186.00
696.1130, 28344.00
697.2680, 28566.00
698.4230, 28583.00
699.5780, 28704.00
700.7320, 28699.00
701.8870, 28679.00
703.0410, 28826.90
704.1950, 28911.00
705.3490, 29103.00
706.5030, 29235.12
707.6570, 29349.12
708.8110, 29522.00
709.9640, 29632.00
711.1170, 29714.00
712.2700, 29953.00
713.4230, 29893.00
714.5760, 29975.00
715.7280, 30313.00
716.8810, 30165.00
718.0330, 30186.00
719.1850, 30374.00
720.3370, 30063.00
721.4890, 30262.00
722.6400, 30092.00
723.7920, 30348.00
724.9430, 30447.00
726.0940, 30593.00
727.2450, 30538.00
728.3960, 30521.00
729.5460, 30769.00
730.6970, 30834.00
731.8470, 31089.00
732.9970, 30767.00
734.1470, 30962.00
735.2970, 30949.00
736.4460, 30835.00
737.5960, 30940.00
738.7450, 30910.00
739.8940, 31167.00
741.0430, 31063.00
742.1920, 31223.00
743.3410, 31284.00
744.4890, 31791.00
745.6370, 31966.00
746.7850, 32013.00
747.9330, 32555.00
749.0810, 32561.00
750.2290, 33205.00
751.3760, 33357.00
752.5240, 33479.00
753.6710, 33971.00
754.8180, 34190.00
755.9650, 34482.00
757.1110, 35188.00
758.2580, 35400.00
759.4040, 35583.00
760.5510, 36293.00
761.6970, 36824.00
762.8420, 37434.00
763.9880, 38317.00
765.1340, 39408.00
766.2790, 40031.00
767.4240, 40770.00
768.5690, 41292.00
769.7140, 42415.00
770.8590, 42982.00
772.0030, 43591.00
773.1480, 43418.00
774.2920, 43209.00
775.4360, 43107.00
776.5800, 42259.00
777.7240, 41305.00
778.8670, 40542.00
780.0110, 39456.00
781.1540, 38781.00
782.2970, 37724.00
783.4400, 36706.00
784.5830, 36444.00
785.7250, 35828.00
786.8680, 35670.00
788.0100, 35167.00
789.1520, 34861.24
790.2940, 34927.15
791.4360, 34966.05
792.5780, 34979.38
793.7190, 34890.56
794.8600, 34933.64
796.0010, 34923.86
797.1420, 34911.91
798.2830, 35188.00
799.4240, 35350.00
800.5640, 35492.00
801.7050, 35693.00
802.8450, 36400.00
803.9850, 36553.00
805.1250, 37053.00
806.2640, 37389.00
807.4040, 37687.00
808.5430, 38259.00
809.6820, 38068.00
810.8210, 38155.00
811.9600, 37805.00
813.0990, 37227.00
814.2370, 36669.00
815.3760, 36320.00
816.5140, 35964.00
817.6520, 36092.00
818.7900, 36059.00
819.9270, 35942.00
821.0650, 35955.00
822.2020, 35808.00
823.3390, 35911.00
824.4760, 35781.00
825.6130, 35598.00
826.7500, 35966.00
827.8870, 36182.00
829.0230, 36026.00
830.1590, 35756.00
831.2950, 36113.00
832.4310, 36091.00
833.5670, 36466.00
834.7030, 36612.00
835.8380, 36563.00
836.9730, 36574.00
838.1080, 36570.00
839.2430, 36746.00
840.3780, 36827.00
841.5130, 36769.00
842.6470, 36990.00
843.7810, 37004.00
844.9150, 36943.00
846.0490, 37000.00
847.1830, 37237.00
848.3170, 37000.00
849.4500, 37152.00
850.5830, 37300.00
851.7160, 37736.00
852.8490, 37757.08
853.9820, 37880.00
855.1150, 37970.00
856.2470, 37984.00
857.3800, 38066.00
858.5120, 38137.00
859.6440, 38278.00
860.7760, 38471.00
861.9070, 38534.00
863.0390, 38628.00
864.1700, 38705.00
865.3010, 38753.00
866.4320, 39128.00
867.5630, 38869.00
868.6940, 39262.00
869.8240, 39060.00
870.9540, 39185.00
872.0850, 39309.00
873.2150, 39699.00
874.3450, 39659.00
875.4740, 39555.00
876.6040, 39713.00
877.7330, 39646.00
878.8620, 39839.00
879.9910, 39657.00
881.1200, 39702.00
882.2490, 39916.00
883.3770, 39899.00
884.5060, 39944.00
885.6340, 40326.00
886.7620, 40069.00
887.8900, 40349.00
889.0180, 40213.00
890.1450, 40343.00
891.2730, 40548.00
892.4000, 41016.00
893.5270, 40969.00
894.6540, 41100.00
895.7810, 41320.00
896.9070, 41175.00
898.0340, 41305.00
899.1600, 41461.00
900.2860, 41438.00
901.4120, 41519.00
902.5380, 41576.00
903.6630, 41919.00
904.7890, 42259.00
905.9140, 42180.00
907.0390, 42132.00
908.1640, 42237.00
909.2890, 42766.00
910.4130, 42508.00
911.5380, 42644.00
912.6620, 43144.00
913.7860, 42634.00
914.9100, 42757.00
916.0340, 43107.00
917.1580, 43057.00
918.2810, 43402.00
919.4040, 43319.00
920.5280, 43316.00
921.6510, 43489.00
922.7730, 43308.00
923.8960, 43463.00
925.0180, 43930.00
926.1410, 43908.00
927.2630, 43745.00
928.3850, 43897.00
929.5070, 43808.00
930.6280, 43992.00
931.7500, 44087.00
932.8710, 44064.00
933.9920, 44501.00
935.1130, 44396.00
936.2340, 44454.00
937.3550, 44712.00
938.4760, 44899.00
939.5960, 44856.00
940.7160, 45149.00
941.8360, 45271.00
942.9560, 45551.00
944.0760, 45678.24
945.1950, 45743.00
946.3150, 45876.00
947.4340, 46133.00
948.5530, 46112.00
949.6720, 46496.00
950.7900, 46302.00
951.9090, 46661.00
953.0270, 46640.00
954.1460, 47005.00
955.2640, 46998.00
956.3820, 47138.00
957.4990, 47280.00
958.6170, 47656.00
959.7340, 47527.00
960.8520, 47624.00
961.9690, 47709.00
963.0860, 47555.00
964.2020, 48013.00
965.3190, 47976.00
966.4350, 47792.00
967.5520, 47860.00
968.6680, 48151.00
969.7840, 48529.00
970.8990, 48799.00
972.0150, 48660.00
973.1310, 49351.00
974.2460, 49051.00
975.3610, 49488.00
976.4760, 49951.00
977.5910, 50034.00
978.7050, 50739.00
979.8200, 51523.00
980.9340, 52456.00
982.0480, 53300.00
983.1620, 54864.00
984.2760, 56511.00
985.3900, 57448.00
986.5030, 58880.00
987.6160, 60685.00
988.7300, 62378.00
989.8430, 64646.00
990.9550, 66385.00
992.0680, 67588.00
993.1810, 68059.00
994.2930, 67139.00
995.4050, 65611.00
996.5170, 63807.00
997.6290, 61214.00
998.7410, 58292.00
999.8520, 56018.00
1000.964, 54717.00
1002.075, 53847.00
1003.186, 53034.00
1004.297, 52852.00
1005.407, 52744.00
1006.518, 52501.00
1007.628, 52656.00
1008.738, 52097.00
1009.848, 52270.00
1010.958, 51802.00
1012.068, 51936.00
1013.178, 51909.00
1014.287, 51795.00
1015.396, 51732.00
1016.505, 51614.00
1017.614, 51562.00
1018.723, 51777.00
1019.831, 51857.00
1020.940, 52070.57
1022.048, 52219.00
1023.156, 52636.00
1024.264, 53016.00
1025.372, 53439.03
1026.479, 53816.25
1027.587, 54149.00
1028.694, 54538.00
1029.801, 54789.00
1030.908, 55055.00
1032.015, 55347.00
1033.121, 55707.49
1034.228, 56411.00
1035.334, 56463.00
1036.440, 56960.00
1037.546, 57307.00
1038.652, 57445.00
1039.758, 57826.00
1040.863, 58061.00
1041.968, 58420.00
1043.074, 58421.00
1044.178, 58918.00
1045.283, 59119.00
1046.388, 59274.00
1047.492, 59736.00
1048.597, 59660.00
1049.701, 60105.00
1050.805, 60425.00
1051.909, 60762.00
1053.012, 60969.00
1054.116, 61684.00
1055.219, 61768.00
1056.322, 62627.00
1057.425, 62783.00
1058.528, 63038.00
1059.631, 63313.00
1060.733, 63610.00
1061.836, 64374.00
1062.938, 64601.00
1064.040, 64973.00
1065.142, 65839.00
1066.243, 65964.00
1067.345, 66985.00
1068.446, 66845.00
1069.547, 67080.00
1070.648, 67659.00
1071.749, 67875.00
1072.850, 68244.00
1073.951, 68336.00
1075.051, 68836.00
1076.151, 68756.00
1077.251, 68219.00
1078.351, 68692.00
1079.451, 68475.00
1080.550, 68840.00
1081.650, 68631.00
1082.749, 68842.00
1083.848, 69254.00
1084.947, 69320.00
1086.046, 69817.00
1087.144, 69922.00
1088.243, 70880.00
1089.341, 71711.00
1090.439, 72385.00
1091.537, 73894.00
1092.635, 74858.00
1093.732, 76284.00
1094.830, 77178.00
1095.927, 78825.00
1097.024, 79396.00
1098.121, 80080.00
1099.218, 80559.00
1100.314, 79998.00
1101.411, 78771.00
1102.507, 78018.00
1103.603, 76718.00
1104.699, 75661.00
1105.795, 74375.00
1106.890, 73981.00
1107.986, 74275.00
1109.081, 75542.00
1110.176, 77065.00
1111.271, 79053.00
1112.366, 80513.00
1113.461, 81713.00
1114.555, 81351.00
1115.649, 78994.00
1116.744, 75408.00
1117.838, 72286.00
1118.931, 71339.00
1120.025, 68897.00
1121.119, 68146.00
1122.212, 67233.00
1123.305, 67558.00
1124.398, 67197.00
1125.491, 67398.00
1126.584, 67377.00
1127.676, 67817.00
1128.768, 67621.00
1129.861, 67784.00
1130.953, 67955.00
1132.044, 67955.00
1133.136, 68178.27
1134.228, 67931.00
1135.319, 68401.00
1136.410, 68413.00
1137.501, 68263.00
1138.592, 68330.00
1139.683, 68616.00
1140.773, 68985.00
1141.864, 68813.00
1142.954, 68829.00
1144.044, 69085.00
1145.134, 69053.00
1146.224, 69022.00
1147.313, 69276.00
1148.402, 69236.00
1149.492, 69523.00
1150.581, 69616.00
1151.670, 69813.00
1152.758, 69908.00
1153.847, 70062.16
1154.935, 70049.00
1156.024, 70308.00
1157.112, 70236.00
1158.200, 70243.00
1159.287, 70515.00
1160.375, 71016.00
1161.462, 70992.00
1162.550, 71009.00
1163.637, 70936.00
1164.724, 71482.00
1165.810, 71772.00
1166.897, 71435.00
1167.983, 72042.00
1169.070, 72246.00
1170.156, 72136.00
1171.242, 72595.00
1172.327, 73203.00
1173.413, 73001.00
1174.499, 72854.00
1175.584, 73356.00
1176.669, 73174.00
1177.754, 73575.00
1178.839, 73416.00
1179.923, 73695.00
1181.008, 74408.00
1182.092, 74472.00
1183.176, 74378.00
1184.260, 74769.00
1185.344, 74733.00
1186.428, 74995.00
1187.511, 75387.00
1188.595, 75583.00
1189.678, 75686.00
1190.761, 76192.00
1191.843, 76300.00
1192.926, 76280.00
1194.009, 76802.00
1195.091, 77506.00
1196.173, 77808.00
1197.255, 78081.00
1198.337, 78727.00
1199.419, 78688.00
1200.500, 78825.00
1201.582, 79007.00
1202.663, 78854.00
1203.744, 79428.00
1204.825, 79660.00
1205.905, 79368.00
1206.986, 79467.00
1208.066, 79325.00
1209.146, 79744.00
1210.226, 79398.00
1211.306, 79695.00
1212.386, 79659.00
1213.466, 79356.00
1214.545, 79771.00
1215.624, 79965.00
1216.703, 79669.00
1217.782, 80110.00
1218.861, 80301.00
1219.939, 80232.00
1221.018, 80475.00
1222.096, 80787.00
1223.174, 80960.00
1224.252, 80612.00
1225.330, 80941.00
1226.407, 80874.00
1227.485, 81285.00
1228.562, 80939.00
1229.639, 81177.00
1230.716, 81170.01
1231.793, 81634.00
1232.869, 81299.00
1233.946, 81774.00
1235.022, 82156.00
1236.098, 82386.00
1237.174, 82359.00
1238.250, 82389.00
1239.325, 82638.00
1240.401, 82776.00
1241.476, 82939.94
1242.551, 83237.00
1243.626, 83384.00
1244.701, 83438.00
1245.776, 83807.00
1246.850, 84042.00
1247.924, 84083.00
1248.999, 84531.00
1250.073, 84158.00
1251.146, 84533.00
1252.220, 85008.00
1253.293, 85547.00
1254.367, 85333.00
1255.440, 85584.00
1256.513, 85727.00
1257.586, 85530.00
1258.658, 86284.00
1259.731, 86568.00
1260.803, 86370.00
1261.875, 86433.00
1262.947, 86677.00
1264.019, 86694.24
1265.091, 87421.00
1266.162, 87120.00
1267.234, 87642.00
1268.305, 88088.00
