##NAMES=Marialite
##RRUFFID=R060297
##IDEAL CHEMISTRY=Na_4_Al_3_Si_9_O_24_Cl
##LOCALITY=Morogoro District, Marasi, Tanzania
##OWNER=RRUFF
##SOURCE=Herb Obodda
##DESCRIPTION=Pale yellow crystal fragment
##STATUS=The identification of this mineral has been confirmed by X-ray diffraction and chemical analysis
##URL=rruff.info/R060297
##MEASURED CHEMISTRY=(Na_0.66_Ca_0.29_K_0.06_)_4_(Si_0.68_Al_0.32_)_12_O_24_(Cl_0.70_(CO_3_)_0.30_)
##PIN_ID=L01156
##ORIENTATION=Laser parallel to a* (1 0 0). Fiducial mark perpendicular to laser is parallel to c [0 0 1]
88.33800, 26146.00
89.57500, 26990.00
90.81200, 27570.00
92.04900, 28441.00
93.28600, 29088.00
94.52300, 29793.00
95.75900, 30727.00
96.99500, 31358.00
98.23100, 32106.00
99.46700, 32176.00
100.7030, 32433.00
101.9390, 32163.00
103.1740, 31743.00
104.4090, 31367.00
105.6440, 31069.24
106.8790, 30697.00
108.1140, 30469.00
109.3490, 30285.00
110.5830, 30064.00
111.8180, 30040.11
113.0520, 30066.21
114.2860, 30064.00
115.5200, 30329.00
116.7530, 30426.00
117.9870, 30613.00
119.2200, 30686.00
120.4530, 30910.00
121.6860, 31293.00
122.9190, 31729.00
124.1520, 32037.00
125.3850, 32263.00
126.6170, 32469.00
127.8490, 32218.00
129.0810, 32508.00
130.3130, 32216.00
131.5450, 32071.00
132.7770, 31485.00
134.0080, 31179.00
135.2390, 30555.00
136.4710, 30279.00
137.7020, 30019.00
138.9320, 29598.00
140.1630, 29030.00
141.3930, 28763.00
142.6240, 28421.00
143.8540, 28492.00
145.0840, 28611.00
146.3140, 28587.00
147.5440, 28751.00
148.7730, 29269.00
150.0020, 29563.00
151.2320, 30445.00
152.4610, 31136.00
153.6900, 32064.00
154.9180, 33069.00
156.1470, 33739.00
157.3750, 34641.00
158.6040, 35533.00
159.8320, 35930.00
161.0600, 36242.00
162.2870, 36474.00
163.5150, 36112.00
164.7420, 35696.00
165.9700, 35449.00
167.1970, 34829.00
168.4240, 32392.00
169.6510, 30981.00
170.8770, 29748.00
172.1040, 28600.00
173.3300, 27858.00
174.5560, 27013.00
175.7820, 26161.00
177.0080, 25624.00
178.2340, 25073.00
179.4590, 24667.00
180.6850, 24456.90
181.9100, 24528.15
183.1350, 24572.39
184.3600, 24591.06
185.5850, 24507.60
186.8090, 24556.02
188.0340, 24551.58
189.2580, 24544.98
190.4820, 24616.00
191.7060, 24510.00
192.9300, 24147.00
194.1530, 24057.00
195.3770, 23751.00
196.6000, 23356.00
197.8230, 23303.00
199.0460, 22766.00
200.2690, 22492.00
201.4910, 22312.00
202.7140, 22071.00
203.9360, 21713.00
205.1580, 21670.00
206.3800, 21514.00
207.6020, 21335.00
208.8240, 21407.00
210.0450, 21339.00
211.2670, 21282.00
212.4880, 21506.00
213.7090, 21537.00
214.9300, 21886.00
216.1510, 22105.00
217.3710, 22282.00
218.5920, 22535.00
219.8120, 22763.00
221.0320, 22537.00
222.2520, 22386.00
223.4720, 22460.00
224.6910, 22454.00
225.9110, 22165.00
227.1300, 21731.00
228.3490, 21487.00
229.5680, 21279.00
230.7870, 21029.00
232.0050, 20690.00
233.2240, 20478.46
234.4420, 20024.00
235.6600, 19933.00
236.8780, 19510.00
238.0960, 19141.00
239.3140, 19047.00
240.5310, 19012.00
241.7490, 18812.00
242.9660, 18956.00
244.1830, 19007.00
245.4000, 18756.00
246.6160, 19224.00
247.8330, 19181.00
249.0490, 19629.00
250.2660, 20138.00
251.4820, 20731.00
252.6980, 21404.24
253.9130, 22176.94
255.1290, 22997.00
256.3440, 23986.00
257.5600, 25021.00
258.7750, 26161.00
259.9900, 27272.00
261.2040, 28248.00
262.4190, 29099.00
263.6330, 29633.00
264.8480, 28934.00
266.0620, 28722.00
267.2760, 27396.00
268.4900, 26250.00
269.7030, 24886.00
270.9170, 23637.00
272.1300, 22320.00
273.3430, 21511.00
274.5560, 20541.00
275.7690, 19998.00
276.9820, 19548.00
278.1940, 19384.00
279.4070, 19227.87
280.6190, 19352.00
281.8310, 19432.00
283.0430, 19385.00
284.2550, 19842.00
285.4660, 19985.00
286.6770, 20379.00
287.8890, 20946.00
289.1000, 21151.00
290.3110, 21146.00
291.5210, 21172.00
292.7320, 21321.00
293.9420, 21441.00
295.1530, 21969.00
296.3630, 23163.00
297.5730, 22526.00
298.7830, 22457.00
299.9920, 21655.00
301.2020, 20833.00
302.4110, 19921.00
303.6200, 18750.00
304.8290, 18474.00
306.0380, 18020.00
307.2470, 17494.00
308.4550, 17432.00
309.6630, 17007.00
310.8720, 16946.00
312.0800, 16970.00
313.2880, 16946.00
314.4950, 16908.00
315.7030, 17012.00
316.9100, 16870.00
318.1170, 16913.00
319.3240, 17022.00
320.5310, 17174.00
321.7380, 17264.00
322.9450, 17392.00
324.1510, 17442.00
325.3570, 17647.00
326.5630, 17927.00
327.7690, 17982.00
328.9750, 18068.00
330.1810, 18424.00
331.3860, 18760.00
332.5910, 18862.00
333.7960, 19129.95
335.0010, 19213.00
336.2060, 19403.00
337.4110, 19309.00
338.6150, 19297.00
339.8200, 18971.00
341.0240, 18678.00
342.2280, 18777.00
343.4320, 18787.00
344.6350, 18779.00
345.8390, 18827.00
347.0420, 18763.00
348.2450, 19156.00
349.4480, 19021.00
350.6510, 19468.00
351.8540, 19573.00
353.0560, 20340.00
354.2590, 20556.00
355.4610, 20844.00
356.6630, 21621.00
357.8650, 22340.00
359.0670, 22554.00
360.2680, 22795.00
361.4700, 22841.00
362.6710, 22380.00
363.8720, 21918.00
365.0730, 21206.00
366.2740, 20581.00
367.4740, 20309.00
368.6750, 19891.00
369.8750, 19822.00
371.0750, 19768.00
372.2750, 19790.00
373.4750, 19782.00
374.6740, 19818.41
375.8740, 19936.00
377.0730, 19949.00
378.2720, 20118.00
379.4710, 20248.00
380.6700, 20040.00
381.8690, 20126.00
383.0670, 20060.00
384.2660, 20105.00
385.4640, 19735.00
386.6620, 19654.00
387.8600, 19500.00
389.0570, 19293.00
390.2550, 19140.00
391.4520, 18854.00
392.6490, 18930.00
393.8460, 18775.00
395.0430, 18684.00
396.2400, 18449.00
397.4370, 18345.00
398.6330, 18175.00
399.8290, 18401.00
401.0250, 18107.00
402.2210, 18492.00
403.4170, 18410.00
404.6130, 18572.00
405.8080, 18778.00
407.0030, 18915.00
408.1980, 19126.00
409.3930, 19465.00
410.5880, 19817.00
411.7830, 20212.00
412.9770, 20645.24
414.1720, 21157.00
415.3660, 21532.00
416.5600, 22126.00
417.7530, 22493.00
418.9470, 23019.00
420.1410, 23062.00
421.3340, 23033.00
422.5270, 22803.00
423.7200, 22611.00
424.9130, 22320.00
426.1060, 21780.00
427.2980, 21335.00
428.4900, 21197.00
429.6830, 21288.00
430.8750, 21270.00
432.0670, 21332.00
433.2580, 21501.00
434.4500, 21882.00
435.6410, 22106.00
436.8320, 22802.00
438.0240, 23334.00
439.2140, 23998.00
440.4050, 24751.00
441.5960, 25534.00
442.7860, 26532.00
443.9760, 27579.00
445.1670, 28880.00
446.3560, 31017.00
447.5460, 33375.00
448.7360, 36587.00
449.9250, 40239.00
451.1150, 44428.00
452.3040, 48598.00
453.4930, 52362.00
454.6810, 55351.00
455.8700, 57212.00
457.0590, 58463.00
458.2470, 59678.00
459.4350, 59438.00
460.6230, 58463.00
461.8110, 56519.00
462.9980, 54035.00
464.1860, 51236.00
465.3730, 48016.00
466.5600, 44511.00
467.7470, 41170.00
468.9340, 38054.00
470.1210, 35649.00
471.3080, 33255.00
472.4940, 30985.00
473.6800, 29428.00
474.8660, 27990.00
476.0520, 26747.00
477.2380, 25641.00
478.4230, 24776.00
479.6090, 24043.00
480.7940, 23507.00
481.9790, 22811.00
483.1640, 22396.00
484.3490, 21989.00
485.5330, 21708.00
486.7180, 21150.00
487.9020, 21052.00
489.0860, 20786.00
490.2700, 20875.00
491.4540, 20605.00
492.6370, 20397.00
493.8210, 20243.00
495.0040, 20128.86
496.1870, 20111.00
497.3700, 20066.00
498.5530, 20042.97
499.7360, 20144.00
500.9180, 20003.00
502.1000, 20086.00
503.2830, 20080.00
504.4650, 20335.00
505.6460, 20140.00
506.8280, 19782.00
508.0100, 19945.00
509.1910, 20085.00
510.3720, 20036.00
511.5530, 20083.13
512.7340, 20172.00
513.9150, 20170.00
515.0950, 20243.00
516.2760, 20663.00
517.4560, 20805.00
518.6360, 21043.00
519.8160, 21101.00
520.9950, 21626.00
522.1750, 22202.00
523.3540, 22628.00
524.5340, 23263.00
525.7130, 24136.00
526.8920, 25257.00
528.0700, 26725.00
529.2490, 28425.00
530.4270, 30521.00
531.6060, 32837.00
532.7840, 35310.00
533.9620, 38488.00
535.1390, 41279.00
536.3170, 42921.00
537.4940, 43501.00
538.6720, 42518.00
539.8490, 40481.00
541.0260, 37923.00
542.2030, 34967.00
543.3790, 32478.00
544.5560, 30604.00
545.7320, 28706.00
546.9080, 27111.00
548.0840, 25994.00
549.2600, 25025.00
550.4360, 24297.00
551.6110, 23823.00
552.7860, 23412.00
553.9620, 22927.00
555.1370, 22719.00
556.3110, 22491.00
557.4860, 22419.00
558.6610, 22246.00
559.8350, 22052.00
561.0090, 22041.00
562.1830, 22072.00
563.3570, 21955.00
564.5310, 21879.00
565.7040, 22115.00
566.8780, 22022.00
568.0510, 22021.19
569.2240, 21788.00
570.3970, 21991.00
571.5700, 21847.00
572.7420, 21967.00
573.9150, 22004.00
575.0870, 22011.00
576.2590, 21955.00
577.4310, 22031.00
578.6030, 22151.00
579.7740, 22079.00
580.9460, 22234.00
582.1170, 22279.00
583.2880, 22281.00
584.4590, 22241.00
585.6300, 22140.00
586.8010, 22313.00
587.9710, 22406.00
589.1410, 22653.00
590.3110, 22568.00
591.4810, 22623.00
592.6510, 22860.00
593.8210, 22778.00
594.9900, 22978.00
596.1600, 22995.00
597.3290, 23095.00
598.4980, 23211.00
599.6670, 23494.00
600.8350, 23620.00
602.0040, 23809.00
603.1720, 23861.00
604.3400, 23926.00
605.5080, 23928.00
606.6760, 23737.00
607.8440, 23645.00
609.0120, 23753.00
610.1790, 23636.00
611.3460, 23713.00
612.5130, 23806.00
613.6800, 23471.00
614.8470, 23684.00
616.0130, 23852.00
617.1800, 23621.00
618.3460, 23527.00
619.5120, 23410.00
620.6780, 23676.00
621.8440, 23500.00
623.0090, 23673.00
624.1750, 23770.00
625.3400, 23851.00
626.5050, 23937.00
627.6700, 23836.00
628.8350, 23818.00
629.9990, 23808.00
631.1640, 23858.00
632.3280, 23885.00
633.4920, 23933.05
634.6560, 24021.15
635.8200, 24062.00
636.9840, 24138.00
638.1470, 24226.00
639.3100, 24317.79
640.4730, 24431.76
641.6360, 24511.00
642.7990, 24628.00
643.9620, 24668.00
645.1240, 24654.00
646.2870, 24649.00
647.4490, 24772.00
648.6110, 24692.00
649.7730, 24881.00
650.9340, 24806.00
652.0960, 24812.00
653.2570, 24810.00
654.4180, 24909.00
655.5790, 25057.00
656.7400, 24977.00
657.9010, 25131.00
659.0620, 25384.00
660.2220, 25425.00
661.3820, 25325.00
662.5420, 25425.00
663.7020, 25664.00
664.8620, 25432.00
666.0210, 25561.00
667.1810, 25457.00
668.3400, 25581.00
669.4990, 25271.00
670.6580, 25594.00
671.8170, 25517.00
672.9750, 25374.00
674.1340, 25641.00
675.2920, 25666.00
676.4500, 25678.00
677.6080, 25921.00
678.7660, 25891.00
679.9230, 26203.00
681.0810, 26054.00
682.2380, 25833.00
683.3950, 25930.00
684.5520, 25885.00
685.7090, 25952.00
686.8660, 26022.00
688.0220, 26054.51
689.1780, 26033.00
690.3340, 26276.00
691.4900, 26345.00
692.6460, 26645.00
693.8020, 26297.00
694.9570, 26501.00
696.1130, 26490.00
697.2680, 26590.00
698.4230, 26774.00
699.5780, 27015.00
700.7320, 27048.00
701.8870, 27246.45
703.0410, 27191.00
704.1950, 27488.00
705.3490, 27595.00
706.5030, 27652.00
707.6570, 27789.00
708.8110, 27742.00
709.9640, 27938.00
711.1170, 28103.00
712.2700, 28311.00
713.4230, 28083.00
714.5760, 28097.00
715.7280, 27963.00
716.8810, 28142.00
718.0330, 28137.00
719.1850, 28429.00
720.3370, 28199.00
721.4890, 28346.00
722.6400, 28141.00
723.7920, 28110.00
724.9430, 28361.00
726.0940, 28275.00
727.2450, 28340.00
728.3960, 28200.00
729.5460, 28459.00
730.6970, 28563.00
731.8470, 28398.00
732.9970, 28480.00
734.1470, 28692.00
735.2970, 28448.00
736.4460, 28715.00
737.5960, 28615.00
738.7450, 29065.00
739.8940, 29025.00
741.0430, 28622.00
742.1920, 28961.00
743.3410, 29045.00
744.4890, 29148.00
745.6370, 29500.00
746.7850, 29585.00
747.9330, 29851.00
749.0810, 30158.00
750.2290, 30399.00
751.3760, 30916.00
752.5240, 31282.00
753.6710, 31422.00
754.8180, 32027.00
755.9650, 32369.00
757.1110, 32515.00
758.2580, 33178.00
759.4040, 33528.00
760.5510, 34407.00
761.6970, 34838.00
762.8420, 35582.00
763.9880, 36288.00
765.1340, 37116.00
766.2790, 38021.00
767.4240, 38936.00
768.5690, 39452.00
769.7140, 40396.00
770.8590, 41054.00
772.0030, 41259.00
773.1480, 41263.00
774.2920, 41243.00
775.4360, 40904.00
776.5800, 40024.00
777.7240, 39222.00
778.8670, 38172.00
780.0110, 37340.00
781.1540, 36310.00
782.2970, 35378.00
783.4400, 34545.00
784.5830, 33877.00
785.7250, 33406.00
786.8680, 32994.00
788.0100, 32756.00
789.1520, 32657.00
790.2940, 32269.00
791.4360, 31903.00
792.5780, 32241.00
793.7190, 32284.00
794.8600, 31594.00
796.0010, 31771.00
797.1420, 31795.00
798.2830, 31651.00
799.4240, 31652.00
800.5640, 31799.00
801.7050, 31811.00
802.8450, 31977.65
803.9850, 32201.00
805.1250, 32320.00
806.2640, 32504.28
807.4040, 32691.00
808.5430, 32697.00
809.6820, 32735.00
810.8210, 32739.00
811.9600, 32571.00
813.0990, 32304.00
814.2370, 32404.00
815.3760, 32307.00
816.5140, 32383.00
817.6520, 32367.93
818.7900, 32402.00
819.9270, 32398.00
821.0650, 32439.00
822.2020, 32549.56
823.3390, 32551.17
824.4760, 32649.00
825.6130, 32641.00
826.7500, 32664.00
827.8870, 32740.00
829.0230, 32844.00
830.1590, 32808.00
831.2950, 32821.00
832.4310, 32778.00
833.5670, 32990.00
834.7030, 33237.00
835.8380, 33161.00
836.9730, 33346.00
838.1080, 33239.00
839.2430, 33368.00
840.3780, 33529.00
841.5130, 33470.00
842.6470, 33519.00
843.7810, 33538.00
844.9150, 33979.00
846.0490, 33749.00
847.1830, 33676.00
848.3170, 34116.00
849.4500, 33890.00
850.5830, 34285.00
851.7160, 33993.00
852.8490, 34165.00
853.9820, 34242.00
855.1150, 34370.00
856.2470, 34578.00
857.3800, 34469.00
858.5120, 34718.00
859.6440, 34836.00
860.7760, 35082.00
861.9070, 35238.00
863.0390, 35077.00
864.1700, 35036.00
865.3010, 35225.00
866.4320, 35715.00
867.5630, 35420.00
868.6940, 35607.00
869.8240, 35699.00
870.9540, 35667.00
872.0850, 35625.00
873.2150, 35710.22
874.3450, 35667.00
875.4740, 35788.00
876.6040, 35941.00
877.7330, 35919.00
878.8620, 35962.00
879.9910, 36108.58
881.1200, 36249.75
882.2490, 36363.92
883.3770, 36452.44
884.5060, 36438.90
885.6340, 36557.18
886.7620, 36622.60
887.8900, 36685.86
889.0180, 36822.70
890.1450, 36823.87
891.2730, 36959.54
892.4000, 37041.48
893.5270, 37147.98
894.6540, 37201.30
895.7810, 37271.05
896.9070, 37393.92
898.0340, 37487.41
899.1600, 37534.54
900.2860, 37524.00
901.4120, 37478.00
902.5380, 37864.00
903.6630, 37790.00
904.7890, 37821.00
905.9140, 37808.00
907.0390, 38090.00
908.1640, 37983.00
909.2890, 38239.00
910.4130, 38356.00
911.5380, 38265.00
912.6620, 38621.00
913.7860, 38474.00
914.9100, 38655.00
916.0340, 38580.00
917.1580, 38708.00
918.2810, 39071.00
919.4040, 38806.00
920.5280, 39090.00
921.6510, 38914.00
922.7730, 39184.00
923.8960, 39336.00
925.0180, 39243.00
926.1410, 39548.00
927.2630, 39344.00
928.3850, 39552.00
929.5070, 39958.00
930.6280, 39635.00
931.7500, 39994.00
932.8710, 39960.00
933.9920, 40114.00
935.1130, 40305.61
936.2340, 40136.00
937.3550, 40560.00
938.4760, 40718.00
939.5960, 40710.00
940.7160, 40844.00
941.8360, 40871.00
942.9560, 41351.00
944.0760, 41106.00
945.1950, 41256.00
946.3150, 41192.00
947.4340, 41621.00
948.5530, 41660.00
949.6720, 41707.00
950.7900, 41837.00
951.9090, 42263.00
953.0270, 42096.00
954.1460, 42362.00
955.2640, 42216.00
956.3820, 42314.00
957.4990, 42695.00
958.6170, 42624.00
959.7340, 42738.00
960.8520, 42846.00
961.9690, 42674.00
963.0860, 42888.00
964.2020, 43165.00
965.3190, 42977.00
966.4350, 43234.00
967.5520, 43262.00
968.6680, 43296.00
969.7840, 43377.00
970.8990, 43741.00
972.0150, 43434.00
973.1310, 43728.00
974.2460, 44242.00
975.3610, 44131.00
976.4760, 44533.00
977.5910, 44804.00
978.7050, 44756.00
979.8200, 45541.00
980.9340, 46432.00
982.0480, 46615.00
983.1620, 47512.00
984.2760, 48295.00
985.3900, 49130.00
986.5030, 50282.00
987.6160, 51196.00
988.7300, 52227.00
989.8430, 53352.00
990.9550, 54558.00
992.0680, 55342.00
993.1810, 55388.00
994.2930, 55115.00
995.4050, 54507.00
996.5170, 53197.00
997.6290, 51692.00
998.7410, 50423.00
999.8520, 49275.00
1000.964, 48443.00
1002.075, 48080.00
1003.186, 48315.00
1004.297, 47870.00
1005.407, 47446.00
1006.518, 47196.00
1007.628, 47001.00
1008.738, 47009.00
1009.848, 46901.00
1010.958, 46774.00
1012.068, 46812.00
1013.178, 46565.00
1014.287, 46450.00
1015.396, 46357.00
1016.505, 46507.00
1017.614, 46549.00
1018.723, 46612.00
1019.831, 46779.00
1020.940, 46665.00
1022.048, 47033.00
1023.156, 47099.00
1024.264, 47474.00
1025.372, 47644.00
1026.479, 47888.00
1027.587, 48072.00
1028.694, 48566.00
1029.801, 48546.00
1030.908, 48648.00
1032.015, 49308.00
1033.121, 49671.00
1034.228, 49930.00
1035.334, 50371.00
1036.440, 50697.00
1037.546, 50753.00
1038.652, 51013.00
1039.758, 50872.00
1040.863, 51171.52
1041.968, 51274.48
1043.074, 51528.00
1044.178, 51698.00
1045.283, 51874.90
1046.388, 52079.00
1047.492, 52255.00
1048.597, 52404.00
1049.701, 52606.00
1050.805, 52663.00
1051.909, 53014.00
1053.012, 52913.00
1054.116, 53135.00
1055.219, 53277.00
1056.322, 53903.00
1057.425, 54083.00
1058.528, 54193.00
1059.631, 54995.00
1060.733, 55059.00
1061.836, 55442.00
1062.938, 55594.00
1064.040, 55972.00
1065.142, 56236.00
1066.243, 56563.00
1067.345, 57132.00
1068.446, 57151.00
1069.547, 57316.00
1070.648, 57910.00
1071.749, 58215.00
1072.850, 58327.00
1073.951, 58722.00
1075.051, 58941.70
1076.151, 59265.00
1077.251, 59489.00
1078.351, 59938.00
1079.451, 60226.00
1080.550, 60565.00
1081.650, 61112.00
1082.749, 60865.00
1083.848, 61516.00
1084.947, 61179.00
1086.046, 62152.00
1087.144, 62824.00
1088.243, 63586.00
1089.341, 63978.93
1090.439, 64410.09
1091.537, 64642.00
1092.635, 65053.00
1093.732, 65570.00
1094.830, 66077.00
1095.927, 65994.00
1097.024, 66687.00
1098.121, 66971.00
1099.218, 66756.00
1100.314, 66300.00
1101.411, 65593.00
1102.507, 65259.00
1103.603, 64577.00
1104.699, 63459.00
1105.795, 63232.00
1106.890, 62927.00
1107.986, 62678.00
1109.081, 63043.00
1110.176, 63747.00
1111.271, 64324.00
1112.366, 65142.00
1113.461, 65396.00
1114.555, 64583.00
1115.649, 63561.00
1116.744, 62309.00
1117.838, 61129.00
1118.931, 60301.00
1120.025, 59882.00
1121.119, 59647.00
1122.212, 59109.00
1123.305, 59396.00
1124.398, 59330.00
1125.491, 59450.00
1126.584, 59530.00
1127.676, 59829.00
1128.768, 59731.00
1129.861, 59898.00
1130.953, 59962.00
1132.044, 60051.00
1133.136, 60358.00
1134.228, 59956.00
1135.319, 59741.00
1136.410, 60064.00
1137.501, 59893.00
1138.592, 60367.00
1139.683, 60041.00
1140.773, 60452.00
1141.864, 60600.00
1142.954, 60117.00
1144.044, 60360.00
1145.134, 60413.00
1146.224, 60588.00
1147.313, 60597.00
1148.402, 60662.00
1149.492, 61165.00
1150.581, 60877.00
1151.670, 61137.00
1152.758, 61288.00
1153.847, 61149.00
1154.935, 61313.00
1156.024, 61375.75
1157.112, 61628.00
1158.200, 61511.00
1159.287, 61676.00
1160.375, 61594.00
1161.462, 61642.00
1162.550, 61934.00
1163.637, 62103.00
1164.724, 62245.00
1165.810, 62515.00
1166.897, 62286.00
1167.983, 62713.00
1169.070, 62681.00
1170.156, 63132.00
1171.242, 62986.00
1172.327, 63287.00
1173.413, 63284.00
1174.499, 63301.00
1175.584, 63815.00
1176.669, 63667.00
1177.754, 63563.00
1178.839, 64538.00
1179.923, 64290.00
1181.008, 64262.00
1182.092, 64347.00
1183.176, 64783.00
1184.260, 64924.00
1185.344, 65084.00
1186.428, 65088.00
1187.511, 65354.00
1188.595, 65501.85
1189.678, 65740.48
1190.761, 65941.00
1191.843, 66186.00
1192.926, 66445.00
1194.009, 66426.00
1195.091, 66554.00
1196.173, 67044.00
1197.255, 67269.00
1198.337, 67172.00
1199.419, 67566.00
1200.500, 67366.00
1201.582, 67661.00
1202.663, 67865.00
1203.744, 68243.00
1204.825, 68122.00
1205.905, 68093.00
1206.986, 68072.00
1208.066, 68265.00
1209.146, 68291.84
1210.226, 68930.00
1211.306, 68466.00
1212.386, 68896.00
1213.466, 68891.00
1214.545, 69817.00
1215.624, 68971.00
1216.703, 68704.00
1217.782, 69355.00
1218.861, 69356.00
1219.939, 69760.00
1221.018, 69777.00
1222.096, 69945.00
1223.174, 69718.00
1224.252, 70045.00
1225.330, 70109.62
1226.407, 70111.00
1227.485, 70408.00
1228.562, 70701.00
1229.639, 70750.00
1230.716, 70714.00
1231.793, 71102.00
1232.869, 71206.00
1233.946, 71076.00
1235.022, 70950.00
1236.098, 71353.00
1237.174, 71736.00
1238.250, 71741.00
1239.325, 71935.00
1240.401, 71875.00
1241.476, 72057.71
1242.551, 72220.00
1243.626, 72322.00
1244.701, 72599.00
1245.776, 72664.00
1246.850, 73097.00
1247.924, 73406.00
1248.999, 73246.00
1250.073, 73182.00
1251.146, 73549.00
1252.220, 73432.00
1253.293, 73975.00
1254.367, 74007.00
1255.440, 74091.00
1256.513, 74419.00
1257.586, 74229.00
1258.658, 74697.00
1259.731, 74991.00
1260.803, 74660.00
1261.875, 75208.00
1262.947, 75329.00
1264.019, 75517.00
1265.091, 75844.08
1266.162, 75971.00
1267.234, 76241.00
1268.305, 76131.00
