##NAMES=Marialite
##RRUFFID=R060526
##IDEAL CHEMISTRY=Na_4_Al_3_Si_9_O_24_Cl
##LOCALITY=Minas Gerais, Brazil
##OWNER=RRUFF
##SOURCE=Michael Scott
##DESCRIPTION=Heavily striated pale yellow elongated prism
##STATUS=The identification of this mineral has been confirmed by X-ray diffraction and chemical analysis
##URL=rruff.info/R060526
##MEASURED CHEMISTRY=(Na_0.62_Ca_0.33_K_0.05_)_4_(Si_0.66_Al_0.34_)_12_O_24_(Cl_0.77_(CO_3_)_0.23_)
##PIN_ID=L01495
##ORIENTATION=Laser parallel to c* (0 0 1). Fiducial mark perpendicular to laser is parallel to a [1 0 0]
60.89500, 7551.000
62.13700, 7661.000
63.38000, 7850.000
64.62300, 8001.000
65.86500, 8030.000
67.10700, 8092.000
68.34900, 8177.000
69.59100, 8275.000
70.83300, 8397.000
72.07400, 8432.000
73.31600, 8399.000
74.55700, 8545.000
75.79800, 8629.000
77.03900, 8690.000
78.27900, 8850.000
79.52000, 8890.190
80.76000, 8960.000
82.00000, 8985.000
83.24000, 9010.000
84.48000, 9081.918
85.72000, 9105.000
86.95900, 9208.000
88.19900, 9229.000
89.43800, 9289.000
90.67700, 9325.000
91.91600, 9376.000
93.15400, 9454.132
94.39300, 9503.019
95.63100, 9625.000
96.86900, 9619.000
98.10700, 9716.000
99.34500, 9752.515
100.5820, 9763.000
101.8200, 9947.000
103.0570, 10089.00
104.2940, 10290.00
105.5310, 10343.05
106.7680, 10386.00
108.0040, 10468.00
109.2410, 10607.00
110.4770, 10732.00
111.7130, 10664.00
112.9490, 10477.00
114.1850, 10418.00
115.4200, 10391.00
116.6560, 10263.00
117.8910, 10390.00
119.1260, 10225.00
120.3610, 10409.00
121.5960, 10433.00
122.8300, 10549.00
124.0640, 10518.00
125.2990, 10684.00
126.5330, 10600.00
127.7670, 10723.00
129.0000, 10811.00
130.2340, 10756.00
131.4670, 10781.00
132.7000, 10757.00
133.9330, 10792.00
135.1660, 10661.00
136.3990, 10759.00
137.6310, 10683.00
138.8640, 10763.00
140.0960, 10703.00
141.3280, 10705.00
142.5600, 10796.00
143.7910, 10938.00
145.0230, 10904.00
146.2540, 10941.00
147.4850, 11120.00
148.7160, 11185.00
149.9470, 11273.00
151.1780, 11473.00
152.4080, 11575.00
153.6380, 11538.00
154.8690, 11767.00
156.0980, 11868.00
157.3280, 12173.00
158.5580, 12237.00
159.7870, 12422.00
161.0170, 12504.00
162.2460, 12606.00
163.4750, 12614.00
164.7030, 12777.00
165.9320, 12586.00
167.1600, 12724.00
168.3890, 12382.00
169.6170, 12357.00
170.8450, 12051.00
172.0730, 11962.00
173.3000, 11984.00
174.5280, 11657.00
175.7550, 11649.00
176.9820, 11633.00
178.2090, 11583.00
179.4350, 11580.48
180.6620, 11558.95
181.8880, 11541.00
183.1150, 11556.06
184.3410, 11573.18
185.5670, 11618.00
186.7920, 11640.00
188.0180, 11604.00
189.2430, 11581.00
190.4690, 11665.00
191.6940, 11834.00
192.9180, 11670.00
194.1430, 11753.00
195.3680, 11663.00
196.5920, 11930.00
197.8160, 11822.00
199.0400, 11803.00
200.2640, 11772.00
201.4880, 11664.00
202.7110, 11721.00
203.9350, 11749.00
205.1580, 11788.00
206.3810, 11779.47
207.6040, 11774.97
208.8270, 11729.00
210.0490, 11711.00
211.2710, 11658.00
212.4940, 11589.00
213.7160, 11618.00
214.9370, 11843.00
216.1590, 11759.00
217.3810, 11832.00
218.6020, 11660.00
219.8230, 11659.00
221.0440, 11687.00
222.2650, 11800.00
223.4860, 11849.00
224.7060, 11858.00
225.9260, 11815.00
227.1470, 11912.00
228.3670, 11903.00
229.5860, 11732.00
230.8060, 11881.00
232.0260, 11770.00
233.2450, 11813.00
234.4640, 11722.00
235.6830, 11740.00
236.9020, 11613.00
238.1200, 11668.00
239.3390, 11742.00
240.5570, 11785.00
241.7750, 11729.00
242.9930, 11710.00
244.2110, 11794.00
245.4290, 11626.00
246.6460, 11743.00
247.8630, 11874.00
249.0810, 11870.00
250.2980, 11859.00
251.5140, 11912.00
252.7310, 11957.00
253.9470, 11913.00
255.1640, 12022.00
256.3800, 12114.00
257.5960, 12123.00
258.8120, 12229.00
260.0270, 12338.00
261.2430, 12486.00
262.4580, 12609.00
263.6730, 12457.00
264.8880, 12562.00
266.1030, 12587.00
267.3170, 12716.00
268.5320, 12315.00
269.7460, 12613.00
270.9600, 12304.00
272.1740, 12377.00
273.3880, 12105.00
274.6010, 12084.00
275.8150, 12054.00
277.0280, 12068.00
278.2410, 12085.96
279.4540, 12225.00
280.6670, 12168.00
281.8790, 12195.00
283.0920, 12251.00
284.3040, 12233.00
285.5160, 12444.00
286.7280, 12345.00
287.9400, 12528.00
289.1510, 12494.00
290.3630, 12597.00
291.5740, 12507.00
292.7850, 12676.00
293.9960, 12622.00
295.2070, 12513.00
296.4170, 12523.00
297.6280, 12479.00
298.8380, 12696.00
300.0480, 12598.00
301.2580, 12656.00
302.4680, 12500.00
303.6770, 12483.00
304.8870, 12477.00
306.0960, 12478.00
307.3050, 12349.00
308.5140, 12393.00
309.7230, 12432.00
310.9310, 12353.00
312.1400, 12505.00
313.3480, 12372.00
314.5560, 12541.00
315.7640, 12400.00
316.9720, 12603.00
318.1790, 12432.00
319.3870, 12621.00
320.5940, 12564.00
321.8010, 12561.00
323.0080, 12559.00
324.2150, 12685.00
325.4210, 12653.00
326.6280, 12782.00
327.8340, 12731.00
329.0400, 12656.00
330.2460, 12799.00
331.4510, 13028.00
332.6570, 13016.00
333.8620, 13007.00
335.0680, 13131.00
336.2730, 13106.00
337.4780, 13093.00
338.6820, 13015.00
339.8870, 13144.00
341.0910, 13034.00
342.2950, 13056.18
343.5000, 13086.00
344.7030, 13024.00
345.9070, 12952.00
347.1110, 12908.00
348.3140, 13110.00
349.5170, 13102.00
350.7200, 13048.00
351.9230, 13119.00
353.1260, 13048.00
354.3290, 13068.00
355.5310, 13249.00
356.7330, 13198.00
357.9350, 13392.00
359.1370, 13411.00
360.3390, 13371.00
361.5400, 13664.00
362.7420, 13652.00
363.9430, 13656.00
365.1440, 13443.00
366.3450, 13478.00
367.5460, 13346.00
368.7460, 13335.00
369.9470, 13354.00
371.1470, 13347.00
372.3470, 13405.66
373.5470, 13435.08
374.7460, 13515.00
375.9460, 13515.00
377.1450, 13524.00
378.3450, 13519.00
379.5440, 13633.00
380.7430, 13570.00
381.9410, 13634.00
383.1400, 13643.09
384.3380, 13563.00
385.5370, 13632.00
386.7350, 13637.00
387.9320, 13581.00
389.1300, 13665.00
390.3280, 13540.00
391.5250, 13414.00
392.7220, 13661.00
393.9190, 13592.00
395.1160, 13668.00
396.3130, 13764.00
397.5100, 13739.00
398.7060, 13810.42
399.9020, 13772.00
401.0980, 13822.00
402.2940, 13850.00
403.4900, 13751.00
404.6860, 13764.00
405.8810, 13836.00
407.0760, 13690.00
408.2710, 13882.00
409.4660, 13701.00
410.6610, 13946.00
411.8550, 13972.00
413.0500, 14049.00
414.2440, 14051.00
415.4380, 14017.00
416.6320, 14135.00
417.8260, 14101.00
419.0190, 14231.00
420.2130, 14147.00
421.4060, 14315.00
422.5990, 14487.00
423.7920, 14294.00
424.9850, 14214.00
426.1770, 14359.00
427.3700, 14446.00
428.5620, 14275.00
429.7540, 14438.00
430.9460, 14379.00
432.1380, 14506.00
433.3290, 14457.00
434.5210, 14656.00
435.7120, 14589.00
436.9030, 14593.00
438.0940, 14914.00
439.2850, 14713.00
440.4750, 14873.00
441.6660, 15009.00
442.8560, 15151.00
444.0460, 15143.00
445.2360, 15270.00
446.4260, 15475.00
447.6160, 15738.00
448.8050, 15744.00
449.9940, 16318.00
451.1830, 16546.00
452.3720, 17084.00
453.5610, 17553.00
454.7500, 17945.00
455.9380, 18320.00
457.1260, 18365.00
458.3150, 18901.00
459.5020, 18761.00
460.6900, 18745.00
461.8780, 18462.00
463.0650, 18394.00
464.2530, 18309.00
465.4400, 17851.00
466.6270, 17335.00
467.8130, 17279.00
469.0000, 16970.00
470.1870, 16451.00
471.3730, 16349.00
472.5590, 15998.00
473.7450, 15970.00
474.9310, 15707.00
476.1160, 15658.00
477.3020, 15615.00
478.4870, 15623.00
479.6720, 15322.00
480.8570, 15440.00
482.0420, 15341.00
483.2270, 15194.00
484.4110, 15408.00
485.5960, 15296.00
486.7800, 15409.00
487.9640, 15257.00
489.1480, 15085.00
490.3310, 15314.00
491.5150, 15169.00
492.6980, 15345.00
493.8810, 15319.00
495.0640, 15215.00
496.2470, 15267.00
497.4300, 15302.00
498.6120, 15231.00
499.7950, 15369.00
500.9770, 15527.00
502.1590, 15401.00
503.3410, 15441.00
504.5220, 15416.00
505.7040, 15450.00
506.8850, 15471.00
508.0660, 15622.00
509.2470, 15467.00
510.4280, 15615.00
511.6090, 15456.00
512.7890, 15584.00
513.9700, 15574.00
515.1500, 15653.00
516.3300, 15612.00
517.5100, 15589.00
518.6900, 15753.00
519.8690, 15636.00
521.0490, 15808.00
522.2280, 15725.00
523.4070, 15859.00
524.5860, 15843.00
525.7640, 15881.00
526.9430, 15990.00
528.1210, 16052.00
529.3000, 16264.00
530.4780, 16237.00
531.6560, 16597.00
532.8330, 16680.00
534.0110, 16873.00
535.1880, 17165.00
536.3650, 17274.00
537.5430, 17526.00
538.7190, 17475.00
539.8960, 17577.00
541.0730, 17396.00
542.2490, 17205.00
543.4250, 16996.00
544.6020, 16984.00
545.7780, 16837.00
546.9530, 16642.00
548.1290, 16507.00
549.3040, 16601.00
550.4800, 16554.00
551.6550, 16443.00
552.8300, 16555.00
554.0040, 16434.00
555.1790, 16497.00
556.3540, 16445.00
557.5280, 16255.00
558.7020, 16318.00
559.8760, 16348.00
561.0500, 16474.00
562.2230, 16476.00
563.3970, 16522.00
564.5700, 16470.00
565.7430, 16510.00
566.9160, 16580.00
568.0890, 16463.00
569.2620, 16517.00
570.4340, 16472.00
571.6070, 16645.00
572.7790, 16682.00
573.9510, 16654.00
575.1230, 16486.00
576.2940, 16697.00
577.4660, 16651.00
578.6370, 16598.00
579.8080, 16739.00
580.9790, 16765.00
582.1500, 16896.00
583.3210, 16791.00
584.4910, 16828.00
585.6620, 16855.00
586.8320, 16800.00
588.0020, 16772.00
589.1720, 16926.00
590.3410, 16886.00
591.5110, 16913.06
592.6800, 16950.81
593.8500, 16911.00
595.0190, 16934.00
596.1880, 16931.00
597.3560, 16852.55
598.5250, 16945.00
599.6930, 16901.00
600.8620, 17100.00
602.0300, 17240.00
603.1970, 17162.00
604.3650, 17111.00
605.5330, 17343.00
606.7000, 17058.00
607.8680, 17339.00
609.0350, 17160.00
610.2020, 17345.00
611.3680, 17390.00
612.5350, 17395.00
613.7010, 17416.00
614.8680, 17403.00
616.0340, 17565.00
617.2000, 17319.00
618.3660, 17568.00
619.5310, 17525.00
620.6970, 17636.00
621.8620, 17464.00
623.0270, 17502.00
624.1920, 17669.00
625.3570, 17373.00
626.5220, 17754.00
627.6860, 17545.00
628.8500, 17734.00
630.0140, 17560.00
631.1780, 17783.00
632.3420, 17611.00
633.5060, 17749.00
634.6700, 17893.00
635.8330, 17777.00
636.9960, 17853.00
638.1590, 17650.00
639.3220, 17947.00
640.4850, 17817.00
641.6470, 18002.00
642.8100, 17815.00
643.9720, 17907.00
645.1340, 17886.00
646.2960, 17714.00
647.4570, 18060.00
648.6190, 17920.00
649.7800, 18106.00
650.9420, 17940.00
652.1030, 18143.00
653.2640, 18202.00
654.4240, 18074.00
655.5850, 17968.00
656.7450, 18136.00
657.9060, 18126.00
659.0660, 18167.00
660.2260, 18386.00
661.3850, 18333.00
662.5450, 18223.00
663.7040, 18378.00
664.8640, 18515.00
666.0230, 18206.00
667.1820, 18395.00
668.3410, 18513.00
669.4990, 18464.00
670.6580, 18504.00
671.8160, 18482.00
672.9740, 18416.00
674.1320, 18483.00
675.2900, 18528.00
676.4480, 18557.34
677.6050, 18726.00
678.7630, 18672.00
679.9200, 18702.00
681.0770, 18742.00
682.2340, 18675.00
683.3900, 18806.00
684.5470, 18807.00
685.7030, 18987.00
686.8590, 18885.00
688.0150, 18771.00
689.1710, 18891.00
690.3270, 18833.10
691.4830, 18791.00
692.6380, 18937.00
693.7930, 18954.00
694.9480, 19091.00
696.1030, 18999.00
697.2580, 18946.00
698.4130, 18966.00
699.5670, 19144.00
700.7210, 18984.00
701.8750, 19279.00
703.0290, 19079.00
704.1830, 18948.00
705.3370, 19079.00
706.4900, 19159.00
707.6430, 19407.00
708.7970, 19423.00
709.9490, 19566.00
711.1020, 19343.00
712.2550, 19357.00
713.4070, 19364.00
714.5600, 19438.00
715.7120, 19355.00
716.8640, 19575.00
718.0160, 19513.55
719.1670, 19415.00
720.3190, 19544.00
721.4700, 19464.00
722.6210, 19533.00
723.7720, 19538.00
724.9230, 19534.00
726.0740, 19618.00
727.2250, 19707.00
728.3750, 19757.00
729.5250, 19741.00
730.6750, 19615.00
731.8250, 19873.00
732.9750, 19663.00
734.1240, 19889.00
735.2740, 19732.00
736.4230, 19941.00
737.5720, 19834.00
738.7210, 19832.00
739.8700, 19754.00
741.0190, 19878.00
742.1670, 19993.00
743.3150, 19971.00
744.4630, 20221.00
745.6110, 20114.00
746.7590, 20139.00
747.9070, 20183.00
749.0540, 19983.00
750.2020, 20249.00
751.3490, 20022.00
752.4960, 20388.00
753.6430, 20223.00
754.7890, 20434.00
755.9360, 20256.00
757.0820, 20515.00
758.2280, 20424.00
759.3740, 20444.00
760.5200, 20579.00
761.6660, 20633.00
762.8120, 20602.00
763.9570, 20661.00
765.1020, 20833.00
766.2470, 20801.00
767.3920, 20912.71
768.5370, 21032.00
769.6810, 21060.00
770.8260, 21183.00
771.9700, 21293.00
773.1140, 21386.00
774.2580, 21300.00
775.4020, 21236.00
776.5460, 21434.00
777.6890, 21485.00
778.8320, 21249.00
779.9750, 21446.00
781.1180, 21259.00
782.2610, 21225.00
783.4040, 21237.00
784.5460, 21133.00
785.6890, 21136.00
786.8310, 21074.00
787.9730, 21119.00
789.1150, 20993.00
790.2560, 21184.00
791.3980, 21111.00
792.5390, 21135.00
793.6810, 21287.00
794.8220, 21099.00
795.9630, 21224.00
797.1030, 21376.00
798.2440, 21204.00
799.3840, 21276.00
800.5240, 21236.00
801.6650, 21389.00
802.8040, 21367.00
803.9440, 21594.00
805.0840, 21640.00
806.2230, 21381.00
807.3630, 21659.00
808.5020, 21573.00
809.6410, 21730.00
810.7790, 21693.00
811.9180, 21643.00
813.0570, 21841.00
814.1950, 21565.00
815.3330, 21689.00
816.4710, 21895.00
817.6090, 21774.00
818.7470, 21626.00
819.8840, 21713.00
821.0220, 21872.00
822.1590, 21788.00
823.2960, 21837.00
824.4330, 21851.00
825.5690, 21795.00
826.7060, 21893.00
827.8420, 21874.00
828.9790, 21878.00
830.1150, 22115.00
831.2510, 22097.00
832.3860, 22129.77
833.5220, 22345.00
834.6570, 22095.00
835.7930, 22133.00
836.9280, 22087.00
838.0630, 22137.00
839.1980, 22194.00
840.3320, 22276.00
841.4670, 22243.00
842.6010, 22474.00
843.7350, 22274.00
844.8690, 21999.00
846.0030, 22420.00
847.1370, 22588.00
848.2700, 22417.00
849.4040, 22322.00
850.5370, 22401.00
851.6700, 22636.00
852.8030, 22536.00
853.9360, 22507.00
855.0680, 22646.00
856.2000, 22320.00
857.3330, 22627.00
858.4650, 22627.00
859.5970, 22709.00
860.7290, 22609.00
861.8600, 22683.52
862.9920, 22703.00
864.1230, 22736.00
865.2540, 22866.00
866.3850, 22869.00
867.5160, 22967.00
868.6460, 22964.00
869.7770, 22986.00
870.9070, 22931.00
872.0370, 22929.00
873.1670, 22984.00
874.2970, 23033.00
875.4270, 23151.00
876.5570, 23163.22
877.6860, 23102.00
878.8150, 23247.00
879.9440, 23242.00
881.0730, 23327.00
882.2020, 23318.00
883.3300, 23385.00
884.4590, 23264.00
885.5870, 23507.00
886.7150, 23145.00
887.8430, 23488.00
888.9710, 23569.00
890.0990, 23322.00
891.2260, 23440.00
892.3530, 23587.00
893.4810, 23680.00
894.6080, 23694.00
895.7340, 23491.00
896.8610, 23710.00
897.9880, 23550.00
899.1140, 23621.00
900.2400, 23869.00
901.3660, 23839.00
902.4920, 23787.00
903.6180, 23891.00
904.7430, 24002.00
905.8690, 23726.00
906.9940, 24063.00
908.1190, 23862.00
909.2440, 23929.00
910.3690, 23883.00
911.4930, 24096.00
912.6180, 23847.00
913.7420, 23978.00
914.8660, 24430.00
915.9900, 24101.00
917.1140, 24469.00
918.2380, 24120.00
919.3610, 24028.00
920.4850, 24211.00
921.6080, 24419.00
922.7310, 24478.00
923.8540, 24566.16
924.9760, 24487.00
926.0990, 24606.00
927.2210, 24549.00
928.3440, 24535.00
929.4660, 24492.00
930.5880, 24500.96
931.7090, 24586.00
932.8310, 24601.00
933.9520, 24534.00
935.0740, 24725.00
936.1950, 24731.00
937.3160, 24794.00
938.4360, 24681.00
939.5570, 24975.00
940.6780, 24949.00
941.7980, 25078.00
942.9180, 25057.00
944.0380, 25025.00
945.1580, 24956.00
946.2780, 25056.00
947.3970, 24953.00
948.5170, 24895.00
949.6360, 25134.00
950.7550, 25292.00
951.8740, 25216.00
952.9930, 25331.00
954.1110, 25294.00
955.2300, 25355.00
956.3480, 25453.00
957.4660, 25463.00
958.5840, 25461.00
959.7020, 25419.00
960.8190, 25476.00
961.9370, 25480.00
963.0540, 25569.00
964.1710, 25604.00
965.2880, 25698.00
966.4050, 25693.00
967.5220, 25801.00
968.6380, 25782.00
969.7550, 25826.00
970.8710, 25771.00
971.9870, 25844.00
973.1030, 25887.00
974.2190, 25753.00
975.3340, 25751.00
976.4500, 25949.00
977.5650, 25851.00
978.6800, 26044.00
979.7950, 26192.00
980.9100, 26045.00
982.0250, 26424.00
983.1390, 26394.00
984.2530, 26081.00
985.3680, 26224.00
986.4820, 26363.00
987.5950, 26476.00
988.7090, 26524.33
989.8230, 26675.00
990.9360, 26549.00
992.0490, 26513.00
993.1620, 26462.00
994.2750, 26588.00
995.3880, 26455.00
996.5010, 26732.00
997.6130, 26514.00
998.7250, 26715.00
999.8370, 26721.00
1000.949, 26865.00
1002.061, 26877.00
1003.173, 26687.00
1004.284, 26865.00
1005.396, 26830.00
1006.507, 26921.00
1007.618, 26946.00
1008.729, 26973.00
1009.839, 27292.00
1010.950, 26920.00
1012.060, 27281.00
1013.171, 27107.00
1014.281, 27172.00
1015.391, 27364.00
1016.500, 27215.00
1017.610, 27222.00
1018.719, 27263.00
1019.829, 27247.34
1020.938, 27378.00
1022.047, 27331.00
1023.156, 27511.00
1024.264, 27546.00
1025.373, 27467.00
1026.481, 27556.00
1027.589, 27612.00
1028.697, 27414.00
1029.805, 27809.00
1030.913, 27603.00
1032.020, 27835.00
1033.128, 27916.00
1034.235, 27826.00
1035.342, 27887.00
1036.449, 27990.00
1037.556, 27967.00
1038.663, 28164.00
1039.769, 28202.98
1040.875, 28227.00
1041.981, 28334.00
1043.087, 28199.00
1044.193, 28157.00
1045.299, 28185.00
1046.404, 28147.89
1047.510, 28203.64
1048.615, 28230.00
1049.720, 28352.00
1050.825, 28490.00
1051.930, 28638.00
1053.034, 28534.00
1054.139, 28517.00
1055.243, 28544.00
1056.347, 28925.00
1057.451, 28595.00
1058.555, 28933.00
1059.658, 29024.00
1060.762, 28838.00
1061.865, 28971.00
1062.968, 28871.00
1064.071, 29139.00
1065.174, 29141.00
1066.277, 29070.00
1067.380, 29102.00
1068.482, 29123.00
1069.584, 29450.00
1070.686, 29501.00
1071.788, 29343.00
1072.890, 29547.00
1073.992, 29351.00
1075.093, 29903.00
1076.194, 29753.00
1077.295, 29726.00
1078.396, 29584.00
1079.497, 29547.00
1080.598, 29758.00
1081.698, 29689.00
1082.799, 29525.00
1083.899, 29924.00
1084.999, 29863.00
1086.099, 30010.00
1087.199, 29978.00
1088.298, 30126.00
1089.398, 29896.00
1090.497, 30180.00
1091.596, 30157.00
1092.695, 30111.00
1093.794, 30381.00
1094.892, 30374.00
1095.991, 30706.00
1097.089, 30591.00
1098.187, 30733.00
1099.285, 30598.00
1100.383, 30749.00
1101.481, 30616.00
1102.579, 30569.00
1103.676, 30884.00
1104.773, 30799.00
1105.870, 30527.00
1106.967, 30502.00
1108.064, 30734.00
1109.161, 30878.00
1110.257, 31206.00
1111.353, 31188.00
1112.449, 31340.00
1113.545, 31261.00
1114.641, 31610.00
1115.737, 31389.00
1116.832, 31471.00
1117.928, 31269.00
1119.023, 31093.00
1120.118, 31055.00
1121.213, 30985.00
1122.308, 30959.00
1123.402, 30916.00
1124.497, 30899.00
1125.591, 30924.06
1126.685, 30936.00
1127.779, 31057.00
1128.873, 31143.00
1129.967, 31337.00
1131.060, 31358.60
1132.153, 31367.33
1133.247, 31370.00
1134.340, 31338.00
1135.433, 31398.53
1136.525, 31278.00
1137.618, 31471.00
1138.710, 31378.00
1139.802, 31330.00
1140.895, 31445.00
1141.987, 31468.00
1143.078, 31505.00
1144.170, 31585.00
1145.261, 31597.00
1146.353, 31846.00
1147.444, 31555.00
1148.535, 32059.00
1149.626, 31764.00
1150.716, 31806.00
1151.807, 31836.00
1152.897, 31880.00
1153.988, 32119.00
1155.078, 32025.00
1156.168, 32167.00
1157.257, 32024.00
1158.347, 32090.00
1159.436, 32226.00
1160.526, 32093.00
1161.615, 32188.00
1162.704, 32239.00
1163.793, 32274.00
1164.881, 32513.00
1165.970, 32316.00
1167.058, 32484.00
1168.147, 32248.00
1169.235, 32449.00
1170.323, 32484.00
1171.410, 32436.00
1172.498, 32836.00
1173.585, 32705.00
1174.673, 33011.00
1175.760, 32653.00
1176.847, 32891.00
1177.934, 32567.00
1179.020, 32843.00
1180.107, 32880.00
1181.193, 32752.00
1182.279, 32785.00
1183.365, 32918.00
1184.451, 32912.00
1185.537, 33250.00
1186.623, 32800.00
1187.708, 33427.00
1188.793, 33243.00
1189.878, 33282.00
1190.963, 33600.00
1192.048, 33275.00
1193.133, 33226.00
1194.217, 33478.00
1195.302, 33533.00
1196.386, 33697.00
1197.470, 33359.00
1198.554, 33612.00
1199.638, 33669.00
1200.721, 33738.00
1201.805, 33874.00
1202.888, 33770.00
1203.971, 34115.00
1205.054, 33871.00
1206.137, 33950.00
1207.219, 33904.00
1208.302, 34011.00
1209.384, 34214.00
1210.466, 33922.00
1211.548, 34257.00
1212.630, 34191.00
1213.712, 34250.00
1214.794, 34109.00
1215.875, 34181.00
1216.956, 34285.00
1218.037, 34307.00
1219.118, 34348.00
1220.199, 34265.00
1221.280, 34429.00
1222.360, 34462.00
1223.441, 34358.00
1224.521, 34673.00
1225.601, 34683.00
1226.681, 34781.00
1227.760, 34917.00
1228.840, 34787.00
1229.919, 35060.00
1230.999, 35055.00
1232.078, 35128.00
1233.157, 35036.00
1234.236, 35015.00
1235.314, 35243.00
1236.393, 34947.00
1237.471, 35328.00
1238.549, 35392.00
1239.627, 35455.00
1240.705, 35323.00
1241.783, 35396.00
1242.860, 35626.00
1243.938, 35378.00
1245.015, 35835.00
