##NAMES=Marialite
##RRUFFID=R060458
##IDEAL CHEMISTRY=Na_4_Al_3_Si_9_O_24_Cl
##LOCALITY=Dading, Nepal
##OWNER=RRUFF
##SOURCE=Michael Scott
##DESCRIPTION=Colorless elongated prism
##STATUS=The identification of this mineral has been confirmed by X-ray diffraction and chemical analysis
##URL=rruff.info/R060458
##MEASURED CHEMISTRY=(Na_0.52_Ca_0.47_K_0.01_)_4_(Al_0.36_Si_0.64_)_12_O_24_(Cl_0.44_(CO_3_)_0.56_)
##PIN_ID=L00702
##ORIENTATION=Laser parallel to c* (0 0 1). Fiducial mark perpendicular to laser is parallel to a [1 0 0]
89.57500, 31477.00
90.81200, 31586.00
92.04900, 32044.00
93.28600, 32331.00
94.52300, 32490.00
95.75900, 33147.00
96.99500, 33674.00
98.23100, 34715.00
99.46700, 35434.00
100.7030, 36688.00
101.9390, 37884.00
103.1740, 39460.00
104.4090, 41302.00
105.6440, 42842.00
106.8790, 44547.00
108.1140, 45783.00
109.3490, 46771.00
110.5830, 47284.00
111.8180, 47156.00
113.0520, 46721.00
114.2860, 45595.00
115.5200, 44187.00
116.7530, 42584.00
117.9870, 41186.00
119.2200, 40365.00
120.4530, 40387.00
121.6860, 40083.00
122.9190, 38862.00
124.1520, 37851.00
125.3850, 37361.00
126.6170, 36659.00
127.8490, 36906.00
129.0810, 37159.00
130.3130, 37061.00
131.5450, 37152.00
132.7770, 37449.00
134.0080, 37552.00
135.2390, 37691.00
136.4710, 38287.00
137.7020, 38459.00
138.9320, 38879.00
140.1630, 39667.00
141.3930, 40424.00
142.6240, 41249.00
143.8540, 42484.00
145.0840, 43858.00
146.3140, 45004.00
147.5440, 46994.00
148.7730, 48690.00
150.0020, 50858.00
151.2320, 53397.00
152.4610, 56060.00
153.6900, 58678.00
154.9180, 61389.00
156.1470, 63528.00
157.3750, 65553.00
158.6040, 67122.00
159.8320, 68343.00
161.0600, 68817.00
162.2870, 69285.00
163.5150, 68458.00
164.7420, 67193.00
165.9700, 66327.00
167.1970, 63538.00
168.4240, 61110.00
169.6510, 58761.00
170.8770, 56992.00
172.1040, 53651.00
173.3300, 51559.00
174.5560, 49973.00
175.7820, 47717.00
177.0080, 46455.00
178.2340, 45340.00
179.4590, 44504.00
180.6850, 43810.00
181.9100, 43552.00
183.1350, 43029.00
184.3600, 43139.00
185.5850, 43274.00
186.8090, 43249.00
188.0340, 43512.00
189.2580, 43617.00
190.4820, 43733.00
191.7060, 43417.00
192.9300, 43785.00
194.1530, 43615.00
195.3770, 42866.00
196.6000, 42696.00
197.8230, 42320.00
199.0460, 42071.00
200.2690, 41650.00
201.4910, 40956.00
202.7140, 40970.00
203.9360, 40566.00
205.1580, 40304.00
206.3800, 40167.00
207.6020, 39992.00
208.8240, 39733.00
210.0450, 39277.00
211.2670, 39040.00
212.4880, 38673.00
213.7090, 38013.00
214.9300, 37444.00
216.1510, 37102.00
217.3710, 37029.00
218.5920, 36787.99
219.8120, 36660.00
221.0320, 36553.00
222.2520, 36449.00
223.4720, 36369.85
224.6910, 36106.00
225.9110, 36118.00
227.1300, 35993.00
228.3490, 35612.00
229.5680, 35441.00
230.7870, 34754.00
232.0050, 34295.00
233.2240, 33782.00
234.4420, 33346.00
235.6600, 32816.00
236.8780, 32409.00
238.0960, 31593.00
239.3140, 31378.00
240.5310, 30967.00
241.7490, 30720.00
242.9660, 30610.00
244.1830, 30544.00
245.4000, 30701.00
246.6160, 30752.00
247.8330, 30991.25
249.0490, 31338.00
250.2660, 31622.00
251.4820, 32163.00
252.6980, 32631.00
253.9130, 33665.00
255.1290, 34282.00
256.3440, 35434.00
257.5600, 36272.00
258.7750, 36924.00
259.9900, 37604.00
261.2040, 37976.00
262.4190, 38250.00
263.6330, 37677.00
264.8480, 36832.00
266.0620, 35386.00
267.2760, 34294.00
268.4900, 32721.00
269.7030, 31352.00
270.9170, 30123.00
272.1300, 29304.00
273.3430, 28136.00
274.5560, 27653.00
275.7690, 27415.00
276.9820, 26721.00
278.1940, 26836.00
279.4070, 26724.00
280.6190, 26631.00
281.8310, 26841.00
283.0430, 27037.00
284.2550, 27459.00
285.4660, 27778.00
286.6770, 28398.00
287.8890, 28719.00
289.1000, 29022.00
290.3110, 29766.00
291.5210, 29872.00
292.7320, 30080.00
293.9420, 29999.00
295.1530, 30372.00
296.3630, 30091.00
297.5730, 29685.00
298.7830, 28762.00
299.9920, 27892.00
301.2020, 27023.00
302.4110, 25904.00
303.6200, 25193.00
304.8290, 24737.00
306.0380, 24438.00
307.2470, 24092.00
308.4550, 23881.00
309.6630, 23739.24
310.8720, 23499.00
312.0800, 23564.00
313.2880, 23416.00
314.4950, 23297.00
315.7030, 23595.00
316.9100, 23793.00
318.1170, 23634.00
319.3240, 23856.00
320.5310, 23935.00
321.7380, 23911.00
322.9450, 24244.00
324.1510, 24454.00
325.3570, 24635.00
326.5630, 24710.00
327.7690, 24762.00
328.9750, 25154.00
330.1810, 25344.00
331.3860, 25579.00
332.5910, 26019.00
333.7960, 26352.00
335.0010, 26597.00
336.2060, 26757.00
337.4110, 26870.00
338.6150, 26757.00
339.8200, 26829.00
341.0240, 26687.00
342.2280, 26382.00
343.4320, 26176.00
344.6350, 26056.70
345.8390, 25856.00
347.0420, 25908.00
348.2450, 25934.00
349.4480, 26039.00
350.6510, 26463.00
351.8540, 26643.00
353.0560, 27272.00
354.2590, 27984.00
355.4610, 28646.00
356.6630, 29270.00
357.8650, 30134.00
359.0670, 30570.00
360.2680, 31015.00
361.4700, 31001.00
362.6710, 30821.00
363.8720, 30345.00
365.0730, 30043.00
366.2740, 29005.00
367.4740, 28348.00
368.6750, 27905.00
369.8750, 27323.00
371.0750, 26918.00
372.2750, 26739.00
373.4750, 26583.00
374.6740, 26434.00
375.8740, 26443.00
377.0730, 26375.00
378.2720, 26333.28
379.4710, 26440.00
380.6700, 26319.00
381.8690, 26344.00
383.0670, 26413.00
384.2660, 26118.00
385.4640, 26467.00
386.6620, 26112.00
387.8600, 26040.00
389.0570, 25908.00
390.2550, 25645.00
391.4520, 25818.00
392.6490, 25651.00
393.8460, 25833.00
395.0430, 25655.00
396.2400, 25494.00
397.4370, 25327.00
398.6330, 25366.00
399.8290, 25443.00
401.0250, 25452.00
402.2210, 25657.00
403.4170, 25748.00
404.6130, 25510.00
405.8080, 25934.00
407.0030, 25908.00
408.1980, 26249.00
409.3930, 26360.00
410.5880, 26653.00
411.7830, 27208.00
412.9770, 27364.00
414.1720, 27924.00
415.3660, 28218.00
416.5600, 28764.00
417.7530, 29430.00
418.9470, 29751.00
420.1410, 30550.00
421.3340, 30692.00
422.5270, 31014.00
423.7200, 30992.00
424.9130, 31077.00
426.1060, 30964.00
427.2980, 30935.00
428.4900, 31173.00
429.6830, 31437.00
430.8750, 31718.61
432.0670, 32176.00
433.2580, 32622.00
434.4500, 33256.00
435.6410, 34011.00
436.8320, 35261.00
438.0240, 36570.00
439.2140, 38394.00
440.4050, 40287.00
441.5960, 42637.00
442.7860, 45787.00
443.9760, 49545.00
445.1670, 53663.00
446.3560, 58487.51
447.5460, 63349.00
448.7360, 69850.00
449.9250, 76429.00
451.1150, 83871.00
452.3040, 91222.00
453.4930, 97361.00
454.6810, 101324.0
455.8700, 103208.0
457.0590, 104123.0
458.2470, 104125.0
459.4350, 103732.0
460.6230, 102287.0
461.8110, 99497.53
462.9980, 96426.00
464.1860, 91226.00
465.3730, 85060.00
466.5600, 78473.00
467.7470, 71864.00
468.9340, 65848.00
470.1210, 59823.00
471.3080, 54970.00
472.4940, 50665.00
473.6800, 47277.00
474.8660, 44294.00
476.0520, 41853.00
477.2380, 39859.00
478.4230, 38320.00
479.6090, 37012.00
480.7940, 36180.00
481.9790, 34863.00
483.1640, 34194.00
484.3490, 33303.00
485.5330, 32639.00
486.7180, 32260.00
487.9020, 31931.00
489.0860, 31102.00
490.2700, 31231.00
491.4540, 30565.00
492.6370, 30281.00
493.8210, 30064.00
495.0040, 29756.99
496.1870, 29853.00
497.3700, 29525.00
498.5530, 29403.00
499.7360, 29469.00
500.9180, 29261.00
502.1000, 28993.00
503.2830, 29050.00
504.4650, 29117.00
505.6460, 28998.00
506.8280, 28757.00
508.0100, 28907.00
509.1910, 29125.00
510.3720, 28863.00
511.5530, 29116.00
512.7340, 29160.00
513.9150, 29292.00
515.0950, 29553.00
516.2760, 30094.00
517.4560, 30015.00
518.6360, 30889.00
519.8160, 31119.00
520.9950, 31848.00
522.1750, 32841.00
523.3540, 33649.00
524.5340, 34751.00
525.7130, 36285.00
526.8920, 37945.80
528.0700, 40060.00
529.2490, 42261.00
530.4270, 45069.00
531.6060, 48016.00
532.7840, 51199.00
533.9620, 53459.00
535.1390, 54774.00
536.3170, 54459.00
537.4940, 53267.00
538.6720, 50804.00
539.8490, 47971.00
541.0260, 45287.00
542.2030, 43068.00
543.3790, 40682.00
544.5560, 38830.00
545.7320, 36938.00
546.9080, 36006.00
548.0840, 34789.00
549.2600, 33941.00
550.4360, 33549.00
551.6110, 32857.00
552.7860, 32686.00
553.9620, 32196.00
555.1370, 31834.00
556.3110, 31646.00
557.4860, 31537.00
558.6610, 31453.00
559.8350, 31359.00
561.0090, 31365.00
562.1830, 31122.00
563.3570, 31270.00
564.5310, 31114.00
565.7040, 31165.00
566.8780, 31342.00
568.0510, 31226.00
569.2240, 31203.00
570.3970, 31096.00
571.5700, 31149.00
572.7420, 31384.00
573.9150, 31600.00
575.0870, 31444.00
576.2590, 31306.00
577.4310, 31399.00
578.6030, 31396.00
579.7740, 31523.00
580.9460, 31780.00
582.1170, 31841.00
583.2880, 31879.00
584.4590, 31756.00
585.6300, 31884.00
586.8010, 31727.00
587.9710, 32061.00
589.1410, 31778.00
590.3110, 31868.00
591.4810, 32136.00
592.6510, 31977.00
593.8210, 32249.00
594.9900, 32290.00
596.1600, 32271.00
597.3290, 32430.00
598.4980, 32483.00
599.6670, 32674.62
600.8350, 32790.00
602.0040, 33109.00
603.1720, 33327.00
604.3400, 33550.00
605.5080, 33818.00
606.6760, 33773.00
607.8440, 34075.00
609.0120, 34467.00
610.1790, 34593.00
611.3460, 34357.00
612.5130, 34605.00
613.6800, 34245.00
614.8470, 33951.00
616.0130, 34055.00
617.1800, 33710.00
618.3460, 33769.00
619.5120, 33493.00
620.6780, 33771.00
621.8440, 33550.00
623.0090, 33801.00
624.1750, 33829.00
625.3400, 33984.00
626.5050, 33675.00
627.6700, 33873.00
628.8350, 33573.00
629.9990, 33993.00
631.1640, 33608.00
632.3280, 33940.00
633.4920, 34044.00
634.6560, 34022.00
635.8200, 34029.00
636.9840, 34135.00
638.1470, 34315.00
639.3100, 34490.00
640.4730, 34267.00
641.6360, 34699.00
642.7990, 34717.00
643.9620, 34767.00
645.1240, 35104.00
646.2870, 34899.00
647.4490, 34947.00
648.6110, 35261.00
649.7730, 35106.00
650.9340, 35210.00
652.0960, 35264.00
653.2570, 35499.00
654.4180, 35535.00
655.5790, 35552.00
656.7400, 35766.00
657.9010, 35758.00
659.0620, 35696.00
660.2220, 36290.00
661.3820, 36227.00
662.5420, 36170.00
663.7020, 36358.00
664.8620, 36378.00
666.0210, 36576.00
667.1810, 36473.00
668.3400, 36496.00
669.4990, 36781.00
670.6580, 36530.00
671.8170, 37001.00
672.9750, 36868.00
674.1340, 37438.00
675.2920, 37844.00
676.4500, 38087.00
677.6080, 38054.00
678.7660, 38244.00
679.9230, 38133.00
681.0810, 37656.00
682.2380, 38011.00
683.3950, 37494.00
684.5520, 37599.00
685.7090, 37419.00
686.8660, 37635.00
688.0220, 37535.00
689.1780, 37602.00
690.3340, 37603.00
691.4900, 37654.68
692.6460, 37753.00
693.8020, 37865.00
694.9570, 37796.00
696.1130, 37992.00
697.2680, 38078.00
698.4230, 37896.00
699.5780, 38271.00
700.7320, 38212.00
701.8870, 38363.00
703.0410, 38856.00
704.1950, 38706.00
705.3490, 38902.00
706.5030, 39133.00
707.6570, 39000.00
708.8110, 38973.00
709.9640, 39310.00
711.1170, 39468.00
712.2700, 39508.00
713.4230, 39639.00
714.5760, 39807.00
715.7280, 39849.00
716.8810, 39908.00
718.0330, 39968.00
719.1850, 40119.00
720.3370, 40184.00
721.4890, 40528.00
722.6400, 40283.00
723.7920, 40786.00
724.9430, 40477.00
726.0940, 40819.00
727.2450, 40891.00
728.3960, 41179.00
729.5460, 41418.96
730.6970, 41383.00
731.8470, 41796.00
732.9970, 41808.00
734.1470, 41708.00
735.2970, 41897.00
736.4460, 41970.00
737.5960, 41729.00
738.7450, 42044.00
739.8940, 42210.00
741.0430, 42651.00
742.1920, 42495.00
743.3410, 42696.00
744.4890, 43004.00
745.6370, 43071.00
746.7850, 43164.00
747.9330, 43564.00
749.0810, 43943.00
750.2290, 44240.00
751.3760, 44533.00
752.5240, 44847.39
753.6710, 45143.38
754.8180, 45412.00
755.9650, 45714.00
757.1110, 45974.00
758.2580, 46180.00
759.4040, 46667.00
760.5510, 47751.00
761.6970, 48240.00
762.8420, 49288.00
763.9880, 50070.00
765.1340, 50669.00
766.2790, 51674.14
767.4240, 52637.00
768.5690, 53311.00
769.7140, 53945.00
770.8590, 54492.00
772.0030, 54442.00
773.1480, 55032.00
774.2920, 54340.00
775.4360, 53674.00
776.5800, 52817.00
777.7240, 51479.00
778.8670, 50425.00
780.0110, 49066.00
781.1540, 48187.00
782.2970, 47290.00
783.4400, 46658.00
784.5830, 46079.00
785.7250, 45823.00
786.8680, 45923.00
788.0100, 45528.00
789.1520, 45199.00
790.2940, 45388.00
791.4360, 44952.00
792.5780, 45481.00
793.7190, 45399.00
794.8600, 45283.00
796.0010, 46032.00
797.1420, 45886.00
798.2830, 45844.00
799.4240, 46219.00
800.5640, 46870.00
801.7050, 46729.00
802.8450, 46993.00
803.9850, 47375.00
805.1250, 47284.00
806.2640, 47399.00
807.4040, 47316.00
808.5430, 47258.60
809.6820, 47507.00
810.8210, 47101.00
811.9600, 46891.00
813.0990, 46823.00
814.2370, 47011.00
815.3760, 46752.00
816.5140, 46798.00
817.6520, 46690.00
818.7900, 47037.00
819.9270, 47000.00
821.0650, 46914.00
822.2020, 47037.00
823.3390, 47079.00
824.4760, 47179.00
825.6130, 47320.00
826.7500, 47408.69
827.8870, 47716.00
829.0230, 47663.00
830.1590, 47788.53
831.2950, 47939.00
832.4310, 47897.00
833.5670, 48054.00
834.7030, 48240.00
835.8380, 47876.00
836.9730, 48315.00
838.1080, 48372.00
839.2430, 48666.00
840.3780, 48434.00
841.5130, 48518.00
842.6470, 48637.00
843.7810, 48774.00
844.9150, 48702.00
846.0490, 48722.00
847.1830, 49138.00
848.3170, 49270.00
849.4500, 49173.00
850.5830, 49324.00
851.7160, 49377.00
852.8490, 49574.00
853.9820, 49433.00
855.1150, 49815.00
856.2470, 49757.00
857.3800, 50285.00
858.5120, 50235.00
859.6440, 50824.00
860.7760, 50650.00
861.9070, 50694.00
863.0390, 50959.00
864.1700, 50903.00
865.3010, 50800.00
866.4320, 50985.00
867.5630, 51260.00
868.6940, 51429.00
869.8240, 51506.00
870.9540, 51398.00
872.0850, 51623.00
873.2150, 51521.00
874.3450, 51609.00
875.4740, 51517.00
876.6040, 52028.00
877.7330, 52068.00
878.8620, 52278.00
879.9910, 52546.00
881.1200, 52518.00
882.2490, 52629.00
883.3770, 52779.00
884.5060, 52597.00
885.6340, 53007.00
886.7620, 52939.00
887.8900, 53221.00
889.0180, 53295.00
890.1450, 53376.00
891.2730, 53849.00
892.4000, 53789.00
893.5270, 53647.00
894.6540, 54131.00
895.7810, 54236.00
896.9070, 54112.00
898.0340, 54425.19
899.1600, 54825.00
900.2860, 54745.00
901.4120, 54821.00
902.5380, 55111.00
903.6630, 54712.00
904.7890, 55201.00
905.9140, 55354.00
907.0390, 55335.00
908.1640, 55741.00
909.2890, 55752.00
910.4130, 55929.53
911.5380, 55888.00
912.6620, 56181.00
913.7860, 56219.00
914.9100, 56257.00
916.0340, 56550.00
917.1580, 56552.00
918.2810, 56706.00
919.4040, 56663.00
920.5280, 56702.00
921.6510, 57090.00
922.7730, 57078.00
923.8960, 57294.00
925.0180, 57160.00
926.1410, 57392.00
927.2630, 57326.00
928.3850, 57400.00
929.5070, 57754.00
930.6280, 57810.00
931.7500, 57986.00
932.8710, 57998.00
933.9920, 58306.00
935.1130, 58418.00
936.2340, 58500.00
937.3550, 58920.00
938.4760, 58495.00
939.5960, 59180.00
940.7160, 59275.00
941.8360, 59236.00
942.9560, 59549.00
944.0760, 59527.00
945.1950, 59815.00
946.3150, 59952.00
947.4340, 60003.00
948.5530, 60300.00
949.6720, 60646.00
950.7900, 60921.00
951.9090, 60937.00
953.0270, 60772.00
954.1460, 61357.00
955.2640, 61372.00
956.3820, 61618.00
957.4990, 61931.00
958.6170, 62041.00
959.7340, 61979.00
960.8520, 62305.00
961.9690, 62249.00
963.0860, 62593.00
964.2020, 62622.00
965.3190, 62747.71
966.4350, 63136.00
967.5520, 63027.00
968.6680, 63607.00
969.7840, 63892.00
970.8990, 64229.00
972.0150, 63851.00
973.1310, 64442.00
974.2460, 64043.00
975.3610, 64703.00
976.4760, 64977.00
977.5910, 65214.00
978.7050, 65187.00
979.8200, 65513.00
980.9340, 65727.00
982.0480, 65618.00
983.1620, 65897.00
984.2760, 66015.00
985.3900, 66063.00
986.5030, 66099.00
987.6160, 66520.00
988.7300, 66918.00
989.8430, 66595.00
990.9550, 66642.00
992.0680, 66397.00
993.1810, 66608.00
994.2930, 66824.00
995.4050, 66923.00
996.5170, 67165.00
997.6290, 67167.00
998.7410, 67012.00
999.8520, 67572.00
1000.964, 67690.00
1002.075, 68044.00
1003.186, 67829.00
1004.297, 67737.00
1005.407, 67755.00
1006.518, 67494.00
1007.628, 67816.00
1008.738, 68006.00
1009.848, 67598.16
1010.958, 67900.00
1012.068, 67293.00
1013.178, 67293.00
1014.287, 68036.00
1015.396, 67459.00
1016.505, 67233.00
1017.614, 67726.00
1018.723, 67996.00
1019.831, 67773.00
1020.940, 68397.00
1022.048, 68130.00
1023.156, 69004.00
1024.264, 69166.00
1025.372, 69859.00
1026.479, 70072.00
1027.587, 70480.00
1028.694, 71362.00
1029.801, 71585.00
1030.908, 72060.00
1032.015, 72430.00
1033.121, 73165.00
1034.228, 73593.00
1035.334, 73952.00
1036.440, 74476.00
1037.546, 74689.00
1038.652, 75241.00
1039.758, 75040.00
1040.863, 75497.00
1041.968, 75994.00
1043.074, 75972.00
1044.178, 76511.00
1045.283, 76723.00
1046.388, 76739.00
1047.492, 77387.00
1048.597, 77605.00
1049.701, 77900.00
1050.805, 78370.00
1051.909, 78660.00
1053.012, 78718.00
1054.116, 79220.00
1055.219, 79147.00
1056.322, 79660.00
1057.425, 80513.00
1058.528, 80763.00
1059.631, 81119.00
1060.733, 81653.48
1061.836, 81832.00
1062.938, 82594.00
1064.040, 83172.00
1065.142, 83920.00
1066.243, 84398.00
1067.345, 84674.00
1068.446, 85519.00
1069.547, 86075.00
1070.648, 86547.00
1071.749, 86662.00
1072.850, 87376.00
1073.951, 87064.00
1075.051, 87168.00
1076.151, 87761.00
1077.251, 87685.00
1078.351, 88363.00
1079.451, 88788.00
1080.550, 89930.00
1081.650, 91143.00
1082.749, 92191.00
1083.848, 94056.00
1084.947, 95944.00
1086.046, 98239.00
1087.144, 100349.0
1088.243, 102609.0
1089.341, 105735.0
1090.439, 108016.0
1091.537, 110466.0
1092.635, 112159.0
1093.732, 113951.0
1094.830, 114919.0
1095.927, 115133.0
1097.024, 115099.0
1098.121, 114121.0
1099.218, 112784.0
1100.314, 111454.0
1101.411, 110212.0
1102.507, 109481.0
1103.603, 108655.0
1104.699, 108402.0
1105.795, 107814.0
1106.890, 108600.0
1107.986, 108523.0
1109.081, 106166.0
1110.176, 104105.0
1111.271, 101294.0
1112.366, 98288.00
1113.461, 94963.00
1114.555, 92572.00
1115.649, 90387.00
1116.744, 88050.00
1117.838, 87170.00
1118.931, 86554.00
1120.025, 86777.00
1121.119, 85958.00
1122.212, 86221.00
1123.305, 86226.00
1124.398, 86127.00
1125.491, 86671.00
1126.584, 86268.00
1127.676, 86696.00
1128.768, 86987.00
1129.861, 86629.00
1130.953, 86973.00
1132.044, 87047.00
1133.136, 87183.00
1134.228, 87620.00
1135.319, 87584.00
1136.410, 87363.00
1137.501, 87691.00
1138.592, 87998.00
1139.683, 87928.00
1140.773, 88148.00
1141.864, 88153.00
1142.954, 88361.00
1144.044, 88543.00
1145.134, 88647.66
1146.224, 88847.66
1147.313, 89026.00
1148.402, 89172.00
1149.492, 89530.00
1150.581, 89696.00
1151.670, 89630.00
1152.758, 90169.00
1153.847, 90304.46
1154.935, 90424.00
1156.024, 90869.00
1157.112, 90904.00
1158.200, 91055.00
1159.287, 91470.00
1160.375, 91338.00
1161.462, 91611.00
1162.550, 92127.00
1163.637, 92364.00
1164.724, 92684.11
1165.810, 92850.00
1166.897, 93259.00
1167.983, 93309.00
1169.070, 93639.00
1170.156, 93445.00
1171.242, 93311.00
1172.327, 94005.00
1173.413, 94058.00
1174.499, 94366.00
1175.584, 94673.00
1176.669, 94781.00
1177.754, 94985.00
1178.839, 95358.00
1179.923, 95736.00
1181.008, 95742.00
1182.092, 95946.00
1183.176, 96131.00
1184.260, 96809.00
1185.344, 96825.00
1186.428, 97288.00
1187.511, 97405.00
1188.595, 97704.00
1189.678, 98162.00
1190.761, 98421.00
1191.843, 98654.00
1192.926, 99171.00
1194.009, 99127.00
1195.091, 99270.00
1196.173, 99583.00
1197.255, 99686.55
1198.337, 99770.00
1199.419, 100050.0
1200.500, 100199.0
1201.582, 100194.0
1202.663, 100453.0
1203.744, 100528.0
1204.825, 101510.0
1205.905, 100789.0
1206.986, 101398.0
1208.066, 100924.0
1209.146, 101409.0
1210.226, 101440.0
1211.306, 101365.0
1212.386, 101506.0
1213.466, 101868.0
1214.545, 102153.0
1215.624, 101859.0
1216.703, 102266.0
1217.782, 102337.0
1218.861, 102145.0
1219.939, 102324.0
1221.018, 103019.0
1222.096, 102537.0
1223.174, 102992.0
1224.252, 103155.0
1225.330, 103107.0
1226.407, 103108.0
1227.485, 103761.0
1228.562, 103240.0
1229.639, 104033.0
1230.716, 103966.0
1231.793, 104455.0
1232.869, 104842.0
1233.946, 104854.0
1235.022, 105337.0
1236.098, 104991.0
1237.174, 105360.0
1238.250, 105509.0
1239.325, 105515.0
1240.401, 106064.0
1241.476, 106344.0
1242.551, 106447.0
1243.626, 107019.0
1244.701, 107054.0
1245.776, 106747.0
1246.850, 107598.0
1247.924, 107427.0
1248.999, 107972.0
1250.073, 108429.0
1251.146, 108002.0
1252.220, 108936.0
1253.293, 108685.0
1254.367, 108379.3
1255.440, 108901.1
1256.513, 109317.7
1257.586, 109634.9
1258.658, 109554.5
1259.731, 109987.4
1260.803, 110214.5
1261.875, 110433.1
1262.947, 110938.0
1264.019, 110915.3
1265.091, 111415.7
1266.162, 111707.0
1267.234, 112094.2
1268.305, 112679.0
1269.376, 112927.0
1270.447, 112602.0
