##NAMES=Marialite
##RRUFFID=R060297
##IDEAL CHEMISTRY=Na_4_Al_3_Si_9_O_24_Cl
##LOCALITY=Morogoro District, Marasi, Tanzania
##OWNER=RRUFF
##SOURCE=Herb Obodda
##DESCRIPTION=Pale yellow crystal fragment
##STATUS=The identification of this mineral has been confirmed by X-ray diffraction and chemical analysis
##URL=rruff.info/R060297
##MEASURED CHEMISTRY=(Na_0.66_Ca_0.29_K_0.06_)_4_(Si_0.68_Al_0.32_)_12_O_24_(Cl_0.70_(CO_3_)_0.30_)
##PIN_ID=L01219
##ORIENTATION=Laser parallel to c* (0 0 1). Fiducial mark perpendicular to laser is parallel to a [1 0 0]
93.28600, 27121.00
94.52300, 27279.00
95.75900, 27995.00
96.99500, 28881.00
98.23100, 29617.00
99.46700, 30852.00
100.7030, 31761.00
101.9390, 32694.00
103.1740, 34318.00
104.4090, 35757.00
105.6440, 37882.00
106.8790, 39893.00
108.1140, 41111.00
109.3490, 41838.00
110.5830, 42216.00
111.8180, 41811.00
113.0520, 41214.00
114.2860, 40125.00
115.5200, 39051.00
116.7530, 37858.00
117.9870, 36553.00
119.2200, 36232.00
120.4530, 35533.00
121.6860, 35117.00
122.9190, 35001.00
124.1520, 34866.00
125.3850, 34584.00
126.6170, 34543.90
127.8490, 34431.00
129.0810, 34399.00
130.3130, 34398.00
131.5450, 34403.00
132.7770, 34294.00
134.0080, 34142.00
135.2390, 33985.00
136.4710, 34055.00
137.7020, 34208.00
138.9320, 34581.00
140.1630, 34988.00
141.3930, 35659.00
142.6240, 36262.00
143.8540, 36649.00
145.0840, 37588.00
146.3140, 38780.00
147.5440, 39974.00
148.7730, 41507.00
150.0020, 43618.00
151.2320, 45211.00
152.4610, 47406.00
153.6900, 49618.00
154.9180, 51811.00
156.1470, 54517.00
157.3750, 56817.00
158.6040, 58849.00
159.8320, 59827.00
161.0600, 60917.00
162.2870, 61282.00
163.5150, 61034.00
164.7420, 60025.00
165.9700, 58075.00
167.1970, 56254.00
168.4240, 53910.00
169.6510, 51426.00
170.8770, 49050.00
172.1040, 47167.00
173.3300, 44841.00
174.5560, 43418.00
175.7820, 42636.00
177.0080, 41689.00
178.2340, 40298.00
179.4590, 39339.00
180.6850, 39458.00
181.9100, 39282.00
183.1350, 39323.00
184.3600, 39086.00
185.5850, 39077.00
186.8090, 38979.67
188.0340, 38848.14
189.2580, 38724.00
190.4820, 38609.00
191.7060, 38308.00
192.9300, 38104.00
194.1530, 37664.00
195.3770, 37161.00
196.6000, 36841.00
197.8230, 36299.00
199.0460, 35340.00
200.2690, 34940.00
201.4910, 34133.00
202.7140, 34083.00
203.9360, 33550.00
205.1580, 33125.00
206.3800, 33106.00
207.6020, 32816.00
208.8240, 32430.00
210.0450, 32197.00
211.2670, 31291.00
212.4880, 31084.00
213.7090, 30881.00
214.9300, 30422.00
216.1510, 30587.00
217.3710, 30392.00
218.5920, 30329.00
219.8120, 30174.00
221.0320, 30531.00
222.2520, 30642.00
223.4720, 30607.00
224.6910, 30325.00
225.9110, 30260.00
227.1300, 30226.00
228.3490, 30136.00
229.5680, 29645.00
230.7870, 29238.00
232.0050, 28886.00
233.2240, 28437.00
234.4420, 28037.07
235.6600, 27586.00
236.8780, 27191.00
238.0960, 26908.00
239.3140, 26499.00
240.5310, 26199.00
241.7490, 26112.00
242.9660, 25965.00
244.1830, 25826.00
245.4000, 26025.00
246.6160, 25899.00
247.8330, 26419.00
249.0490, 26276.00
250.2660, 26712.00
251.4820, 27276.00
252.6980, 27696.00
253.9130, 28478.00
255.1290, 29329.00
256.3440, 30208.00
257.5600, 31044.00
258.7750, 32300.00
259.9900, 33212.00
261.2040, 33541.00
262.4190, 34441.00
263.6330, 34501.00
264.8480, 34267.00
266.0620, 33259.00
267.2760, 32245.00
268.4900, 31087.00
269.7030, 29673.00
270.9170, 28588.00
272.1300, 27504.00
273.3430, 26792.00
274.5560, 26268.00
275.7690, 26070.00
276.9820, 25634.00
278.1940, 26013.00
279.4070, 25780.00
280.6190, 26139.00
281.8310, 26771.00
283.0430, 27051.00
284.2550, 27803.00
285.4660, 28463.00
286.6770, 29088.00
287.8890, 29501.00
289.1000, 29562.00
290.3110, 29778.00
291.5210, 29031.00
292.7320, 28255.00
293.9420, 27550.00
295.1530, 27188.00
296.3630, 26817.00
297.5730, 26439.00
298.7830, 25878.43
299.9920, 25270.00
301.2020, 24629.00
302.4110, 23847.00
303.6200, 23058.00
304.8290, 22580.00
306.0380, 22200.00
307.2470, 21869.96
308.4550, 21598.00
309.6630, 21661.00
310.8720, 21502.00
312.0800, 21685.00
313.2880, 21674.00
314.4950, 21621.00
315.7030, 21882.00
316.9100, 21774.00
318.1170, 22051.00
319.3240, 22286.00
320.5310, 22295.00
321.7380, 22536.00
322.9450, 22811.00
324.1510, 23509.00
325.3570, 23748.80
326.5630, 24061.34
327.7690, 24548.00
328.9750, 24701.00
330.1810, 25064.00
331.3860, 25757.00
332.5910, 25865.00
333.7960, 26253.00
335.0010, 26737.00
336.2060, 26655.00
337.4110, 26345.00
338.6150, 26046.00
339.8200, 25768.14
341.0240, 25361.00
342.2280, 25045.00
343.4320, 24622.00
344.6350, 24186.00
345.8390, 23971.00
347.0420, 23983.00
348.2450, 24033.00
349.4480, 24252.00
350.6510, 24538.00
351.8540, 24914.00
353.0560, 25167.00
354.2590, 25307.00
355.4610, 26131.00
356.6630, 26685.00
357.8650, 27287.00
359.0670, 27596.00
360.2680, 28090.00
361.4700, 27890.00
362.6710, 27764.00
363.8720, 26985.00
365.0730, 26368.00
366.2740, 25632.00
367.4740, 25109.00
368.6750, 24620.00
369.8750, 24201.00
371.0750, 24018.00
372.2750, 23941.00
373.4750, 24008.00
374.6740, 23911.00
375.8740, 23763.00
377.0730, 23564.00
378.2720, 23460.00
379.4710, 23869.00
380.6700, 23776.00
381.8690, 23602.00
383.0670, 23597.00
384.2660, 23121.00
385.4640, 23240.00
386.6620, 23229.00
387.8600, 22961.00
389.0570, 23102.00
390.2550, 23005.00
391.4520, 22871.00
392.6490, 22934.00
393.8460, 22758.00
395.0430, 22723.00
396.2400, 22455.00
397.4370, 22539.00
398.6330, 22481.00
399.8290, 22776.00
401.0250, 22458.00
402.2210, 22752.00
403.4170, 22657.00
404.6130, 22871.00
405.8080, 22861.00
407.0030, 23040.00
408.1980, 23361.00
409.3930, 23286.00
410.5880, 23477.00
411.7830, 23843.00
412.9770, 24184.00
414.1720, 24279.00
415.3660, 24586.00
416.5600, 24877.00
417.7530, 25036.00
418.9470, 25456.00
420.1410, 25723.00
421.3340, 25806.00
422.5270, 25985.00
423.7200, 26170.00
424.9130, 26037.00
426.1060, 26163.00
427.2980, 26130.00
428.4900, 26363.00
429.6830, 26467.00
430.8750, 26969.00
432.0670, 27375.00
433.2580, 27863.00
434.4500, 28522.00
435.6410, 29173.00
436.8320, 30391.00
438.0240, 31283.00
439.2140, 32564.00
440.4050, 33660.00
441.5960, 35566.00
442.7860, 37386.00
443.9760, 39328.00
445.1670, 41995.00
446.3560, 45567.00
447.5460, 49933.00
448.7360, 55414.00
449.9250, 61556.00
451.1150, 68957.00
452.3040, 76209.00
453.4930, 82784.00
454.6810, 88425.00
455.8700, 92059.00
457.0590, 93832.00
458.2470, 95648.00
459.4350, 95031.00
460.6230, 92679.00
461.8110, 90330.00
462.9980, 85140.00
464.1860, 78229.00
465.3730, 71786.00
466.5600, 65979.00
467.7470, 60187.00
468.9340, 54475.00
470.1210, 49999.00
471.3080, 45985.00
472.4940, 42560.00
473.6800, 40050.00
474.8660, 37465.00
476.0520, 35673.00
477.2380, 33980.00
478.4230, 32581.00
479.6090, 31501.00
480.7940, 30719.00
481.9790, 29726.00
483.1640, 29096.00
484.3490, 28832.00
485.5330, 28295.00
486.7180, 28022.00
487.9020, 27708.00
489.0860, 27145.00
490.2700, 27174.00
491.4540, 27293.00
492.6370, 26823.00
493.8210, 26813.00
495.0040, 26747.00
496.1870, 26533.00
497.3700, 26366.00
498.5530, 26332.00
499.7360, 26220.20
500.9180, 26188.00
502.1000, 26222.00
503.2830, 26138.00
504.4650, 26310.00
505.6460, 26228.00
506.8280, 26004.00
508.0100, 26569.00
509.1910, 26177.00
510.3720, 26102.00
511.5530, 26302.00
512.7340, 26440.00
513.9150, 26632.00
515.0950, 26784.93
516.2760, 26918.00
517.4560, 27155.00
518.6360, 27258.00
519.8160, 27571.00
520.9950, 27667.00
522.1750, 28220.00
523.3540, 28920.00
524.5340, 29580.00
525.7130, 30519.00
526.8920, 31406.00
528.0700, 33066.00
529.2490, 34645.00
530.4270, 36690.00
531.6060, 39178.00
532.7840, 41889.00
533.9620, 44500.00
535.1390, 47644.00
536.3170, 49168.00
537.4940, 49505.00
538.6720, 48630.00
539.8490, 46735.49
541.0260, 43854.00
542.2030, 41103.00
543.3790, 38389.00
544.5560, 36476.00
545.7320, 34549.00
546.9080, 33426.00
548.0840, 32150.00
549.2600, 31033.00
550.4360, 30483.00
551.6110, 29940.00
552.7860, 29512.00
553.9620, 28956.00
555.1370, 28867.00
556.3110, 28314.00
557.4860, 28193.00
558.6610, 28144.00
559.8350, 28353.00
561.0090, 28055.00
562.1830, 27888.00
563.3570, 27974.00
564.5310, 27969.00
565.7040, 27888.00
566.8780, 27857.00
568.0510, 27891.00
569.2240, 27782.00
570.3970, 27925.00
571.5700, 27935.00
572.7420, 27957.00
573.9150, 28037.91
575.0870, 28047.00
576.2590, 28091.00
577.4310, 28140.00
578.6030, 28066.00
579.7740, 28310.00
580.9460, 28188.00
582.1170, 28150.00
583.2880, 28229.00
584.4590, 28489.00
585.6300, 28467.00
586.8010, 28663.00
587.9710, 28465.00
589.1410, 28561.00
590.3110, 28658.00
591.4810, 28583.00
592.6510, 28975.00
593.8210, 29263.00
594.9900, 29152.00
596.1600, 29413.00
597.3290, 29542.00
598.4980, 29634.00
599.6670, 29984.00
600.8350, 30412.00
602.0040, 30279.00
603.1720, 30371.00
604.3400, 30408.00
605.5080, 30306.00
606.6760, 30437.00
607.8440, 30117.00
609.0120, 30487.00
610.1790, 30079.00
611.3460, 30159.00
612.5130, 30240.00
613.6800, 30190.00
614.8470, 30062.00
616.0130, 30010.00
617.1800, 30020.00
618.3460, 29932.37
619.5120, 29951.00
620.6780, 29840.00
621.8440, 29798.00
623.0090, 29742.00
624.1750, 29969.00
625.3400, 29850.00
626.5050, 29929.00
627.6700, 29910.00
628.8350, 29858.00
629.9990, 29885.00
631.1640, 29872.00
632.3280, 30063.00
633.4920, 30037.00
634.6560, 30120.00
635.8200, 30170.00
636.9840, 30203.00
638.1470, 30161.00
639.3100, 30403.00
640.4730, 30219.00
641.6360, 30320.00
642.7990, 30516.00
643.9620, 30489.00
645.1240, 30759.00
646.2870, 30778.00
647.4490, 30735.00
648.6110, 30878.00
649.7730, 30859.00
650.9340, 30966.90
652.0960, 31257.00
653.2570, 31193.00
654.4180, 31331.00
655.5790, 31479.00
656.7400, 31325.00
657.9010, 31492.00
659.0620, 31306.00
660.2220, 31712.00
661.3820, 31481.00
662.5420, 31647.00
663.7020, 32011.00
664.8620, 31658.00
666.0210, 31968.00
667.1810, 32022.00
668.3400, 32177.00
669.4990, 31981.00
670.6580, 31938.00
671.8170, 32182.00
672.9750, 32041.00
674.1340, 32202.00
675.2920, 32205.00
676.4500, 32398.00
677.6080, 32721.00
678.7660, 32757.00
679.9230, 32626.00
681.0810, 32635.00
682.2380, 32489.00
683.3950, 32628.00
684.5520, 32666.00
685.7090, 32493.00
686.8660, 32585.51
688.0220, 32913.00
689.1780, 32620.00
690.3340, 32775.00
691.4900, 32933.00
692.6460, 32703.00
693.8020, 32843.00
694.9570, 33020.00
696.1130, 32880.00
697.2680, 32967.00
698.4230, 33104.00
699.5780, 33043.00
700.7320, 33388.00
701.8870, 33500.00
703.0410, 33652.00
704.1950, 33295.00
705.3490, 33568.00
706.5030, 33632.00
707.6570, 33887.00
708.8110, 34002.00
709.9640, 33909.00
711.1170, 34182.00
712.2700, 34217.00
713.4230, 34169.00
714.5760, 34231.00
715.7280, 34474.00
716.8810, 34262.00
718.0330, 34541.00
719.1850, 34576.00
720.3370, 34555.00
721.4890, 34520.00
722.6400, 34574.00
723.7920, 34711.00
724.9430, 34802.00
726.0940, 34729.00
727.2450, 34844.00
728.3960, 34787.00
729.5460, 34893.00
730.6970, 35051.00
731.8470, 35097.00
732.9970, 35133.00
734.1470, 35324.00
735.2970, 35233.00
736.4460, 35096.00
737.5960, 35455.00
738.7450, 35256.00
739.8940, 35504.00
741.0430, 35344.00
742.1920, 35718.00
743.3410, 35665.00
744.4890, 35666.00
745.6370, 36000.00
746.7850, 36248.00
747.9330, 36371.00
749.0810, 36520.00
750.2290, 36971.00
751.3760, 37011.00
752.5240, 37343.00
753.6710, 37608.00
754.8180, 37746.00
755.9650, 37894.00
757.1110, 38163.00
758.2580, 38759.00
759.4040, 38917.00
760.5510, 39459.00
761.6970, 39952.00
762.8420, 40196.00
763.9880, 40877.00
765.1340, 41234.00
766.2790, 41862.00
767.4240, 42435.00
768.5690, 43004.00
769.7140, 43639.00
770.8590, 44256.00
772.0030, 44436.00
773.1480, 44724.00
774.2920, 44513.00
775.4360, 44569.00
776.5800, 44153.00
777.7240, 43638.00
778.8670, 43392.00
780.0110, 42590.00
781.1540, 41804.00
782.2970, 40991.00
783.4400, 40542.00
784.5830, 39797.00
785.7250, 39492.69
786.8680, 39358.00
788.0100, 39086.00
789.1520, 39037.00
790.2940, 39156.00
791.4360, 38844.00
792.5780, 39090.00
793.7190, 39211.00
794.8600, 38898.00
796.0010, 39306.00
797.1420, 39328.00
798.2830, 39667.00
799.4240, 39693.00
800.5640, 39790.00
801.7050, 40138.00
802.8450, 40441.00
803.9850, 40872.00
805.1250, 41447.00
806.2640, 41624.00
807.4040, 42024.00
808.5430, 42419.00
809.6820, 42066.00
810.8210, 42308.00
811.9600, 41690.00
813.0990, 41515.00
814.2370, 40867.00
815.3760, 40653.00
816.5140, 40254.00
817.6520, 39987.00
818.7900, 39974.00
819.9270, 39920.00
821.0650, 40023.00
822.2020, 39998.00
823.3390, 40190.00
824.4760, 40165.00
825.6130, 40014.00
826.7500, 40430.00
827.8870, 40508.00
829.0230, 40259.00
830.1590, 40263.00
831.2950, 40784.00
832.4310, 40769.00
833.5670, 40685.00
834.7030, 40621.00
835.8380, 40798.00
836.9730, 40958.00
838.1080, 40821.00
839.2430, 41262.00
840.3780, 41242.00
841.5130, 41128.00
842.6470, 41129.00
843.7810, 40949.00
844.9150, 41310.00
846.0490, 41426.00
847.1830, 41702.00
848.3170, 41679.00
849.4500, 41780.00
850.5830, 41657.00
851.7160, 41816.00
852.8490, 42025.00
853.9820, 42152.00
855.1150, 42288.61
856.2470, 42397.00
857.3800, 42508.00
858.5120, 42525.00
859.6440, 42609.00
860.7760, 42642.00
861.9070, 42851.00
863.0390, 42801.00
864.1700, 43001.00
865.3010, 43342.00
866.4320, 43066.00
867.5630, 43352.00
868.6940, 43510.00
869.8240, 43531.00
870.9540, 43354.00
872.0850, 43574.00
873.2150, 43775.00
874.3450, 43484.00
875.4740, 43869.00
876.6040, 44033.00
877.7330, 43930.00
878.8620, 43645.00
879.9910, 43667.00
881.1200, 43624.00
882.2490, 43653.79
883.3770, 43771.91
884.5060, 43907.00
885.6340, 44044.00
886.7620, 44248.00
887.8900, 44356.00
889.0180, 44578.00
890.1450, 44547.00
891.2730, 44518.00
892.4000, 44632.00
893.5270, 44577.00
894.6540, 44880.00
895.7810, 44929.00
896.9070, 45005.48
898.0340, 45281.00
899.1600, 45137.00
900.2860, 45340.00
901.4120, 45385.00
902.5380, 45589.00
903.6630, 45648.00
904.7890, 45911.00
905.9140, 46070.00
907.0390, 46275.00
908.1640, 46270.00
909.2890, 46120.00
910.4130, 46456.00
911.5380, 46144.00
912.6620, 46573.00
913.7860, 46691.00
914.9100, 46610.00
916.0340, 46744.00
917.1580, 46573.00
918.2810, 47222.00
919.4040, 46708.00
920.5280, 47336.00
921.6510, 47226.00
922.7730, 46919.00
923.8960, 47222.00
925.0180, 47408.00
926.1410, 47455.00
927.2630, 47363.00
928.3850, 47881.00
929.5070, 47751.00
930.6280, 47566.00
931.7500, 47875.00
932.8710, 47818.00
933.9920, 48124.00
935.1130, 48091.00
936.2340, 48141.83
937.3550, 48229.00
938.4760, 48384.00
939.5960, 48416.83
940.7160, 48539.96
941.8360, 48581.00
942.9560, 48704.00
944.0760, 48872.00
945.1950, 48898.00
946.3150, 48985.00
947.4340, 49258.00
948.5530, 49606.00
949.6720, 49643.30
950.7900, 49828.00
951.9090, 49835.00
953.0270, 49957.00
954.1460, 50049.00
955.2640, 50074.00
956.3820, 50226.17
957.4990, 50137.00
958.6170, 50563.00
959.7340, 50495.00
960.8520, 50833.00
961.9690, 50892.00
963.0860, 50946.00
964.2020, 50822.00
965.3190, 50888.00
966.4350, 51071.00
967.5520, 51136.00
968.6680, 51360.00
969.7840, 51631.00
970.8990, 51801.00
972.0150, 52004.22
973.1310, 52283.47
974.2460, 52345.00
975.3610, 52715.00
976.4760, 52891.00
977.5910, 53211.46
978.7050, 53406.00
979.8200, 53931.00
980.9340, 54609.00
982.0480, 55059.00
983.1620, 55760.00
984.2760, 56841.00
985.3900, 57848.00
986.5030, 58699.00
987.6160, 59480.00
988.7300, 60474.00
989.8430, 61764.00
990.9550, 62409.00
992.0680, 63650.00
993.1810, 63466.57
994.2930, 63052.00
995.4050, 62346.00
996.5170, 61235.00
997.6290, 59416.00
998.7410, 57993.00
999.8520, 56797.00
1000.964, 56104.00
1002.075, 55390.00
1003.186, 54971.00
1004.297, 55184.00
1005.407, 55106.00
1006.518, 55117.00
1007.628, 54569.00
1008.738, 54485.00
1009.848, 54434.00
1010.958, 54274.00
1012.068, 54136.00
1013.178, 54264.00
1014.287, 54180.00
1015.396, 54103.00
1016.505, 53946.00
1017.614, 54197.00
1018.723, 54083.00
1019.831, 53900.00
1020.940, 54563.00
1022.048, 54532.00
1023.156, 54420.00
1024.264, 54820.00
1025.372, 55279.00
1026.479, 55376.00
1027.587, 55574.00
1028.694, 55654.00
1029.801, 55984.46
1030.908, 56362.61
1032.015, 56693.00
1033.121, 57100.00
1034.228, 57533.00
1035.334, 57468.00
1036.440, 57858.00
1037.546, 58412.00
1038.652, 58641.00
1039.758, 58552.00
1040.863, 58913.00
1041.968, 59420.00
1043.074, 59254.00
1044.178, 59590.00
1045.283, 59506.00
1046.388, 59918.00
1047.492, 60183.00
1048.597, 60436.00
1049.701, 60466.00
1050.805, 60586.00
1051.909, 60992.00
1053.012, 61219.00
1054.116, 61538.00
1055.219, 61826.00
1056.322, 62156.66
1057.425, 62375.00
1058.528, 62917.00
1059.631, 63274.00
1060.733, 63778.00
1061.836, 64026.88
1062.938, 64388.34
1064.040, 64706.14
1065.142, 64970.00
1066.243, 65269.00
1067.345, 65529.00
1068.446, 65801.00
1069.547, 66000.00
1070.648, 66416.00
1071.749, 66409.00
1072.850, 67025.00
1073.951, 66870.00
1075.051, 67147.00
1076.151, 66898.00
1077.251, 66686.00
1078.351, 67273.00
1079.451, 66941.00
1080.550, 67310.00
1081.650, 67612.00
1082.749, 67703.00
1083.848, 67583.00
1084.947, 67939.00
1086.046, 68324.00
1087.144, 69012.00
1088.243, 69093.00
1089.341, 70079.00
1090.439, 70477.00
1091.537, 71112.00
1092.635, 72221.00
1093.732, 73275.00
1094.830, 73591.00
1095.927, 74722.00
1097.024, 75112.00
1098.121, 75339.00
1099.218, 75282.00
1100.314, 74987.00
1101.411, 74991.00
1102.507, 73837.00
1103.603, 73098.00
1104.699, 72729.00
1105.795, 71927.00
1106.890, 71555.00
1107.986, 71930.00
1109.081, 72609.00
1110.176, 73575.00
1111.271, 74652.00
1112.366, 75659.00
1113.461, 76366.00
1114.555, 75706.00
1115.649, 73503.00
1116.744, 71614.00
1117.838, 69801.00
1118.931, 68684.00
1120.025, 67995.00
1121.119, 67612.00
1122.212, 67585.00
1123.305, 67329.00
1124.398, 67366.00
1125.491, 67572.00
1126.584, 67474.00
1127.676, 68003.00
1128.768, 67555.00
1129.861, 67773.00
1130.953, 68215.00
1132.044, 68186.00
1133.136, 68133.00
1134.228, 68257.00
1135.319, 68514.00
1136.410, 68544.00
1137.501, 68155.00
1138.592, 68744.00
1139.683, 68622.00
1140.773, 69165.00
1141.864, 68400.00
1142.954, 68777.00
1144.044, 68788.00
1145.134, 68778.00
1146.224, 69062.00
1147.313, 69187.00
1148.402, 69338.00
1149.492, 69250.00
1150.581, 69362.00
1151.670, 69585.00
1152.758, 69734.00
1153.847, 70049.00
1154.935, 69485.00
1156.024, 70244.00
1157.112, 70031.00
1158.200, 70338.00
1159.287, 70489.00
1160.375, 70387.00
1161.462, 70919.00
1162.550, 71181.00
1163.637, 70953.00
1164.724, 71121.46
1165.810, 71430.02
1166.897, 71666.85
1167.983, 71835.61
1169.070, 71732.92
1170.156, 71980.77
1171.242, 72088.09
1172.327, 72189.52
1173.413, 72486.72
1174.499, 72423.41
1175.584, 72717.38
1176.669, 72868.66
1177.754, 73085.27
1178.839, 73160.46
1179.923, 73279.20
1181.008, 73539.51
1182.092, 73481.00
1183.176, 73524.00
1184.260, 73870.00
1185.344, 74342.00
1186.428, 74390.00
1187.511, 74598.00
1188.595, 74629.00
1189.678, 74891.00
1190.761, 75165.00
1191.843, 75128.00
1192.926, 75130.00
1194.009, 75502.00
1195.091, 76019.00
1196.173, 76074.00
1197.255, 76665.00
1198.337, 76908.00
1199.419, 77073.00
1200.500, 77088.00
1201.582, 77247.00
1202.663, 77365.00
1203.744, 77524.00
1204.825, 77415.00
1205.905, 77517.00
1206.986, 77493.29
1208.066, 77752.00
1209.146, 77409.00
1210.226, 77720.00
1211.306, 77629.00
1212.386, 77805.00
1213.466, 77913.00
1214.545, 78196.00
1215.624, 78146.00
1216.703, 78000.00
1217.782, 78242.23
1218.861, 78300.00
1219.939, 78493.18
1221.018, 78775.68
1222.096, 78986.24
1223.174, 79128.83
1224.252, 78999.88
1225.330, 79221.56
1226.407, 79302.62
1227.485, 79378.02
1228.562, 79648.95
1229.639, 79559.38
1230.716, 79827.20
1231.793, 79952.35
1232.869, 80142.70
1233.946, 80191.77
1235.022, 80284.38
1236.098, 80268.43
1237.174, 80371.73
1238.250, 80540.00
1239.325, 80600.00
1240.401, 80836.00
1241.476, 80863.00
1242.551, 81085.00
1243.626, 81283.00
1244.701, 81244.00
1245.776, 81731.00
1246.850, 81728.00
1247.924, 81905.00
1248.999, 81929.00
1250.073, 82400.00
1251.146, 82514.00
1252.220, 82737.00
1253.293, 82410.00
1254.367, 82327.00
1255.440, 82656.00
1256.513, 83122.00
1257.586, 83388.00
1258.658, 83793.00
1259.731, 83826.00
1260.803, 83653.00
1261.875, 83873.00
1262.947, 84198.00
1264.019, 84479.00
1265.091, 84616.00
1266.162, 84800.55
1267.234, 84870.00
1268.305, 85015.00
1269.376, 85094.00
1270.447, 85211.00
1271.517, 85432.00
1272.588, 86021.00
