##NAMES=Marialite
##RRUFFID=R060458
##IDEAL CHEMISTRY=Na_4_Al_3_Si_9_O_24_Cl
##LOCALITY=Dading, Nepal
##OWNER=RRUFF
##SOURCE=Michael Scott
##DESCRIPTION=Colorless elongated prism
##STATUS=The identification of this mineral has been confirmed by X-ray diffraction and chemical analysis
##URL=rruff.info/R060458
##MEASURED CHEMISTRY=(Na_0.52_Ca_0.47_K_0.01_)_4_(Al_0.36_Si_0.64_)_12_O_24_(Cl_0.44_(CO_3_)_0.56_)
##PIN_ID=L01838
##ORIENTATION=Laser parallel to a* (1 0 0). Fiducial mark perpendicular to laser is parallel to -c [0 0 -1]
115.5200, 25031.00
116.7530, 26230.00
117.9870, 27082.00
119.2200, 27804.00
120.4530, 30585.00
121.6860, 31597.00
122.9190, 31484.00
124.1520, 31334.00
125.3850, 30648.00
126.6170, 30475.00
127.8490, 30564.00
129.0810, 31247.00
130.3130, 32071.00
131.5450, 32674.00
132.7770, 32802.00
134.0080, 33191.00
135.2390, 33307.00
136.4710, 33496.00
137.7020, 33151.00
138.9320, 33088.45
140.1630, 32807.68
141.3930, 32563.00
142.6240, 32161.00
143.8540, 31908.00
145.0840, 31690.00
146.3140, 30868.00
147.5440, 30119.00
148.7730, 29414.00
150.0020, 28309.00
151.2320, 27437.00
152.4610, 26817.00
153.6900, 26020.00
154.9180, 25391.00
156.1470, 24933.00
157.3750, 24552.00
158.6040, 24113.00
159.8320, 23683.00
161.0600, 23578.00
162.2870, 23521.00
163.5150, 23400.00
164.7420, 22980.00
165.9700, 22693.00
167.1970, 22259.00
168.4240, 21858.00
169.6510, 21266.00
170.8770, 20972.00
172.1040, 20201.00
173.3300, 19858.00
174.5560, 19638.00
175.7820, 19171.00
177.0080, 18928.00
178.2340, 18698.00
179.4590, 18526.00
180.6850, 18415.00
181.9100, 18617.00
183.1350, 18614.00
184.3600, 18924.00
185.5850, 18968.00
186.8090, 19496.00
188.0340, 19593.00
189.2580, 19778.00
190.4820, 20272.00
191.7060, 20233.00
192.9300, 20478.00
194.1530, 20740.00
195.3770, 20883.00
196.6000, 20912.00
197.8230, 20926.00
199.0460, 20842.00
200.2690, 20824.00
201.4910, 20757.00
202.7140, 20456.00
203.9360, 20373.00
205.1580, 20437.00
206.3800, 20185.00
207.6020, 20209.00
208.8240, 20074.00
210.0450, 20278.00
211.2670, 20374.00
212.4880, 20345.00
213.7090, 20680.28
214.9300, 20706.00
216.1510, 21186.00
217.3710, 21322.00
218.5920, 21432.00
219.8120, 21802.00
221.0320, 22746.00
222.2520, 23936.00
223.4720, 23567.00
224.6910, 24217.00
225.9110, 24785.00
227.1300, 24765.00
228.3490, 25194.00
229.5680, 24514.00
230.7870, 24459.00
232.0050, 24307.00
233.2240, 24200.00
234.4420, 23605.00
235.6600, 23287.00
236.8780, 23212.00
238.0960, 22869.00
239.3140, 22779.00
240.5310, 22598.00
241.7490, 23662.00
242.9660, 23611.00
244.1830, 24862.00
245.4000, 24071.00
246.6160, 24848.00
247.8330, 25825.00
249.0490, 26857.00
250.2660, 28424.00
251.4820, 30299.00
252.6980, 32338.00
253.9130, 34737.00
255.1290, 37278.00
256.3440, 40216.00
257.5600, 43707.00
258.7750, 46480.00
259.9900, 50023.00
261.2040, 52473.00
262.4190, 53985.00
263.6330, 53706.00
264.8480, 52291.00
266.0620, 49416.00
267.2760, 45863.00
268.4900, 41975.00
269.7030, 38251.00
270.9170, 34304.00
272.1300, 31481.00
273.3430, 28897.00
274.5560, 26517.00
275.7690, 24717.00
276.9820, 23192.00
278.1940, 22195.00
279.4070, 21310.00
280.6190, 20592.00
281.8310, 20210.00
283.0430, 19991.00
284.2550, 19937.00
285.4660, 20092.00
286.6770, 20234.00
287.8890, 20861.00
289.1000, 21650.00
290.3110, 22587.00
291.5210, 23850.00
292.7320, 25937.00
293.9420, 28314.00
295.1530, 30920.00
296.3630, 32558.00
297.5730, 32962.00
298.7830, 31645.00
299.9920, 28992.00
301.2020, 26386.00
302.4110, 23466.00
303.6200, 21332.00
304.8290, 19638.00
306.0380, 18681.00
307.2470, 17681.00
308.4550, 17057.00
309.6630, 16419.00
310.8720, 16092.00
312.0800, 15785.00
313.2880, 15699.00
314.4950, 15385.00
315.7030, 15320.00
316.9100, 15247.00
318.1170, 15070.00
319.3240, 15002.00
320.5310, 14759.00
321.7380, 14683.00
322.9450, 14677.00
324.1510, 14708.00
325.3570, 14818.00
326.5630, 14734.00
327.7690, 14354.00
328.9750, 14514.00
330.1810, 14510.00
331.3860, 14534.00
332.5910, 14725.00
333.7960, 14599.00
335.0010, 14765.00
336.2060, 15050.00
337.4110, 15091.00
338.6150, 15416.00
339.8200, 15713.00
341.0240, 16073.00
342.2280, 16383.00
343.4320, 16909.00
344.6350, 17223.00
345.8390, 17656.00
347.0420, 18450.00
348.2450, 18899.00
349.4480, 19675.00
350.6510, 20395.00
351.8540, 21104.00
353.0560, 22107.00
354.2590, 23077.00
355.4610, 24209.00
356.6630, 25444.00
357.8650, 26470.00
359.0670, 27123.00
360.2680, 27838.00
361.4700, 27570.00
362.6710, 27135.00
363.8720, 25834.00
365.0730, 24966.00
366.2740, 23528.00
367.4740, 22349.00
368.6750, 21552.00
369.8750, 20771.00
371.0750, 20220.00
372.2750, 20076.00
373.4750, 20067.00
374.6740, 19869.00
375.8740, 19847.00
377.0730, 19855.00
378.2720, 19663.00
379.4710, 19717.00
380.6700, 19718.00
381.8690, 19270.00
383.0670, 19297.00
384.2660, 19063.00
385.4640, 18826.00
386.6620, 18466.00
387.8600, 18350.00
389.0570, 18024.00
390.2550, 17776.00
391.4520, 17608.00
392.6490, 17506.00
393.8460, 17362.00
395.0430, 17287.00
396.2400, 17060.00
397.4370, 16726.00
398.6330, 16717.00
399.8290, 16645.00
401.0250, 16872.00
402.2210, 16810.00
403.4170, 17015.00
404.6130, 17117.00
405.8080, 17349.00
407.0030, 17719.00
408.1980, 18376.00
409.3930, 18684.00
410.5880, 19470.00
411.7830, 20170.00
412.9770, 21275.00
414.1720, 22441.55
415.3660, 23595.00
416.5600, 25240.00
417.7530, 27041.00
418.9470, 28703.00
420.1410, 30508.00
421.3340, 31193.00
422.5270, 31083.00
423.7200, 29968.00
424.9130, 28519.00
426.1060, 26396.00
427.2980, 24301.00
428.4900, 22940.00
429.6830, 21658.00
430.8750, 20941.00
432.0670, 20298.00
433.2580, 20512.00
434.4500, 20609.00
435.6410, 21038.00
436.8320, 21541.00
438.0240, 22502.00
439.2140, 23263.00
440.4050, 24346.00
441.5960, 25814.00
442.7860, 27214.00
443.9760, 28955.00
445.1670, 30611.00
446.3560, 32911.00
447.5460, 35296.00
448.7360, 38176.00
449.9250, 41712.00
451.1150, 46129.00
452.3040, 50017.00
453.4930, 53266.00
454.6810, 55028.00
455.8700, 56418.00
457.0590, 56503.00
458.2470, 56216.00
459.4350, 55510.00
460.6230, 55138.00
461.8110, 54137.00
462.9980, 52323.00
464.1860, 49874.00
465.3730, 47316.00
466.5600, 44086.00
467.7470, 40409.00
468.9340, 37575.00
470.1210, 34521.00
471.3080, 32051.00
472.4940, 29957.00
473.6800, 28370.00
474.8660, 26782.00
476.0520, 25406.00
477.2380, 24638.00
478.4230, 23647.00
479.6090, 22805.00
480.7940, 21963.00
481.9790, 21228.84
483.1640, 20661.00
484.3490, 20024.00
485.5330, 19406.00
486.7180, 19101.00
487.9020, 18501.00
489.0860, 18139.00
490.2700, 17975.00
491.4540, 17664.00
492.6370, 17765.00
493.8210, 17322.00
495.0040, 17470.00
496.1870, 17400.00
497.3700, 17222.00
498.5530, 17122.00
499.7360, 17207.00
500.9180, 17164.00
502.1000, 17120.00
503.2830, 17138.00
504.4650, 17141.00
505.6460, 17218.00
506.8280, 17016.00
508.0100, 17274.00
509.1910, 17348.00
510.3720, 17170.00
511.5530, 17613.00
512.7340, 17976.00
513.9150, 18189.00
515.0950, 18441.00
516.2760, 19003.00
517.4560, 19546.00
518.6360, 20254.00
519.8160, 21111.00
520.9950, 22267.00
522.1750, 23776.00
523.3540, 25448.00
524.5340, 27738.00
525.7130, 30496.00
526.8920, 33522.00
528.0700, 37438.00
529.2490, 41760.00
530.4270, 47403.00
531.6060, 53293.00
532.7840, 59737.00
533.9620, 65975.00
535.1390, 69848.00
536.3170, 70348.00
537.4940, 68249.00
538.6720, 63356.00
539.8490, 57460.00
541.0260, 51581.00
542.2030, 45531.00
543.3790, 42472.00
544.5560, 36496.00
545.7320, 32847.00
546.9080, 30343.00
548.0840, 28050.00
549.2600, 26060.00
550.4360, 24669.00
551.6110, 23547.00
552.7860, 22514.00
553.9620, 21988.00
555.1370, 21261.00
556.3110, 20612.00
557.4860, 20047.00
558.6610, 19962.00
559.8350, 19731.00
561.0090, 19400.00
562.1830, 19098.00
563.3570, 19103.00
564.5310, 19067.00
565.7040, 19021.00
566.8780, 18935.00
568.0510, 18862.00
569.2240, 18820.00
570.3970, 18934.00
571.5700, 18790.00
572.7420, 18774.00
573.9150, 18939.00
575.0870, 18971.00
576.2590, 18885.00
577.4310, 18934.00
578.6030, 18741.00
579.7740, 18881.00
580.9460, 18792.00
582.1170, 18872.00
583.2880, 18790.00
584.4590, 19111.00
585.6300, 18951.00
586.8010, 18902.00
587.9710, 19040.00
589.1410, 18853.00
590.3110, 19131.00
591.4810, 19019.00
592.6510, 18950.00
593.8210, 18878.00
594.9900, 18941.00
596.1600, 18914.88
597.3290, 18872.00
598.4980, 18947.00
599.6670, 18891.00
600.8350, 18846.00
602.0040, 18650.00
603.1720, 18947.00
604.3400, 18754.00
605.5080, 18808.00
606.6760, 18806.00
607.8440, 18925.00
609.0120, 18956.00
610.1790, 18936.00
611.3460, 18968.00
612.5130, 19098.00
613.6800, 19012.00
614.8470, 19293.00
616.0130, 19176.00
617.1800, 19467.00
618.3460, 19668.00
619.5120, 19904.00
620.6780, 20073.00
621.8440, 20209.00
623.0090, 20307.00
624.1750, 20365.00
625.3400, 20588.00
626.5050, 20462.00
627.6700, 20447.00
628.8350, 20334.00
629.9990, 20123.00
631.1640, 20195.00
632.3280, 20099.00
633.4920, 20077.00
634.6560, 20087.00
635.8200, 20021.00
636.9840, 20200.00
638.1470, 20098.00
639.3100, 20438.00
640.4730, 20360.00
641.6360, 20615.00
642.7990, 20768.00
643.9620, 20919.00
645.1240, 20981.00
646.2870, 21035.00
647.4490, 21343.00
648.6110, 21312.00
649.7730, 21169.00
650.9340, 21399.00
652.0960, 21216.00
653.2570, 21232.00
654.4180, 21210.00
655.5790, 21132.06
656.7400, 21149.00
657.9010, 21108.00
659.0620, 21103.00
660.2220, 21203.00
661.3820, 21238.00
662.5420, 21229.00
663.7020, 21234.00
664.8620, 21278.00
666.0210, 21180.00
667.1810, 21084.00
668.3400, 21124.00
669.4990, 21106.00
670.6580, 21215.00
671.8170, 21173.00
672.9750, 21026.00
674.1340, 21243.00
675.2920, 21197.00
676.4500, 21412.00
677.6080, 21393.00
678.7660, 21448.00
679.9230, 21501.00
681.0810, 21563.00
682.2380, 21573.00
683.3950, 21520.00
684.5520, 21734.00
685.7090, 21814.00
686.8660, 21659.00
688.0220, 21834.00
689.1780, 22127.00
690.3340, 22153.00
691.4900, 22308.00
692.6460, 22211.00
693.8020, 22487.00
694.9570, 22702.00
696.1130, 22704.00
697.2680, 22872.00
698.4230, 22956.00
699.5780, 23225.00
700.7320, 23640.00
701.8870, 23555.00
703.0410, 24031.00
704.1950, 23711.00
705.3490, 24261.00
706.5030, 24195.00
707.6570, 24470.00
708.8110, 24595.00
709.9640, 24860.00
711.1170, 25120.00
712.2700, 24840.00
713.4230, 25615.00
714.5760, 25111.00
715.7280, 25034.00
716.8810, 25269.00
718.0330, 25104.00
719.1850, 25144.00
720.3370, 25254.00
721.4890, 25302.00
722.6400, 25360.00
723.7920, 25454.00
724.9430, 25618.00
726.0940, 25713.94
727.2450, 25914.00
728.3960, 25959.00
729.5460, 26141.00
730.6970, 26218.00
731.8470, 26411.00
732.9970, 26325.00
734.1470, 26516.00
735.2970, 26671.00
736.4460, 26864.00
737.5960, 27197.00
738.7450, 27452.00
739.8940, 27627.00
741.0430, 27867.00
742.1920, 28262.00
743.3410, 28619.00
744.4890, 28933.00
745.6370, 29448.00
746.7850, 29946.00
747.9330, 30548.26
749.0810, 31230.00
750.2290, 31933.00
751.3760, 32845.00
752.5240, 33636.00
753.6710, 34692.00
754.8180, 35854.00
755.9650, 36876.00
757.1110, 38471.00
758.2580, 39717.00
759.4040, 41315.00
760.5510, 42822.00
761.6970, 44872.00
762.8420, 46881.00
763.9880, 49017.00
765.1340, 50929.00
766.2790, 53265.00
767.4240, 54742.00
768.5690, 56001.00
769.7140, 56980.00
770.8590, 57345.00
772.0030, 56794.00
773.1480, 55705.00
774.2920, 53678.00
775.4360, 51652.00
776.5800, 49010.00
777.7240, 45808.00
778.8670, 42918.00
780.0110, 40321.00
781.1540, 37962.00
782.2970, 35854.00
783.4400, 34136.01
784.5830, 32516.00
785.7250, 31480.00
786.8680, 30678.00
788.0100, 29991.00
789.1520, 29285.00
790.2940, 28735.00
791.4360, 28365.72
792.5780, 28301.00
793.7190, 27909.00
794.8600, 27996.00
796.0010, 27999.00
797.1420, 27903.00
798.2830, 27629.00
799.4240, 27595.00
800.5640, 27542.00
801.7050, 27434.00
802.8450, 27497.00
803.9850, 27461.00
805.1250, 27516.00
806.2640, 27327.00
807.4040, 27172.00
808.5430, 27284.00
809.6820, 27311.00
810.8210, 27576.00
811.9600, 27675.00
813.0990, 27596.00
814.2370, 27532.00
815.3760, 27755.00
816.5140, 27703.00
817.6520, 27759.37
818.7900, 27638.00
819.9270, 27811.00
821.0650, 27801.00
822.2020, 27809.00
823.3390, 27960.00
824.4760, 28096.00
825.6130, 28091.00
826.7500, 28373.00
827.8870, 28220.00
829.0230, 28167.00
830.1590, 28393.00
831.2950, 28258.00
832.4310, 28407.00
833.5670, 28385.00
834.7030, 28608.00
835.8380, 28766.00
836.9730, 28772.00
838.1080, 28784.00
839.2430, 28802.00
840.3780, 28919.00
841.5130, 29034.00
842.6470, 29225.00
843.7810, 29292.93
844.9150, 29338.00
846.0490, 29429.00
847.1830, 29479.00
848.3170, 29452.00
849.4500, 29773.00
850.5830, 29672.00
851.7160, 29958.00
852.8490, 29832.00
853.9820, 29893.00
855.1150, 30106.00
856.2470, 30332.00
857.3800, 30546.00
858.5120, 30670.00
859.6440, 30900.00
860.7760, 30733.00
861.9070, 30978.00
863.0390, 31708.00
864.1700, 32711.00
865.3010, 32338.00
866.4320, 31733.00
867.5630, 32464.00
868.6940, 31207.00
869.8240, 30766.00
870.9540, 30817.00
872.0850, 30601.00
873.2150, 30825.00
874.3450, 30736.00
875.4740, 30770.00
876.6040, 31050.00
877.7330, 30834.00
878.8620, 31443.00
879.9910, 31210.00
881.1200, 31366.00
882.2490, 31242.00
883.3770, 31315.00
884.5060, 31403.00
885.6340, 31384.00
886.7620, 31552.36
887.8900, 31707.00
889.0180, 31735.00
890.1450, 31738.00
891.2730, 31842.18
892.4000, 31735.00
893.5270, 32015.00
894.6540, 32073.00
895.7810, 32262.00
896.9070, 32198.00
898.0340, 32227.00
899.1600, 32378.00
900.2860, 32460.00
901.4120, 32575.00
902.5380, 32646.29
903.6630, 32470.00
904.7890, 32749.00
905.9140, 32726.00
907.0390, 32737.00
908.1640, 32941.00
909.2890, 32935.00
910.4130, 32971.00
911.5380, 32986.00
912.6620, 33004.00
913.7860, 33069.96
914.9100, 33056.00
916.0340, 33253.00
917.1580, 33290.00
918.2810, 33486.00
919.4040, 33195.00
920.5280, 33517.00
921.6510, 33377.00
922.7730, 33445.00
923.8960, 33497.00
925.0180, 33636.00
926.1410, 33742.00
927.2630, 33711.00
928.3850, 33831.00
929.5070, 34077.00
930.6280, 34524.00
931.7500, 34478.00
932.8710, 34192.00
933.9920, 34489.00
935.1130, 34360.00
936.2340, 34508.00
937.3550, 34861.00
938.4760, 34757.00
939.5960, 35096.00
940.7160, 34980.00
941.8360, 35081.00
942.9560, 35167.00
944.0760, 35438.00
945.1950, 35508.00
946.3150, 35422.00
947.4340, 35899.00
948.5530, 35519.00
949.6720, 36069.00
950.7900, 35962.00
951.9090, 36293.00
953.0270, 36263.00
954.1460, 36549.00
955.2640, 36577.00
956.3820, 36648.00
957.4990, 36626.00
958.6170, 36543.00
959.7340, 37039.00
960.8520, 36999.00
961.9690, 37184.00
963.0860, 37138.00
964.2020, 37411.00
965.3190, 37542.00
966.4350, 37652.00
967.5520, 37544.00
968.6680, 37613.00
969.7840, 37721.00
970.8990, 37817.00
972.0150, 37689.00
973.1310, 38204.00
974.2460, 38229.00
975.3610, 38125.00
976.4760, 38602.00
977.5910, 38444.00
978.7050, 38713.00
979.8200, 38753.00
980.9340, 38976.00
982.0480, 39013.00
983.1620, 39484.00
984.2760, 39667.00
985.3900, 39679.00
986.5030, 40241.00
987.6160, 40577.00
988.7300, 40796.00
989.8430, 40773.00
990.9550, 41066.00
992.0680, 41402.00
993.1810, 41619.00
994.2930, 41853.00
995.4050, 41887.00
996.5170, 42727.00
997.6290, 42758.00
998.7410, 43308.00
999.8520, 43845.00
1000.964, 44047.00
1002.075, 44259.74
1003.186, 44129.00
1004.297, 44246.00
1005.407, 43949.00
1006.518, 43698.00
1007.628, 43458.00
1008.738, 43394.00
1009.848, 43322.60
1010.958, 43342.01
1012.068, 43434.00
1013.178, 43584.00
1014.287, 43809.00
1015.396, 44092.00
1016.505, 44310.15
1017.614, 44401.00
1018.723, 44718.00
1019.831, 44583.00
1020.940, 44497.00
1022.048, 44563.00
1023.156, 45049.00
1024.264, 45322.00
1025.372, 45328.00
1026.479, 45671.00
1027.587, 45847.00
1028.694, 46345.00
1029.801, 46870.00
1030.908, 46904.00
1032.015, 47273.00
1033.121, 47340.00
1034.228, 48030.00
1035.334, 47742.00
1036.440, 48362.00
1037.546, 48416.00
1038.652, 48573.00
1039.758, 48786.00
1040.863, 48938.00
1041.968, 49205.00
1043.074, 49148.00
1044.178, 49445.00
1045.283, 49536.00
1046.388, 49637.00
1047.492, 49797.00
1048.597, 49932.00
1049.701, 50154.49
1050.805, 50666.00
1051.909, 50660.00
1053.012, 50797.00
1054.116, 51092.00
1055.219, 50975.00
1056.322, 51306.00
1057.425, 51632.00
1058.528, 51888.00
1059.631, 52277.00
1060.733, 52650.00
1061.836, 53002.00
1062.938, 53543.00
1064.040, 54074.00
1065.142, 54589.00
1066.243, 54680.00
1067.345, 55701.00
1068.446, 55899.00
1069.547, 56332.00
1070.648, 57081.00
1071.749, 57508.00
1072.850, 58404.00
1073.951, 58968.00
1075.051, 59713.00
1076.151, 60111.00
1077.251, 60773.00
1078.351, 61110.00
1079.451, 61594.00
1080.550, 62365.00
1081.650, 62819.00
1082.749, 63366.00
1083.848, 64068.00
1084.947, 64387.00
1086.046, 65038.00
1087.144, 65245.00
1088.243, 65452.37
1089.341, 66869.64
1090.439, 67951.15
1091.537, 68703.02
1092.635, 68794.60
1093.732, 69236.34
1094.830, 69230.95
1095.927, 68997.23
1097.024, 68862.44
1098.121, 67923.32
1099.218, 67345.83
1100.314, 66221.00
1101.411, 65437.00
1102.507, 64083.00
1103.603, 63025.00
1104.699, 61993.00
1105.795, 61916.00
1106.890, 61115.00
1107.986, 60324.00
1109.081, 59766.00
1110.176, 59217.00
1111.271, 58475.00
1112.366, 58120.00
1113.461, 56727.00
1114.555, 56344.00
1115.649, 55759.00
1116.744, 55383.00
1117.838, 55067.00
1118.931, 55538.00
1120.025, 55020.23
1121.119, 55250.00
1122.212, 54692.00
1123.305, 54699.00
1124.398, 54846.00
1125.491, 54960.00
1126.584, 54889.57
1127.676, 55167.00
1128.768, 54992.00
1129.861, 55115.31
1130.953, 55068.00
1132.044, 55047.00
1133.136, 55060.00
1134.228, 54652.00
1135.319, 54836.00
1136.410, 54529.00
1137.501, 53955.00
1138.592, 54404.00
1139.683, 53844.00
1140.773, 53973.00
1141.864, 53850.00
1142.954, 53613.00
1144.044, 54194.00
1145.134, 53598.00
1146.224, 53903.00
1147.313, 53543.00
1148.402, 53815.00
1149.492, 53762.00
1150.581, 53569.00
1151.670, 54035.00
1152.758, 54026.00
1153.847, 54304.00
1154.935, 54447.00
1156.024, 54385.00
1157.112, 54650.00
1158.200, 54434.00
1159.287, 54768.00
1160.375, 54974.00
1161.462, 54802.00
1162.550, 55108.00
1163.637, 54923.00
1164.724, 55444.00
1165.810, 55525.00
1166.897, 55385.00
1167.983, 55670.00
1169.070, 55744.00
1170.156, 55619.00
1171.242, 56087.00
1172.327, 56350.00
1173.413, 56150.00
1174.499, 56348.00
1175.584, 56628.00
1176.669, 56633.00
1177.754, 56708.00
1178.839, 56834.00
1179.923, 56948.00
1181.008, 57160.00
1182.092, 57240.00
1183.176, 57707.00
1184.260, 57240.00
1185.344, 57657.00
1186.428, 57740.00
1187.511, 58293.00
1188.595, 58160.00
1189.678, 58228.00
1190.761, 58581.00
1191.843, 58388.00
1192.926, 58636.00
1194.009, 58617.00
1195.091, 58637.00
1196.173, 59105.00
1197.255, 58913.00
1198.337, 59206.00
1199.419, 59667.00
1200.500, 59682.00
1201.582, 59881.00
1202.663, 59540.00
1203.744, 59931.00
1204.825, 60232.00
1205.905, 59640.00
1206.986, 60121.00
1208.066, 60519.00
1209.146, 60318.00
1210.226, 60888.00
1211.306, 60402.00
1212.386, 60985.00
1213.466, 60814.00
1214.545, 61204.00
1215.624, 60946.00
1216.703, 61438.00
1217.782, 61536.00
1218.861, 61743.00
1219.939, 61994.00
1221.018, 61664.00
1222.096, 61745.00
1223.174, 61983.00
1224.252, 62030.00
1225.330, 62310.00
1226.407, 62307.00
1227.485, 62565.00
1228.562, 62479.00
1229.639, 62709.00
1230.716, 63034.00
1231.793, 62990.00
1232.869, 63113.00
1233.946, 63552.00
1235.022, 63500.00
1236.098, 63624.00
1237.174, 63788.00
1238.250, 64267.00
1239.325, 64008.00
1240.401, 64654.00
1241.476, 64570.00
1242.551, 64611.00
1243.626, 64884.00
1244.701, 64872.90
1245.776, 65236.00
1246.850, 65156.00
1247.924, 65286.00
1248.999, 65565.00
1250.073, 66003.00
1251.146, 65814.00
1252.220, 65901.00
1253.293, 66088.00
1254.367, 66625.00
1255.440, 66486.00
1256.513, 67003.00
1257.586, 66755.00
1258.658, 67109.00
1259.731, 67208.00
1260.803, 67604.00
1261.875, 68320.00
1262.947, 67973.00
1264.019, 68061.00
1265.091, 68588.00
1266.162, 68126.00
1267.234, 68733.00
1268.305, 68872.00
1269.376, 69159.00
1270.447, 69165.00
1271.517, 69252.00
1272.588, 69342.00
1273.658, 69291.00
1274.729, 69524.73
1275.799, 69898.00
1276.868, 70006.00
1277.938, 69812.00
1279.008, 70190.00
1280.077, 70719.00
1281.146, 70875.00
1282.215, 70584.00
1283.284, 70834.00
1284.353, 70529.00
1285.421, 71188.00
1286.490, 70772.00
1287.558, 71149.00
1288.626, 71623.00
1289.694, 71429.00
1290.762, 71862.00
1291.829, 71841.00
1292.897, 72124.00
