##NAMES=Marialite
##RRUFFID=R060458
##IDEAL CHEMISTRY=Na_4_Al_3_Si_9_O_24_Cl
##LOCALITY=Dading, Nepal
##OWNER=RRUFF
##SOURCE=Michael Scott
##DESCRIPTION=Colorless elongated prism
##STATUS=The identification of this mineral has been confirmed by X-ray diffraction and chemical analysis
##URL=rruff.info/R060458
##MEASURED CHEMISTRY=(Na_0.52_Ca_0.47_K_0.01_)_4_(Al_0.36_Si_0.64_)_12_O_24_(Cl_0.44_(CO_3_)_0.56_)
##PIN_ID=L01838
##ORIENTATION=Laser parallel to a* (1 0 0). Fiducial mark perpendicular to laser is parallel to -c [0 0 -1]
115.5200, 31992.00
116.7530, 31779.00
117.9870, 31601.00
119.2200, 32261.00
120.4530, 33966.00
121.6860, 34547.00
122.9190, 34044.00
124.1520, 33371.00
125.3850, 33829.00
126.6170, 33189.40
127.8490, 32601.00
129.0810, 32756.00
130.3130, 32867.00
131.5450, 32926.00
132.7770, 32768.00
134.0080, 32882.00
135.2390, 32451.00
136.4710, 32591.00
137.7020, 32597.00
138.9320, 32115.00
140.1630, 31737.00
141.3930, 31752.00
142.6240, 31652.00
143.8540, 31481.00
145.0840, 31456.00
146.3140, 31323.00
147.5440, 31322.00
148.7730, 31451.00
150.0020, 31758.00
151.2320, 31872.00
152.4610, 32254.00
153.6900, 32714.00
154.9180, 33470.00
156.1470, 33968.00
157.3750, 34657.00
158.6040, 35181.00
159.8320, 35895.00
161.0600, 35821.00
162.2870, 35997.00
163.5150, 35876.00
164.7420, 35446.00
165.9700, 34849.00
167.1970, 33721.00
168.4240, 32782.00
169.6510, 31565.00
170.8770, 30677.00
172.1040, 29476.00
173.3300, 28505.00
174.5560, 27600.00
175.7820, 26900.74
177.0080, 26444.00
178.2340, 25841.00
179.4590, 25558.00
180.6850, 25197.00
181.9100, 25241.00
183.1350, 25201.00
184.3600, 25165.00
185.5850, 25184.00
186.8090, 25340.00
188.0340, 25587.00
189.2580, 25895.00
190.4820, 25834.00
191.7060, 26082.00
192.9300, 26091.00
194.1530, 25829.00
195.3770, 25904.00
196.6000, 25603.00
197.8230, 25339.00
199.0460, 25510.00
200.2690, 25129.00
201.4910, 24756.00
202.7140, 24738.00
203.9360, 24560.00
205.1580, 24121.00
206.3800, 24069.00
207.6020, 24081.00
208.8240, 23819.00
210.0450, 23901.00
211.2670, 23615.00
212.4880, 23695.00
213.7090, 23862.00
214.9300, 23760.00
216.1510, 23892.78
217.3710, 24068.00
218.5920, 24028.00
219.8120, 24262.00
221.0320, 24386.00
222.2520, 24315.00
223.4720, 24439.00
224.6910, 24543.00
225.9110, 24798.00
227.1300, 24651.00
228.3490, 24674.00
229.5680, 24610.00
230.7870, 24283.00
232.0050, 24058.00
233.2240, 23800.00
234.4420, 23363.00
235.6600, 23124.00
236.8780, 22949.00
238.0960, 22737.00
239.3140, 22208.00
240.5310, 22389.00
241.7490, 22205.00
242.9660, 22332.00
244.1830, 22486.00
245.4000, 22756.00
246.6160, 22994.00
247.8330, 23426.00
249.0490, 23906.00
250.2660, 24633.92
251.4820, 25494.00
252.6980, 26501.00
253.9130, 27661.00
255.1290, 28988.00
256.3440, 30294.00
257.5600, 31742.00
258.7750, 33275.00
259.9900, 34751.00
261.2040, 35716.00
262.4190, 36485.00
263.6330, 36310.00
264.8480, 35406.00
266.0620, 34310.00
267.2760, 32402.00
268.4900, 30563.00
269.7030, 28577.00
270.9170, 27196.00
272.1300, 25398.00
273.3430, 24221.00
274.5560, 23100.00
275.7690, 22612.00
276.9820, 21829.00
278.1940, 21255.00
279.4070, 20953.00
280.6190, 20983.00
281.8310, 20831.00
283.0430, 21059.00
284.2550, 21018.00
285.4660, 21317.00
286.6770, 21632.00
287.8890, 22113.00
289.1000, 22529.00
290.3110, 22977.00
291.5210, 23721.00
292.7320, 24228.00
293.9420, 24961.00
295.1530, 25783.00
296.3630, 26370.00
297.5730, 26135.00
298.7830, 25376.00
299.9920, 24159.00
301.2020, 22590.00
302.4110, 21371.00
303.6200, 20522.00
304.8290, 19548.00
306.0380, 19039.00
307.2470, 18512.00
308.4550, 18094.00
309.6630, 17796.00
310.8720, 17714.00
312.0800, 17582.00
313.2880, 17466.00
314.4950, 17587.00
315.7030, 17431.00
316.9100, 17404.00
318.1170, 17537.00
319.3240, 17449.00
320.5310, 17601.00
321.7380, 17610.00
322.9450, 17620.00
324.1510, 17639.00
325.3570, 17736.00
326.5630, 18042.00
327.7690, 18170.00
328.9750, 18096.00
330.1810, 18358.00
331.3860, 18384.00
332.5910, 18593.00
333.7960, 18783.00
335.0010, 19013.00
336.2060, 19221.00
337.4110, 19270.00
338.6150, 19393.00
339.8200, 19309.00
341.0240, 19597.00
342.2280, 19338.00
343.4320, 19407.00
344.6350, 19574.00
345.8390, 19525.00
347.0420, 19615.00
348.2450, 19969.00
349.4480, 20247.00
350.6510, 20706.00
351.8540, 21127.22
353.0560, 21576.00
354.2590, 22110.00
355.4610, 22604.00
356.6630, 23141.00
357.8650, 23769.00
359.0670, 24493.00
360.2680, 24744.00
361.4700, 24658.00
362.6710, 24698.00
363.8720, 23782.00
365.0730, 23376.00
366.2740, 22700.00
367.4740, 21903.00
368.6750, 21416.00
369.8750, 21071.00
371.0750, 20641.00
372.2750, 20474.00
373.4750, 20532.00
374.6740, 20403.00
375.8740, 21107.00
377.0730, 20817.41
378.2720, 21211.00
379.4710, 20646.00
380.6700, 20650.00
381.8690, 20477.00
383.0670, 20512.00
384.2660, 20460.00
385.4640, 20459.00
386.6620, 20268.00
387.8600, 20105.00
389.0570, 20042.00
390.2550, 19736.00
391.4520, 19809.00
392.6490, 19647.00
393.8460, 19498.00
395.0430, 19311.00
396.2400, 19167.00
397.4370, 19234.00
398.6330, 19297.00
399.8290, 19220.00
401.0250, 19002.00
402.2210, 19022.00
403.4170, 19136.00
404.6130, 19127.00
405.8080, 19265.00
407.0030, 19572.00
408.1980, 19695.00
409.3930, 19872.00
410.5880, 20093.00
411.7830, 20639.00
412.9770, 21074.06
414.1720, 21791.00
415.3660, 22259.00
416.5600, 22884.00
417.7530, 23459.00
418.9470, 24618.00
420.1410, 25139.00
421.3340, 25558.00
422.5270, 25709.00
423.7200, 25407.00
424.9130, 24682.00
426.1060, 24176.00
427.2980, 23387.00
428.4900, 23031.00
429.6830, 22443.00
430.8750, 22332.00
432.0670, 22446.00
433.2580, 22686.00
434.4500, 22936.00
435.6410, 23489.00
436.8320, 24231.00
438.0240, 25066.00
439.2140, 26095.00
440.4050, 27455.00
441.5960, 28631.00
442.7860, 30671.00
443.9760, 32315.00
445.1670, 34277.00
446.3560, 37114.00
447.5460, 40039.00
448.7360, 43466.00
449.9250, 47167.00
451.1150, 51618.00
452.3040, 55846.00
453.4930, 59259.00
454.6810, 61528.00
455.8700, 62517.00
457.0590, 63201.00
458.2470, 63088.00
459.4350, 62809.00
460.6230, 62129.00
461.8110, 61224.00
462.9980, 58915.00
464.1860, 56211.00
465.3730, 52615.00
466.5600, 49298.00
467.7470, 45594.00
468.9340, 41959.00
470.1210, 38957.00
471.3080, 36215.00
472.4940, 33444.00
473.6800, 31685.00
474.8660, 29949.00
476.0520, 28563.00
477.2380, 27350.00
478.4230, 26331.00
479.6090, 25645.00
480.7940, 24895.00
481.9790, 24467.00
483.1640, 23727.00
484.3490, 23000.00
485.5330, 22753.00
486.7180, 22330.00
487.9020, 22258.00
489.0860, 21840.00
490.2700, 21572.00
491.4540, 21464.00
492.6370, 21270.00
493.8210, 20979.00
495.0040, 21031.00
496.1870, 20946.00
497.3700, 20752.00
498.5530, 20803.00
499.7360, 20669.00
500.9180, 20554.00
502.1000, 20511.00
503.2830, 20491.46
504.4650, 20500.18
505.6460, 20564.00
506.8280, 20598.00
508.0100, 20681.00
509.1910, 20737.00
510.3720, 20677.00
511.5530, 20827.00
512.7340, 20915.00
513.9150, 21208.00
515.0950, 21302.00
516.2760, 21717.00
517.4560, 21879.00
518.6360, 22191.00
519.8160, 22885.00
520.9950, 23669.00
522.1750, 24238.00
523.3540, 25288.00
524.5340, 26598.00
525.7130, 28034.00
526.8920, 29913.00
528.0700, 32065.00
529.2490, 34526.00
530.4270, 37264.00
531.6060, 40527.00
532.7840, 45437.00
533.9620, 46973.00
535.1390, 48814.00
536.3170, 49509.00
537.4940, 48334.00
538.6720, 45953.00
539.8490, 43122.00
541.0260, 39848.00
542.2030, 36663.00
543.3790, 34058.00
544.5560, 31762.00
545.7320, 29644.00
546.9080, 28263.00
548.0840, 27139.00
549.2600, 26133.00
550.4360, 25355.00
551.6110, 24700.00
552.7860, 24266.00
553.9620, 23718.00
555.1370, 23478.00
556.3110, 23240.00
557.4860, 23037.00
558.6610, 22889.60
559.8350, 22727.44
561.0090, 22668.00
562.1830, 22568.03
563.3570, 22508.38
564.5310, 22627.00
565.7040, 22513.00
566.8780, 22581.00
568.0510, 22529.00
569.2240, 22483.00
570.3970, 22564.00
571.5700, 22609.00
572.7420, 22617.74
573.9150, 22607.00
575.0870, 22672.00
576.2590, 22656.00
577.4310, 22673.00
578.6030, 22476.00
579.7740, 22960.00
580.9460, 22836.00
582.1170, 22746.00
583.2880, 23007.00
584.4590, 22828.00
585.6300, 22919.00
586.8010, 23211.00
587.9710, 22891.00
589.1410, 23144.00
590.3110, 23039.00
591.4810, 23158.00
592.6510, 22962.00
593.8210, 23039.00
594.9900, 23091.00
596.1600, 23148.00
597.3290, 23103.00
598.4980, 23241.00
599.6670, 23217.00
600.8350, 23435.00
602.0040, 23473.00
603.1720, 23348.00
604.3400, 23489.00
605.5080, 23585.00
606.6760, 23657.00
607.8440, 23901.00
609.0120, 23932.00
610.1790, 24053.00
611.3460, 24133.00
612.5130, 24053.00
613.6800, 24264.00
614.8470, 24072.00
616.0130, 23890.00
617.1800, 24274.00
618.3460, 24214.00
619.5120, 24217.00
620.6780, 24539.00
621.8440, 24551.00
623.0090, 24818.00
624.1750, 25070.00
625.3400, 25238.00
626.5050, 25173.00
627.6700, 25072.00
628.8350, 24959.00
629.9990, 24879.00
631.1640, 24712.00
632.3280, 24754.00
633.4920, 24573.00
634.6560, 24567.00
635.8200, 24541.00
636.9840, 24540.00
638.1470, 24728.00
639.3100, 24855.00
640.4730, 24951.00
641.6360, 25166.00
642.7990, 25432.00
643.9620, 25428.80
645.1240, 25617.97
646.2870, 25647.00
647.4490, 25656.00
648.6110, 25781.27
649.7730, 25828.00
650.9340, 25963.00
652.0960, 25842.00
653.2570, 25977.00
654.4180, 25796.00
655.5790, 25734.00
656.7400, 25644.00
657.9010, 25558.00
659.0620, 25760.00
660.2220, 25800.00
661.3820, 25581.00
662.5420, 25824.00
663.7020, 25755.00
664.8620, 25708.00
666.0210, 25737.00
667.1810, 25710.55
668.3400, 25949.00
669.4990, 25726.00
670.6580, 25903.00
671.8170, 25908.00
672.9750, 25716.00
674.1340, 26055.00
675.2920, 26387.00
676.4500, 26305.00
677.6080, 26390.00
678.7660, 26639.00
679.9230, 26561.00
681.0810, 26368.00
682.2380, 26429.00
683.3950, 26092.00
684.5520, 26321.00
685.7090, 26233.00
686.8660, 26456.00
688.0220, 26561.00
689.1780, 26395.00
690.3340, 26661.00
691.4900, 26659.00
692.6460, 26906.00
693.8020, 26831.00
694.9570, 27049.00
696.1130, 27071.00
697.2680, 27298.00
698.4230, 27392.02
699.5780, 27355.00
700.7320, 27634.00
701.8870, 27727.00
703.0410, 27877.58
704.1950, 27867.00
705.3490, 28120.00
706.5030, 28126.00
707.6570, 28341.00
708.8110, 28533.00
709.9640, 28575.00
711.1170, 28586.00
712.2700, 28879.00
713.4230, 28908.00
714.5760, 29040.00
715.7280, 28932.00
716.8810, 29088.00
718.0330, 29044.00
719.1850, 29082.00
720.3370, 29011.00
721.4890, 29012.00
722.6400, 29068.00
723.7920, 29177.00
724.9430, 29306.00
726.0940, 29392.19
727.2450, 29487.45
728.3960, 29600.00
729.5460, 29652.00
730.6970, 29732.00
731.8470, 29816.00
732.9970, 30041.00
734.1470, 30108.00
735.2970, 30251.00
736.4460, 30383.12
737.5960, 30388.00
738.7450, 30615.00
739.8940, 30738.00
741.0430, 30855.00
742.1920, 30857.00
743.3410, 31005.00
744.4890, 31328.00
745.6370, 31866.00
746.7850, 31916.00
747.9330, 32262.00
749.0810, 32958.00
750.2290, 33836.00
751.3760, 34398.00
752.5240, 34308.00
753.6710, 34773.00
754.8180, 35206.00
755.9650, 35671.00
757.1110, 35777.00
758.2580, 36678.00
759.4040, 37328.00
760.5510, 38165.00
761.6970, 39383.00
762.8420, 39841.00
763.9880, 40992.00
765.1340, 41979.00
766.2790, 43428.00
767.4240, 43695.00
768.5690, 44889.00
769.7140, 45177.00
770.8590, 45381.00
772.0030, 45329.00
773.1480, 44687.00
774.2920, 44296.00
775.4360, 43071.00
776.5800, 41703.00
777.7240, 40472.00
778.8670, 39074.00
780.0110, 37683.00
781.1540, 36623.00
782.2970, 35717.00
783.4400, 34642.00
784.5830, 34314.00
785.7250, 33635.00
786.8680, 33487.00
788.0100, 33136.59
789.1520, 32839.00
790.2940, 32767.00
791.4360, 32788.00
792.5780, 32815.00
793.7190, 32796.00
794.8600, 32713.00
796.0010, 32777.00
797.1420, 32928.91
798.2830, 32818.82
799.4240, 32989.07
800.5640, 32795.00
801.7050, 33140.00
802.8450, 33327.00
803.9850, 33283.18
805.1250, 33317.40
806.2640, 33653.00
807.4040, 33208.00
808.5430, 33375.00
809.6820, 33638.00
810.8210, 33372.00
811.9600, 33165.00
813.0990, 33190.00
814.2370, 33059.90
815.3760, 33193.00
816.5140, 33189.00
817.6520, 32907.00
818.7900, 33289.00
819.9270, 33432.00
821.0650, 33580.00
822.2020, 33411.00
823.3390, 33388.00
824.4760, 33616.00
825.6130, 33653.00
826.7500, 33732.00
827.8870, 33801.00
829.0230, 33718.00
830.1590, 33921.00
831.2950, 33941.00
832.4310, 34076.00
833.5670, 34340.00
834.7030, 34008.00
835.8380, 34405.00
836.9730, 34289.00
838.1080, 34227.00
839.2430, 34458.00
840.3780, 34618.00
841.5130, 34580.00
842.6470, 34813.00
843.7810, 35026.00
844.9150, 34964.00
846.0490, 35064.00
847.1830, 35008.00
848.3170, 35302.00
849.4500, 35187.00
850.5830, 35489.00
851.7160, 35583.00
852.8490, 35669.00
853.9820, 35614.00
855.1150, 35859.00
856.2470, 36080.00
857.3800, 36345.00
858.5120, 36577.00
859.6440, 36700.67
860.7760, 36704.00
861.9070, 36829.00
863.0390, 36708.00
864.1700, 36564.00
865.3010, 36774.00
866.4320, 36792.00
867.5630, 36596.00
868.6940, 36599.00
869.8240, 36579.21
870.9540, 36603.00
872.0850, 36662.00
873.2150, 36727.00
874.3450, 36930.00
875.4740, 37036.00
876.6040, 37210.00
877.7330, 37256.90
878.8620, 37308.74
879.9910, 37302.00
881.1200, 37347.00
882.2490, 37329.00
883.3770, 37376.00
884.5060, 37539.00
885.6340, 37436.00
886.7620, 37600.00
887.8900, 37519.00
889.0180, 37762.00
890.1450, 37703.00
891.2730, 37955.00
892.4000, 38033.00
893.5270, 38029.00
894.6540, 38213.00
895.7810, 38436.00
896.9070, 38665.00
898.0340, 38487.00
899.1600, 38723.00
900.2860, 38768.00
901.4120, 39016.00
902.5380, 38995.00
903.6630, 38794.00
904.7890, 39092.00
905.9140, 38838.00
907.0390, 39036.00
908.1640, 39126.39
909.2890, 39518.00
910.4130, 39366.00
911.5380, 39475.00
912.6620, 39605.00
913.7860, 39622.00
914.9100, 39485.00
916.0340, 39748.00
917.1580, 39723.00
918.2810, 40031.00
919.4040, 39796.00
920.5280, 39943.00
921.6510, 39902.00
922.7730, 39875.00
923.8960, 40216.00
925.0180, 40011.00
926.1410, 40300.00
927.2630, 40499.00
928.3850, 40479.00
929.5070, 40555.00
930.6280, 40409.00
931.7500, 40731.00
932.8710, 40841.00
933.9920, 40859.00
935.1130, 41087.00
936.2340, 41279.00
937.3550, 41329.67
938.4760, 41515.00
939.5960, 41508.00
940.7160, 41731.00
941.8360, 41850.00
942.9560, 41977.00
944.0760, 41991.00
945.1950, 41838.00
946.3150, 42087.00
947.4340, 42729.00
948.5530, 42393.00
949.6720, 42950.00
950.7900, 42899.00
951.9090, 42729.00
953.0270, 42959.00
954.1460, 42916.40
955.2640, 43181.00
956.3820, 43168.00
957.4990, 43572.00
958.6170, 43913.00
959.7340, 43675.00
960.8520, 43817.00
961.9690, 43822.00
963.0860, 43933.00
964.2020, 44121.00
965.3190, 44286.00
966.4350, 44117.00
967.5520, 44241.67
968.6680, 44421.00
969.7840, 44222.00
970.8990, 44518.00
972.0150, 44542.00
973.1310, 44618.00
974.2460, 44856.00
975.3610, 45125.00
976.4760, 45186.00
977.5910, 45336.00
978.7050, 45442.00
979.8200, 45505.00
980.9340, 45639.75
982.0480, 45767.70
983.1620, 45828.00
984.2760, 46085.00
985.3900, 46133.00
986.5030, 46327.00
987.6160, 46441.00
988.7300, 46635.00
989.8430, 47011.00
990.9550, 46997.00
992.0680, 46980.00
993.1810, 47190.00
994.2930, 47664.00
995.4050, 47513.00
996.5170, 48289.00
997.6290, 48120.00
998.7410, 48645.00
999.8520, 48835.00
1000.964, 49299.00
1002.075, 49327.00
1003.186, 49590.00
1004.297, 49199.00
1005.407, 48862.00
1006.518, 48800.00
1007.628, 48773.00
1008.738, 48595.00
1009.848, 48687.22
1010.958, 48556.00
1012.068, 48833.00
1013.178, 48840.00
1014.287, 48950.00
1015.396, 48519.00
1016.505, 48968.00
1017.614, 49198.00
1018.723, 48961.00
1019.831, 49291.00
1020.940, 49677.00
1022.048, 50061.00
1023.156, 50327.38
1024.264, 50624.39
1025.372, 50830.00
1026.479, 51185.00
1027.587, 51367.00
1028.694, 51807.00
1029.801, 52063.00
1030.908, 51926.00
1032.015, 52374.00
1033.121, 52554.00
1034.228, 52836.00
1035.334, 53018.00
1036.440, 53321.00
1037.546, 53621.00
1038.652, 53718.00
1039.758, 53983.00
1040.863, 54173.00
1041.968, 54318.00
1043.074, 54647.00
1044.178, 54811.00
1045.283, 55053.00
1046.388, 55182.00
1047.492, 55576.00
1048.597, 55735.00
1049.701, 55932.00
1050.805, 55949.00
1051.909, 56534.00
1053.012, 56169.00
1054.116, 56426.00
1055.219, 56947.00
1056.322, 57106.00
1057.425, 57564.00
1058.528, 57571.00
1059.631, 57886.00
1060.733, 58713.00
1061.836, 58651.00
1062.938, 59266.00
1064.040, 59341.00
1065.142, 60043.00
1066.243, 60120.00
1067.345, 60602.00
1068.446, 61218.00
1069.547, 61360.00
1070.648, 61900.00
1071.749, 62346.00
1072.850, 62541.00
1073.951, 62918.00
1075.051, 63391.00
1076.151, 63578.00
1077.251, 64040.00
1078.351, 64414.00
1079.451, 64878.00
1080.550, 65689.00
1081.650, 66201.76
1082.749, 66586.00
1083.848, 67607.00
1084.947, 68346.00
1086.046, 69162.00
1087.144, 70555.00
1088.243, 71086.00
1089.341, 72421.00
1090.439, 73600.00
1091.537, 74543.00
1092.635, 75700.00
1093.732, 76300.00
1094.830, 76767.00
1095.927, 76948.00
1097.024, 77121.00
1098.121, 76212.00
1099.218, 75992.00
1100.314, 74829.00
1101.411, 74244.00
1102.507, 73658.00
1103.603, 72716.00
1104.699, 72410.00
1105.795, 72424.00
1106.890, 71925.00
1107.986, 71924.00
1109.081, 71333.00
1110.176, 70427.00
1111.271, 69783.00
1112.366, 68348.00
1113.461, 66634.00
1114.555, 65178.00
1115.649, 63839.00
1116.744, 62964.19
1117.838, 62234.00
1118.931, 61872.00
1120.025, 61795.00
1121.119, 61838.00
1122.212, 61716.00
1123.305, 61935.00
1124.398, 61702.00
1125.491, 61947.00
1126.584, 62181.00
1127.676, 62141.00
1128.768, 62325.00
1129.861, 62175.00
1130.953, 62183.00
1132.044, 62067.00
1133.136, 62078.20
1134.228, 62227.00
1135.319, 62153.00
1136.410, 62222.00
1137.501, 62345.00
1138.592, 62767.00
1139.683, 62466.00
1140.773, 62487.00
1141.864, 62287.00
1142.954, 62096.00
1144.044, 62440.00
1145.134, 62716.00
1146.224, 62358.00
1147.313, 62662.00
1148.402, 62481.00
1149.492, 62964.00
1150.581, 62480.00
1151.670, 63356.00
1152.758, 63445.00
1153.847, 63314.00
1154.935, 63551.00
1156.024, 63750.00
1157.112, 63936.00
1158.200, 64088.16
1159.287, 64028.00
1160.375, 64424.00
1161.462, 64434.00
1162.550, 64759.53
1163.637, 64472.00
1164.724, 65145.00
1165.810, 64712.00
1166.897, 64939.00
1167.983, 65447.00
1169.070, 65360.00
1170.156, 65479.00
1171.242, 65957.00
1172.327, 66029.00
1173.413, 65999.00
1174.499, 66095.00
1175.584, 66330.00
1176.669, 66423.00
1177.754, 66640.00
1178.839, 66753.00
1179.923, 66865.00
1181.008, 67163.00
1182.092, 67289.00
1183.176, 67372.00
1184.260, 67665.00
1185.344, 67609.00
1186.428, 68285.00
1187.511, 68320.00
1188.595, 68413.69
1189.678, 69234.00
1190.761, 68562.00
1191.843, 68590.00
1192.926, 68867.00
1194.009, 68888.00
1195.091, 68880.00
1196.173, 69466.00
1197.255, 69477.00
1198.337, 69579.00
1199.419, 70036.00
1200.500, 70013.00
1201.582, 70222.88
1202.663, 70380.00
1203.744, 70256.00
1204.825, 70750.00
1205.905, 70358.00
1206.986, 70745.00
1208.066, 70819.00
1209.146, 70501.00
1210.226, 70916.00
1211.306, 71028.00
1212.386, 71133.00
1213.466, 71104.00
1214.545, 71205.00
1215.624, 71277.80
1216.703, 71487.00
1217.782, 71483.00
1218.861, 71629.00
1219.939, 71794.00
1221.018, 71807.00
1222.096, 72023.00
1223.174, 72400.00
1224.252, 72312.00
1225.330, 72571.00
1226.407, 72610.00
1227.485, 72668.00
1228.562, 72629.00
1229.639, 73076.00
1230.716, 73313.00
1231.793, 73049.00
1232.869, 73949.00
1233.946, 74047.00
1235.022, 73690.00
1236.098, 74254.00
1237.174, 74542.00
1238.250, 74099.00
1239.325, 74305.00
1240.401, 74394.00
1241.476, 74816.00
1242.551, 75161.00
1243.626, 75162.00
1244.701, 75218.00
1245.776, 75646.00
1246.850, 75645.88
1247.924, 75690.00
1248.999, 76015.00
1250.073, 76084.00
1251.146, 76415.00
1252.220, 76624.00
1253.293, 76415.00
1254.367, 76802.00
1255.440, 76997.00
1256.513, 77524.00
1257.586, 77201.00
1258.658, 77658.00
1259.731, 77715.00
1260.803, 77793.00
1261.875, 78287.00
1262.947, 78370.00
1264.019, 78424.00
1265.091, 79023.00
1266.162, 78718.00
1267.234, 79227.00
1268.305, 79573.00
1269.376, 79575.00
1270.447, 79842.00
1271.517, 79701.00
1272.588, 80551.00
1273.658, 80208.00
1274.729, 80719.00
1275.799, 81020.00
1276.868, 80670.00
1277.938, 80774.00
1279.008, 80613.00
1280.077, 80801.00
1281.146, 81224.00
1282.215, 81536.00
1283.284, 81590.00
1284.353, 80855.00
1285.421, 81798.00
1286.490, 81667.00
1287.558, 81955.00
1288.626, 82559.00
1289.694, 82342.00
1290.762, 82631.00
1291.829, 82750.00
1292.897, 83071.00
