##NAMES=Marialite
##RRUFFID=R060458
##IDEAL CHEMISTRY=Na_4_Al_3_Si_9_O_24_Cl
##LOCALITY=Dading, Nepal
##OWNER=RRUFF
##SOURCE=Michael Scott
##DESCRIPTION=Colorless elongated prism
##STATUS=The identification of this mineral has been confirmed by X-ray diffraction and chemical analysis
##URL=rruff.info/R060458
##MEASURED CHEMISTRY=(Na_0.52_Ca_0.47_K_0.01_)_4_(Al_0.36_Si_0.64_)_12_O_24_(Cl_0.44_(CO_3_)_0.56_)
##PIN_ID=L01838
##ORIENTATION=Laser parallel to a* (1 0 0). Fiducial mark perpendicular to laser is parallel to -c [0 0 -1]
115.5200, 41205.00
116.7530, 39709.00
117.9870, 38368.00
119.2200, 37992.00
120.4530, 39285.00
121.6860, 38704.00
122.9190, 37721.00
124.1520, 36469.00
125.3850, 35376.00
126.6170, 35451.00
127.8490, 34983.00
129.0810, 35078.00
130.3130, 35088.00
131.5450, 35262.00
132.7770, 35308.00
134.0080, 35232.00
135.2390, 35258.56
136.4710, 35275.06
137.7020, 35221.00
138.9320, 35565.00
140.1630, 35773.00
141.3930, 36445.00
142.6240, 37127.20
143.8540, 37763.00
145.0840, 39193.00
146.3140, 40316.00
147.5440, 42074.00
148.7730, 43594.00
150.0020, 45789.00
151.2320, 47902.00
152.4610, 50717.00
153.6900, 53526.00
154.9180, 55952.00
156.1470, 58891.00
157.3750, 61107.00
158.6040, 62987.00
159.8320, 65006.00
161.0600, 65600.00
162.2870, 66156.00
163.5150, 65746.00
164.7420, 64493.00
165.9700, 62841.00
167.1970, 60581.00
168.4240, 57961.00
169.6510, 55600.00
170.8770, 52847.00
172.1040, 50288.00
173.3300, 48075.00
174.5560, 46084.00
175.7820, 44357.00
177.0080, 43131.00
178.2340, 42096.00
179.4590, 41349.00
180.6850, 41130.00
181.9100, 40785.00
183.1350, 40763.00
184.3600, 40694.00
185.5850, 40932.00
186.8090, 41321.00
188.0340, 41691.00
189.2580, 41616.00
190.4820, 41601.00
191.7060, 41472.00
192.9300, 41309.00
194.1530, 40810.00
195.3770, 40347.00
196.6000, 39969.00
197.8230, 39194.00
199.0460, 38823.00
200.2690, 37950.00
201.4910, 37164.00
202.7140, 36794.00
203.9360, 36441.00
205.1580, 35884.00
206.3800, 35807.00
207.6020, 35609.00
208.8240, 34999.00
210.0450, 34714.00
211.2670, 34266.00
212.4880, 34041.00
213.7090, 33832.00
214.9300, 33446.00
216.1510, 33613.00
217.3710, 33396.00
218.5920, 33180.00
219.8120, 33424.00
221.0320, 33297.00
222.2520, 33422.00
223.4720, 33660.00
224.6910, 33418.00
225.9110, 33160.00
227.1300, 33100.00
228.3490, 32774.00
229.5680, 32156.00
230.7870, 31823.00
232.0050, 31292.00
233.2240, 30547.00
234.4420, 30104.00
235.6600, 29475.00
236.8780, 28936.00
238.0960, 28691.00
239.3140, 28129.00
240.5310, 27817.00
241.7490, 27610.00
242.9660, 27593.00
244.1830, 27405.00
245.4000, 27760.00
246.6160, 27588.00
247.8330, 28084.00
249.0490, 28491.00
250.2660, 29163.00
251.4820, 29971.00
252.6980, 30883.00
253.9130, 31913.00
255.1290, 33024.00
256.3440, 34091.00
257.5600, 35071.00
258.7750, 36051.00
259.9900, 36733.00
261.2040, 37058.00
262.4190, 36860.00
263.6330, 36003.00
264.8480, 35328.00
266.0620, 33532.00
267.2760, 31703.00
268.4900, 30150.00
269.7030, 28803.00
270.9170, 27528.00
272.1300, 26407.00
273.3430, 25648.00
274.5560, 25146.00
275.7690, 24886.00
276.9820, 24760.00
278.1940, 24839.00
279.4070, 24862.00
280.6190, 25348.00
281.8310, 25478.00
283.0430, 26225.00
284.2550, 26702.00
285.4660, 27650.00
286.6770, 28130.00
287.8890, 28908.00
289.1000, 29167.00
290.3110, 29509.00
291.5210, 29585.00
292.7320, 29457.00
293.9420, 29241.00
295.1530, 28806.00
296.3630, 27950.00
297.5730, 27224.00
298.7830, 25999.00
299.9920, 24516.00
301.2020, 23268.00
302.4110, 21978.00
303.6200, 21341.00
304.8290, 20653.00
306.0380, 20193.00
307.2470, 19680.00
308.4550, 19398.00
309.6630, 19304.00
310.8720, 19269.00
312.0800, 19211.00
313.2880, 19231.00
314.4950, 19228.00
315.7030, 19402.00
316.9100, 19416.00
318.1170, 19499.00
319.3240, 19811.00
320.5310, 19669.00
321.7380, 19866.00
322.9450, 20558.00
324.1510, 20664.00
325.3570, 20865.00
326.5630, 21169.00
327.7690, 21557.00
328.9750, 22117.00
330.1810, 22403.00
331.3860, 23279.00
332.5910, 23480.00
333.7960, 24151.00
335.0010, 24624.00
336.2060, 24928.00
337.4110, 24809.00
338.6150, 24565.00
339.8200, 24114.00
341.0240, 23918.00
342.2280, 23349.00
343.4320, 22912.00
344.6350, 22591.00
345.8390, 22448.00
347.0420, 22230.00
348.2450, 22496.00
349.4480, 22658.00
350.6510, 23043.00
351.8540, 23279.00
353.0560, 23778.00
354.2590, 24487.00
355.4610, 25297.00
356.6630, 25905.00
357.8650, 26760.00
359.0670, 27035.00
360.2680, 27392.00
361.4700, 27525.00
362.6710, 27262.00
363.8720, 26167.00
365.0730, 25333.00
366.2740, 24357.00
367.4740, 23813.00
368.6750, 22868.00
369.8750, 22576.00
371.0750, 22289.00
372.2750, 21930.00
373.4750, 21862.00
374.6740, 21812.00
375.8740, 21758.00
377.0730, 21767.00
378.2720, 21894.00
379.4710, 21866.00
380.6700, 21814.00
381.8690, 21678.00
383.0670, 21864.00
384.2660, 21706.00
385.4640, 21314.00
386.6620, 21440.00
387.8600, 21555.00
389.0570, 21288.00
390.2550, 21264.00
391.4520, 21135.00
392.6490, 20898.00
393.8460, 20829.86
395.0430, 20777.00
396.2400, 20561.00
397.4370, 20417.00
398.6330, 20286.00
399.8290, 20397.00
401.0250, 20359.00
402.2210, 20482.00
403.4170, 20527.00
404.6130, 20546.00
405.8080, 20623.00
407.0030, 20900.00
408.1980, 20987.00
409.3930, 21254.00
410.5880, 21673.00
411.7830, 22173.82
412.9770, 22499.41
414.1720, 22950.12
415.3660, 23207.00
416.5600, 23856.00
417.7530, 24056.00
418.9470, 24689.00
420.1410, 24830.00
421.3340, 25213.00
422.5270, 25405.00
423.7200, 25064.00
424.9130, 25210.00
426.1060, 24936.00
427.2980, 25176.00
428.4900, 25270.00
429.6830, 25557.00
430.8750, 25812.00
432.0670, 26730.00
433.2580, 27275.00
434.4500, 28321.00
435.6410, 29677.00
436.8320, 31472.00
438.0240, 33149.00
439.2140, 35680.00
440.4050, 38328.00
441.5960, 41885.00
442.7860, 45499.00
443.9760, 49880.00
445.1670, 54959.00
446.3560, 60839.00
447.5460, 67536.00
448.7360, 75035.00
449.9250, 83162.00
451.1150, 92436.00
452.3040, 99895.00
453.4930, 105895.0
454.6810, 109679.0
455.8700, 111540.0
457.0590, 111590.0
458.2470, 111485.0
459.4350, 111040.0
460.6230, 108872.0
461.8110, 104720.0
462.9980, 99574.00
464.1860, 92923.00
465.3730, 85033.00
466.5600, 77729.00
467.7470, 69566.00
468.9340, 62678.00
470.1210, 56611.00
471.3080, 51408.00
472.4940, 46757.00
473.6800, 42723.00
474.8660, 39832.00
476.0520, 37084.00
477.2380, 35051.00
478.4230, 33320.00
479.6090, 31676.00
480.7940, 30613.00
481.9790, 29386.00
483.1640, 28838.00
484.3490, 27980.00
485.5330, 27330.00
486.7180, 26606.00
487.9020, 26308.00
489.0860, 25582.00
490.2700, 25264.22
491.4540, 25153.00
492.6370, 24616.00
493.8210, 24545.00
495.0040, 24297.00
496.1870, 24240.00
497.3700, 23868.00
498.5530, 23809.00
499.7360, 23545.00
500.9180, 23333.00
502.1000, 23304.00
503.2830, 23166.71
504.4650, 23392.00
505.6460, 23179.00
506.8280, 23164.00
508.0100, 23382.00
509.1910, 23369.00
510.3720, 23286.00
511.5530, 23596.00
512.7340, 23818.00
513.9150, 23888.00
515.0950, 24118.00
516.2760, 24435.00
517.4560, 24678.00
518.6360, 25609.00
519.8160, 25907.00
520.9950, 27044.00
522.1750, 27849.00
523.3540, 29317.00
524.5340, 30700.00
525.7130, 32487.00
526.8920, 34700.00
528.0700, 37188.00
529.2490, 39689.00
530.4270, 43325.00
531.6060, 46522.00
532.7840, 49458.00
533.9620, 51578.00
535.1390, 52681.00
536.3170, 51913.00
537.4940, 50051.00
538.6720, 46950.00
539.8490, 44244.00
541.0260, 40862.00
542.2030, 38163.00
543.3790, 35647.00
544.5560, 33603.00
545.7320, 31702.00
546.9080, 30622.00
548.0840, 29354.00
549.2600, 28264.00
550.4360, 27512.00
551.6110, 27011.00
552.7860, 26745.00
553.9620, 26138.00
555.1370, 25918.00
556.3110, 25687.00
557.4860, 25485.00
558.6610, 25399.65
559.8350, 25223.00
561.0090, 25292.00
562.1830, 25254.00
563.3570, 25227.80
564.5310, 25186.26
565.7040, 25130.00
566.8780, 25075.00
568.0510, 25002.00
569.2240, 25022.00
570.3970, 25082.00
571.5700, 25201.00
572.7420, 25239.00
573.9150, 25299.00
575.0870, 25336.66
576.2590, 25366.33
577.4310, 25404.00
578.6030, 25429.00
579.7740, 25527.00
580.9460, 25592.00
582.1170, 25988.00
583.2880, 25553.00
584.4590, 25962.00
585.6300, 25836.00
586.8010, 25915.34
587.9710, 26046.00
589.1410, 26043.00
590.3110, 26116.00
591.4810, 26120.13
592.6510, 25958.00
593.8210, 26114.00
594.9900, 26179.00
596.1600, 26218.00
597.3290, 26539.00
598.4980, 26623.00
599.6670, 26670.00
600.8350, 26827.00
602.0040, 27150.00
603.1720, 27110.00
604.3400, 27497.00
605.5080, 27646.00
606.6760, 27617.00
607.8440, 27906.00
609.0120, 28030.00
610.1790, 28106.00
611.3460, 28160.00
612.5130, 28008.00
613.6800, 27954.00
614.8470, 27873.00
616.0130, 27677.00
617.1800, 27718.00
618.3460, 28055.00
619.5120, 27916.00
620.6780, 28205.00
621.8440, 28561.00
623.0090, 28672.00
624.1750, 29004.00
625.3400, 28881.00
626.5050, 29189.00
627.6700, 28917.00
628.8350, 28881.00
629.9990, 28348.00
631.1640, 28283.00
632.3280, 28367.00
633.4920, 27913.00
634.6560, 28044.00
635.8200, 28038.00
636.9840, 28138.00
638.1470, 28232.00
639.3100, 28398.00
640.4730, 28568.70
641.6360, 28798.00
642.7990, 29073.00
643.9620, 29079.00
645.1240, 29516.00
646.2870, 29549.00
647.4490, 29515.00
648.6110, 29600.00
649.7730, 29601.00
650.9340, 29742.00
652.0960, 29806.00
653.2570, 29790.00
654.4180, 29850.00
655.5790, 29750.37
656.7400, 29645.00
657.9010, 29498.00
659.0620, 29447.00
660.2220, 29251.00
661.3820, 29198.00
662.5420, 29445.00
663.7020, 29353.00
664.8620, 29144.00
666.0210, 29436.00
667.1810, 29388.00
668.3400, 29310.00
669.4990, 29226.00
670.6580, 29482.00
671.8170, 29689.00
672.9750, 29894.00
674.1340, 30064.00
675.2920, 30260.00
676.4500, 30522.00
677.6080, 30512.00
678.7660, 30330.00
679.9230, 30609.00
681.0810, 30293.00
682.2380, 30268.00
683.3950, 29760.00
684.5520, 29893.00
685.7090, 29869.00
686.8660, 29860.00
688.0220, 29811.00
689.1780, 29909.00
690.3340, 29893.00
691.4900, 29926.00
692.6460, 30058.00
693.8020, 29963.00
694.9570, 30499.00
696.1130, 30428.00
697.2680, 30378.00
698.4230, 30179.00
699.5780, 30637.00
700.7320, 30899.00
701.8870, 30758.00
703.0410, 31042.00
704.1950, 31148.00
705.3490, 31175.00
706.5030, 31260.00
707.6570, 31582.00
708.8110, 31757.00
709.9640, 31793.00
711.1170, 31735.00
712.2700, 31807.00
713.4230, 31788.00
714.5760, 31920.66
715.7280, 32358.00
716.8810, 32230.00
718.0330, 32242.00
719.1850, 32405.00
720.3370, 32272.00
721.4890, 32710.00
722.6400, 32671.00
723.7920, 32657.00
724.9430, 32850.00
726.0940, 32883.00
727.2450, 33208.00
728.3960, 33272.00
729.5460, 33170.00
730.6970, 33476.00
731.8470, 33504.00
732.9970, 33374.00
734.1470, 33684.00
735.2970, 33814.00
736.4460, 33786.00
737.5960, 33789.00
738.7450, 33916.00
739.8940, 34113.00
741.0430, 34268.00
742.1920, 34657.00
743.3410, 34627.00
744.4890, 35084.00
745.6370, 35061.00
746.7850, 35290.00
747.9330, 35550.00
749.0810, 35945.00
750.2290, 36232.00
751.3760, 36429.00
752.5240, 36448.00
753.6710, 37287.00
754.8180, 37282.00
755.9650, 37680.00
757.1110, 38296.00
758.2580, 38839.00
759.4040, 39454.00
760.5510, 40151.34
761.6970, 40847.00
762.8420, 41615.00
763.9880, 42703.00
765.1340, 43520.00
766.2790, 44582.00
767.4240, 45024.00
768.5690, 45711.00
769.7140, 46078.00
770.8590, 46175.00
772.0030, 46001.00
773.1480, 45807.00
774.2920, 45044.00
775.4360, 44269.00
776.5800, 43390.23
777.7240, 42059.00
778.8670, 41224.00
780.0110, 40424.00
781.1540, 39384.00
782.2970, 38591.00
783.4400, 38163.00
784.5830, 38011.00
785.7250, 37474.00
786.8680, 37653.00
788.0100, 37415.00
789.1520, 37292.00
790.2940, 37258.00
791.4360, 37239.00
792.5780, 37584.00
793.7190, 37945.00
794.8600, 38057.00
796.0010, 38359.00
797.1420, 38593.00
798.2830, 38649.00
799.4240, 39180.00
800.5640, 39628.00
801.7050, 39665.00
802.8450, 40071.00
803.9850, 40268.00
805.1250, 40370.00
806.2640, 40605.00
807.4040, 40472.00
808.5430, 40400.00
809.6820, 40142.00
810.8210, 39395.00
811.9600, 39323.00
813.0990, 38841.00
814.2370, 38810.00
815.3760, 38658.00
816.5140, 38733.00
817.6520, 38539.00
818.7900, 38707.00
819.9270, 38870.00
821.0650, 38986.00
822.2020, 39005.00
823.3390, 39221.00
824.4760, 39046.00
825.6130, 39264.00
826.7500, 39437.00
827.8870, 39324.00
829.0230, 39303.00
830.1590, 39432.23
831.2950, 39580.00
832.4310, 39648.00
833.5670, 39835.00
834.7030, 39990.00
835.8380, 39935.00
836.9730, 40155.00
838.1080, 40115.00
839.2430, 40315.00
840.3780, 40356.00
841.5130, 40854.00
842.6470, 40902.00
843.7810, 41033.00
844.9150, 41040.00
846.0490, 40994.00
847.1830, 41316.00
848.3170, 41283.00
849.4500, 41439.00
850.5830, 41436.00
851.7160, 41855.00
852.8490, 41598.00
853.9820, 41925.00
855.1150, 42528.00
856.2470, 42743.00
857.3800, 42750.00
858.5120, 43213.00
859.6440, 43659.00
860.7760, 43703.00
861.9070, 43664.00
863.0390, 43698.00
864.1700, 43514.00
865.3010, 43215.00
866.4320, 43195.00
867.5630, 43068.30
868.6940, 43061.05
869.8240, 43069.00
870.9540, 43148.00
872.0850, 43331.00
873.2150, 43367.00
874.3450, 43870.00
875.4740, 43476.00
876.6040, 44108.00
877.7330, 43818.00
878.8620, 44032.00
879.9910, 43759.00
881.1200, 44083.00
882.2490, 44085.00
883.3770, 44223.00
884.5060, 44212.00
885.6340, 44564.00
886.7620, 44567.00
887.8900, 44763.00
889.0180, 44914.00
890.1450, 44702.00
891.2730, 45140.00
892.4000, 45091.00
893.5270, 45277.00
894.6540, 45739.00
895.7810, 45542.00
896.9070, 46151.00
898.0340, 45896.00
899.1600, 45934.00
900.2860, 46094.00
901.4120, 46307.00
902.5380, 46320.00
903.6630, 46357.00
904.7890, 46519.00
905.9140, 46615.17
907.0390, 46734.39
908.1640, 46828.00
909.2890, 47024.00
910.4130, 46913.00
911.5380, 47096.00
912.6620, 46963.00
913.7860, 46891.00
914.9100, 47075.00
916.0340, 47299.00
917.1580, 47126.00
918.2810, 47158.00
919.4040, 47193.00
920.5280, 47197.00
921.6510, 47369.00
922.7730, 47519.00
923.8960, 47435.00
925.0180, 47639.00
926.1410, 47882.00
927.2630, 47818.00
928.3850, 48237.00
929.5070, 48471.00
930.6280, 48222.00
931.7500, 48431.00
932.8710, 48620.00
933.9920, 48553.00
935.1130, 48691.00
936.2340, 48946.00
937.3550, 49182.00
938.4760, 49289.84
939.5960, 49236.00
940.7160, 49579.00
941.8360, 49716.00
942.9560, 49962.00
944.0760, 49816.00
945.1950, 49855.00
946.3150, 50301.00
947.4340, 50499.00
948.5530, 50663.00
949.6720, 50865.00
950.7900, 51006.00
951.9090, 51526.00
953.0270, 51583.00
954.1460, 51728.00
955.2640, 51649.00
956.3820, 52073.00
957.4990, 51777.00
958.6170, 52116.00
959.7340, 52601.00
960.8520, 53413.00
961.9690, 52474.00
963.0860, 52941.00
964.2020, 52592.00
965.3190, 52836.00
966.4350, 52879.00
967.5520, 52902.00
968.6680, 53283.00
969.7840, 52919.00
970.8990, 53463.00
972.0150, 53502.00
973.1310, 53604.00
974.2460, 53531.00
975.3610, 53830.00
976.4760, 53862.00
977.5910, 54118.00
978.7050, 54381.04
979.8200, 55181.00
980.9340, 54897.00
982.0480, 55585.00
983.1620, 55756.00
984.2760, 55004.00
985.3900, 54704.00
986.5030, 55234.00
987.6160, 55567.00
988.7300, 55734.00
989.8430, 55649.00
990.9550, 55474.00
992.0680, 55927.00
993.1810, 55808.00
994.2930, 55843.00
995.4050, 56009.00
996.5170, 56401.00
997.6290, 56795.00
998.7410, 56834.00
999.8520, 57344.00
1000.964, 57692.00
1002.075, 57694.63
1003.186, 57960.00
1004.297, 57570.00
1005.407, 57276.00
1006.518, 56767.00
1007.628, 56789.00
1008.738, 56753.00
1009.848, 56848.00
1010.958, 56932.16
1012.068, 57056.38
1013.178, 57194.00
1014.287, 57321.00
1015.396, 57462.00
1016.505, 57441.00
1017.614, 57805.00
1018.723, 57969.00
1019.831, 58390.00
1020.940, 58726.00
1022.048, 59045.00
1023.156, 59750.00
1024.264, 60190.00
1025.372, 60462.00
1026.479, 60955.00
1027.587, 61269.00
1028.694, 61682.00
1029.801, 61914.00
1030.908, 62270.00
1032.015, 62710.00
1033.121, 62729.00
1034.228, 63138.00
1035.334, 63288.00
1036.440, 64132.00
1037.546, 64156.00
1038.652, 64529.00
1039.758, 64430.00
1040.863, 64741.00
1041.968, 65064.00
1043.074, 65413.00
1044.178, 65665.82
1045.283, 65679.00
1046.388, 65954.00
1047.492, 66591.00
1048.597, 66281.00
1049.701, 66840.00
1050.805, 67396.00
1051.909, 67636.00
1053.012, 67539.00
1054.116, 68234.00
1055.219, 68142.00
1056.322, 68806.00
1057.425, 69409.00
1058.528, 69312.00
1059.631, 70110.00
1060.733, 71178.00
1061.836, 70706.00
1062.938, 71454.00
1064.040, 72178.00
1065.142, 73032.00
1066.243, 73135.00
1067.345, 74308.00
1068.446, 74693.00
1069.547, 74745.00
1070.648, 75796.00
1071.749, 75457.00
1072.850, 75803.00
1073.951, 76527.00
1075.051, 76318.00
1076.151, 76324.00
1077.251, 76499.00
1078.351, 76984.00
1079.451, 77729.00
1080.550, 78727.67
1081.650, 79878.00
1082.749, 81444.00
1083.848, 82926.00
1084.947, 84709.00
1086.046, 87056.00
1087.144, 89470.00
1088.243, 91781.00
1089.341, 94596.00
1090.439, 97248.00
1091.537, 99515.00
1092.635, 101136.0
1093.732, 102386.0
1094.830, 103310.0
1095.927, 103674.0
1097.024, 103478.0
1098.121, 102351.0
1099.218, 101548.0
1100.314, 99599.00
1101.411, 97781.00
1102.507, 97347.00
1103.603, 96772.00
1104.699, 96779.00
1105.795, 96564.00
1106.890, 96775.00
1107.986, 96237.00
1109.081, 95152.00
1110.176, 93227.00
1111.271, 90332.00
1112.366, 87037.00
1113.461, 83354.00
1114.555, 80472.00
1115.649, 77729.00
1116.744, 76104.00
1117.838, 74941.00
1118.931, 74263.00
1120.025, 73982.00
1121.119, 73745.00
1122.212, 73216.00
1123.305, 73666.00
1124.398, 73615.00
1125.491, 74055.00
1126.584, 73952.00
1127.676, 73753.00
1128.768, 74249.00
1129.861, 74104.00
1130.953, 74411.00
1132.044, 74320.00
1133.136, 74494.00
1134.228, 74354.00
1135.319, 74488.00
1136.410, 74733.00
1137.501, 74562.00
1138.592, 75123.00
1139.683, 74841.00
1140.773, 74929.00
1141.864, 75512.00
1142.954, 75079.00
1144.044, 75766.00
1145.134, 75727.00
1146.224, 75761.00
1147.313, 75591.00
1148.402, 76013.00
1149.492, 76184.00
1150.581, 76281.00
1151.670, 77017.00
1152.758, 76756.00
1153.847, 76573.00
1154.935, 77025.00
1156.024, 77411.00
1157.112, 77555.00
1158.200, 78035.00
1159.287, 78189.24
1160.375, 78659.00
1161.462, 78560.00
1162.550, 78783.00
1163.637, 78911.00
1164.724, 79053.61
1165.810, 79269.00
1166.897, 79441.00
1167.983, 79897.00
1169.070, 80065.00
1170.156, 80358.00
1171.242, 80449.00
1172.327, 80696.87
1173.413, 80640.00
1174.499, 81188.00
1175.584, 81187.00
1176.669, 81571.00
1177.754, 81768.00
1178.839, 81554.00
1179.923, 81988.00
1181.008, 82686.00
1182.092, 82496.00
1183.176, 83787.00
1184.260, 83516.00
1185.344, 83708.00
1186.428, 83921.00
1187.511, 83687.00
1188.595, 84313.00
1189.678, 84428.00
1190.761, 85269.00
1191.843, 85315.00
1192.926, 85050.00
1194.009, 85748.00
1195.091, 85828.00
1196.173, 86494.00
1197.255, 86322.00
1198.337, 86509.00
1199.419, 87020.00
1200.500, 86894.00
1201.582, 86870.00
1202.663, 86974.00
1203.744, 87126.00
1204.825, 87524.00
1205.905, 87444.03
1206.986, 87463.00
1208.066, 87399.00
1209.146, 87341.00
1210.226, 87227.00
1211.306, 87281.00
1212.386, 87363.65
1213.466, 87613.00
1214.545, 87654.00
1215.624, 87818.00
1216.703, 87939.00
1217.782, 87833.00
1218.861, 87859.00
1219.939, 88644.00
1221.018, 88479.00
1222.096, 88534.00
1223.174, 88629.00
1224.252, 88511.00
1225.330, 89261.00
1226.407, 89118.00
1227.485, 89276.00
1228.562, 89719.00
1229.639, 89707.00
1230.716, 90185.84
1231.793, 89867.00
1232.869, 90748.00
1233.946, 90722.00
1235.022, 90414.00
1236.098, 91077.00
1237.174, 90768.00
1238.250, 91710.00
1239.325, 91493.00
1240.401, 92044.00
1241.476, 91755.00
1242.551, 92187.00
1243.626, 92865.00
1244.701, 92413.00
1245.776, 93276.00
1246.850, 93236.00
1247.924, 93269.00
1248.999, 93727.00
1250.073, 93631.00
1251.146, 93778.00
1252.220, 94398.00
1253.293, 94269.00
1254.367, 94659.00
1255.440, 94726.00
1256.513, 95416.00
1257.586, 96392.00
1258.658, 95722.00
1259.731, 95723.00
1260.803, 95976.00
1261.875, 97085.00
1262.947, 96810.42
1264.019, 96700.00
1265.091, 97331.00
1266.162, 97054.00
1267.234, 98146.00
1268.305, 97945.00
1269.376, 98275.00
1270.447, 98337.00
1271.517, 98544.00
1272.588, 98995.00
1273.658, 99199.00
1274.729, 99518.00
1275.799, 99178.00
1276.868, 99887.00
1277.938, 99553.00
1279.008, 100161.0
1280.077, 100434.0
1281.146, 100434.0
1282.215, 100684.0
1283.284, 100543.0
1284.353, 100432.0
1285.421, 101062.0
1286.490, 100671.0
1287.558, 101381.0
1288.626, 101647.0
1289.694, 101515.0
1290.762, 102435.0
1291.829, 102369.0
1292.897, 103017.0
