##NAMES=Mesolite
##RRUFFID=R050013
##IDEAL CHEMISTRY=Na_2_Ca_2_(Si_9_Al_6_)O_30_&#183;8H_2_O
##LOCALITY=Poona, Maharashtra, India
##OWNER=RRUFF
##SOURCE=University of Arizona Mineral Museum
##DESCRIPTION=Clear to white elongated prismatic single crystal
##STATUS=The identification of this mineral has been confirmed by X-ray diffraction and chemical analysis
##URL=rruff.info/R050013
##MEASURED CHEMISTRY=Na_2.00_Ca_2.00_(Si_9.00_Al_6.00_)O_30_Â·8H_2_O
##PIN_ID=M00096
##ORIENTATION=Laser parallel to b* (0 1 0). Fiducial mark perpendicular to laser is parallel to c [0 0 1]
88.54200, 20292.00
89.77700, 21872.00
91.01200, 23120.00
92.24600, 24122.00
93.48000, 25082.00
94.71400, 25717.00
95.94800, 26326.00
97.18200, 27303.00
98.41600, 27955.00
99.64900, 27944.00
100.8830, 27402.00
102.1160, 26827.00
103.3490, 26486.00
104.5820, 26569.00
105.8150, 27109.00
107.0470, 27557.00
108.2800, 26337.00
109.5120, 25688.00
110.7440, 25836.00
111.9760, 25588.00
113.2080, 25944.00
114.4400, 26116.00
115.6710, 26567.00
116.9030, 27355.00
118.1340, 28346.00
119.3650, 29422.00
120.5960, 30173.00
121.8270, 31470.00
123.0580, 32740.00
124.2880, 33376.00
125.5190, 33003.00
126.7490, 32930.00
127.9790, 33604.00
129.2090, 34727.00
130.4390, 35728.00
131.6680, 36131.00
132.8980, 34971.00
134.1270, 33116.00
135.3560, 31247.00
136.5850, 29250.00
137.8140, 27667.00
139.0430, 26600.00
140.2710, 25811.00
141.5000, 25297.00
142.7280, 24719.00
143.9560, 25081.00
145.1840, 25353.00
146.4120, 25516.00
147.6390, 25505.00
148.8670, 25694.00
150.0940, 25184.00
151.3210, 24763.00
152.5490, 24632.00
153.7750, 24561.00
155.0020, 24603.00
156.2290, 24641.00
157.4550, 24791.00
158.6810, 24961.00
159.9080, 25334.00
161.1340, 25312.00
162.3590, 25552.00
163.5850, 25545.00
164.8110, 25568.00
166.0360, 25414.00
167.2610, 25427.00
168.4860, 25145.00
169.7110, 24834.00
170.9360, 24860.00
172.1610, 24722.00
173.3850, 24335.00
174.6100, 24328.00
175.8340, 24027.00
177.0580, 23950.00
178.2820, 23529.00
179.5050, 23463.00
180.7290, 23407.00
181.9520, 23633.00
183.1760, 23448.00
184.3990, 23113.00
185.6220, 22996.00
186.8450, 22690.00
188.0670, 22806.00
189.2900, 22851.00
190.5120, 22440.00
191.7340, 22260.00
192.9560, 21752.00
194.1780, 21193.00
195.4000, 20815.00
196.6220, 20303.00
197.8430, 20051.00
199.0640, 19838.48
200.2860, 19896.00
201.5070, 19589.00
202.7270, 19513.00
203.9480, 19385.00
205.1690, 19092.00
206.3890, 18848.00
207.6090, 18536.00
208.8290, 18425.00
210.0490, 18004.00
211.2690, 18013.00
212.4890, 18210.00
213.7080, 18296.00
214.9280, 18648.00
216.1470, 18867.00
217.3660, 19257.00
218.5850, 19411.00
219.8030, 19669.92
221.0220, 20084.00
222.2400, 20082.00
223.4590, 20276.00
224.6770, 20455.00
225.8950, 20677.00
227.1120, 21044.00
228.3300, 21188.00
229.5480, 21474.00
230.7650, 21768.00
231.9820, 21650.00
233.1990, 21630.00
234.4160, 21483.00
235.6330, 21451.00
236.8490, 21458.00
238.0660, 21225.00
239.2820, 21018.00
240.4980, 20420.00
241.7140, 20257.00
242.9300, 20018.00
244.1460, 19837.00
245.3610, 19593.00
246.5770, 19419.00
247.7920, 19078.00
249.0070, 19008.00
250.2220, 18947.00
251.4370, 18793.00
252.6510, 18987.00
253.8660, 18762.00
255.0800, 18833.00
256.2940, 19302.00
257.5080, 19546.00
258.7220, 19532.00
259.9360, 19156.00
261.1490, 19038.00
262.3630, 19074.00
263.5760, 18850.00
264.7890, 19141.00
266.0020, 19127.00
267.2150, 19132.00
268.4270, 18905.00
269.6400, 18781.00
270.8520, 18793.00
272.0640, 18721.00
273.2760, 18744.58
274.4880, 18822.00
275.7000, 18871.00
276.9120, 18927.00
278.1230, 19094.00
279.3340, 19166.00
280.5450, 19054.00
281.7560, 19303.00
282.9670, 19489.00
284.1780, 19884.00
285.3880, 19935.00
286.5980, 20395.00
287.8090, 20620.00
289.0190, 20673.00
290.2290, 20964.00
291.4380, 20956.00
292.6480, 20796.00
293.8570, 20809.00
295.0670, 21021.00
296.2760, 20845.00
297.4850, 20737.00
298.6930, 20270.00
299.9020, 20291.00
301.1110, 19801.00
302.3190, 19664.00
303.5270, 19651.00
304.7350, 19584.00
305.9430, 19632.00
307.1510, 19318.00
308.3580, 19326.00
309.5660, 19335.00
310.7730, 19432.00
311.9800, 19398.00
313.1870, 19476.00
314.3940, 19610.00
315.6010, 19525.00
316.8070, 19702.00
318.0130, 19779.00
319.2200, 19907.00
320.4260, 20088.00
321.6310, 20113.00
322.8370, 20155.78
324.0430, 20087.00
325.2480, 20082.00
326.4540, 20158.00
327.6590, 20034.00
328.8640, 20052.00
330.0680, 20087.00
331.2730, 20085.00
332.4780, 20346.00
333.6820, 20251.00
334.8860, 20341.00
336.0900, 20090.00
337.2940, 19874.00
338.4980, 19611.00
339.7010, 19699.00
340.9050, 19516.00
342.1080, 19824.00
343.3110, 19899.00
344.5140, 19941.00
345.7170, 19706.00
346.9200, 19854.00
348.1220, 20024.00
349.3240, 19783.00
350.5270, 19920.00
351.7290, 19675.00
352.9310, 19874.00
354.1320, 19884.00
355.3340, 20050.00
356.5350, 20011.00
357.7370, 20140.00
358.9380, 20031.00
360.1390, 20256.00
361.3400, 20428.00
362.5400, 20625.00
363.7410, 20701.90
364.9410, 20800.00
366.1410, 20779.00
367.3410, 20778.00
368.5410, 20735.00
369.7410, 20571.00
370.9400, 20614.00
372.1400, 20494.00
373.3390, 20343.00
374.5380, 20404.00
375.7370, 20196.00
376.9360, 20025.00
378.1350, 19946.00
379.3330, 19763.00
380.5310, 19622.00
381.7300, 19542.43
382.9280, 19431.74
384.1260, 19477.00
385.3230, 19311.00
386.5210, 19498.00
387.7180, 19501.00
388.9160, 19479.00
390.1130, 19412.00
391.3100, 19511.00
392.5060, 19595.00
393.7030, 19660.00
394.9000, 19548.00
396.0960, 19777.00
397.2920, 19665.00
398.4880, 19781.00
399.6840, 19940.00
400.8800, 20342.00
402.0750, 20695.00
403.2710, 20934.00
404.4660, 21219.00
405.6610, 21248.00
406.8560, 21538.00
408.0510, 21631.00
409.2450, 21744.00
410.4400, 21929.00
411.6340, 22004.00
412.8280, 22184.00
414.0220, 22536.00
415.2160, 22846.00
416.4100, 23295.00
417.6030, 23149.00
418.7970, 23612.00
419.9900, 23428.00
421.1830, 23440.00
422.3760, 23776.00
423.5690, 23485.00
424.7610, 23655.00
425.9540, 23829.00
427.1460, 23668.00
428.3380, 23593.00
429.5300, 23692.00
430.7220, 23635.00
431.9140, 23945.00
433.1050, 24085.00
434.2970, 24389.00
435.4880, 25016.00
436.6790, 25435.00
437.8700, 25578.00
439.0610, 25895.00
440.2510, 26083.00
441.4420, 26480.00
442.6320, 26455.00
443.8220, 26592.00
445.0120, 26465.00
446.2020, 26413.00
447.3910, 26175.73
448.5810, 25841.59
449.7700, 25475.00
450.9600, 24962.00
452.1490, 24428.00
453.3370, 23865.00
454.5260, 23571.00
455.7150, 22952.00
456.9030, 22586.00
458.0910, 21876.00
459.2800, 21755.00
460.4670, 21339.00
461.6550, 21291.00
462.8430, 21055.00
464.0300, 20931.00
465.2180, 20732.00
466.4050, 20667.00
467.5920, 20481.00
468.7790, 20467.00
469.9650, 20276.00
471.1520, 20334.00
472.3380, 20206.00
473.5250, 20153.00
474.7110, 20077.00
475.8970, 20223.00
477.0820, 20133.00
478.2680, 20012.00
479.4540, 20224.00
480.6390, 19985.00
481.8240, 19997.00
483.0090, 20094.00
484.1940, 20112.00
485.3780, 20132.00
486.5630, 19996.00
487.7470, 20026.00
488.9320, 20177.00
490.1160, 20070.00
491.3000, 20276.00
492.4830, 20395.00
493.6670, 20462.00
494.8500, 20688.00
496.0340, 20641.00
497.2170, 20788.00
498.4000, 20900.00
499.5820, 21104.00
500.7650, 21358.00
501.9480, 21560.00
503.1300, 21789.00
504.3120, 22180.00
505.4940, 22347.00
506.6760, 22606.00
507.8580, 23079.00
509.0390, 23586.00
510.2210, 24150.00
511.4020, 24936.00
512.5830, 25660.00
513.7640, 26632.00
514.9450, 27666.00
516.1250, 29241.00
517.3060, 30871.00
518.4860, 32990.00
519.6660, 35381.00
520.8460, 38191.00
522.0260, 41375.00
523.2060, 44207.00
524.3850, 47015.00
525.5650, 49276.00
526.7440, 50466.00
527.9230, 50539.00
529.1020, 50063.00
530.2810, 48915.00
531.4590, 47214.00
532.6380, 46000.00
533.8160, 43462.00
534.9940, 40944.00
536.1720, 38938.00
537.3500, 36294.00
538.5270, 34061.79
539.7050, 32359.00
540.8820, 29827.00
542.0590, 28472.00
543.2360, 27331.00
544.4130, 26423.00
545.5900, 25743.00
546.7660, 25300.00
547.9430, 24747.00
549.1190, 24395.39
550.2950, 24081.82
551.4710, 23753.00
552.6470, 23671.00
553.8220, 23285.00
554.9980, 23239.00
556.1730, 22949.00
557.3480, 23041.00
558.5230, 22564.00
559.6980, 22586.00
560.8730, 22524.00
562.0470, 22292.00
563.2220, 22172.00
564.3960, 22058.00
565.5700, 21908.24
566.7440, 21862.31
567.9170, 21701.00
569.0910, 21757.00
570.2640, 21712.00
571.4380, 21642.00
572.6110, 21604.00
573.7840, 21627.00
574.9570, 21733.00
576.1290, 21618.00
577.3020, 21446.00
578.4740, 21597.00
579.6460, 21449.00
580.8180, 21645.00
581.9900, 21516.00
583.1620, 21492.00
584.3330, 21831.00
585.5040, 21790.00
586.6760, 21744.00
587.8470, 21900.00
589.0180, 21919.00
590.1880, 21560.00
591.3590, 21660.00
592.5290, 21503.00
593.7000, 21676.00
594.8700, 21628.00
596.0400, 21639.00
597.2090, 21650.00
598.3790, 21683.00
599.5490, 21722.00
600.7180, 21720.00
601.8870, 21740.18
603.0560, 21763.00
604.2250, 21726.00
605.3940, 21687.00
606.5620, 21626.00
607.7300, 21670.00
608.8990, 21809.00
610.0670, 21808.00
611.2350, 21829.00
612.4020, 21843.00
613.5700, 21938.00
614.7370, 21927.00
615.9050, 22317.00
617.0720, 22552.00
618.2390, 22602.00
619.4060, 22631.00
620.5720, 22800.00
621.7390, 23209.00
622.9050, 23550.00
624.0710, 23715.00
625.2370, 23851.00
626.4030, 23600.00
627.5690, 23416.00
628.7340, 23266.00
629.9000, 22835.00
631.0650, 22883.00
632.2300, 22411.00
633.3950, 22446.00
634.5600, 22380.00
635.7240, 22403.00
636.8890, 22484.00
638.0530, 22573.00
639.2170, 22778.00
640.3810, 22812.91
641.5450, 22964.00
642.7080, 22926.00
643.8720, 23151.00
645.0350, 23147.00
646.1980, 23174.00
647.3610, 23260.00
648.5240, 23474.00
649.6870, 23532.00
650.8490, 23521.00
652.0120, 23519.00
653.1740, 23532.00
654.3360, 23518.00
655.4980, 23219.00
656.6600, 23343.00
657.8210, 23165.00
658.9830, 23298.00
660.1440, 23516.00
661.3050, 23067.00
662.4660, 23317.00
663.6270, 23321.00
664.7870, 23036.00
665.9480, 23209.00
667.1080, 23177.00
668.2680, 23023.00
669.4280, 23138.00
670.5880, 22947.00
671.7480, 22896.00
672.9070, 22860.00
674.0670, 22648.00
675.2260, 22734.00
676.3850, 22581.00
677.5440, 22520.00
678.7030, 22473.00
679.8610, 22551.00
681.0200, 22679.00
682.1780, 22592.00
683.3360, 22674.02
684.4940, 22546.00
685.6520, 22654.00
686.8090, 22595.00
687.9670, 22479.00
689.1240, 22448.00
690.2810, 22531.00
691.4380, 22658.00
692.5950, 22617.00
693.7520, 22717.32
694.9080, 22785.00
696.0650, 22866.00
697.2210, 22928.00
698.3770, 23110.00
699.5330, 23098.00
700.6880, 23399.00
701.8440, 23510.00
702.9990, 23685.00
704.1550, 24093.00
705.3100, 24449.00
706.4650, 24459.00
707.6190, 24639.00
708.7740, 24948.00
709.9290, 24859.00
711.0830, 24971.00
712.2370, 24970.00
713.3910, 24695.00
714.5450, 24628.00
715.6980, 24633.00
716.8520, 24413.00
718.0050, 24247.00
719.1580, 23944.00
720.3110, 23881.96
721.4640, 23755.00
722.6170, 23732.00
723.7700, 23683.00
724.9220, 23639.00
726.0740, 23600.85
727.2260, 23495.00
728.3780, 23536.00
729.5300, 23607.00
730.6810, 23632.00
731.8330, 23555.00
732.9840, 23699.00
734.1350, 23637.00
735.2860, 23646.00
736.4370, 23829.00
737.5880, 23740.00
738.7380, 23786.00
739.8880, 23767.00
741.0390, 23915.00
742.1890, 23962.00
743.3380, 24129.00
744.4880, 24198.00
745.6380, 24409.00
746.7870, 24265.00
747.9360, 24710.00
749.0850, 24853.00
750.2340, 24821.00
751.3830, 24687.00
752.5310, 24663.00
753.6800, 24588.17
754.8280, 24663.00
755.9760, 24443.00
757.1240, 24499.00
758.2720, 24385.00
759.4190, 24430.00
760.5670, 24473.00
761.7140, 24228.00
762.8610, 24311.00
764.0080, 24399.00
765.1550, 24220.00
766.3020, 24207.00
767.4480, 24077.00
768.5950, 24101.00
769.7410, 23775.00
770.8870, 23988.00
772.0330, 23844.00
773.1780, 23887.00
774.3240, 23659.00
775.4690, 23670.00
776.6140, 23631.15
777.7590, 23854.00
778.9040, 23608.00
780.0490, 23748.00
781.1940, 23772.00
782.3380, 23661.00
783.4820, 23764.00
784.6260, 23628.00
785.7700, 23885.00
786.9140, 23851.00
788.0580, 23893.00
789.2010, 23822.00
790.3450, 23918.00
791.4880, 24006.00
792.6310, 23908.00
793.7730, 23879.00
794.9160, 24081.00
796.0590, 24142.00
797.2010, 24127.00
798.3430, 24197.44
799.4850, 24082.00
800.6270, 24168.00
801.7690, 24139.00
802.9100, 24074.00
804.0520, 24197.00
805.1930, 24268.00
806.3340, 24437.00
807.4750, 24111.00
808.6160, 24425.00
809.7560, 24390.00
810.8970, 24219.00
812.0370, 24408.00
813.1770, 24179.00
814.3170, 24461.00
815.4570, 24395.00
816.5960, 24576.00
817.7360, 24728.00
818.8750, 24761.00
820.0140, 24640.00
821.1530, 24553.00
822.2920, 24647.00
823.4310, 24685.00
824.5690, 24940.00
825.7070, 25092.00
826.8460, 24973.00
827.9840, 24942.00
829.1220, 25050.00
830.2590, 25166.00
831.3970, 25074.00
832.5340, 25398.00
833.6710, 25276.00
834.8080, 25138.00
835.9450, 25296.00
837.0820, 25404.00
838.2190, 25413.00
839.3550, 25597.00
840.4910, 25475.00
841.6270, 25562.00
842.7630, 25833.00
843.8990, 25796.00
845.0350, 25732.00
846.1700, 25728.00
847.3060, 26029.00
848.4410, 26085.00
849.5760, 26027.00
850.7100, 26006.00
851.8450, 26036.00
852.9800, 26335.00
854.1140, 26461.00
855.2480, 26635.00
856.3820, 26839.00
857.5160, 26995.00
858.6500, 27012.00
859.7830, 27212.00
860.9170, 27128.00
862.0500, 27105.00
863.1830, 27188.00
864.3160, 26929.00
865.4480, 26795.00
866.5810, 26732.00
867.7130, 26581.00
868.8460, 26487.00
869.9780, 26481.00
871.1100, 26392.00
872.2410, 26640.00
873.3730, 26357.00
874.5050, 26507.00
875.6360, 26312.00
876.7670, 26349.00
877.8980, 26423.00
879.0290, 26310.00
880.1590, 26372.00
881.2900, 26330.00
882.4200, 26329.00
883.5500, 26454.00
884.6800, 26477.00
885.8100, 26299.00
886.9400, 26643.00
888.0690, 26622.00
889.1990, 26473.00
890.3280, 26588.00
891.4570, 26646.00
892.5860, 26617.96
893.7140, 26574.00
894.8430, 26677.00
895.9710, 26730.00
897.1000, 26799.67
898.2280, 26803.75
899.3560, 26815.00
900.4830, 26774.00
901.6110, 26769.00
902.7380, 26745.00
903.8660, 26773.47
904.9930, 26976.00
906.1200, 26725.00
907.2460, 27029.00
908.3730, 26762.00
909.5000, 27062.00
910.6260, 27016.00
911.7520, 27184.00
912.8780, 26718.00
914.0040, 27166.00
915.1290, 26870.00
916.2550, 26977.00
917.3800, 26881.00
918.5050, 26797.00
919.6300, 26830.00
920.7550, 27045.00
921.8800, 26962.00
923.0040, 26952.00
924.1290, 27154.00
925.2530, 27029.00
926.3770, 27155.00
927.5010, 27337.00
928.6250, 27384.00
929.7480, 27472.17
930.8720, 27448.00
931.9950, 27545.00
933.1180, 27666.00
934.2410, 27672.00
935.3640, 27800.00
936.4860, 27632.00
937.6090, 28053.00
938.7310, 27963.07
939.8530, 27781.00
940.9750, 28064.00
942.0970, 27659.00
943.2180, 27720.00
944.3400, 27759.00
945.4610, 27637.00
946.5820, 27728.00
947.7030, 27701.00
948.8240, 27874.00
949.9450, 27801.00
951.0650, 27858.00
952.1860, 27840.00
953.3060, 27869.15
954.4260, 27912.54
955.5460, 27963.00
956.6650, 28047.00
957.7850, 28122.00
958.9040, 28293.00
960.0230, 28285.00
961.1420, 28377.00
962.2610, 28362.00
963.3800, 28535.00
964.4990, 28617.00
965.6170, 28696.29
966.7350, 28796.57
967.8530, 28893.00
968.9710, 29006.00
970.0890, 29114.00
971.2070, 29365.00
972.3240, 29580.00
973.4410, 29971.00
974.5580, 29976.00
975.6750, 30117.00
976.7920, 30432.00
977.9090, 30096.00
979.0250, 30104.00
980.1410, 30161.00
981.2580, 29608.00
982.3740, 29576.00
983.4890, 29467.00
984.6050, 29568.00
985.7200, 29457.00
986.8360, 29161.00
987.9510, 29300.00
989.0660, 29402.00
990.1810, 29032.00
991.2950, 29383.00
992.4100, 29493.00
993.5240, 29269.00
994.6390, 29657.00
995.7530, 29813.00
996.8660, 29835.00
997.9800, 30099.00
999.0940, 30550.00
1000.207, 31237.00
1001.320, 31682.00
1002.433, 31747.00
1003.546, 31076.00
1004.659, 30381.00
1005.772, 30104.00
1006.884, 29991.00
1007.996, 29646.00
1009.108, 29640.00
1010.220, 29774.00
1011.332, 29486.00
1012.444, 29625.00
1013.555, 29414.00
1014.666, 29812.00
1015.777, 29835.00
1016.888, 29888.00
1017.999, 30184.00
1019.110, 30103.00
1020.220, 30448.00
1021.331, 30587.00
1022.441, 30539.00
1023.551, 30812.00
1024.661, 30631.00
1025.770, 30949.00
1026.880, 31156.00
1027.989, 31196.00
1029.098, 31346.68
1030.207, 31293.00
1031.316, 31372.00
1032.425, 31486.00
1033.533, 31598.54
1034.642, 31733.00
1035.750, 32058.00
1036.858, 32439.00
1037.966, 32925.00
1039.073, 33171.00
1040.181, 33735.00
1041.288, 34115.00
1042.396, 33976.00
1043.503, 33884.00
1044.610, 33746.00
1045.716, 33836.00
1046.823, 33340.00
1047.929, 33254.00
1049.036, 32647.00
1050.142, 32116.00
1051.248, 32085.00
1052.353, 31737.00
1053.459, 31376.00
1054.564, 31177.00
1055.670, 31061.00
1056.775, 30683.00
1057.880, 30679.00
1058.985, 30699.00
1060.089, 30512.00
1061.194, 30593.00
1062.298, 30425.00
1063.402, 30598.00
1064.506, 30496.00
1065.610, 30534.00
1066.713, 30666.00
1067.817, 30756.00
1068.920, 30803.00
1070.023, 30914.00
1071.126, 30878.00
1072.229, 31223.00
1073.332, 31398.00
1074.435, 31343.00
1075.537, 31470.00
1076.639, 31906.00
1077.741, 31882.00
1078.843, 32059.00
1079.945, 32475.00
1081.046, 32376.00
1082.148, 32395.00
1083.249, 32496.00
1084.350, 32400.00
1085.451, 31907.00
1086.551, 31659.00
1087.652, 31874.00
1088.752, 31863.00
1089.853, 31823.00
1090.953, 31808.90
1092.053, 31528.00
1093.152, 31602.00
1094.252, 31465.00
1095.351, 31346.00
1096.451, 31317.00
1097.550, 31254.00
1098.649, 31235.83
1099.748, 31064.00
1100.846, 31297.00
1101.945, 31240.00
1103.043, 31394.00
1104.141, 31343.00
1105.239, 31375.00
1106.337, 31418.00
1107.434, 31645.00
1108.532, 31738.00
1109.629, 31648.00
1110.726, 31726.00
1111.823, 31478.00
1112.920, 31562.00
1114.017, 31454.00
1115.113, 31679.00
1116.210, 31885.00
1117.306, 31914.00
1118.402, 31793.00
1119.498, 31672.00
1120.593, 31894.00
1121.689, 31943.00
1122.784, 31832.00
1123.879, 32044.00
1124.974, 31832.00
1126.069, 31799.00
1127.164, 31495.00
1128.259, 31539.00
1129.353, 31450.00
1130.447, 31405.00
1131.541, 31350.00
1132.635, 31705.00
1133.729, 31446.00
1134.822, 31157.00
1135.916, 31480.00
1137.009, 31026.00
1138.102, 31340.00
1139.195, 31708.00
1140.288, 31379.00
1141.380, 31245.00
1142.473, 31346.00
1143.565, 31415.00
1144.657, 31439.00
1145.749, 31364.00
1146.841, 31407.00
1147.932, 31433.07
1149.024, 31291.00
1150.115, 31518.00
1151.206, 31601.00
1152.297, 31616.00
1153.388, 31478.00
1154.479, 31726.00
1155.569, 31773.00
1156.659, 31623.00
1157.750, 31664.00
1158.839, 31789.00
1159.929, 31713.00
1161.019, 31904.00
1162.108, 31867.00
1163.198, 32264.00
1164.287, 31942.00
1165.376, 31948.00
1166.465, 32247.00
1167.553, 32094.00
1168.642, 32247.00
1169.730, 32229.00
1170.818, 32359.00
1171.906, 32221.00
1172.994, 32195.00
1174.082, 32321.00
1175.170, 32213.00
1176.257, 32298.00
1177.344, 32159.00
1178.431, 32356.00
1179.518, 32162.00
1180.605, 32098.00
1181.691, 32265.00
1182.778, 32331.00
1183.864, 32069.00
1184.950, 32132.00
1186.036, 32315.00
1187.122, 32492.00
1188.207, 32580.00
1189.292, 32528.00
1190.378, 32384.00
1191.463, 32247.00
1192.548, 32338.00
1193.632, 32315.00
1194.717, 32510.00
1195.801, 32434.00
1196.886, 32359.00
1197.970, 32514.00
1199.054, 32489.41
1200.137, 32598.00
1201.221, 32625.00
1202.305, 32572.00
1203.388, 32632.00
1204.471, 32329.00
1205.554, 32889.00
1206.637, 32412.00
1207.719, 32753.00
1208.802, 32681.00
1209.884, 32577.00
1210.966, 32627.00
1212.048, 32896.00
1213.130, 33124.00
1214.212, 33189.00
1215.293, 33260.40
1216.374, 33308.26
1217.456, 33188.00
1218.536, 33253.00
1219.617, 33165.00
1220.698, 33039.00
1221.778, 33101.00
1222.859, 33085.00
1223.939, 32968.00
1225.019, 33255.00
1226.099, 33088.00
1227.178, 33218.00
1228.258, 33379.00
1229.337, 33190.00
1230.417, 33455.00
1231.496, 33708.00
1232.574, 33751.00
1233.653, 33762.00
1234.732, 33761.00
1235.810, 33925.00
1236.888, 34092.00
1237.966, 33979.00
1239.044, 34110.00
1240.122, 34181.00
1241.199, 33805.00
1242.277, 33961.00
1243.354, 33982.00
1244.431, 34091.00
1245.508, 34162.57
1246.585, 34103.00
1247.661, 34307.00
1248.738, 34210.00
1249.814, 34297.00
1250.890, 34486.00
1251.966, 34599.00
1253.042, 34547.00
1254.117, 34195.00
1255.193, 34298.00
1256.268, 34479.00
1257.343, 34212.00
1258.418, 34627.00
1259.493, 34335.00
1260.567, 34496.00
1261.642, 35129.00
1262.716, 34737.00
1263.790, 34547.00
1264.864, 34874.00
1265.938, 35089.00
1267.011, 34785.00
1268.085, 35110.00
