##NAMES=Mesolite
##RRUFFID=R050013
##IDEAL CHEMISTRY=Na_2_Ca_2_(Si_9_Al_6_)O_30_&#183;8H_2_O
##LOCALITY=Poona, Maharashtra, India
##OWNER=RRUFF
##SOURCE=University of Arizona Mineral Museum
##DESCRIPTION=Clear to white elongated prismatic single crystal
##STATUS=The identification of this mineral has been confirmed by X-ray diffraction and chemical analysis
##URL=rruff.info/R050013
##MEASURED CHEMISTRY=Na_2.00_Ca_2.00_(Si_9.00_Al_6.00_)O_30_Â·8H_2_O
##PIN_ID=M00096
##ORIENTATION=Laser parallel to b* (0 1 0). Fiducial mark perpendicular to laser is parallel to c [0 0 1]
88.54200, 14572.00
89.77700, 15782.00
91.01200, 16788.00
92.24600, 17774.00
93.48000, 18423.00
94.71400, 18862.00
95.94800, 19626.00
97.18200, 20278.00
98.41600, 20765.00
99.64900, 20603.00
100.8830, 20584.00
102.1160, 20494.00
103.3490, 20572.00
104.5820, 21058.00
105.8150, 21859.00
107.0470, 21733.00
108.2800, 20624.00
109.5120, 19572.00
110.7440, 19168.00
111.9760, 19097.00
113.2080, 19154.00
114.4400, 19074.00
115.6710, 19165.00
116.9030, 19245.00
118.1340, 19582.00
119.3650, 20004.00
120.5960, 20262.00
121.8270, 21201.00
123.0580, 21898.00
124.2880, 22191.00
125.5190, 22206.00
126.7490, 22008.00
127.9790, 22588.00
129.2090, 23377.00
130.4390, 24003.00
131.6680, 24353.00
132.8980, 24381.00
134.1270, 24055.00
135.3560, 23932.00
136.5850, 23266.00
137.8140, 22236.00
139.0430, 21382.00
140.2710, 20884.00
141.5000, 20498.00
142.7280, 20429.00
143.9560, 21038.00
145.1840, 21818.00
146.4120, 22445.00
147.6390, 22731.00
148.8670, 22941.00
150.0940, 22403.00
151.3210, 21792.00
152.5490, 21711.00
153.7750, 21631.00
155.0020, 21729.00
156.2290, 22083.00
157.4550, 22284.00
158.6810, 22325.00
159.9080, 22092.00
161.1340, 21944.00
162.3590, 21599.00
163.5850, 21364.00
164.8110, 21208.00
166.0360, 21034.00
167.2610, 20830.00
168.4860, 20821.00
169.7110, 20711.00
170.9360, 20919.00
172.1610, 20622.00
173.3850, 20294.00
174.6100, 19473.00
175.8340, 19151.00
177.0580, 18639.00
178.2820, 18203.00
179.5050, 18046.00
180.7290, 17855.00
181.9520, 17438.00
183.1760, 17247.00
184.3990, 17037.00
185.6220, 16841.00
186.8450, 16683.00
188.0670, 16478.98
189.2900, 16233.60
190.5120, 16029.00
191.7340, 15744.00
192.9560, 15345.00
194.1780, 15157.00
195.4000, 14775.00
196.6220, 14671.00
197.8430, 14737.00
199.0640, 14639.00
200.2860, 14550.00
201.5070, 14403.61
202.7270, 14000.00
203.9480, 13983.00
205.1690, 13601.00
206.3890, 13348.00
207.6090, 13270.00
208.8290, 13157.00
210.0490, 13162.00
211.2690, 13286.00
212.4890, 13424.00
213.7080, 13665.00
214.9280, 14414.00
216.1470, 14585.00
217.3660, 14892.00
218.5850, 15218.00
219.8030, 15473.00
221.0220, 15796.00
222.2400, 16119.00
223.4590, 16354.00
224.6770, 16551.00
225.8950, 17172.00
227.1120, 17728.00
228.3300, 17962.00
229.5480, 18141.00
230.7650, 18095.00
231.9820, 17777.00
233.1990, 17442.00
234.4160, 17158.00
235.6330, 16960.00
236.8490, 16672.00
238.0660, 16596.00
239.2820, 16323.00
240.4980, 16290.00
241.7140, 16349.00
242.9300, 16262.00
244.1460, 16089.00
245.3610, 15887.00
246.5770, 15514.00
247.7920, 15100.00
249.0070, 14678.00
250.2220, 14462.00
251.4370, 14232.00
252.6510, 13986.00
253.8660, 13846.00
255.0800, 13983.00
256.2940, 14365.00
257.5080, 14898.00
258.7220, 14532.00
259.9360, 14146.00
261.1490, 13768.00
262.3630, 13946.00
263.5760, 13688.00
264.7890, 13663.00
266.0020, 13462.00
267.2150, 13464.00
268.4270, 13303.00
269.6400, 13194.00
270.8520, 13256.00
272.0640, 13268.00
273.2760, 13386.00
274.4880, 13535.00
275.7000, 13413.00
276.9120, 13494.00
278.1230, 13773.00
279.3340, 13696.00
280.5450, 13996.00
281.7560, 14175.00
282.9670, 14757.00
284.1780, 14980.00
285.3880, 15371.00
286.5980, 15617.00
287.8090, 15929.00
289.0190, 16265.00
290.2290, 16441.00
291.4380, 16582.00
292.6480, 16883.00
293.8570, 16810.00
295.0670, 16844.40
296.2760, 16903.00
297.4850, 16614.00
298.6930, 16318.00
299.9020, 16053.00
301.1110, 15608.00
302.3190, 15451.00
303.5270, 15308.00
304.7350, 14956.00
305.9430, 14885.00
307.1510, 14633.00
308.3580, 14372.00
309.5660, 14241.00
310.7730, 14203.00
311.9800, 14272.00
313.1870, 14174.00
314.3940, 14207.00
315.6010, 14178.00
316.8070, 14179.00
318.0130, 14211.00
319.2200, 14043.00
320.4260, 14018.00
321.6310, 14068.00
322.8370, 14129.00
324.0430, 13999.00
325.2480, 14148.00
326.4540, 14069.00
327.6590, 13990.00
328.8640, 14022.00
330.0680, 13924.00
331.2730, 14140.00
332.4780, 14127.00
333.6820, 14059.00
334.8860, 13885.00
336.0900, 13928.00
337.2940, 13738.00
338.4980, 13716.00
339.7010, 13904.00
340.9050, 13979.00
342.1080, 13955.00
343.3110, 13979.00
344.5140, 14124.00
345.7170, 14177.00
346.9200, 14260.00
348.1220, 14257.00
349.3240, 14297.00
350.5270, 14273.00
351.7290, 14528.00
352.9310, 14425.00
354.1320, 14619.00
355.3340, 14536.00
356.5350, 14566.00
357.7370, 14515.00
358.9380, 14635.00
360.1390, 14746.00
361.3400, 14738.00
362.5400, 14693.00
363.7410, 14786.00
364.9410, 14956.00
366.1410, 14686.00
367.3410, 14713.00
368.5410, 14811.00
369.7410, 14642.00
370.9400, 14616.00
372.1400, 14322.00
373.3390, 14063.00
374.5380, 13997.00
375.7370, 14002.00
376.9360, 13797.00
378.1350, 13643.00
379.3330, 13673.00
380.5310, 13508.00
381.7300, 13464.00
382.9280, 13611.00
384.1260, 13378.00
385.3230, 13537.00
386.5210, 13501.00
387.7180, 13579.00
388.9160, 13505.00
390.1130, 13622.00
391.3100, 13621.00
392.5060, 13763.00
393.7030, 13672.00
394.9000, 13729.00
396.0960, 13667.00
397.2920, 13867.00
398.4880, 13940.00
399.6840, 14289.00
400.8800, 14477.00
402.0750, 14712.00
403.2710, 15081.00
404.4660, 15395.00
405.6610, 15671.00
406.8560, 16042.00
408.0510, 16195.00
409.2450, 16562.00
410.4400, 16960.00
411.6340, 17324.00
412.8280, 17861.00
414.0220, 18234.00
415.2160, 18850.00
416.4100, 18880.00
417.6030, 18671.00
418.7970, 19107.00
419.9900, 19107.00
421.1830, 19316.00
422.3760, 19524.00
423.5690, 19544.00
424.7610, 19599.00
425.9540, 19581.99
427.1460, 19686.00
428.3380, 19492.00
429.5300, 19337.00
430.7220, 19398.00
431.9140, 19423.00
433.1050, 19728.00
434.2970, 19944.00
435.4880, 20091.00
436.6790, 20878.00
437.8700, 21419.00
439.0610, 21759.00
440.2510, 22144.00
441.4420, 22349.00
442.6320, 22940.00
443.8220, 22858.00
445.0120, 22866.00
446.2020, 22733.00
447.3910, 22458.00
448.5810, 22265.00
449.7700, 21775.00
450.9600, 21142.00
452.1490, 20360.00
453.3370, 19754.00
454.5260, 19029.00
455.7150, 18442.00
456.9030, 17875.00
458.0910, 17378.68
459.2800, 17060.00
460.4670, 16562.00
461.6550, 16278.00
462.8430, 15981.00
464.0300, 15629.00
465.2180, 15429.00
466.4050, 15276.00
467.5920, 15219.00
468.7790, 15019.00
469.9650, 14659.00
471.1520, 14760.00
472.3380, 14730.00
473.5250, 14521.93
474.7110, 14693.00
475.8970, 14298.00
477.0820, 14362.00
478.2680, 14396.00
479.4540, 14316.00
480.6390, 14270.00
481.8240, 14186.00
483.0090, 14232.00
484.1940, 14134.00
485.3780, 14265.00
486.5630, 14314.00
487.7470, 14316.00
488.9320, 14365.00
490.1160, 14472.00
491.3000, 14473.00
492.4830, 14490.00
493.6670, 14659.00
494.8500, 14762.00
496.0340, 15057.00
497.2170, 15191.00
498.4000, 15258.00
499.5820, 15294.00
500.7650, 15861.00
501.9480, 15976.00
503.1300, 16225.00
504.3120, 16575.00
505.4940, 16844.00
506.6760, 17376.00
507.8580, 17856.00
509.0390, 18375.00
510.2210, 19011.00
511.4020, 19766.00
512.5830, 20370.00
513.7640, 21549.76
514.9450, 22734.00
516.1250, 24421.00
517.3060, 26213.00
518.4860, 28632.00
519.6660, 31409.00
520.8460, 34386.00
522.0260, 37833.00
523.2060, 41434.00
524.3850, 44453.00
525.5650, 47002.00
526.7440, 48939.00
527.9230, 50330.01
529.1020, 51286.00
530.2810, 51485.00
531.4590, 51233.00
532.6380, 50501.00
533.8160, 48674.00
534.9940, 45597.00
536.1720, 41370.00
537.3500, 37601.00
538.5270, 33726.00
539.7050, 30593.00
540.8820, 27696.00
542.0590, 25261.00
543.2360, 23656.00
544.4130, 22271.00
545.5900, 20941.00
546.7660, 20106.00
547.9430, 19194.00
549.1190, 18613.00
550.2950, 18295.00
551.4710, 17998.00
552.6470, 17458.00
553.8220, 17377.00
554.9980, 17048.00
556.1730, 16762.00
557.3480, 16559.00
558.5230, 16429.00
559.6980, 16167.00
560.8730, 15863.00
562.0470, 15913.00
563.2220, 15642.00
564.3960, 15615.00
565.5700, 15573.00
566.7440, 15400.00
567.9170, 15310.00
569.0910, 15504.00
570.2640, 15324.00
571.4380, 15154.00
572.6110, 15389.00
573.7840, 15212.00
574.9570, 15136.00
576.1290, 15200.00
577.3020, 15093.00
578.4740, 15236.00
579.6460, 15123.00
580.8180, 15179.00
581.9900, 15150.00
583.1620, 15167.00
584.3330, 15213.00
585.5040, 15183.00
586.6760, 15320.00
587.8470, 15255.00
589.0180, 15244.00
590.1880, 15349.00
591.3590, 15215.00
592.5290, 14972.00
593.7000, 15101.00
594.8700, 15028.00
596.0400, 15038.00
597.2090, 15189.00
598.3790, 15288.00
599.5490, 15119.00
600.7180, 15165.00
601.8870, 15110.00
603.0560, 15227.00
604.2250, 15176.00
605.3940, 15082.00
606.5620, 15087.00
607.7300, 15206.00
608.8990, 14997.00
610.0670, 15079.00
611.2350, 15108.00
612.4020, 14893.00
613.5700, 15051.00
614.7370, 15247.00
615.9050, 15429.00
617.0720, 15489.00
618.2390, 15557.00
619.4060, 15601.00
620.5720, 15902.00
621.7390, 16094.00
622.9050, 16281.00
624.0710, 16447.00
625.2370, 16425.00
626.4030, 16383.00
627.5690, 16210.00
628.7340, 15971.00
629.9000, 15861.00
631.0650, 15557.00
632.2300, 15426.00
633.3950, 15472.00
634.5600, 15353.00
635.7240, 15382.00
636.8890, 15275.00
638.0530, 15461.00
639.2170, 15570.00
640.3810, 15652.00
641.5450, 15785.00
642.7080, 15866.00
643.8720, 15892.00
645.0350, 16033.00
646.1980, 16269.00
647.3610, 16259.00
648.5240, 16458.00
649.6870, 16238.00
650.8490, 16351.00
652.0120, 16371.00
653.1740, 16398.00
654.3360, 16377.00
655.4980, 16472.00
656.6600, 16248.00
657.8210, 16299.00
658.9830, 16171.00
660.1440, 16300.00
661.3050, 16432.00
662.4660, 16468.00
663.6270, 16415.00
664.7870, 16622.00
665.9480, 16417.00
667.1080, 16407.00
668.2680, 16351.00
669.4280, 16407.00
670.5880, 16223.00
671.7480, 16015.00
672.9070, 16032.00
674.0670, 15805.00
675.2260, 15596.00
676.3850, 15495.00
677.5440, 15492.00
678.7030, 15334.00
679.8610, 15355.00
681.0200, 15384.00
682.1780, 15305.00
683.3360, 15225.00
684.4940, 15246.87
685.6520, 15317.00
686.8090, 15256.00
687.9670, 15260.00
689.1240, 15292.00
690.2810, 15132.00
691.4380, 15195.00
692.5950, 15300.00
693.7520, 15263.00
694.9080, 15507.00
696.0650, 15472.00
697.2210, 15447.00
698.3770, 15674.00
699.5330, 15819.00
700.6880, 16107.00
701.8440, 16140.00
702.9990, 16493.00
704.1550, 16895.00
705.3100, 16979.00
706.4650, 17373.00
707.6190, 17270.00
708.7740, 17778.00
709.9290, 17783.00
711.0830, 17999.00
712.2370, 17956.00
713.3910, 17999.00
714.5450, 17857.00
715.6980, 17706.00
716.8520, 17349.00
718.0050, 17048.00
719.1580, 16918.00
720.3110, 16710.00
721.4640, 16446.00
722.6170, 16208.00
723.7700, 16076.00
724.9220, 15994.00
726.0740, 15968.00
727.2260, 16014.00
728.3780, 16110.00
729.5300, 15970.00
730.6810, 16024.00
731.8330, 15958.00
732.9840, 15904.00
734.1350, 15923.00
735.2860, 15890.00
736.4370, 15834.00
737.5880, 15925.00
738.7380, 15969.49
739.8880, 16239.00
741.0390, 16134.00
742.1890, 16352.00
743.3380, 16351.00
744.4880, 16727.00
745.6380, 16756.00
746.7870, 16828.00
747.9360, 16988.00
749.0850, 17075.00
750.2340, 17132.00
751.3830, 17221.00
752.5310, 17058.00
753.6800, 17222.00
754.8280, 17116.00
755.9760, 17000.00
757.1240, 17146.00
758.2720, 17024.00
759.4190, 16897.00
760.5670, 16759.00
761.7140, 16723.00
762.8610, 16757.00
764.0080, 16598.00
765.1550, 16561.00
766.3020, 16431.00
767.4480, 16346.79
768.5950, 16400.00
769.7410, 16155.00
770.8870, 16026.00
772.0330, 15875.00
773.1780, 15974.00
774.3240, 16014.00
775.4690, 15757.00
776.6140, 15667.00
777.7590, 15940.00
778.9040, 15766.00
780.0490, 15795.00
781.1940, 15696.00
782.3380, 15753.00
783.4820, 15718.00
784.6260, 15973.00
785.7700, 15803.00
786.9140, 15729.00
788.0580, 15971.00
789.2010, 15927.00
790.3450, 15942.00
791.4880, 15825.00
792.6310, 15967.00
793.7730, 15846.00
794.9160, 15917.00
796.0590, 16028.00
797.2010, 16048.00
798.3430, 16157.00
799.4850, 16089.00
800.6270, 15934.00
801.7690, 16000.00
802.9100, 16027.00
804.0520, 16102.00
805.1930, 16112.00
806.3340, 16008.00
807.4750, 16096.00
808.6160, 15941.00
809.7560, 16161.00
810.8970, 16105.00
812.0370, 16254.00
813.1770, 16264.00
814.3170, 16201.00
815.4570, 16279.00
816.5960, 16225.00
817.7360, 16130.00
818.8750, 16258.00
820.0140, 16267.00
821.1530, 16345.00
822.2920, 16323.00
823.4310, 16386.00
824.5690, 16489.00
825.7070, 16559.00
826.8460, 16427.00
827.9840, 16434.00
829.1220, 16609.00
830.2590, 16634.00
831.3970, 16731.00
832.5340, 16673.00
833.6710, 16741.14
834.8080, 16813.00
835.9450, 16787.00
837.0820, 16833.00
838.2190, 16822.00
839.3550, 16918.00
840.4910, 16967.10
841.6270, 17010.88
842.7630, 17135.00
843.8990, 17125.00
845.0350, 17230.00
846.1700, 17298.00
847.3060, 17233.00
848.4410, 17324.00
849.5760, 17391.00
850.7100, 17420.00
851.8450, 17489.00
852.9800, 17741.00
854.1140, 17577.00
855.2480, 17934.00
856.3820, 18022.00
857.5160, 18159.00
858.6500, 18380.00
859.7830, 18395.00
860.9170, 18367.00
862.0500, 18343.00
863.1830, 18142.00
864.3160, 17944.00
865.4480, 17866.00
866.5810, 17691.28
867.7130, 17678.00
868.8460, 17467.00
869.9780, 17438.00
871.1100, 17395.00
872.2410, 17475.00
873.3730, 17410.00
874.5050, 17393.00
875.6360, 17468.00
876.7670, 17462.00
877.8980, 17486.00
879.0290, 17464.00
880.1590, 17474.00
881.2900, 17515.00
882.4200, 17450.00
883.5500, 17471.07
884.6800, 17432.00
885.8100, 17485.00
886.9400, 17415.00
888.0690, 17491.00
889.1990, 17501.00
890.3280, 17539.00
891.4570, 17601.00
892.5860, 17583.00
893.7140, 17516.00
894.8430, 17464.00
895.9710, 17779.00
897.1000, 17620.00
898.2280, 17715.00
899.3560, 17458.00
900.4830, 17730.00
901.6110, 17666.00
902.7380, 17603.00
903.8660, 17631.00
904.9930, 17635.00
906.1200, 17691.00
907.2460, 17666.00
908.3730, 17716.00
909.5000, 17712.00
910.6260, 17813.00
911.7520, 17874.00
912.8780, 17802.00
914.0040, 17978.00
915.1290, 17754.00
916.2550, 17732.00
917.3800, 17720.00
918.5050, 17617.00
919.6300, 17706.00
920.7550, 17691.00
921.8800, 17573.00
923.0040, 17624.00
924.1290, 17553.00
925.2530, 17778.00
926.3770, 17658.00
927.5010, 17928.00
928.6250, 18030.00
929.7480, 17950.00
930.8720, 18132.00
931.9950, 18233.00
933.1180, 18389.00
934.2410, 18202.00
935.3640, 18358.00
936.4860, 18186.00
937.6090, 18267.00
938.7310, 18329.00
939.8530, 18191.00
940.9750, 18201.00
942.0970, 18091.00
943.2180, 18151.00
944.3400, 17989.00
945.4610, 17997.00
946.5820, 17998.00
947.7030, 18086.00
948.8240, 18146.00
949.9450, 18247.00
951.0650, 18396.00
952.1860, 18370.00
953.3060, 18447.00
954.4260, 18462.91
955.5460, 18383.00
956.6650, 18471.00
957.7850, 18554.00
958.9040, 18578.00
960.0230, 18535.00
961.1420, 18513.00
962.2610, 18522.00
963.3800, 18937.00
964.4990, 18858.00
965.6170, 18958.00
966.7350, 19268.00
967.8530, 19318.00
968.9710, 19602.00
970.0890, 19815.00
971.2070, 19954.00
972.3240, 20357.00
973.4410, 20332.00
974.5580, 20672.00
975.6750, 20640.00
976.7920, 20933.00
977.9090, 20521.00
979.0250, 20477.00
980.1410, 20375.00
981.2580, 20061.00
982.3740, 19966.00
983.4890, 19807.00
984.6050, 19589.00
985.7200, 19664.00
986.8360, 19514.00
987.9510, 19694.00
989.0660, 19526.00
990.1810, 19492.00
991.2950, 19629.00
992.4100, 19509.00
993.5240, 19682.00
994.6390, 19838.00
995.7530, 20107.00
996.8660, 20216.00
997.9800, 20412.00
999.0940, 20662.00
1000.207, 21439.00
1001.320, 21524.00
1002.433, 21587.00
1003.546, 21033.00
1004.659, 20425.00
1005.772, 20269.00
1006.884, 19956.00
1007.996, 19859.00
1009.108, 19701.00
1010.220, 19654.00
1011.332, 19704.00
1012.444, 19571.00
1013.555, 19463.00
1014.666, 19531.00
1015.777, 19652.00
1016.888, 19937.00
1017.999, 19990.38
1019.110, 20069.00
1020.220, 20216.00
1021.331, 20335.00
1022.441, 20403.00
1023.551, 20385.00
1024.661, 20592.00
1025.770, 20708.00
1026.880, 20771.00
1027.989, 20686.00
1029.098, 21031.00
1030.207, 20909.00
1031.316, 21206.00
1032.425, 21186.00
1033.533, 21468.00
1034.642, 21598.00
1035.750, 21915.00
1036.858, 22282.00
1037.966, 22658.00
1039.073, 22974.72
1040.181, 23276.23
1041.288, 23572.00
1042.396, 23739.00
1043.503, 23888.00
1044.610, 23930.00
1045.716, 23779.00
1046.823, 23308.00
1047.929, 22992.00
1049.036, 22527.00
1050.142, 22067.00
1051.248, 21706.00
1052.353, 21307.00
1053.459, 21100.00
1054.564, 20641.00
1055.670, 20594.00
1056.775, 20430.00
1057.880, 20139.00
1058.985, 20120.00
1060.089, 20173.00
1061.194, 20115.00
1062.298, 19947.00
1063.402, 20030.00
1064.506, 20103.00
1065.610, 20051.00
1066.713, 20174.00
1067.817, 20334.00
1068.920, 20422.00
1070.023, 20544.00
1071.126, 20601.00
1072.229, 20747.00
1073.332, 20944.00
1074.435, 21164.00
1075.537, 21282.04
1076.639, 21314.00
1077.741, 21570.00
1078.843, 21578.00
1079.945, 21756.00
1081.046, 21747.00
1082.148, 21701.00
1083.249, 21695.00
1084.350, 21474.00
1085.451, 21189.00
1086.551, 21244.00
1087.652, 21086.00
1088.752, 20948.00
1089.853, 20978.00
1090.953, 20944.00
1092.053, 20911.00
1093.152, 20704.00
1094.252, 20705.00
1095.351, 20618.00
1096.451, 20584.00
1097.550, 20449.00
1098.649, 20391.00
1099.748, 20429.00
1100.846, 20597.00
1101.945, 20537.00
1103.043, 20508.00
1104.141, 20531.00
1105.239, 20501.00
1106.337, 20657.00
1107.434, 20696.00
1108.532, 20599.00
1109.629, 20556.00
1110.726, 20558.00
1111.823, 20526.51
1112.920, 20526.72
1114.017, 20571.00
1115.113, 20579.00
1116.210, 20677.00
1117.306, 20812.00
1118.402, 20732.00
1119.498, 20576.00
1120.593, 20660.00
1121.689, 20694.00
1122.784, 20641.00
1123.879, 20860.00
1124.974, 20710.00
1126.069, 20774.00
1127.164, 20501.00
1128.259, 20439.00
1129.353, 20519.00
1130.447, 20467.00
1131.541, 20394.00
1132.635, 20249.00
1133.729, 20373.00
1134.822, 20207.00
1135.916, 20129.00
1137.009, 20226.00
1138.102, 20100.00
1139.195, 20247.00
1140.288, 20240.00
1141.380, 20327.00
1142.473, 20360.00
1143.565, 20083.00
1144.657, 20131.00
1145.749, 20161.00
1146.841, 20184.00
1147.932, 20218.96
1149.024, 20230.05
1150.115, 20280.00
1151.206, 20260.76
1152.297, 20302.39
1153.388, 20336.00
1154.479, 20319.00
1155.569, 20347.00
1156.659, 20326.00
1157.750, 20342.00
1158.839, 20512.00
1159.929, 20467.00
1161.019, 20555.00
1162.108, 20512.00
1163.198, 20616.00
1164.287, 20423.00
1165.376, 20618.00
1166.465, 20711.00
1167.553, 20592.00
1168.642, 20963.00
1169.730, 20770.00
1170.818, 20784.00
1171.906, 20446.00
1172.994, 20585.00
1174.082, 20870.00
1175.170, 20767.00
1176.257, 20800.00
1177.344, 20597.00
1178.431, 20698.00
1179.518, 20728.00
1180.605, 20700.00
1181.691, 20666.00
1182.778, 20637.00
1183.864, 20669.00
1184.950, 20715.41
1186.036, 20818.00
1187.122, 20817.00
1188.207, 20899.00
1189.292, 20824.00
1190.378, 20884.00
1191.463, 21337.00
1192.548, 21361.00
1193.632, 21574.00
1194.717, 21019.00
1195.801, 20963.00
1196.886, 20736.00
1197.970, 20896.00
1199.054, 20911.00
1200.137, 20959.00
1201.221, 20848.00
1202.305, 20842.00
1203.388, 20880.00
1204.471, 20872.00
1205.554, 20741.00
1206.637, 20821.00
1207.719, 20914.00
1208.802, 21075.00
1209.884, 21100.00
1210.966, 21087.00
1212.048, 21070.00
1213.130, 21104.67
1214.212, 21299.00
1215.293, 21188.00
1216.374, 21187.00
1217.456, 21291.00
1218.536, 21212.00
1219.617, 21213.00
1220.698, 21290.00
1221.778, 21092.00
1222.859, 21335.00
1223.939, 21202.00
1225.019, 21333.00
1226.099, 21201.00
1227.178, 21429.00
1228.258, 21289.00
1229.337, 21570.00
1230.417, 21562.00
1231.496, 21424.00
1232.574, 21529.00
1233.653, 21655.00
1234.732, 21732.00
1235.810, 21873.00
1236.888, 21838.00
1237.966, 21878.00
1239.044, 21797.00
1240.122, 21776.00
1241.199, 21790.00
1242.277, 21795.00
1243.354, 21804.45
1244.431, 21752.00
1245.508, 21876.00
1246.585, 21843.00
1247.661, 21954.00
1248.738, 22092.00
1249.814, 22091.00
1250.890, 21936.00
1251.966, 22053.00
1253.042, 21886.00
1254.117, 21907.00
1255.193, 21946.00
1256.268, 22008.00
1257.343, 22015.00
1258.418, 22054.00
1259.493, 21975.00
1260.567, 22058.00
1261.642, 22053.00
1262.716, 22128.00
1263.790, 22172.22
1264.864, 22385.00
1265.938, 22259.00
1267.011, 22488.00
1268.085, 22515.00
