##NAMES=Mesolite
##RRUFFID=R050013
##IDEAL CHEMISTRY=Na_2_Ca_2_(Si_9_Al_6_)O_30_&#183;8H_2_O
##LOCALITY=Poona, Maharashtra, India
##OWNER=RRUFF
##SOURCE=University of Arizona Mineral Museum
##DESCRIPTION=Clear to white elongated prismatic single crystal
##STATUS=The identification of this mineral has been confirmed by X-ray diffraction and chemical analysis
##URL=rruff.info/R050013
##MEASURED CHEMISTRY=Na_2.00_Ca_2.00_(Si_9.00_Al_6.00_)O_30_Â·8H_2_O
##PIN_ID=M00156
##ORIENTATION=Laser parallel to -a* (-1 0 0). Fiducial mark perpendicular to laser is parallel to b [0 1 0]
113.2080, 16375.00
114.4400, 16132.80
115.6710, 15901.00
116.9030, 15809.00
118.1340, 15725.09
119.3650, 15769.00
120.5960, 15761.00
121.8270, 15864.00
123.0580, 16011.14
124.2880, 16260.00
125.5190, 16560.00
126.7490, 17017.00
127.9790, 17500.00
129.2090, 17873.00
130.4390, 18154.00
131.6680, 18188.00
132.8980, 18507.00
134.1270, 18757.00
135.3560, 18964.00
136.5850, 20290.00
137.8140, 20697.45
139.0430, 21420.00
140.2710, 22009.00
141.5000, 22574.00
142.7280, 22450.00
143.9560, 22141.00
145.1840, 21775.00
146.4120, 21302.00
147.6390, 21261.00
148.8670, 21328.00
150.0940, 21479.00
151.3210, 21461.00
152.5490, 21535.00
153.7750, 21052.00
155.0020, 20852.00
156.2290, 20476.00
157.4550, 20313.00
158.6810, 20166.00
159.9080, 20245.00
161.1340, 20433.00
162.3590, 20497.00
163.5850, 20708.00
164.8110, 20711.00
166.0360, 20627.00
167.2610, 20277.00
168.4860, 20010.00
169.7110, 19819.00
170.9360, 19617.00
172.1610, 19623.00
173.3850, 19590.00
174.6100, 19050.00
175.8340, 19261.00
177.0580, 18867.00
178.2820, 18574.00
179.5050, 18342.00
180.7290, 17946.00
181.9520, 17898.00
183.1760, 17485.00
184.3990, 17386.00
185.6220, 17144.00
186.8450, 17149.00
188.0670, 16897.00
189.2900, 16803.00
190.5120, 16742.00
191.7340, 16752.00
192.9560, 16784.00
194.1780, 16692.00
195.4000, 16848.00
196.6220, 16450.00
197.8430, 16618.00
199.0640, 16478.00
200.2860, 16244.00
201.5070, 16281.00
202.7270, 16104.00
203.9480, 15962.00
205.1690, 15958.00
206.3890, 15945.00
207.6090, 15834.00
208.8290, 15939.00
210.0490, 15882.00
211.2690, 15933.00
212.4890, 15868.00
213.7080, 15891.00
214.9280, 15896.00
216.1470, 15886.00
217.3660, 16107.00
218.5850, 15946.00
219.8030, 16221.00
221.0220, 16085.00
222.2400, 16195.00
223.4590, 16404.00
224.6770, 16154.00
225.8950, 16183.00
227.1120, 16052.00
228.3300, 16187.00
229.5480, 16225.00
230.7650, 16263.00
231.9820, 16249.00
233.1990, 16468.00
234.4160, 16632.00
235.6330, 16781.00
236.8490, 17058.00
238.0660, 17275.00
239.2820, 17069.00
240.4980, 17162.00
241.7140, 16796.00
242.9300, 16493.00
244.1460, 16514.00
245.3610, 16203.00
246.5770, 16077.00
247.7920, 16046.00
249.0070, 16031.00
250.2220, 16005.00
251.4370, 15964.00
252.6510, 16128.00
253.8660, 16136.00
255.0800, 15997.00
256.2940, 16247.00
257.5080, 16176.30
258.7220, 16378.00
259.9360, 16268.00
261.1490, 16238.00
262.3630, 16334.00
263.5760, 16225.00
264.7890, 16404.00
266.0020, 16556.00
267.2150, 16593.00
268.4270, 16606.00
269.6400, 16711.00
270.8520, 16770.00
272.0640, 16858.00
273.2760, 16832.00
274.4880, 16938.00
275.7000, 17148.00
276.9120, 17429.00
278.1230, 17486.00
279.3340, 17922.00
280.5450, 18050.00
281.7560, 18231.00
282.9670, 18658.00
284.1780, 18932.00
285.3880, 19217.00
286.5980, 19445.00
287.8090, 19915.00
289.0190, 20327.00
290.2290, 20260.00
291.4380, 20180.00
292.6480, 20009.00
293.8570, 19656.00
295.0670, 19405.00
296.2760, 18747.00
297.4850, 18596.00
298.6930, 18117.00
299.9020, 17831.00
301.1110, 17673.00
302.3190, 17300.00
303.5270, 17025.00
304.7350, 17102.00
305.9430, 16949.00
307.1510, 16922.00
308.3580, 16906.00
309.5660, 16938.00
310.7730, 16715.00
311.9800, 17002.00
313.1870, 16870.00
314.3940, 16969.00
315.6010, 17166.00
316.8070, 17169.00
318.0130, 17261.00
319.2200, 17269.00
320.4260, 17176.00
321.6310, 17142.00
322.8370, 17037.94
324.0430, 16962.00
325.2480, 16792.00
326.4540, 16678.00
327.6590, 16531.00
328.8640, 16525.00
330.0680, 16518.82
331.2730, 16650.00
332.4780, 16606.00
333.6820, 16730.00
334.8860, 16740.00
336.0900, 16941.00
337.2940, 16949.00
338.4980, 16878.00
339.7010, 17120.00
340.9050, 17225.00
342.1080, 17449.00
343.3110, 17496.00
344.5140, 17792.00
345.7170, 17846.00
346.9200, 17962.00
348.1220, 18309.00
349.3240, 18245.00
350.5270, 18221.00
351.7290, 18085.00
352.9310, 18036.00
354.1320, 17979.00
355.3340, 17779.00
356.5350, 18076.00
357.7370, 17791.00
358.9380, 17868.00
360.1390, 17954.00
361.3400, 17819.00
362.5400, 17681.00
363.7410, 17842.00
364.9410, 17670.00
366.1410, 17480.00
367.3410, 17313.00
368.5410, 17151.00
369.7410, 17093.00
370.9400, 17154.00
372.1400, 16971.00
373.3390, 16918.00
374.5380, 16811.00
375.7370, 16987.00
376.9360, 17002.00
378.1350, 16993.00
379.3330, 17044.07
380.5310, 17002.00
381.7300, 16996.00
382.9280, 17112.00
384.1260, 17025.00
385.3230, 17256.00
386.5210, 17130.00
387.7180, 17322.00
388.9160, 17290.00
390.1130, 17365.00
391.3100, 17399.00
392.5060, 17505.00
393.7030, 17492.00
394.9000, 17779.00
396.0960, 17669.00
397.2920, 17820.00
398.4880, 17934.00
399.6840, 18250.00
400.8800, 18396.31
402.0750, 18505.00
403.2710, 18832.00
404.4660, 19136.00
405.6610, 19383.00
406.8560, 19682.00
408.0510, 19857.00
409.2450, 20014.00
410.4400, 20313.00
411.6340, 20292.00
412.8280, 20009.00
414.0220, 20178.00
415.2160, 20024.00
416.4100, 20120.00
417.6030, 20027.00
418.7970, 20165.00
419.9900, 20053.00
421.1830, 19981.00
422.3760, 19922.00
423.5690, 20000.00
424.7610, 19822.00
425.9540, 19640.00
427.1460, 19801.00
428.3380, 19674.00
429.5300, 19716.00
430.7220, 19851.00
431.9140, 20165.00
433.1050, 20264.00
434.2970, 20546.13
435.4880, 20729.00
436.6790, 21009.00
437.8700, 21329.00
439.0610, 21451.00
440.2510, 21646.00
441.4420, 21311.00
442.6320, 21571.00
443.8220, 21184.00
445.0120, 21151.00
446.2020, 20880.00
447.3910, 20480.00
448.5810, 20283.00
449.7700, 20219.00
450.9600, 19889.00
452.1490, 19881.00
453.3370, 19739.00
454.5260, 19538.00
455.7150, 19405.00
456.9030, 19406.00
458.0910, 19303.00
459.2800, 19171.51
460.4670, 18920.00
461.6550, 18955.00
462.8430, 18856.00
464.0300, 18896.20
465.2180, 18915.00
466.4050, 18900.00
467.5920, 18847.00
468.7790, 18847.00
469.9650, 18810.00
471.1520, 18789.72
472.3380, 18823.00
473.5250, 18743.00
474.7110, 18743.00
475.8970, 18702.00
477.0820, 18978.00
478.2680, 18994.00
479.4540, 18806.00
480.6390, 19195.00
481.8240, 19065.00
483.0090, 18997.00
484.1940, 19237.00
485.3780, 19210.00
486.5630, 19165.00
487.7470, 19377.00
488.9320, 19353.00
490.1160, 19631.00
491.3000, 19526.00
492.4830, 19660.00
493.6670, 19928.00
494.8500, 19913.00
496.0340, 20062.00
497.2170, 20281.00
498.4000, 20496.00
499.5820, 20665.00
500.7650, 20862.00
501.9480, 20990.00
503.1300, 21437.00
504.3120, 21618.00
505.4940, 22094.00
506.6760, 22425.00
507.8580, 22958.00
509.0390, 23516.00
510.2210, 23911.00
511.4020, 24467.00
512.5830, 25405.00
513.7640, 26341.00
514.9450, 27558.00
516.1250, 29326.00
517.3060, 31157.00
518.4860, 33446.00
519.6660, 36312.00
520.8460, 39649.00
522.0260, 43775.00
523.2060, 47462.00
524.3850, 51715.00
525.5650, 55734.00
526.7440, 57924.00
527.9230, 59833.00
529.1020, 59967.00
530.2810, 58149.00
531.4590, 54901.00
532.6380, 50830.00
533.8160, 46646.00
534.9940, 42489.00
536.1720, 38956.00
537.3500, 35500.00
538.5270, 32919.00
539.7050, 30761.00
540.8820, 28691.00
542.0590, 27569.00
543.2360, 26318.00
544.4130, 25473.00
545.5900, 24572.00
546.7660, 24230.00
547.9430, 23520.00
549.1190, 23445.00
550.2950, 22821.00
551.4710, 22774.00
552.6470, 22494.00
553.8220, 22164.00
554.9980, 22030.00
556.1730, 21865.00
557.3480, 21772.00
558.5230, 21651.03
559.6980, 21538.27
560.8730, 21442.00
562.0470, 21352.00
563.2220, 21225.00
564.3960, 21166.00
565.5700, 20943.00
566.7440, 20805.00
567.9170, 21124.00
569.0910, 20838.00
570.2640, 20902.00
571.4380, 20798.00
572.6110, 20891.00
573.7840, 20917.00
574.9570, 20837.00
576.1290, 20749.00
577.3020, 20837.00
578.4740, 20817.00
579.6460, 20787.00
580.8180, 20732.00
581.9900, 20823.00
583.1620, 20711.00
584.3330, 20960.00
585.5040, 20970.00
586.6760, 20949.00
587.8470, 20883.00
589.0180, 20805.00
590.1880, 20686.00
591.3590, 20638.00
592.5290, 20640.00
593.7000, 20678.00
594.8700, 20506.00
596.0400, 20679.00
597.2090, 20994.00
598.3790, 20979.00
599.5490, 20967.00
600.7180, 21001.00
601.8870, 20915.00
603.0560, 20929.25
604.2250, 21039.00
605.3940, 20904.00
606.5620, 20893.00
607.7300, 20901.00
608.8990, 20777.00
610.0670, 21154.00
611.2350, 21170.00
612.4020, 21156.00
613.5700, 21570.00
614.7370, 21562.00
615.9050, 21528.00
617.0720, 21907.00
618.2390, 22072.00
619.4060, 22296.00
620.5720, 22597.00
621.7390, 22804.00
622.9050, 23016.00
624.0710, 23124.00
625.2370, 23180.00
626.4030, 23262.00
627.5690, 23002.00
628.7340, 22881.00
629.9000, 22488.00
631.0650, 22266.00
632.2300, 21931.00
633.3950, 21804.00
634.5600, 21950.00
635.7240, 21766.00
636.8890, 21873.00
638.0530, 22097.00
639.2170, 22052.00
640.3810, 22087.00
641.5450, 22328.00
642.7080, 22597.00
643.8720, 22572.00
645.0350, 22712.98
646.1980, 22764.00
647.3610, 22754.00
648.5240, 22769.00
649.6870, 22768.00
650.8490, 22753.64
652.0120, 22769.00
653.1740, 22720.00
654.3360, 22596.00
655.4980, 22565.00
656.6600, 22445.00
657.8210, 22202.00
658.9830, 22199.00
660.1440, 21876.00
661.3050, 21944.00
662.4660, 21789.00
663.6270, 21707.00
664.7870, 21892.00
665.9480, 21793.00
667.1080, 21763.00
668.2680, 21893.00
669.4280, 21995.00
670.5880, 21646.00
671.7480, 21659.00
672.9070, 21602.00
674.0670, 21527.00
675.2260, 21645.00
676.3850, 21576.16
677.5440, 21726.00
678.7030, 21609.00
679.8610, 21689.00
681.0200, 21794.00
682.1780, 22108.00
683.3360, 21933.00
684.4940, 21912.00
685.6520, 22058.00
686.8090, 21761.00
687.9670, 21942.00
689.1240, 21823.00
690.2810, 21835.00
691.4380, 21803.00
692.5950, 22045.00
693.7520, 21948.00
694.9080, 22147.00
696.0650, 22109.00
697.2210, 22235.00
698.3770, 22163.00
699.5330, 22434.00
700.6880, 22381.00
701.8440, 23014.00
702.9990, 23086.00
704.1550, 23340.00
705.3100, 23735.00
706.4650, 24130.00
707.6190, 24481.00
708.7740, 24217.00
709.9290, 24751.00
711.0830, 24377.00
712.2370, 24178.00
713.3910, 24168.00
714.5450, 23955.00
715.6980, 23587.00
716.8520, 23591.00
718.0050, 23444.00
719.1580, 23128.00
720.3110, 23156.00
721.4640, 23051.00
722.6170, 22852.00
723.7700, 22807.00
724.9220, 22554.00
726.0740, 22622.00
727.2260, 22589.00
728.3780, 22407.00
729.5300, 22614.00
730.6810, 22817.00
731.8330, 22733.00
732.9840, 22802.00
734.1350, 23060.00
735.2860, 22793.00
736.4370, 22752.00
737.5880, 23042.00
738.7380, 22904.00
739.8880, 23098.00
741.0390, 23100.00
742.1890, 23224.00
743.3380, 23223.00
744.4880, 23501.00
745.6380, 23775.00
746.7870, 24029.00
747.9360, 23903.00
749.0850, 24093.00
750.2340, 24106.00
751.3830, 24198.00
752.5310, 24039.00
753.6800, 24117.00
754.8280, 24039.00
755.9760, 23904.00
757.1240, 23954.00
758.2720, 23832.00
759.4190, 23764.00
760.5670, 23723.00
761.7140, 23685.00
762.8610, 23637.00
764.0080, 23550.00
765.1550, 23510.00
766.3020, 23179.00
767.4480, 23200.00
768.5950, 23223.00
769.7410, 23197.00
770.8870, 23426.00
772.0330, 23376.17
773.1780, 23357.00
774.3240, 23442.00
775.4690, 23325.00
776.6140, 23379.00
777.7590, 23277.00
778.9040, 23456.00
780.0490, 23229.00
781.1940, 23287.00
782.3380, 23178.00
783.4820, 23364.00
784.6260, 23358.00
785.7700, 23573.00
786.9140, 23490.00
788.0580, 23628.00
789.2010, 23421.00
790.3450, 23762.00
791.4880, 23422.00
792.6310, 23696.00
793.7730, 23536.00
794.9160, 23372.00
796.0590, 23855.00
797.2010, 23689.00
798.3430, 23670.00
799.4850, 23829.00
800.6270, 23731.00
801.7690, 23760.00
802.9100, 23882.00
804.0520, 23867.00
805.1930, 23761.00
806.3340, 23688.00
807.4750, 23690.00
808.6160, 23980.00
809.7560, 23841.00
810.8970, 23990.00
812.0370, 24057.00
813.1770, 23997.00
814.3170, 24078.00
815.4570, 23955.00
816.5960, 23838.00
817.7360, 24142.00
818.8750, 24051.00
820.0140, 24206.00
821.1530, 24169.00
822.2920, 24283.00
823.4310, 24242.00
824.5690, 24295.00
825.7070, 24589.00
826.8460, 24326.00
827.9840, 24476.00
829.1220, 24615.00
830.2590, 24466.00
831.3970, 24678.00
832.5340, 24829.00
833.6710, 24586.00
834.8080, 24656.00
835.9450, 24573.00
837.0820, 24865.00
838.2190, 24784.00
839.3550, 25154.00
840.4910, 25136.00
841.6270, 25341.00
842.7630, 25505.00
843.8990, 25528.00
845.0350, 25454.00
846.1700, 25490.00
847.3060, 25435.00
848.4410, 25701.00
849.5760, 25533.00
850.7100, 25822.00
851.8450, 26053.00
852.9800, 26144.00
854.1140, 26341.00
855.2480, 26686.00
856.3820, 26585.00
857.5160, 26861.00
858.6500, 26975.00
859.7830, 26878.00
860.9170, 26944.00
862.0500, 26707.00
863.1830, 26510.00
864.3160, 26594.00
865.4480, 26524.00
866.5810, 26604.00
867.7130, 26281.00
868.8460, 25978.00
869.9780, 25948.00
871.1100, 25970.00
872.2410, 25706.00
873.3730, 25682.00
874.5050, 25657.53
875.6360, 25859.00
876.7670, 25649.00
877.8980, 25988.00
879.0290, 25997.00
880.1590, 25911.00
881.2900, 26137.00
882.4200, 25881.00
883.5500, 25832.00
884.6800, 26020.00
885.8100, 25917.00
886.9400, 25615.00
888.0690, 25837.00
889.1990, 25734.00
890.3280, 25817.00
891.4570, 25866.00
892.5860, 25866.00
893.7140, 26011.00
894.8430, 26143.00
895.9710, 26159.00
897.1000, 26073.00
898.2280, 26173.00
899.3560, 26017.00
900.4830, 25971.00
901.6110, 26091.00
902.7380, 26122.00
903.8660, 26093.00
904.9930, 26318.00
906.1200, 26256.00
907.2460, 26190.00
908.3730, 26274.00
909.5000, 26005.00
910.6260, 26378.00
911.7520, 26146.00
912.8780, 26138.00
914.0040, 25975.00
915.1290, 26068.00
916.2550, 25895.00
917.3800, 26046.00
918.5050, 25853.00
919.6300, 26235.00
920.7550, 26161.00
921.8800, 26054.00
923.0040, 26223.00
924.1290, 26143.00
925.2530, 26216.00
926.3770, 26278.00
927.5010, 26219.00
928.6250, 26411.00
929.7480, 26388.43
930.8720, 26449.00
931.9950, 26502.00
933.1180, 26575.00
934.2410, 26730.00
935.3640, 26773.00
936.4860, 26708.00
937.6090, 26615.00
938.7310, 26632.00
939.8530, 26590.00
940.9750, 26517.00
942.0970, 26540.00
943.2180, 26481.00
944.3400, 26502.40
945.4610, 26454.00
946.5820, 26591.00
947.7030, 26625.00
948.8240, 26762.00
949.9450, 26850.00
951.0650, 26776.00
952.1860, 26866.00
953.3060, 26825.00
954.4260, 26721.00
955.5460, 26921.00
956.6650, 26692.00
957.7850, 26943.00
958.9040, 27128.00
960.0230, 27147.00
961.1420, 27163.00
962.2610, 27149.00
963.3800, 27343.00
964.4990, 27329.00
965.6170, 27379.00
966.7350, 27341.00
967.8530, 27321.00
968.9710, 27447.84
970.0890, 27561.00
971.2070, 27706.00
972.3240, 27756.00
973.4410, 27896.00
974.5580, 27931.00
975.6750, 27862.00
976.7920, 27824.00
977.9090, 27821.00
979.0250, 27403.00
980.1410, 27360.00
981.2580, 27280.00
982.3740, 27469.00
983.4890, 27426.00
984.6050, 27487.00
985.7200, 27710.00
986.8360, 27865.00
987.9510, 28097.00
989.0660, 28085.00
990.1810, 28017.00
991.2950, 27941.00
992.4100, 28133.00
993.5240, 28280.00
994.6390, 28365.00
995.7530, 28709.00
996.8660, 28660.00
997.9800, 29050.00
999.0940, 29334.00
1000.207, 29603.00
1001.320, 29939.00
1002.433, 30087.00
1003.546, 29646.00
1004.659, 29199.00
1005.772, 28534.00
1006.884, 28049.00
1007.996, 27838.00
1009.108, 27988.00
1010.220, 28191.00
1011.332, 27927.00
1012.444, 28160.00
1013.555, 28306.00
1014.666, 28182.00
1015.777, 28601.00
1016.888, 28692.00
1017.999, 28863.00
1019.110, 28721.00
1020.220, 28866.00
1021.331, 29135.00
1022.441, 28923.00
1023.551, 29345.00
1024.661, 29450.00
1025.770, 29419.00
1026.880, 29315.00
1027.989, 29496.00
1029.098, 29748.00
1030.207, 29894.00
1031.316, 29796.00
1032.425, 29678.00
1033.533, 29799.00
1034.642, 29829.00
1035.750, 29963.00
1036.858, 30389.00
1037.966, 30740.00
1039.073, 31375.00
1040.181, 31633.00
1041.288, 31657.00
1042.396, 31805.00
1043.503, 31522.00
1044.610, 31163.00
1045.716, 30526.00
1046.823, 30242.00
1047.929, 30018.00
1049.036, 29681.00
1050.142, 29530.00
1051.248, 29245.00
1052.353, 29045.00
1053.459, 29038.00
1054.564, 29086.00
1055.670, 28900.00
1056.775, 28886.00
1057.880, 28730.00
1058.985, 28782.00
1060.089, 28809.00
1061.194, 28647.00
1062.298, 28730.00
1063.402, 28657.00
1064.506, 28796.00
1065.610, 28759.00
1066.713, 28777.00
1067.817, 29110.00
1068.920, 28827.00
1070.023, 28934.00
1071.126, 29223.00
1072.229, 29097.00
1073.332, 29233.00
1074.435, 29070.00
1075.537, 29333.00
1076.639, 29345.00
1077.741, 29328.00
1078.843, 29709.00
1079.945, 29928.00
1081.046, 29977.00
1082.148, 30094.00
1083.249, 29954.00
1084.350, 30161.00
1085.451, 29875.00
1086.551, 29985.00
1087.652, 29736.00
1088.752, 29916.00
1089.853, 30000.00
1090.953, 29917.00
1092.053, 29929.00
1093.152, 30019.00
1094.252, 30122.00
1095.351, 29936.00
1096.451, 30092.00
1097.550, 29746.00
1098.649, 29932.00
1099.748, 29712.00
1100.846, 29625.00
1101.945, 29839.00
1103.043, 29774.00
1104.141, 29981.00
1105.239, 29897.00
1106.337, 29975.00
1107.434, 29963.00
1108.532, 30006.00
1109.629, 30152.00
1110.726, 29855.00
1111.823, 29972.00
1112.920, 30130.00
1114.017, 29833.00
1115.113, 29799.00
1116.210, 29799.00
1117.306, 29819.00
1118.402, 29752.00
1119.498, 30000.00
1120.593, 30091.00
1121.689, 30109.00
1122.784, 29874.00
1123.879, 29885.00
1124.974, 29951.00
1126.069, 29912.00
1127.164, 29808.00
1128.259, 29901.00
1129.353, 29826.00
1130.447, 29904.00
1131.541, 29799.00
1132.635, 29863.37
1133.729, 30101.00
1134.822, 29850.00
1135.916, 29991.00
1137.009, 29767.00
1138.102, 29855.00
1139.195, 29734.00
1140.288, 29579.00
1141.380, 30008.00
1142.473, 29838.00
1143.565, 29924.00
1144.657, 29979.00
1145.749, 29942.00
1146.841, 29969.00
1147.932, 30118.00
1149.024, 30205.00
1150.115, 30171.00
1151.206, 30208.04
1152.297, 30221.00
1153.388, 30124.00
1154.479, 30081.00
1155.569, 30007.00
1156.659, 30125.00
1157.750, 30151.00
1158.839, 30218.00
1159.929, 30177.00
1161.019, 30371.00
1162.108, 30421.00
1163.198, 30389.00
1164.287, 30464.00
1165.376, 30391.00
1166.465, 30317.00
1167.553, 30411.35
1168.642, 30545.00
1169.730, 30546.00
1170.818, 30533.00
1171.906, 30600.00
1172.994, 30535.00
1174.082, 30791.00
1175.170, 30984.00
1176.257, 30915.00
1177.344, 30967.00
1178.431, 30613.00
1179.518, 30799.00
1180.605, 30687.00
1181.691, 30512.00
1182.778, 30565.00
1183.864, 30744.00
1184.950, 30800.00
1186.036, 30746.00
1187.122, 30953.00
1188.207, 30933.00
1189.292, 30938.00
1190.378, 30972.00
1191.463, 30918.06
1192.548, 30808.00
1193.632, 30846.00
1194.717, 30805.00
1195.801, 30796.00
1196.886, 30965.00
1197.970, 31008.00
1199.054, 31104.00
1200.137, 31104.00
1201.221, 31140.00
1202.305, 31282.00
1203.388, 31200.00
1204.471, 31185.00
1205.554, 31087.00
1206.637, 31152.00
1207.719, 31337.00
1208.802, 31268.00
1209.884, 31139.00
1210.966, 31349.00
1212.048, 31322.00
1213.130, 31620.00
1214.212, 31606.00
1215.293, 31756.00
1216.374, 31762.00
1217.456, 31865.00
1218.536, 31801.05
1219.617, 31628.00
1220.698, 31587.00
1221.778, 31500.00
1222.859, 31494.74
1223.939, 31532.00
1225.019, 31557.00
1226.099, 31702.00
1227.178, 31764.00
1228.258, 31786.00
1229.337, 31856.00
1230.417, 31911.18
1231.496, 31948.34
1232.574, 32041.00
1233.653, 32098.00
1234.732, 32167.00
1235.810, 32378.00
1236.888, 32367.00
1237.966, 32396.30
1239.044, 32533.00
1240.122, 32344.00
1241.199, 32257.00
1242.277, 32236.00
1243.354, 32529.00
1244.431, 32806.00
1245.508, 32554.00
1246.585, 32494.00
1247.661, 32474.00
1248.738, 32400.00
1249.814, 32218.00
1250.890, 32444.00
1251.966, 32182.00
1253.042, 32580.00
1254.117, 32313.00
1255.193, 32310.00
1256.268, 32811.00
1257.343, 32724.00
1258.418, 32504.00
1259.493, 32685.00
1260.567, 32831.00
1261.642, 33040.00
1262.716, 33209.00
1263.790, 33000.00
1264.864, 33275.00
1265.938, 33263.00
1267.011, 33492.00
1268.085, 33500.00
1269.158, 33577.00
1270.231, 33436.00
1271.304, 33639.00
1272.377, 33527.00
1273.450, 33632.00
1274.522, 33538.00
1275.594, 33518.32
1276.666, 33537.35
1277.738, 33447.00
1278.810, 33552.00
1279.882, 33533.00
1280.953, 33594.00
1282.025, 33533.00
1283.096, 33502.00
1284.167, 33425.00
1285.238, 33474.00
1286.308, 33539.00
1287.379, 33500.00
1288.449, 33503.00
1289.519, 33509.00
