##NAMES=Mesolite
##RRUFFID=R050013
##IDEAL CHEMISTRY=Na_2_Ca_2_(Si_9_Al_6_)O_30_&#183;8H_2_O
##LOCALITY=Poona, Maharashtra, India
##OWNER=RRUFF
##SOURCE=University of Arizona Mineral Museum
##DESCRIPTION=Clear to white elongated prismatic single crystal
##STATUS=The identification of this mineral has been confirmed by X-ray diffraction and chemical analysis
##URL=rruff.info/R050013
##MEASURED CHEMISTRY=Na_2.00_Ca_2.00_(Si_9.00_Al_6.00_)O_30_Â·8H_2_O
##PIN_ID=M00156
##ORIENTATION=Laser parallel to -a* (-1 0 0). Fiducial mark perpendicular to laser is parallel to b [0 1 0]
113.2080, 17270.10
114.4400, 17459.00
115.6710, 17215.00
116.9030, 17272.00
118.1340, 17289.00
119.3650, 17220.00
120.5960, 17339.00
121.8270, 17672.00
123.0580, 17710.00
124.2880, 18241.00
125.5190, 18565.00
126.7490, 18726.00
127.9790, 19504.00
129.2090, 19755.00
130.4390, 19827.00
131.6680, 19897.00
132.8980, 19996.00
134.1270, 20153.00
135.3560, 20736.00
136.5850, 21358.00
137.8140, 22296.00
139.0430, 23010.00
140.2710, 23973.00
141.5000, 24798.00
142.7280, 25334.00
143.9560, 25062.00
145.1840, 25208.00
146.4120, 25067.00
147.6390, 25253.00
148.8670, 26155.00
150.0940, 26411.00
151.3210, 26565.00
152.5490, 26540.00
153.7750, 26292.00
155.0020, 26049.00
156.2290, 25748.00
157.4550, 25302.00
158.6810, 25255.00
159.9080, 25193.00
161.1340, 25108.00
162.3590, 25355.00
163.5850, 25289.00
164.8110, 25059.00
166.0360, 24724.00
167.2610, 24751.00
168.4860, 24398.00
169.7110, 24116.00
170.9360, 23533.00
172.1610, 23284.00
173.3850, 22827.00
174.6100, 22299.00
175.8340, 22016.00
177.0580, 21753.00
178.2820, 21413.00
179.5050, 21094.00
180.7290, 20983.00
181.9520, 20865.00
183.1760, 20562.00
184.3990, 20416.00
185.6220, 20222.00
186.8450, 19992.00
188.0670, 19886.75
189.2900, 19630.00
190.5120, 19667.00
191.7340, 19618.00
192.9560, 19572.00
194.1780, 19313.00
195.4000, 19297.00
196.6220, 18929.00
197.8430, 18748.00
199.0640, 18605.00
200.2860, 18437.00
201.5070, 18217.00
202.7270, 18181.00
203.9480, 18050.00
205.1690, 17882.00
206.3890, 17972.00
207.6090, 17981.00
208.8290, 17833.00
210.0490, 17923.00
211.2690, 18016.00
212.4890, 18015.00
213.7080, 17728.00
214.9280, 17713.00
216.1470, 17624.00
217.3660, 17525.00
218.5850, 17569.00
219.8030, 17540.27
221.0220, 17721.00
222.2400, 17640.00
223.4590, 17587.00
224.6770, 17716.00
225.8950, 17480.00
227.1120, 17404.00
228.3300, 17475.00
229.5480, 17560.00
230.7650, 17505.00
231.9820, 17704.00
233.1990, 17562.00
234.4160, 17706.00
235.6330, 17693.00
236.8490, 17798.00
238.0660, 17991.00
239.2820, 18116.00
240.4980, 18010.00
241.7140, 17791.00
242.9300, 17725.00
244.1460, 17634.00
245.3610, 17593.45
246.5770, 17731.00
247.7920, 17634.00
249.0070, 17696.00
250.2220, 17789.00
251.4370, 17758.36
252.6510, 17891.00
253.8660, 17868.00
255.0800, 17974.00
256.2940, 18176.00
257.5080, 18389.00
258.7220, 18186.00
259.9360, 18089.00
261.1490, 18104.00
262.3630, 18014.00
263.5760, 18041.00
264.7890, 18381.00
266.0020, 18338.00
267.2150, 18083.00
268.4270, 18231.00
269.6400, 18059.00
270.8520, 18203.00
272.0640, 18213.00
273.2760, 18423.00
274.4880, 18130.00
275.7000, 18589.00
276.9120, 18354.00
278.1230, 18486.00
279.3340, 18581.00
280.5450, 18549.00
281.7560, 19035.00
282.9670, 19097.00
284.1780, 19384.00
285.3880, 19529.00
286.5980, 19912.00
287.8090, 20082.00
289.0190, 20432.00
290.2290, 20444.00
291.4380, 20445.00
292.6480, 20149.00
293.8570, 19881.00
295.0670, 19488.00
296.2760, 19435.00
297.4850, 18984.00
298.6930, 19103.00
299.9020, 18597.00
301.1110, 18462.00
302.3190, 18249.00
303.5270, 18333.00
304.7350, 18108.00
305.9430, 18126.00
307.1510, 18056.00
308.3580, 18073.00
309.5660, 18128.00
310.7730, 17882.00
311.9800, 18096.00
313.1870, 18043.00
314.3940, 18212.00
315.6010, 18164.00
316.8070, 18155.00
318.0130, 18187.00
319.2200, 18395.00
320.4260, 18287.00
321.6310, 18324.28
322.8370, 18279.00
324.0430, 18205.00
325.2480, 18289.00
326.4540, 18167.00
327.6590, 18237.00
328.8640, 18309.00
330.0680, 18304.85
331.2730, 18408.00
332.4780, 18423.00
333.6820, 18347.00
334.8860, 18429.00
336.0900, 18459.00
337.2940, 18623.00
338.4980, 18625.00
339.7010, 18690.00
340.9050, 18761.00
342.1080, 18837.00
343.3110, 19160.00
344.5140, 19269.00
345.7170, 19348.00
346.9200, 19432.00
348.1220, 19375.00
349.3240, 19391.00
350.5270, 19405.00
351.7290, 19053.00
352.9310, 19165.00
354.1320, 19146.00
355.3340, 18976.00
356.5350, 19013.00
357.7370, 18766.00
358.9380, 18977.00
360.1390, 18841.00
361.3400, 18812.00
362.5400, 18831.00
363.7410, 18733.00
364.9410, 18861.00
366.1410, 18612.00
367.3410, 18620.00
368.5410, 18530.00
369.7410, 18757.00
370.9400, 18683.00
372.1400, 18607.00
373.3390, 18638.00
374.5380, 18555.00
375.7370, 18508.00
376.9360, 18740.00
378.1350, 18555.00
379.3330, 18683.00
380.5310, 18548.00
381.7300, 18557.00
382.9280, 18649.00
384.1260, 18734.00
385.3230, 19042.00
386.5210, 19166.00
387.7180, 18966.00
388.9160, 19180.00
390.1130, 19097.00
391.3100, 19243.00
392.5060, 19374.00
393.7030, 19411.00
394.9000, 19535.83
396.0960, 19497.00
397.2920, 19659.00
398.4880, 19703.00
399.6840, 19664.00
400.8800, 19959.00
402.0750, 20093.00
403.2710, 20257.00
404.4660, 20513.00
405.6610, 20704.00
406.8560, 20875.00
408.0510, 21092.00
409.2450, 21270.00
410.4400, 21539.00
411.6340, 21601.00
412.8280, 21798.00
414.0220, 22018.00
415.2160, 21948.00
416.4100, 22350.00
417.6030, 22543.00
418.7970, 22928.00
419.9900, 22842.00
421.1830, 22806.00
422.3760, 22924.00
423.5690, 22886.00
424.7610, 22671.00
425.9540, 22548.00
427.1460, 22565.00
428.3380, 22635.00
429.5300, 22760.21
430.7220, 22884.00
431.9140, 23215.00
433.1050, 23403.00
434.2970, 23724.00
435.4880, 23812.00
436.6790, 24362.00
437.8700, 24664.00
439.0610, 24812.00
440.2510, 24685.00
441.4420, 24709.00
442.6320, 24556.00
443.8220, 24484.00
445.0120, 24117.00
446.2020, 23856.00
447.3910, 23638.00
448.5810, 23044.00
449.7700, 22755.00
450.9600, 22443.00
452.1490, 22372.00
453.3370, 21940.00
454.5260, 21848.00
455.7150, 21744.00
456.9030, 21530.00
458.0910, 21254.00
459.2800, 21308.00
460.4670, 21145.00
461.6550, 21217.00
462.8430, 21131.00
464.0300, 21087.00
465.2180, 21033.00
466.4050, 21070.00
467.5920, 21233.00
468.7790, 21217.00
469.9650, 21254.00
471.1520, 21307.00
472.3380, 21629.00
473.5250, 21527.00
474.7110, 21663.00
475.8970, 21681.00
477.0820, 22090.00
478.2680, 22229.00
479.4540, 22381.00
480.6390, 22351.00
481.8240, 22646.00
483.0090, 22925.00
484.1940, 23326.00
485.3780, 23469.00
486.5630, 23749.00
487.7470, 23844.00
488.9320, 24013.00
490.1160, 24068.00
491.3000, 24203.00
492.4830, 24132.00
493.6670, 24091.00
494.8500, 24070.74
496.0340, 23805.00
497.2170, 23945.00
498.4000, 23771.00
499.5820, 23736.00
500.7650, 23980.00
501.9480, 23925.00
503.1300, 24220.00
504.3120, 24339.00
505.4940, 24418.00
506.6760, 24760.00
507.8580, 25215.00
509.0390, 25540.00
510.2210, 26086.00
511.4020, 26584.00
512.5830, 27213.00
513.7640, 28048.00
514.9450, 29513.00
516.1250, 30899.00
517.3060, 32614.00
518.4860, 34893.00
519.6660, 37773.00
520.8460, 40779.00
522.0260, 44073.00
523.2060, 48262.00
524.3850, 51896.00
525.5650, 55555.00
526.7440, 58259.00
527.9230, 59399.00
529.1020, 59452.00
530.2810, 57262.00
531.4590, 54319.00
532.6380, 49990.00
533.8160, 46085.00
534.9940, 42295.00
536.1720, 38645.00
537.3500, 35941.00
538.5270, 33428.00
539.7050, 31560.00
540.8820, 29666.00
542.0590, 28406.00
543.2360, 27394.00
544.4130, 26680.00
545.5900, 26052.00
546.7660, 25326.00
547.9430, 25043.00
549.1190, 24952.00
550.2950, 24262.00
551.4710, 24226.00
552.6470, 24167.00
553.8220, 23810.00
554.9980, 23652.00
556.1730, 23351.00
557.3480, 23339.00
558.5230, 23385.00
559.6980, 23158.00
560.8730, 23050.00
562.0470, 22905.00
563.2220, 22720.00
564.3960, 22751.00
565.5700, 22784.00
566.7440, 22710.00
567.9170, 22851.00
569.0910, 22552.00
570.2640, 22752.00
571.4380, 22506.00
572.6110, 22513.00
573.7840, 22530.00
574.9570, 22538.00
576.1290, 22318.00
577.3020, 22406.00
578.4740, 22395.00
579.6460, 22389.28
580.8180, 22621.00
581.9900, 22451.00
583.1620, 22577.00
584.3330, 22539.00
585.5040, 22713.00
586.6760, 22385.00
587.8470, 22814.00
589.0180, 22373.00
590.1880, 22547.00
591.3590, 22511.00
592.5290, 22648.00
593.7000, 22499.00
594.8700, 22613.00
596.0400, 22543.00
597.2090, 22694.00
598.3790, 22619.00
599.5490, 22569.00
600.7180, 22697.00
601.8870, 22644.00
603.0560, 22638.00
604.2250, 22661.00
605.3940, 22691.37
606.5620, 22751.00
607.7300, 22779.00
608.8990, 22774.00
610.0670, 22737.00
611.2350, 22773.00
612.4020, 22989.00
613.5700, 22893.00
614.7370, 23274.00
615.9050, 23250.00
617.0720, 23587.00
618.2390, 23713.00
619.4060, 23996.00
620.5720, 24075.00
621.7390, 24285.00
622.9050, 24590.00
624.0710, 24649.00
625.2370, 24971.00
626.4030, 24861.00
627.5690, 24666.00
628.7340, 24691.00
629.9000, 24148.00
631.0650, 24009.00
632.2300, 23763.00
633.3950, 23786.00
634.5600, 23721.00
635.7240, 23667.00
636.8890, 23845.00
638.0530, 23632.00
639.2170, 23891.00
640.3810, 23982.00
641.5450, 24046.00
642.7080, 24278.00
643.8720, 24371.00
645.0350, 24651.00
646.1980, 24641.00
647.3610, 24801.00
648.5240, 24974.00
649.6870, 24623.00
650.8490, 24824.00
652.0120, 24664.00
653.1740, 24650.00
654.3360, 24468.00
655.4980, 24257.00
656.6600, 24212.00
657.8210, 23992.00
658.9830, 23870.00
660.1440, 23755.00
661.3050, 23715.00
662.4660, 23641.00
663.6270, 23233.00
664.7870, 23452.00
665.9480, 23193.00
667.1080, 23496.00
668.2680, 23621.00
669.4280, 23279.00
670.5880, 23319.00
671.7480, 23394.00
672.9070, 23307.00
674.0670, 23146.00
675.2260, 23245.00
676.3850, 23325.00
677.5440, 23591.00
678.7030, 23361.00
679.8610, 23579.00
681.0200, 23415.00
682.1780, 23492.00
683.3360, 23605.00
684.4940, 23581.00
685.6520, 23520.00
686.8090, 23535.00
687.9670, 23666.00
689.1240, 23766.00
690.2810, 23643.00
691.4380, 23645.00
692.5950, 23653.00
693.7520, 24020.00
694.9080, 23907.00
696.0650, 24172.00
697.2210, 24089.00
698.3770, 24122.00
699.5330, 24228.00
700.6880, 24231.00
701.8440, 24615.00
702.9990, 24834.00
704.1550, 25225.00
705.3100, 25286.00
706.4650, 25608.00
707.6190, 25823.00
708.7740, 26103.00
709.9290, 26216.00
711.0830, 26289.00
712.2370, 25930.00
713.3910, 25906.00
714.5450, 25616.00
715.6980, 25457.00
716.8520, 25298.00
718.0050, 25078.00
719.1580, 24948.00
720.3110, 24610.00
721.4640, 24763.00
722.6170, 24694.00
723.7700, 24423.00
724.9220, 24626.00
726.0740, 24614.00
727.2260, 24439.00
728.3780, 24706.00
729.5300, 24512.00
730.6810, 24534.00
731.8330, 24488.00
732.9840, 24579.00
734.1350, 24779.00
735.2860, 24724.00
736.4370, 24664.00
737.5880, 24914.00
738.7380, 24759.00
739.8880, 24545.00
741.0390, 24659.00
742.1890, 24930.00
743.3380, 24855.00
744.4880, 25154.00
745.6380, 25128.00
746.7870, 25430.00
747.9360, 25494.00
749.0850, 25384.00
750.2340, 25641.00
751.3830, 25529.00
752.5310, 25695.00
753.6800, 25624.00
754.8280, 25463.00
755.9760, 25499.00
757.1240, 25540.00
758.2720, 25369.00
759.4190, 25443.00
760.5670, 25443.00
761.7140, 25470.00
762.8610, 25559.00
764.0080, 25182.00
765.1550, 25153.00
766.3020, 25328.00
767.4480, 25332.00
768.5950, 25451.00
769.7410, 25184.00
770.8870, 25000.00
772.0330, 25193.00
773.1780, 25149.00
774.3240, 25227.00
775.4690, 25258.00
776.6140, 25378.00
777.7590, 25161.00
778.9040, 25414.00
780.0490, 25328.00
781.1940, 25224.00
782.3380, 25442.00
783.4820, 25445.00
784.6260, 25303.00
785.7700, 25522.00
786.9140, 25512.00
788.0580, 25634.00
789.2010, 25479.00
790.3450, 25385.00
791.4880, 25628.00
792.6310, 25680.00
793.7730, 25493.00
794.9160, 25748.00
796.0590, 25587.00
797.2010, 25546.00
798.3430, 25617.00
799.4850, 25617.07
800.6270, 25817.00
801.7690, 25756.00
802.9100, 25884.00
804.0520, 25883.00
805.1930, 25871.00
806.3340, 26058.00
807.4750, 25796.00
808.6160, 25860.00
809.7560, 25944.00
810.8970, 25984.00
812.0370, 25958.00
813.1770, 25916.00
814.3170, 26053.00
815.4570, 25944.00
816.5960, 26049.00
817.7360, 26038.00
818.8750, 26198.00
820.0140, 26213.00
821.1530, 26256.00
822.2920, 26342.00
823.4310, 26333.96
824.5690, 26566.00
825.7070, 26428.00
826.8460, 26447.00
827.9840, 26650.00
829.1220, 26702.00
830.2590, 26650.00
831.3970, 26751.00
832.5340, 26930.00
833.6710, 26890.00
834.8080, 26907.00
835.9450, 27020.00
837.0820, 27048.00
838.2190, 27274.00
839.3550, 27091.00
840.4910, 27296.00
841.6270, 27498.00
842.7630, 27287.00
843.8990, 27384.00
845.0350, 27618.00
846.1700, 27611.00
847.3060, 27671.00
848.4410, 27673.00
849.5760, 27673.00
850.7100, 27841.00
851.8450, 27847.00
852.9800, 28357.00
854.1140, 28151.00
855.2480, 28460.00
856.3820, 28783.00
857.5160, 28823.00
858.6500, 29178.00
859.7830, 29157.00
860.9170, 28968.00
862.0500, 29049.00
863.1830, 28734.00
864.3160, 28491.00
865.4480, 28648.00
866.5810, 28480.00
867.7130, 28293.00
868.8460, 28335.00
869.9780, 27960.00
871.1100, 28005.40
872.2410, 28318.00
873.3730, 27993.00
874.5050, 27974.00
875.6360, 28080.00
876.7670, 27852.00
877.8980, 28227.00
879.0290, 28043.00
880.1590, 28102.00
881.2900, 28065.00
882.4200, 28176.00
883.5500, 28111.00
884.6800, 28125.00
885.8100, 28254.00
886.9400, 28218.00
888.0690, 28040.00
889.1990, 27971.00
890.3280, 28045.00
891.4570, 28210.00
892.5860, 28301.00
893.7140, 28190.00
894.8430, 28304.00
895.9710, 28331.00
897.1000, 28386.00
898.2280, 28469.00
899.3560, 28479.00
900.4830, 28511.72
901.6110, 28539.18
902.7380, 28502.00
903.8660, 28557.00
904.9930, 28498.00
906.1200, 28480.00
907.2460, 28634.00
908.3730, 28622.00
909.5000, 28370.00
910.6260, 28635.00
911.7520, 28539.00
912.8780, 28434.00
914.0040, 28563.00
915.1290, 28739.00
916.2550, 28598.00
917.3800, 28684.00
918.5050, 28804.00
919.6300, 28499.00
920.7550, 28553.00
921.8800, 28728.00
923.0040, 28751.00
924.1290, 28841.00
925.2530, 28990.00
926.3770, 29190.00
927.5010, 29500.00
928.6250, 29448.00
929.7480, 29972.00
930.8720, 30263.00
931.9950, 30394.00
933.1180, 30464.00
934.2410, 30620.00
935.3640, 30557.49
936.4860, 30511.00
937.6090, 30352.00
938.7310, 30278.00
939.8530, 30025.00
940.9750, 29830.00
942.0970, 29654.00
943.2180, 29607.00
944.3400, 29273.00
945.4610, 29242.00
946.5820, 29182.00
947.7030, 29491.00
948.8240, 29225.00
949.9450, 29336.00
951.0650, 29505.00
952.1860, 29442.00
953.3060, 29575.00
954.4260, 29686.00
955.5460, 29558.00
956.6650, 29593.00
957.7850, 29814.00
958.9040, 29755.00
960.0230, 29907.00
961.1420, 30082.00
962.2610, 30233.00
963.3800, 30341.00
964.4990, 30393.00
965.6170, 30600.00
966.7350, 30584.00
967.8530, 30680.00
968.9710, 30768.00
970.0890, 31417.00
971.2070, 31117.00
972.3240, 31399.00
973.4410, 31465.00
974.5580, 31182.00
975.6750, 31310.00
976.7920, 31009.00
977.9090, 30898.00
979.0250, 30700.00
980.1410, 30672.00
981.2580, 30527.00
982.3740, 30346.00
983.4890, 30340.00
984.6050, 30462.00
985.7200, 30543.00
986.8360, 30842.00
987.9510, 30824.00
989.0660, 31028.00
990.1810, 31015.00
991.2950, 31183.00
992.4100, 31235.00
993.5240, 31133.00
994.6390, 31161.00
995.7530, 31500.00
996.8660, 31504.00
997.9800, 31793.00
999.0940, 31899.00
1000.207, 32483.00
1001.320, 32492.00
1002.433, 32522.00
1003.546, 32410.00
1004.659, 31807.00
1005.772, 31476.00
1006.884, 31361.00
1007.996, 30781.00
1009.108, 31061.00
1010.220, 31129.00
1011.332, 31120.00
1012.444, 31277.00
1013.555, 31379.00
1014.666, 31256.00
1015.777, 31505.00
1016.888, 31583.00
1017.999, 31590.00
1019.110, 31862.00
1020.220, 31974.00
1021.331, 32398.00
1022.441, 32578.00
1023.551, 32347.00
1024.661, 32781.00
1025.770, 32952.00
1026.880, 32952.00
1027.989, 33423.00
1029.098, 33566.00
1030.207, 33474.00
1031.316, 33796.00
1032.425, 33690.00
1033.533, 34004.00
1034.642, 34102.00
1035.750, 34455.00
1036.858, 35202.00
1037.966, 35642.00
1039.073, 36384.00
1040.181, 37203.00
1041.288, 37527.00
1042.396, 37494.00
1043.503, 37007.00
1044.610, 36044.00
1045.716, 35561.00
1046.823, 34797.00
1047.929, 34428.00
1049.036, 33682.00
1050.142, 33367.00
1051.248, 33142.00
1052.353, 32792.00
1053.459, 32668.84
1054.564, 32518.00
1055.670, 32396.00
1056.775, 32327.00
1057.880, 32153.00
1058.985, 32110.00
1060.089, 32055.00
1061.194, 31983.33
1062.298, 31968.00
1063.402, 31975.00
1064.506, 32088.00
1065.610, 32233.00
1066.713, 32273.00
1067.817, 32384.00
1068.920, 32411.00
1070.023, 32325.00
1071.126, 32219.00
1072.229, 32302.00
1073.332, 32381.00
1074.435, 32424.28
1075.537, 32586.00
1076.639, 32635.00
1077.741, 32720.00
1078.843, 32848.00
1079.945, 32805.00
1081.046, 32976.00
1082.148, 32985.00
1083.249, 33245.00
1084.350, 33239.00
1085.451, 32937.00
1086.551, 33113.00
1087.652, 33069.00
1088.752, 32812.00
1089.853, 33025.00
1090.953, 32694.00
1092.053, 32654.00
1093.152, 32907.00
1094.252, 32778.00
1095.351, 32766.00
1096.451, 32756.00
1097.550, 32663.00
1098.649, 32544.00
1099.748, 32413.00
1100.846, 32667.00
1101.945, 32697.00
1103.043, 32820.00
1104.141, 32723.00
1105.239, 32727.00
1106.337, 32904.00
1107.434, 33156.00
1108.532, 33073.00
1109.629, 33077.00
1110.726, 32904.00
1111.823, 33080.00
1112.920, 32987.00
1114.017, 32900.00
1115.113, 33010.00
1116.210, 32972.00
1117.306, 33060.00
1118.402, 32986.00
1119.498, 33200.00
1120.593, 32971.00
1121.689, 33076.00
1122.784, 33032.00
1123.879, 33181.00
1124.974, 33141.00
1126.069, 33222.00
1127.164, 33199.50
1128.259, 32963.00
1129.353, 33107.00
1130.447, 32861.00
1131.541, 32764.00
1132.635, 32976.00
1133.729, 33002.00
1134.822, 32979.00
1135.916, 32910.00
1137.009, 32825.00
1138.102, 32835.00
1139.195, 32488.00
1140.288, 32866.00
1141.380, 32867.00
1142.473, 32909.00
1143.565, 33245.00
1144.657, 32923.00
1145.749, 32857.00
1146.841, 33122.00
1147.932, 32880.00
1149.024, 32975.00
1150.115, 32987.00
1151.206, 33079.00
1152.297, 32925.00
1153.388, 33353.00
1154.479, 33263.00
1155.569, 33052.00
1156.659, 33310.00
1157.750, 33056.00
1158.839, 33364.00
1159.929, 33183.00
1161.019, 33333.00
1162.108, 33454.00
1163.198, 33391.00
1164.287, 33527.00
1165.376, 33555.00
1166.465, 33549.00
1167.553, 33718.00
1168.642, 33485.00
1169.730, 33917.00
1170.818, 33780.00
1171.906, 33777.00
1172.994, 33965.00
1174.082, 33907.00
1175.170, 33921.00
1176.257, 33791.00
1177.344, 33784.00
1178.431, 33773.00
1179.518, 33741.00
1180.605, 33627.00
1181.691, 33752.00
1182.778, 33736.00
1183.864, 34071.00
1184.950, 33901.00
1186.036, 33686.00
1187.122, 34134.00
1188.207, 34048.00
1189.292, 34187.00
1190.378, 34216.00
1191.463, 33689.00
1192.548, 34151.00
1193.632, 34010.00
1194.717, 34001.00
1195.801, 34188.00
1196.886, 33938.00
1197.970, 34345.00
1199.054, 34427.00
1200.137, 34363.00
1201.221, 34380.00
1202.305, 34399.24
1203.388, 34381.17
1204.471, 34427.00
1205.554, 34381.00
1206.637, 34402.00
1207.719, 34380.00
1208.802, 34353.00
1209.884, 34625.00
1210.966, 34659.00
1212.048, 34731.00
1213.130, 34364.00
1214.212, 34765.00
1215.293, 34702.00
1216.374, 35029.00
1217.456, 34946.00
1218.536, 34817.00
1219.617, 34720.00
1220.698, 34740.68
1221.778, 34665.00
1222.859, 34855.00
1223.939, 34949.00
1225.019, 35101.00
1226.099, 34858.00
1227.178, 35089.00
1228.258, 34938.00
1229.337, 35246.00
1230.417, 35038.00
1231.496, 35443.00
1232.574, 35433.00
1233.653, 35485.00
1234.732, 35320.00
1235.810, 35614.00
1236.888, 35815.00
1237.966, 35474.00
1239.044, 35853.00
1240.122, 35585.00
1241.199, 35432.00
1242.277, 35760.00
1243.354, 36029.00
1244.431, 35835.00
1245.508, 35459.00
1246.585, 35714.00
1247.661, 35950.00
1248.738, 36181.00
1249.814, 35912.00
1250.890, 35981.00
1251.966, 35998.00
1253.042, 35935.00
1254.117, 35947.00
1255.193, 35972.56
1256.268, 35780.00
1257.343, 36077.00
1258.418, 36036.00
1259.493, 36143.00
1260.567, 36372.00
1261.642, 36181.00
1262.716, 36270.00
1263.790, 36650.00
1264.864, 36796.00
1265.938, 36606.00
1267.011, 37189.00
1268.085, 36791.00
1269.158, 36492.00
1270.231, 37207.00
1271.304, 37095.00
1272.377, 37115.00
1273.450, 37083.00
1274.522, 36976.00
1275.594, 37034.00
1276.666, 37006.00
1277.738, 37136.00
1278.810, 36918.00
1279.882, 36977.00
1280.953, 37069.00
1282.025, 36641.00
1283.096, 36957.00
1284.167, 36851.00
1285.238, 36851.00
1286.308, 37218.00
1287.379, 37166.00
1288.449, 37008.00
1289.519, 37031.00
