##NAMES=Mesolite
##RRUFFID=R050013
##IDEAL CHEMISTRY=Na_2_Ca_2_(Si_9_Al_6_)O_30_&#183;8H_2_O
##LOCALITY=Poona, Maharashtra, India
##OWNER=RRUFF
##SOURCE=University of Arizona Mineral Museum
##DESCRIPTION=Clear to white elongated prismatic single crystal
##STATUS=The identification of this mineral has been confirmed by X-ray diffraction and chemical analysis
##URL=rruff.info/R050013
##MEASURED CHEMISTRY=Na_2.00_Ca_2.00_(Si_9.00_Al_6.00_)O_30_Â·8H_2_O
##PIN_ID=M00156
##ORIENTATION=Laser parallel to -a* (-1 0 0). Fiducial mark perpendicular to laser is parallel to b [0 1 0]
113.2080, 15962.00
114.4400, 15783.00
115.6710, 15570.00
116.9030, 15517.00
118.1340, 15489.94
119.3650, 15473.00
120.5960, 15629.00
121.8270, 15930.00
123.0580, 16129.00
124.2880, 16360.00
125.5190, 16842.00
126.7490, 17236.00
127.9790, 17327.48
129.2090, 17873.00
130.4390, 17499.00
131.6680, 17520.00
132.8980, 17568.00
134.1270, 17928.00
135.3560, 18419.00
136.5850, 18885.00
137.8140, 19514.00
139.0430, 20424.00
140.2710, 21183.00
141.5000, 21884.00
142.7280, 22377.00
143.9560, 22335.00
145.1840, 21999.00
146.4120, 22239.00
147.6390, 22290.00
148.8670, 22940.00
150.0940, 23500.00
151.3210, 23575.00
152.5490, 23633.00
153.7750, 23480.00
155.0020, 23229.00
156.2290, 23029.00
157.4550, 22619.00
158.6810, 22294.00
159.9080, 22163.00
161.1340, 22311.00
162.3590, 22307.00
163.5850, 22050.00
164.8110, 21678.00
166.0360, 21688.00
167.2610, 21215.00
168.4860, 21127.00
169.7110, 20627.00
170.9360, 20460.00
172.1610, 20114.00
173.3850, 19634.00
174.6100, 19344.00
175.8340, 18922.87
177.0580, 18394.00
178.2820, 18168.00
179.5050, 17816.00
180.7290, 17487.00
181.9520, 17389.00
183.1760, 17131.00
184.3990, 16934.00
185.6220, 16737.00
186.8450, 16352.00
188.0670, 16320.00
189.2900, 16271.00
190.5120, 16146.00
191.7340, 16238.00
192.9560, 16249.00
194.1780, 16112.00
195.4000, 16000.00
196.6220, 15729.00
197.8430, 15504.00
199.0640, 15205.00
200.2860, 14955.00
201.5070, 14827.00
202.7270, 14576.00
203.9480, 14550.00
205.1690, 14237.00
206.3890, 14181.00
207.6090, 13983.00
208.8290, 13927.00
210.0490, 13876.00
211.2690, 14010.00
212.4890, 13970.00
213.7080, 13628.00
214.9280, 13740.00
216.1470, 13597.00
217.3660, 13589.00
218.5850, 13446.00
219.8030, 13443.00
221.0220, 13583.00
222.2400, 13620.00
223.4590, 13528.00
224.6770, 13719.00
225.8950, 13577.00
227.1120, 13744.00
228.3300, 13605.00
229.5480, 13798.00
230.7650, 13699.00
231.9820, 13993.00
233.1990, 13839.00
234.4160, 14065.00
235.6330, 14100.00
236.8490, 14178.00
238.0660, 14198.00
239.2820, 14198.00
240.4980, 14227.00
241.7140, 14037.00
242.9300, 14093.00
244.1460, 14054.00
245.3610, 14162.00
246.5770, 14062.00
247.7920, 14147.00
249.0070, 14277.00
250.2220, 14465.00
251.4370, 14467.00
252.6510, 14491.00
253.8660, 14393.00
255.0800, 14403.00
256.2940, 14818.00
257.5080, 14816.00
258.7220, 14512.00
259.9360, 14556.00
261.1490, 14320.00
262.3630, 14543.00
263.5760, 14466.00
264.7890, 14608.00
266.0020, 14654.00
267.2150, 14513.00
268.4270, 14666.00
269.6400, 14705.00
270.8520, 14455.00
272.0640, 14420.00
273.2760, 14505.00
274.4880, 14418.00
275.7000, 14600.00
276.9120, 14631.00
278.1230, 14629.00
279.3340, 14640.00
280.5450, 14843.00
281.7560, 14940.00
282.9670, 15337.00
284.1780, 15469.00
285.3880, 16037.00
286.5980, 16144.00
287.8090, 16644.00
289.0190, 16648.00
290.2290, 16712.00
291.4380, 16726.00
292.6480, 16378.00
293.8570, 16211.00
295.0670, 16066.00
296.2760, 15457.00
297.4850, 15302.00
298.6930, 15141.00
299.9020, 14972.00
301.1110, 14729.00
302.3190, 14611.00
303.5270, 14422.00
304.7350, 14210.00
305.9430, 14169.00
307.1510, 14082.00
308.3580, 14025.00
309.5660, 13996.00
310.7730, 14002.00
311.9800, 14026.05
313.1870, 14028.00
314.3940, 14172.00
315.6010, 14210.00
316.8070, 14367.00
318.0130, 14278.00
319.2200, 14349.00
320.4260, 14377.00
321.6310, 14353.00
322.8370, 14212.00
324.0430, 14336.00
325.2480, 14320.00
326.4540, 14424.00
327.6590, 14345.00
328.8640, 14427.00
330.0680, 14460.00
331.2730, 14411.00
332.4780, 14500.00
333.6820, 14608.00
334.8860, 14554.00
336.0900, 14474.00
337.2940, 14549.00
338.4980, 14570.00
339.7010, 14553.00
340.9050, 15025.00
342.1080, 15022.00
343.3110, 15109.00
344.5140, 15145.00
345.7170, 15160.00
346.9200, 15283.00
348.1220, 15299.00
349.3240, 15369.00
350.5270, 15162.00
351.7290, 15073.00
352.9310, 15029.00
354.1320, 15077.00
355.3340, 14946.00
356.5350, 14729.00
357.7370, 14608.00
358.9380, 14719.00
360.1390, 14661.00
361.3400, 14631.00
362.5400, 14774.00
363.7410, 14675.00
364.9410, 14770.00
366.1410, 14749.00
367.3410, 14480.00
368.5410, 14533.00
369.7410, 14488.00
370.9400, 14567.00
372.1400, 14448.00
373.3390, 14572.00
374.5380, 14498.00
375.7370, 14332.00
376.9360, 14562.00
378.1350, 14507.00
379.3330, 14550.00
380.5310, 14672.00
381.7300, 14657.00
382.9280, 14609.00
384.1260, 14934.00
385.3230, 14940.00
386.5210, 14955.00
387.7180, 14876.00
388.9160, 14947.00
390.1130, 14967.00
391.3100, 15131.00
392.5060, 15268.00
393.7030, 15164.00
394.9000, 15488.00
396.0960, 15239.00
397.2920, 15444.00
398.4880, 15433.00
399.6840, 15679.00
400.8800, 15871.00
402.0750, 15874.00
403.2710, 16061.00
404.4660, 16235.00
405.6610, 16515.00
406.8560, 16782.00
408.0510, 16930.15
409.2450, 17011.00
410.4400, 17254.00
411.6340, 17302.00
412.8280, 17454.00
414.0220, 17555.00
415.2160, 17733.05
416.4100, 17878.00
417.6030, 18151.00
418.7970, 18341.00
419.9900, 18418.14
421.1830, 18541.00
422.3760, 18481.00
423.5690, 18480.00
424.7610, 18365.00
425.9540, 18229.00
427.1460, 18332.00
428.3380, 18304.00
429.5300, 18450.00
430.7220, 18473.00
431.9140, 18629.00
433.1050, 18892.00
434.2970, 19239.00
435.4880, 19481.00
436.6790, 19711.00
437.8700, 20064.00
439.0610, 20304.00
440.2510, 20259.00
441.4420, 20231.00
442.6320, 20072.00
443.8220, 20060.00
445.0120, 19590.00
446.2020, 19495.00
447.3910, 19236.00
448.5810, 18765.00
449.7700, 18432.00
450.9600, 18130.00
452.1490, 17740.00
453.3370, 17547.00
454.5260, 17296.00
455.7150, 17171.00
456.9030, 17050.00
458.0910, 16795.00
459.2800, 16794.00
460.4670, 16520.00
461.6550, 16657.00
462.8430, 16525.00
464.0300, 16557.00
465.2180, 16452.00
466.4050, 16561.00
467.5920, 16555.00
468.7790, 16686.00
469.9650, 16835.00
471.1520, 16612.00
472.3380, 16830.00
473.5250, 16846.00
474.7110, 16840.00
475.8970, 17027.00
477.0820, 17188.00
478.2680, 17292.23
479.4540, 17533.00
480.6390, 17609.00
481.8240, 17866.00
483.0090, 18076.00
484.1940, 18326.00
485.3780, 18554.00
486.5630, 18703.53
487.7470, 18846.74
488.9320, 18943.00
490.1160, 19010.00
491.3000, 19028.00
492.4830, 19041.00
493.6670, 19010.00
494.8500, 18998.00
496.0340, 18852.00
497.2170, 18939.00
498.4000, 18918.00
499.5820, 18993.00
500.7650, 19017.00
501.9480, 18978.00
503.1300, 19335.00
504.3120, 19509.00
505.4940, 19517.00
506.6760, 19935.00
507.8580, 20223.00
509.0390, 20675.00
510.2210, 21229.00
511.4020, 21852.00
512.5830, 22515.00
513.7640, 23696.00
514.9450, 24513.00
516.1250, 25977.00
517.3060, 27573.00
518.4860, 29697.00
519.6660, 32493.00
520.8460, 35654.00
522.0260, 39458.00
523.2060, 43124.00
524.3850, 46966.00
525.5650, 50620.00
526.7440, 52930.00
527.9230, 54456.00
529.1020, 54517.00
530.2810, 52496.00
531.4590, 49208.00
532.6380, 45238.00
533.8160, 41353.00
534.9940, 37326.00
536.1720, 33933.00
537.3500, 31264.00
538.5270, 28679.00
539.7050, 26706.00
540.8820, 24959.00
542.0590, 23714.00
543.2360, 22452.00
544.4130, 21949.00
545.5900, 21172.00
546.7660, 20755.00
547.9430, 20303.00
549.1190, 20253.00
550.2950, 19765.00
551.4710, 19504.00
552.6470, 19383.00
553.8220, 19120.00
554.9980, 18806.00
556.1730, 18718.00
557.3480, 18671.00
558.5230, 18677.00
559.6980, 18478.00
560.8730, 18377.00
562.0470, 18226.00
563.2220, 18139.00
564.3960, 18106.00
565.5700, 18035.00
566.7440, 17996.00
567.9170, 17969.00
569.0910, 17848.00
570.2640, 17850.00
571.4380, 17720.00
572.6110, 17922.00
573.7840, 17834.00
574.9570, 17736.00
576.1290, 17589.00
577.3020, 17753.00
578.4740, 17762.00
579.6460, 17766.00
580.8180, 18018.00
581.9900, 17830.00
583.1620, 17849.00
584.3330, 17639.00
585.5040, 17822.00
586.6760, 17818.00
587.8470, 17811.00
589.0180, 17965.00
590.1880, 17890.00
591.3590, 17685.00
592.5290, 17789.00
593.7000, 17707.00
594.8700, 17752.00
596.0400, 17849.00
597.2090, 17801.55
598.3790, 17708.00
599.5490, 17752.00
600.7180, 17716.50
601.8870, 17720.00
603.0560, 17746.00
604.2250, 17738.00
605.3940, 17783.00
606.5620, 17807.00
607.7300, 17896.00
608.8990, 17771.00
610.0670, 17803.00
611.2350, 17874.00
612.4020, 18149.00
613.5700, 17943.00
614.7370, 18352.00
615.9050, 18439.00
617.0720, 18529.00
618.2390, 18596.00
619.4060, 18795.25
620.5720, 19125.00
621.7390, 19249.00
622.9050, 19596.00
624.0710, 19926.00
625.2370, 19519.00
626.4030, 19714.00
627.5690, 19471.00
628.7340, 19405.00
629.9000, 19112.00
631.0650, 18902.00
632.2300, 18655.00
633.3950, 18678.00
634.5600, 18497.00
635.7240, 18510.00
636.8890, 18542.00
638.0530, 18572.00
639.2170, 18732.00
640.3810, 18866.00
641.5450, 19158.00
642.7080, 19130.00
643.8720, 19072.00
645.0350, 19326.00
646.1980, 19622.00
647.3610, 19442.00
648.5240, 19427.00
649.6870, 19497.00
650.8490, 19385.00
652.0120, 19523.00
653.1740, 19407.00
654.3360, 19205.00
655.4980, 19162.00
656.6600, 18873.00
657.8210, 18696.00
658.9830, 18595.00
660.1440, 18563.00
661.3050, 18286.00
662.4660, 18409.00
663.6270, 18382.00
664.7870, 18287.00
665.9480, 18153.00
667.1080, 18198.00
668.2680, 18311.00
669.4280, 18460.00
670.5880, 18208.00
671.7480, 18122.00
672.9070, 18167.00
674.0670, 18170.00
675.2260, 18191.00
676.3850, 18330.00
677.5440, 18201.00
678.7030, 18314.07
679.8610, 18707.00
681.0200, 18437.00
682.1780, 18502.00
683.3360, 18614.00
684.4940, 18355.00
685.6520, 18364.00
686.8090, 18636.00
687.9670, 18646.00
689.1240, 18602.00
690.2810, 18600.00
691.4380, 18684.00
692.5950, 18734.00
693.7520, 18802.64
694.9080, 18810.00
696.0650, 18978.00
697.2210, 19030.00
698.3770, 19136.00
699.5330, 19335.00
700.6880, 19470.00
701.8440, 19567.00
702.9990, 19848.00
704.1550, 20027.00
705.3100, 20365.00
706.4650, 20453.00
707.6190, 20954.00
708.7740, 21028.00
709.9290, 21044.00
711.0830, 21104.00
712.2370, 20678.00
713.3910, 20446.00
714.5450, 20483.00
715.6980, 20379.00
716.8520, 20203.00
718.0050, 19976.00
719.1580, 19825.00
720.3110, 19584.00
721.4640, 19577.00
722.6170, 19390.00
723.7700, 19398.00
724.9220, 19309.00
726.0740, 19372.00
727.2260, 19422.00
728.3780, 19286.00
729.5300, 19378.00
730.6810, 19316.00
731.8330, 19320.00
732.9840, 19465.00
734.1350, 19245.00
735.2860, 19359.00
736.4370, 19417.00
737.5880, 19340.00
738.7380, 19684.00
739.8880, 19500.00
741.0390, 19599.00
742.1890, 19536.00
743.3380, 19883.00
744.4880, 19767.00
745.6380, 19978.00
746.7870, 20191.00
747.9360, 20221.00
749.0850, 20140.00
750.2340, 20240.00
751.3830, 20278.00
752.5310, 20401.00
753.6800, 20427.00
754.8280, 20278.00
755.9760, 20260.00
757.1240, 20072.00
758.2720, 20289.00
759.4190, 20131.00
760.5670, 20194.00
761.7140, 20142.00
762.8610, 20054.00
764.0080, 20062.00
765.1550, 19889.00
766.3020, 19958.00
767.4480, 19725.00
768.5950, 20002.00
769.7410, 19902.00
770.8870, 19944.00
772.0330, 19985.00
773.1780, 19806.00
774.3240, 19885.00
775.4690, 19729.00
776.6140, 19792.00
777.7590, 19751.00
778.9040, 19735.64
780.0490, 19778.00
781.1940, 19811.00
782.3380, 19910.00
783.4820, 20077.00
784.6260, 19958.00
785.7700, 19907.00
786.9140, 20052.00
788.0580, 20081.00
789.2010, 20107.40
790.3450, 20162.00
791.4880, 20165.00
792.6310, 20206.00
793.7730, 20214.00
794.9160, 20212.00
796.0590, 20230.00
797.2010, 20094.00
798.3430, 20096.00
799.4850, 20356.00
800.6270, 20192.00
801.7690, 20239.00
802.9100, 20149.00
804.0520, 20220.00
805.1930, 20259.00
806.3340, 20268.00
807.4750, 20381.00
808.6160, 20305.00
809.7560, 20347.00
810.8970, 20225.00
812.0370, 20336.00
813.1770, 20524.00
814.3170, 20436.00
815.4570, 20509.00
816.5960, 20569.00
817.7360, 20495.00
818.8750, 20762.00
820.0140, 20642.00
821.1530, 20846.00
822.2920, 20766.00
823.4310, 20776.00
824.5690, 20821.00
825.7070, 20823.00
826.8460, 20920.00
827.9840, 20836.00
829.1220, 21003.00
830.2590, 20993.00
831.3970, 20870.00
832.5340, 21101.00
833.6710, 21117.00
834.8080, 21173.00
835.9450, 21070.00
837.0820, 21135.00
838.2190, 21278.00
839.3550, 21480.00
840.4910, 21560.00
841.6270, 21513.00
842.7630, 21459.00
843.8990, 21780.00
845.0350, 21506.00
846.1700, 21890.00
847.3060, 21738.00
848.4410, 22024.00
849.5760, 21894.00
850.7100, 22147.00
851.8450, 21995.00
852.9800, 22195.00
854.1140, 22181.00
855.2480, 22444.00
856.3820, 22552.00
857.5160, 22627.00
858.6500, 22914.00
859.7830, 23009.00
860.9170, 23086.00
862.0500, 22899.00
863.1830, 22696.00
864.3160, 22825.00
865.4480, 22526.00
866.5810, 22352.00
867.7130, 22373.00
868.8460, 22180.00
869.9780, 22151.00
871.1100, 21950.00
872.2410, 22078.00
873.3730, 22148.00
874.5050, 22181.00
875.6360, 21989.00
876.7670, 22129.00
877.8980, 22249.00
879.0290, 21898.00
880.1590, 21942.00
881.2900, 22113.00
882.4200, 22046.00
883.5500, 21921.00
884.6800, 22081.00
885.8100, 22083.00
886.9400, 22190.00
888.0690, 22148.00
889.1990, 22178.00
890.3280, 22139.00
891.4570, 22240.00
892.5860, 22299.00
893.7140, 22271.00
894.8430, 22298.00
895.9710, 22461.00
897.1000, 22230.00
898.2280, 22345.00
899.3560, 22254.00
900.4830, 22470.00
901.6110, 22295.00
902.7380, 22183.00
903.8660, 22491.00
904.9930, 22407.00
906.1200, 22360.00
907.2460, 22273.00
908.3730, 22302.87
909.5000, 22602.00
910.6260, 22344.00
911.7520, 22528.00
912.8780, 22490.00
914.0040, 22539.00
915.1290, 22535.12
916.2550, 22527.00
917.3800, 22505.00
918.5050, 22540.00
919.6300, 22644.00
920.7550, 22496.00
921.8800, 22588.00
923.0040, 22630.00
924.1290, 22794.00
925.2530, 22841.00
926.3770, 22887.00
927.5010, 23326.00
928.6250, 23435.00
929.7480, 23484.00
930.8720, 23839.00
931.9950, 24082.00
933.1180, 24146.00
934.2410, 24172.00
935.3640, 24202.96
936.4860, 24367.00
937.6090, 24039.00
938.7310, 23957.00
939.8530, 23722.00
940.9750, 23762.00
942.0970, 23577.00
943.2180, 23416.00
944.3400, 23374.00
945.4610, 23305.72
946.5820, 23042.00
947.7030, 23282.00
948.8240, 23223.00
949.9450, 23175.00
951.0650, 23406.00
952.1860, 23305.00
953.3060, 23209.00
954.4260, 23314.00
955.5460, 23483.00
956.6650, 23384.00
957.7850, 23285.00
958.9040, 23342.00
960.0230, 23586.00
961.1420, 23737.00
962.2610, 23728.00
963.3800, 23844.00
964.4990, 24068.00
965.6170, 24376.00
966.7350, 24276.00
967.8530, 24461.00
968.9710, 24656.00
970.0890, 24670.00
971.2070, 24728.00
972.3240, 24813.00
973.4410, 24966.00
974.5580, 24855.00
975.6750, 24760.00
976.7920, 24603.00
977.9090, 24147.00
979.0250, 24177.00
980.1410, 24016.00
981.2580, 23957.00
982.3740, 24120.00
983.4890, 24111.00
984.6050, 24238.22
985.7200, 24257.00
986.8360, 24512.00
987.9510, 24589.00
989.0660, 24737.58
990.1810, 24844.00
991.2950, 24809.00
992.4100, 24713.00
993.5240, 24677.00
994.6390, 24683.00
995.7530, 25003.00
996.8660, 25124.00
997.9800, 25241.00
999.0940, 25185.00
1000.207, 25652.00
1001.320, 26043.00
1002.433, 25792.00
1003.546, 25663.00
1004.659, 25284.00
1005.772, 24785.00
1006.884, 24802.00
1007.996, 24556.00
1009.108, 24540.00
1010.220, 24637.00
1011.332, 24572.00
1012.444, 24584.00
1013.555, 24752.00
1014.666, 24794.00
1015.777, 24802.00
1016.888, 24984.00
1017.999, 25244.00
1019.110, 25325.00
1020.220, 25344.00
1021.331, 25658.00
1022.441, 25688.00
1023.551, 25895.00
1024.661, 26156.00
1025.770, 26174.00
1026.880, 26356.00
1027.989, 26439.00
1029.098, 26693.00
1030.207, 26746.00
1031.316, 26814.00
1032.425, 26843.00
1033.533, 26788.00
1034.642, 27333.00
1035.750, 27699.00
1036.858, 28187.00
1037.966, 29043.00
1039.073, 29284.00
1040.181, 29839.00
1041.288, 30416.00
1042.396, 30412.00
1043.503, 29878.00
1044.610, 29311.00
1045.716, 28631.00
1046.823, 27957.00
1047.929, 27433.00
1049.036, 26791.00
1050.142, 26591.00
1051.248, 26087.00
1052.353, 26136.00
1053.459, 25976.00
1054.564, 25930.00
1055.670, 25485.00
1056.775, 25404.00
1057.880, 25123.00
1058.985, 25259.00
1060.089, 25041.00
1061.194, 25282.00
1062.298, 25189.00
1063.402, 25080.00
1064.506, 25305.00
1065.610, 25136.00
1066.713, 25292.00
1067.817, 25332.00
1068.920, 25089.00
1070.023, 25322.00
1071.126, 25195.00
1072.229, 25392.00
1073.332, 25304.00
1074.435, 25411.00
1075.537, 25591.00
1076.639, 25648.00
1077.741, 25676.00
1078.843, 25756.00
1079.945, 25853.00
1081.046, 25872.36
1082.148, 25948.00
1083.249, 25975.00
1084.350, 25983.80
1085.451, 25939.00
1086.551, 25919.00
1087.652, 25884.00
1088.752, 25705.00
1089.853, 25821.00
1090.953, 25891.00
1092.053, 25754.00
1093.152, 25670.00
1094.252, 25665.00
1095.351, 25605.00
1096.451, 25634.00
1097.550, 25615.00
1098.649, 25631.00
1099.748, 25536.00
1100.846, 25617.00
1101.945, 25539.35
1103.043, 25638.00
1104.141, 25645.72
1105.239, 25641.00
1106.337, 25684.00
1107.434, 25741.00
1108.532, 25712.00
1109.629, 25821.00
1110.726, 25801.00
1111.823, 25759.00
1112.920, 25711.00
1114.017, 25766.00
1115.113, 25867.00
1116.210, 25814.00
1117.306, 25647.00
1118.402, 25521.00
1119.498, 25665.00
1120.593, 25645.00
1121.689, 25744.00
1122.784, 25635.00
1123.879, 25766.00
1124.974, 25773.00
1126.069, 25652.00
1127.164, 25498.00
1128.259, 25794.00
1129.353, 25430.00
1130.447, 25471.00
1131.541, 25794.00
1132.635, 25780.00
1133.729, 25778.00
1134.822, 25548.00
1135.916, 25477.00
1137.009, 25873.00
1138.102, 25622.00
1139.195, 25554.00
1140.288, 25539.00
1141.380, 25417.00
1142.473, 25450.61
1143.565, 25433.00
1144.657, 25566.00
1145.749, 25497.00
1146.841, 25718.00
1147.932, 25689.00
1149.024, 25566.00
1150.115, 25763.00
1151.206, 25507.00
1152.297, 25626.00
1153.388, 25652.00
1154.479, 25812.00
1155.569, 25786.00
1156.659, 25753.00
1157.750, 25799.00
1158.839, 25787.23
1159.929, 25852.00
1161.019, 25839.00
1162.108, 25912.00
1163.198, 25977.00
1164.287, 26096.00
1165.376, 26199.00
1166.465, 26257.00
1167.553, 26296.26
1168.642, 26261.00
1169.730, 26309.00
1170.818, 26335.61
1171.906, 26092.00
1172.994, 26369.00
1174.082, 26290.00
1175.170, 26195.00
1176.257, 26336.00
1177.344, 26208.00
1178.431, 26174.00
1179.518, 26291.00
1180.605, 26335.00
1181.691, 26337.23
1182.778, 26379.00
1183.864, 26339.00
1184.950, 26310.00
1186.036, 26264.00
1187.122, 26180.00
1188.207, 26211.80
1189.292, 26184.84
1190.378, 26244.00
1191.463, 26229.00
1192.548, 26217.00
1193.632, 26287.00
1194.717, 26282.96
1195.801, 26337.60
1196.886, 26331.00
1197.970, 26459.00
1199.054, 26473.00
1200.137, 26565.00
1201.221, 26472.00
1202.305, 26641.00
1203.388, 26410.00
1204.471, 26584.00
1205.554, 26358.00
1206.637, 26680.00
1207.719, 26510.00
1208.802, 26749.00
1209.884, 26716.00
1210.966, 26919.00
1212.048, 26705.00
1213.130, 26822.00
1214.212, 26909.00
1215.293, 26851.00
1216.374, 26887.00
1217.456, 26867.00
1218.536, 27048.00
1219.617, 27008.00
1220.698, 26780.00
1221.778, 27009.00
1222.859, 26932.00
1223.939, 26743.00
1225.019, 27178.00
1226.099, 27059.00
1227.178, 27296.00
1228.258, 27020.00
1229.337, 27101.00
1230.417, 27243.00
1231.496, 27155.00
1232.574, 27311.00
1233.653, 27550.00
1234.732, 27358.00
1235.810, 27484.00
1236.888, 27553.00
1237.966, 27651.00
1239.044, 27665.00
1240.122, 27449.00
1241.199, 27414.00
1242.277, 27528.00
1243.354, 27620.00
1244.431, 27621.00
1245.508, 27556.00
1246.585, 27488.00
1247.661, 27782.00
1248.738, 27815.00
1249.814, 27691.00
1250.890, 27343.00
1251.966, 27387.00
1253.042, 27590.00
1254.117, 27356.00
1255.193, 27500.00
1256.268, 27561.00
1257.343, 27740.00
1258.418, 27873.00
1259.493, 27965.00
1260.567, 28115.00
1261.642, 28000.00
1262.716, 28267.00
1263.790, 28099.00
1264.864, 28085.00
1265.938, 28409.00
1267.011, 28208.00
1268.085, 28428.00
1269.158, 28358.00
1270.231, 28427.00
1271.304, 28458.00
1272.377, 28493.00
1273.450, 28564.00
1274.522, 28608.00
1275.594, 28501.00
1276.666, 28547.00
1277.738, 28459.00
1278.810, 28478.00
1279.882, 28519.00
1280.953, 28489.22
1282.025, 28495.93
1283.096, 28446.00
1284.167, 28476.00
1285.238, 28330.00
1286.308, 28337.00
1287.379, 28348.00
1288.449, 28236.00
1289.519, 28388.45
