##NAMES=Mesolite
##RRUFFID=R050013
##IDEAL CHEMISTRY=Na_2_Ca_2_(Si_9_Al_6_)O_30_&#183;8H_2_O
##LOCALITY=Poona, Maharashtra, India
##OWNER=RRUFF
##SOURCE=University of Arizona Mineral Museum
##DESCRIPTION=Clear to white elongated prismatic single crystal
##STATUS=The identification of this mineral has been confirmed by X-ray diffraction and chemical analysis
##URL=rruff.info/R050013
##MEASURED CHEMISTRY=Na_2.00_Ca_2.00_(Si_9.00_Al_6.00_)O_30_Â·8H_2_O
##PIN_ID=M00096
##ORIENTATION=Laser parallel to b* (0 1 0). Fiducial mark perpendicular to laser is parallel to c [0 0 1]
88.54200, 13888.00
89.77700, 14852.00
91.01200, 16028.00
92.24600, 16719.00
93.48000, 17493.00
94.71400, 18283.00
95.94800, 18706.00
97.18200, 19098.00
98.41600, 19661.00
99.64900, 19855.00
100.8830, 19926.00
102.1160, 20088.00
103.3490, 20409.00
104.5820, 21067.00
105.8150, 21555.00
107.0470, 21774.00
108.2800, 20708.00
109.5120, 19303.00
110.7440, 18449.00
111.9760, 18011.00
113.2080, 17801.00
114.4400, 17465.00
115.6710, 17313.00
116.9030, 17232.00
118.1340, 17088.00
119.3650, 16977.85
120.5960, 16889.17
121.8270, 16724.00
123.0580, 16794.00
124.2880, 16625.00
125.5190, 16753.00
126.7490, 16700.00
127.9790, 17016.00
129.2090, 17357.00
130.4390, 17458.00
131.6680, 17808.00
132.8980, 18273.00
134.1270, 18992.00
135.3560, 19394.00
136.5850, 19677.00
137.8140, 19754.00
139.0430, 19865.00
140.2710, 19729.00
141.5000, 19833.00
142.7280, 20293.00
143.9560, 20650.00
145.1840, 21361.00
146.4120, 21890.00
147.6390, 22553.00
148.8670, 22200.00
150.0940, 21947.00
151.3210, 21134.00
152.5490, 20847.00
153.7750, 20597.00
155.0020, 20742.00
156.2290, 20769.00
157.4550, 21070.00
158.6810, 20905.00
159.9080, 20928.00
161.1340, 20764.00
162.3590, 20463.00
163.5850, 20224.00
164.8110, 19986.00
166.0360, 20040.00
167.2610, 20046.00
168.4860, 20129.00
169.7110, 20339.00
170.9360, 20265.00
172.1610, 20245.31
173.3850, 20243.00
174.6100, 19929.00
175.8340, 19520.00
177.0580, 19137.00
178.2820, 19034.00
179.5050, 18969.00
180.7290, 18959.00
181.9520, 18789.00
183.1760, 18601.00
184.3990, 18460.00
185.6220, 18191.00
186.8450, 17998.00
188.0670, 17859.00
189.2900, 17746.00
190.5120, 17681.00
191.7340, 17497.00
192.9560, 17239.00
194.1780, 17310.00
195.4000, 17150.00
196.6220, 16968.00
197.8430, 17424.00
199.0640, 17150.00
200.2860, 17181.00
201.5070, 17147.00
202.7270, 17035.00
203.9480, 16851.00
205.1690, 16709.00
206.3890, 16699.00
207.6090, 16640.00
208.8290, 16445.00
210.0490, 16579.00
211.2690, 16378.00
212.4890, 16711.00
213.7080, 16552.00
214.9280, 16469.00
216.1470, 16645.00
217.3660, 16630.00
218.5850, 16590.00
219.8030, 16503.00
221.0220, 16653.00
222.2400, 16638.00
223.4590, 16771.00
224.6770, 16688.00
225.8950, 16971.00
227.1120, 16907.00
228.3300, 16862.00
229.5480, 17014.00
230.7650, 16968.00
231.9820, 16881.00
233.1990, 17153.00
234.4160, 17059.00
235.6330, 17155.00
236.8490, 17149.00
238.0660, 17062.00
239.2820, 17392.00
240.4980, 17275.00
241.7140, 17393.00
242.9300, 17288.00
244.1460, 17435.00
245.3610, 17550.00
246.5770, 17227.00
247.7920, 17156.00
249.0070, 16891.00
250.2220, 16751.00
251.4370, 16865.00
252.6510, 16636.00
253.8660, 16680.00
255.0800, 16714.00
256.2940, 16952.00
257.5080, 16829.23
258.7220, 17024.00
259.9360, 16743.00
261.1490, 16721.00
262.3630, 16799.00
263.5760, 16959.00
264.7890, 16954.00
266.0020, 16900.00
267.2150, 16910.00
268.4270, 17112.00
269.6400, 17208.00
270.8520, 17301.00
272.0640, 17389.00
273.2760, 17514.00
274.4880, 17738.00
275.7000, 17820.00
276.9120, 17855.00
278.1230, 17832.00
279.3340, 18183.00
280.5450, 18465.00
281.7560, 18544.00
282.9670, 18855.00
284.1780, 19234.00
285.3880, 19475.00
286.5980, 19648.00
287.8090, 19800.00
289.0190, 19833.00
290.2290, 19911.00
291.4380, 20102.00
292.6480, 20135.00
293.8570, 20488.00
295.0670, 20353.00
296.2760, 20410.00
297.4850, 20027.00
298.6930, 19719.00
299.9020, 19353.00
301.1110, 18914.00
302.3190, 18798.00
303.5270, 18535.00
304.7350, 18417.00
305.9430, 18088.00
307.1510, 18110.00
308.3580, 18067.00
309.5660, 17777.00
310.7730, 17628.00
311.9800, 17824.00
313.1870, 17893.00
314.3940, 17868.00
315.6010, 17814.00
316.8070, 17870.00
318.0130, 17878.00
319.2200, 17889.00
320.4260, 17918.31
321.6310, 17858.00
322.8370, 17970.00
324.0430, 17910.00
325.2480, 17966.64
326.4540, 17859.00
327.6590, 17924.00
328.8640, 17797.00
330.0680, 17662.00
331.2730, 17643.00
332.4780, 17817.00
333.6820, 17726.00
334.8860, 17706.00
336.0900, 17673.00
337.2940, 17654.00
338.4980, 17739.66
339.7010, 17878.00
340.9050, 17954.00
342.1080, 18170.00
343.3110, 18311.00
344.5140, 18385.00
345.7170, 18441.00
346.9200, 18617.00
348.1220, 18680.00
349.3240, 18904.00
350.5270, 18743.00
351.7290, 18781.00
352.9310, 19035.00
354.1320, 19204.00
355.3340, 19136.00
356.5350, 19043.00
357.7370, 18998.00
358.9380, 18876.00
360.1390, 18892.65
361.3400, 18927.00
362.5400, 18869.00
363.7410, 18783.00
364.9410, 18661.00
366.1410, 18531.00
367.3410, 18671.00
368.5410, 18526.00
369.7410, 18497.00
370.9400, 18499.00
372.1400, 18343.00
373.3390, 18263.00
374.5380, 18293.00
375.7370, 18292.00
376.9360, 18190.00
378.1350, 18054.00
379.3330, 17991.00
380.5310, 18018.27
381.7300, 17988.00
382.9280, 18134.00
384.1260, 18302.00
385.3230, 18344.00
386.5210, 18281.00
387.7180, 18305.00
388.9160, 18384.00
390.1130, 18449.00
391.3100, 18381.00
392.5060, 18650.00
393.7030, 18658.24
394.9000, 18554.00
396.0960, 18775.00
397.2920, 18843.00
398.4880, 18728.00
399.6840, 19046.00
400.8800, 19199.00
402.0750, 19373.00
403.2710, 19660.00
404.4660, 19717.00
405.6610, 20085.00
406.8560, 20087.00
408.0510, 20447.00
409.2450, 20676.00
410.4400, 20730.00
411.6340, 21041.00
412.8280, 21126.00
414.0220, 21308.00
415.2160, 21357.00
416.4100, 21233.00
417.6030, 21273.00
418.7970, 21227.00
419.9900, 21411.00
421.1830, 21060.00
422.3760, 21232.00
423.5690, 21067.00
424.7610, 20911.00
425.9540, 21109.00
427.1460, 21236.00
428.3380, 20832.00
429.5300, 21025.00
430.7220, 21203.00
431.9140, 21066.00
433.1050, 21283.00
434.2970, 21446.00
435.4880, 21628.00
436.6790, 21758.38
437.8700, 21795.00
439.0610, 21936.00
440.2510, 22118.00
441.4420, 22099.00
442.6320, 22461.00
443.8220, 22242.00
445.0120, 22340.00
446.2020, 22205.00
447.3910, 21981.00
448.5810, 22172.00
449.7700, 21706.00
450.9600, 21655.00
452.1490, 21387.00
453.3370, 21156.00
454.5260, 21015.00
455.7150, 20754.00
456.9030, 20797.00
458.0910, 20651.00
459.2800, 20471.00
460.4670, 20264.00
461.6550, 20235.00
462.8430, 20276.00
464.0300, 20248.00
465.2180, 20230.00
466.4050, 20180.00
467.5920, 20083.00
468.7790, 20054.00
469.9650, 19994.00
471.1520, 20076.00
472.3380, 20065.00
473.5250, 20212.00
474.7110, 20199.00
475.8970, 20202.00
477.0820, 20136.00
478.2680, 20153.00
479.4540, 20151.00
480.6390, 20248.00
481.8240, 20299.00
483.0090, 20397.11
484.1940, 20494.34
485.3780, 20582.00
486.5630, 20671.00
487.7470, 20668.00
488.9320, 20675.00
490.1160, 20736.12
491.3000, 20643.00
492.4830, 20810.00
493.6670, 20994.00
494.8500, 21020.00
496.0340, 21340.00
497.2170, 21255.00
498.4000, 21419.00
499.5820, 21606.00
500.7650, 21859.00
501.9480, 21838.00
503.1300, 22251.00
504.3120, 22505.00
505.4940, 22576.00
506.6760, 23021.00
507.8580, 23425.00
509.0390, 23987.00
510.2210, 24346.00
511.4020, 24568.00
512.5830, 25485.00
513.7640, 26244.00
514.9450, 27149.00
516.1250, 28262.00
517.3060, 29855.78
518.4860, 31553.00
519.6660, 33754.00
520.8460, 36184.00
522.0260, 38796.00
523.2060, 41620.00
524.3850, 44221.00
525.5650, 46717.00
526.7440, 48730.94
527.9230, 50734.00
529.1020, 51999.00
530.2810, 53187.00
531.4590, 53943.00
532.6380, 54179.00
533.8160, 53130.00
534.9940, 50860.00
536.1720, 47559.00
537.3500, 43767.00
538.5270, 40010.00
539.7050, 36850.00
540.8820, 33970.00
542.0590, 31834.00
543.2360, 29984.00
544.4130, 28701.00
545.5900, 27352.00
546.7660, 26468.00
547.9430, 25941.00
549.1190, 25442.00
550.2950, 24994.00
551.4710, 24555.00
552.6470, 24074.00
553.8220, 23983.00
554.9980, 23864.00
556.1730, 23767.00
557.3480, 23335.00
558.5230, 23301.00
559.6980, 22996.00
560.8730, 23053.00
562.0470, 23118.00
563.2220, 22772.00
564.3960, 22671.00
565.5700, 22495.00
566.7440, 22412.00
567.9170, 22361.00
569.0910, 22388.00
570.2640, 22374.00
571.4380, 22243.00
572.6110, 22383.00
573.7840, 22197.00
574.9570, 22273.00
576.1290, 22318.00
577.3020, 22068.00
578.4740, 22012.00
579.6460, 22167.00
580.8180, 22108.00
581.9900, 22113.00
583.1620, 22335.00
584.3330, 22171.00
585.5040, 22205.00
586.6760, 22289.00
587.8470, 22307.00
589.0180, 22306.83
590.1880, 22308.53
591.3590, 22261.00
592.5290, 22284.00
593.7000, 22246.00
594.8700, 22305.00
596.0400, 22279.05
597.2090, 22273.00
598.3790, 22243.00
599.5490, 22250.00
600.7180, 22194.00
601.8870, 22327.00
603.0560, 22300.37
604.2250, 22357.90
605.3940, 22325.00
606.5620, 22451.00
607.7300, 22413.00
608.8990, 22429.00
610.0670, 22267.00
611.2350, 22195.00
612.4020, 22249.00
613.5700, 22432.00
614.7370, 22502.00
615.9050, 22707.00
617.0720, 22838.00
618.2390, 22928.00
619.4060, 23008.00
620.5720, 23286.00
621.7390, 23345.00
622.9050, 23509.00
624.0710, 23913.00
625.2370, 23839.00
626.4030, 23875.00
627.5690, 23655.00
628.7340, 23397.00
629.9000, 23205.00
631.0650, 23107.00
632.2300, 23040.00
633.3950, 23115.00
634.5600, 22937.00
635.7240, 23101.00
636.8890, 23004.00
638.0530, 22925.00
639.2170, 23188.00
640.3810, 23205.00
641.5450, 23371.00
642.7080, 23273.00
643.8720, 23599.00
645.0350, 23691.00
646.1980, 23638.00
647.3610, 23597.00
648.5240, 23801.00
649.6870, 23819.00
650.8490, 23777.00
652.0120, 23763.00
653.1740, 23806.00
654.3360, 23621.00
655.4980, 23488.00
656.6600, 23481.00
657.8210, 23290.00
658.9830, 23358.00
660.1440, 23446.00
661.3050, 23431.00
662.4660, 23322.00
663.6270, 23582.00
664.7870, 23337.00
665.9480, 23387.00
667.1080, 23349.00
668.2680, 23261.00
669.4280, 23437.00
670.5880, 23530.00
671.7480, 23478.00
672.9070, 23369.00
674.0670, 23312.00
675.2260, 23474.00
676.3850, 23351.00
677.5440, 23389.00
678.7030, 23624.00
679.8610, 23541.00
681.0200, 23547.00
682.1780, 23513.00
683.3360, 23533.42
684.4940, 23570.37
685.6520, 23651.00
686.8090, 23657.00
687.9670, 23806.00
689.1240, 23817.00
690.2810, 23778.00
691.4380, 23770.00
692.5950, 23701.00
693.7520, 23614.00
694.9080, 23803.00
696.0650, 23986.00
697.2210, 23773.00
698.3770, 24052.00
699.5330, 23900.00
700.6880, 24363.00
701.8440, 24368.00
702.9990, 24597.00
704.1550, 24913.00
705.3100, 25063.00
706.4650, 25252.00
707.6190, 25444.00
708.7740, 25651.00
709.9290, 25783.00
711.0830, 26002.00
712.2370, 26046.00
713.3910, 26081.00
714.5450, 26020.00
715.6980, 25959.00
716.8520, 25661.00
718.0050, 25467.00
719.1580, 25426.00
720.3110, 25155.00
721.4640, 24972.00
722.6170, 24763.00
723.7700, 24583.00
724.9220, 24697.00
726.0740, 24643.00
727.2260, 24778.00
728.3780, 24458.00
729.5300, 24427.00
730.6810, 24710.00
731.8330, 24357.00
732.9840, 24422.00
734.1350, 24550.00
735.2860, 24394.00
736.4370, 24650.00
737.5880, 24800.00
738.7380, 24669.00
739.8880, 24559.00
741.0390, 24684.00
742.1890, 24703.00
743.3380, 24859.00
744.4880, 25227.00
745.6380, 25282.00
746.7870, 25256.00
747.9360, 25566.00
749.0850, 25562.00
750.2340, 25500.00
751.3830, 25723.00
752.5310, 25621.00
753.6800, 25718.00
754.8280, 25603.00
755.9760, 25674.00
757.1240, 25596.00
758.2720, 25645.00
759.4190, 25597.00
760.5670, 25672.00
761.7140, 25444.00
762.8610, 25368.00
764.0080, 25415.00
765.1550, 25356.00
766.3020, 25178.00
767.4480, 25187.00
768.5950, 24916.00
769.7410, 25169.00
770.8870, 25080.00
772.0330, 24896.00
773.1780, 25121.00
774.3240, 25069.00
775.4690, 24847.00
776.6140, 24998.00
777.7590, 25083.00
778.9040, 25115.00
780.0490, 25168.31
781.1940, 25020.00
782.3380, 25145.00
783.4820, 25195.00
784.6260, 25104.00
785.7700, 25195.73
786.9140, 25033.00
788.0580, 25210.00
789.2010, 25210.00
790.3450, 25161.00
791.4880, 25165.00
792.6310, 25268.00
793.7730, 25361.00
794.9160, 25558.00
796.0590, 25243.00
797.2010, 25377.00
798.3430, 25473.00
799.4850, 25622.00
800.6270, 25563.00
801.7690, 25520.00
802.9100, 25498.00
804.0520, 25647.00
805.1930, 25379.00
806.3340, 25705.00
807.4750, 25618.00
808.6160, 25585.00
809.7560, 25678.00
810.8970, 25635.00
812.0370, 25624.00
813.1770, 25576.00
814.3170, 25680.00
815.4570, 25682.00
816.5960, 25639.00
817.7360, 25853.00
818.8750, 25802.00
820.0140, 26063.00
821.1530, 25985.00
822.2920, 25921.00
823.4310, 25908.00
824.5690, 26080.00
825.7070, 26058.00
826.8460, 26047.00
827.9840, 25999.00
829.1220, 26115.00
830.2590, 26131.00
831.3970, 26331.00
832.5340, 26211.00
833.6710, 26375.00
834.8080, 26307.00
835.9450, 26259.00
837.0820, 26474.00
838.2190, 26337.00
839.3550, 26403.00
840.4910, 26777.00
841.6270, 26698.00
842.7630, 26638.00
843.8990, 26633.00
845.0350, 26661.98
846.1700, 26893.00
847.3060, 26809.00
848.4410, 26904.00
849.5760, 27008.00
850.7100, 27013.00
851.8450, 27196.00
852.9800, 27120.00
854.1140, 27327.00
855.2480, 27591.00
856.3820, 27504.00
857.5160, 27730.00
858.6500, 27892.00
859.7830, 27946.00
860.9170, 28030.81
862.0500, 27783.00
863.1830, 28003.00
864.3160, 27666.00
865.4480, 27504.00
866.5810, 27620.00
867.7130, 27748.00
868.8460, 27366.00
869.9780, 27381.00
871.1100, 27085.00
872.2410, 27309.00
873.3730, 27357.00
874.5050, 27269.00
875.6360, 27205.00
876.7670, 27385.00
877.8980, 27201.00
879.0290, 27486.00
880.1590, 27373.00
881.2900, 27227.00
882.4200, 27262.00
883.5500, 27279.00
884.6800, 27366.00
885.8100, 27431.00
886.9400, 27384.00
888.0690, 27302.00
889.1990, 27289.00
890.3280, 27631.00
891.4570, 27454.00
892.5860, 27606.00
893.7140, 27424.00
894.8430, 27443.87
895.9710, 27691.00
897.1000, 27481.00
898.2280, 27551.00
899.3560, 27702.00
900.4830, 27698.00
901.6110, 27785.31
902.7380, 27684.00
903.8660, 27818.00
904.9930, 27809.00
906.1200, 27681.00
907.2460, 27847.00
908.3730, 27782.00
909.5000, 27769.00
910.6260, 27839.00
911.7520, 27848.00
912.8780, 27661.00
914.0040, 27746.00
915.1290, 27824.00
916.2550, 27693.00
917.3800, 27816.00
918.5050, 27808.00
919.6300, 27936.00
920.7550, 27924.00
921.8800, 27805.00
923.0040, 27962.00
924.1290, 27940.00
925.2530, 27939.00
926.3770, 28065.00
927.5010, 28098.00
928.6250, 28133.50
929.7480, 28448.00
930.8720, 28312.00
931.9950, 28172.00
933.1180, 28492.00
934.2410, 28077.00
935.3640, 28432.00
936.4860, 28332.00
937.6090, 28355.00
938.7310, 28669.00
939.8530, 28542.00
940.9750, 28406.00
942.0970, 28412.00
943.2180, 28542.00
944.3400, 28205.00
945.4610, 28443.00
946.5820, 28559.00
947.7030, 28237.00
948.8240, 28258.00
949.9450, 28488.00
951.0650, 28745.00
952.1860, 28653.00
953.3060, 28490.00
954.4260, 28578.00
955.5460, 28548.00
956.6650, 28907.00
957.7850, 28767.00
958.9040, 28768.00
960.0230, 28986.00
961.1420, 28889.00
962.2610, 29219.00
963.3800, 28939.00
964.4990, 29103.00
965.6170, 29202.00
966.7350, 29379.00
967.8530, 29255.00
968.9710, 29312.00
970.0890, 29485.00
971.2070, 29662.00
972.3240, 29629.00
973.4410, 29640.00
974.5580, 29566.00
975.6750, 29808.00
976.7920, 29721.00
977.9090, 29907.00
979.0250, 29520.00
980.1410, 29617.00
981.2580, 29643.00
982.3740, 29503.00
983.4890, 29429.00
984.6050, 29580.00
985.7200, 29740.00
986.8360, 29749.00
987.9510, 29531.00
989.0660, 29947.00
990.1810, 29759.00
991.2950, 29966.00
992.4100, 29953.00
993.5240, 29889.00
994.6390, 29788.00
995.7530, 30191.00
996.8660, 30455.00
997.9800, 30447.00
999.0940, 30676.00
1000.207, 30978.00
1001.320, 31362.00
1002.433, 31240.00
1003.546, 31126.00
1004.659, 30442.00
1005.772, 29924.00
1006.884, 30078.00
1007.996, 29986.00
1009.108, 30069.00
1010.220, 29882.00
1011.332, 29914.00
1012.444, 30020.00
1013.555, 29938.00
1014.666, 30300.00
1015.777, 30325.00
1016.888, 30450.00
1017.999, 30480.00
1019.110, 30453.00
1020.220, 30884.00
1021.331, 30920.00
1022.441, 30896.00
1023.551, 30864.00
1024.661, 30977.00
1025.770, 31259.00
1026.880, 31220.00
1027.989, 31181.00
1029.098, 31446.00
1030.207, 31448.00
1031.316, 31487.00
1032.425, 31571.00
1033.533, 31552.00
1034.642, 31710.00
1035.750, 31889.00
1036.858, 32232.00
1037.966, 32282.00
1039.073, 32815.00
1040.181, 33117.00
1041.288, 33261.00
1042.396, 33220.00
1043.503, 33490.00
1044.610, 33406.00
1045.716, 33416.00
1046.823, 33075.00
1047.929, 32569.00
1049.036, 32391.00
1050.142, 32159.00
1051.248, 31624.00
1052.353, 31464.00
1053.459, 31411.00
1054.564, 31106.00
1055.670, 31251.00
1056.775, 31285.00
1057.880, 30964.00
1058.985, 31010.00
1060.089, 30957.00
1061.194, 31124.00
1062.298, 30958.00
1063.402, 30770.00
1064.506, 30969.00
1065.610, 30937.00
1066.713, 30988.00
1067.817, 31145.00
1068.920, 31081.00
1070.023, 30913.00
1071.126, 31079.00
1072.229, 31056.00
1073.332, 31002.00
1074.435, 31237.00
1075.537, 31197.00
1076.639, 31525.00
1077.741, 31576.00
1078.843, 31687.00
1079.945, 31798.00
1081.046, 31837.00
1082.148, 31880.16
1083.249, 31888.00
1084.350, 31892.00
1085.451, 31909.00
1086.551, 31907.00
1087.652, 31858.00
1088.752, 31956.00
1089.853, 32066.00
1090.953, 31950.00
1092.053, 31953.00
1093.152, 31960.00
1094.252, 32106.00
1095.351, 32183.00
1096.451, 32010.00
1097.550, 32276.00
1098.649, 31998.00
1099.748, 32133.00
1100.846, 31931.00
1101.945, 31845.00
1103.043, 32010.00
1104.141, 31906.00
1105.239, 32106.00
1106.337, 32022.00
1107.434, 32143.00
1108.532, 31854.00
1109.629, 32068.00
1110.726, 31953.00
1111.823, 31851.00
1112.920, 31773.00
1114.017, 32129.00
1115.113, 31956.00
1116.210, 32199.00
1117.306, 31912.00
1118.402, 32263.00
1119.498, 32002.00
1120.593, 32026.00
1121.689, 32111.00
1122.784, 32184.00
1123.879, 32281.00
1124.974, 32141.00
1126.069, 32231.00
1127.164, 32167.00
1128.259, 32285.00
1129.353, 32151.00
1130.447, 32217.26
1131.541, 32142.00
1132.635, 32294.00
1133.729, 32320.00
1134.822, 32406.39
1135.916, 32124.00
1137.009, 32290.00
1138.102, 32367.00
1139.195, 31997.00
1140.288, 32456.00
1141.380, 32157.00
1142.473, 32431.00
1143.565, 32251.00
1144.657, 32369.00
1145.749, 32324.00
1146.841, 32393.00
1147.932, 32295.00
1149.024, 32294.00
1150.115, 32441.00
1151.206, 32514.00
1152.297, 32492.16
1153.388, 32295.00
1154.479, 32457.00
1155.569, 32399.00
1156.659, 32394.00
1157.750, 32501.00
1158.839, 32579.00
1159.929, 32631.00
1161.019, 32673.00
1162.108, 32696.00
1163.198, 32736.73
1164.287, 32874.00
1165.376, 32704.00
1166.465, 32899.00
1167.553, 32697.00
1168.642, 32972.00
1169.730, 33030.00
1170.818, 33007.00
1171.906, 33019.00
1172.994, 32863.00
1174.082, 33130.00
1175.170, 33149.00
1176.257, 32794.00
1177.344, 33187.00
1178.431, 33329.00
1179.518, 33061.00
1180.605, 33138.00
1181.691, 33149.00
1182.778, 32906.00
1183.864, 33137.00
1184.950, 33139.00
1186.036, 33242.00
1187.122, 33139.00
1188.207, 33228.00
1189.292, 33294.00
1190.378, 33112.00
1191.463, 33397.00
1192.548, 33081.00
1193.632, 33343.00
1194.717, 33082.00
1195.801, 33451.00
1196.886, 33368.00
1197.970, 33547.00
1199.054, 33577.00
1200.137, 33647.00
1201.221, 33336.00
1202.305, 33515.00
1203.388, 33796.00
1204.471, 33347.00
1205.554, 33698.00
1206.637, 33498.00
1207.719, 33538.00
1208.802, 33552.00
1209.884, 33794.00
1210.966, 33660.00
1212.048, 33841.00
1213.130, 34068.00
1214.212, 33972.00
1215.293, 34159.00
1216.374, 33918.00
1217.456, 33949.00
1218.536, 33812.00
1219.617, 33867.00
1220.698, 33840.00
1221.778, 33913.00
1222.859, 34056.00
1223.939, 34012.00
1225.019, 34056.00
1226.099, 33975.00
1227.178, 33964.00
1228.258, 34062.00
1229.337, 33905.00
1230.417, 34443.00
1231.496, 34223.00
1232.574, 34326.00
1233.653, 34258.00
1234.732, 34211.00
1235.810, 34403.00
1236.888, 34379.00
1237.966, 34363.00
1239.044, 34438.38
1240.122, 34380.43
1241.199, 34489.00
1242.277, 34429.00
1243.354, 34475.00
1244.431, 34724.00
1245.508, 34522.00
1246.585, 34569.00
1247.661, 34694.00
1248.738, 34580.00
1249.814, 34816.00
1250.890, 34885.00
1251.966, 34723.00
1253.042, 34950.00
1254.117, 34688.00
1255.193, 34701.00
1256.268, 34667.00
1257.343, 34733.00
1258.418, 34815.00
1259.493, 34912.00
1260.567, 34996.00
1261.642, 35059.13
1262.716, 35174.14
1263.790, 35174.00
1264.864, 35298.00
1265.938, 35354.00
1267.011, 35219.00
1268.085, 35319.00
