##NAMES=Metatorbernite
##RRUFFID=R070686
##IDEAL CHEMISTRY=Cu^2+^(U^6+^O_2_)_2_(PO_4_)_2_&#183;8H_2_O
##LOCALITY=Fichtelgebirge, Franconia, Bavaria, Germany
##OWNER=RRUFF
##SOURCE=Michael Scott
##DESCRIPTION=Green tabular crystals
##STATUS=The identification of this mineral has been confirmed by X-ray diffraction.
##URL=rruff.info/R070686
##PIN_ID=M01699
##ORIENTATION=Laser parallel to c* (0 0 1). Fiducial mark perpendicular to laser is parallel to b [0 1 0]
153.4230, 16912.00
154.6590, 16899.00
155.8940, 17151.00
157.1300, 17241.00
158.3650, 17530.00
159.6000, 17689.00
160.8340, 17689.00
162.0690, 18004.00
163.3030, 18325.00
164.5370, 18143.00
165.7710, 18416.00
167.0050, 18830.00
168.2380, 18788.00
169.4720, 18912.00
170.7050, 19319.00
171.9380, 19383.00
173.1700, 19554.00
174.4030, 19900.00
175.6350, 19967.00
176.8680, 20324.00
178.1000, 20537.00
179.3310, 20906.00
180.5630, 21296.00
181.7940, 21818.00
183.0260, 22255.00
184.2570, 22559.00
185.4870, 23392.00
186.7180, 23638.00
187.9480, 24457.00
189.1790, 25049.00
190.4090, 25474.00
191.6390, 25933.00
192.8680, 26300.00
194.0980, 26648.00
195.3270, 26562.00
196.5560, 26513.00
197.7850, 25902.00
199.0140, 25677.00
200.2420, 25204.00
201.4710, 24605.00
202.6990, 24235.00
203.9270, 24172.00
205.1550, 24189.00
206.3820, 24411.00
207.6090, 24307.00
208.8370, 24761.00
210.0640, 24977.00
211.2900, 24820.00
212.5170, 25065.00
213.7440, 25743.00
214.9700, 25711.00
216.1960, 26174.00
217.4220, 26465.00
218.6470, 26878.00
219.8730, 27050.00
221.0980, 27573.00
222.3230, 27358.00
223.5480, 27761.00
224.7730, 27740.00
225.9970, 27671.00
227.2220, 27610.00
228.4460, 27540.00
229.6700, 27453.00
230.8940, 27536.00
232.1170, 27350.00
233.3400, 27240.00
234.5640, 27410.00
235.7870, 27251.00
237.0100, 27366.00
238.2320, 27251.00
239.4550, 27409.00
240.6770, 27606.00
241.8990, 27857.00
243.1210, 27831.00
244.3420, 28230.00
245.5640, 28371.00
246.7850, 28216.00
248.0060, 28449.00
249.2270, 28689.00
250.4480, 28901.00
251.6690, 28953.00
252.8890, 28882.00
254.1090, 29106.00
255.3290, 29427.00
256.5490, 29539.00
257.7680, 29378.00
258.9880, 29650.00
260.2070, 29735.00
261.4260, 29756.00
262.6450, 29874.00
263.8640, 30166.00
265.0820, 30294.00
266.3000, 30709.00
267.5180, 30594.00
268.7360, 30668.00
269.9540, 30972.00
271.1720, 31176.00
272.3890, 31254.00
273.6060, 31457.00
274.8230, 31658.47
276.0400, 31830.57
277.2560, 32099.00
278.4730, 32314.00
279.6890, 32529.00
280.9050, 32910.00
282.1210, 32869.00
283.3370, 33092.00
284.5520, 33359.00
285.7670, 33791.00
286.9820, 33848.00
288.1970, 33835.00
289.4120, 33976.00
290.6270, 34045.00
291.8410, 34171.00
293.0550, 34306.15
294.2690, 34413.40
295.4830, 34581.00
296.6970, 34690.00
297.9100, 34811.00
299.1230, 34996.00
300.3360, 35209.00
301.5490, 34962.00
302.7620, 35426.00
303.9740, 35251.00
305.1860, 35543.00
306.3990, 35378.00
307.6110, 35457.00
308.8220, 35693.00
310.0340, 35529.00
311.2450, 36047.00
312.4560, 35963.00
313.6670, 36008.00
314.8780, 36128.00
316.0890, 36195.00
317.2990, 36296.00
318.5090, 36236.00
319.7200, 36152.00
320.9290, 36403.00
322.1390, 36560.00
323.3490, 36313.00
324.5580, 36305.00
325.7670, 36487.00
326.9760, 36633.00
328.1850, 36710.00
329.3930, 36620.00
330.6020, 36832.00
331.8100, 36547.00
333.0180, 36727.00
334.2260, 36705.00
335.4340, 36619.00
336.6410, 36793.00
337.8480, 36889.00
339.0550, 36644.00
340.2620, 36844.00
341.4690, 36762.00
342.6760, 36654.00
343.8820, 36728.00
345.0880, 36609.00
346.2940, 36424.00
347.5000, 36527.00
348.7060, 36465.00
349.9110, 36694.00
351.1160, 36752.00
352.3210, 36452.00
353.5260, 36811.00
354.7310, 36559.00
355.9360, 36582.00
357.1400, 36321.00
358.3440, 36483.00
359.5480, 36491.00
360.7520, 36503.00
361.9550, 36460.00
363.1590, 36348.00
364.3620, 36283.00
365.5650, 36230.00
366.7680, 36074.00
367.9710, 36374.00
369.1730, 36117.00
370.3760, 36258.00
371.5780, 36159.00
372.7800, 36001.00
373.9810, 36113.00
375.1830, 35789.00
376.3840, 35987.00
377.5860, 35797.00
378.7870, 35899.00
379.9880, 36018.00
381.1880, 35838.00
382.3890, 35607.00
383.5890, 35491.00
384.7890, 35434.00
385.9890, 35487.00
387.1890, 35249.00
388.3880, 35142.00
389.5880, 35357.00
390.7870, 35445.00
391.9860, 35649.00
393.1850, 35351.00
394.3840, 35644.00
395.5820, 35578.00
396.7800, 36020.00
397.9790, 36559.00
399.1770, 36480.00
400.3740, 36481.00
401.5720, 36706.00
402.7690, 36611.00
403.9670, 36868.00
405.1640, 36744.00
406.3600, 37082.00
407.5570, 37012.00
408.7540, 36877.00
409.9500, 36315.00
411.1460, 35859.00
412.3420, 35333.00
413.5380, 34910.00
414.7330, 34308.00
415.9290, 34101.00
417.1240, 33794.00
418.3190, 33419.00
419.5140, 33438.00
420.7090, 33482.00
421.9030, 33137.00
423.0970, 33179.00
424.2920, 32810.00
425.4860, 33119.00
426.6790, 32806.00
427.8730, 32727.00
429.0660, 32962.00
430.2600, 32743.00
431.4530, 32651.00
432.6460, 32730.00
433.8380, 32786.00
435.0310, 32790.00
436.2230, 32987.00
437.4150, 32876.00
438.6070, 32963.00
439.7990, 33002.00
440.9910, 32941.00
442.1820, 32828.00
443.3730, 32503.00
444.5640, 32360.00
445.7550, 32053.89
446.9460, 31615.00
448.1370, 31402.00
449.3270, 31036.00
450.5170, 30624.00
451.7070, 30351.00
452.8970, 30133.70
454.0870, 29959.00
455.2760, 29877.00
456.4650, 29740.00
457.6550, 29734.00
458.8430, 29318.00
460.0320, 29050.00
461.2210, 28993.00
462.4090, 28942.00
463.5970, 28560.00
464.7850, 28489.11
465.9730, 28411.00
467.1610, 28076.00
468.3480, 28058.00
469.5360, 27812.00
470.7230, 27500.00
471.9100, 27494.00
473.0970, 27294.00
474.2830, 26979.00
475.4700, 26775.00
476.6560, 26727.00
477.8420, 26651.00
479.0280, 26440.00
480.2140, 26261.00
481.3990, 26049.00
482.5850, 25825.00
483.7700, 25789.00
484.9550, 25506.00
486.1400, 25642.00
487.3240, 25484.00
488.5090, 25233.00
489.6930, 25064.00
490.8770, 24984.00
492.0610, 24893.00
493.2450, 24737.01
494.4290, 24608.00
495.6120, 24439.00
496.7950, 24436.00
497.9780, 24260.00
499.1610, 24198.00
500.3440, 24017.00
501.5260, 23926.00
502.7090, 24016.00
503.8910, 23793.00
505.0730, 23451.00
506.2550, 23649.00
507.4360, 23463.00
508.6180, 23444.00
509.7990, 23399.00
510.9800, 23092.00
512.1610, 22937.00
513.3420, 22766.00
514.5230, 22712.00
515.7030, 22788.00
516.8830, 22800.00
518.0630, 22536.00
519.2430, 22280.00
520.4230, 22269.00
521.6020, 22168.00
522.7820, 22230.00
523.9610, 22050.00
525.1400, 22052.00
526.3190, 21944.00
527.4970, 21703.00
528.6760, 21640.00
529.8540, 21622.00
531.0320, 21541.00
532.2100, 21464.00
533.3880, 21398.63
534.5660, 21232.00
535.7430, 21246.00
536.9200, 21070.00
538.0970, 21014.00
539.2740, 20808.00
540.4510, 20867.00
541.6270, 20723.00
542.8040, 20640.00
543.9800, 20652.00
545.1560, 20555.00
546.3320, 20370.00
547.5080, 20283.00
548.6830, 20134.00
549.8580, 20213.00
551.0340, 20009.00
552.2090, 20100.00
553.3830, 19966.00
554.5580, 19803.00
555.7320, 19833.00
556.9070, 19636.00
558.0810, 19519.00
559.2550, 19549.00
560.4280, 19330.00
561.6020, 19258.00
562.7750, 19308.00
563.9490, 19091.00
565.1220, 19102.00
566.2950, 19142.00
567.4670, 18938.00
568.6400, 18917.00
569.8120, 18880.00
570.9840, 18575.00
572.1560, 18636.00
573.3280, 18527.00
574.5000, 18441.00
575.6710, 18353.00
576.8430, 18365.00
578.0140, 18201.00
579.1850, 18182.00
580.3560, 18050.00
581.5260, 18061.00
582.6970, 18055.00
583.8670, 17767.00
585.0370, 17649.00
586.2070, 17794.00
587.3770, 17710.00
588.5460, 17743.00
589.7160, 17529.00
590.8850, 17553.00
592.0540, 17490.00
593.2230, 17298.00
594.3920, 17403.00
595.5600, 17589.00
596.7290, 17443.00
597.8970, 17288.00
599.0650, 17327.00
600.2330, 17077.00
601.4000, 17015.00
602.5680, 17088.00
603.7350, 17100.00
604.9020, 16872.00
606.0690, 16929.00
607.2360, 16864.00
608.4030, 17009.00
609.5690, 16981.00
610.7360, 16813.00
611.9020, 16718.00
613.0680, 16787.00
614.2340, 16823.00
615.3990, 16652.00
616.5650, 16660.00
617.7300, 16665.00
618.8950, 16692.00
620.0600, 16546.00
621.2250, 16610.00
622.3890, 16675.00
623.5540, 16496.00
624.7180, 16436.00
625.8820, 16511.00
627.0460, 16369.00
628.2100, 16355.00
629.3730, 16305.00
630.5370, 16301.00
631.7000, 16349.00
632.8630, 16183.00
634.0260, 16101.00
635.1890, 16140.00
636.3510, 16070.00
637.5140, 16021.00
638.6760, 16009.00
639.8380, 15915.64
641.0000, 15938.00
642.1610, 15819.00
643.3230, 15812.00
644.4840, 15898.00
645.6450, 15716.00
646.8060, 15858.00
647.9670, 15565.00
649.1280, 15514.00
650.2880, 15732.00
651.4490, 15771.00
652.6090, 15487.00
653.7690, 15555.00
654.9290, 15443.00
656.0880, 15546.00
657.2480, 15589.00
658.4070, 15435.00
659.5660, 15436.00
660.7250, 15331.00
661.8840, 15226.00
663.0430, 15255.00
664.2010, 15220.00
665.3600, 15201.00
666.5180, 15122.00
667.6760, 15163.00
668.8330, 15196.00
669.9910, 15129.34
671.1480, 14975.00
672.3060, 15053.00
673.4630, 15015.00
674.6200, 14999.00
675.7770, 14765.00
676.9330, 15021.00
678.0900, 14810.00
679.2460, 14981.00
680.4020, 14851.00
681.5580, 14922.00
682.7140, 14786.00
683.8690, 14525.00
685.0250, 14659.00
686.1800, 14675.00
687.3350, 14611.00
688.4900, 14691.00
689.6450, 14480.00
690.7990, 14471.00
691.9540, 14397.00
693.1080, 14544.00
694.2620, 14288.00
695.4160, 14471.00
696.5700, 14356.00
697.7230, 14502.00
698.8770, 14439.00
700.0300, 14476.00
701.1830, 14374.00
702.3360, 14242.00
703.4890, 14246.00
704.6410, 14218.00
705.7930, 14227.00
706.9460, 14155.00
708.0980, 14183.00
709.2500, 14162.00
710.4010, 13993.00
711.5530, 14083.00
712.7040, 14130.00
713.8560, 14006.00
715.0070, 13928.00
716.1580, 14067.00
717.3080, 13989.00
718.4590, 14051.00
719.6090, 14002.00
720.7590, 13951.00
721.9090, 13854.00
723.0590, 13906.00
724.2090, 13905.00
725.3590, 13864.39
726.5080, 13873.00
727.6570, 13807.00
728.8060, 13740.00
729.9550, 13680.00
731.1040, 13626.00
732.2530, 13772.00
733.4010, 13663.00
734.5490, 13681.00
735.6970, 13675.00
736.8450, 13601.00
737.9930, 13572.00
739.1400, 13727.00
740.2880, 13691.00
741.4350, 13635.00
742.5820, 13675.00
743.7290, 13561.00
744.8760, 13657.00
746.0220, 13657.00
747.1690, 13497.00
748.3150, 13441.00
749.4610, 13492.00
750.6070, 13508.00
751.7530, 13642.00
752.8980, 13603.00
754.0440, 13555.00
755.1890, 13514.00
756.3340, 13480.00
757.4790, 13537.00
758.6240, 13581.00
759.7680, 13471.00
760.9130, 13374.00
762.0570, 13415.00
763.2010, 13296.00
764.3450, 13432.00
765.4890, 13491.00
766.6320, 13473.00
767.7760, 13479.00
768.9190, 13490.00
770.0620, 13484.25
771.2050, 13526.00
772.3480, 13490.00
773.4900, 13422.00
774.6330, 13420.00
775.7750, 13507.00
776.9170, 13382.00
778.0590, 13628.00
779.2010, 13374.00
780.3420, 13564.00
781.4840, 13580.00
782.6250, 13642.00
783.7660, 13612.00
784.9070, 13685.00
786.0480, 13734.00
787.1890, 13711.00
788.3290, 13683.00
789.4690, 13869.00
790.6100, 13880.00
791.7490, 13803.00
792.8890, 13961.00
794.0290, 14213.00
795.1680, 14258.00
796.3080, 14361.00
797.4470, 14469.00
798.5860, 14675.00
799.7250, 14716.00
800.8630, 14913.06
802.0020, 15196.00
803.1400, 15265.00
804.2780, 15479.00
805.4160, 15695.00
806.5540, 16012.00
807.6920, 16179.00
808.8300, 16657.00
809.9670, 17213.00
811.1040, 17576.00
812.2410, 17989.00
813.3780, 18932.00
814.5150, 19879.00
815.6510, 21101.00
816.7880, 23014.00
817.9240, 25813.00
819.0600, 29372.00
820.1960, 34100.00
821.3320, 39397.00
822.4670, 45508.00
823.6030, 52356.00
824.7380, 60166.00
825.8730, 65535.00
827.0080, 65535.00
828.1430, 65245.00
829.2770, 58352.00
830.4120, 48157.00
831.5460, 38755.00
832.6800, 31521.00
833.8140, 26557.00
834.9480, 23435.00
836.0810, 21440.00
837.2150, 20058.00
838.3480, 18976.00
839.4810, 18400.00
840.6140, 17660.00
841.7470, 17045.00
842.8800, 16512.00
844.0120, 15899.00
845.1450, 15679.00
846.2770, 15194.00
847.4090, 14898.00
848.5410, 14744.00
849.6720, 14616.00
850.8040, 14437.00
851.9350, 14405.00
853.0660, 14414.00
854.1970, 14270.00
855.3280, 14139.00
856.4590, 14059.00
857.5900, 14130.00
858.7200, 14073.00
859.8500, 14026.00
860.9800, 14044.00
862.1100, 13966.82
863.2400, 13776.00
864.3700, 13808.00
865.4990, 13836.00
866.6280, 13653.00
867.7570, 13743.00
868.8860, 13526.00
870.0150, 13582.00
871.1440, 13625.00
872.2720, 13730.00
873.4010, 13701.00
874.5290, 13807.00
875.6570, 13762.00
876.7850, 13765.00
877.9120, 13811.00
879.0400, 13729.00
880.1670, 13884.00
881.2940, 13822.00
882.4210, 14111.00
883.5480, 14216.00
884.6750, 13961.00
885.8020, 14056.00
886.9280, 13938.00
888.0540, 14266.00
889.1800, 14258.00
890.3060, 14462.00
891.4320, 14514.00
892.5580, 14504.00
893.6830, 14529.00
894.8080, 14825.00
895.9330, 14746.00
897.0580, 14831.00
898.1830, 14947.00
899.3080, 14862.00
900.4320, 14951.00
901.5570, 15121.00
902.6810, 15052.00
903.8050, 15077.00
904.9290, 15005.00
906.0520, 14899.00
907.1760, 15042.00
908.2990, 14773.00
909.4230, 14722.00
910.5460, 14779.00
911.6690, 14667.00
912.7910, 14599.00
913.9140, 14621.00
915.0360, 14552.00
916.1590, 14514.00
917.2810, 14471.80
918.4030, 14592.00
919.5240, 14385.00
920.6460, 14402.00
921.7680, 14426.00
922.8890, 14312.00
924.0100, 14440.00
925.1310, 14516.00
926.2520, 14682.00
927.3730, 14651.00
928.4930, 14653.00
929.6130, 14751.00
930.7340, 14565.00
931.8540, 14552.00
932.9740, 14631.00
934.0930, 14664.00
935.2130, 14702.42
936.3320, 14719.00
937.4520, 14788.00
938.5710, 14846.00
939.6900, 14872.00
940.8090, 14794.00
941.9270, 14867.00
943.0460, 15095.00
944.1640, 15008.00
945.2820, 15219.00
946.4000, 15111.00
947.5180, 15266.00
948.6360, 15261.00
949.7530, 15354.00
950.8710, 15362.00
951.9880, 15460.00
953.1050, 15523.00
954.2220, 15612.58
955.3390, 15756.00
956.4550, 15842.00
957.5720, 15997.00
958.6880, 16155.00
959.8040, 16157.00
960.9200, 16352.00
962.0360, 16342.00
963.1520, 16470.00
964.2670, 16609.00
965.3820, 16731.00
966.4980, 16810.00
967.6130, 17009.19
968.7280, 17187.00
969.8420, 17454.00
970.9570, 17720.00
972.0710, 18099.00
973.1850, 18660.00
974.3000, 18825.00
975.4140, 19882.00
976.5270, 20707.00
977.6410, 21575.00
978.7540, 23061.00
979.8680, 24689.00
980.9810, 26550.00
982.0940, 28893.00
983.2070, 31882.00
984.3200, 35102.00
985.4320, 38655.00
986.5440, 42153.00
987.6570, 45674.00
988.7690, 47994.00
989.8810, 49369.00
990.9920, 49950.00
992.1040, 49390.00
993.2160, 49007.00
994.3270, 48043.00
995.4380, 47141.00
996.5490, 45579.00
997.6600, 44041.00
998.7710, 41628.00
999.8810, 38022.00
1000.991, 34770.00
1002.102, 31932.00
1003.212, 29818.00
1004.322, 27998.00
1005.431, 26426.00
1006.541, 25073.00
1007.651, 23780.60
1008.760, 22818.00
1009.869, 21789.00
1010.978, 21137.00
1012.087, 20596.00
1013.195, 20342.00
1014.304, 19838.00
1015.412, 19799.00
1016.521, 19564.00
1017.629, 19464.00
1018.737, 19334.00
1019.844, 19341.00
1020.952, 19196.00
1022.059, 19231.00
1023.167, 19153.00
1024.274, 19203.00
1025.381, 19106.00
1026.488, 19178.00
1027.594, 19143.00
1028.701, 19054.00
1029.807, 19172.00
1030.913, 19331.00
1032.019, 19295.00
1033.125, 19269.00
1034.231, 19434.00
1035.337, 19378.00
1036.442, 19502.00
1037.548, 19524.00
1038.653, 19489.00
1039.758, 19705.00
1040.863, 19692.00
1041.967, 19816.00
1043.072, 19963.00
1044.176, 19967.00
1045.280, 19953.00
1046.384, 20230.00
1047.488, 20160.00
1048.592, 20168.00
1049.696, 20321.00
1050.799, 20586.00
1051.903, 20297.00
1053.006, 20462.00
1054.109, 20404.00
1055.212, 20675.00
1056.314, 20448.00
1057.417, 20821.00
1058.519, 20975.00
1059.621, 21023.00
1060.724, 20980.00
1061.826, 20995.00
1062.927, 21237.00
1064.029, 21215.00
1065.130, 21385.00
1066.232, 21387.00
1067.333, 21569.00
1068.434, 21579.00
1069.535, 21849.00
1070.636, 21664.00
1071.736, 22011.00
1072.837, 21913.00
1073.937, 22020.00
1075.037, 22057.00
1076.137, 22116.00
1077.237, 22242.00
1078.337, 22313.00
1079.436, 22361.00
1080.535, 22477.00
1081.635, 22419.00
1082.734, 22703.00
1083.833, 22788.00
1084.931, 22756.00
1086.030, 22917.00
1087.128, 23058.00
1088.227, 23099.54
1089.325, 23200.51
1090.423, 23263.00
1091.521, 23302.00
1092.618, 23373.00
1093.716, 23418.00
1094.813, 23523.00
1095.911, 23463.00
1097.008, 23877.00
1098.105, 23731.00
1099.202, 23803.00
1100.298, 23995.00
1101.395, 23892.00
1102.491, 23986.00
1103.587, 24164.00
1104.683, 24423.00
1105.779, 24399.00
1106.875, 24383.00
1107.971, 24531.00
1109.066, 24743.00
1110.161, 24698.00
1111.256, 24813.00
1112.351, 24876.00
1113.446, 24770.00
1114.541, 24700.00
1115.636, 24834.26
1116.730, 25053.00
1117.824, 25057.00
1118.918, 25294.00
1120.012, 25371.00
1121.106, 25461.35
1122.200, 25544.00
1123.293, 25600.00
1124.387, 25540.00
1125.480, 25507.00
1126.573, 25640.00
1127.666, 25762.00
1128.759, 25762.74
1129.851, 26020.00
1130.944, 25883.00
1132.036, 25935.00
1133.128, 26103.00
1134.220, 26050.00
1135.312, 26119.81
1136.404, 26334.00
1137.495, 26270.00
1138.587, 26219.00
1139.678, 26549.00
1140.769, 26752.00
1141.860, 26260.00
1142.951, 26670.00
1144.041, 26644.00
1145.132, 26739.00
1146.222, 26628.00
1147.313, 26873.00
1148.403, 27000.00
1149.493, 26833.00
1150.582, 26916.00
1151.672, 26868.00
1152.761, 27227.00
1153.851, 26980.00
1154.940, 27320.00
1156.029, 27148.00
1157.118, 27095.00
1158.207, 27342.00
1159.295, 27110.00
1160.384, 27228.00
1161.472, 27303.00
1162.560, 27206.00
1163.648, 27266.00
1164.736, 27041.00
1165.824, 27039.00
1166.911, 27066.00
1167.999, 27050.00
1169.086, 27407.00
1170.173, 27358.00
1171.260, 27422.00
1172.347, 27323.00
1173.434, 27266.00
1174.520, 27443.00
1175.606, 27472.00
1176.693, 27355.00
1177.779, 27358.00
1178.865, 27573.00
1179.951, 27475.00
1181.036, 27530.00
1182.122, 27353.00
1183.207, 27348.00
1184.292, 27422.00
1185.377, 27330.00
1186.462, 27393.00
1187.547, 27519.00
1188.632, 27293.00
1189.716, 27450.00
1190.800, 27336.00
1191.885, 27198.00
1192.969, 27498.00
1194.052, 27451.00
1195.136, 27227.00
1196.220, 27407.00
1197.303, 27236.00
1198.387, 27206.00
1199.470, 27288.00
1200.553, 27228.00
1201.636, 27309.00
1202.718, 27291.00
1203.801, 27168.00
1204.883, 27181.00
1205.966, 26952.00
1207.048, 27058.00
1208.130, 27067.00
1209.211, 26940.00
1210.293, 27033.00
1211.375, 27093.00
1212.456, 26801.00
1213.537, 26929.00
1214.618, 26729.00
1215.699, 26753.00
1216.780, 26637.00
1217.861, 26502.00
1218.941, 26705.00
1220.022, 26732.00
1221.102, 26707.00
1222.182, 26546.00
1223.262, 26466.00
1224.342, 26517.00
1225.422, 26470.00
1226.501, 26293.00
1227.580, 26434.00
1228.660, 26477.00
1229.739, 26171.00
1230.818, 26103.00
1231.896, 26246.00
1232.975, 26192.00
1234.054, 25899.00
1235.132, 25975.00
1236.210, 25913.00
1237.288, 25787.00
1238.366, 25717.00
1239.444, 25712.00
1240.521, 25568.00
1241.599, 25355.00
1242.676, 25368.00
1243.753, 25308.00
1244.830, 25442.00
1245.907, 25134.00
1246.984, 25369.00
1248.061, 25145.00
1249.137, 24853.00
1250.214, 25069.00
1251.290, 24775.00
1252.366, 24751.00
1253.442, 24749.00
1254.517, 24467.00
1255.593, 24448.00
1256.668, 24504.00
1257.744, 24333.00
1258.819, 24455.00
1259.894, 24307.00
1260.969, 24183.00
1262.044, 23926.00
1263.118, 23818.00
1264.193, 23747.00
1265.267, 23600.00
1266.341, 23717.00
1267.415, 23568.00
1268.489, 23499.00
1269.563, 23275.00
1270.636, 23217.22
1271.710, 23144.00
1272.783, 23099.00
1273.856, 23077.00
1274.929, 23143.00
1276.002, 22896.00
1277.075, 22699.00
1278.147, 22771.00
1279.220, 22715.00
1280.292, 22540.00
1281.364, 22539.00
1282.436, 22466.00
1283.508, 22364.46
1284.580, 22392.00
1285.652, 22210.00
1286.723, 21984.00
1287.794, 21919.00
1288.865, 21945.00
1289.936, 21967.00
1291.007, 21516.00
1292.078, 21701.00
1293.149, 21387.00
1294.219, 21490.00
1295.289, 21342.00
1296.360, 21234.00
1297.430, 21207.00
1298.499, 20891.00
1299.569, 20878.00
1300.639, 20941.00
1301.708, 20682.00
1302.778, 20686.00
1303.847, 20546.00
1304.916, 20497.00
1305.985, 20447.75
1307.053, 20276.00
1308.122, 20329.00
1309.190, 20308.00
1310.259, 20220.00
1311.327, 20074.00
1312.395, 20047.00
1313.463, 20024.00
1314.531, 19874.00
1315.598, 19893.00
1316.666, 19699.00
1317.733, 19647.00
1318.800, 19594.00
1319.867, 19466.00
1320.934, 19416.74
1322.001, 19402.00
1323.067, 19267.00
1324.134, 19218.00
1325.200, 19154.00
1326.266, 19164.00
1327.333, 18995.00
1328.398, 19135.00
1329.464, 18879.00
1330.530, 18690.00
