##NAMES=Metatorbernite
##RRUFFID=R070686
##IDEAL CHEMISTRY=Cu^2+^(U^6+^O_2_)_2_(PO_4_)_2_&#183;8H_2_O
##LOCALITY=Fichtelgebirge, Franconia, Bavaria, Germany
##OWNER=RRUFF
##SOURCE=Michael Scott
##DESCRIPTION=Green tabular crystals
##STATUS=The identification of this mineral has been confirmed by X-ray diffraction.
##URL=rruff.info/R070686
##PIN_ID=M01699
##ORIENTATION=Laser parallel to c* (0 0 1). Fiducial mark perpendicular to laser is parallel to b [0 1 0]
153.4230, 15299.00
154.6590, 15530.00
155.8940, 15554.00
157.1300, 15791.00
158.3650, 15862.00
159.6000, 16029.00
160.8340, 16212.00
162.0690, 16495.00
163.3030, 16651.00
164.5370, 16878.00
165.7710, 17023.00
167.0050, 17038.00
168.2380, 17152.00
169.4720, 17357.00
170.7050, 17556.00
171.9380, 17872.00
173.1700, 17941.00
174.4030, 18043.00
175.6350, 18349.00
176.8680, 18597.00
178.1000, 18993.00
179.3310, 19195.00
180.5630, 19566.00
181.7940, 19991.00
183.0260, 20396.00
184.2570, 21134.00
185.4870, 21708.00
186.7180, 22314.00
187.9480, 22958.00
189.1790, 23401.00
190.4090, 23946.00
191.6390, 24624.00
192.8680, 25045.00
194.0980, 25197.00
195.3270, 25139.00
196.5560, 24688.00
197.7850, 24376.00
199.0140, 23855.00
200.2420, 23196.00
201.4710, 22734.00
202.6990, 22370.00
203.9270, 22321.00
205.1550, 21957.00
206.3820, 22163.00
207.6090, 22415.00
208.8370, 22442.00
210.0640, 22760.00
211.2900, 22736.00
212.5170, 22955.00
213.7440, 23287.00
214.9700, 23495.00
216.1960, 23853.00
217.4220, 23921.00
218.6470, 24231.00
219.8730, 24464.00
221.0980, 25016.00
222.3230, 24743.00
223.5480, 25051.00
224.7730, 25247.00
225.9970, 24985.00
227.2220, 24979.00
228.4460, 24992.00
229.6700, 24939.00
230.8940, 24901.04
232.1170, 24736.00
233.3400, 24760.00
234.5640, 24780.00
235.7870, 24682.00
237.0100, 24950.00
238.2320, 24905.00
239.4550, 24985.00
240.6770, 25126.00
241.8990, 25234.00
243.1210, 25416.00
244.3420, 25508.78
245.5640, 25502.00
246.7850, 25676.00
248.0060, 25726.30
249.2270, 25889.00
250.4480, 25920.00
251.6690, 26120.00
252.8890, 26250.00
254.1090, 26423.00
255.3290, 26469.00
256.5490, 26531.00
257.7680, 26900.00
258.9880, 27024.00
260.2070, 27017.00
261.4260, 27119.00
262.6450, 27220.00
263.8640, 27369.00
265.0820, 27511.00
266.3000, 27742.00
267.5180, 27930.00
268.7360, 28114.00
269.9540, 28381.00
271.1720, 28348.00
272.3890, 28500.00
273.6060, 28739.00
274.8230, 28946.00
276.0400, 29343.00
277.2560, 29462.00
278.4730, 29471.00
279.6890, 29509.00
280.9050, 30044.00
282.1210, 30093.00
283.3370, 30530.00
284.5520, 30582.00
285.7670, 30902.00
286.9820, 31097.00
288.1970, 30875.00
289.4120, 31101.00
290.6270, 31305.00
291.8410, 31630.00
293.0550, 31372.00
294.2690, 31768.00
295.4830, 31632.00
296.6970, 31888.00
297.9100, 31864.00
299.1230, 31968.00
300.3360, 32061.00
301.5490, 32207.00
302.7620, 32245.00
303.9740, 32412.00
305.1860, 32306.00
306.3990, 32685.00
307.6110, 32745.00
308.8220, 32554.00
310.0340, 32559.00
311.2450, 32864.00
312.4560, 32726.00
313.6670, 33022.00
314.8780, 33089.00
316.0890, 33132.00
317.2990, 33210.00
318.5090, 33349.00
319.7200, 33273.49
320.9290, 33317.00
322.1390, 33170.00
323.3490, 33245.00
324.5580, 33243.00
325.7670, 33235.14
326.9760, 33601.00
328.1850, 33405.00
329.3930, 33405.00
330.6020, 33735.00
331.8100, 33417.00
333.0180, 33342.00
334.2260, 33680.00
335.4340, 33543.00
336.6410, 33562.00
337.8480, 33608.00
339.0550, 33815.00
340.2620, 33617.00
341.4690, 33430.00
342.6760, 33717.00
343.8820, 33354.00
345.0880, 33640.00
346.2940, 33637.00
347.5000, 33745.00
348.7060, 33665.00
349.9110, 33638.00
351.1160, 33469.00
352.3210, 33357.00
353.5260, 33449.00
354.7310, 33530.00
355.9360, 33353.00
357.1400, 33240.00
358.3440, 33250.00
359.5480, 33335.00
360.7520, 33259.00
361.9550, 33264.00
363.1590, 33368.00
364.3620, 33109.00
365.5650, 33158.00
366.7680, 33109.00
367.9710, 33112.00
369.1730, 33069.00
370.3760, 32903.00
371.5780, 33112.00
372.7800, 32947.00
373.9810, 32842.00
375.1830, 32889.00
376.3840, 32709.00
377.5860, 32906.00
378.7870, 32732.00
379.9880, 32554.00
381.1880, 32582.00
382.3890, 32344.00
383.5890, 32438.00
384.7890, 32553.00
385.9890, 32665.00
387.1890, 32327.00
388.3880, 32311.00
389.5880, 32384.00
390.7870, 32200.00
391.9860, 32397.00
393.1850, 32731.00
394.3840, 32832.00
395.5820, 33078.00
396.7800, 33439.00
397.9790, 33495.00
399.1770, 33849.02
400.3740, 34071.00
401.5720, 34413.00
402.7690, 34698.00
403.9670, 34995.00
405.1640, 35199.00
406.3600, 35346.00
407.5570, 35056.00
408.7540, 34822.00
409.9500, 34488.00
411.1460, 33762.00
412.3420, 33177.00
413.5380, 32519.00
414.7330, 31888.00
415.9290, 31376.00
417.1240, 31006.00
418.3190, 30658.00
419.5140, 30620.00
420.7090, 30511.00
421.9030, 30505.00
423.0970, 30044.00
424.2920, 30307.00
425.4860, 30002.00
426.6790, 30130.00
427.8730, 29946.00
429.0660, 29959.00
430.2600, 29952.88
431.4530, 30014.00
432.6460, 29963.00
433.8380, 29822.00
435.0310, 29901.00
436.2230, 29936.00
437.4150, 29890.00
438.6070, 29989.00
439.7990, 30071.00
440.9910, 29859.00
442.1820, 29736.00
443.3730, 29507.00
444.5640, 29281.00
445.7550, 28943.00
446.9460, 28466.00
448.1370, 28504.00
449.3270, 27855.00
450.5170, 27814.00
451.7070, 27575.00
452.8970, 27273.00
454.0870, 27249.00
455.2760, 26962.00
456.4650, 26808.00
457.6550, 26825.00
458.8430, 26454.00
460.0320, 26486.00
461.2210, 26308.00
462.4090, 25960.00
463.5970, 26048.00
464.7850, 25814.00
465.9730, 25726.00
467.1610, 25565.00
468.3480, 25562.00
469.5360, 25203.00
470.7230, 25069.00
471.9100, 24843.00
473.0970, 24795.00
474.2830, 24385.00
475.4700, 24378.00
476.6560, 24114.00
477.8420, 23933.00
479.0280, 23707.00
480.2140, 23687.00
481.3990, 23480.00
482.5850, 23627.00
483.7700, 23601.00
484.9550, 23303.00
486.1400, 23046.00
487.3240, 22911.00
488.5090, 23058.00
489.6930, 22754.00
490.8770, 22964.00
492.0610, 22379.00
493.2450, 22390.00
494.4290, 22436.00
495.6120, 22250.00
496.7950, 22057.00
497.9780, 22064.00
499.1610, 21890.00
500.3440, 21882.00
501.5260, 21640.00
502.7090, 21700.00
503.8910, 21480.00
505.0730, 21556.00
506.2550, 21246.00
507.4360, 21328.00
508.6180, 21201.00
509.7990, 21068.00
510.9800, 20895.00
512.1610, 20841.00
513.3420, 20908.00
514.5230, 20790.00
515.7030, 20338.00
516.8830, 20431.00
518.0630, 20215.00
519.2430, 19953.00
520.4230, 20261.00
521.6020, 20042.00
522.7820, 19859.00
523.9610, 19916.00
525.1400, 19770.00
526.3190, 19653.00
527.4970, 19610.00
528.6760, 19549.00
529.8540, 19470.00
531.0320, 19340.00
532.2100, 19288.00
533.3880, 19177.00
534.5660, 19233.00
535.7430, 19162.00
536.9200, 19070.00
538.0970, 19028.00
539.2740, 18865.00
540.4510, 18778.00
541.6270, 18745.00
542.8040, 18603.00
543.9800, 18466.00
545.1560, 18583.00
546.3320, 18375.00
547.5080, 18234.00
548.6830, 18131.00
549.8580, 18228.00
551.0340, 18164.00
552.2090, 18051.00
553.3830, 17784.00
554.5580, 17957.00
555.7320, 17808.00
556.9070, 17556.00
558.0810, 17598.00
559.2550, 17649.00
560.4280, 17604.00
561.6020, 17574.46
562.7750, 17328.00
563.9490, 17377.00
565.1220, 17212.00
566.2950, 16992.00
567.4670, 17154.00
568.6400, 16930.00
569.8120, 16959.00
570.9840, 16918.00
572.1560, 16697.00
573.3280, 16732.00
574.5000, 16675.00
575.6710, 16687.00
576.8430, 16528.00
578.0140, 16473.00
579.1850, 16334.00
580.3560, 16383.00
581.5260, 16274.00
582.6970, 16250.29
583.8670, 16145.00
585.0370, 16193.00
586.2070, 16086.00
587.3770, 16051.00
588.5460, 15869.00
589.7160, 15769.00
590.8850, 15821.00
592.0540, 15785.00
593.2230, 15644.00
594.3920, 15753.00
595.5600, 15652.00
596.7290, 15540.00
597.8970, 15596.00
599.0650, 15525.00
600.2330, 15523.00
601.4000, 15458.00
602.5680, 15344.00
603.7350, 15416.00
604.9020, 15486.00
606.0690, 15216.00
607.2360, 15311.00
608.4030, 15222.00
609.5690, 15194.00
610.7360, 15354.00
611.9020, 15110.00
613.0680, 15170.00
614.2340, 15122.00
615.3990, 15241.00
616.5650, 15154.00
617.7300, 14966.00
618.8950, 15077.00
620.0600, 15048.00
621.2250, 15138.00
622.3890, 15246.00
623.5540, 14928.00
624.7180, 14848.00
625.8820, 14863.00
627.0460, 14944.00
628.2100, 14873.00
629.3730, 14642.00
630.5370, 14667.00
631.7000, 14661.00
632.8630, 14666.00
634.0260, 14635.00
635.1890, 14481.00
636.3510, 14565.00
637.5140, 14492.00
638.6760, 14569.00
639.8380, 14333.00
641.0000, 14299.00
642.1610, 14324.00
643.3230, 14224.00
644.4840, 14251.00
645.6450, 14177.00
646.8060, 14251.00
647.9670, 14151.00
649.1280, 14029.00
650.2880, 14158.00
651.4490, 14115.00
652.6090, 14043.00
653.7690, 14080.00
654.9290, 14056.00
656.0880, 13898.00
657.2480, 14067.00
658.4070, 13899.00
659.5660, 13892.00
660.7250, 13792.00
661.8840, 13692.00
663.0430, 13704.00
664.2010, 13778.00
665.3600, 13587.00
666.5180, 13735.00
667.6760, 13698.00
668.8330, 13577.00
669.9910, 13569.00
671.1480, 13496.00
672.3060, 13588.00
673.4630, 13513.00
674.6200, 13474.00
675.7770, 13461.00
676.9330, 13304.00
678.0900, 13417.00
679.2460, 13405.00
680.4020, 13413.00
681.5580, 13231.00
682.7140, 13268.00
683.8690, 13218.00
685.0250, 13227.00
686.1800, 13197.00
687.3350, 13183.00
688.4900, 13162.00
689.6450, 13190.00
690.7990, 13001.00
691.9540, 13016.00
693.1080, 13059.00
694.2620, 13009.00
695.4160, 13044.00
696.5700, 12929.00
697.7230, 12793.00
698.8770, 12926.00
700.0300, 12831.00
701.1830, 12794.00
702.3360, 12928.00
703.4890, 12877.00
704.6410, 12817.00
705.7930, 12780.00
706.9460, 12682.00
708.0980, 12729.00
709.2500, 12761.00
710.4010, 12864.00
711.5530, 12825.03
712.7040, 12720.00
713.8560, 12708.00
715.0070, 12787.00
716.1580, 12601.00
717.3080, 12670.00
718.4590, 12631.00
719.6090, 12535.00
720.7590, 12517.00
721.9090, 12405.00
723.0590, 12410.42
724.2090, 12511.00
725.3590, 12436.00
726.5080, 12385.00
727.6570, 12450.00
728.8060, 12425.00
729.9550, 12473.00
731.1040, 12341.00
732.2530, 12295.00
733.4010, 12333.00
734.5490, 12312.00
735.6970, 12359.00
736.8450, 12211.00
737.9930, 12243.00
739.1400, 12198.00
740.2880, 12329.00
741.4350, 12460.00
742.5820, 12283.00
743.7290, 12301.00
744.8760, 12158.00
746.0220, 12221.00
747.1690, 12074.00
748.3150, 12173.00
749.4610, 12249.00
750.6070, 12077.00
751.7530, 12013.00
752.8980, 12115.00
754.0440, 12203.00
755.1890, 12139.00
756.3340, 12095.00
757.4790, 12079.00
758.6240, 12121.00
759.7680, 12199.00
760.9130, 12069.00
762.0570, 12122.00
763.2010, 11983.00
764.3450, 12118.00
765.4890, 11919.00
766.6320, 12057.00
767.7760, 12029.00
768.9190, 12088.00
770.0620, 12157.00
771.2050, 12025.00
772.3480, 12157.00
773.4900, 12140.00
774.6330, 12018.00
775.7750, 12069.00
776.9170, 12215.00
778.0590, 12167.00
779.2010, 12098.00
780.3420, 12174.00
781.4840, 12168.00
782.6250, 12230.00
783.7660, 12253.00
784.9070, 12192.00
786.0480, 12237.00
787.1890, 12271.00
788.3290, 12271.00
789.4690, 12316.00
790.6100, 12529.00
791.7490, 12517.00
792.8890, 12602.00
794.0290, 12621.00
795.1680, 12718.00
796.3080, 12815.00
797.4470, 12985.00
798.5860, 13045.00
799.7250, 13142.00
800.8630, 13306.89
802.0020, 13402.00
803.1400, 13622.00
804.2780, 13758.00
805.4160, 13924.00
806.5540, 14099.00
807.6920, 14498.00
808.8300, 14766.00
809.9670, 15042.00
811.1040, 15548.00
812.2410, 16036.00
813.3780, 16881.00
814.5150, 17688.00
815.6510, 19132.00
816.7880, 20404.00
817.9240, 22668.00
819.0600, 26009.00
820.1960, 29948.00
821.3320, 34754.00
822.4670, 39841.00
823.6030, 45834.00
824.7380, 52942.00
825.8730, 58774.00
827.0080, 60435.00
828.1430, 58444.00
829.2770, 51758.00
830.4120, 43264.00
831.5460, 34853.00
832.6800, 28342.00
833.8140, 24018.00
834.9480, 21364.00
836.0810, 19536.00
837.2150, 17924.00
838.3480, 17065.00
839.4810, 16182.00
840.6140, 15790.00
841.7470, 15231.00
842.8800, 14765.00
844.0120, 14279.00
845.1450, 14016.00
846.2770, 13802.00
847.4090, 13431.00
848.5410, 13411.00
849.6720, 13242.00
850.8040, 13094.00
851.9350, 13040.00
853.0660, 12931.00
854.1970, 12836.00
855.3280, 12691.00
856.4590, 12664.76
857.5900, 12808.00
858.7200, 12632.00
859.8500, 12508.00
860.9800, 12548.00
862.1100, 12336.00
863.2400, 12385.00
864.3700, 12325.00
865.4990, 12371.00
866.6280, 12259.00
867.7570, 12132.00
868.8860, 12206.00
870.0150, 12247.00
871.1440, 12249.00
872.2720, 12407.00
873.4010, 12234.00
874.5290, 12399.00
875.6570, 12209.00
876.7850, 12334.00
877.9120, 12475.00
879.0400, 12407.00
880.1670, 12540.00
881.2940, 12511.00
882.4210, 12429.00
883.5480, 12510.00
884.6750, 12565.00
885.8020, 12654.00
886.9280, 12701.00
888.0540, 12770.00
889.1800, 12764.00
890.3060, 12747.00
891.4320, 13095.00
892.5580, 12976.00
893.6830, 13204.00
894.8080, 13246.00
895.9330, 13309.00
897.0580, 13335.00
898.1830, 13373.00
899.3080, 13490.00
900.4320, 13486.00
901.5570, 13515.00
902.6810, 13537.00
903.8050, 13506.00
904.9290, 13497.23
906.0520, 13509.00
907.1760, 13402.75
908.2990, 13372.00
909.4230, 13271.00
910.5460, 13243.00
911.6690, 13179.00
912.7910, 13112.00
913.9140, 13103.19
915.0360, 13028.00
916.1590, 13074.00
917.2810, 13097.00
918.4030, 13087.00
919.5240, 13147.00
920.6460, 13030.00
921.7680, 13034.00
922.8890, 12958.00
924.0100, 13122.00
925.1310, 13153.00
926.2520, 13236.00
927.3730, 13050.00
928.4930, 13158.00
929.6130, 13236.00
930.7340, 13057.00
931.8540, 13171.00
932.9740, 13222.00
934.0930, 13339.00
935.2130, 13126.00
936.3320, 13288.00
937.4520, 13389.00
938.5710, 13209.00
939.6900, 13374.00
940.8090, 13392.00
941.9270, 13451.00
943.0460, 13562.00
944.1640, 13574.47
945.2820, 13708.00
946.4000, 13632.00
947.5180, 13662.00
948.6360, 13644.00
949.7530, 13941.00
950.8710, 13953.00
951.9880, 14196.00
953.1050, 14061.00
954.2220, 14167.00
955.3390, 14172.00
956.4550, 14479.00
957.5720, 14595.00
958.6880, 14682.00
959.8040, 14636.00
960.9200, 14785.00
962.0360, 14920.00
963.1520, 15201.00
964.2670, 15250.00
965.3820, 15232.00
966.4980, 15339.00
967.6130, 15762.00
968.7280, 15956.00
969.8420, 16355.00
970.9570, 16576.00
972.0710, 16775.00
973.1850, 17315.00
974.3000, 17829.00
975.4140, 18668.00
976.5270, 19542.00
977.6410, 20905.00
978.7540, 22365.00
979.8680, 24299.00
980.9810, 26503.00
982.0940, 29232.00
983.2070, 32485.00
984.3200, 36464.00
985.4320, 40754.00
986.5440, 45056.00
987.6570, 48962.00
988.7690, 51650.00
989.8810, 53041.00
990.9920, 53544.00
992.1040, 53475.00
993.2160, 53088.96
994.3270, 52139.19
995.4380, 50620.00
996.5490, 48797.00
997.6600, 46516.00
998.7710, 43475.00
999.8810, 39469.00
1000.991, 35755.00
1002.102, 32176.00
1003.212, 29517.00
1004.322, 27495.00
1005.431, 25572.00
1006.541, 24442.00
1007.651, 22918.00
1008.760, 21669.00
1009.869, 20639.00
1010.978, 19750.00
1012.087, 19256.00
1013.195, 18877.00
1014.304, 18630.00
1015.412, 18208.00
1016.521, 18036.00
1017.629, 18001.00
1018.737, 17675.00
1019.844, 17768.00
1020.952, 17613.00
1022.059, 17553.00
1023.167, 17603.00
1024.274, 17502.00
1025.381, 17385.00
1026.488, 17313.00
1027.594, 17356.00
1028.701, 17440.00
1029.807, 17500.00
1030.913, 17371.00
1032.019, 17624.00
1033.125, 17529.00
1034.231, 17495.00
1035.337, 17698.00
1036.442, 17673.00
1037.548, 17744.00
1038.653, 17775.00
1039.758, 17579.00
1040.863, 17837.00
1041.967, 17829.00
1043.072, 18106.00
1044.176, 17993.00
1045.280, 18151.00
1046.384, 18179.00
1047.488, 18147.00
1048.592, 18355.00
1049.696, 18257.00
1050.799, 18290.00
1051.903, 18493.00
1053.006, 18601.00
1054.109, 18730.00
1055.212, 18765.43
1056.314, 18761.00
1057.417, 18799.00
1058.519, 18854.27
1059.621, 18906.33
1060.724, 18998.00
1061.826, 19013.00
1062.927, 19109.00
1064.029, 19074.00
1065.130, 19323.00
1066.232, 19227.00
1067.333, 19287.00
1068.434, 19432.00
1069.535, 19365.00
1070.636, 19628.00
1071.736, 19755.00
1072.837, 19440.00
1073.937, 19903.00
1075.037, 19724.00
1076.137, 19962.00
1077.237, 20052.00
1078.337, 20059.00
1079.436, 20198.00
1080.535, 20449.00
1081.635, 20378.00
1082.734, 20421.00
1083.833, 20502.00
1084.931, 20450.00
1086.030, 20689.00
1087.128, 20777.00
1088.227, 20823.00
1089.325, 20885.00
1090.423, 20941.71
1091.521, 21041.00
1092.618, 21049.00
1093.716, 21131.00
1094.813, 21203.00
1095.911, 21371.00
1097.008, 21296.00
1098.105, 21659.00
1099.202, 21580.00
1100.298, 21643.00
1101.395, 21514.00
1102.491, 21846.00
1103.587, 21601.00
1104.683, 21809.00
1105.779, 21933.00
1106.875, 21980.00
1107.971, 22244.00
1109.066, 22142.00
1110.161, 22378.00
1111.256, 22419.80
1112.351, 22260.00
1113.446, 22504.00
1114.541, 22612.00
1115.636, 22568.00
1116.730, 22793.00
1117.824, 22844.00
1118.918, 22847.00
1120.012, 23058.00
1121.106, 22903.00
1122.200, 23104.31
1123.293, 22995.00
1124.387, 23251.00
1125.480, 23295.00
1126.573, 23101.00
1127.666, 23195.00
1128.759, 23266.00
1129.851, 23504.00
1130.944, 23395.00
1132.036, 23441.00
1133.128, 23599.00
1134.220, 23609.00
1135.312, 23615.00
1136.404, 23871.00
1137.495, 23893.00
1138.587, 23774.00
1139.678, 24061.00
1140.769, 24066.00
1141.860, 23817.00
1142.951, 23877.00
1144.041, 24029.00
1145.132, 24101.00
1146.222, 24006.00
1147.313, 24143.00
1148.403, 24233.00
1149.493, 24054.00
1150.582, 24417.00
1151.672, 24414.00
1152.761, 24489.00
1153.851, 24660.00
1154.940, 24382.00
1156.029, 24467.00
1157.118, 24285.00
1158.207, 24684.00
1159.295, 24495.00
1160.384, 24706.00
1161.472, 24712.00
1162.560, 24567.00
1163.648, 24489.00
1164.736, 24679.00
1165.824, 24553.00
1166.911, 24490.00
1167.999, 24443.00
1169.086, 24665.00
1170.173, 24707.00
1171.260, 24778.00
1172.347, 24819.57
1173.434, 24771.00
1174.520, 24809.00
1175.606, 24792.00
1176.693, 24796.45
1177.779, 24780.03
1178.865, 24696.00
1179.951, 24743.00
1181.036, 24721.00
1182.122, 24738.00
1183.207, 24777.86
1184.292, 24699.00
1185.377, 24859.00
1186.462, 24712.00
1187.547, 24743.00
1188.632, 24645.00
1189.716, 24560.00
1190.800, 24718.00
1191.885, 24501.00
1192.969, 24672.00
1194.052, 24796.00
1195.136, 24620.00
1196.220, 24565.00
1197.303, 24620.00
1198.387, 24507.00
1199.470, 24608.00
1200.553, 24655.00
1201.636, 24399.00
1202.718, 24549.00
1203.801, 24365.00
1204.883, 24452.00
1205.966, 24459.00
1207.048, 24629.00
1208.130, 24311.00
1209.211, 24354.00
1210.293, 24259.00
1211.375, 24137.00
1212.456, 24185.00
1213.537, 24258.00
1214.618, 24088.00
1215.699, 24220.00
1216.780, 24229.00
1217.861, 23980.00
1218.941, 24008.00
1220.022, 23805.00
1221.102, 23711.00
1222.182, 23959.00
1223.262, 23676.00
1224.342, 23687.00
1225.422, 23513.00
1226.501, 23692.00
1227.580, 23569.00
1228.660, 23736.00
1229.739, 23678.00
1230.818, 23427.00
1231.896, 23341.00
1232.975, 23387.00
1234.054, 23385.00
1235.132, 23407.00
1236.210, 23211.00
1237.288, 23170.00
1238.366, 22939.00
1239.444, 23039.00
1240.521, 22949.00
1241.599, 22906.00
1242.676, 22692.00
1243.753, 22751.00
1244.830, 22851.00
1245.907, 22609.00
1246.984, 22694.00
1248.061, 22559.00
1249.137, 22420.00
1250.214, 22415.00
1251.290, 22299.00
1252.366, 22303.00
1253.442, 22206.00
1254.517, 22094.00
1255.593, 22066.00
1256.668, 21907.00
1257.744, 21867.00
1258.819, 21792.00
1259.894, 21805.00
1260.969, 21653.00
1262.044, 21613.00
1263.118, 21574.00
1264.193, 21405.00
1265.267, 21326.00
1266.341, 21296.00
1267.415, 21062.00
1268.489, 21236.00
1269.563, 21128.00
1270.636, 21022.00
1271.710, 20767.00
1272.783, 20885.00
1273.856, 20580.00
1274.929, 20583.00
1276.002, 20576.00
1277.075, 20465.00
1278.147, 20425.31
1279.220, 20337.00
1280.292, 20256.00
1281.364, 20195.00
1282.436, 20116.66
1283.508, 20002.45
1284.580, 19897.00
1285.652, 19769.00
1286.723, 19693.00
1287.794, 19597.00
1288.865, 19540.00
1289.936, 19461.00
1291.007, 19368.35
1292.078, 19313.01
1293.149, 19161.00
1294.219, 19192.00
1295.289, 19050.00
1296.360, 19001.00
1297.430, 19021.00
1298.499, 18924.00
1299.569, 18876.97
1300.639, 18880.00
1301.708, 18699.00
1302.778, 18653.86
1303.847, 18511.00
1304.916, 18435.00
1305.985, 18239.00
1307.053, 18181.00
1308.122, 18195.00
1309.190, 17916.00
1310.259, 17999.00
1311.327, 18089.00
1312.395, 18117.00
1313.463, 17913.00
1314.531, 17904.00
1315.598, 17779.00
1316.666, 17675.00
1317.733, 17758.00
1318.800, 17377.00
1319.867, 17324.00
1320.934, 17416.00
1322.001, 17289.00
1323.067, 17269.00
1324.134, 17067.00
1325.200, 16961.00
1326.266, 16942.00
1327.333, 17073.00
1328.398, 16902.00
1329.464, 16943.00
1330.530, 16742.00
