##NAMES=Metatorbernite
##RRUFFID=R070686
##IDEAL CHEMISTRY=Cu^2+^(U^6+^O_2_)_2_(PO_4_)_2_&#183;8H_2_O
##LOCALITY=Fichtelgebirge, Franconia, Bavaria, Germany
##OWNER=RRUFF
##SOURCE=Michael Scott
##DESCRIPTION=Green tabular crystals
##STATUS=The identification of this mineral has been confirmed by X-ray diffraction.
##URL=rruff.info/R070686
##PIN_ID=M01699
##ORIENTATION=Laser parallel to c* (0 0 1). Fiducial mark perpendicular to laser is parallel to b [0 1 0]
136.1040, 18211.00
137.3420, 18641.00
138.5800, 18983.00
139.8180, 19373.00
141.0560, 19621.00
142.2940, 20040.00
143.5310, 20180.00
144.7680, 20650.00
146.0050, 20939.00
147.2420, 21274.00
148.4790, 21458.00
149.7150, 21582.00
150.9510, 21927.00
152.1870, 21990.00
153.4230, 22210.00
154.6590, 22435.00
155.8940, 22621.00
157.1300, 22833.00
158.3650, 23234.00
159.6000, 23371.00
160.8340, 23701.00
162.0690, 23691.00
163.3030, 23849.00
164.5370, 23967.00
165.7710, 24412.00
167.0050, 24626.00
168.2380, 24753.00
169.4720, 24754.00
170.7050, 25032.00
171.9380, 25273.00
173.1700, 25233.00
174.4030, 25595.00
175.6350, 25950.00
176.8680, 26175.00
178.1000, 26509.00
179.3310, 26517.00
180.5630, 26883.00
181.7940, 27119.00
183.0260, 27679.00
184.2570, 27871.00
185.4870, 28437.00
186.7180, 28699.00
187.9480, 29210.00
189.1790, 29764.00
190.4090, 29770.00
191.6390, 30440.00
192.8680, 30626.00
194.0980, 31095.00
195.3270, 31156.00
196.5560, 30867.00
197.7850, 30749.00
199.0140, 30517.00
200.2420, 30236.00
201.4710, 29907.00
202.6990, 29721.00
203.9270, 29635.00
205.1550, 29688.00
206.3820, 29722.00
207.6090, 29751.00
208.8370, 29960.85
210.0640, 30117.00
211.2900, 30359.00
212.5170, 30718.00
213.7440, 30822.00
214.9700, 31098.00
216.1960, 31240.00
217.4220, 31438.80
218.6470, 31654.21
219.8730, 31873.00
221.0980, 31950.00
222.3230, 32244.00
223.5480, 32172.00
224.7730, 32159.00
225.9970, 32344.00
227.2220, 32231.00
228.4460, 32243.11
229.6700, 32201.99
230.8940, 32073.00
232.1170, 32018.00
233.3400, 31800.00
234.5640, 31667.00
235.7870, 32006.00
237.0100, 31727.00
238.2320, 31968.00
239.4550, 32019.00
240.6770, 32107.00
241.8990, 32449.00
243.1210, 32269.00
244.3420, 32368.00
245.5640, 32557.00
246.7850, 32622.00
248.0060, 32640.00
249.2270, 32781.45
250.4480, 32880.00
251.6690, 32938.00
252.8890, 33057.00
254.1090, 33077.00
255.3290, 33200.48
256.5490, 33266.28
257.7680, 33360.00
258.9880, 33422.00
260.2070, 33378.00
261.4260, 33449.73
262.6450, 33541.79
263.8640, 33689.00
265.0820, 33826.00
266.3000, 33948.00
267.5180, 34199.00
268.7360, 33961.00
269.9540, 34451.00
271.1720, 34381.00
272.3890, 34559.00
273.6060, 34746.00
274.8230, 35063.00
276.0400, 35162.00
277.2560, 35191.00
278.4730, 35492.00
279.6890, 35480.00
280.9050, 35776.00
282.1210, 36198.00
283.3370, 36047.00
284.5520, 36417.00
285.7670, 36059.00
286.9820, 36228.00
288.1970, 36361.00
289.4120, 36537.00
290.6270, 36573.00
291.8410, 36808.00
293.0550, 36891.00
294.2690, 37059.00
295.4830, 36919.00
296.6970, 36879.00
297.9100, 37124.00
299.1230, 37019.00
300.3360, 37063.00
301.5490, 37346.00
302.7620, 37357.00
303.9740, 37325.00
305.1860, 37663.00
306.3990, 37663.00
307.6110, 37730.00
308.8220, 37748.00
310.0340, 37941.00
311.2450, 38072.00
312.4560, 37823.00
313.6670, 38098.00
314.8780, 38252.00
316.0890, 38235.00
317.2990, 37903.00
318.5090, 38409.00
319.7200, 38345.00
320.9290, 38690.00
322.1390, 38368.00
323.3490, 38235.00
324.5580, 38595.00
325.7670, 38749.00
326.9760, 38616.00
328.1850, 38708.00
329.3930, 38839.00
330.6020, 38947.00
331.8100, 38759.00
333.0180, 38726.00
334.2260, 38997.00
335.4340, 38904.00
336.6410, 39309.00
337.8480, 39051.00
339.0550, 39394.00
340.2620, 39331.00
341.4690, 39139.00
342.6760, 39222.00
343.8820, 39256.00
345.0880, 39605.00
346.2940, 39342.00
347.5000, 39454.00
348.7060, 39426.00
349.9110, 39367.00
351.1160, 39340.00
352.3210, 39565.00
353.5260, 39407.00
354.7310, 39741.00
355.9360, 39457.00
357.1400, 39518.00
358.3440, 39785.00
359.5480, 39819.00
360.7520, 39647.00
361.9550, 39707.00
363.1590, 39541.00
364.3620, 39530.00
365.5650, 39662.00
366.7680, 39622.00
367.9710, 39671.00
369.1730, 39816.00
370.3760, 39608.00
371.5780, 39894.00
372.7800, 39953.00
373.9810, 39833.00
375.1830, 39642.00
376.3840, 40055.00
377.5860, 39800.00
378.7870, 39404.00
379.9880, 39630.00
381.1880, 39659.00
382.3890, 39594.00
383.5890, 39674.00
384.7890, 39438.00
385.9890, 39722.00
387.1890, 39383.00
388.3880, 39678.00
389.5880, 39684.00
390.7870, 39714.00
391.9860, 39785.00
393.1850, 39802.56
394.3840, 39859.51
395.5820, 39822.00
396.7800, 39997.00
397.9790, 39892.00
399.1770, 40032.00
400.3740, 40305.00
401.5720, 39870.00
402.7690, 40142.00
403.9670, 39994.00
405.1640, 40116.00
406.3600, 40191.00
407.5570, 40019.00
408.7540, 39988.90
409.9500, 39986.00
411.1460, 39652.00
412.3420, 39674.00
413.5380, 39443.00
414.7330, 39288.00
415.9290, 39461.00
417.1240, 39005.00
418.3190, 38813.00
419.5140, 38962.00
420.7090, 39031.00
421.9030, 38703.00
423.0970, 38511.00
424.2920, 38715.00
425.4860, 38710.00
426.6790, 38632.00
427.8730, 38726.00
429.0660, 38633.56
430.2600, 38810.00
431.4530, 38642.00
432.6460, 38604.00
433.8380, 38863.00
435.0310, 39124.00
436.2230, 39049.00
437.4150, 39174.93
438.6070, 39037.00
439.7990, 39085.00
440.9910, 38953.00
442.1820, 38769.00
443.3730, 38830.00
444.5640, 38430.00
445.7550, 38287.00
446.9460, 38032.00
448.1370, 37929.00
449.3270, 37598.00
450.5170, 37459.00
451.7070, 37503.00
452.8970, 37188.00
454.0870, 36908.00
455.2760, 36931.00
456.4650, 36830.00
457.6550, 36448.00
458.8430, 36495.00
460.0320, 36400.00
461.2210, 36199.00
462.4090, 36632.00
463.5970, 36059.00
464.7850, 36007.00
465.9730, 35928.00
467.1610, 36217.00
468.3480, 35750.00
469.5360, 35673.00
470.7230, 35510.00
471.9100, 35090.00
473.0970, 34974.00
474.2830, 34816.00
475.4700, 34910.00
476.6560, 34657.00
477.8420, 34424.00
479.0280, 34428.00
480.2140, 34191.00
481.3990, 34144.00
482.5850, 34125.00
483.7700, 33750.00
484.9550, 33773.00
486.1400, 33661.00
487.3240, 33406.00
488.5090, 33636.00
489.6930, 33014.00
490.8770, 33196.00
492.0610, 33073.00
493.2450, 33104.00
494.4290, 32919.00
495.6120, 32849.00
496.7950, 32838.00
497.9780, 32475.00
499.1610, 32695.00
500.3440, 32261.00
501.5260, 32271.00
502.7090, 31995.00
503.8910, 32016.00
505.0730, 31981.00
506.2550, 32037.00
507.4360, 31833.00
508.6180, 31841.00
509.7990, 31524.00
510.9800, 31614.00
512.1610, 31338.00
513.3420, 31288.00
514.5230, 31078.00
515.7030, 31112.00
516.8830, 30769.00
518.0630, 30917.00
519.2430, 30567.00
520.4230, 30549.00
521.6020, 30488.00
522.7820, 30370.00
523.9610, 30281.00
525.1400, 30104.00
526.3190, 30112.00
527.4970, 29913.00
528.6760, 29970.00
529.8540, 29767.00
531.0320, 29782.00
532.2100, 29462.00
533.3880, 29464.00
534.5660, 29602.00
535.7430, 29274.00
536.9200, 29032.00
538.0970, 29084.00
539.2740, 28743.00
540.4510, 28652.00
541.6270, 28519.00
542.8040, 28395.00
543.9800, 28368.69
545.1560, 28299.11
546.3320, 28334.00
547.5080, 28194.00
548.6830, 28193.00
549.8580, 28018.00
551.0340, 27876.00
552.2090, 27650.00
553.3830, 27589.00
554.5580, 27673.00
555.7320, 27601.00
556.9070, 27521.00
558.0810, 27488.00
559.2550, 27338.18
560.4280, 27139.00
561.6020, 27053.00
562.7750, 26943.00
563.9490, 26809.00
565.1220, 26858.00
566.2950, 26479.00
567.4670, 26416.00
568.6400, 26338.00
569.8120, 26452.00
570.9840, 26623.00
572.1560, 26286.00
573.3280, 26396.00
574.5000, 26037.00
575.6710, 25927.00
576.8430, 25746.00
578.0140, 25494.00
579.1850, 25712.00
580.3560, 25719.00
581.5260, 25561.00
582.6970, 25409.00
583.8670, 25485.00
585.0370, 25330.00
586.2070, 25377.00
587.3770, 25280.00
588.5460, 25053.00
589.7160, 24960.00
590.8850, 24848.89
592.0540, 24727.00
593.2230, 24657.00
594.3920, 24693.00
595.5600, 24583.00
596.7290, 24529.00
597.8970, 24426.00
599.0650, 24453.00
600.2330, 24508.00
601.4000, 24618.00
602.5680, 24488.00
603.7350, 24295.00
604.9020, 24278.00
606.0690, 24337.00
607.2360, 24048.00
608.4030, 24119.00
609.5690, 23640.00
610.7360, 24072.00
611.9020, 23810.00
613.0680, 23680.00
614.2340, 23779.00
615.3990, 23864.00
616.5650, 23720.00
617.7300, 23580.00
618.8950, 23641.00
620.0600, 23593.00
621.2250, 23473.00
622.3890, 23317.00
623.5540, 23518.00
624.7180, 23501.00
625.8820, 23413.00
627.0460, 23358.00
628.2100, 23313.40
629.3730, 23234.55
630.5370, 23227.00
631.7000, 23102.00
632.8630, 23084.00
634.0260, 23025.00
635.1890, 22904.00
636.3510, 23059.00
637.5140, 22812.00
638.6760, 22664.00
639.8380, 22734.00
641.0000, 22609.00
642.1610, 22640.00
643.3230, 22576.00
644.4840, 22530.00
645.6450, 22469.14
646.8060, 22350.00
647.9670, 22298.00
649.1280, 22237.00
650.2880, 22153.00
651.4490, 22215.00
652.6090, 22150.00
653.7690, 22059.00
654.9290, 21979.00
656.0880, 21877.00
657.2480, 21825.62
658.4070, 21922.00
659.5660, 21758.00
660.7250, 21848.00
661.8840, 21905.00
663.0430, 21556.00
664.2010, 21679.00
665.3600, 21854.00
666.5180, 21558.00
667.6760, 21653.00
668.8330, 21337.00
669.9910, 21324.00
671.1480, 21434.00
672.3060, 21250.00
673.4630, 21242.00
674.6200, 21424.00
675.7770, 21246.00
676.9330, 21107.00
678.0900, 21257.00
679.2460, 21222.00
680.4020, 21106.00
681.5580, 21140.00
682.7140, 21019.00
683.8690, 21097.00
685.0250, 20874.00
686.1800, 20943.00
687.3350, 20671.00
688.4900, 20774.00
689.6450, 20846.00
690.7990, 20658.00
691.9540, 20685.00
693.1080, 20711.00
694.2620, 20751.00
695.4160, 20599.00
696.5700, 20647.00
697.7230, 20777.00
698.8770, 20457.00
700.0300, 20440.00
701.1830, 20390.00
702.3360, 20518.00
703.4890, 20450.00
704.6410, 20440.63
705.7930, 20274.00
706.9460, 20409.00
708.0980, 20327.00
709.2500, 20411.00
710.4010, 20183.00
711.5530, 20162.00
712.7040, 20150.00
713.8560, 20103.00
715.0070, 20107.08
716.1580, 19987.00
717.3080, 20125.00
718.4590, 20101.00
719.6090, 20163.00
720.7590, 20024.00
721.9090, 19988.00
723.0590, 20044.00
724.2090, 20020.00
725.3590, 19884.00
726.5080, 19879.00
727.6570, 19855.00
728.8060, 19805.46
729.9550, 19960.00
731.1040, 19773.00
732.2530, 19683.00
733.4010, 19670.64
734.5490, 19902.00
735.6970, 19700.00
736.8450, 19711.00
737.9930, 19823.00
739.1400, 19711.00
740.2880, 19589.00
741.4350, 19797.00
742.5820, 19361.00
743.7290, 19499.00
744.8760, 19504.00
746.0220, 19566.00
747.1690, 19724.00
748.3150, 19407.00
749.4610, 19637.00
750.6070, 19447.00
751.7530, 19476.00
752.8980, 19574.00
754.0440, 19660.00
755.1890, 19493.00
756.3340, 19505.00
757.4790, 19630.00
758.6240, 19561.00
759.7680, 19609.00
760.9130, 19467.00
762.0570, 19651.00
763.2010, 19448.00
764.3450, 19581.00
765.4890, 19689.00
766.6320, 19357.00
767.7760, 19436.00
768.9190, 19597.00
770.0620, 19568.00
771.2050, 19618.87
772.3480, 19676.00
773.4900, 19608.00
774.6330, 19624.00
775.7750, 19623.00
776.9170, 19615.00
778.0590, 19518.00
779.2010, 19555.00
780.3420, 19659.00
781.4840, 19467.00
782.6250, 19638.00
783.7660, 19511.00
784.9070, 19629.00
786.0480, 19646.00
787.1890, 19731.00
788.3290, 19842.00
789.4690, 19844.00
790.6100, 19960.00
791.7490, 20018.22
792.8890, 20060.92
794.0290, 20190.00
795.1680, 20157.00
796.3080, 20297.00
797.4470, 20344.00
798.5860, 20382.00
799.7250, 20483.00
800.8630, 20651.00
802.0020, 20782.82
803.1400, 20963.12
804.2780, 21149.00
805.4160, 21392.00
806.5540, 21587.00
807.6920, 21903.00
808.8300, 22029.00
809.9670, 22563.00
811.1040, 22804.00
812.2410, 23342.00
813.3780, 23859.00
814.5150, 24936.00
815.6510, 26000.00
816.7880, 27617.00
817.9240, 29370.00
819.0600, 32135.00
820.1960, 35913.00
821.3320, 39835.00
822.4670, 44814.00
823.6030, 50519.00
824.7380, 56964.00
825.8730, 62112.00
827.0080, 63151.00
828.1430, 60534.00
829.2770, 54264.00
830.4120, 46264.00
831.5460, 39314.00
832.6800, 33638.00
833.8140, 30051.00
834.9480, 27716.00
836.0810, 25977.00
837.2150, 24929.00
838.3480, 23831.00
839.4810, 23630.00
840.6140, 22910.00
841.7470, 22300.00
842.8800, 22195.00
844.0120, 21388.00
845.1450, 21270.00
846.2770, 20860.00
847.4090, 20585.00
848.5410, 20296.00
849.6720, 20298.00
850.8040, 20262.00
851.9350, 20226.00
853.0660, 20003.00
854.1970, 20141.00
855.3280, 19935.00
856.4590, 20005.00
857.5900, 19804.00
858.7200, 19679.00
859.8500, 19805.00
860.9800, 19815.00
862.1100, 19691.00
863.2400, 19870.00
864.3700, 19671.00
865.4990, 19538.00
866.6280, 19722.00
867.7570, 19725.00
868.8860, 19659.00
870.0150, 19664.00
871.1440, 19712.00
872.2720, 19589.00
873.4010, 19714.00
874.5290, 19651.00
875.6570, 19824.00
876.7850, 19745.00
877.9120, 19826.00
879.0400, 19817.00
880.1670, 19912.00
881.2940, 19892.00
882.4210, 20150.00
883.5480, 19912.00
884.6750, 20325.00
885.8020, 20072.00
886.9280, 19987.00
888.0540, 20232.00
889.1800, 20127.00
890.3060, 20321.00
891.4320, 20296.00
892.5580, 20392.00
893.6830, 20573.00
894.8080, 20608.00
895.9330, 20683.74
897.0580, 20721.21
898.1830, 20741.00
899.3080, 20767.00
900.4320, 20760.00
901.5570, 20862.00
902.6810, 20899.00
903.8050, 21019.00
904.9290, 20834.00
906.0520, 20716.00
907.1760, 20728.00
908.2990, 20748.00
909.4230, 20687.00
910.5460, 20559.00
911.6690, 20710.00
912.7910, 20513.00
913.9140, 20421.00
915.0360, 20421.00
916.1590, 20323.00
917.2810, 20428.00
918.4030, 20383.00
919.5240, 20471.00
920.6460, 20436.00
921.7680, 20439.00
922.8890, 20494.00
924.0100, 20434.67
925.1310, 20507.28
926.2520, 20518.40
927.3730, 20526.99
928.4930, 20533.31
929.6130, 20522.74
930.7340, 20540.01
931.8540, 20549.79
932.9740, 20561.78
934.0930, 20590.43
935.2130, 20595.82
936.3320, 20629.49
937.4520, 20655.56
938.5710, 20688.91
939.6900, 20675.37
940.8090, 20711.00
941.9270, 20734.00
943.0460, 20778.00
944.1640, 20807.00
945.2820, 20898.00
946.4000, 20903.00
947.5180, 20928.00
948.6360, 21118.00
949.7530, 21061.00
950.8710, 21164.00
951.9880, 21147.00
953.1050, 21294.00
954.2220, 21267.00
955.3390, 21255.00
956.4550, 21537.00
957.5720, 21536.00
958.6880, 21523.00
959.8040, 21705.00
960.9200, 21793.00
962.0360, 21822.00
963.1520, 21808.00
964.2670, 21942.00
965.3820, 21962.00
966.4980, 22006.00
967.6130, 22200.00
968.7280, 22353.00
969.8420, 22541.00
970.9570, 22682.98
972.0710, 22770.00
973.1850, 22990.00
974.3000, 23179.00
975.4140, 23395.00
976.5270, 23959.63
977.6410, 24592.00
978.7540, 25354.00
979.8680, 26278.00
980.9810, 27367.00
982.0940, 28359.00
983.2070, 29877.00
984.3200, 31552.00
985.4320, 33301.00
986.5440, 34932.00
987.6570, 36732.00
988.7690, 37710.00
989.8810, 38701.00
990.9920, 39118.00
992.1040, 39293.00
993.2160, 39163.00
994.3270, 38807.38
995.4380, 37845.00
996.5490, 37223.00
997.6600, 36150.00
998.7710, 34566.00
999.8810, 33096.00
1000.991, 31740.00
1002.102, 30577.00
1003.212, 29656.00
1004.322, 28821.00
1005.431, 28012.42
1006.541, 27335.95
1007.651, 26667.00
1008.760, 26079.66
1009.869, 25539.00
1010.978, 25074.00
1012.087, 24684.00
1013.195, 24306.00
1014.304, 24366.00
1015.412, 24060.00
1016.521, 24096.62
1017.629, 24172.79
1018.737, 24186.01
1019.844, 24140.27
1020.952, 23827.69
1022.059, 23883.32
1023.167, 23805.85
1024.274, 23732.86
1025.381, 23869.84
1026.488, 23649.26
1027.594, 23803.71
1028.701, 23822.90
1029.807, 23919.02
1030.913, 23881.16
1032.019, 23898.17
1033.125, 24069.82
1034.231, 24171.85
1035.337, 24158.61
1036.442, 24261.00
1037.548, 24250.00
1038.653, 24385.00
1039.758, 24456.00
1040.863, 24571.00
1041.967, 24611.33
1043.072, 24573.00
1044.176, 24632.00
1045.280, 24639.00
1046.384, 24557.00
1047.488, 24639.00
1048.592, 24698.00
1049.696, 24655.00
1050.799, 24778.00
1051.903, 24754.19
1053.006, 24984.00
1054.109, 24814.00
1055.212, 24903.00
1056.314, 25042.00
1057.417, 25024.00
1058.519, 25087.35
1059.621, 25067.00
1060.724, 25146.00
1061.826, 25194.00
1062.927, 25299.00
1064.029, 25384.00
1065.130, 25480.00
1066.232, 25763.00
1067.333, 25554.00
1068.434, 25783.00
1069.535, 25695.00
1070.636, 25894.00
1071.736, 25968.00
1072.837, 25849.00
1073.937, 26086.00
1075.037, 26135.00
1076.137, 26195.00
1077.237, 26334.00
1078.337, 26239.00
1079.436, 26562.00
1080.535, 26399.00
1081.635, 26839.00
1082.734, 26528.00
1083.833, 26659.00
1084.931, 26763.00
1086.030, 26787.00
1087.128, 26700.00
1088.227, 27008.00
1089.325, 26868.00
1090.423, 26890.00
1091.521, 26985.00
1092.618, 27082.00
1093.716, 27236.00
1094.813, 27371.00
1095.911, 27380.00
1097.008, 27503.00
1098.105, 27736.00
1099.202, 27519.00
1100.298, 27582.00
1101.395, 27536.00
1102.491, 27786.00
1103.587, 27614.00
1104.683, 27828.00
1105.779, 27931.00
1106.875, 28214.00
1107.971, 28074.00
1109.066, 28056.00
1110.161, 28437.00
1111.256, 28316.00
1112.351, 28229.00
1113.446, 28204.00
1114.541, 28371.00
1115.636, 28516.00
1116.730, 28691.00
1117.824, 28755.32
1118.918, 28825.46
1120.012, 28835.00
1121.106, 28910.00
1122.200, 28874.00
1123.293, 28981.00
1124.387, 29008.98
1125.480, 28811.00
1126.573, 29071.00
1127.666, 28968.00
1128.759, 28896.00
1129.851, 29270.00
1130.944, 29123.00
1132.036, 29303.00
1133.128, 28965.00
1134.220, 29368.00
1135.312, 29400.00
1136.404, 29317.00
1137.495, 29438.00
1138.587, 29241.00
1139.678, 29532.00
1140.769, 29723.00
1141.860, 29599.00
1142.951, 29712.00
1144.041, 29863.00
1145.132, 30003.00
1146.222, 29945.00
1147.313, 29717.00
1148.403, 29829.00
1149.493, 29942.00
1150.582, 30140.00
1151.672, 29900.00
1152.761, 30082.00
1153.851, 30265.00
1154.940, 30030.00
1156.029, 30294.00
1157.118, 30093.00
1158.207, 30241.00
1159.295, 30316.00
1160.384, 30347.00
1161.472, 30355.00
1162.560, 30292.00
1163.648, 30643.00
1164.736, 30167.00
1165.824, 30275.00
1166.911, 30534.00
1167.999, 30275.00
1169.086, 30256.00
1170.173, 30487.00
1171.260, 30664.00
1172.347, 30656.00
1173.434, 30617.00
1174.520, 30565.00
1175.606, 30455.00
1176.693, 30830.00
1177.779, 30742.00
1178.865, 30780.00
1179.951, 30580.00
1181.036, 30787.00
1182.122, 30637.00
1183.207, 30678.00
1184.292, 31053.00
1185.377, 30796.00
1186.462, 30736.00
1187.547, 30898.00
1188.632, 30796.00
1189.716, 31023.00
1190.800, 30856.00
1191.885, 30720.00
1192.969, 31004.00
1194.052, 31067.00
1195.136, 31032.00
1196.220, 30916.00
1197.303, 31082.00
1198.387, 30944.00
1199.470, 31002.00
1200.553, 31177.00
1201.636, 31122.00
1202.718, 31182.00
1203.801, 31019.00
1204.883, 31116.00
1205.966, 30969.00
1207.048, 31001.00
1208.130, 31003.00
1209.211, 30962.00
1210.293, 30836.00
1211.375, 30905.00
1212.456, 31134.00
1213.537, 30945.00
1214.618, 30911.00
1215.699, 30919.00
1216.780, 30757.00
1217.861, 30646.00
1218.941, 30865.00
1220.022, 30960.00
1221.102, 30984.00
1222.182, 30723.00
1223.262, 30937.00
1224.342, 30922.00
1225.422, 30688.00
1226.501, 30893.00
1227.580, 30794.00
1228.660, 30720.00
1229.739, 30569.00
1230.818, 30603.00
1231.896, 30447.00
1232.975, 30767.00
1234.054, 30397.00
1235.132, 30677.00
1236.210, 30537.00
1237.288, 30653.00
1238.366, 30440.00
1239.444, 30394.00
1240.521, 30355.00
1241.599, 30221.00
1242.676, 30379.00
1243.753, 29995.00
1244.830, 30287.00
1245.907, 30128.00
1246.984, 30149.00
1248.061, 29993.00
1249.137, 29853.00
1250.214, 30027.00
1251.290, 29946.00
1252.366, 29791.00
1253.442, 29944.00
1254.517, 29762.00
1255.593, 29976.00
1256.668, 29822.00
1257.744, 29511.00
1258.819, 29567.00
1259.894, 29402.00
1260.969, 29475.00
1262.044, 29261.00
1263.118, 29070.00
1264.193, 29128.00
1265.267, 29087.00
1266.341, 29124.00
1267.415, 29078.00
1268.489, 28930.00
1269.563, 28906.00
1270.636, 28764.00
1271.710, 28813.00
1272.783, 28642.00
1273.856, 28651.00
1274.929, 28353.00
1276.002, 28610.00
1277.075, 28344.00
1278.147, 28402.00
1279.220, 28510.00
1280.292, 28123.00
1281.364, 28046.00
1282.436, 27938.00
1283.508, 28087.00
1284.580, 27847.00
1285.652, 27784.00
1286.723, 27651.00
1287.794, 27699.00
1288.865, 27623.00
1289.936, 27546.00
1291.007, 27272.00
1292.078, 27325.33
1293.149, 27264.00
1294.219, 27356.00
1295.289, 27097.00
1296.360, 27171.00
1297.430, 26863.00
1298.499, 26741.00
1299.569, 26774.00
1300.639, 26556.00
1301.708, 26663.00
1302.778, 26673.00
1303.847, 26598.00
1304.916, 26513.00
1305.985, 26181.00
1307.053, 26369.00
1308.122, 26249.00
1309.190, 26031.00
1310.259, 26168.00
1311.327, 26076.00
1312.395, 25941.00
1313.463, 25854.00
1314.531, 25830.08
1315.598, 25793.00
