##NAMES=Metatorbernite
##RRUFFID=R070686
##IDEAL CHEMISTRY=Cu^2+^(U^6+^O_2_)_2_(PO_4_)_2_&#183;8H_2_O
##LOCALITY=Fichtelgebirge, Franconia, Bavaria, Germany
##OWNER=RRUFF
##SOURCE=Michael Scott
##DESCRIPTION=Green tabular crystals
##STATUS=The identification of this mineral has been confirmed by X-ray diffraction.
##URL=rruff.info/R070686
##PIN_ID=M00978
##ORIENTATION=Laser parallel to -a* (-1 0 0). Fiducial mark perpendicular to laser is parallel to c [0 0 1]
170.7050, 21544.00
171.9380, 21680.00
173.1700, 21763.00
174.4030, 22012.00
175.6350, 22014.00
176.8680, 22172.00
178.1000, 22521.00
179.3310, 22847.00
180.5630, 23137.00
181.7940, 23384.00
183.0260, 23827.00
184.2570, 24217.00
185.4870, 24763.00
186.7180, 25238.00
187.9480, 25524.00
189.1790, 25685.00
190.4090, 26148.00
191.6390, 26322.00
192.8680, 26572.00
194.0980, 26435.00
195.3270, 26433.00
196.5560, 26428.00
197.7850, 25867.00
199.0140, 25530.00
200.2420, 25156.00
201.4710, 24943.00
202.6990, 24554.00
203.9270, 24366.00
205.1550, 24335.00
206.3820, 24228.00
207.6090, 24067.00
208.8370, 24064.00
210.0640, 24134.00
211.2900, 24268.00
212.5170, 24310.00
213.7440, 24347.00
214.9700, 24361.97
216.1960, 24335.49
217.4220, 24351.00
218.6470, 24358.69
219.8730, 24342.00
221.0980, 24407.00
222.3230, 24443.00
223.5480, 24513.63
224.7730, 24746.00
225.9970, 24634.00
227.2220, 24699.00
228.4460, 24746.00
229.6700, 24667.00
230.8940, 24615.00
232.1170, 24595.00
233.3400, 24615.00
234.5640, 24563.00
235.7870, 24689.00
237.0100, 24943.00
238.2320, 24713.00
239.4550, 24913.00
240.6770, 24841.00
241.8990, 24994.00
243.1210, 25170.00
244.3420, 25258.00
245.5640, 25264.00
246.7850, 25087.00
248.0060, 25154.00
249.2270, 25167.00
250.4480, 25054.00
251.6690, 25370.00
252.8890, 25316.00
254.1090, 25575.00
255.3290, 25351.00
256.5490, 25512.00
257.7680, 25557.00
258.9880, 25560.00
260.2070, 25475.00
261.4260, 25603.00
262.6450, 25801.00
263.8640, 25694.00
265.0820, 25675.00
266.3000, 25929.00
267.5180, 25974.00
268.7360, 25904.00
269.9540, 26148.00
271.1720, 26203.00
272.3890, 26080.00
273.6060, 26118.00
274.8230, 26352.00
276.0400, 26487.00
277.2560, 26469.00
278.4730, 26477.00
279.6890, 26749.00
280.9050, 26769.00
282.1210, 26883.00
283.3370, 26542.00
284.5520, 27076.00
285.7670, 26916.00
286.9820, 27159.00
288.1970, 27183.00
289.4120, 27148.00
290.6270, 27162.00
291.8410, 27237.00
293.0550, 26982.00
294.2690, 27251.00
295.4830, 27157.00
296.6970, 27344.00
297.9100, 27209.00
299.1230, 27188.00
300.3360, 27456.00
301.5490, 27322.00
302.7620, 27437.00
303.9740, 27588.00
305.1860, 27548.00
306.3990, 27631.43
307.6110, 27619.70
308.8220, 27684.00
310.0340, 27541.00
311.2450, 27597.00
312.4560, 27508.00
313.6670, 27721.00
314.8780, 27798.00
316.0890, 27737.00
317.2990, 27724.00
318.5090, 27762.89
319.7200, 27751.00
320.9290, 27882.00
322.1390, 27920.00
323.3490, 28136.00
324.5580, 28021.00
325.7670, 27955.00
326.9760, 28094.00
328.1850, 28169.00
329.3930, 28148.00
330.6020, 28240.00
331.8100, 28132.00
333.0180, 28113.00
334.2260, 28259.00
335.4340, 28473.00
336.6410, 28443.00
337.8480, 28546.00
339.0550, 28337.00
340.2620, 28556.00
341.4690, 28378.00
342.6760, 28695.00
343.8820, 28633.00
345.0880, 28676.00
346.2940, 28780.00
347.5000, 28618.00
348.7060, 28820.00
349.9110, 28801.00
351.1160, 29003.00
352.3210, 29052.00
353.5260, 28990.00
354.7310, 29064.00
355.9360, 28984.00
357.1400, 28879.00
358.3440, 29275.00
359.5480, 29144.00
360.7520, 29160.00
361.9550, 29281.00
363.1590, 29262.00
364.3620, 29291.00
365.5650, 29265.00
366.7680, 29308.00
367.9710, 29389.00
369.1730, 29378.00
370.3760, 29684.00
371.5780, 29719.00
372.7800, 29673.00
373.9810, 29841.00
375.1830, 29453.00
376.3840, 29841.00
377.5860, 29711.00
378.7870, 29890.00
379.9880, 29930.00
381.1880, 29946.00
382.3890, 29925.00
383.5890, 29938.00
384.7890, 29844.00
385.9890, 30093.00
387.1890, 29986.00
388.3880, 29859.00
389.5880, 30142.00
390.7870, 30162.00
391.9860, 30248.00
393.1850, 30435.00
394.3840, 30362.00
395.5820, 30757.00
396.7800, 30804.00
397.9790, 30738.00
399.1770, 30885.00
400.3740, 30997.00
401.5720, 31020.49
402.7690, 31302.00
403.9670, 31152.00
405.1640, 31300.00
406.3600, 31372.00
407.5570, 31234.00
408.7540, 31171.00
409.9500, 31482.00
411.1460, 31444.00
412.3420, 31143.00
413.5380, 31113.00
414.7330, 30894.00
415.9290, 30974.00
417.1240, 30970.00
418.3190, 31055.00
419.5140, 30821.00
420.7090, 30965.00
421.9030, 31085.00
423.0970, 30967.00
424.2920, 31157.00
425.4860, 31030.00
426.6790, 31255.00
427.8730, 31188.00
429.0660, 31127.00
430.2600, 31090.00
431.4530, 31394.00
432.6460, 31417.00
433.8380, 31462.00
435.0310, 31574.00
436.2230, 31531.00
437.4150, 31544.00
438.6070, 31415.00
439.7990, 31756.00
440.9910, 31747.00
442.1820, 31627.00
443.3730, 31590.00
444.5640, 31511.00
445.7550, 31713.00
446.9460, 31325.00
448.1370, 31572.00
449.3270, 31531.00
450.5170, 31485.00
451.7070, 31487.00
452.8970, 31513.29
454.0870, 31514.00
455.2760, 31586.00
456.4650, 31480.00
457.6550, 31438.00
458.8430, 31481.00
460.0320, 31754.00
461.2210, 31584.00
462.4090, 31577.00
463.5970, 31709.00
464.7850, 31501.00
465.9730, 31799.00
467.1610, 31420.00
468.3480, 31571.00
469.5360, 31550.00
470.7230, 31440.00
471.9100, 31363.00
473.0970, 31563.00
474.2830, 31424.00
475.4700, 31581.00
476.6560, 31646.00
477.8420, 31597.00
479.0280, 31646.00
480.2140, 31678.00
481.3990, 31730.00
482.5850, 31518.00
483.7700, 31422.00
484.9550, 31528.00
486.1400, 31528.00
487.3240, 31493.00
488.5090, 31534.00
489.6930, 31593.00
490.8770, 31556.00
492.0610, 31822.00
493.2450, 31610.00
494.4290, 31829.00
495.6120, 31502.00
496.7950, 31803.00
497.9780, 31758.00
499.1610, 31758.00
500.3440, 31906.00
501.5260, 31469.00
502.7090, 31749.00
503.8910, 31912.00
505.0730, 31739.00
506.2550, 31957.00
507.4360, 31952.00
508.6180, 31664.00
509.7990, 31790.00
510.9800, 31785.00
512.1610, 31713.00
513.3420, 31966.00
514.5230, 31907.00
515.7030, 32068.00
516.8830, 31939.00
518.0630, 32099.00
519.2430, 31934.00
520.4230, 31865.00
521.6020, 31714.00
522.7820, 31965.00
523.9610, 32110.00
525.1400, 32052.00
526.3190, 32038.00
527.4970, 32036.00
528.6760, 31991.00
529.8540, 32080.00
531.0320, 31930.00
532.2100, 32227.00
533.3880, 32373.00
534.5660, 32264.00
535.7430, 32321.00
536.9200, 32311.00
538.0970, 32162.00
539.2740, 32370.00
540.4510, 32308.00
541.6270, 32393.00
542.8040, 32215.00
543.9800, 32492.00
545.1560, 32324.00
546.3320, 32488.00
547.5080, 32504.00
548.6830, 32326.00
549.8580, 32377.00
551.0340, 32663.00
552.2090, 32604.00
553.3830, 32371.00
554.5580, 32596.00
555.7320, 32318.00
556.9070, 32542.00
558.0810, 32481.00
559.2550, 32477.00
560.4280, 32355.00
561.6020, 32446.00
562.7750, 32533.00
563.9490, 32538.00
565.1220, 32577.05
566.2950, 32527.00
567.4670, 32581.86
568.6400, 32571.00
569.8120, 32577.00
570.9840, 32660.00
572.1560, 32733.00
573.3280, 32675.00
574.5000, 32883.00
575.6710, 32838.00
576.8430, 32686.00
578.0140, 32699.00
579.1850, 33026.00
580.3560, 32940.00
581.5260, 32954.00
582.6970, 32626.00
583.8670, 32596.00
585.0370, 32901.00
586.2070, 33154.00
587.3770, 32969.00
588.5460, 32885.00
589.7160, 32931.00
590.8850, 32949.00
592.0540, 32993.00
593.2230, 33097.00
594.3920, 33079.00
595.5600, 33079.00
596.7290, 33181.00
597.8970, 33015.00
599.0650, 33316.00
600.2330, 33192.00
601.4000, 33033.00
602.5680, 33163.00
603.7350, 33344.00
604.9020, 33193.00
606.0690, 32962.00
607.2360, 33294.00
608.4030, 33321.00
609.5690, 33246.00
610.7360, 33461.00
611.9020, 33452.00
613.0680, 33496.00
614.2340, 33323.00
615.3990, 33569.00
616.5650, 33515.00
617.7300, 33479.00
618.8950, 33496.00
620.0600, 33583.00
621.2250, 33516.00
622.3890, 33532.00
623.5540, 33534.00
624.7180, 33865.00
625.8820, 33758.00
627.0460, 33779.00
628.2100, 33634.00
629.3730, 33801.00
630.5370, 33874.00
631.7000, 33553.00
632.8630, 33925.00
634.0260, 34074.00
635.1890, 33838.00
636.3510, 33791.00
637.5140, 34082.00
638.6760, 33890.00
639.8380, 34227.00
641.0000, 34153.00
642.1610, 34054.00
643.3230, 34010.00
644.4840, 34144.00
645.6450, 33761.00
646.8060, 34028.00
647.9670, 34204.00
649.1280, 34019.00
650.2880, 34201.00
651.4490, 34241.00
652.6090, 34227.00
653.7690, 34315.00
654.9290, 34175.00
656.0880, 34469.00
657.2480, 34209.00
658.4070, 34426.00
659.5660, 34424.00
660.7250, 34356.00
661.8840, 34302.00
663.0430, 34539.00
664.2010, 34171.00
665.3600, 34432.00
666.5180, 34784.00
667.6760, 34536.00
668.8330, 34409.00
669.9910, 34607.00
671.1480, 34699.00
672.3060, 34456.00
673.4630, 34642.00
674.6200, 34674.00
675.7770, 34935.00
676.9330, 34882.00
678.0900, 34786.00
679.2460, 34736.00
680.4020, 35135.00
681.5580, 34973.00
682.7140, 34846.00
683.8690, 35093.00
685.0250, 34911.00
686.1800, 35120.00
687.3350, 34954.00
688.4900, 34815.00
689.6450, 35177.00
690.7990, 35136.00
691.9540, 35215.00
693.1080, 35086.00
694.2620, 35123.00
695.4160, 35200.00
696.5700, 35163.00
697.7230, 35381.00
698.8770, 35205.00
700.0300, 35368.00
701.1830, 35210.00
702.3360, 35151.00
703.4890, 35327.00
704.6410, 35445.00
705.7930, 35286.00
706.9460, 35497.00
708.0980, 35642.00
709.2500, 35630.00
710.4010, 35525.00
711.5530, 35506.00
712.7040, 35430.00
713.8560, 35627.00
715.0070, 35726.00
716.1580, 35667.00
717.3080, 35822.00
718.4590, 35757.00
719.6090, 35726.00
720.7590, 35815.00
721.9090, 35704.00
723.0590, 35801.00
724.2090, 36008.00
725.3590, 35942.00
726.5080, 35857.00
727.6570, 35916.00
728.8060, 36235.00
729.9550, 35940.00
731.1040, 35970.00
732.2530, 36165.00
733.4010, 36012.00
734.5490, 36144.00
735.6970, 36271.00
736.8450, 36160.00
737.9930, 36301.00
739.1400, 36238.00
740.2880, 36285.00
741.4350, 36290.14
742.5820, 36406.00
743.7290, 36284.00
744.8760, 36405.00
746.0220, 36458.00
747.1690, 36477.12
748.3150, 36665.00
749.4610, 36545.00
750.6070, 36649.00
751.7530, 36566.00
752.8980, 36516.00
754.0440, 36528.00
755.1890, 36820.00
756.3340, 36969.00
757.4790, 36840.00
758.6240, 36844.00
759.7680, 36847.00
760.9130, 36933.00
762.0570, 36974.00
763.2010, 36908.00
764.3450, 37255.00
765.4890, 36872.00
766.6320, 36884.00
767.7760, 36916.00
768.9190, 37139.00
770.0620, 37210.00
771.2050, 37415.00
772.3480, 37247.00
773.4900, 37219.00
774.6330, 37287.00
775.7750, 37043.00
776.9170, 37283.00
778.0590, 37549.00
779.2010, 37338.00
780.3420, 37676.00
781.4840, 37138.00
782.6250, 37565.00
783.7660, 37863.00
784.9070, 37617.00
786.0480, 37870.00
787.1890, 37550.00
788.3290, 37948.00
789.4690, 37827.00
790.6100, 37951.00
791.7490, 38089.00
792.8890, 38189.00
794.0290, 38368.00
795.1680, 38543.00
796.3080, 38595.00
797.4470, 38697.34
798.5860, 38773.77
799.7250, 38816.00
800.8630, 38885.00
802.0020, 39002.00
803.1400, 39056.00
804.2780, 39494.00
805.4160, 39477.00
806.5540, 39572.00
807.6920, 39860.00
808.8300, 39879.00
809.9670, 40333.00
811.1040, 40588.00
812.2410, 40996.00
813.3780, 41527.00
814.5150, 42195.00
815.6510, 43149.00
816.7880, 44428.00
817.9240, 46324.00
819.0600, 48735.00
820.1960, 51782.00
821.3320, 54458.00
822.4670, 56491.00
823.6030, 58433.00
824.7380, 59887.00
825.8730, 61396.00
827.0080, 61451.00
828.1430, 59947.00
829.2770, 56582.00
830.4120, 53096.00
831.5460, 49613.00
832.6800, 46684.00
833.8140, 44849.00
834.9480, 43525.00
836.0810, 42624.00
837.2150, 42365.00
838.3480, 41502.00
839.4810, 41448.00
840.6140, 41271.00
841.7470, 40825.00
842.8800, 40839.00
844.0120, 40568.00
845.1450, 40125.00
846.2770, 40443.00
847.4090, 40166.00
848.5410, 40148.00
849.6720, 39874.00
850.8040, 39859.00
851.9350, 39882.00
853.0660, 39943.00
854.1970, 39905.23
855.3280, 39568.00
856.4590, 39818.00
857.5900, 39779.00
858.7200, 39627.00
859.8500, 39763.00
860.9800, 39648.00
862.1100, 39793.00
863.2400, 39786.00
864.3700, 40011.00
865.4990, 39925.00
866.6280, 39519.00
867.7570, 39867.00
868.8860, 39793.00
870.0150, 39950.00
871.1440, 40256.00
872.2720, 39945.00
873.4010, 39785.00
874.5290, 39970.00
875.6570, 40107.00
876.7850, 40302.00
877.9120, 40102.00
879.0400, 40211.00
880.1670, 40287.00
881.2940, 40387.00
882.4210, 40265.00
883.5480, 40322.00
884.6750, 40263.00
885.8020, 40494.00
886.9280, 40758.00
888.0540, 40686.00
889.1800, 40717.00
890.3060, 40477.00
891.4320, 40707.00
892.5580, 40721.00
893.6830, 40965.00
894.8080, 41050.00
895.9330, 41344.00
897.0580, 41044.00
898.1830, 40990.00
899.3080, 41022.00
900.4320, 41062.00
901.5570, 41260.00
902.6810, 41520.00
903.8050, 41375.00
904.9290, 41412.00
906.0520, 41100.00
907.1760, 41281.00
908.2990, 41205.00
909.4230, 41454.00
910.5460, 41459.60
911.6690, 41209.00
912.7910, 41455.00
913.9140, 41572.00
915.0360, 41349.00
916.1590, 41214.00
917.2810, 41748.00
918.4030, 41435.00
919.5240, 41524.00
920.6460, 41612.00
921.7680, 41255.00
922.8890, 41818.00
924.0100, 41197.00
925.1310, 41927.00
926.2520, 41791.00
927.3730, 41795.00
928.4930, 41605.00
929.6130, 41731.00
930.7340, 41846.00
931.8540, 41802.00
932.9740, 41662.00
934.0930, 41894.00
935.2130, 41826.00
936.3320, 41631.00
937.4520, 41818.00
938.5710, 42116.00
939.6900, 41917.00
940.8090, 42164.00
941.9270, 41851.00
943.0460, 42286.00
944.1640, 42488.00
945.2820, 42330.00
946.4000, 42262.00
947.5180, 42293.00
948.6360, 42415.00
949.7530, 42504.00
950.8710, 42300.00
951.9880, 42745.00
953.1050, 42349.00
954.2220, 42618.00
955.3390, 42819.00
956.4550, 42749.00
957.5720, 42979.00
958.6880, 42976.00
959.8040, 43075.89
960.9200, 43100.00
962.0360, 43320.00
963.1520, 43507.00
964.2670, 43743.00
965.3820, 43454.00
966.4980, 43688.00
967.6130, 43679.00
968.7280, 43829.00
969.8420, 43713.00
970.9570, 43689.00
972.0710, 43808.00
973.1850, 44069.00
974.3000, 44306.00
975.4140, 44269.00
976.5270, 44868.00
977.6410, 45159.00
978.7540, 45868.00
979.8680, 46379.00
980.9810, 46649.00
982.0940, 47705.00
983.2070, 48175.00
984.3200, 48984.00
985.4320, 49905.00
986.5440, 50960.00
987.6570, 51240.00
988.7690, 51587.00
989.8810, 51998.00
990.9920, 52047.00
992.1040, 51985.00
993.2160, 52178.00
994.3270, 51507.00
995.4380, 51749.00
996.5490, 50893.00
997.6600, 50520.00
998.7710, 49943.00
999.8810, 49192.55
1000.991, 48148.00
1002.102, 47869.00
1003.212, 47236.00
1004.322, 46799.00
1005.431, 46376.00
1006.541, 46320.00
1007.651, 46023.00
1008.760, 46041.00
1009.869, 45541.00
1010.978, 45449.00
1012.087, 45191.00
1013.195, 45318.00
1014.304, 44840.00
1015.412, 45035.00
1016.521, 44981.00
1017.629, 45465.00
1018.737, 45102.00
1019.844, 45083.00
1020.952, 44963.00
1022.059, 45093.00
1023.167, 45283.00
1024.274, 45397.00
1025.381, 45109.00
1026.488, 45261.00
1027.594, 45206.00
1028.701, 45241.00
1029.807, 45210.00
1030.913, 45356.00
1032.019, 45330.73
1033.125, 45356.62
1034.231, 45413.00
1035.337, 45432.00
1036.442, 45568.00
1037.548, 45751.00
1038.653, 45433.00
1039.758, 45644.00
1040.863, 45490.00
1041.967, 45754.00
1043.072, 45668.00
1044.176, 45785.00
1045.280, 45835.00
1046.384, 45913.00
1047.488, 45791.00
1048.592, 46089.00
1049.696, 46028.00
1050.799, 46241.00
1051.903, 45944.00
1053.006, 46310.00
1054.109, 46118.00
1055.212, 46116.00
1056.314, 46053.00
1057.417, 46023.00
1058.519, 46426.00
1059.621, 46342.00
1060.724, 46503.00
1061.826, 46429.00
1062.927, 46463.00
1064.029, 46553.00
1065.130, 46778.00
1066.232, 46566.00
1067.333, 46329.00
1068.434, 46535.00
1069.535, 46664.00
1070.636, 46692.00
1071.736, 46696.00
1072.837, 46927.00
1073.937, 47027.00
1075.037, 46965.00
1076.137, 46967.00
1077.237, 47151.00
1078.337, 47224.00
1079.436, 46982.00
1080.535, 47446.00
1081.635, 47217.00
1082.734, 47393.00
1083.833, 47127.00
1084.931, 47514.00
1086.030, 47470.00
1087.128, 47329.00
1088.227, 47450.00
1089.325, 47631.00
1090.423, 47780.00
1091.521, 47624.00
1092.618, 47881.00
1093.716, 47721.00
1094.813, 47793.83
1095.911, 47566.00
1097.008, 47875.00
1098.105, 47748.00
1099.202, 47808.00
1100.298, 47960.00
1101.395, 47907.00
1102.491, 47976.00
1103.587, 47888.00
1104.683, 48134.00
1105.779, 48342.00
1106.875, 48005.00
1107.971, 48390.00
1109.066, 48281.00
1110.161, 48232.00
1111.256, 48252.00
1112.351, 48437.00
1113.446, 48400.00
1114.541, 48592.00
1115.636, 48609.80
1116.730, 48501.00
1117.824, 48639.00
1118.918, 48650.00
1120.012, 48573.00
1121.106, 48596.00
1122.200, 48666.00
1123.293, 48704.29
1124.387, 48800.32
1125.480, 48869.00
1126.573, 48919.00
1127.666, 48961.00
1128.759, 48827.00
1129.851, 49044.00
1130.944, 49129.00
1132.036, 49272.00
1133.128, 49024.00
1134.220, 49179.00
1135.312, 49361.00
1136.404, 49352.00
1137.495, 49630.00
1138.587, 49630.00
1139.678, 49539.00
1140.769, 49538.00
1141.860, 49633.00
1142.951, 49639.00
1144.041, 49827.00
1145.132, 49569.00
1146.222, 49754.00
1147.313, 50093.00
1148.403, 50134.00
1149.493, 49741.00
1150.582, 50172.00
1151.672, 49994.00
1152.761, 50156.00
1153.851, 50217.00
1154.940, 50428.00
1156.029, 50156.00
1157.118, 50205.00
1158.207, 50216.00
1159.295, 50600.00
1160.384, 50204.00
1161.472, 50457.00
1162.560, 50347.00
1163.648, 50999.00
1164.736, 50525.00
1165.824, 50670.00
1166.911, 50654.00
1167.999, 50417.00
1169.086, 50991.00
1170.173, 50969.00
1171.260, 50635.00
1172.347, 50890.00
1173.434, 50850.00
1174.520, 51028.00
1175.606, 51136.00
1176.693, 51130.00
1177.779, 50805.00
1178.865, 51309.00
1179.951, 51066.00
1181.036, 50920.00
1182.122, 51110.00
1183.207, 51094.00
1184.292, 51139.52
1185.377, 51126.00
1186.462, 51352.00
1187.547, 51340.00
1188.632, 51625.00
1189.716, 51567.00
1190.800, 51517.00
1191.885, 52007.00
1192.969, 51723.00
1194.052, 51566.00
1195.136, 51837.00
1196.220, 52083.00
1197.303, 52010.00
1198.387, 52216.00
1199.470, 52268.34
1200.553, 52042.00
1201.636, 52325.00
1202.718, 52382.00
1203.801, 52252.00
1204.883, 52187.00
1205.966, 52360.00
1207.048, 52381.00
1208.130, 52461.00
1209.211, 52502.92
1210.293, 52638.00
1211.375, 52516.00
1212.456, 52519.00
1213.537, 52485.00
1214.618, 52242.00
1215.699, 52400.00
1216.780, 52524.00
1217.861, 52462.00
1218.941, 52662.00
1220.022, 52801.00
1221.102, 52837.00
1222.182, 52993.26
1223.262, 52465.00
1224.342, 53000.00
1225.422, 53047.00
1226.501, 52632.00
1227.580, 53047.00
1228.660, 52826.00
1229.739, 52992.00
1230.818, 53027.00
1231.896, 52927.00
1232.975, 53341.00
1234.054, 53215.00
1235.132, 53441.00
1236.210, 52900.00
1237.288, 53547.00
1238.366, 53198.00
1239.444, 53545.00
1240.521, 53665.00
1241.599, 53456.00
1242.676, 53446.00
1243.753, 53477.00
1244.830, 53383.80
1245.907, 53274.00
1246.984, 53400.00
1248.061, 53451.00
1249.137, 53595.00
1250.214, 53754.00
1251.290, 53734.00
1252.366, 53709.00
1253.442, 53692.00
1254.517, 53780.00
1255.593, 53992.00
1256.668, 53606.00
1257.744, 53716.00
1258.819, 53933.00
1259.894, 53799.00
1260.969, 54027.00
1262.044, 53776.00
1263.118, 53822.00
1264.193, 53889.00
1265.267, 53867.00
1266.341, 53948.00
1267.415, 54146.00
1268.489, 54172.00
1269.563, 53767.00
1270.636, 54067.00
1271.710, 54105.00
1272.783, 53773.00
1273.856, 54317.00
1274.929, 54116.00
1276.002, 53969.00
1277.075, 54150.00
1278.147, 54405.00
1279.220, 54496.00
1280.292, 54612.00
1281.364, 54548.00
1282.436, 54167.00
1283.508, 54565.00
1284.580, 54249.00
1285.652, 54124.00
1286.723, 54424.00
1287.794, 54229.00
1288.865, 54411.00
1289.936, 54460.00
1291.007, 54279.00
1292.078, 54513.00
1293.149, 54453.00
1294.219, 54516.00
1295.289, 54606.00
1296.360, 54727.00
1297.430, 54655.90
1298.499, 54666.00
1299.569, 54544.00
1300.639, 54508.00
1301.708, 54519.36
1302.778, 54664.00
1303.847, 54772.00
1304.916, 55007.00
1305.985, 55161.00
1307.053, 55128.95
1308.122, 55131.00
1309.190, 55010.00
1310.259, 55160.00
1311.327, 55092.00
1312.395, 55205.00
1313.463, 55153.00
1314.531, 55283.00
1315.598, 55126.00
1316.666, 55301.00
1317.733, 55414.00
1318.800, 55189.00
1319.867, 55124.00
1320.934, 55641.00
1322.001, 55277.00
1323.067, 55529.00
1324.134, 55355.00
1325.200, 55242.00
1326.266, 55476.00
1327.333, 55457.00
1328.398, 55476.00
1329.464, 55489.00
1330.530, 55563.41
1331.595, 55443.00
1332.661, 55690.00
1333.726, 55689.00
1334.791, 55622.00
1335.856, 55788.00
1336.921, 56012.00
1337.985, 55680.00
1339.050, 55725.00
1340.114, 55719.00
1341.178, 55501.00
1342.242, 55653.44
1343.306, 56279.00
1344.370, 55830.00
1345.434, 55844.00
