##NAMES=Microcline
##RRUFFID=R050150
##IDEAL CHEMISTRY=KAlSi_3_O_8_
##LOCALITY=Crystal Peak area, Park/Teller Counties, Colorado, USA
##OWNER=RRUFF
##SOURCE=Dave Bunk Minerals
##DESCRIPTION=Pale blue prismatic crystals
##STATUS=The identification of this mineral has been confirmed by X-ray diffraction and chemical analysis
##URL=rruff.info/R050150
##MEASURED CHEMISTRY=(K_0.95_Na_0.05_)_Î£=1_Al_1.00_Si_3.00_O_8_
##PIN_ID=L00915
##ORIENTATION=Laser parallel to (1 1 0). Fiducial mark perpendicular to laser is parallel to c [0 0 1]
137.6830, 13925.00
138.9210, 14382.00
140.1580, 14596.00
141.3950, 14945.00
142.6330, 14899.00
143.8690, 15166.00
145.1060, 15332.00
146.3430, 15530.00
147.5790, 16033.00
148.8150, 16527.00
150.0510, 16969.00
151.2870, 16963.00
152.5220, 17092.00
153.7580, 17194.00
154.9930, 17447.00
156.2280, 17662.00
157.4620, 17611.00
158.6970, 17568.00
159.9310, 17160.00
161.1660, 16465.00
162.4000, 16053.00
163.6330, 15648.00
164.8670, 15472.00
166.1000, 15204.00
167.3340, 14985.00
168.5670, 15028.00
169.8000, 14848.00
171.0320, 14889.00
172.2650, 15050.00
173.4970, 14912.00
174.7290, 15104.00
175.9610, 15499.00
177.1930, 15818.00
178.4240, 15948.00
179.6550, 15915.00
180.8870, 15848.00
182.1170, 15929.00
183.3480, 15467.00
184.5790, 15388.00
185.8090, 15181.00
187.0390, 15072.00
188.2690, 15089.00
189.4990, 14953.00
190.7290, 15046.00
191.9580, 14964.00
193.1870, 15114.00
194.4160, 15254.00
195.6450, 15249.00
196.8740, 15597.00
198.1020, 15725.00
199.3310, 16078.00
200.5590, 15995.00
201.7870, 15697.00
203.0140, 15615.00
204.2420, 15650.00
205.4690, 15167.00
206.6960, 15113.00
207.9230, 15094.00
209.1500, 14958.00
210.3760, 15190.00
211.6030, 14953.00
212.8290, 15158.00
214.0550, 15012.00
215.2810, 14960.00
216.5060, 15066.00
217.7320, 15130.00
218.9570, 15073.00
220.1820, 15055.00
221.4070, 15064.00
222.6320, 15043.58
223.8560, 15045.00
225.0800, 15067.00
226.3040, 15186.00
227.5280, 15248.00
228.7520, 15169.00
229.9760, 15316.00
231.1990, 15285.00
232.4220, 15184.00
233.6450, 15382.00
234.8680, 15270.00
236.0910, 15293.00
237.3130, 15256.00
238.5350, 15332.00
239.7570, 15406.00
240.9790, 15437.97
242.2010, 15596.00
243.4220, 15541.00
244.6430, 15641.00
245.8640, 15645.00
247.0850, 15791.00
248.3060, 15860.00
249.5270, 15933.00
250.7470, 16097.00
251.9670, 16182.00
253.1870, 16462.00
254.4070, 16705.00
255.6260, 16908.00
256.8460, 17402.00
258.0650, 17606.00
259.2840, 18135.00
260.5030, 18323.00
261.7220, 18331.00
262.9400, 18884.00
264.1580, 19379.00
265.3760, 20088.00
266.5940, 20426.00
267.8120, 20012.00
269.0290, 19306.00
270.2470, 18846.00
271.4640, 18540.00
272.6810, 18112.00
273.8980, 18023.00
275.1140, 17998.00
276.3310, 18110.00
277.5470, 18302.00
278.7630, 18768.00
279.9790, 19652.01
281.1940, 20682.00
282.4100, 21952.00
283.6250, 22915.00
284.8400, 24269.00
286.0550, 24705.00
287.2700, 24295.00
288.4850, 23269.00
289.6990, 22014.00
290.9130, 20869.00
292.1270, 19765.00
293.3410, 18805.00
294.5540, 18184.00
295.7680, 17941.00
296.9810, 17772.00
298.1940, 17589.00
299.4070, 17421.27
300.6200, 17181.00
301.8320, 17099.00
303.0450, 16961.69
304.2570, 16876.00
305.4690, 16833.00
306.6800, 16814.00
307.8920, 16865.00
309.1030, 16844.00
310.3150, 16691.00
311.5260, 16708.00
312.7360, 16946.00
313.9470, 16643.00
315.1580, 16827.00
316.3680, 16753.00
317.5780, 16680.00
318.7880, 16749.00
319.9980, 16700.73
321.2070, 16808.00
322.4170, 16786.00
323.6260, 16829.00
324.8350, 17024.00
326.0430, 17206.00
327.2520, 17174.00
328.4610, 17369.00
329.6690, 17495.00
330.8770, 17616.00
332.0850, 17679.83
333.2920, 17759.00
334.5000, 17693.00
335.7070, 17635.00
336.9140, 17529.00
338.1210, 17514.00
339.3280, 17296.00
340.5350, 17301.00
341.7410, 17236.00
342.9470, 17237.00
344.1540, 17158.00
345.3590, 17250.00
346.5650, 17302.00
347.7710, 17326.00
348.9760, 17324.00
350.1810, 17568.00
351.3860, 17387.00
352.5910, 17817.00
353.7950, 17733.00
355.0000, 17829.00
356.2040, 17962.00
357.4080, 17889.00
358.6120, 17806.00
359.8150, 18023.00
361.0190, 18025.00
362.2220, 18073.56
363.4250, 17869.00
364.6280, 18182.00
365.8310, 18370.00
367.0340, 18464.00
368.2360, 18919.00
369.4380, 19452.00
370.6400, 20380.00
371.8420, 21186.00
373.0440, 21587.00
374.2450, 21462.00
375.4470, 20884.00
376.6480, 20159.00
377.8490, 19347.00
379.0490, 19157.00
380.2500, 18624.00
381.4500, 18291.00
382.6510, 18159.00
383.8510, 18287.00
385.0500, 18179.00
386.2500, 18136.00
387.4500, 18086.00
388.6490, 17988.00
389.8480, 17984.00
391.0470, 17915.00
392.2460, 18131.00
393.4440, 18071.00
394.6430, 18205.00
395.8410, 18203.00
397.0390, 18335.00
398.2370, 18336.00
399.4340, 18795.00
400.6320, 18880.00
401.8290, 19317.00
403.0260, 19411.00
404.2230, 19391.00
405.4200, 19309.00
406.6170, 19027.00
407.8130, 18869.00
409.0090, 18760.00
410.2050, 18770.00
411.4010, 18666.00
412.5970, 18795.00
413.7920, 18622.00
414.9880, 18718.00
416.1830, 18284.00
417.3780, 18513.00
418.5730, 18511.00
419.7670, 18420.00
420.9620, 18522.00
422.1560, 18515.00
423.3500, 18356.00
424.5440, 18502.00
425.7380, 18499.00
426.9310, 18553.00
428.1240, 18737.00
429.3180, 18744.00
430.5110, 18695.00
431.7030, 18618.00
432.8960, 18775.00
434.0890, 18844.00
435.2810, 18931.00
436.4730, 18949.00
437.6650, 18998.00
438.8570, 19112.00
440.0480, 19229.00
441.2390, 19446.00
442.4310, 19610.00
443.6220, 19879.57
444.8120, 20100.00
446.0030, 20505.00
447.1940, 20947.00
448.3840, 21370.00
449.5740, 22411.00
450.7640, 23400.00
451.9540, 24803.00
453.1430, 25873.00
454.3330, 26959.00
455.5220, 26815.00
456.7110, 26146.00
457.9000, 25059.00
459.0890, 24259.00
460.2770, 23538.00
461.4650, 23201.00
462.6540, 22973.00
463.8420, 23055.00
465.0290, 23361.00
466.2170, 23877.00
467.4050, 24888.00
468.5920, 26154.00
469.7790, 27718.00
470.9660, 29819.00
472.1530, 33159.00
473.3390, 37145.00
474.5250, 40727.00
475.7120, 43244.00
476.8980, 43173.00
478.0840, 40645.00
479.2690, 37360.00
480.4550, 33998.00
481.6400, 31142.00
482.8250, 29578.00
484.0100, 28099.00
485.1950, 26931.00
486.3800, 25694.45
487.5640, 24816.00
488.7480, 23784.00
489.9320, 23054.00
491.1160, 22586.00
492.3000, 22146.00
493.4840, 21816.00
494.6670, 21853.00
495.8500, 21802.00
497.0330, 21924.00
498.2160, 22124.00
499.3990, 22544.00
500.5810, 23058.00
501.7630, 23628.00
502.9460, 24458.00
504.1280, 25630.00
505.3090, 27137.00
506.4910, 29013.00
507.6720, 31661.00
508.8540, 35321.00
510.0350, 40089.00
511.2160, 45943.00
512.3960, 52141.00
513.5770, 55415.00
514.7570, 55101.00
515.9380, 51867.00
517.1180, 46408.00
518.2970, 41081.00
519.4770, 36477.00
520.6570, 32717.00
521.8360, 29816.00
523.0150, 27689.00
524.1940, 26188.00
525.3730, 25332.00
526.5510, 24511.00
527.7300, 23717.00
528.9080, 23151.00
530.0860, 22808.00
531.2640, 22614.00
532.4420, 22315.00
533.6200, 22157.00
534.7970, 22046.00
535.9740, 21651.00
537.1510, 21675.00
538.3280, 21651.00
539.5050, 21385.00
540.6810, 21251.00
541.8580, 21407.00
543.0340, 21303.00
544.2100, 21204.00
545.3860, 21236.00
546.5610, 21219.00
547.7370, 21038.00
548.9120, 21252.00
550.0870, 21350.00
551.2620, 21150.00
552.4370, 21151.00
553.6120, 20906.00
554.7860, 20826.00
555.9600, 20845.88
557.1340, 20887.00
558.3080, 20985.00
559.4820, 21037.00
560.6560, 21267.00
561.8290, 21066.00
563.0020, 20990.00
564.1750, 21025.00
565.3480, 21170.00
566.5210, 21131.00
567.6930, 21239.00
568.8660, 21242.00
570.0380, 21272.85
571.2100, 21223.00
572.3820, 21307.00
573.5530, 21333.00
574.7250, 21289.00
575.8960, 21391.00
577.0670, 21401.00
578.2380, 21472.00
579.4090, 21499.00
580.5800, 21642.00
581.7500, 21675.00
582.9210, 21880.00
584.0910, 22020.00
585.2610, 21842.00
586.4300, 21807.00
587.6000, 21798.00
588.7690, 21795.00
589.9390, 21507.00
591.1080, 21623.00
592.2770, 21394.00
593.4450, 21452.00
594.6140, 21288.00
595.7820, 21581.00
596.9500, 21421.00
598.1190, 21534.00
599.2860, 21476.00
600.4540, 21525.00
601.6220, 21526.99
602.7890, 21506.00
603.9560, 21515.00
605.1230, 21557.00
606.2900, 21563.00
607.4570, 21597.56
608.6230, 21623.82
609.7890, 21664.00
610.9560, 21692.00
612.1220, 21733.12
613.2870, 21797.00
614.4530, 21820.00
615.6180, 21715.00
616.7840, 21724.00
617.9490, 21974.00
619.1140, 21872.00
620.2790, 21643.00
621.4430, 21857.00
622.6080, 22090.00
623.7720, 21872.00
624.9360, 22217.00
626.1000, 22207.00
627.2640, 22098.00
628.4270, 22317.00
629.5910, 22194.00
630.7540, 22113.00
631.9170, 22257.00
633.0800, 22130.00
634.2430, 22298.00
635.4050, 22323.00
636.5680, 22542.00
637.7300, 22675.00
638.8920, 22507.00
640.0540, 22711.00
641.2150, 22747.00
642.3770, 22719.00
643.5380, 23025.00
644.7000, 23082.00
645.8610, 23146.00
647.0210, 23408.00
648.1820, 23653.00
649.3430, 23785.00
650.5030, 23917.29
651.6630, 23844.00
652.8230, 23964.00
653.9830, 24056.00
655.1430, 23879.00
656.3020, 23913.00
657.4620, 23682.00
658.6210, 23781.00
659.7800, 23488.00
660.9390, 23214.00
662.0970, 23240.00
663.2560, 23209.00
664.4140, 23061.00
665.5720, 23074.00
666.7300, 22941.00
667.8880, 22932.00
669.0460, 22935.00
670.2030, 22908.00
671.3600, 22880.00
672.5180, 22867.88
673.6740, 22848.00
674.8310, 22844.00
675.9880, 22810.00
677.1440, 22834.00
678.3010, 22777.00
679.4570, 22973.00
680.6130, 22926.00
681.7690, 22929.00
682.9240, 22775.00
684.0800, 22868.00
685.2350, 22957.00
686.3900, 22982.00
687.5450, 22738.00
688.7000, 22949.00
689.8540, 22974.00
691.0090, 23058.00
692.1630, 22741.00
693.3170, 23172.00
694.4710, 22948.00
695.6250, 23149.00
696.7780, 23173.41
697.9320, 23021.00
699.0850, 23177.00
700.2380, 22961.00
701.3910, 22975.00
702.5440, 23275.00
703.6970, 23150.00
704.8490, 23346.00
706.0010, 23397.00
707.1530, 23227.00
708.3050, 23563.00
709.4570, 23553.00
710.6090, 23706.00
711.7600, 23540.00
712.9110, 23747.00
714.0620, 23677.00
715.2130, 23463.00
716.3640, 23568.00
717.5150, 23566.00
718.6650, 23567.00
719.8150, 23594.00
720.9650, 23492.00
722.1150, 23469.00
723.2650, 23548.00
724.4150, 23499.73
725.5640, 23619.00
726.7130, 23526.00
727.8630, 23558.00
729.0110, 23575.00
730.1600, 23605.79
731.3090, 23904.00
732.4570, 23788.00
733.6060, 23922.00
734.7540, 24123.00
735.9020, 24035.00
737.0490, 24377.00
738.1970, 24230.00
739.3440, 24317.00
740.4920, 24371.00
741.6390, 24754.00
742.7860, 24779.00
743.9320, 25169.00
745.0790, 25300.00
746.2250, 25655.00
747.3720, 26088.00
748.5180, 26304.00
749.6640, 26464.00
750.8100, 26465.00
751.9550, 25976.00
753.1010, 25921.00
754.2460, 25352.00
755.3910, 25150.00
756.5360, 25140.00
757.6810, 24739.00
758.8250, 24768.00
759.9700, 24716.00
761.1140, 24613.00
762.2580, 24474.00
763.4020, 24514.00
764.5460, 24814.00
765.6900, 24546.00
766.8330, 24965.00
767.9760, 25176.00
769.1200, 24791.00
770.2620, 24754.00
771.4050, 24776.00
772.5480, 24656.00
773.6900, 24513.00
774.8330, 24531.00
775.9750, 24513.00
777.1170, 24682.00
778.2590, 24559.00
779.4000, 24494.00
780.5420, 24564.00
781.6830, 24318.00
782.8240, 24577.00
783.9650, 24622.00
785.1060, 24595.00
786.2470, 24862.00
787.3870, 24445.00
788.5280, 24555.00
789.6680, 24774.00
790.8080, 24559.00
791.9480, 24503.00
793.0870, 24670.00
794.2270, 24533.00
795.3660, 24989.00
796.5060, 24764.00
797.6450, 24735.00
798.7830, 24972.00
799.9220, 24851.00
801.0610, 24733.00
802.1990, 24812.00
803.3370, 25012.00
804.4750, 25040.00
805.6130, 25297.00
806.7510, 25282.00
807.8890, 25453.00
809.0260, 25435.00
810.1630, 25665.00
811.3000, 25700.00
812.4370, 26025.00
813.5740, 25818.00
814.7110, 25995.00
815.8470, 25902.00
816.9830, 25622.00
818.1190, 25670.00
819.2550, 25566.00
820.3910, 25394.00
821.5270, 25339.00
822.6620, 25335.00
823.7970, 25298.00
824.9330, 25306.42
826.0670, 25361.00
827.2020, 25371.00
828.3370, 25324.00
829.4710, 25426.00
830.6060, 25221.00
831.7400, 25497.00
832.8740, 25292.00
834.0080, 25426.00
835.1410, 25371.00
836.2750, 25444.00
837.4080, 25447.00
838.5410, 25475.00
839.6740, 25470.00
840.8070, 25499.62
841.9400, 25506.00
843.0730, 25555.00
844.2050, 25516.00
845.3370, 25545.59
846.4690, 25721.00
847.6010, 25623.00
848.7330, 25797.00
849.8640, 25836.00
850.9960, 25807.00
852.1270, 25736.00
853.2580, 25680.00
854.3890, 25715.00
855.5200, 25525.00
856.6500, 25981.00
857.7810, 25890.00
858.9110, 25857.00
860.0410, 25690.00
861.1710, 25777.00
862.3010, 26006.00
863.4310, 26201.00
864.5600, 25967.00
865.6900, 25953.00
866.8190, 26289.00
867.9480, 26136.00
869.0770, 26126.00
870.2050, 26166.00
871.3340, 26122.00
872.4620, 26095.00
873.5900, 26129.00
874.7180, 26206.00
875.8460, 26286.00
876.9740, 26013.00
878.1010, 26307.00
879.2290, 26155.00
880.3560, 26386.00
881.4830, 26269.00
882.6100, 25989.00
883.7370, 26272.00
884.8630, 26217.00
885.9900, 26053.00
887.1160, 26384.00
888.2420, 26478.00
889.3680, 26554.00
890.4940, 26581.00
891.6200, 26632.98
892.7450, 26659.00
893.8700, 26647.00
894.9960, 26592.00
896.1210, 26516.00
897.2460, 26550.00
898.3700, 26536.00
899.4950, 26571.46
900.6190, 26613.01
901.7430, 26664.98
902.8670, 26707.71
903.9910, 26720.00
905.1150, 26749.00
906.2390, 26727.00
907.3620, 26870.00
908.4850, 26777.00
909.6080, 26793.00
910.7310, 26737.00
911.8540, 26910.00
912.9770, 26991.00
914.0990, 26862.00
915.2210, 26961.00
916.3440, 26924.00
917.4660, 27236.00
918.5870, 26945.00
919.7090, 27195.00
920.8310, 27197.00
921.9520, 26956.00
923.0730, 27346.00
924.1940, 27392.00
925.3150, 27150.00
926.4360, 27361.00
927.5560, 27203.00
928.6770, 27434.00
929.7970, 27552.00
930.9170, 27485.00
932.0370, 27484.00
933.1570, 27504.00
934.2760, 27379.00
935.3960, 27301.00
936.5150, 27644.00
937.6340, 27518.00
938.7530, 27642.00
939.8720, 27409.00
940.9910, 27498.00
942.1090, 27499.00
943.2280, 27745.00
944.3460, 27670.40
945.4640, 27762.00
946.5820, 27683.00
947.6990, 27600.00
948.8170, 27726.00
949.9340, 27753.00
951.0520, 27766.03
952.1690, 27869.19
953.2860, 27816.00
954.4030, 27944.00
955.5190, 27948.00
956.6360, 27820.00
957.7520, 28039.00
958.8680, 28021.00
959.9840, 27591.00
961.1000, 28198.00
962.2160, 28137.00
963.3310, 27878.00
964.4470, 28149.00
965.5620, 28021.00
966.6770, 28070.00
967.7920, 28085.00
968.9060, 28188.00
970.0210, 28415.00
971.1360, 28237.00
972.2500, 28433.00
973.3640, 28328.00
974.4780, 28344.00
975.5920, 28248.00
976.7050, 28250.00
977.8190, 28483.00
978.9320, 28336.00
980.0450, 28396.00
981.1580, 28632.00
982.2710, 28665.00
983.3840, 28759.00
984.4970, 28583.00
985.6090, 28571.00
986.7210, 28679.00
987.8330, 28694.67
988.9450, 28899.00
990.0570, 28965.00
991.1690, 29219.00
992.2800, 29438.00
993.3920, 29444.00
994.5030, 29647.00
995.6140, 29591.00
996.7250, 29586.00
997.8350, 29339.00
998.9460, 29514.00
1000.056, 29316.00
1001.167, 29514.00
1002.277, 29496.00
1003.387, 29397.00
1004.496, 29372.00
1005.606, 29300.00
1006.715, 29295.08
1007.825, 29238.00
1008.934, 29226.19
1010.043, 29245.00
1011.152, 29237.00
1012.260, 29254.00
1013.369, 29326.00
1014.477, 29139.00
1015.586, 29229.00
1016.694, 29249.00
1017.802, 29431.00
1018.909, 29482.00
1020.017, 29358.00
1021.124, 29514.00
1022.232, 29508.00
1023.339, 29553.00
1024.446, 29765.00
1025.553, 29683.00
1026.659, 29818.00
1027.766, 29777.00
1028.872, 29744.00
1029.979, 29942.00
1031.085, 29865.00
1032.191, 29922.00
1033.296, 29980.00
1034.402, 29968.00
1035.507, 30056.00
1036.613, 30167.00
1037.718, 30187.00
1038.823, 30097.00
1039.928, 30113.00
1041.032, 30245.00
1042.137, 30336.00
1043.241, 30261.00
1044.346, 30264.00
1045.450, 30369.00
1046.554, 30355.00
1047.657, 30371.00
1048.761, 30349.00
1049.864, 30568.00
1050.968, 30588.00
1052.071, 30683.00
1053.174, 30639.00
1054.277, 30623.00
1055.379, 30463.00
1056.482, 30557.00
1057.584, 30397.00
1058.687, 30369.00
1059.789, 30329.00
1060.891, 30255.00
1061.992, 30397.00
1063.094, 30374.00
1064.196, 30389.00
1065.297, 30085.00
1066.398, 30525.00
1067.499, 30293.00
1068.600, 30705.00
1069.701, 30501.00
1070.801, 30411.00
1071.902, 30522.00
1073.002, 30372.00
1074.102, 30484.00
1075.202, 30636.00
1076.302, 30637.00
1077.402, 30619.00
1078.501, 30754.00
1079.600, 30616.00
1080.700, 30830.00
1081.799, 30788.00
1082.898, 30858.00
1083.996, 30849.00
1085.095, 31008.00
1086.193, 30896.00
1087.292, 30921.00
1088.390, 30942.00
1089.488, 31123.00
1090.586, 31173.00
1091.683, 31221.00
1092.781, 31441.00
1093.878, 31529.00
1094.975, 31523.00
1096.073, 31441.00
1097.169, 31619.00
1098.266, 31589.00
1099.363, 31868.00
1100.459, 31788.00
1101.556, 31847.00
1102.652, 32025.00
1103.748, 32083.00
1104.844, 32026.00
1105.940, 32152.00
1107.035, 32233.00
1108.131, 32475.00
1109.226, 32584.00
1110.321, 33001.00
1111.416, 33260.00
1112.511, 33712.00
1113.605, 33947.00
1114.700, 34565.00
1115.794, 35248.00
1116.889, 35882.00
1117.983, 37177.00
1119.077, 38151.00
1120.170, 39048.00
1121.264, 40372.00
1122.357, 41370.00
1123.451, 41758.00
1124.544, 41668.00
1125.637, 41441.00
1126.730, 40269.00
1127.823, 39427.00
1128.915, 38544.00
1130.008, 37851.00
1131.100, 37570.00
1132.192, 37031.00
1133.284, 36863.00
1134.376, 36954.00
1135.467, 37271.00
1136.559, 37484.00
1137.650, 37239.00
1138.742, 37426.00
1139.833, 36996.00
1140.924, 36870.00
1142.014, 36380.00
1143.105, 35802.00
1144.195, 35179.00
1145.286, 34962.00
1146.376, 34342.00
1147.466, 34096.00
1148.556, 33782.00
1149.646, 33633.00
1150.735, 33554.00
1151.825, 33243.00
1152.914, 33046.00
1154.003, 32981.00
1155.092, 32813.00
1156.181, 32822.00
1157.270, 32850.00
1158.358, 32874.00
1159.447, 32864.02
1160.535, 32661.00
1161.623, 32861.00
1162.711, 32703.00
1163.799, 32725.00
1164.886, 32808.00
1165.974, 32840.00
1167.061, 32900.00
1168.148, 32551.00
1169.235, 32479.00
1170.322, 32442.00
1171.409, 32759.00
1172.496, 32613.00
1173.582, 32690.00
1174.669, 32759.00
1175.755, 32763.00
1176.841, 32731.00
1177.927, 32747.00
1179.012, 32744.95
1180.098, 32734.00
1181.183, 32785.00
1182.269, 32857.00
1183.354, 32936.00
1184.439, 32789.00
1185.524, 32709.00
1186.608, 32888.00
1187.693, 32886.00
1188.777, 33099.00
1189.862, 33001.00
1190.946, 32857.00
1192.030, 33094.00
1193.113, 33333.00
1194.197, 33016.00
1195.281, 32780.00
1196.364, 33109.00
1197.447, 33124.00
1198.530, 33130.00
1199.613, 33112.00
1200.696, 32981.00
1201.779, 33384.00
1202.861, 33238.00
1203.944, 33168.00
1205.026, 33476.00
1206.108, 33176.00
1207.190, 33150.00
1208.271, 33171.00
1209.353, 33069.70
1210.435, 33239.00
1211.516, 33112.00
1212.597, 33232.00
1213.678, 33363.00
1214.759, 33551.00
1215.840, 33596.00
1216.920, 33628.48
1218.001, 33636.00
1219.081, 33648.00
1220.161, 33681.54
1221.241, 33615.00
1222.321, 33681.00
1223.401, 33613.00
1224.480, 33474.00
1225.560, 33806.00
1226.639, 33820.00
1227.718, 33515.00
1228.797, 33777.00
1229.876, 33771.00
1230.955, 33848.00
1232.033, 33958.00
1233.112, 33984.00
1234.190, 33801.00
1235.268, 33933.00
1236.346, 33993.00
1237.424, 33759.00
1238.501, 33940.00
1239.579, 33900.00
1240.656, 34095.00
1241.733, 34015.00
1242.811, 33956.00
1243.888, 33946.00
1244.964, 33930.06
1246.041, 34030.00
1247.117, 33947.00
1248.194, 34033.00
1249.270, 34021.00
1250.346, 34013.00
1251.422, 34066.00
1252.498, 34168.00
1253.573, 34396.00
1254.649, 34265.00
1255.724, 34110.00
1256.800, 34306.00
1257.875, 34438.00
1258.950, 34192.00
1260.024, 34116.00
1261.099, 34325.00
1262.173, 34237.00
1263.248, 34307.00
1264.322, 34319.00
1265.396, 34464.00
1266.470, 34462.00
1267.544, 34503.00
1268.617, 34604.00
1269.691, 34428.00
1270.764, 34368.00
1271.837, 34337.00
1272.910, 34709.00
1273.983, 34667.00
1275.056, 34646.00
1276.129, 34655.00
1277.201, 34691.00
1278.273, 34589.00
1279.346, 34593.00
1280.418, 34762.00
1281.489, 34563.00
1282.561, 34855.00
1283.633, 34734.00
1284.704, 34643.00
1285.776, 34892.00
1286.847, 34774.00
1287.918, 35093.00
1288.989, 35300.00
1290.059, 34891.00
1291.130, 34882.00
1292.200, 34954.00
1293.271, 35083.00
1294.341, 35038.25
1295.411, 34990.00
1296.481, 35118.00
1297.551, 35159.00
1298.620, 35423.00
1299.690, 35113.00
1300.759, 35254.00
1301.828, 35416.00
1302.897, 35164.00
1303.966, 35290.00
1305.035, 35244.00
1306.103, 35127.00
1307.172, 35425.00
1308.240, 35510.00
1309.308, 35453.00
1310.376, 35637.00
1311.444, 35536.00
1312.512, 35413.00
