##NAMES=Microcline
##RRUFFID=R050193
##IDEAL CHEMISTRY=KAlSi_3_O_8_
##LOCALITY=Devil's Head, Douglas County, Colorado, USA
##OWNER=RRUFF
##SOURCE=Dave Bunk Minerals
##DESCRIPTION=White to colorless heterogeneous mixture of K and Na feldspar in a cluster of crystals. Crystal structure determined, presented below. This sample is known as an intermediate microcline in the literature.
##STATUS=The identification of this mineral has been confirmed by X-ray diffraction and chemical analysis
##URL=rruff.info/R050193
##MEASURED CHEMISTRY=(K_0.929_Na_0.071_)(Al_1.005_Si_2.994_Fe_0.001_)O_7.993_F_0.007_  ; Light Band :  (Na_0.973_K_0.007_Ca_0.020_)(Al_1.020_Si_2.980_)O_8_ ; Dark Band
##PIN_ID=L01042
##ORIENTATION=Laser parallel to a* (1 0 0). Fiducial mark perpendicular to laser is parallel to -b [0 -1 0]
142.5560, 17729.00
143.7880, 17907.00
145.0190, 18046.00
146.2510, 18108.00
147.4820, 18516.00
148.7130, 18686.00
149.9440, 18953.00
151.1750, 19136.00
152.4050, 19426.00
153.6360, 19531.00
154.8660, 19539.00
156.0960, 19537.00
157.3260, 19431.00
158.5560, 19529.00
159.7850, 19600.00
161.0150, 19449.00
162.2440, 19570.00
163.4730, 19548.00
164.7020, 19694.00
165.9310, 19698.00
167.1590, 19765.00
168.3880, 19840.00
169.6160, 19682.00
170.8440, 19957.00
172.0720, 19860.00
173.3000, 19993.00
174.5280, 20123.00
175.7550, 19947.00
176.9820, 20288.00
178.2100, 20256.00
179.4370, 20528.00
180.6630, 20466.00
181.8900, 20453.00
183.1170, 20343.00
184.3430, 20312.00
185.5690, 20262.00
186.7950, 20424.00
188.0210, 20192.00
189.2470, 20480.00
190.4720, 20388.00
191.6970, 20385.00
192.9230, 20525.00
194.1480, 20461.00
195.3730, 20523.17
196.5970, 20683.00
197.8220, 20609.00
199.0460, 20779.00
200.2700, 20913.00
201.4940, 20856.00
202.7180, 20682.00
203.9420, 20778.95
205.1660, 20721.00
206.3890, 20779.00
207.6120, 20830.00
208.8350, 20793.00
210.0580, 20792.00
211.2810, 20889.00
212.5040, 20712.00
213.7260, 20778.00
214.9480, 20837.00
216.1700, 20859.00
217.3920, 20893.25
218.6140, 21086.00
219.8360, 20883.00
221.0570, 21085.00
222.2790, 21009.00
223.5000, 21003.00
224.7210, 21014.00
225.9410, 21211.00
227.1620, 21181.00
228.3820, 21142.00
229.6030, 21274.00
230.8230, 21239.00
232.0430, 21322.00
233.2630, 21355.00
234.4820, 21425.00
235.7020, 21559.00
236.9210, 21348.00
238.1400, 21504.00
239.3590, 21474.00
240.5780, 21577.00
241.7970, 21740.00
243.0150, 21692.00
244.2340, 21825.00
245.4520, 21761.00
246.6700, 22025.00
247.8880, 21679.00
249.1060, 21878.00
250.3230, 22146.00
251.5400, 22122.00
252.7580, 22389.00
253.9750, 22282.00
255.1920, 22706.00
256.4080, 22645.00
257.6250, 22945.00
258.8410, 23095.00
260.0580, 23119.00
261.2740, 23060.00
262.4900, 23187.00
263.7050, 23292.00
264.9210, 23489.00
266.1360, 23421.00
267.3520, 23579.00
268.5670, 23584.00
269.7820, 23487.00
270.9960, 23568.00
272.2110, 23390.00
273.4250, 23202.00
274.6400, 23479.00
275.8540, 23653.00
277.0680, 23503.00
278.2810, 23630.00
279.4950, 23571.00
280.7090, 23975.00
281.9220, 24008.00
283.1350, 24144.00
284.3480, 24225.00
285.5610, 24063.00
286.7730, 23848.00
287.9860, 23773.00
289.1980, 23644.82
290.4100, 23668.00
291.6220, 23563.00
292.8340, 23462.00
294.0460, 23600.00
295.2570, 23505.00
296.4690, 23313.00
297.6800, 23611.00
298.8910, 23483.00
300.1020, 23350.00
301.3120, 23231.00
302.5230, 23318.00
303.7330, 23521.00
304.9440, 23445.00
306.1540, 23543.00
307.3630, 23410.00
308.5730, 23543.00
309.7830, 23636.00
310.9920, 23588.00
312.2010, 23568.00
313.4100, 23671.00
314.6190, 23716.00
315.8280, 23798.00
317.0370, 23733.00
318.2450, 23872.00
319.4530, 23739.00
320.6610, 23928.00
321.8690, 23847.00
323.0770, 24017.00
324.2850, 23962.00
325.4920, 23800.00
326.6990, 23874.00
327.9060, 24078.00
329.1130, 24025.00
330.3200, 23866.00
331.5270, 24221.00
332.7330, 24234.00
333.9390, 24059.00
335.1450, 24052.00
336.3510, 24253.00
337.5570, 24039.00
338.7630, 24394.00
339.9680, 24160.00
341.1740, 24330.00
342.3790, 24346.00
343.5840, 24308.00
344.7890, 24244.00
345.9930, 24506.00
347.1980, 24530.00
348.4020, 24244.00
349.6060, 24375.00
350.8100, 24710.00
352.0140, 24806.00
353.2180, 24546.00
354.4210, 24667.00
355.6250, 24765.00
356.8280, 24816.00
358.0310, 24703.00
359.2340, 24794.00
360.4360, 24696.00
361.6390, 24813.00
362.8410, 24941.00
364.0430, 24987.00
365.2450, 25005.00
366.4470, 24959.00
367.6490, 24964.00
368.8510, 25096.00
370.0520, 24891.00
371.2530, 25025.00
372.4540, 25038.00
373.6550, 25270.00
374.8560, 25028.00
376.0560, 25182.00
377.2570, 24922.00
378.4570, 25281.00
379.6570, 25212.00
380.8570, 25248.00
382.0570, 25242.00
383.2560, 25230.08
384.4560, 25224.53
385.6550, 25254.00
386.8540, 25269.00
388.0530, 25327.00
389.2520, 25544.00
390.4510, 25609.00
391.6490, 25477.00
392.8470, 25415.00
394.0450, 25651.00
395.2430, 25647.00
396.4410, 25723.00
397.6390, 25938.00
398.8360, 26018.00
400.0340, 26059.00
401.2310, 25884.00
402.4280, 26152.00
403.6250, 26113.00
404.8210, 25983.00
406.0180, 26174.00
407.2140, 26353.00
408.4100, 26392.00
409.6060, 26349.00
410.8020, 26144.00
411.9980, 26365.00
413.1930, 26407.00
414.3890, 26185.00
415.5840, 26307.00
416.7790, 26270.00
417.9740, 26273.00
419.1680, 26325.00
420.3630, 26073.00
421.5570, 26232.00
422.7510, 26243.00
423.9450, 26272.00
425.1390, 26565.00
426.3330, 26321.00
427.5270, 26408.00
428.7200, 26479.00
429.9130, 26367.00
431.1060, 26625.00
432.2990, 26383.00
433.4920, 26402.00
434.6840, 26493.00
435.8770, 26605.00
437.0690, 26661.00
438.2610, 26701.00
439.4530, 26855.00
440.6450, 26830.00
441.8360, 26986.00
443.0280, 26859.00
444.2190, 27083.00
445.4100, 27274.00
446.6010, 27253.00
447.7920, 27658.00
448.9820, 27474.00
450.1730, 28097.00
451.3630, 28368.00
452.5530, 28275.00
453.7430, 28487.00
454.9330, 28606.00
456.1230, 28579.00
457.3120, 28511.00
458.5010, 28272.00
459.6910, 28206.00
460.8800, 27996.00
462.0680, 28033.00
463.2570, 28087.00
464.4460, 28076.00
465.6340, 28127.00
466.8220, 28289.00
468.0100, 28323.00
469.1980, 28600.00
470.3860, 28737.00
471.5730, 28992.00
472.7600, 29116.00
473.9480, 29324.00
475.1350, 29723.00
476.3210, 29920.00
477.5080, 29668.00
478.6950, 29499.00
479.8810, 29452.00
481.0670, 29352.00
482.2530, 29115.00
483.4390, 28981.00
484.6250, 28730.00
485.8100, 28693.07
486.9960, 28783.00
488.1810, 28652.00
489.3660, 28578.00
490.5510, 28610.00
491.7360, 28507.00
492.9200, 28462.00
494.1050, 28916.00
495.2890, 28716.00
496.4730, 28839.00
497.6570, 28680.00
498.8400, 29024.00
500.0240, 29164.00
501.2070, 29458.00
502.3910, 29786.00
503.5740, 30304.00
504.7570, 30573.00
505.9400, 31119.87
507.1220, 31370.00
508.3050, 32204.00
509.4870, 32570.00
510.6690, 33186.00
511.8510, 33906.00
513.0330, 34089.00
514.2140, 34410.00
515.3960, 33983.00
516.5770, 33387.00
517.7580, 32374.00
518.9390, 31535.00
520.1200, 31064.00
521.3010, 30527.00
522.4810, 30289.00
523.6610, 29984.00
524.8420, 29709.00
526.0220, 29626.00
527.2010, 29774.00
528.3810, 29463.00
529.5610, 29518.00
530.7400, 29531.00
531.9190, 29410.00
533.0980, 29218.00
534.2770, 29497.00
535.4560, 29223.00
536.6340, 29297.00
537.8120, 29186.00
538.9910, 29569.00
540.1690, 29436.00
541.3460, 29474.00
542.5240, 29332.00
543.7020, 29181.00
544.8790, 29494.00
546.0560, 29590.00
547.2330, 29518.00
548.4100, 29337.00
549.5870, 29401.00
550.7630, 29338.00
551.9400, 29812.00
553.1160, 29568.00
554.2920, 29768.00
555.4680, 29798.00
556.6440, 29703.00
557.8190, 29897.00
558.9950, 29727.00
560.1700, 29850.00
561.3450, 29874.00
562.5200, 29802.00
563.6950, 29982.00
564.8690, 30061.00
566.0440, 30078.02
567.2180, 30080.91
568.3920, 30094.00
569.5660, 30031.00
570.7400, 29880.00
571.9130, 30012.00
573.0870, 29967.00
574.2600, 30127.00
575.4330, 30100.00
576.6060, 30261.00
577.7790, 30338.00
578.9520, 30192.00
580.1240, 30239.00
581.2960, 30218.00
582.4690, 30386.00
583.6410, 30263.00
584.8120, 30454.00
585.9840, 30454.00
587.1560, 30420.00
588.3270, 30423.00
589.4980, 30463.00
590.6690, 30642.00
591.8400, 30588.40
593.0110, 30644.00
594.1810, 30577.00
595.3510, 30694.00
596.5220, 30681.00
597.6920, 30741.00
598.8610, 30637.00
600.0310, 30765.00
601.2010, 30727.05
602.3700, 30720.76
603.5390, 30764.00
604.7080, 30710.00
605.8770, 30796.00
607.0460, 30807.00
608.2140, 30783.00
609.3830, 31067.00
610.5510, 30875.00
611.7190, 30990.00
612.8870, 30874.00
614.0550, 31089.00
615.2220, 31141.00
616.3900, 30983.00
617.5570, 30929.00
618.7240, 30996.00
619.8910, 31028.00
621.0580, 31118.00
622.2240, 31275.00
623.3910, 31205.00
624.5570, 31530.00
625.7230, 31356.00
626.8890, 31379.00
628.0550, 31316.00
629.2200, 31606.00
630.3860, 31250.00
631.5510, 31522.00
632.7160, 31447.00
633.8810, 31629.00
635.0460, 31574.00
636.2100, 31702.00
637.3750, 31537.00
638.5390, 31944.00
639.7030, 31891.00
640.8670, 31740.00
642.0310, 31621.00
643.1950, 31904.00
644.3580, 32019.00
645.5210, 32034.00
646.6850, 32133.00
647.8480, 31956.00
649.0100, 32143.00
650.1730, 31963.00
651.3350, 31922.00
652.4980, 32033.00
653.6600, 31989.32
654.8220, 32040.86
655.9840, 32137.00
657.1450, 32122.00
658.3070, 32255.00
659.4680, 32317.00
660.6300, 32183.00
661.7910, 32134.00
662.9510, 32122.30
664.1120, 32105.22
665.2730, 32151.00
666.4330, 32149.00
667.5930, 32356.00
668.7530, 32362.00
669.9130, 32425.00
671.0730, 32548.00
672.2320, 32503.00
673.3920, 32446.00
674.5510, 32503.00
675.7100, 32475.11
676.8690, 32579.00
678.0280, 32475.00
679.1860, 32622.00
680.3450, 32573.00
681.5030, 32666.00
682.6610, 32683.00
683.8190, 32827.00
684.9770, 32633.00
686.1340, 32875.00
687.2920, 32790.00
688.4490, 32853.00
689.6060, 32867.00
690.7630, 32854.56
691.9200, 32828.00
693.0760, 32936.00
694.2330, 32879.00
695.3890, 33049.00
696.5450, 33048.00
697.7010, 33229.00
698.8570, 33121.00
700.0130, 33195.00
701.1680, 33031.00
702.3230, 33101.00
703.4780, 33258.00
704.6330, 33232.00
705.7880, 33426.00
706.9430, 33334.00
708.0970, 33413.00
709.2520, 33201.00
710.4060, 33530.00
711.5600, 33502.00
712.7140, 33379.00
713.8670, 33610.00
715.0210, 33558.00
716.1740, 33562.00
717.3270, 33359.00
718.4800, 33694.00
719.6330, 33804.00
720.7860, 33503.00
721.9380, 33798.00
723.0910, 33326.00
724.2430, 33922.00
725.3950, 33753.00
726.5470, 33794.00
727.6980, 34022.00
728.8500, 33952.00
730.0010, 33999.00
731.1530, 34095.00
732.3040, 33949.00
733.4550, 34093.00
734.6050, 34107.00
735.7560, 34083.00
736.9060, 34030.00
738.0560, 34429.00
739.2060, 34354.00
740.3560, 34361.00
741.5060, 34583.00
742.6560, 34576.00
743.8050, 34812.00
744.9540, 34901.00
746.1030, 34877.00
747.2520, 35034.00
748.4010, 35090.00
749.5500, 34929.00
750.6980, 35125.00
751.8460, 35042.00
752.9950, 35073.00
754.1420, 35249.00
755.2900, 35066.00
756.4380, 35278.00
757.5850, 35169.00
758.7330, 35051.00
759.8800, 35135.00
761.0270, 35183.00
762.1730, 34966.00
763.3200, 35161.00
764.4670, 35400.00
765.6130, 35232.00
766.7590, 34997.00
767.9050, 35028.00
769.0510, 35249.00
770.1960, 35115.00
771.3420, 35265.00
772.4870, 35090.00
773.6320, 35170.00
774.7770, 35253.00
775.9220, 35370.00
777.0670, 35183.00
778.2110, 35630.00
779.3560, 35299.00
780.5000, 35342.00
781.6440, 35509.00
782.7880, 35096.00
783.9320, 35485.00
785.0750, 35222.00
786.2180, 35657.00
787.3620, 35644.00
788.5050, 35556.00
789.6480, 35589.00
790.7900, 35777.00
791.9330, 35906.00
793.0750, 35975.00
794.2170, 35743.00
795.3590, 35765.00
796.5010, 35709.00
797.6430, 36076.00
798.7850, 35799.00
799.9260, 36009.00
801.0670, 35857.00
802.2080, 35943.00
803.3490, 35920.00
804.4900, 36139.00
805.6310, 36496.00
806.7710, 36187.00
807.9110, 36170.00
809.0510, 36544.00
810.1910, 36670.00
811.3310, 36767.00
812.4710, 36913.00
813.6100, 36843.00
814.7490, 36801.00
815.8880, 36665.00
817.0270, 36606.50
818.1660, 36776.00
819.3050, 36504.00
820.4430, 36386.00
821.5820, 36481.00
822.7200, 36223.00
823.8580, 36501.00
824.9950, 36588.00
826.1330, 36668.00
827.2710, 36378.00
828.4080, 36521.00
829.5450, 36643.00
830.6820, 36788.00
831.8190, 36866.00
832.9560, 36691.00
834.0920, 36644.00
835.2280, 36675.00
836.3650, 36651.00
837.5010, 36826.00
838.6360, 36803.51
839.7720, 36781.00
840.9080, 36925.00
842.0430, 36822.00
843.1780, 36990.00
844.3130, 36999.96
845.4480, 36778.00
846.5830, 37058.00
847.7170, 37000.00
848.8520, 36964.00
849.9860, 37126.00
851.1200, 37324.00
852.2540, 37247.00
853.3870, 37173.00
854.5210, 37284.00
855.6540, 37234.00
856.7880, 37264.00
857.9210, 37363.00
859.0540, 37311.00
860.1860, 37286.00
861.3190, 37593.00
862.4510, 37383.00
863.5840, 37616.00
864.7160, 37585.00
865.8480, 37600.00
866.9790, 37891.00
868.1110, 37746.00
869.2420, 37815.00
870.3740, 37724.00
871.5050, 37799.00
872.6360, 37988.00
873.7660, 37786.00
874.8970, 37940.00
876.0280, 37860.00
877.1580, 37932.00
878.2880, 37958.00
879.4180, 37908.00
880.5480, 37957.00
881.6770, 37992.00
882.8070, 37915.00
883.9360, 37975.93
885.0650, 37821.00
886.1940, 38022.00
887.3230, 38075.00
888.4520, 38122.00
889.5800, 38017.00
890.7090, 38255.00
891.8370, 38384.00
892.9650, 38436.00
894.0930, 38280.00
895.2200, 38346.00
896.3480, 38249.00
897.4750, 38327.00
898.6020, 38554.00
899.7290, 38221.00
900.8560, 38580.00
901.9830, 38341.00
903.1090, 38461.00
904.2360, 38413.00
905.3620, 38486.00
906.4880, 38500.00
907.6140, 38546.19
908.7400, 38771.00
909.8650, 38634.00
910.9900, 38869.00
912.1160, 38853.00
913.2410, 38931.00
914.3660, 39219.00
915.4900, 38974.00
916.6150, 38680.00
917.7390, 38954.00
918.8640, 39113.00
919.9880, 39088.00
921.1120, 39178.00
922.2350, 39029.00
923.3590, 39173.00
924.4820, 39158.00
925.6060, 39382.00
926.7290, 39033.00
927.8520, 39359.00
928.9740, 39259.00
930.0970, 39369.00
931.2190, 39272.00
932.3420, 39326.00
933.4640, 39387.34
934.5860, 39474.00
935.7080, 39498.00
936.8290, 39627.00
937.9510, 39632.00
939.0720, 39738.00
940.1930, 39540.00
941.3140, 39818.00
942.4350, 39778.00
943.5560, 40049.00
944.6760, 40154.00
945.7960, 39889.00
946.9170, 39810.00
948.0370, 40003.00
949.1560, 39968.00
950.2760, 40287.00
951.3960, 40230.00
952.5150, 39846.00
953.6340, 40183.00
954.7530, 40056.00
955.8720, 39942.00
956.9910, 40134.00
958.1090, 39977.00
959.2280, 40413.00
960.3460, 40292.00
961.4640, 40325.00
962.5820, 40265.00
963.6990, 40206.00
964.8170, 40235.00
965.9340, 40333.00
967.0510, 40551.00
968.1690, 40560.00
969.2850, 40669.00
970.4020, 40573.00
971.5190, 40491.00
972.6350, 40729.00
973.7510, 40892.00
974.8670, 40835.00
975.9830, 40748.00
977.0990, 40713.00
978.2150, 40793.00
979.3300, 40884.00
980.4450, 40799.00
981.5600, 41057.00
982.6750, 40871.00
983.7900, 41286.00
984.9050, 41321.00
986.0190, 41230.00
987.1340, 41165.00
988.2480, 41376.00
989.3620, 41336.00
990.4750, 41246.00
991.5890, 41478.00
992.7020, 41666.00
993.8160, 41535.00
994.9290, 41676.00
996.0420, 41717.36
997.1550, 41543.00
998.2670, 41854.00
999.3800, 41750.00
1000.492, 41851.00
1001.604, 41662.00
1002.716, 41723.00
1003.828, 41636.00
1004.940, 41810.00
1006.051, 41903.00
1007.163, 41984.00
1008.274, 42108.00
1009.385, 42074.00
1010.496, 41941.00
1011.606, 41980.00
1012.717, 42010.14
1013.827, 41989.00
1014.937, 42174.00
1016.047, 41983.00
1017.157, 42044.00
1018.267, 42194.00
1019.377, 42049.00
1020.486, 42022.00
1021.595, 42208.00
1022.704, 42185.07
1023.813, 42232.00
1024.922, 42363.00
1026.030, 42425.00
1027.139, 42482.00
1028.247, 42588.00
1029.355, 42670.00
1030.463, 42644.79
1031.571, 42481.00
1032.678, 42562.00
1033.786, 42546.00
1034.893, 42476.00
1036.000, 42552.00
1037.107, 43020.00
1038.214, 42684.00
1039.321, 42917.00
1040.427, 42762.00
1041.533, 42790.00
1042.639, 42997.00
1043.745, 42843.00
1044.851, 43157.00
1045.957, 43019.00
1047.062, 43126.00
1048.168, 43122.00
1049.273, 43116.00
1050.378, 43148.00
1051.482, 43195.47
1052.587, 43156.00
1053.692, 43390.00
1054.796, 43540.00
1055.900, 43771.00
1057.004, 43430.00
1058.108, 43267.00
1059.212, 43414.00
1060.315, 43626.00
1061.418, 43665.00
1062.522, 43647.00
1063.625, 43598.00
1064.728, 43584.00
1065.830, 43760.00
1066.933, 43842.00
1068.035, 43642.00
1069.137, 43783.00
1070.239, 44076.00
1071.341, 43970.00
1072.443, 43876.00
1073.545, 44086.00
1074.646, 43887.00
1075.747, 43856.00
1076.848, 43886.00
1077.949, 44092.00
1079.050, 44151.00
1080.150, 44175.00
1081.251, 44166.00
1082.351, 44358.00
1083.451, 44370.00
1084.551, 44421.00
1085.651, 44409.00
1086.750, 44656.00
1087.850, 44500.00
1088.949, 44574.00
1090.048, 44742.00
1091.147, 44686.00
1092.246, 44589.00
1093.345, 44743.00
1094.443, 44743.33
1095.541, 44805.00
1096.639, 44920.00
1097.737, 45093.00
1098.835, 45173.00
1099.933, 45369.00
1101.030, 45344.90
1102.128, 45374.83
1103.225, 45309.00
1104.322, 45335.00
1105.419, 45353.00
1106.515, 45397.16
1107.612, 45238.00
1108.708, 45427.00
1109.804, 45239.00
1110.900, 45403.00
1111.996, 45366.00
1113.092, 45434.00
1114.187, 45635.00
1115.283, 45577.00
1116.378, 45392.00
1117.473, 45816.00
1118.568, 46105.00
1119.662, 45875.00
1120.757, 45840.00
1121.851, 45947.00
1122.946, 46048.00
1124.040, 46011.00
1125.134, 46074.24
1126.227, 46221.00
1127.321, 46084.00
1128.414, 45893.00
1129.508, 45879.00
1130.601, 45924.00
1131.693, 46403.00
1132.786, 46305.00
1133.879, 46387.00
1134.971, 46318.00
1136.064, 46626.00
1137.156, 46893.00
1138.248, 46860.00
1139.339, 46321.00
1140.431, 46558.00
1141.522, 46433.00
1142.614, 46549.00
1143.705, 46591.00
1144.796, 46597.00
1145.887, 46622.00
1146.977, 46710.00
1148.068, 46618.00
1149.158, 46873.00
1150.248, 46657.00
1151.338, 46674.00
1152.428, 46545.00
1153.518, 46829.00
1154.607, 46704.00
1155.696, 46870.00
1156.785, 46694.00
1157.874, 46884.00
1158.963, 47126.00
1160.052, 46840.00
1161.141, 46840.00
1162.229, 47340.00
1163.317, 46844.00
1164.405, 47203.00
1165.493, 46975.00
1166.581, 47439.00
1167.668, 47201.00
1168.756, 47290.00
1169.843, 47321.00
1170.930, 47371.00
1172.017, 47221.00
1173.103, 47429.00
1174.190, 47551.00
1175.276, 47312.00
1176.363, 47424.00
1177.449, 47545.00
1178.535, 47509.00
1179.620, 47448.00
1180.706, 47708.00
1181.791, 47811.00
1182.877, 47988.00
1183.962, 47640.00
1185.047, 48000.00
1186.131, 47812.00
1187.216, 48128.00
1188.300, 47727.00
1189.385, 48004.00
1190.469, 48054.00
1191.553, 48175.00
1192.637, 48005.00
1193.720, 48031.00
1194.804, 48202.00
1195.887, 48298.00
1196.970, 48404.00
1198.053, 48401.00
1199.136, 48237.00
1200.219, 48420.01
1201.301, 48320.00
1202.383, 48626.00
1203.465, 48415.00
1204.547, 48458.00
1205.629, 48600.00
1206.711, 48448.00
1207.792, 48453.00
1208.874, 48715.00
1209.955, 48740.00
1211.036, 48630.00
1212.117, 48592.00
1213.198, 48803.00
1214.278, 48629.00
1215.359, 48941.00
1216.439, 48769.00
1217.519, 48659.00
1218.599, 49106.00
1219.678, 48946.00
1220.758, 49244.00
1221.837, 49064.00
1222.917, 49033.00
1223.996, 48737.00
1225.075, 49172.00
1226.153, 49301.00
1227.232, 49251.00
1228.310, 49061.00
1229.389, 49324.00
1230.467, 49358.00
1231.545, 49499.00
1232.622, 49785.00
1233.700, 49720.95
1234.777, 49789.84
1235.855, 49719.00
1236.932, 49734.00
1238.009, 49733.00
1239.086, 49759.00
1240.162, 49774.00
1241.239, 49792.39
1242.315, 49686.00
1243.391, 49860.00
1244.467, 49933.00
1245.543, 50020.00
1246.619, 49847.00
1247.694, 49952.00
1248.769, 50190.00
1249.844, 49774.00
1250.919, 49970.00
1251.994, 50114.00
1253.069, 50167.00
1254.144, 50197.00
1255.218, 50363.00
1256.292, 50258.00
1257.366, 50242.00
1258.440, 50551.00
1259.514, 50816.00
1260.587, 50445.00
1261.661, 50847.00
1262.734, 50526.00
1263.807, 50600.00
1264.880, 50640.00
1265.952, 50899.00
1267.025, 50764.00
1268.097, 50820.00
1269.170, 50947.00
1270.242, 51212.00
1271.314, 50876.00
1272.385, 51048.00
1273.457, 51230.00
1274.528, 51120.00
1275.600, 51245.00
1276.671, 51280.00
1277.742, 51209.00
1278.812, 51285.00
1279.883, 51423.00
1280.954, 51104.00
1282.024, 51416.00
1283.094, 51442.00
1284.164, 51235.00
1285.234, 51505.00
1286.303, 51383.00
1287.373, 51570.00
1288.442, 51554.00
1289.511, 51853.00
1290.580, 51554.00
1291.649, 51999.00
1292.718, 51666.00
1293.786, 51708.00
1294.855, 51899.00
1295.923, 52009.00
1296.991, 51963.00
1298.059, 51798.00
1299.126, 51756.00
1300.194, 51975.00
1301.261, 52087.00
1302.328, 52148.00
