##NAMES=Microcline
##RRUFFID=R050150
##IDEAL CHEMISTRY=KAlSi_3_O_8_
##LOCALITY=Crystal Peak area, Park/Teller Counties, Colorado, USA
##OWNER=RRUFF
##SOURCE=Dave Bunk Minerals
##DESCRIPTION=Pale blue prismatic crystals
##STATUS=The identification of this mineral has been confirmed by X-ray diffraction and chemical analysis
##URL=rruff.info/R050150
##MEASURED CHEMISTRY=(K_0.95_Na_0.05_)_Î£=1_Al_1.00_Si_3.00_O_8_
##PIN_ID=L01538
##ORIENTATION=Laser parallel to c* (0 0 1). Fiducial mark perpendicular to laser is parallel to a [1 0 0]
131.4130, 13943.00
132.6530, 13454.00
133.8930, 13722.00
135.1330, 14392.00
136.3730, 15382.00
137.6120, 16842.00
138.8510, 17822.00
140.0900, 18566.00
141.3290, 18237.00
142.5680, 17784.00
143.8060, 17992.00
145.0440, 18363.00
146.2820, 19298.00
147.5200, 20585.00
148.7570, 21916.00
149.9950, 23740.00
151.2320, 25676.00
152.4690, 28001.00
153.7060, 30271.00
154.9420, 32665.00
156.1790, 34107.00
157.4150, 33746.00
158.6510, 31919.00
159.8870, 29201.00
161.1220, 26073.00
162.3570, 23072.00
163.5930, 20464.00
164.8280, 18160.00
166.0620, 16619.00
167.2970, 15440.00
168.5310, 14656.00
169.7650, 14368.00
170.9990, 14368.00
172.2330, 14353.00
173.4670, 14763.00
174.7000, 15515.00
175.9330, 16023.00
177.1660, 16468.00
178.3990, 16375.00
179.6310, 15615.00
180.8640, 14934.00
182.0960, 13982.00
183.3280, 13278.00
184.5600, 12505.00
185.7910, 12043.00
187.0220, 11881.00
188.2540, 11681.00
189.4840, 11932.00
190.7150, 12269.00
191.9460, 12520.00
193.1760, 13311.00
194.4060, 13969.00
195.6360, 14837.00
196.8660, 15727.00
198.0960, 16010.00
199.3250, 15835.00
200.5540, 14912.00
201.7830, 13830.00
203.0120, 12969.00
204.2400, 12153.00
205.4690, 11054.00
206.6970, 10521.00
207.9250, 10029.00
209.1530, 9925.000
210.3800, 9499.000
211.6080, 9334.000
212.8350, 9274.000
214.0620, 9132.000
215.2880, 9073.000
216.5150, 9022.000
217.7410, 9006.000
218.9680, 8940.000
220.1940, 8954.000
221.4190, 9047.000
222.6450, 8991.000
223.8700, 9038.934
225.0960, 9048.000
226.3210, 9067.000
227.5450, 9150.000
228.7700, 9172.489
229.9940, 9022.000
231.2190, 9149.000
232.4430, 9105.000
233.6660, 9038.000
234.8900, 9156.000
236.1140, 9332.000
237.3370, 9358.000
238.5600, 9373.000
239.7830, 9503.000
241.0050, 9588.000
242.2280, 9834.000
243.4500, 9943.000
244.6720, 10330.00
245.8940, 10671.00
247.1160, 11143.00
248.3370, 11891.00
249.5580, 12628.00
250.7790, 13481.00
252.0000, 14357.00
253.2210, 15920.00
254.4410, 16939.00
255.6620, 18585.00
256.8820, 19527.00
258.1020, 19980.00
259.3210, 20270.00
260.5410, 20522.00
261.7600, 20687.00
262.9790, 21344.00
264.1980, 21392.00
265.4170, 21578.00
266.6360, 21069.00
267.8540, 20258.00
269.0720, 19190.00
270.2900, 18481.00
271.5080, 17978.00
272.7260, 17613.00
273.9430, 17952.00
275.1600, 18924.00
276.3770, 20070.00
277.5940, 21661.00
278.8100, 23564.00
280.0270, 25769.00
281.2430, 28197.00
282.4590, 30384.00
283.6750, 31553.00
284.8910, 31537.00
286.1060, 30005.00
287.3210, 27332.00
288.5360, 25023.00
289.7510, 21503.00
290.9660, 18899.00
292.1800, 16764.00
293.3950, 14919.00
294.6090, 13701.00
295.8230, 12849.00
297.0360, 12160.00
298.2500, 11649.00
299.4630, 11289.00
300.6760, 10960.00
301.8890, 10752.00
303.1020, 10554.00
304.3150, 10336.82
305.5270, 10199.85
306.7390, 10015.00
307.9510, 9930.000
309.1630, 9834.000
310.3750, 9694.000
311.5860, 9571.000
312.7970, 9596.000
314.0080, 9527.000
315.2190, 9501.000
316.4300, 9471.000
317.6400, 9551.000
318.8510, 9597.387
320.0610, 9672.480
321.2710, 9813.000
322.4800, 9887.000
323.6900, 10046.00
324.8990, 10195.00
326.1080, 10527.00
327.3170, 10845.00
328.5260, 11197.00
329.7340, 11392.00
330.9430, 11463.00
332.1510, 11372.00
333.3590, 11158.00
334.5670, 10940.00
335.7740, 10541.00
336.9820, 10470.00
338.1890, 10124.00
339.3960, 9959.000
340.6030, 9922.000
341.8100, 9790.000
343.0160, 9748.000
344.2220, 9724.000
345.4280, 9700.160
346.6340, 9672.000
347.8400, 9754.000
349.0460, 9792.000
350.2510, 9871.354
351.4560, 9828.000
352.6610, 10008.00
353.8660, 10174.00
355.0700, 10240.00
356.2750, 10231.00
357.4790, 10208.00
358.6830, 10049.00
359.8870, 10047.00
361.0910, 9965.000
362.2940, 10106.00
363.4970, 10217.00
364.7000, 10245.00
365.9030, 10380.00
367.1060, 10371.00
368.3080, 10704.00
369.5110, 10804.00
370.7130, 11087.00
371.9150, 10925.00
373.1170, 11044.00
374.3180, 10862.00
375.5200, 10491.00
376.7210, 10242.00
377.9220, 10054.00
379.1230, 9874.000
380.3230, 9828.000
381.5240, 9703.000
382.7240, 9727.000
383.9240, 9658.000
385.1240, 9837.000
386.3240, 9746.000
387.5230, 9771.000
388.7230, 9697.000
389.9220, 9818.000
391.1210, 9873.000
392.3200, 9930.000
393.5180, 10144.00
394.7170, 10238.00
395.9150, 10340.00
397.1130, 10665.00
398.3110, 10810.00
399.5080, 11088.00
400.7060, 11350.00
401.9030, 11662.00
403.1000, 11883.00
404.2970, 11896.00
405.4940, 11671.00
406.6910, 11602.00
407.8870, 11178.00
409.0830, 11334.00
410.2790, 11162.00
411.4750, 11298.00
412.6710, 11118.00
413.8660, 10891.00
415.0610, 10638.00
416.2560, 10433.00
417.4510, 10312.47
418.6460, 10214.00
419.8410, 10129.00
421.0350, 10001.00
422.2290, 9919.000
423.4230, 9947.000
424.6170, 9995.000
425.8100, 9996.000
427.0040, 10054.64
428.1970, 10093.41
429.3900, 10144.00
430.5830, 10205.00
431.7760, 10231.00
432.9680, 10313.00
434.1610, 10386.00
435.3530, 10489.00
436.5450, 10702.00
437.7360, 10785.00
438.9280, 11025.00
440.1190, 11278.00
441.3110, 11495.00
442.5020, 12044.00
443.6930, 12576.00
444.8830, 13485.00
446.0740, 14372.00
447.2640, 15369.00
448.4540, 16529.00
449.6440, 17918.00
450.8340, 19507.00
452.0240, 20692.00
453.2130, 21508.00
454.4020, 21628.00
455.5910, 20922.00
456.7800, 19831.00
457.9690, 18675.00
459.1570, 17448.00
460.3460, 16449.00
461.5340, 15834.00
462.7220, 15639.00
463.9090, 15710.00
465.0970, 16164.00
466.2840, 16886.00
467.4720, 17994.00
468.6590, 19591.00
469.8460, 20957.00
471.0320, 22796.00
472.2190, 25087.00
473.4050, 26716.00
474.5910, 27813.00
475.7770, 28049.00
476.9630, 26902.00
478.1490, 25683.00
479.3340, 24024.00
480.5190, 22554.00
481.7040, 21433.00
482.8890, 20707.00
484.0740, 19735.00
485.2580, 18537.00
486.4430, 17645.00
487.6270, 16448.00
488.8110, 15685.00
489.9950, 14913.00
491.1780, 14511.00
492.3620, 14348.00
493.5450, 14316.00
494.7280, 14150.00
495.9110, 14456.00
497.0940, 14880.00
498.2760, 15571.00
499.4590, 16442.00
500.6410, 17790.00
501.8230, 19580.00
503.0050, 21891.00
504.1860, 25215.00
505.3680, 29045.00
506.5490, 33402.00
507.7300, 37959.00
508.9110, 43863.00
510.0920, 49853.00
511.2730, 55001.00
512.4530, 58528.00
513.6330, 58109.00
514.8130, 54676.00
515.9930, 48957.00
517.1730, 42628.00
518.3520, 36481.00
519.5320, 31017.00
520.7110, 26657.00
521.8900, 23209.00
523.0690, 20772.00
524.2470, 18771.00
525.4260, 17365.00
526.6040, 16369.00
527.7820, 15700.00
528.9600, 14873.00
530.1380, 14565.00
531.3150, 13913.00
532.4930, 13590.00
533.6700, 13355.00
534.8470, 13238.00
536.0240, 13054.00
537.2000, 12781.00
538.3770, 12699.00
539.5530, 12556.00
540.7290, 12459.00
541.9050, 12296.00
543.0810, 12204.00
544.2570, 12121.00
545.4320, 11995.00
546.6080, 12033.00
547.7830, 11931.00
548.9580, 11863.00
550.1320, 11877.00
551.3070, 11826.67
552.4810, 11831.00
553.6550, 11794.00
554.8300, 11904.00
556.0030, 11855.00
557.1770, 11910.00
558.3510, 11719.00
559.5240, 11750.00
560.6970, 11801.00
561.8700, 11728.00
563.0430, 11793.00
564.2160, 11984.00
565.3880, 12071.00
566.5600, 11925.00
567.7320, 11702.00
568.9040, 11805.00
570.0760, 11753.00
571.2480, 12016.00
572.4190, 12073.00
573.5900, 11971.00
574.7610, 12151.00
575.9320, 12270.00
577.1030, 12538.00
578.2740, 12532.00
579.4440, 12815.00
580.6140, 12757.00
581.7840, 13033.00
582.9540, 13015.00
584.1240, 12966.00
585.2930, 12732.00
586.4630, 12553.00
587.6320, 12464.00
588.8010, 12337.00
589.9700, 12301.00
591.1380, 12196.00
592.3070, 11753.00
593.4750, 11711.00
594.6430, 11692.00
595.8110, 11724.00
596.9790, 11757.00
598.1460, 11639.00
599.3140, 11840.00
600.4810, 11624.00
601.6480, 11691.00
602.8150, 11718.00
603.9820, 11708.00
605.1480, 11721.00
606.3150, 11647.00
607.4810, 11695.35
608.6470, 11739.00
609.8130, 11803.00
610.9790, 11841.95
612.1440, 11864.00
613.3100, 11934.00
614.4750, 11880.00
615.6400, 11925.00
616.8050, 11958.00
617.9690, 11981.00
619.1340, 12000.00
620.2980, 12209.00
621.4620, 12265.00
622.6260, 12212.00
623.7900, 12553.00
624.9540, 12336.00
626.1170, 12590.00
627.2810, 12668.00
628.4440, 12771.00
629.6070, 12928.00
630.7690, 12836.00
631.9320, 12778.00
633.0950, 12898.00
634.2570, 12798.00
635.4190, 12905.00
636.5810, 12979.00
637.7430, 12815.00
638.9040, 12866.00
640.0660, 13095.00
641.2270, 13258.00
642.3880, 13464.00
643.5490, 13526.00
644.7100, 13644.00
645.8700, 13949.00
647.0310, 14248.00
648.1910, 14153.00
649.3510, 14450.00
650.5110, 14497.00
651.6710, 14516.00
652.8300, 14514.00
653.9900, 14427.40
655.1490, 14325.99
656.3080, 14162.00
657.4670, 13964.00
658.6250, 13757.52
659.7840, 13449.00
660.9420, 13233.00
662.1010, 13105.00
663.2590, 12838.00
664.4170, 12861.00
665.5740, 12839.00
666.7320, 12705.00
667.8890, 12673.92
669.0460, 12510.00
670.2030, 12457.00
671.3600, 12359.00
672.5170, 12314.57
673.6740, 12364.00
674.8300, 12262.00
675.9860, 12230.00
677.1420, 12189.00
678.2980, 12290.00
679.4540, 12278.00
680.6090, 12282.00
681.7650, 12197.00
682.9200, 12091.00
684.0750, 12223.00
685.2300, 12086.00
686.3840, 12286.00
687.5390, 12195.00
688.6930, 12282.00
689.8470, 12210.00
691.0010, 12205.00
692.1550, 12368.00
693.3090, 12250.00
694.4620, 12316.00
695.6160, 12245.00
696.7690, 12297.00
697.9220, 12333.00
699.0750, 12233.00
700.2280, 12292.00
701.3800, 12396.00
702.5320, 12289.00
703.6850, 12473.00
704.8370, 12371.00
705.9880, 12460.00
707.1400, 12381.00
708.2920, 12409.00
709.4430, 12540.00
710.5940, 12477.00
711.7450, 12551.00
712.8960, 12547.00
714.0470, 12527.00
715.1970, 12558.00
716.3480, 12506.00
717.4980, 12747.00
718.6480, 12510.00
719.7980, 12685.00
720.9470, 12605.00
722.0970, 12556.00
723.2460, 12676.00
724.3960, 12739.00
725.5450, 12897.00
726.6940, 12822.00
727.8420, 12891.00
728.9910, 13035.00
730.1390, 13123.00
731.2870, 13182.00
732.4350, 13299.00
733.5830, 13516.00
734.7310, 13613.00
735.8790, 13843.00
737.0260, 14014.00
738.1730, 14408.00
739.3200, 14765.00
740.4670, 15050.00
741.6140, 15607.00
742.7610, 15977.00
743.9070, 16848.00
745.0530, 17494.00
746.1990, 18074.00
747.3450, 18718.00
748.4910, 18820.00
749.6370, 18753.00
750.7820, 18300.00
751.9270, 17820.00
753.0720, 17222.00
754.2170, 16677.00
755.3620, 16150.21
756.5070, 15633.79
757.6510, 15160.00
758.7950, 14763.63
759.9400, 14462.00
761.0840, 14271.00
762.2270, 14267.00
763.3710, 14213.00
764.5140, 14005.00
765.6580, 14212.00
766.8010, 14061.00
767.9440, 13998.00
769.0870, 13956.00
770.2290, 13788.00
771.3720, 13803.00
772.5140, 13712.00
773.6560, 13582.00
774.7990, 13634.00
775.9400, 13627.00
777.0820, 13578.00
778.2240, 13392.00
779.3650, 13475.00
780.5060, 13342.00
781.6470, 13433.00
782.7880, 13324.00
783.9290, 13480.00
785.0690, 13398.00
786.2100, 13409.00
787.3500, 13468.00
788.4900, 13565.00
789.6300, 13488.00
790.7700, 13641.00
791.9090, 13789.00
793.0490, 13742.00
794.1880, 13882.00
795.3270, 13738.00
796.4660, 13889.00
797.6050, 13853.00
798.7440, 14165.00
799.8820, 14181.00
801.0200, 14283.00
802.1590, 14504.00
803.2970, 14859.00
804.4340, 15185.00
805.5720, 15785.00
806.7100, 16356.00
807.8470, 17133.00
808.9840, 17730.00
810.1210, 18456.00
811.2580, 19227.00
812.3950, 19336.00
813.5310, 19554.00
814.6680, 18922.00
815.8040, 18191.00
816.9400, 17277.00
818.0760, 16453.00
819.2120, 15844.04
820.3470, 15253.98
821.4830, 14765.00
822.6180, 14450.00
823.7530, 14185.00
824.8880, 14008.00
826.0230, 14006.00
827.1580, 14004.00
828.2920, 13738.00
829.4270, 13790.00
830.5610, 13685.00
831.6950, 13590.00
832.8290, 13616.00
833.9620, 13595.00
835.0960, 13771.00
836.2290, 13597.00
837.3620, 13721.00
838.4950, 13679.00
839.6280, 13623.00
840.7610, 13643.00
841.8940, 13552.00
843.0260, 13723.00
844.1580, 13587.00
845.2910, 13592.00
846.4230, 13616.00
847.5540, 13571.00
848.6860, 13712.00
849.8170, 13628.00
850.9490, 13557.00
852.0800, 13673.00
853.2110, 13569.00
854.3420, 13586.00
855.4730, 13637.00
856.6030, 13612.00
857.7340, 13724.00
858.8640, 13684.00
859.9940, 13701.00
861.1240, 13598.00
862.2540, 13827.00
863.3830, 13617.00
864.5130, 13848.00
865.6420, 13647.00
866.7710, 13737.00
867.9000, 13821.00
869.0290, 13806.00
870.1570, 13841.00
871.2860, 13806.00
872.4140, 13799.33
873.5430, 13757.00
874.6710, 13774.00
875.7980, 13827.00
876.9260, 13857.00
878.0540, 13906.00
879.1810, 13941.00
880.3080, 13847.00
881.4360, 13826.00
882.5630, 14061.00
883.6890, 13806.00
884.8160, 13963.00
885.9420, 13833.00
887.0690, 14016.00
888.1950, 13929.00
889.3210, 13991.00
890.4470, 13886.00
891.5730, 13944.00
892.6980, 14098.00
893.8240, 14012.00
894.9490, 14015.00
896.0740, 14029.00
897.1990, 14073.00
898.3240, 14107.00
899.4480, 14109.00
900.5730, 14060.00
901.6970, 14066.00
902.8210, 14064.98
903.9450, 14056.28
905.0690, 14071.00
906.1930, 14081.00
907.3160, 14101.40
908.4400, 14102.00
909.5630, 14177.00
910.6860, 14237.00
911.8090, 14323.00
912.9320, 14286.00
914.0550, 14295.00
915.1770, 14205.00
916.2990, 14236.00
917.4210, 14186.00
918.5440, 14193.03
919.6650, 14331.00
920.7870, 14221.00
921.9090, 14314.00
923.0300, 14333.00
924.1510, 14472.00
925.2720, 14346.00
926.3930, 14426.00
927.5140, 14430.00
928.6350, 14378.00
929.7550, 14647.00
930.8760, 14440.00
931.9960, 14507.00
933.1160, 14375.00
934.2360, 14492.00
935.3550, 14716.00
936.4750, 14550.00
937.5940, 14597.00
938.7140, 14726.00
939.8330, 14510.00
940.9520, 14636.00
942.0710, 14651.00
943.1890, 14532.00
944.3080, 14674.00
945.4260, 14555.00
946.5440, 14715.00
947.6620, 14682.00
948.7800, 14674.00
949.8980, 14745.82
951.0160, 14787.00
952.1330, 14775.00
953.2500, 14822.00
954.3680, 14834.99
955.4850, 14912.00
956.6010, 14874.00
957.7180, 14915.00
958.8350, 14933.00
959.9510, 14860.00
961.0670, 15003.00
962.1830, 15046.00
963.2990, 15095.00
964.4150, 15039.00
965.5310, 15011.00
966.6460, 15098.00
967.7620, 14991.00
968.8770, 15165.00
969.9920, 15160.00
971.1070, 15337.00
972.2210, 15443.00
973.3360, 15238.00
974.4500, 15389.00
975.5650, 15198.00
976.6790, 15434.00
977.7930, 15534.00
978.9070, 15589.00
980.0200, 15904.00
981.1340, 15967.00
982.2470, 16097.00
983.3610, 16274.00
984.4740, 16466.00
985.5870, 16677.00
986.6990, 17180.00
987.8120, 17403.00
988.9250, 17844.00
990.0370, 18320.00
991.1490, 18639.00
992.2610, 18891.00
993.3730, 19098.00
994.4850, 19245.00
995.5960, 19072.00
996.7080, 18794.00
997.8190, 18437.00
998.9300, 18182.00
1000.041, 18103.00
1001.152, 17794.00
1002.263, 17633.00
1003.373, 17528.00
1004.484, 17303.00
1005.594, 17135.00
1006.704, 16843.00
1007.814, 16685.00
1008.924, 16485.00
1010.034, 16363.33
1011.143, 16265.00
1012.253, 16212.00
1013.362, 16161.00
1014.471, 16141.00
1015.580, 16053.00
1016.689, 15982.00
1017.797, 15941.00
1018.906, 16049.00
1020.014, 16059.00
1021.122, 15996.00
1022.230, 16084.00
1023.338, 16010.00
1024.446, 15994.00
1025.554, 16134.00
1026.661, 16152.00
1027.768, 16212.00
1028.875, 16214.00
1029.983, 16112.00
1031.089, 16333.00
1032.196, 16336.00
1033.303, 16611.00
1034.409, 16601.00
1035.515, 16845.00
1036.622, 16995.00
1037.728, 17037.00
1038.833, 16772.00
1039.939, 16807.00
1041.045, 16775.00
1042.150, 16707.00
1043.255, 16572.00
1044.360, 16508.00
1045.465, 16430.00
1046.570, 16366.00
1047.675, 16305.00
1048.779, 16428.00
1049.884, 16401.00
1050.988, 16331.00
1052.092, 16268.00
1053.196, 16253.00
1054.300, 16365.00
1055.404, 16250.00
1056.507, 15977.00
1057.610, 16080.00
1058.714, 16063.00
1059.817, 16130.00
1060.920, 16237.00
1062.022, 16136.00
1063.125, 16196.00
1064.228, 16195.56
1065.330, 16158.00
1066.432, 16198.00
1067.534, 16194.00
1068.636, 16189.00
1069.738, 16188.00
1070.840, 16316.00
1071.941, 16174.00
1073.042, 16317.00
1074.144, 16118.00
1075.245, 16281.00
1076.346, 16301.00
1077.446, 16273.00
1078.547, 16289.00
1079.647, 16275.00
1080.748, 16493.00
1081.848, 16525.00
1082.948, 16509.00
1084.048, 16623.00
1085.148, 16525.00
1086.247, 16683.00
1087.347, 16645.00
1088.446, 16767.00
1089.545, 16834.00
1090.644, 17124.00
1091.743, 17220.00
1092.842, 17259.00
1093.940, 17313.00
1095.039, 17562.00
1096.137, 17818.00
1097.235, 17642.00
1098.333, 17789.00
1099.431, 17648.00
1100.529, 17800.00
1101.627, 17587.00
1102.724, 17495.00
1103.822, 17623.00
1104.919, 17601.00
1106.016, 17439.00
1107.113, 17431.00
1108.209, 17565.00
1109.306, 17517.00
1110.402, 17553.00
1111.499, 17681.00
1112.595, 17870.00
1113.691, 18011.00
1114.787, 18263.00
1115.883, 18599.00
1116.978, 18971.00
1118.074, 19493.00
1119.169, 19957.00
1120.264, 20445.00
1121.359, 20557.00
1122.454, 20762.00
1123.549, 20999.00
1124.644, 20815.00
1125.738, 20723.00
1126.832, 20503.00
1127.927, 20351.00
1129.021, 20090.00
1130.115, 20101.00
1131.208, 20142.00
1132.302, 20319.00
1133.396, 20578.00
1134.489, 20785.00
1135.582, 21012.00
1136.675, 21247.00
1137.768, 21307.00
1138.861, 21121.00
1139.954, 21026.00
1141.046, 20499.00
1142.138, 20285.00
1143.231, 19725.00
1144.323, 19297.00
1145.415, 19088.00
1146.507, 18781.00
1147.598, 18595.00
1148.690, 18398.28
1149.781, 18102.00
1150.872, 18013.00
1151.964, 17852.00
1153.054, 17566.00
1154.145, 17602.00
1155.236, 17551.00
1156.327, 17701.00
1157.417, 17501.00
1158.507, 17487.86
1159.597, 17402.00
1160.687, 17321.00
1161.777, 17371.00
1162.867, 17355.00
1163.956, 17271.00
1165.046, 17325.00
1166.135, 17199.00
1167.224, 17110.00
1168.313, 17259.00
1169.402, 17205.00
1170.491, 17113.00
1171.580, 17198.00
1172.668, 17191.00
1173.756, 17252.00
1174.845, 17333.00
1175.933, 17328.71
1177.020, 17223.00
1178.108, 17328.00
1179.196, 17262.00
1180.283, 17178.00
1181.371, 17199.00
1182.458, 17111.00
1183.545, 17235.00
1184.632, 17192.00
1185.719, 17218.00
1186.805, 17136.00
1187.892, 17164.00
1188.978, 17387.00
1190.065, 17309.00
1191.151, 17253.00
1192.237, 17439.00
1193.323, 17392.00
1194.408, 17318.00
1195.494, 17277.00
1196.579, 17320.00
1197.664, 17456.00
1198.750, 17345.00
1199.835, 17274.00
1200.919, 17518.00
1202.004, 17479.00
1203.089, 17462.00
1204.173, 17394.00
1205.258, 17473.00
1206.342, 17468.00
1207.426, 17474.00
1208.510, 17427.00
1209.594, 17449.06
1210.677, 17430.00
1211.761, 17480.00
1212.844, 17431.00
1213.927, 17473.00
1215.010, 17584.00
1216.093, 17529.00
1217.176, 17456.00
1218.259, 17551.00
1219.341, 17494.00
1220.424, 17466.00
1221.506, 17535.00
1222.588, 17482.00
1223.670, 17592.00
1224.752, 17527.00
1225.834, 17654.00
1226.915, 17680.00
1227.997, 17481.00
1229.078, 17725.00
1230.159, 17612.00
1231.240, 17567.00
1232.321, 17664.00
1233.402, 17694.00
1234.483, 17707.21
1235.563, 17683.00
1236.644, 17746.00
1237.724, 17762.00
1238.804, 17756.00
1239.884, 17711.00
1240.964, 17587.00
1242.044, 17740.00
1243.123, 17567.00
1244.203, 17709.00
1245.282, 17834.00
1246.361, 17850.00
1247.440, 17659.00
1248.519, 17809.00
1249.598, 17728.00
1250.676, 17936.00
1251.755, 17813.00
1252.833, 17911.00
1253.911, 17741.00
1254.989, 18036.00
1256.067, 17998.00
1257.145, 18159.00
1258.223, 18043.00
1259.300, 17877.00
1260.378, 17882.00
1261.455, 17790.00
1262.532, 17821.77
1263.609, 17925.00
1264.686, 17908.00
1265.763, 18014.00
1266.840, 18005.00
1267.916, 17974.00
1268.992, 17915.00
1270.069, 18009.00
1271.145, 18049.00
1272.221, 18054.41
1273.296, 18048.00
1274.372, 18096.00
1275.448, 18184.00
1276.523, 18191.12
1277.598, 18072.00
1278.673, 18113.00
1279.749, 18195.00
1280.823, 18100.00
1281.898, 18143.00
1282.973, 18022.00
1284.047, 18190.00
1285.122, 18164.00
1286.196, 18106.00
1287.270, 18358.00
1288.344, 18296.45
1289.418, 18456.00
1290.491, 18379.00
1291.565, 18256.00
1292.638, 18280.00
1293.712, 18202.00
1294.785, 18415.00
1295.858, 18322.00
1296.931, 18560.00
1298.003, 18510.00
1299.076, 18379.00
1300.149, 18418.00
1301.221, 18431.00
1302.293, 18289.00
1303.365, 18383.00
1304.437, 18491.00
1305.509, 18490.00
1306.581, 18546.00
1307.652, 18598.00
