##NAMES=Microcline
##RRUFFID=R050150
##IDEAL CHEMISTRY=KAlSi_3_O_8_
##LOCALITY=Crystal Peak area, Park/Teller Counties, Colorado, USA
##OWNER=RRUFF
##SOURCE=Dave Bunk Minerals
##DESCRIPTION=Pale blue prismatic crystals
##STATUS=The identification of this mineral has been confirmed by X-ray diffraction and chemical analysis
##URL=rruff.info/R050150
##MEASURED CHEMISTRY=(K_0.95_Na_0.05_)_Î£=1_Al_1.00_Si_3.00_O_8_
##PIN_ID=L00941
##ORIENTATION=Laser parallel to (-1 0 -1). Fiducial mark perpendicular to laser is parallel to -b [0 -1 0]
137.6830, 14114.00
138.9210, 14597.00
140.1580, 15357.00
141.3950, 15944.00
142.6330, 16434.00
143.8690, 16968.00
145.1060, 17691.00
146.3430, 18339.00
147.5790, 19144.00
148.8150, 19971.00
150.0510, 21130.00
151.2870, 22492.00
152.5220, 23917.00
153.7580, 24986.00
154.9930, 25906.00
156.2280, 26171.00
157.4620, 26349.00
158.6970, 26442.00
159.9310, 27353.00
161.1660, 28251.00
162.4000, 29337.00
163.6330, 29587.00
164.8670, 29724.00
166.1000, 28924.00
167.3340, 27593.00
168.5670, 26425.00
169.8000, 25026.00
171.0320, 24218.00
172.2650, 24122.00
173.4970, 24338.00
174.7290, 24578.00
175.9610, 24870.00
177.1930, 25303.00
178.4240, 25766.00
179.6550, 25939.00
180.8870, 26136.00
182.1170, 26517.00
183.3480, 26639.00
184.5790, 26382.00
185.8090, 26514.00
187.0390, 26917.00
188.2690, 26598.00
189.4990, 25888.00
190.7290, 25093.00
191.9580, 24256.00
193.1870, 22984.00
194.4160, 22128.00
195.6450, 21524.00
196.8740, 20954.00
198.1020, 21271.00
199.3310, 21367.00
200.5590, 21994.00
201.7870, 22391.00
203.0140, 22325.00
204.2420, 22027.00
205.4690, 21927.00
206.6960, 21989.00
207.9230, 22193.00
209.1500, 22478.00
210.3760, 22573.00
211.6030, 22729.00
212.8290, 22821.00
214.0550, 21895.00
215.2810, 20467.00
216.5060, 19732.00
217.7320, 18833.00
218.9570, 16380.00
220.1820, 15552.00
221.4070, 15194.00
222.6320, 15013.00
223.8560, 14723.00
225.0800, 14439.00
226.3040, 14200.00
227.5280, 14108.00
228.7520, 14162.00
229.9760, 13989.00
231.1990, 13951.00
232.4220, 14042.00
233.6450, 14021.00
234.8680, 14077.00
236.0910, 14062.00
237.3130, 14146.00
238.5350, 14129.00
239.7570, 14197.00
240.9790, 14268.00
242.2010, 14394.00
243.4220, 14561.00
244.6430, 14723.00
245.8640, 14909.00
247.0850, 15068.00
248.3060, 15173.00
249.5270, 15236.00
250.7470, 15535.00
251.9670, 15611.00
253.1870, 15900.00
254.4070, 16148.00
255.6260, 16237.00
256.8460, 16409.00
258.0650, 16767.00
259.2840, 17274.00
260.5030, 17608.00
261.7220, 17514.00
262.9400, 17150.00
264.1580, 17399.00
265.3760, 17613.00
266.5940, 17611.00
267.8120, 17652.00
269.0290, 17821.00
270.2470, 17870.00
271.4640, 17872.00
272.6810, 17845.00
273.8980, 18123.00
275.1140, 18537.00
276.3310, 19093.00
277.5470, 19877.00
278.7630, 21027.00
279.9790, 22398.00
281.1940, 24512.00
282.4100, 26696.00
283.6250, 28605.00
284.8400, 29692.00
286.0550, 30357.00
287.2700, 31307.00
288.4850, 32389.00
289.6990, 33209.00
290.9130, 34190.00
292.1270, 34706.00
293.3410, 34172.00
294.5540, 33301.00
295.7680, 30704.00
296.9810, 27771.00
298.1940, 24783.00
299.4070, 22512.00
300.6200, 20592.00
301.8320, 19353.00
303.0450, 18235.00
304.2570, 17592.00
305.4690, 17443.00
306.6800, 16897.00
307.8920, 16682.00
309.1030, 16569.00
310.3150, 16433.00
311.5260, 16461.00
312.7360, 16513.00
313.9470, 16426.00
315.1580, 16326.00
316.3680, 16414.00
317.5780, 16376.00
318.7880, 16716.00
319.9980, 16875.00
321.2070, 17153.00
322.4170, 17551.00
323.6260, 17512.00
324.8350, 17754.00
326.0430, 17798.00
327.2520, 18030.00
328.4610, 18252.00
329.6690, 18464.00
330.8770, 18507.00
332.0850, 18369.23
333.2920, 18667.00
334.5000, 17726.00
335.7070, 17067.00
336.9140, 16395.00
338.1210, 16304.00
339.3280, 16031.00
340.5350, 15932.00
341.7410, 15757.00
342.9470, 15792.00
344.1540, 15785.00
345.3590, 15786.00
346.5650, 15708.00
347.7710, 15743.32
348.9760, 15599.00
350.1810, 15798.00
351.3860, 15701.00
352.5910, 15780.00
353.7950, 15679.00
355.0000, 15751.00
356.2040, 15724.00
357.4080, 15757.00
358.6120, 15632.00
359.8150, 15697.00
361.0190, 15549.00
362.2220, 15555.00
363.4250, 15679.00
364.6280, 15739.00
365.8310, 15779.62
367.0340, 15789.00
368.2360, 15897.00
369.4380, 15893.00
370.6400, 16003.00
371.8420, 15880.00
373.0440, 15978.00
374.2450, 15888.00
375.4470, 15859.00
376.6480, 15979.00
377.8490, 15692.00
379.0490, 16049.00
380.2500, 15897.00
381.4500, 15580.00
382.6510, 15768.00
383.8510, 15919.00
385.0500, 15736.00
386.2500, 15843.00
387.4500, 15779.00
388.6490, 15822.00
389.8480, 15916.00
391.0470, 16115.00
392.2460, 16304.00
393.4440, 16459.00
394.6430, 16446.00
395.8410, 16745.00
397.0390, 17040.00
398.2370, 17238.00
399.4340, 17679.00
400.6320, 17858.00
401.8290, 18253.00
403.0260, 18290.00
404.2230, 18280.00
405.4200, 18620.00
406.6170, 18681.00
407.8130, 18907.00
409.0090, 19093.00
410.2050, 19083.00
411.4010, 19024.00
412.5970, 18687.00
413.7920, 18035.00
414.9880, 17941.00
416.1830, 17600.00
417.3780, 17160.00
418.5730, 17155.00
419.7670, 17073.00
420.9620, 16965.00
422.1560, 16717.00
423.3500, 16653.00
424.5440, 16631.00
425.7380, 16393.00
426.9310, 16430.00
428.1240, 16497.00
429.3180, 16487.00
430.5110, 16619.00
431.7030, 16615.00
432.8960, 16579.00
434.0890, 16886.00
435.2810, 16768.00
436.4730, 16869.00
437.6650, 16854.00
438.8570, 16923.00
440.0480, 16819.00
441.2390, 17226.00
442.4310, 17359.00
443.6220, 17635.00
444.8120, 18070.00
446.0030, 18138.00
447.1940, 18726.00
448.3840, 19229.00
449.5740, 19654.00
450.7640, 20038.00
451.9540, 20397.00
453.1430, 20906.00
454.3330, 21092.00
455.5220, 21135.00
456.7110, 21707.00
457.9000, 21720.00
459.0890, 21372.00
460.2770, 21127.00
461.4650, 21018.00
462.6540, 20868.00
463.8420, 20927.00
465.0290, 21341.00
466.2170, 21970.00
467.4050, 23166.00
468.5920, 24591.00
469.7790, 26700.00
470.9660, 29233.00
472.1530, 31776.00
473.3390, 33997.00
474.5250, 35712.00
475.7120, 37564.03
476.8980, 38356.00
478.0840, 40339.00
479.2690, 41151.44
480.4550, 41952.00
481.6400, 41859.00
482.8250, 40227.00
484.0100, 37654.00
485.1950, 34184.00
486.3800, 30480.00
487.5640, 27944.00
488.7480, 25603.00
489.9320, 24465.00
491.1160, 23570.00
492.3000, 23648.00
493.4840, 23676.00
494.6670, 24136.00
495.8500, 25713.00
497.0330, 27454.00
498.2160, 30323.00
499.3990, 33874.00
500.5810, 37922.00
501.7630, 40918.00
502.9460, 43442.00
504.1280, 45379.00
505.3090, 48448.00
506.4910, 51432.00
507.6720, 54564.00
508.8540, 56548.00
510.0350, 57358.00
511.2160, 55850.00
512.3960, 52379.00
513.5770, 47934.00
514.7570, 42260.00
515.9380, 38090.00
517.1180, 34162.00
518.2970, 30763.00
519.4770, 28338.00
520.6570, 26255.00
521.8360, 24749.00
523.0150, 23686.00
524.1940, 22613.00
525.3730, 22182.00
526.5510, 21608.00
527.7300, 21265.00
528.9080, 20904.00
530.0860, 20574.00
531.2640, 20663.00
532.4420, 20105.00
533.6200, 19827.00
534.7970, 19831.00
535.9740, 19988.00
537.1510, 19649.00
538.3280, 19600.00
539.5050, 19357.00
540.6810, 19360.00
541.8580, 19411.00
543.0340, 19398.00
544.2100, 19119.00
545.3860, 19369.00
546.5610, 19049.00
547.7370, 19091.00
548.9120, 19236.00
550.0870, 19320.00
551.2620, 19299.04
552.4370, 19027.00
553.6120, 19256.00
554.7860, 19159.00
555.9600, 19169.00
557.1340, 19190.00
558.3080, 19231.00
559.4820, 19147.00
560.6560, 19065.00
561.8290, 19194.00
563.0020, 19194.00
564.1750, 19030.00
565.3480, 19204.00
566.5210, 19372.00
567.6930, 19464.00
568.8660, 19420.00
570.0380, 19570.00
571.2100, 19679.00
572.3820, 19653.00
573.5530, 19861.00
574.7250, 19895.00
575.8960, 20150.00
577.0670, 20340.00
578.2380, 20303.68
579.4090, 20230.00
580.5800, 20248.00
581.7500, 20297.00
582.9210, 20257.00
584.0910, 19940.00
585.2610, 19632.00
586.4300, 19589.00
587.6000, 19310.00
588.7690, 19239.00
589.9390, 19326.00
591.1080, 19317.00
592.2770, 19176.00
593.4450, 19171.00
594.6140, 19311.00
595.7820, 19178.00
596.9500, 19052.00
598.1190, 19080.00
599.2860, 18965.00
600.4540, 19008.00
601.6220, 19110.00
602.7890, 19093.00
603.9560, 19123.00
605.1230, 19100.00
606.2900, 19152.98
607.4570, 19201.00
608.6230, 19249.00
609.7890, 19276.00
610.9560, 19305.00
612.1220, 19237.00
613.2870, 19417.00
614.4530, 19315.00
615.6180, 19392.00
616.7840, 19451.00
617.9490, 19512.00
619.1140, 19678.00
620.2790, 19550.00
621.4430, 19469.00
622.6080, 19876.00
623.7720, 19733.00
624.9360, 19747.00
626.1000, 19748.00
627.2640, 19922.00
628.4270, 20126.00
629.5910, 20180.00
630.7540, 20163.00
631.9170, 20371.00
633.0800, 20449.00
634.2430, 20424.00
635.4050, 20222.00
636.5680, 20672.00
637.7300, 20439.00
638.8920, 20567.00
640.0540, 20623.00
641.2150, 20499.00
642.3770, 20578.00
643.5380, 20712.00
644.7000, 20946.00
645.8610, 20812.00
647.0210, 21054.00
648.1820, 21020.00
649.3430, 21234.00
650.5030, 21135.00
651.6630, 21138.00
652.8230, 20894.00
653.9830, 20737.00
655.1430, 20596.00
656.3020, 20579.00
657.4620, 20397.00
658.6210, 20590.00
659.7800, 20343.00
660.9390, 20389.00
662.0970, 20282.00
663.2560, 20160.00
664.4140, 20136.00
665.5720, 19979.00
666.7300, 20175.00
667.8880, 19970.00
669.0460, 19956.00
670.2030, 20146.00
671.3600, 20156.00
672.5180, 20026.00
673.6740, 20132.00
674.8310, 20238.00
675.9880, 20126.00
677.1440, 20167.00
678.3010, 19876.00
679.4570, 19998.00
680.6130, 20081.00
681.7690, 20208.00
682.9240, 20311.00
684.0800, 20126.00
685.2350, 20238.00
686.3900, 20272.00
687.5450, 20100.00
688.7000, 20311.00
689.8540, 20131.00
691.0090, 20147.00
692.1630, 20099.00
693.3170, 20093.00
694.4710, 20197.00
695.6250, 20262.00
696.7780, 20268.12
697.9320, 20406.00
699.0850, 20292.00
700.2380, 20383.00
701.3910, 20384.00
702.5440, 20501.00
703.6970, 20449.00
704.8490, 20409.00
706.0010, 20543.00
707.1530, 20458.00
708.3050, 20559.00
709.4570, 20503.00
710.6090, 20564.00
711.7600, 20552.00
712.9110, 20526.58
714.0620, 20640.00
715.2130, 20504.00
716.3640, 20708.00
717.5150, 20772.00
718.6650, 20743.00
719.8150, 20896.00
720.9650, 20994.00
722.1150, 20927.00
723.2650, 20867.00
724.4150, 20977.00
725.5640, 20922.00
726.7130, 20926.00
727.8630, 20810.00
729.0110, 20733.00
730.1600, 20965.00
731.3090, 20890.00
732.4570, 21085.00
733.6060, 21043.00
734.7540, 20958.00
735.9020, 21133.00
737.0490, 21463.00
738.1970, 21337.00
739.3440, 21524.00
740.4920, 21466.00
741.6390, 21535.00
742.7860, 21730.00
743.9320, 21957.00
745.0790, 22071.33
746.2250, 22273.00
747.3720, 22371.00
748.5180, 22445.00
749.6640, 22552.88
750.8100, 22620.48
751.9550, 22803.00
753.1010, 22795.00
754.2460, 22873.00
755.3910, 23029.00
756.5360, 23422.00
757.6810, 23602.00
758.8250, 23968.00
759.9700, 24356.00
761.1140, 24459.00
762.2580, 24729.00
763.4020, 25048.00
764.5460, 25288.00
765.6900, 25272.00
766.8330, 25005.00
767.9760, 24648.00
769.1200, 24416.00
770.2620, 24141.00
771.4050, 23805.00
772.5480, 23594.69
773.6900, 23396.51
774.8330, 23212.00
775.9750, 23082.00
777.1170, 23104.00
778.2590, 22950.00
779.4000, 22852.00
780.5420, 22730.07
781.6830, 22601.00
782.8240, 22422.00
783.9650, 22307.00
785.1060, 22164.00
786.2470, 22097.00
787.3870, 22068.00
788.5280, 21966.00
789.6680, 22082.00
790.8080, 22269.00
791.9480, 22249.00
793.0870, 22050.00
794.2270, 22189.00
795.3660, 22146.00
796.5060, 22243.00
797.6450, 22381.00
798.7830, 22449.00
799.9220, 22580.00
801.0610, 22569.00
802.1990, 22905.00
803.3370, 23298.00
804.4750, 23421.00
805.6130, 23799.00
806.7510, 24323.00
807.8890, 24934.00
809.0260, 25899.00
810.1630, 26327.00
811.3000, 26805.00
812.4370, 27547.00
813.5740, 27691.00
814.7110, 27899.00
815.8470, 27943.00
816.9830, 27736.00
818.1190, 27357.00
819.2550, 26620.00
820.3910, 25761.00
821.5270, 24786.00
822.6620, 24310.00
823.7970, 23907.00
824.9330, 23386.00
826.0670, 23288.00
827.2020, 23169.00
828.3370, 23179.00
829.4710, 22879.00
830.6060, 22847.00
831.7400, 22886.00
832.8740, 22741.00
834.0080, 22719.00
835.1410, 22885.00
836.2750, 22905.00
837.4080, 22780.00
838.5410, 22658.00
839.6740, 22809.00
840.8070, 22699.00
841.9400, 22692.00
843.0730, 22752.00
844.2050, 22628.00
845.3370, 22807.00
846.4690, 22825.00
847.6010, 22556.00
848.7330, 22926.00
849.8640, 22731.00
850.9960, 22833.00
852.1270, 22849.00
853.2580, 22588.00
854.3890, 22668.00
855.5200, 22888.00
856.6500, 22812.00
857.7810, 22930.00
858.9110, 22807.00
860.0410, 22899.00
861.1710, 22789.00
862.3010, 22993.00
863.4310, 23085.00
864.5600, 23019.00
865.6900, 22909.00
866.8190, 22843.00
867.9480, 22869.00
869.0770, 22988.00
870.2050, 22919.00
871.3340, 23072.00
872.4620, 22926.00
873.5900, 23104.00
874.7180, 23048.00
875.8460, 23179.00
876.9740, 22963.00
878.1010, 23060.00
879.2290, 22803.00
880.3560, 23314.00
881.4830, 23074.00
882.6100, 23248.00
883.7370, 23324.00
884.8630, 23371.00
885.9900, 23353.00
887.1160, 23353.73
888.2420, 23387.00
889.3680, 23283.00
890.4940, 23203.00
891.6200, 23179.00
892.7450, 23258.00
893.8700, 23342.00
894.9960, 23226.00
896.1210, 23467.00
897.2460, 23273.00
898.3700, 23605.00
899.4950, 23447.00
900.6190, 23666.00
901.7430, 23322.00
902.8670, 23603.00
903.9910, 23523.00
905.1150, 23365.00
906.2390, 23668.00
907.3620, 23769.00
908.4850, 23612.00
909.6080, 23627.00
910.7310, 23756.00
911.8540, 23907.00
912.9770, 23741.00
914.0990, 23877.00
915.2210, 23703.00
916.3440, 23968.00
917.4660, 23730.00
918.5870, 23829.00
919.7090, 23883.00
920.8310, 24139.00
921.9520, 23938.00
923.0730, 23872.00
924.1940, 24074.00
925.3150, 23912.00
926.4360, 24111.00
927.5560, 24161.00
928.6770, 24176.00
929.7970, 24262.00
930.9170, 24095.00
932.0370, 24108.00
933.1570, 24129.00
934.2760, 24162.00
935.3960, 24182.00
936.5150, 24258.00
937.6340, 24231.00
938.7530, 24244.00
939.8720, 24304.00
940.9910, 24218.00
942.1090, 24292.10
943.2280, 24356.00
944.3460, 24427.00
945.4640, 24387.00
946.5820, 24576.00
947.6990, 24436.00
948.8170, 24589.00
949.9340, 24415.00
951.0520, 24691.00
952.1690, 24759.00
953.2860, 24570.00
954.4030, 24800.00
955.5190, 24869.00
956.6360, 24700.00
957.7520, 24505.00
958.8680, 24738.00
959.9840, 24936.00
961.1000, 24748.00
962.2160, 24750.00
963.3310, 25172.00
964.4470, 24900.00
965.5620, 25155.00
966.6770, 25159.00
967.7920, 25341.00
968.9060, 25562.00
970.0210, 25387.00
971.1360, 25667.00
972.2500, 25844.00
973.3640, 25885.00
974.4780, 26151.00
975.5920, 26521.00
976.7050, 26315.00
977.8190, 26833.00
978.9320, 26521.00
980.0450, 26649.00
981.1580, 26320.00
982.2710, 26445.00
983.3840, 26113.00
984.4970, 26017.00
985.6090, 25826.00
986.7210, 25846.00
987.8330, 25794.00
988.9450, 25816.00
990.0570, 25835.00
991.1690, 26106.00
992.2800, 25995.00
993.3920, 26151.00
994.5030, 26164.00
995.6140, 26121.00
996.7250, 26082.00
997.8350, 26083.00
998.9460, 26181.00
1000.056, 26517.00
1001.167, 26293.00
1002.277, 26473.00
1003.387, 26743.00
1004.496, 26614.00
1005.606, 26813.00
1006.715, 27117.00
1007.825, 27099.00
1008.934, 27133.00
1010.043, 27154.00
1011.152, 27073.43
1012.260, 26980.00
1013.369, 26951.00
1014.477, 26962.00
1015.586, 27000.00
1016.694, 26812.00
1017.802, 26939.00
1018.909, 26724.00
1020.017, 26674.00
1021.124, 26617.00
1022.232, 26399.00
1023.339, 26683.00
1024.446, 26798.00
1025.553, 26440.00
1026.659, 26947.00
1027.766, 26976.00
1028.872, 27101.00
1029.979, 27450.00
1031.085, 27451.00
1032.191, 27559.00
1033.296, 27567.00
1034.402, 27500.00
1035.507, 27124.00
1036.613, 27158.00
1037.718, 26968.00
1038.823, 26847.00
1039.928, 26791.00
1041.032, 26692.56
1042.137, 26706.66
1043.241, 26606.00
1044.346, 26769.00
1045.450, 26766.00
1046.554, 26804.00
1047.657, 26849.00
1048.761, 26506.00
1049.864, 26572.00
1050.968, 26585.00
1052.071, 26659.00
1053.174, 26723.00
1054.277, 26510.00
1055.379, 26641.00
1056.482, 26564.00
1057.584, 26461.00
1058.687, 26668.00
1059.789, 26720.00
1060.891, 26792.00
1061.992, 26796.00
1063.094, 26646.00
1064.196, 26739.00
1065.297, 26582.00
1066.398, 26752.00
1067.499, 26583.00
1068.600, 26799.00
1069.701, 26799.00
1070.801, 26989.00
1071.902, 27156.00
1073.002, 27011.00
1074.102, 27084.00
1075.202, 27372.00
1076.302, 27263.00
1077.402, 27198.00
1078.501, 27430.00
1079.600, 27471.00
1080.700, 27658.00
1081.799, 27768.00
1082.898, 27737.00
1083.996, 28171.00
1085.095, 28391.00
1086.193, 28577.00
1087.292, 28679.00
1088.390, 29204.00
1089.488, 29789.00
1090.586, 30231.00
1091.683, 30861.00
1092.781, 31529.00
1093.878, 32178.00
1094.975, 32936.00
1096.073, 33926.00
1097.169, 34350.00
1098.266, 34865.00
1099.363, 35149.00
1100.459, 35122.00
1101.556, 34788.00
1102.652, 34336.00
1103.748, 34005.00
1104.844, 33211.00
1105.940, 32472.00
1107.035, 32102.00
1108.131, 32231.00
1109.226, 31559.00
1110.321, 31639.00
1111.416, 31360.00
1112.511, 31436.00
1113.605, 31776.00
1114.700, 31580.00
1115.794, 31597.00
1116.889, 31134.00
1117.983, 31470.00
1119.077, 31148.00
1120.170, 31068.00
1121.264, 30946.00
1122.357, 30411.00
1123.451, 30364.00
1124.544, 30280.00
1125.637, 29891.00
1126.730, 29877.00
1127.823, 29299.00
1128.915, 29178.00
1130.008, 29112.00
1131.100, 28734.00
1132.192, 28817.00
1133.284, 28731.00
1134.376, 28726.00
1135.467, 28691.00
1136.559, 28785.00
1137.650, 28831.00
1138.742, 28969.00
1139.833, 28710.00
1140.924, 28779.00
1142.014, 28767.00
1143.105, 28567.00
1144.195, 28628.00
1145.286, 28475.00
1146.376, 28501.00
1147.466, 28457.00
1148.556, 28314.00
1149.646, 28587.00
1150.735, 28435.00
1151.825, 28567.00
1152.914, 28457.00
1154.003, 28431.00
1155.092, 28304.00
1156.181, 28385.00
1157.270, 28450.00
1158.358, 28495.00
1159.447, 28255.00
1160.535, 28182.00
1161.623, 28239.00
1162.711, 28199.00
1163.799, 28247.00
1164.886, 28381.00
1165.974, 28387.00
1167.061, 28338.00
1168.148, 28419.00
1169.235, 28250.00
1170.322, 28434.00
1171.409, 28356.00
1172.496, 28106.00
1173.582, 28632.00
1174.669, 28287.00
1175.755, 28346.66
1176.841, 28618.00
1177.927, 28349.00
1179.012, 28263.00
1180.098, 28537.00
1181.183, 28670.00
1182.269, 28405.00
1183.354, 28596.00
1184.439, 28386.00
1185.524, 28585.00
1186.608, 28667.00
1187.693, 28402.00
1188.777, 28501.00
1189.862, 28743.00
1190.946, 28636.00
1192.030, 28615.00
1193.113, 28806.00
1194.197, 28679.00
1195.281, 28697.00
1196.364, 28562.00
1197.447, 28581.96
1198.530, 28628.00
1199.613, 28624.00
1200.696, 28518.00
1201.779, 28568.00
1202.861, 29163.00
1203.944, 28797.00
1205.026, 28947.00
1206.108, 28970.00
1207.190, 28827.00
1208.271, 28865.00
1209.353, 28677.00
1210.435, 28768.62
1211.516, 28961.00
1212.597, 28855.00
1213.678, 28925.00
1214.759, 28831.00
1215.840, 29175.00
1216.920, 29050.00
1218.001, 29117.00
1219.081, 29294.00
1220.161, 29293.00
1221.241, 29252.00
1222.321, 28985.00
1223.401, 29044.00
1224.480, 29000.00
1225.560, 29085.00
1226.639, 29337.00
1227.718, 29238.00
1228.797, 29102.00
1229.876, 29304.00
1230.955, 29514.00
1232.033, 29391.00
1233.112, 29404.00
1234.190, 29509.00
1235.268, 29317.00
1236.346, 29542.00
1237.424, 29487.00
1238.501, 29284.00
1239.579, 29229.00
1240.656, 29329.00
1241.733, 29314.00
1242.811, 29409.00
1243.888, 29515.00
1244.964, 29403.00
1246.041, 29524.00
1247.117, 29679.00
1248.194, 29557.00
1249.270, 29667.00
1250.346, 29650.00
1251.422, 29395.00
1252.498, 29647.00
1253.573, 29446.00
1254.649, 29825.00
1255.724, 29640.00
1256.800, 29847.00
1257.875, 29792.00
1258.950, 29788.00
1260.024, 29855.00
1261.099, 29814.00
1262.173, 29836.00
1263.248, 29876.00
1264.322, 29849.01
1265.396, 29878.00
1266.470, 29851.00
1267.544, 29740.00
1268.617, 29760.00
1269.691, 30109.00
1270.764, 29926.00
1271.837, 29956.00
1272.910, 30204.00
1273.983, 29987.00
1275.056, 30007.00
1276.129, 29960.00
1277.201, 30239.00
1278.273, 30008.00
1279.346, 30307.00
1280.418, 30020.00
1281.489, 30103.00
1282.561, 30175.00
1283.633, 30031.00
1284.704, 30246.00
1285.776, 30345.00
1286.847, 30455.00
1287.918, 30501.27
1288.989, 30401.00
1290.059, 30476.00
1291.130, 30365.00
1292.200, 30267.00
1293.271, 30348.00
1294.341, 30353.00
1295.411, 30402.00
1296.481, 30649.00
1297.551, 30338.00
1298.620, 30612.00
1299.690, 30533.00
1300.759, 30353.00
1301.828, 30664.00
1302.897, 30704.00
1303.966, 30583.00
1305.035, 30475.00
1306.103, 30565.00
1307.172, 30517.00
1308.240, 30685.00
1309.308, 30904.00
1310.376, 30687.00
1311.444, 30934.00
1312.512, 30763.00
