##NAMES=Microcline
##RRUFFID=R050193
##IDEAL CHEMISTRY=KAlSi_3_O_8_
##LOCALITY=Devil's Head, Douglas County, Colorado, USA
##OWNER=RRUFF
##SOURCE=Dave Bunk Minerals
##DESCRIPTION=White to colorless heterogeneous mixture of K and Na feldspar in a cluster of crystals. Crystal structure determined, presented below. This sample is known as an intermediate microcline in the literature.
##STATUS=The identification of this mineral has been confirmed by X-ray diffraction and chemical analysis
##URL=rruff.info/R050193
##MEASURED CHEMISTRY=(K_0.929_Na_0.071_)(Al_1.005_Si_2.994_Fe_0.001_)O_7.993_F_0.007_  ; Light Band :  (Na_0.973_K_0.007_Ca_0.020_)(Al_1.020_Si_2.980_)O_8_ ; Dark Band
##PIN_ID=L00422
##ORIENTATION=Laser parallel to b* (0 1 0). Fiducial mark perpendicular to laser is parallel to c [0 0 1]
130.2300, 7649.000
131.4640, 7739.000
132.6970, 7739.000
133.9300, 7812.000
135.1630, 7943.000
136.3950, 8388.000
137.6280, 8874.000
138.8600, 9631.000
140.0920, 10258.00
141.3240, 10971.00
142.5560, 11645.00
143.7880, 12225.00
145.0190, 12916.00
146.2510, 13402.26
147.4820, 13797.00
148.7130, 14279.00
149.9440, 14558.00
151.1750, 14783.00
152.4050, 14325.00
153.6360, 13857.00
154.8660, 13131.00
156.0960, 12195.00
157.3260, 11301.00
158.5560, 10651.00
159.7850, 10053.00
161.0150, 9415.000
162.2440, 9221.000
163.4730, 8758.000
164.7020, 8566.000
165.9310, 8443.000
167.1590, 8312.000
168.3880, 8158.000
169.6160, 8041.000
170.8440, 8055.000
172.0720, 8016.000
173.3000, 8132.000
174.5280, 8085.000
175.7550, 8090.000
176.9820, 8052.000
178.2100, 8047.000
179.4370, 8033.000
180.6630, 7890.000
181.8900, 7826.000
183.1170, 7805.000
184.3430, 7804.000
185.5690, 7727.000
186.7950, 7784.000
188.0210, 7743.000
189.2470, 7720.000
190.4720, 7853.000
191.6970, 7917.000
192.9230, 7832.000
194.1480, 7935.000
195.3730, 7871.000
196.5970, 7875.000
197.8220, 7860.000
199.0460, 7775.000
200.2700, 7793.000
201.4940, 7717.000
202.7180, 7697.000
203.9420, 7629.000
205.1660, 7431.000
206.3890, 7525.000
207.6120, 7316.000
208.8350, 7362.000
210.0580, 7400.000
211.2810, 7488.000
212.5040, 7467.000
213.7260, 7364.000
214.9480, 7456.000
216.1700, 7380.000
217.3920, 7439.000
218.6140, 7397.000
219.8360, 7495.000
221.0570, 7491.000
222.2790, 7447.000
223.5000, 7446.000
224.7210, 7513.000
225.9410, 7649.000
227.1620, 7507.000
228.3820, 7527.000
229.6030, 7511.000
230.8230, 7453.000
232.0430, 7521.000
233.2630, 7627.000
234.4820, 7565.000
235.7020, 7516.000
236.9210, 7706.000
238.1400, 7602.000
239.3590, 7730.000
240.5780, 7713.000
241.7970, 7868.000
243.0150, 7835.000
244.2340, 7961.000
245.4520, 8043.000
246.6700, 8198.000
247.8880, 8302.000
249.1060, 8567.000
250.3230, 8616.000
251.5400, 8969.000
252.7580, 9063.000
253.9750, 9207.000
255.1920, 9509.000
256.4080, 9965.000
257.6250, 10026.00
258.8410, 10398.00
260.0580, 10668.00
261.2740, 10621.00
262.4900, 10540.00
263.7050, 10644.00
264.9210, 10673.00
266.1360, 10825.00
267.3520, 10878.00
268.5670, 10902.00
269.7820, 11031.00
270.9960, 11069.00
272.2110, 11200.00
273.4250, 11281.00
274.6400, 11540.00
275.8540, 11733.00
277.0680, 11871.00
278.2810, 12100.00
279.4950, 12234.00
280.7090, 12225.00
281.9220, 12233.00
283.1350, 12195.00
284.3480, 11896.00
285.5610, 11696.00
286.7730, 11358.00
287.9860, 11124.00
289.1980, 10725.00
290.4100, 10445.00
291.6220, 10109.00
292.8340, 9935.000
294.0460, 9752.000
295.2570, 9661.000
296.4690, 9301.000
297.6800, 9210.000
298.8910, 9028.000
300.1020, 8927.000
301.3120, 8810.000
302.5230, 8738.000
303.7330, 8596.000
304.9440, 8513.000
306.1540, 8556.000
307.3630, 8317.000
308.5730, 8399.000
309.7830, 8383.000
310.9920, 8292.000
312.2010, 8276.000
313.4100, 8225.500
314.6190, 8269.000
315.8280, 8179.000
317.0370, 8223.000
318.2450, 8290.000
319.4530, 8384.000
320.6610, 8395.000
321.8690, 8506.000
323.0770, 8431.000
324.2850, 8493.000
325.4920, 8425.000
326.6990, 8533.000
327.9060, 8557.000
329.1130, 8539.000
330.3200, 8572.000
331.5270, 8534.000
332.7330, 8381.000
333.9390, 8482.000
335.1450, 8509.000
336.3510, 8352.000
337.5570, 8354.000
338.7630, 8271.000
339.9680, 8301.000
341.1740, 8279.000
342.3790, 8271.000
343.5840, 8391.000
344.7890, 8272.000
345.9930, 8309.000
347.1980, 8397.000
348.4020, 8267.000
349.6060, 8466.000
350.8100, 8605.000
352.0140, 8459.000
353.2180, 8572.000
354.4210, 8633.000
355.6250, 8682.000
356.8280, 8680.000
358.0310, 8710.000
359.2340, 8745.000
360.4360, 8832.000
361.6390, 8775.000
362.8410, 8964.000
364.0430, 9079.000
365.2450, 9075.000
366.4470, 9180.000
367.6490, 9194.000
368.8510, 9335.000
370.0520, 9300.000
371.2530, 9313.000
372.4540, 9236.000
373.6550, 9189.000
374.8560, 9094.000
376.0560, 9017.000
377.2570, 8949.000
378.4570, 8665.000
379.6570, 8743.000
380.8570, 8671.000
382.0570, 8750.000
383.2560, 8580.000
384.4560, 8673.000
385.6550, 8510.000
386.8540, 8679.000
388.0530, 8706.000
389.2520, 8854.000
390.4510, 8952.725
391.6490, 9042.000
392.8470, 9178.000
394.0450, 9351.000
395.2430, 9501.000
396.4410, 9632.000
397.6390, 9947.000
398.8360, 10090.00
400.0340, 10178.00
401.2310, 10446.00
402.4280, 10594.00
403.6250, 10770.00
404.8210, 10626.00
406.0180, 10482.00
407.2140, 10305.00
408.4100, 10224.00
409.6060, 10150.00
410.8020, 9923.000
411.9980, 9656.000
413.1930, 9426.000
414.3890, 9308.000
415.5840, 9194.000
416.7790, 9078.000
417.9740, 8936.000
419.1680, 8909.000
420.3630, 8807.000
421.5570, 8794.000
422.7510, 8855.000
423.9450, 8790.000
425.1390, 8770.000
426.3330, 8816.000
427.5270, 8815.000
428.7200, 8874.000
429.9130, 8870.000
431.1060, 8883.000
432.2990, 9040.000
433.4920, 9111.000
434.6840, 9045.000
435.8770, 9191.000
437.0690, 9290.000
438.2610, 9412.000
439.4530, 9570.000
440.6450, 9712.000
441.8360, 9964.000
443.0280, 10073.00
444.2190, 10233.00
445.4100, 10685.00
446.6010, 10923.00
447.7920, 11178.00
448.9820, 11517.00
450.1730, 11606.00
451.3630, 12007.00
452.5530, 12101.00
453.7430, 12207.00
454.9330, 12332.00
456.1230, 12286.00
457.3120, 12423.00
458.5010, 12458.00
459.6910, 12610.00
460.8800, 12949.00
462.0680, 13507.00
463.2570, 14321.00
464.4460, 15347.00
465.6340, 16349.00
466.8220, 18036.00
468.0100, 19138.00
469.1980, 20354.00
470.3860, 21476.00
471.5730, 22655.00
472.7600, 23433.00
473.9480, 23907.00
475.1350, 24111.00
476.3210, 23186.00
477.5080, 21962.00
478.6950, 20425.00
479.8810, 19072.00
481.0670, 17525.00
482.2530, 16320.00
483.4390, 15395.00
484.6250, 14497.00
485.8100, 13803.00
486.9960, 13390.00
488.1810, 12809.00
489.3660, 12454.00
490.5510, 12408.00
491.7360, 12229.00
492.9200, 12141.00
494.1050, 12344.00
495.2890, 12509.00
496.4730, 12848.00
497.6570, 13484.00
498.8400, 14092.00
500.0240, 15237.00
501.2070, 16634.00
502.3910, 18407.00
503.5740, 20258.00
504.7570, 22773.00
505.9400, 24940.00
507.1220, 27014.00
508.3050, 28692.00
509.4870, 30209.00
510.6690, 31568.00
511.8510, 31830.00
513.0330, 31513.00
514.2140, 30054.00
515.3960, 27995.00
516.5770, 25124.00
517.7580, 22271.00
518.9390, 19864.00
520.1200, 17737.00
521.3010, 16209.00
522.4810, 14982.00
523.6610, 13938.00
524.8420, 13229.00
526.0220, 12603.00
527.2010, 12147.00
528.3810, 11935.00
529.5610, 11608.00
530.7400, 11342.00
531.9190, 11264.00
533.0980, 10972.00
534.2770, 10734.00
535.4560, 10794.00
536.6340, 10616.00
537.8120, 10525.00
538.9910, 10497.00
540.1690, 10432.00
541.3460, 10432.00
542.5240, 10321.00
543.7020, 10277.00
544.8790, 10261.00
546.0560, 10205.00
547.2330, 10286.00
548.4100, 10109.00
549.5870, 10056.00
550.7630, 10136.00
551.9400, 10083.00
553.1160, 10066.00
554.2920, 10156.00
555.4680, 10083.00
556.6440, 10026.00
557.8190, 10191.00
558.9950, 10002.00
560.1700, 10143.00
561.3450, 10109.00
562.5200, 10178.00
563.6950, 10223.00
564.8690, 10170.00
566.0440, 10141.00
567.2180, 10076.00
568.3920, 10083.00
569.5660, 10102.00
570.7400, 10148.00
571.9130, 10190.00
573.0870, 10252.00
574.2600, 10251.68
575.4330, 10239.00
576.6060, 10212.00
577.7790, 10159.00
578.9520, 10172.91
580.1240, 10171.00
581.2960, 10183.00
582.4690, 10134.00
583.6410, 10136.00
584.8120, 10021.00
585.9840, 10162.00
587.1560, 10004.00
588.3270, 10019.00
589.4980, 10026.00
590.6690, 9957.000
591.8400, 10071.00
593.0110, 10058.00
594.1810, 10020.00
595.3510, 10059.00
596.5220, 10137.00
597.6920, 10001.00
598.8610, 10086.00
600.0310, 10040.00
601.2010, 10025.00
602.3700, 10044.00
603.5390, 10027.00
604.7080, 10189.00
605.8770, 10160.00
607.0460, 10154.00
608.2140, 10039.00
609.3830, 10132.00
610.5510, 9977.000
611.7190, 10256.00
612.8870, 10055.00
614.0550, 10126.00
615.2220, 10261.00
616.3900, 10214.00
617.5570, 10190.00
618.7240, 10309.00
619.8910, 10344.00
621.0580, 10322.00
622.2240, 10538.00
623.3910, 10379.00
624.5570, 10553.00
625.7230, 10586.00
626.8890, 10529.00
628.0550, 10412.00
629.2200, 10533.00
630.3860, 10553.00
631.5510, 10567.00
632.7160, 10507.00
633.8810, 10557.00
635.0460, 10547.02
636.2100, 10547.12
637.3750, 10584.00
638.5390, 10530.00
639.7030, 10569.00
640.8670, 10491.00
642.0310, 10564.00
643.1950, 10559.86
644.3580, 10755.00
645.5210, 10558.00
646.6850, 10764.00
647.8480, 10680.00
649.0100, 10772.00
650.1730, 10751.00
651.3350, 10815.00
652.4980, 10763.00
653.6600, 10897.00
654.8220, 10709.00
655.9840, 10601.00
657.1450, 10701.00
658.3070, 10614.00
659.4680, 10653.00
660.6300, 10443.00
661.7910, 10548.00
662.9510, 10450.00
664.1120, 10520.00
665.2730, 10536.00
666.4330, 10489.00
667.5930, 10500.10
668.7530, 10436.00
669.9130, 10441.00
671.0730, 10435.00
672.2320, 10413.00
673.3920, 10284.00
674.5510, 10344.00
675.7100, 10427.00
676.8690, 10474.00
678.0280, 10343.00
679.1860, 10411.00
680.3450, 10334.00
681.5030, 10308.00
682.6610, 10357.00
683.8190, 10307.00
684.9770, 10460.00
686.1340, 10420.00
687.2920, 10503.00
688.4490, 10363.00
689.6060, 10509.00
690.7630, 10448.00
691.9200, 10524.00
693.0760, 10434.00
694.2330, 10384.00
695.3890, 10308.00
696.5450, 10492.00
697.7010, 10516.00
698.8570, 10520.00
700.0130, 10526.00
701.1680, 10510.00
702.3230, 10555.00
703.4780, 10597.00
704.6330, 10488.00
705.7880, 10601.00
706.9430, 10559.00
708.0970, 10602.06
709.2520, 10688.00
710.4060, 10674.00
711.5600, 10758.00
712.7140, 10733.00
713.8670, 10867.00
715.0210, 10899.00
716.1740, 10870.00
717.3270, 10928.00
718.4800, 10828.00
719.6330, 10845.00
720.7860, 11016.00
721.9380, 10845.00
723.0910, 10915.00
724.2430, 10945.00
725.3950, 10949.00
726.5470, 10978.00
727.6980, 11005.00
728.8500, 11008.03
730.0010, 11058.00
731.1530, 11030.00
732.3040, 11113.00
733.4550, 11146.00
734.6050, 11374.00
735.7560, 11454.00
736.9060, 11544.00
738.0560, 11562.00
739.2060, 11784.00
740.3560, 11760.00
741.5060, 11958.00
742.6560, 11871.00
743.8050, 11992.00
744.9540, 12200.00
746.1030, 12157.00
747.2520, 12227.00
748.4010, 12251.00
749.5500, 12063.00
750.6980, 12111.00
751.8460, 12150.00
752.9950, 11936.00
754.1420, 11924.00
755.2900, 11808.00
756.4380, 11771.00
757.5850, 11616.00
758.7330, 11687.00
759.8800, 11626.00
761.0270, 11566.00
762.1730, 11576.00
763.3200, 11598.00
764.4670, 11546.00
765.6130, 11569.00
766.7590, 11357.00
767.9050, 11332.00
769.0510, 11391.00
770.1960, 11200.00
771.3420, 11262.00
772.4870, 11232.00
773.6320, 11160.00
774.7770, 11170.00
775.9220, 11119.00
777.0670, 11180.00
778.2110, 11321.00
779.3560, 11063.00
780.5000, 10959.00
781.6440, 11119.00
782.7880, 11180.00
783.9320, 11088.00
785.0750, 11059.00
786.2180, 11240.00
787.3620, 11058.00
788.5050, 11162.00
789.6480, 11237.00
790.7900, 11198.00
791.9330, 11330.00
793.0750, 11267.00
794.2170, 11095.00
795.3590, 11157.00
796.5010, 11324.00
797.6430, 11209.00
798.7850, 11290.00
799.9260, 11217.00
801.0670, 11315.00
802.2080, 11226.00
803.3490, 11301.00
804.4900, 11302.00
805.6310, 11221.00
806.7710, 11371.00
807.9110, 11300.00
809.0510, 11432.00
810.1910, 11469.00
811.3310, 11398.00
812.4710, 11295.00
813.6100, 11414.00
814.7490, 11275.00
815.8880, 11385.00
817.0270, 11368.00
818.1660, 11443.00
819.3050, 11440.64
820.4430, 11324.00
821.5820, 11381.00
822.7200, 11347.00
823.8580, 11225.00
824.9950, 11231.00
826.1330, 11411.00
827.2710, 11308.00
828.4080, 11269.00
829.5450, 11336.00
830.6820, 11290.00
831.8190, 11385.00
832.9560, 11381.00
834.0920, 11313.00
835.2280, 11332.00
836.3650, 11425.00
837.5010, 11353.00
838.6360, 11493.00
839.7720, 11418.00
840.9080, 11393.00
842.0430, 11468.00
843.1780, 11385.00
844.3130, 11421.71
845.4480, 11437.00
846.5830, 11449.00
847.7170, 11488.00
848.8520, 11534.00
849.9860, 11557.00
851.1200, 11512.00
852.2540, 11521.00
853.3870, 11486.00
854.5210, 11509.00
855.6540, 11554.00
856.7880, 11500.00
857.9210, 11576.00
859.0540, 11566.00
860.1860, 11483.00
861.3190, 11526.00
862.4510, 11488.74
863.5840, 11561.00
864.7160, 11497.00
865.8480, 11463.00
866.9790, 11522.00
868.1110, 11686.00
869.2420, 11597.00
870.3740, 11423.00
871.5050, 11630.00
872.6360, 11691.00
873.7660, 11583.00
874.8970, 11670.00
876.0280, 11597.00
877.1580, 11791.00
878.2880, 11745.00
879.4180, 11644.00
880.5480, 11620.00
881.6770, 11593.62
882.8070, 11672.00
883.9360, 11615.00
885.0650, 11615.00
886.1940, 11701.00
887.3230, 11902.00
888.4520, 11857.00
889.5800, 11701.00
890.7090, 11836.00
891.8370, 11692.00
892.9650, 11784.00
894.0930, 11927.00
895.2200, 11769.00
896.3480, 11777.00
897.4750, 11733.00
898.6020, 11818.00
899.7290, 11924.00
900.8560, 11889.00
901.9830, 11818.00
903.1090, 11822.00
904.2360, 11937.00
905.3620, 12030.00
906.4880, 11769.00
907.6140, 12129.00
908.7400, 11908.00
909.8650, 11884.00
910.9900, 11929.00
912.1160, 11883.00
913.2410, 11811.00
914.3660, 11991.00
915.4900, 11917.00
916.6150, 12142.00
917.7390, 11913.00
918.8640, 11939.00
919.9880, 12099.00
921.1120, 12043.00
922.2350, 12118.00
923.3590, 12019.00
924.4820, 12061.00
925.6060, 12109.00
926.7290, 12152.00
927.8520, 12228.00
928.9740, 12090.00
930.0970, 12166.00
931.2190, 12274.00
932.3420, 12094.00
933.4640, 12357.00
934.5860, 12267.00
935.7080, 12217.00
936.8290, 12273.00
937.9510, 12388.00
939.0720, 12284.00
940.1930, 12352.00
941.3140, 12189.00
942.4350, 12229.00
943.5560, 12168.00
944.6760, 12429.00
945.7960, 12351.00
946.9170, 12386.00
948.0370, 12377.00
949.1560, 12351.00
950.2760, 12279.00
951.3960, 12322.00
952.5150, 12315.00
953.6340, 12424.00
954.7530, 12390.00
955.8720, 12394.00
956.9910, 12352.00
958.1090, 12357.79
959.2280, 12395.00
960.3460, 12394.00
961.4640, 12413.00
962.5820, 12503.00
963.6990, 12515.65
964.8170, 12552.00
965.9340, 12615.00
967.0510, 12582.00
968.1690, 12646.00
969.2850, 12440.00
970.4020, 12666.00
971.5190, 12562.00
972.6350, 12670.00
973.7510, 12734.00
974.8670, 12780.00
975.9830, 12704.00
977.0990, 12744.00
978.2150, 12767.00
979.3300, 12784.53
980.4450, 12816.00
981.5600, 12884.00
982.6750, 12965.00
983.7900, 13029.00
984.9050, 13085.01
986.0190, 13144.21
987.1340, 13171.00
988.2480, 13246.00
989.3620, 13257.17
990.4750, 13308.76
991.5890, 13283.00
992.7020, 13310.00
993.8160, 13352.56
994.9290, 13307.00
996.0420, 13356.00
997.1550, 13288.00
998.2670, 13283.00
999.3800, 13359.00
1000.492, 13454.00
1001.604, 13395.00
1002.716, 13416.00
1003.828, 13383.00
1004.940, 13335.00
1006.051, 13503.00
1007.163, 13308.00
1008.274, 13507.00
1009.385, 13433.00
1010.496, 13225.00
1011.606, 13351.00
1012.717, 13397.00
1013.827, 13281.00
1014.937, 13498.00
1016.047, 13234.00
1017.157, 13457.00
1018.267, 13429.00
1019.377, 13393.00
1020.486, 13402.00
1021.595, 13450.00
1022.704, 13584.00
1023.813, 13639.00
1024.922, 13620.00
1026.030, 13601.00
1027.139, 13639.00
1028.247, 13658.00
1029.355, 13657.00
1030.463, 13615.00
1031.571, 13677.00
1032.678, 13662.79
1033.786, 13779.00
1034.893, 13702.00
1036.000, 13727.00
1037.107, 13771.00
1038.214, 13716.00
1039.321, 14065.00
1040.427, 13807.00
1041.533, 13989.00
1042.639, 13864.00
1043.745, 13804.00
1044.851, 13857.00
1045.957, 14030.00
1047.062, 13938.00
1048.168, 14161.00
1049.273, 13883.00
1050.378, 14104.00
1051.482, 14366.00
1052.587, 14226.00
1053.692, 14148.00
1054.796, 13972.00
1055.900, 14169.00
1057.004, 14042.00
1058.108, 13898.00
1059.212, 13989.00
1060.315, 13710.00
1061.418, 13820.00
1062.522, 13883.00
1063.625, 13946.00
1064.728, 13856.00
1065.830, 13714.00
1066.933, 13799.00
1068.035, 13724.00
1069.137, 13715.00
1070.239, 13657.00
1071.341, 13721.00
1072.443, 13650.00
1073.545, 13805.00
1074.646, 13903.00
1075.747, 13950.00
1076.848, 13975.00
1077.949, 13895.00
1079.050, 13805.00
1080.150, 14059.00
1081.251, 13962.00
1082.351, 14045.00
1083.451, 14022.00
1084.551, 14011.00
1085.651, 14231.00
1086.750, 14086.00
1087.850, 14254.00
1088.949, 14432.00
1090.048, 14292.00
1091.147, 14440.00
1092.246, 14429.00
1093.345, 14582.00
1094.443, 14497.00
1095.541, 14623.00
1096.639, 14654.00
1097.737, 14721.00
1098.835, 14838.00
1099.933, 14957.00
1101.030, 14930.00
1102.128, 14771.00
1103.225, 15070.00
1104.322, 15027.00
1105.419, 15251.00
1106.515, 15470.00
1107.612, 15642.00
1108.708, 15717.00
1109.804, 15812.00
1110.900, 15904.00
1111.996, 16274.00
1113.092, 16457.00
1114.187, 16862.00
1115.283, 17158.00
1116.378, 17575.00
1117.473, 17812.00
1118.568, 18135.00
1119.662, 18450.00
1120.757, 18597.00
1121.851, 18868.00
1122.946, 19007.00
1124.040, 19146.00
1125.134, 18832.00
1126.227, 18489.00
1127.321, 18355.00
1128.414, 18271.00
1129.508, 18107.00
1130.601, 17883.00
1131.693, 17689.00
1132.786, 17626.00
1133.879, 17603.00
1134.971, 17359.00
1136.064, 17490.00
1137.156, 17221.00
1138.248, 17107.00
1139.339, 16899.00
1140.431, 16737.88
1141.522, 16682.00
1142.614, 16447.00
1143.705, 16310.00
1144.796, 16186.00
1145.887, 16091.00
1146.977, 15945.00
1148.068, 15679.00
1149.158, 15521.00
1150.248, 15396.00
1151.338, 15236.00
1152.428, 15263.00
1153.518, 15104.00
1154.607, 14970.00
1155.696, 15059.00
1156.785, 14911.00
1157.874, 14881.00
1158.963, 14913.00
1160.052, 14869.00
1161.141, 14833.92
1162.229, 14797.12
1163.317, 14771.00
1164.405, 14645.00
1165.493, 14691.00
1166.581, 14546.00
1167.668, 14637.00
1168.756, 14656.00
1169.843, 14698.00
1170.930, 14532.00
1172.017, 14557.00
1173.103, 14833.00
1174.190, 14728.00
1175.276, 14543.00
1176.363, 14475.00
1177.449, 14740.00
1178.535, 14687.00
1179.620, 14698.00
1180.706, 14688.00
1181.791, 14538.00
1182.877, 14603.00
1183.962, 14546.00
1185.047, 14647.00
1186.131, 14510.00
1187.216, 14508.00
1188.300, 14490.00
1189.385, 14558.00
1190.469, 14559.00
1191.553, 14565.00
1192.637, 14592.75
1193.720, 14539.00
1194.804, 14620.00
1195.887, 14556.00
1196.970, 14576.00
1198.053, 14698.00
1199.136, 14618.00
1200.219, 14748.00
1201.301, 14701.00
1202.383, 14609.00
1203.465, 14677.00
1204.547, 14688.00
1205.629, 14700.00
1206.711, 14586.00
1207.792, 14618.00
1208.874, 14640.00
1209.955, 14768.00
1211.036, 14543.00
1212.117, 14864.00
1213.198, 14680.00
1214.278, 14731.00
1215.359, 14813.00
1216.439, 14843.00
1217.519, 14775.00
1218.599, 14793.00
1219.678, 14793.62
1220.758, 14825.92
1221.837, 14814.00
1222.917, 14899.00
1223.996, 14923.00
1225.075, 14872.00
1226.153, 14904.00
1227.232, 14882.00
1228.310, 14844.00
1229.389, 14951.00
1230.467, 14787.00
1231.545, 14916.00
1232.622, 14786.00
1233.700, 14899.00
1234.777, 14967.00
1235.855, 14830.00
1236.932, 14964.00
1238.009, 14919.00
1239.086, 14912.00
1240.162, 15108.00
1241.239, 15032.00
1242.315, 14862.00
1243.391, 14984.00
1244.467, 15034.00
1245.543, 15095.00
1246.619, 15087.00
1247.694, 15038.00
1248.769, 15044.00
1249.844, 15080.00
1250.919, 15110.00
1251.994, 15095.00
1253.069, 15069.00
1254.144, 15186.00
1255.218, 15204.00
1256.292, 15261.00
1257.366, 15125.00
1258.440, 15038.00
1259.514, 15167.00
1260.587, 15180.00
1261.661, 15264.00
1262.734, 15087.00
1263.807, 15124.00
1264.880, 15255.00
1265.952, 15353.00
1267.025, 15180.00
1268.097, 15355.00
1269.170, 15294.00
1270.242, 15391.00
1271.314, 15313.00
1272.385, 15205.00
1273.457, 15334.00
1274.528, 15392.00
1275.600, 15211.00
1276.671, 15369.00
1277.742, 15400.00
1278.812, 15380.00
1279.883, 15329.00
1280.954, 15339.00
1282.024, 15323.00
1283.094, 15576.00
1284.164, 15313.00
1285.234, 15561.00
1286.303, 15558.00
1287.373, 15313.00
1288.442, 15565.00
1289.511, 15381.00
1290.580, 15507.00
1291.649, 15455.00
