##NAMES=Microcline
##RRUFFID=R050150
##IDEAL CHEMISTRY=KAlSi_3_O_8_
##LOCALITY=Crystal Peak area, Park/Teller Counties, Colorado, USA
##OWNER=RRUFF
##SOURCE=Dave Bunk Minerals
##DESCRIPTION=Pale blue prismatic crystals
##STATUS=The identification of this mineral has been confirmed by X-ray diffraction and chemical analysis
##URL=rruff.info/R050150
##MEASURED CHEMISTRY=(K_0.95_Na_0.05_)_Î£=1_Al_1.00_Si_3.00_O_8_
##PIN_ID=L00961
##ORIENTATION=Laser parallel to b* (0 1 0). Fiducial mark perpendicular to laser is parallel to c [0 0 1]
131.4920, 18835.00
132.7300, 18570.00
133.9690, 18758.00
135.2070, 19570.00
136.4450, 21075.00
137.6830, 23063.00
138.9210, 25215.00
140.1580, 26907.00
141.3950, 27554.00
142.6330, 27707.00
143.8690, 28330.00
145.1060, 29757.00
146.3430, 31944.00
147.5790, 34712.00
148.8150, 37478.00
150.0510, 39931.00
151.2870, 41250.00
152.5220, 42065.00
153.7580, 43517.00
154.9930, 45115.00
156.2280, 46315.00
157.4620, 46285.00
158.6970, 44427.00
159.9310, 41030.00
161.1660, 37204.00
162.4000, 32986.00
163.6330, 29519.00
164.8670, 26687.00
166.1000, 24234.00
167.3340, 22529.00
168.5670, 21265.00
169.8000, 20491.00
171.0320, 20148.00
172.2650, 19721.00
173.4970, 19451.00
174.7290, 19582.00
175.9610, 19568.00
177.1930, 19983.00
178.4240, 19906.00
179.6550, 19678.00
180.8870, 19365.00
182.1170, 18842.00
183.3480, 18377.00
184.5790, 17928.00
185.8090, 17633.00
187.0390, 17463.00
188.2690, 17382.58
189.4990, 17439.49
190.7290, 17594.00
191.9580, 17845.00
193.1870, 18231.00
194.4160, 18634.00
195.6450, 19041.00
196.8740, 19841.00
198.1020, 20171.00
199.3310, 20477.00
200.5590, 20087.00
201.7870, 19317.00
203.0140, 18511.00
204.2420, 17678.00
205.4690, 17090.00
206.6960, 16580.00
207.9230, 16219.00
209.1500, 16072.00
210.3760, 15851.00
211.6030, 15879.00
212.8290, 15728.00
214.0550, 15666.00
215.2810, 15758.00
216.5060, 15755.00
217.7320, 15732.00
218.9570, 15579.00
220.1820, 15503.00
221.4070, 15675.00
222.6320, 15838.00
223.8560, 16036.00
225.0800, 15968.00
226.3040, 16091.00
227.5280, 15966.00
228.7520, 16035.00
229.9760, 15902.00
231.1990, 15983.00
232.4220, 16179.00
233.6450, 16160.00
234.8680, 16142.00
236.0910, 16264.00
237.3130, 16285.00
238.5350, 16406.00
239.7570, 16432.00
240.9790, 16695.00
242.2010, 16935.00
243.4220, 17144.00
244.6430, 17597.00
245.8640, 17918.00
247.0850, 18975.00
248.3060, 19405.00
249.5270, 20362.00
250.7470, 21046.00
251.9670, 22233.00
253.1870, 23621.00
254.4070, 25245.00
255.6260, 27173.00
256.8460, 28896.00
258.0650, 29736.00
259.2840, 30171.00
260.5030, 29333.00
261.7220, 27724.00
262.9400, 27473.00
264.1580, 27284.00
265.3760, 27391.00
266.5940, 27110.00
267.8120, 26381.00
269.0290, 25878.00
270.2470, 24954.00
271.4640, 24595.00
272.6810, 24801.00
273.8980, 25061.00
275.1140, 26375.00
276.3310, 27749.00
277.5470, 29394.00
278.7630, 31475.00
279.9790, 33870.00
281.1940, 36677.00
282.4100, 39604.00
283.6250, 41819.00
284.8400, 43328.00
286.0550, 42709.00
287.2700, 40242.00
288.4850, 36982.00
289.6990, 33553.00
290.9130, 29780.00
292.1270, 26914.00
293.3410, 24775.00
294.5540, 23413.00
295.7680, 22102.00
296.9810, 21492.00
298.1940, 20823.00
299.4070, 20379.00
300.6200, 19963.00
301.8320, 19644.00
303.0450, 19138.00
304.2570, 18983.00
305.4690, 18559.00
306.6800, 18469.00
307.8920, 18150.00
309.1030, 18121.00
310.3150, 17885.00
311.5260, 17754.00
312.7360, 17694.00
313.9470, 17620.00
315.1580, 17733.00
316.3680, 17819.00
317.5780, 17776.00
318.7880, 17824.00
319.9980, 17990.00
321.2070, 18099.00
322.4170, 18556.00
323.6260, 18867.00
324.8350, 19332.00
326.0430, 19732.00
327.2520, 20178.00
328.4610, 21054.00
329.6690, 21873.00
330.8770, 22225.00
332.0850, 22460.00
333.2920, 22262.00
334.5000, 21391.00
335.7070, 20639.00
336.9140, 19963.00
338.1210, 19403.40
339.3280, 18985.00
340.5350, 18601.00
341.7410, 18459.00
342.9470, 18369.00
344.1540, 18434.00
345.3590, 18207.00
346.5650, 18319.00
347.7710, 18225.00
348.9760, 18313.00
350.1810, 18507.00
351.3860, 18347.00
352.5910, 18720.00
353.7950, 18792.00
355.0000, 18923.00
356.2040, 19008.00
357.4080, 18872.00
358.6120, 18918.00
359.8150, 18813.00
361.0190, 19026.00
362.2220, 18917.00
363.4250, 18917.00
364.6280, 19151.00
365.8310, 19223.00
367.0340, 19668.00
368.2360, 19836.00
369.4380, 20455.00
370.6400, 20681.00
371.8420, 21118.00
373.0440, 21040.00
374.2450, 20865.00
375.4470, 20392.00
376.6480, 19891.00
377.8490, 19342.00
379.0490, 18989.00
380.2500, 18748.00
381.4500, 18701.00
382.6510, 18353.00
383.8510, 18283.00
385.0500, 18245.00
386.2500, 18566.00
387.4500, 18345.00
388.6490, 18356.00
389.8480, 18568.00
391.0470, 18545.00
392.2460, 18468.00
393.4440, 18594.00
394.6430, 18643.00
395.8410, 18948.00
397.0390, 19009.00
398.2370, 19302.00
399.4340, 19391.00
400.6320, 19514.00
401.8290, 19927.00
403.0260, 20016.00
404.2230, 20186.00
405.4200, 20515.00
406.6170, 19701.00
407.8130, 19434.00
409.0090, 19469.00
410.2050, 19567.00
411.4010, 19417.00
412.5970, 19407.00
413.7920, 19432.00
414.9880, 19242.00
416.1830, 19271.00
417.3780, 18809.00
418.5730, 18864.00
419.7670, 18833.00
420.9620, 18703.00
422.1560, 18718.00
423.3500, 18635.00
424.5440, 18857.00
425.7380, 18601.00
426.9310, 18853.00
428.1240, 18754.00
429.3180, 18838.00
430.5110, 18900.90
431.7030, 18957.38
432.8960, 19044.13
434.0890, 19168.00
435.2810, 19185.00
436.4730, 19279.00
437.6650, 19308.00
438.8570, 19487.00
440.0480, 19599.00
441.2390, 19895.00
442.4310, 20261.00
443.6220, 20491.00
444.8120, 20952.00
446.0030, 21692.00
447.1940, 22124.00
448.3840, 22904.00
449.5740, 23695.00
450.7640, 24606.00
451.9540, 25534.00
453.1430, 26064.00
454.3330, 26337.00
455.5220, 26132.00
456.7110, 25430.00
457.9000, 24607.00
459.0890, 24259.00
460.2770, 23695.00
461.4650, 23432.00
462.6540, 23294.00
463.8420, 23815.00
465.0290, 24325.00
466.2170, 25101.00
467.4050, 26309.00
468.5920, 27389.00
469.7790, 29168.00
470.9660, 31038.00
472.1530, 32883.00
473.3390, 35349.00
474.5250, 36871.00
475.7120, 37604.00
476.8980, 37371.00
478.0840, 35677.00
479.2690, 33797.00
480.4550, 32321.00
481.6400, 30853.00
482.8250, 30192.00
484.0100, 29471.00
485.1950, 28685.00
486.3800, 27273.00
487.5640, 26305.00
488.7480, 25216.00
489.9320, 24632.00
491.1160, 23834.00
492.3000, 23359.00
493.4840, 23381.00
494.6670, 23460.00
495.8500, 23482.00
497.0330, 23793.00
498.2160, 24407.00
499.3990, 25317.00
500.5810, 26289.00
501.7630, 27903.00
502.9460, 29957.00
504.1280, 32602.53
505.3090, 35925.00
506.4910, 39507.00
507.6720, 43761.00
508.8540, 48588.00
510.0350, 54158.00
511.2160, 59319.00
512.3960, 63286.00
513.5770, 64316.00
514.7570, 62333.00
515.9380, 57828.00
517.1180, 51377.00
518.2970, 45471.00
519.4770, 40104.00
520.6570, 35606.00
521.8360, 32627.00
523.0150, 29933.00
524.1940, 27994.00
525.3730, 26936.00
526.5510, 25652.00
527.7300, 25075.00
528.9080, 24352.53
530.0860, 23838.52
531.2640, 23497.00
532.4420, 23208.00
533.6200, 22955.00
534.7970, 22684.00
535.9740, 22550.00
537.1510, 22344.00
538.3280, 22384.00
539.5050, 22088.00
540.6810, 22125.00
541.8580, 22027.00
543.0340, 21851.00
544.2100, 21603.00
545.3860, 21966.00
546.5610, 21747.00
547.7370, 21742.00
548.9120, 21821.00
550.0870, 21727.00
551.2620, 21537.00
552.4370, 21699.00
553.6120, 21727.00
554.7860, 21765.00
555.9600, 21567.00
557.1340, 21625.00
558.3080, 21467.00
559.4820, 21557.00
560.6560, 21653.00
561.8290, 21637.00
563.0020, 21590.00
564.1750, 21579.00
565.3480, 21633.00
566.5210, 21752.00
567.6930, 21745.00
568.8660, 21790.79
570.0380, 21840.00
571.2100, 21779.00
572.3820, 21811.00
573.5530, 21732.00
574.7250, 21863.00
575.8960, 21923.00
577.0670, 21944.00
578.2380, 22077.00
579.4090, 22176.00
580.5800, 22176.00
581.7500, 22406.00
582.9210, 22388.00
584.0910, 22487.00
585.2610, 22280.00
586.4300, 22236.00
587.6000, 22101.00
588.7690, 22038.00
589.9390, 22043.00
591.1080, 21922.00
592.2770, 21920.00
593.4450, 21864.00
594.6140, 21763.00
595.7820, 21800.00
596.9500, 21750.00
598.1190, 21771.00
599.2860, 21778.00
600.4540, 21791.11
601.6220, 21857.00
602.7890, 21877.00
603.9560, 21910.00
605.1230, 22006.00
606.2900, 22185.00
607.4570, 22180.00
608.6230, 22069.00
609.7890, 22253.00
610.9560, 22175.00
612.1220, 22111.00
613.2870, 22149.00
614.4530, 22299.00
615.6180, 22360.00
616.7840, 22447.54
617.9490, 22479.89
619.1140, 22565.62
620.2790, 22650.86
621.4430, 22749.00
622.6080, 22861.00
623.7720, 23032.00
624.9360, 23194.00
626.1000, 23208.00
627.2640, 23458.00
628.4270, 23670.00
629.5910, 23491.00
630.7540, 23458.00
631.9170, 23471.00
633.0800, 23490.00
634.2430, 23291.00
635.4050, 23559.00
636.5680, 23291.00
637.7300, 23524.00
638.8920, 23640.00
640.0540, 23611.00
641.2150, 23743.00
642.3770, 23811.00
643.5380, 24112.00
644.7000, 24253.00
645.8610, 24296.00
647.0210, 24732.00
648.1820, 24938.00
649.3430, 24867.00
650.5030, 24792.00
651.6630, 25144.00
652.8230, 25251.00
653.9830, 24935.00
655.1430, 25001.00
656.3020, 24811.00
657.4620, 24670.00
658.6210, 24594.00
659.7800, 24253.00
660.9390, 23940.00
662.0970, 23998.00
663.2560, 23762.00
664.4140, 23527.00
665.5720, 23484.00
666.7300, 23603.00
667.8880, 23533.00
669.0460, 23397.00
670.2030, 23200.00
671.3600, 23297.00
672.5180, 23142.00
673.6740, 23187.00
674.8310, 23163.00
675.9880, 23149.00
677.1440, 23351.00
678.3010, 23076.00
679.4570, 23153.00
680.6130, 23130.00
681.7690, 23314.00
682.9240, 23239.00
684.0800, 23485.00
685.2350, 23628.00
686.3900, 23306.00
687.5450, 23525.00
688.7000, 23335.00
689.8540, 23252.00
691.0090, 23255.00
692.1630, 23416.00
693.3170, 23222.00
694.4710, 23311.00
695.6250, 23563.00
696.7780, 23186.00
697.9320, 23515.00
699.0850, 23424.00
700.2380, 23401.00
701.3910, 23481.00
702.5440, 23285.00
703.6970, 23473.00
704.8490, 23480.00
706.0010, 23632.00
707.1530, 23600.00
708.3050, 23616.00
709.4570, 23768.00
710.6090, 23697.00
711.7600, 23344.00
712.9110, 23827.00
714.0620, 23626.00
715.2130, 23451.00
716.3640, 23694.00
717.5150, 23488.00
718.6650, 23576.00
719.8150, 23838.00
720.9650, 23688.00
722.1150, 23862.00
723.2650, 23936.00
724.4150, 23774.00
725.5640, 23815.00
726.7130, 23929.00
727.8630, 24083.00
729.0110, 23809.00
730.1600, 24000.00
731.3090, 24060.00
732.4570, 24344.00
733.6060, 24427.00
734.7540, 24437.00
735.9020, 24549.00
737.0490, 24672.00
738.1970, 24855.00
739.3440, 25065.42
740.4920, 25302.00
741.6390, 25570.00
742.7860, 25979.00
743.9320, 26266.00
745.0790, 26587.00
746.2250, 26869.00
747.3720, 27508.00
748.5180, 27475.00
749.6640, 27412.00
750.8100, 27296.00
751.9550, 26895.00
753.1010, 26379.00
754.2460, 26057.00
755.3910, 25751.43
756.5360, 25577.00
757.6810, 25310.00
758.8250, 25156.00
759.9700, 25049.00
761.1140, 25192.00
762.2580, 25235.00
763.4020, 25199.00
764.5460, 25185.00
765.6900, 25053.00
766.8330, 25163.00
767.9760, 25164.00
769.1200, 25070.00
770.2620, 25177.00
771.4050, 24952.00
772.5480, 24896.00
773.6900, 25116.00
774.8330, 24985.00
775.9750, 24815.00
777.1170, 24879.00
778.2590, 24934.00
779.4000, 24846.00
780.5420, 24707.00
781.6830, 24953.00
782.8240, 24707.00
783.9650, 24794.00
785.1060, 24895.00
786.2470, 25072.00
787.3870, 24952.00
788.5280, 24920.00
789.6680, 24906.00
790.8080, 24853.79
791.9480, 24855.19
793.0870, 24921.00
794.2270, 24880.00
795.3660, 25136.00
796.5060, 25244.00
797.6450, 25189.00
798.7830, 25333.00
799.9220, 25639.00
801.0610, 25631.00
802.1990, 25513.00
803.3370, 25828.00
804.4750, 25972.00
805.6130, 26085.00
806.7510, 26374.00
807.8890, 26885.00
809.0260, 27260.00
810.1630, 27993.00
811.3000, 27961.00
812.4370, 28356.00
813.5740, 28379.00
814.7110, 28247.00
815.8470, 27732.00
816.9830, 27107.00
818.1190, 26573.00
819.2550, 26579.00
820.3910, 26423.00
821.5270, 25910.00
822.6620, 25747.00
823.7970, 25621.00
824.9330, 25767.00
826.0670, 25683.00
827.2020, 25794.00
828.3370, 25798.90
829.4710, 25770.85
830.6060, 25809.00
831.7400, 25717.00
832.8740, 25685.00
834.0080, 25627.00
835.1410, 25396.00
836.2750, 25575.00
837.4080, 25538.00
838.5410, 25673.00
839.6740, 25785.00
840.8070, 25595.00
841.9400, 25704.00
843.0730, 25682.00
844.2050, 25754.00
845.3370, 25767.00
846.4690, 25775.00
847.6010, 25882.00
848.7330, 25731.00
849.8640, 25654.00
850.9960, 25950.00
852.1270, 25769.00
853.2580, 25927.00
854.3890, 25895.00
855.5200, 26049.00
856.6500, 25934.00
857.7810, 25773.00
858.9110, 26003.00
860.0410, 26126.00
861.1710, 26072.57
862.3010, 25888.00
863.4310, 26116.00
864.5600, 25969.00
865.6900, 26065.00
866.8190, 26177.00
867.9480, 26342.00
869.0770, 26151.00
870.2050, 26099.00
871.3340, 26344.00
872.4620, 25970.00
873.5900, 26113.00
874.7180, 26070.00
875.8460, 26180.00
876.9740, 26348.00
878.1010, 26308.95
879.2290, 26479.00
880.3560, 26395.00
881.4830, 26256.00
882.6100, 26408.00
883.7370, 26278.00
884.8630, 26335.00
885.9900, 26267.00
887.1160, 26323.00
888.2420, 26409.00
889.3680, 26402.00
890.4940, 26467.00
891.6200, 26429.00
892.7450, 26615.00
893.8700, 26517.00
894.9960, 26445.00
896.1210, 26616.00
897.2460, 26542.00
898.3700, 26555.00
899.4950, 26694.00
900.6190, 26648.00
901.7430, 26861.00
902.8670, 26707.00
903.9910, 26803.00
905.1150, 26583.00
906.2390, 26774.00
907.3620, 26907.00
908.4850, 26548.00
909.6080, 26866.00
910.7310, 26821.00
911.8540, 26945.00
912.9770, 26879.00
914.0990, 26799.00
915.2210, 26605.00
916.3440, 26848.00
917.4660, 26987.00
918.5870, 27109.00
919.7090, 27055.00
920.8310, 27194.00
921.9520, 27052.00
923.0730, 26922.00
924.1940, 27252.00
925.3150, 27130.00
926.4360, 27237.00
927.5560, 27281.00
928.6770, 27135.00
929.7970, 27283.00
930.9170, 27310.00
932.0370, 27321.00
933.1570, 27344.00
934.2760, 27318.00
935.3960, 27234.00
936.5150, 27251.15
937.6340, 27266.48
938.7530, 27284.00
939.8720, 27390.00
940.9910, 27401.43
942.1090, 27421.26
943.2280, 27486.00
944.3460, 27479.00
945.4640, 27509.00
946.5820, 27649.00
947.6990, 27616.00
948.8170, 27675.46
949.9340, 27639.00
951.0520, 27731.00
952.1690, 27744.00
953.2860, 27796.00
954.4030, 27801.95
955.5190, 27829.88
956.6360, 27782.00
957.7520, 27863.00
958.8680, 27847.00
959.9840, 27842.00
961.1000, 27759.00
962.2160, 27946.00
963.3310, 28143.00
964.4470, 27921.00
965.5620, 27964.00
966.6770, 27823.00
967.7920, 28147.00
968.9060, 28160.00
970.0210, 28050.00
971.1360, 28306.00
972.2500, 28257.00
973.3640, 28223.00
974.4780, 28285.00
975.5920, 28323.00
976.7050, 28312.00
977.8190, 28565.00
978.9320, 28490.00
980.0450, 28547.00
981.1580, 28592.00
982.2710, 28577.00
983.3840, 28882.00
984.4970, 28892.00
985.6090, 29118.00
986.7210, 29226.00
987.8330, 29141.00
988.9450, 29830.00
990.0570, 29600.00
991.1690, 30095.00
992.2800, 30340.00
993.3920, 30451.00
994.5030, 30854.00
995.6140, 30970.00
996.7250, 30793.00
997.8350, 30938.00
998.9460, 31036.00
1000.056, 31303.00
1001.167, 31425.00
1002.277, 31342.00
1003.387, 31351.00
1004.496, 31214.00
1005.606, 30950.00
1006.715, 30789.00
1007.825, 30497.00
1008.934, 30416.00
1010.043, 30075.00
1011.152, 30040.00
1012.260, 29932.00
1013.369, 29844.00
1014.477, 29839.00
1015.586, 29753.00
1016.694, 29501.00
1017.802, 29631.00
1018.909, 29527.00
1020.017, 29841.00
1021.124, 29663.00
1022.232, 29963.00
1023.339, 29852.00
1024.446, 29711.00
1025.553, 29760.00
1026.659, 30030.00
1027.766, 30154.00
1028.872, 29978.00
1029.979, 30514.00
1031.085, 30319.00
1032.191, 30598.00
1033.296, 30360.00
1034.402, 30474.00
1035.507, 30764.00
1036.613, 30839.00
1037.718, 30804.00
1038.823, 30787.00
1039.928, 30812.00
1041.032, 30959.00
1042.137, 30575.00
1043.241, 30487.00
1044.346, 30647.00
1045.450, 30475.00
1046.554, 30381.00
1047.657, 30379.00
1048.761, 30272.00
1049.864, 30342.00
1050.968, 30474.00
1052.071, 30670.00
1053.174, 30188.00
1054.277, 30105.00
1055.379, 30313.00
1056.482, 30020.00
1057.584, 30133.00
1058.687, 29975.00
1059.789, 29752.00
1060.891, 29831.00
1061.992, 29991.00
1063.094, 29923.00
1064.196, 29894.00
1065.297, 30066.00
1066.398, 29926.00
1067.499, 30129.00
1068.600, 29945.00
1069.701, 29937.00
1070.801, 30067.00
1071.902, 30003.00
1073.002, 30062.00
1074.102, 30289.00
1075.202, 30121.00
1076.302, 30219.00
1077.402, 30039.00
1078.501, 30228.00
1079.600, 30202.00
1080.700, 30199.00
1081.799, 30210.00
1082.898, 30150.00
1083.996, 30156.00
1085.095, 30467.00
1086.193, 30331.00
1087.292, 30578.00
1088.390, 30619.00
1089.488, 30682.00
1090.586, 30574.00
1091.683, 30749.00
1092.781, 30689.00
1093.878, 30828.00
1094.975, 30786.00
1096.073, 31012.00
1097.169, 30852.00
1098.266, 30998.00
1099.363, 30801.00
1100.459, 31008.00
1101.556, 31103.00
1102.652, 31150.00
1103.748, 31186.00
1104.844, 31218.00
1105.940, 31382.00
1107.035, 31436.00
1108.131, 31584.00
1109.226, 31745.00
1110.321, 31712.00
1111.416, 32031.00
1112.511, 31965.00
1113.605, 32530.00
1114.700, 32736.00
1115.794, 33402.00
1116.889, 33714.00
1117.983, 34042.00
1119.077, 34870.00
1120.170, 35196.00
1121.264, 35937.00
1122.357, 36370.00
1123.451, 36392.00
1124.544, 36319.00
1125.637, 36088.00
1126.730, 35667.00
1127.823, 35407.00
1128.915, 34965.00
1130.008, 34900.00
1131.100, 34827.00
1132.192, 34863.00
1133.284, 35096.00
1134.376, 35337.00
1135.467, 35524.00
1136.559, 35578.00
1137.650, 35684.00
1138.742, 35895.00
1139.833, 35468.00
1140.924, 34826.00
1142.014, 34480.00
1143.105, 34253.00
1144.195, 33818.00
1145.286, 33340.00
1146.376, 33158.00
1147.466, 32861.00
1148.556, 32555.00
1149.646, 32499.00
1150.735, 32322.00
1151.825, 32098.00
1152.914, 32002.00
1154.003, 31658.00
1155.092, 31950.00
1156.181, 32044.00
1157.270, 32016.00
1158.358, 31776.00
1159.447, 31932.00
1160.535, 32453.00
1161.623, 31729.00
1162.711, 32038.00
1163.799, 31723.00
1164.886, 31695.00
1165.974, 31745.00
1167.061, 31806.00
1168.148, 31884.00
1169.235, 31828.10
1170.322, 31803.11
1171.409, 31732.00
1172.496, 31680.00
1173.582, 31687.00
1174.669, 31720.00
1175.755, 31752.00
1176.841, 31642.00
1177.927, 31674.00
1179.012, 31640.00
1180.098, 31741.00
1181.183, 31716.00
1182.269, 31743.00
1183.354, 31701.00
1184.439, 31710.00
1185.524, 31833.00
1186.608, 32102.00
1187.693, 31746.00
1188.777, 31867.00
1189.862, 31979.00
1190.946, 31847.00
1192.030, 31786.00
1193.113, 31858.00
1194.197, 31846.00
1195.281, 31815.00
1196.364, 31859.10
1197.447, 31843.91
1198.530, 31892.00
1199.613, 31901.00
1200.696, 31918.00
1201.779, 32034.00
1202.861, 32042.00
1203.944, 32044.00
1205.026, 32191.00
1206.108, 32228.00
1207.190, 32220.00
1208.271, 32072.00
1209.353, 32139.00
1210.435, 32087.00
1211.516, 32114.00
1212.597, 32059.00
1213.678, 31916.00
1214.759, 32044.00
1215.840, 32091.00
1216.920, 32208.00
1218.001, 32515.00
1219.081, 32142.00
1220.161, 32275.00
1221.241, 32393.00
1222.321, 32130.00
1223.401, 32360.00
1224.480, 32324.00
1225.560, 32553.00
1226.639, 32592.29
1227.718, 32343.00
1228.797, 32662.00
1229.876, 32546.00
1230.955, 32466.00
1232.033, 32446.00
1233.112, 32518.00
1234.190, 32388.00
1235.268, 32374.00
1236.346, 32410.80
1237.424, 32600.00
1238.501, 32507.00
1239.579, 32570.00
1240.656, 32683.00
1241.733, 32643.00
1242.811, 32722.00
1243.888, 32560.00
1244.964, 32692.00
1246.041, 32613.60
1247.117, 32680.00
1248.194, 32588.00
1249.270, 32609.00
1250.346, 32715.00
1251.422, 32843.00
1252.498, 32937.00
1253.573, 32795.00
1254.649, 32764.00
1255.724, 32898.00
1256.800, 32881.00
1257.875, 32917.00
1258.950, 32919.00
1260.024, 32803.00
1261.099, 32857.00
1262.173, 32946.00
1263.248, 33106.00
1264.322, 33041.00
1265.396, 32947.00
1266.470, 32998.00
1267.544, 33054.00
1268.617, 32866.00
1269.691, 33044.00
1270.764, 33102.00
1271.837, 33001.00
1272.910, 32976.00
1273.983, 33040.00
1275.056, 33395.00
1276.129, 33389.00
1277.201, 33160.00
1278.273, 33447.00
1279.346, 32990.00
1280.418, 33332.00
1281.489, 33013.00
1282.561, 33106.00
1283.633, 33332.00
1284.704, 33281.00
1285.776, 33312.00
1286.847, 33377.00
1287.918, 33365.00
1288.989, 33325.00
1290.059, 33297.00
1291.130, 33395.00
1292.200, 33519.00
1293.271, 33484.04
1294.341, 33474.00
1295.411, 33480.00
1296.481, 33551.00
1297.551, 33547.00
1298.620, 33497.00
1299.690, 33686.00
1300.759, 33856.00
1301.828, 33591.00
1302.897, 33735.00
1303.966, 33814.00
1305.035, 33847.00
1306.103, 34113.00
1307.172, 33707.00
