##NAMES=Microcline
##RRUFFID=R050193
##IDEAL CHEMISTRY=KAlSi_3_O_8_
##LOCALITY=Devil's Head, Douglas County, Colorado, USA
##OWNER=RRUFF
##SOURCE=Dave Bunk Minerals
##DESCRIPTION=White to colorless heterogeneous mixture of K and Na feldspar in a cluster of crystals. Crystal structure determined, presented below. This sample is known as an intermediate microcline in the literature.
##STATUS=The identification of this mineral has been confirmed by X-ray diffraction and chemical analysis
##URL=rruff.info/R050193
##MEASURED CHEMISTRY=(K_0.929_Na_0.071_)(Al_1.005_Si_2.994_Fe_0.001_)O_7.993_F_0.007_  ; Light Band :  (Na_0.973_K_0.007_Ca_0.020_)(Al_1.020_Si_2.980_)O_8_ ; Dark Band
##PIN_ID=L01707
##ORIENTATION=Laser parallel to (-1 0 -1). Fiducial mark perpendicular to laser is parallel to b [0 1 0]
148.7130, 19139.00
149.9440, 19321.00
151.1750, 19547.00
152.4050, 19636.00
153.6360, 19461.00
154.8660, 19286.00
156.0960, 19188.00
157.3260, 19184.00
158.5560, 19113.34
159.7850, 19117.00
161.0150, 19152.00
162.2440, 19074.00
163.4730, 19199.00
164.7020, 19251.00
165.9310, 19155.00
167.1590, 19142.00
168.3880, 19163.00
169.6160, 19260.00
170.8440, 19449.00
172.0720, 19371.00
173.3000, 19480.00
174.5280, 19559.00
175.7550, 19470.00
176.9820, 19763.00
178.2100, 19608.00
179.4370, 19819.00
180.6630, 19901.00
181.8900, 19944.00
183.1170, 20037.00
184.3430, 20103.00
185.5690, 20234.00
186.7950, 20342.00
188.0210, 20324.72
189.2470, 20074.00
190.4720, 20216.00
191.6970, 20183.00
192.9230, 19993.00
194.1480, 20007.00
195.3730, 20125.00
196.5970, 20010.00
197.8220, 19931.00
199.0460, 20008.00
200.2700, 19984.00
201.4940, 20082.00
202.7180, 20140.00
203.9420, 20077.00
205.1660, 20301.00
206.3890, 20347.00
207.6120, 20486.00
208.8350, 20405.00
210.0580, 20740.00
211.2810, 20604.00
212.5040, 20463.00
213.7260, 20493.00
214.9480, 20241.00
216.1700, 20215.67
217.3920, 20174.00
218.6140, 20089.00
219.8360, 20073.00
221.0570, 20085.00
222.2790, 19952.00
223.5000, 20275.00
224.7210, 20010.00
225.9410, 20304.00
227.1620, 20153.00
228.3820, 20203.00
229.6030, 20091.00
230.8230, 20109.00
232.0430, 20119.00
233.2630, 20169.00
234.4820, 20152.00
235.7020, 20276.00
236.9210, 20232.00
238.1400, 20365.00
239.3590, 20316.00
240.5780, 20469.00
241.7970, 20537.00
243.0150, 20601.00
244.2340, 20621.00
245.4520, 20691.58
246.6700, 20717.00
247.8880, 20821.00
249.1060, 20858.00
250.3230, 20968.00
251.5400, 21012.00
252.7580, 21071.57
253.9750, 21134.62
255.1920, 21203.00
256.4080, 21212.00
257.6250, 21328.00
258.8410, 21327.18
260.0580, 21397.82
261.2740, 21396.00
262.4900, 21584.00
263.7050, 21510.00
264.9210, 21745.00
266.1360, 21687.00
267.3520, 21958.00
268.5670, 22171.00
269.7820, 22087.00
270.9960, 21994.00
272.2110, 22250.00
273.4250, 22089.00
274.6400, 22014.00
275.8540, 22059.00
277.0680, 22222.00
278.2810, 21995.00
279.4950, 22248.00
280.7090, 22155.00
281.9220, 22401.00
283.1350, 22616.00
284.3480, 22493.00
285.5610, 22648.00
286.7730, 22835.00
287.9860, 22959.00
289.1980, 23021.00
290.4100, 23063.94
291.6220, 23209.00
292.8340, 22950.00
294.0460, 22924.00
295.2570, 22670.00
296.4690, 22707.00
297.6800, 22291.00
298.8910, 22276.00
300.1020, 22211.00
301.3120, 22182.00
302.5230, 22279.00
303.7330, 22226.00
304.9440, 22016.00
306.1540, 22189.00
307.3630, 22089.00
308.5730, 22263.00
309.7830, 22241.00
310.9920, 22169.00
312.2010, 22211.00
313.4100, 22255.38
314.6190, 22291.96
315.8280, 22372.00
317.0370, 22462.00
318.2450, 22408.00
319.4530, 22526.00
320.6610, 22446.00
321.8690, 22605.00
323.0770, 22671.00
324.2850, 22620.00
325.4920, 22863.00
326.6990, 22911.00
327.9060, 22923.00
329.1130, 22840.00
330.3200, 22920.00
331.5270, 23032.00
332.7330, 22783.00
333.9390, 22945.00
335.1450, 22919.00
336.3510, 23024.00
337.5570, 22962.00
338.7630, 22844.00
339.9680, 22826.00
341.1740, 22739.00
342.3790, 22979.00
343.5840, 22948.00
344.7890, 22967.00
345.9930, 22839.00
347.1980, 22953.00
348.4020, 23047.00
349.6060, 23048.00
350.8100, 22983.00
352.0140, 23018.00
353.2180, 23131.00
354.4210, 23187.00
355.6250, 23222.00
356.8280, 23335.00
358.0310, 23368.00
359.2340, 23412.00
360.4360, 23203.00
361.6390, 23305.00
362.8410, 23198.00
364.0430, 23210.58
365.2450, 23301.00
366.4470, 23273.00
367.6490, 23399.00
368.8510, 23454.00
370.0520, 23373.00
371.2530, 23664.00
372.4540, 23652.00
373.6550, 23583.00
374.8560, 23753.00
376.0560, 23660.00
377.2570, 23665.00
378.4570, 23644.00
379.6570, 23654.00
380.8570, 23670.00
382.0570, 23786.00
383.2560, 23893.00
384.4560, 23746.00
385.6550, 24075.00
386.8540, 23840.00
388.0530, 23765.00
389.2520, 23839.00
390.4510, 23797.67
391.6490, 23919.00
392.8470, 24004.00
394.0450, 24145.00
395.2430, 24214.94
396.4410, 24290.00
397.6390, 24420.00
398.8360, 24457.00
400.0340, 24667.00
401.2310, 24422.00
402.4280, 24704.00
403.6250, 24515.00
404.8210, 24589.00
406.0180, 24724.00
407.2140, 24639.00
408.4100, 24761.00
409.6060, 24985.00
410.8020, 24845.00
411.9980, 24867.00
413.1930, 25075.00
414.3890, 25090.00
415.5840, 25013.00
416.7790, 25057.47
417.9740, 24974.67
419.1680, 24976.00
420.3630, 24894.00
421.5570, 24891.00
422.7510, 24980.00
423.9450, 24762.00
425.1390, 24889.00
426.3330, 24883.00
427.5270, 25049.00
428.7200, 24894.00
429.9130, 24927.00
431.1060, 25050.00
432.2990, 24918.00
433.4920, 25132.00
434.6840, 25178.00
435.8770, 25062.00
437.0690, 25109.00
438.2610, 25232.00
439.4530, 25341.00
440.6450, 25363.00
441.8360, 25521.00
443.0280, 25471.00
444.2190, 25546.00
445.4100, 25691.00
446.6010, 25825.00
447.7920, 25892.00
448.9820, 26034.00
450.1730, 25994.00
451.3630, 26316.00
452.5530, 26550.00
453.7430, 26583.00
454.9330, 26526.00
456.1230, 26811.00
457.3120, 26777.00
458.5010, 27064.00
459.6910, 26788.00
460.8800, 26664.00
462.0680, 26555.00
463.2570, 26560.95
464.4460, 26712.00
465.6340, 26728.00
466.8220, 26919.00
468.0100, 27033.00
469.1980, 27336.00
470.3860, 27628.00
471.5730, 27605.00
472.7600, 28085.00
473.9480, 28363.00
475.1350, 28729.00
476.3210, 29200.00
477.5080, 29574.00
478.6950, 29771.00
479.8810, 30061.00
481.0670, 29557.00
482.2530, 29031.00
483.4390, 28603.00
484.6250, 28206.00
485.8100, 27931.00
486.9960, 27567.00
488.1810, 27171.00
489.3660, 27072.51
490.5510, 27251.00
491.7360, 27039.00
492.9200, 27145.00
494.1050, 27530.00
495.2890, 27677.00
496.4730, 27946.00
497.6570, 27946.00
498.8400, 28372.00
500.0240, 28691.00
501.2070, 29114.00
502.3910, 29730.00
503.5740, 30311.00
504.7570, 31173.00
505.9400, 31983.00
507.1220, 32678.00
508.3050, 33281.00
509.4870, 34216.00
510.6690, 32358.00
511.8510, 31558.00
513.0330, 31138.00
514.2140, 30579.00
515.3960, 29957.00
516.5770, 29629.00
517.7580, 29056.00
518.9390, 28756.00
520.1200, 28401.00
521.3010, 28373.00
522.4810, 28174.00
523.6610, 28145.00
524.8420, 27912.00
526.0220, 27832.00
527.2010, 27991.00
528.3810, 27805.00
529.5610, 27744.00
530.7400, 27842.00
531.9190, 27935.00
533.0980, 27700.00
534.2770, 28037.00
535.4560, 27747.00
536.6340, 27874.00
537.8120, 27856.00
538.9910, 27791.00
540.1690, 27893.00
541.3460, 27709.00
542.5240, 28005.00
543.7020, 28106.00
544.8790, 27816.00
546.0560, 27989.00
547.2330, 28142.00
548.4100, 28015.00
549.5870, 28167.00
550.7630, 28200.00
551.9400, 28162.00
553.1160, 28086.00
554.2920, 28156.00
555.4680, 28252.00
556.6440, 28134.00
557.8190, 28267.00
558.9950, 28464.00
560.1700, 28210.00
561.3450, 28194.00
562.5200, 28388.00
563.6950, 28303.00
564.8690, 28470.00
566.0440, 28547.00
567.2180, 28522.00
568.3920, 28568.00
569.5660, 28631.00
570.7400, 28686.00
571.9130, 28848.00
573.0870, 28779.00
574.2600, 28685.00
575.4330, 28860.00
576.6060, 28693.00
577.7790, 28794.00
578.9520, 28901.00
580.1240, 28919.00
581.2960, 28902.00
582.4690, 28877.00
583.6410, 28829.00
584.8120, 28817.00
585.9840, 28783.00
587.1560, 29092.00
588.3270, 28825.00
589.4980, 29249.00
590.6690, 28971.00
591.8400, 28996.00
593.0110, 29047.00
594.1810, 29047.00
595.3510, 29133.00
596.5220, 29151.00
597.6920, 29026.00
598.8610, 29275.00
600.0310, 29478.00
601.2010, 29388.00
602.3700, 29091.00
603.5390, 29350.00
604.7080, 29293.00
605.8770, 29285.00
607.0460, 29649.00
608.2140, 29482.00
609.3830, 29316.00
610.5510, 29721.00
611.7190, 29515.00
612.8870, 29584.00
614.0550, 29716.00
615.2220, 29581.00
616.3900, 29591.00
617.5570, 29757.00
618.7240, 29738.00
619.8910, 29911.00
621.0580, 29953.00
622.2240, 29949.50
623.3910, 30047.00
624.5570, 29922.00
625.7230, 29977.00
626.8890, 29954.00
628.0550, 30173.00
629.2200, 29879.00
630.3860, 30095.00
631.5510, 30315.00
632.7160, 30147.00
633.8810, 30302.00
635.0460, 30152.00
636.2100, 30111.00
637.3750, 30641.00
638.5390, 30265.00
639.7030, 30525.00
640.8670, 30347.00
642.0310, 30599.00
643.1950, 30550.00
644.3580, 30616.00
645.5210, 30551.00
646.6850, 30602.00
647.8480, 30483.00
649.0100, 30776.00
650.1730, 30890.00
651.3350, 30772.00
652.4980, 30693.00
653.6600, 30919.00
654.8220, 30755.00
655.9840, 31059.00
657.1450, 30943.00
658.3070, 30731.00
659.4680, 30842.00
660.6300, 30706.00
661.7910, 30940.00
662.9510, 31130.00
664.1120, 30929.00
665.2730, 30860.00
666.4330, 31023.00
667.5930, 31443.00
668.7530, 31183.00
669.9130, 31148.00
671.0730, 31281.00
672.2320, 31093.00
673.3920, 31251.00
674.5510, 31229.00
675.7100, 31069.00
676.8690, 31475.00
678.0280, 31158.00
679.1860, 31165.00
680.3450, 31347.00
681.5030, 31419.00
682.6610, 31298.00
683.8190, 31493.00
684.9770, 31461.00
686.1340, 31487.00
687.2920, 31556.00
688.4490, 31734.00
689.6060, 31644.00
690.7630, 31736.00
691.9200, 31571.00
693.0760, 31661.00
694.2330, 31686.00
695.3890, 31658.00
696.5450, 31781.00
697.7010, 31759.00
698.8570, 32086.00
700.0130, 31944.00
701.1680, 32001.00
702.3230, 32131.00
703.4780, 32032.00
704.6330, 31984.00
705.7880, 32246.00
706.9430, 31961.00
708.0970, 32143.00
709.2520, 32164.00
710.4060, 32147.00
711.5600, 32395.00
712.7140, 32307.00
713.8670, 32330.00
715.0210, 32270.00
716.1740, 32417.00
717.3270, 32545.00
718.4800, 32573.00
719.6330, 32550.00
720.7860, 32524.00
721.9380, 32756.00
723.0910, 32739.00
724.2430, 32608.00
725.3950, 32713.00
726.5470, 32478.00
727.6980, 32713.00
728.8500, 32811.00
730.0010, 32741.00
731.1530, 33029.00
732.3040, 32953.00
733.4550, 33053.00
734.6050, 33277.00
735.7560, 33104.00
736.9060, 33130.00
738.0560, 33063.00
739.2060, 33104.85
740.3560, 33333.00
741.5060, 33287.00
742.6560, 33522.00
743.8050, 33692.00
744.9540, 33467.00
746.1030, 33512.00
747.2520, 33738.00
748.4010, 33645.00
749.5500, 33712.00
750.6980, 33777.00
751.8460, 33804.00
752.9950, 33786.00
754.1420, 33949.00
755.2900, 33919.00
756.4380, 34284.00
757.5850, 34298.00
758.7330, 34304.00
759.8800, 34697.00
761.0270, 34851.00
762.1730, 35186.00
763.3200, 34878.00
764.4670, 34947.00
765.6130, 34749.00
766.7590, 35109.00
767.9050, 34796.00
769.0510, 34747.00
770.1960, 34665.00
771.3420, 34516.00
772.4870, 34326.00
773.6320, 34629.00
774.7770, 34584.00
775.9220, 34318.00
777.0670, 34607.00
778.2110, 34407.00
779.3560, 34394.00
780.5000, 34595.00
781.6440, 34488.00
782.7880, 34400.00
783.9320, 34425.00
785.0750, 34614.00
786.2180, 34498.00
787.3620, 34621.00
788.5050, 34711.00
789.6480, 34688.00
790.7900, 34815.00
791.9330, 34766.00
793.0750, 34814.00
794.2170, 35070.00
795.3590, 34815.00
796.5010, 34854.00
797.6430, 35174.00
798.7850, 34990.00
799.9260, 35119.00
801.0670, 35124.00
802.2080, 35057.00
803.3490, 35163.00
804.4900, 35304.00
805.6310, 35196.00
806.7710, 35591.00
807.9110, 35703.00
809.0510, 35604.00
810.1910, 35929.00
811.3310, 36058.00
812.4710, 36181.00
813.6100, 36773.00
814.7490, 36686.00
815.8880, 36775.00
817.0270, 36572.00
818.1660, 36335.00
819.3050, 36314.00
820.4430, 36139.00
821.5820, 36104.00
822.7200, 35859.00
823.8580, 35977.00
824.9950, 35859.00
826.1330, 35956.00
827.2710, 36231.00
828.4080, 35904.00
829.5450, 36213.00
830.6820, 35966.00
831.8190, 36226.00
832.9560, 35847.00
834.0920, 36000.00
835.2280, 35878.00
836.3650, 36012.00
837.5010, 35952.00
838.6360, 36121.00
839.7720, 36076.00
840.9080, 36135.00
842.0430, 36249.00
843.1780, 36415.00
844.3130, 36364.00
845.4480, 36527.00
846.5830, 36480.00
847.7170, 36572.12
848.8520, 36451.00
849.9860, 36638.00
851.1200, 36571.00
852.2540, 36404.00
853.3870, 36756.00
854.5210, 36555.00
855.6540, 36521.00
856.7880, 36736.00
857.9210, 36579.00
859.0540, 36638.00
860.1860, 37038.00
861.3190, 36754.00
862.4510, 36817.00
863.5840, 37031.00
864.7160, 37052.00
865.8480, 37012.00
866.9790, 37031.00
868.1110, 37124.00
869.2420, 37085.00
870.3740, 37127.00
871.5050, 37293.00
872.6360, 37405.00
873.7660, 37485.00
874.8970, 37438.00
876.0280, 37376.00
877.1580, 37397.00
878.2880, 37457.72
879.4180, 37593.00
880.5480, 37647.00
881.6770, 37640.00
882.8070, 37694.00
883.9360, 37663.00
885.0650, 37533.00
886.1940, 37674.00
887.3230, 37692.00
888.4520, 37567.00
889.5800, 37788.00
890.7090, 37903.00
891.8370, 37628.00
892.9650, 37849.00
894.0930, 37801.00
895.2200, 38068.00
896.3480, 38027.00
897.4750, 38131.00
898.6020, 38102.00
899.7290, 38099.00
900.8560, 38280.00
901.9830, 38103.00
903.1090, 38015.00
904.2360, 38177.00
905.3620, 38226.00
906.4880, 38349.00
907.6140, 38240.00
908.7400, 38492.00
909.8650, 38305.00
910.9900, 38487.00
912.1160, 38520.00
913.2410, 38560.00
914.3660, 38563.00
915.4900, 38560.35
916.6150, 38877.00
917.7390, 38647.00
918.8640, 38546.00
919.9880, 38851.00
921.1120, 38839.00
922.2350, 38746.00
923.3590, 38879.00
924.4820, 38870.07
925.6060, 39067.00
926.7290, 39007.00
927.8520, 39187.00
928.9740, 39309.00
930.0970, 39298.00
931.2190, 39241.00
932.3420, 39173.00
933.4640, 39228.00
934.5860, 39444.00
935.7080, 39525.00
936.8290, 39467.00
937.9510, 39659.00
939.0720, 39624.00
940.1930, 39453.00
941.3140, 39692.00
942.4350, 39818.00
943.5560, 39683.00
944.6760, 39933.00
945.7960, 39592.00
946.9170, 39599.00
948.0370, 39927.00
949.1560, 39939.00
950.2760, 40053.00
951.3960, 40078.00
952.5150, 40066.00
953.6340, 40325.00
954.7530, 40132.00
955.8720, 39992.00
956.9910, 40278.00
958.1090, 40076.00
959.2280, 39904.00
960.3460, 40290.00
961.4640, 40148.00
962.5820, 40235.00
963.6990, 40583.00
964.8170, 40257.00
965.9340, 40431.00
967.0510, 40518.00
968.1690, 40776.00
969.2850, 40702.00
970.4020, 40760.00
971.5190, 40894.00
972.6350, 40866.00
973.7510, 40953.00
974.8670, 41000.01
975.9830, 41005.25
977.0990, 41062.00
978.2150, 41056.00
979.3300, 41022.35
980.4450, 41073.12
981.5600, 41119.00
982.6750, 41170.00
983.7900, 41254.00
984.9050, 41123.00
986.0190, 41421.00
987.1340, 41406.00
988.2480, 41335.00
989.3620, 41488.00
990.4750, 41708.00
991.5890, 41402.00
992.7020, 41484.00
993.8160, 41738.00
994.9290, 41943.00
996.0420, 41612.00
997.1550, 41728.00
998.2670, 41563.00
999.3800, 41951.00
1000.492, 41939.00
1001.604, 42022.00
1002.716, 42185.00
1003.828, 42043.00
1004.940, 42243.00
1006.051, 42069.00
1007.163, 42178.00
1008.274, 42091.00
1009.385, 42314.00
1010.496, 42420.00
1011.606, 42419.30
1012.717, 42495.00
1013.827, 42504.00
1014.937, 42514.00
1016.047, 42603.00
1017.157, 42589.00
1018.267, 42466.00
1019.377, 42422.00
1020.486, 42528.00
1021.595, 42480.98
1022.704, 42536.77
1023.813, 42620.00
1024.922, 42623.00
1026.030, 42840.00
1027.139, 42899.00
1028.247, 43222.00
1029.355, 43083.00
1030.463, 43110.00
1031.571, 43143.00
1032.678, 43540.00
1033.786, 42968.00
1034.893, 43314.00
1036.000, 43436.00
1037.107, 43178.00
1038.214, 43377.00
1039.321, 43326.00
1040.427, 43354.00
1041.533, 43565.00
1042.639, 43544.00
1043.745, 43695.00
1044.851, 43861.00
1045.957, 43932.00
1047.062, 43595.00
1048.168, 43782.00
1049.273, 43345.00
1050.378, 43808.00
1051.482, 43976.00
1052.587, 44035.00
1053.692, 43933.00
1054.796, 44029.00
1055.900, 43889.00
1057.004, 44058.00
1058.108, 44282.00
1059.212, 44058.00
1060.315, 44243.00
1061.418, 44114.00
1062.522, 44141.00
1063.625, 44192.00
1064.728, 44256.00
1065.830, 44366.00
1066.933, 44336.00
1068.035, 44347.00
1069.137, 44498.00
1070.239, 44540.00
1071.341, 44603.00
1072.443, 44639.79
1073.545, 44753.00
1074.646, 44632.00
1075.747, 44771.00
1076.848, 44729.00
1077.949, 44900.00
1079.050, 44928.00
1080.150, 45216.00
1081.251, 45213.00
1082.351, 45316.00
1083.451, 45308.69
1084.551, 45115.00
1085.651, 45201.00
1086.750, 45342.00
1087.850, 45356.00
1088.949, 45561.00
1090.048, 45455.00
1091.147, 45823.00
1092.246, 45705.00
1093.345, 45754.00
1094.443, 46020.00
1095.541, 45955.00
1096.639, 46008.00
1097.737, 46007.00
1098.835, 46189.00
1099.933, 46490.00
1101.030, 46518.00
1102.128, 46289.00
1103.225, 46550.00
1104.322, 46260.00
1105.419, 46470.00
1106.515, 46472.00
1107.612, 46040.00
1108.708, 46084.00
1109.804, 46197.00
1110.900, 46635.00
1111.996, 46384.00
1113.092, 46739.00
1114.187, 46584.00
1115.283, 46969.00
1116.378, 46562.00
1117.473, 46821.00
1118.568, 46642.00
1119.662, 46572.00
1120.757, 46893.00
1121.851, 46662.00
1122.946, 46992.00
1124.040, 46916.00
1125.134, 46957.00
1126.227, 47096.00
1127.321, 47122.00
1128.414, 46890.00
1129.508, 47223.00
1130.601, 47001.00
1131.693, 47198.00
1132.786, 47050.00
1133.879, 47411.00
1134.971, 47422.00
1136.064, 47493.00
1137.156, 47550.00
1138.248, 47434.00
1139.339, 47393.00
1140.431, 47201.00
1141.522, 47370.00
1142.614, 47684.00
1143.705, 47672.00
1144.796, 47622.00
1145.887, 47534.00
1146.977, 47772.00
1148.068, 47751.00
1149.158, 47788.00
1150.248, 47909.00
1151.338, 47799.00
1152.428, 48002.00
1153.518, 47924.00
1154.607, 47502.00
1155.696, 48032.00
1156.785, 47899.00
1157.874, 48133.00
1158.963, 47735.00
1160.052, 48334.00
1161.141, 48294.00
1162.229, 48481.00
1163.317, 48367.00
1164.405, 48402.00
1165.493, 48230.00
1166.581, 48358.00
1167.668, 48228.00
1168.756, 48620.00
1169.843, 48545.00
1170.930, 48450.00
1172.017, 48745.00
1173.103, 48645.00
1174.190, 48822.00
1175.276, 48992.00
1176.363, 48669.00
1177.449, 48770.00
1178.535, 48918.00
1179.620, 48739.00
1180.706, 49017.00
1181.791, 49225.00
1182.877, 48982.00
1183.962, 49053.00
1185.047, 49240.00
1186.131, 49286.00
1187.216, 49213.00
1188.300, 49206.00
1189.385, 49218.00
1190.469, 49243.62
1191.553, 49315.00
1192.637, 49446.00
1193.720, 49579.00
1194.804, 49868.00
1195.887, 49643.00
1196.970, 49771.00
1198.053, 49938.00
1199.136, 49666.00
1200.219, 49744.00
1201.301, 50064.00
1202.383, 49910.00
1203.465, 49908.00
1204.547, 49976.00
1205.629, 50079.00
1206.711, 50309.00
1207.792, 50287.18
1208.874, 50546.00
1209.955, 50319.00
1211.036, 50307.00
1212.117, 50298.00
1213.198, 50081.00
1214.278, 50532.00
1215.359, 50564.00
1216.439, 50612.00
1217.519, 50587.00
1218.599, 50616.00
1219.678, 50690.00
1220.758, 50687.00
1221.837, 50772.74
1222.917, 50640.00
1223.996, 50935.00
1225.075, 50923.00
1226.153, 51028.55
1227.232, 51386.00
1228.310, 51198.00
1229.389, 51207.00
1230.467, 51373.00
1231.545, 51274.00
1232.622, 51066.00
1233.700, 51348.00
1234.777, 51197.00
1235.855, 51373.00
1236.932, 51423.94
1238.009, 51232.00
1239.086, 51548.00
1240.162, 51496.00
1241.239, 51587.00
1242.315, 51432.00
1243.391, 51869.00
1244.467, 51904.00
1245.543, 51681.00
1246.619, 51752.00
1247.694, 51639.00
1248.769, 51885.00
1249.844, 51847.00
1250.919, 51882.00
1251.994, 51871.00
1253.069, 51908.47
1254.144, 52027.31
1255.218, 52021.00
1256.292, 52327.00
1257.366, 52453.00
1258.440, 52653.00
1259.514, 52351.00
1260.587, 52564.00
1261.661, 52454.00
1262.734, 52390.00
1263.807, 52468.00
1264.880, 52611.00
1265.952, 52703.00
1267.025, 52806.00
1268.097, 52753.00
1269.170, 52690.00
1270.242, 52954.00
1271.314, 52576.00
1272.385, 53204.00
1273.457, 52922.00
1274.528, 52785.00
1275.600, 53194.00
1276.671, 53167.00
1277.742, 53169.00
1278.812, 53408.00
1279.883, 53402.00
1280.954, 53279.00
1282.024, 53381.00
1283.094, 53548.00
1284.164, 53569.00
1285.234, 53696.00
1286.303, 53846.00
1287.373, 53794.90
1288.442, 53832.00
1289.511, 53753.00
1290.580, 53879.00
1291.649, 53909.00
1292.718, 53832.00
1293.786, 53933.00
1294.855, 54150.00
1295.923, 54207.00
1296.991, 54337.00
1298.059, 54126.00
1299.126, 54133.00
1300.194, 54384.00
1301.261, 54086.00
1302.328, 54346.00
1303.395, 54549.00
1304.462, 54347.00
1305.529, 54562.00
1306.596, 54436.00
1307.662, 54793.00
