##NAMES=Microcline
##RRUFFID=R050150
##IDEAL CHEMISTRY=KAlSi_3_O_8_
##LOCALITY=Crystal Peak area, Park/Teller Counties, Colorado, USA
##OWNER=RRUFF
##SOURCE=Dave Bunk Minerals
##DESCRIPTION=Pale blue prismatic crystals
##STATUS=The identification of this mineral has been confirmed by X-ray diffraction and chemical analysis
##URL=rruff.info/R050150
##MEASURED CHEMISTRY=(K_0.95_Na_0.05_)_Î£=1_Al_1.00_Si_3.00_O_8_
##PIN_ID=L00915
##ORIENTATION=Laser parallel to (1 1 0). Fiducial mark perpendicular to laser is parallel to c [0 0 1]
137.6830, 19328.00
138.9210, 19751.00
140.1580, 19962.00
141.3950, 20389.00
142.6330, 20654.00
143.8690, 20889.34
145.1060, 21219.46
146.3430, 21365.00
147.5790, 21785.00
148.8150, 22102.40
150.0510, 22429.00
151.2870, 22559.00
152.5220, 22579.00
153.7580, 22621.00
154.9930, 22773.00
156.2280, 22887.00
157.4620, 22664.00
158.6970, 22583.00
159.9310, 22362.00
161.1660, 22147.00
162.4000, 21678.00
163.6330, 21521.00
164.8670, 21529.00
166.1000, 20987.00
167.3340, 21112.00
168.5670, 21291.00
169.8000, 21107.00
171.0320, 21245.00
172.2650, 21553.00
173.4970, 21543.00
174.7290, 21638.00
175.9610, 22102.00
177.1930, 22363.00
178.4240, 22529.00
179.6550, 22622.40
180.8870, 22594.00
182.1170, 22474.00
183.3480, 22181.00
184.5790, 21898.00
185.8090, 21611.00
187.0390, 21675.00
188.2690, 21674.00
189.4990, 21699.00
190.7290, 21594.00
191.9580, 21810.00
193.1870, 21852.00
194.4160, 21929.00
195.6450, 22131.00
196.8740, 22379.00
198.1020, 22420.00
199.3310, 22793.00
200.5590, 22582.00
201.7870, 22643.00
203.0140, 22306.00
204.2420, 22094.00
205.4690, 22089.00
206.6960, 21838.00
207.9230, 21702.00
209.1500, 21719.00
210.3760, 21749.00
211.6030, 21774.00
212.8290, 21893.00
214.0550, 21875.00
215.2810, 22017.00
216.5060, 21726.00
217.7320, 21745.00
218.9570, 22080.00
220.1820, 21757.00
221.4070, 21988.00
222.6320, 22151.00
223.8560, 22011.00
225.0800, 21899.00
226.3040, 22070.00
227.5280, 21939.00
228.7520, 21986.00
229.9760, 22147.00
231.1990, 22221.00
232.4220, 22190.00
233.6450, 22486.00
234.8680, 22270.00
236.0910, 22302.00
237.3130, 22414.00
238.5350, 22438.00
239.7570, 22586.00
240.9790, 22649.00
242.2010, 22751.00
243.4220, 22528.00
244.6430, 22598.00
245.8640, 22673.00
247.0850, 22762.00
248.3060, 22938.00
249.5270, 23017.00
250.7470, 23215.00
251.9670, 23538.00
253.1870, 23574.00
254.4070, 24092.00
255.6260, 24353.00
256.8460, 24483.00
258.0650, 24737.00
259.2840, 24879.84
260.5030, 25091.42
261.7220, 25185.00
262.9400, 25571.00
264.1580, 25769.00
265.3760, 26151.00
266.5940, 26308.00
267.8120, 26113.00
269.0290, 25772.00
270.2470, 25600.00
271.4640, 25505.00
272.6810, 25188.00
273.8980, 25033.00
275.1140, 25020.00
276.3310, 25286.00
277.5470, 25349.00
278.7630, 25729.00
279.9790, 26254.00
281.1940, 27165.00
282.4100, 27815.00
283.6250, 28478.00
284.8400, 29441.00
286.0550, 29436.00
287.2700, 29454.00
288.4850, 28627.00
289.6990, 27941.00
290.9130, 27260.00
292.1270, 26473.00
293.3410, 25925.00
294.5540, 25396.00
295.7680, 25079.00
296.9810, 24955.00
298.1940, 24701.08
299.4070, 24767.00
300.6200, 24512.00
301.8320, 24452.00
303.0450, 24401.00
304.2570, 24326.00
305.4690, 24325.00
306.6800, 24445.00
307.8920, 24229.00
309.1030, 24321.00
310.3150, 24392.00
311.5260, 24320.00
312.7360, 24497.00
313.9470, 24360.00
315.1580, 24407.00
316.3680, 24441.00
317.5780, 24457.00
318.7880, 24530.00
319.9980, 24434.00
321.2070, 24680.00
322.4170, 24727.00
323.6260, 24621.00
324.8350, 24976.00
326.0430, 24803.00
327.2520, 25094.00
328.4610, 25305.00
329.6690, 25217.00
330.8770, 25498.00
332.0850, 25412.00
333.2920, 25620.00
334.5000, 25593.00
335.7070, 25347.00
336.9140, 25464.00
338.1210, 25395.00
339.3280, 25176.00
340.5350, 25205.00
341.7410, 25110.00
342.9470, 25293.00
344.1540, 25232.00
345.3590, 25256.00
346.5650, 25391.00
347.7710, 25286.00
348.9760, 25433.00
350.1810, 25581.00
351.3860, 25460.00
352.5910, 25652.00
353.7950, 25580.00
355.0000, 25862.00
356.2040, 25798.00
357.4080, 25930.00
358.6120, 25861.00
359.8150, 25954.00
361.0190, 26017.00
362.2220, 26092.00
363.4250, 26064.00
364.6280, 26218.00
365.8310, 26298.00
367.0340, 26493.00
368.2360, 26679.00
369.4380, 27190.00
370.6400, 27716.00
371.8420, 28231.00
373.0440, 28273.00
374.2450, 28572.00
375.4470, 28404.00
376.6480, 27787.00
377.8490, 27189.00
379.0490, 26890.00
380.2500, 26587.00
381.4500, 26565.00
382.6510, 26422.00
383.8510, 26361.00
385.0500, 26314.00
386.2500, 26168.00
387.4500, 26265.00
388.6490, 26234.69
389.8480, 26315.00
391.0470, 26399.00
392.2460, 26330.00
393.4440, 26578.00
394.6430, 26456.00
395.8410, 26604.00
397.0390, 26810.00
398.2370, 26847.00
399.4340, 27087.00
400.6320, 27348.00
401.8290, 27704.00
403.0260, 27674.00
404.2230, 27899.00
405.4200, 27911.00
406.6170, 27522.00
407.8130, 27489.00
409.0090, 27193.00
410.2050, 27241.00
411.4010, 27144.00
412.5970, 27217.00
413.7920, 27301.00
414.9880, 27153.00
416.1830, 27056.00
417.3780, 26956.00
418.5730, 26863.00
419.7670, 27000.00
420.9620, 27059.00
422.1560, 26987.00
423.3500, 26877.00
424.5440, 27075.00
425.7380, 27052.00
426.9310, 27053.00
428.1240, 27134.00
429.3180, 27270.00
430.5110, 27065.00
431.7030, 27115.00
432.8960, 27292.00
434.0890, 27241.00
435.2810, 27337.00
436.4730, 27631.00
437.6650, 27864.00
438.8570, 27647.00
440.0480, 27848.00
441.2390, 28015.00
442.4310, 27961.00
443.6220, 28159.00
444.8120, 28659.00
446.0030, 28995.00
447.1940, 29471.00
448.3840, 30036.67
449.5740, 30444.00
450.7640, 31247.00
451.9540, 32017.00
453.1430, 32694.00
454.3330, 33712.00
455.5220, 33326.00
456.7110, 33385.00
457.9000, 32554.00
459.0890, 31760.00
460.2770, 31405.00
461.4650, 31261.00
462.6540, 31080.00
463.8420, 31296.00
465.0290, 31597.00
466.2170, 32177.00
467.4050, 32958.00
468.5920, 33742.00
469.7790, 34839.00
470.9660, 36706.00
472.1530, 38790.00
473.3390, 41248.00
474.5250, 43815.00
475.7120, 45397.00
476.8980, 45631.00
478.0840, 44218.00
479.2690, 42242.00
480.4550, 39613.00
481.6400, 37518.00
482.8250, 36016.00
484.0100, 34780.00
485.1950, 34091.00
486.3800, 33374.00
487.5640, 32457.00
488.7480, 31816.00
489.9320, 31366.00
491.1160, 30873.00
492.3000, 30635.00
493.4840, 30479.60
494.6670, 30571.00
495.8500, 30482.00
497.0330, 30804.00
498.2160, 30980.00
499.3990, 31091.00
500.5810, 31561.00
501.7630, 31955.00
502.9460, 32913.00
504.1280, 34098.00
505.3090, 35237.00
506.4910, 36531.00
507.6720, 38737.00
508.8540, 41747.00
510.0350, 44873.00
511.2160, 48718.00
512.3960, 52767.00
513.5770, 54734.00
514.7570, 54647.00
515.9380, 53154.00
517.1180, 49360.00
518.2970, 45344.00
519.4770, 42077.00
520.6570, 39179.00
521.8360, 36979.00
523.0150, 35195.00
524.1940, 34293.00
525.3730, 33286.00
526.5510, 32681.00
527.7300, 32411.00
528.9080, 31881.00
530.0860, 31648.00
531.2640, 31528.00
532.4420, 31238.00
533.6200, 31127.00
534.7970, 31063.00
535.9740, 30844.00
537.1510, 30622.00
538.3280, 30477.00
539.5050, 30661.00
540.6810, 30541.00
541.8580, 30610.00
543.0340, 30593.00
544.2100, 30670.00
545.3860, 30640.00
546.5610, 30665.00
547.7370, 30554.00
548.9120, 30672.00
550.0870, 30385.00
551.2620, 30488.00
552.4370, 30462.00
553.6120, 30428.00
554.7860, 30404.00
555.9600, 30372.80
557.1340, 30483.00
558.3080, 30347.00
559.4820, 30561.00
560.6560, 30641.00
561.8290, 30757.00
563.0020, 30608.00
564.1750, 30793.00
565.3480, 30549.00
566.5210, 30670.00
567.6930, 30847.00
568.8660, 30798.00
570.0380, 30628.00
571.2100, 30769.00
572.3820, 30835.00
573.5530, 30922.00
574.7250, 31050.00
575.8960, 31087.83
577.0670, 31112.00
578.2380, 31135.00
579.4090, 31174.00
580.5800, 31067.00
581.7500, 31543.00
582.9210, 31451.00
584.0910, 31523.00
585.2610, 31225.00
586.4300, 31282.00
587.6000, 31360.00
588.7690, 31513.00
589.9390, 31387.00
591.1080, 31445.40
592.2770, 31233.00
593.4450, 31392.00
594.6140, 31358.00
595.7820, 31353.00
596.9500, 31262.00
598.1190, 31356.00
599.2860, 31396.00
600.4540, 31471.00
601.6220, 31430.00
602.7890, 31476.00
603.9560, 31406.00
605.1230, 31313.00
606.2900, 31407.00
607.4570, 31451.00
608.6230, 31436.00
609.7890, 31502.68
610.9560, 31648.00
612.1220, 31580.00
613.2870, 31597.00
614.4530, 31667.00
615.6180, 31619.00
616.7840, 31608.00
617.9490, 31934.00
619.1140, 31885.00
620.2790, 31863.00
621.4430, 31875.00
622.6080, 31873.00
623.7720, 32082.00
624.9360, 32117.00
626.1000, 32225.00
627.2640, 32275.00
628.4270, 31947.00
629.5910, 32328.00
630.7540, 32275.00
631.9170, 32609.00
633.0800, 32084.00
634.2430, 32612.00
635.4050, 32560.00
636.5680, 32355.00
637.7300, 32740.00
638.8920, 32648.00
640.0540, 32832.00
641.2150, 32916.00
642.3770, 33007.00
643.5380, 33071.00
644.7000, 33224.00
645.8610, 33251.00
647.0210, 33143.00
648.1820, 33585.00
649.3430, 33585.00
650.5030, 33665.00
651.6630, 33950.00
652.8230, 34035.00
653.9830, 33805.00
655.1430, 33742.00
656.3020, 33829.00
657.4620, 33739.00
658.6210, 33576.00
659.7800, 33553.00
660.9390, 33494.07
662.0970, 33393.00
663.2560, 33444.00
664.4140, 33414.00
665.5720, 33359.00
666.7300, 33303.00
667.8880, 33191.00
669.0460, 33085.00
670.2030, 33053.00
671.3600, 33102.95
672.5180, 33113.00
673.6740, 33275.00
674.8310, 33314.00
675.9880, 33339.00
677.1440, 33261.00
678.3010, 33620.00
679.4570, 33499.00
680.6130, 33494.00
681.7690, 33387.00
682.9240, 33360.00
684.0800, 33472.00
685.2350, 33362.00
686.3900, 33421.00
687.5450, 33501.00
688.7000, 33683.00
689.8540, 33578.00
691.0090, 33663.00
692.1630, 33560.00
693.3170, 33681.00
694.4710, 33503.00
695.6250, 33508.00
696.7780, 33791.00
697.9320, 33684.00
699.0850, 33784.00
700.2380, 33797.00
701.3910, 33890.00
702.5440, 33860.00
703.6970, 33847.00
704.8490, 33747.00
706.0010, 34061.00
707.1530, 33732.00
708.3050, 33872.00
709.4570, 33991.00
710.6090, 34376.00
711.7600, 34551.00
712.9110, 34183.00
714.0620, 34118.00
715.2130, 34555.00
716.3640, 34102.00
717.5150, 34350.00
718.6650, 34155.00
719.8150, 34400.00
720.9650, 34451.00
722.1150, 34449.00
723.2650, 34205.00
724.4150, 34403.00
725.5640, 34426.00
726.7130, 34245.00
727.8630, 34452.00
729.0110, 34396.00
730.1600, 34545.00
731.3090, 34609.47
732.4570, 34627.00
733.6060, 34709.00
734.7540, 34742.00
735.9020, 34868.03
737.0490, 35018.00
738.1970, 35159.00
739.3440, 35241.00
740.4920, 35427.00
741.6390, 35374.00
742.7860, 35675.00
743.9320, 35803.00
745.0790, 36030.00
746.2250, 36581.00
747.3720, 36550.00
748.5180, 36620.00
749.6640, 37066.00
750.8100, 36907.00
751.9550, 36695.00
753.1010, 36375.00
754.2460, 36156.00
755.3910, 36156.00
756.5360, 35816.00
757.6810, 35884.00
758.8250, 35753.00
759.9700, 35730.00
761.1140, 35740.00
762.2580, 35527.00
763.4020, 35704.00
764.5460, 35768.00
765.6900, 35660.00
766.8330, 35925.00
767.9760, 35768.00
769.1200, 35858.00
770.2620, 35775.00
771.4050, 35994.00
772.5480, 35845.00
773.6900, 35851.00
774.8330, 35617.00
775.9750, 35686.00
777.1170, 35737.00
778.2590, 35889.00
779.4000, 35766.00
780.5420, 35498.00
781.6830, 35580.00
782.8240, 35781.00
783.9650, 36156.00
785.1060, 35746.00
786.2470, 36011.00
787.3870, 35865.00
788.5280, 35816.00
789.6680, 36019.00
790.8080, 36034.00
791.9480, 36047.00
793.0870, 35907.00
794.2270, 36169.00
795.3660, 36092.00
796.5060, 36013.00
797.6450, 36118.00
798.7830, 36190.00
799.9220, 36162.00
801.0610, 36046.00
802.1990, 36249.00
803.3370, 36374.00
804.4750, 36290.00
805.6130, 36491.09
806.7510, 36669.00
807.8890, 36786.00
809.0260, 37024.00
810.1630, 37095.20
811.3000, 37323.00
812.4370, 37306.00
813.5740, 37374.00
814.7110, 37544.00
815.8470, 37479.00
816.9830, 37487.00
818.1190, 37145.00
819.2550, 37145.00
820.3910, 36920.00
821.5270, 37134.00
822.6620, 36927.00
823.7970, 37124.00
824.9330, 36995.00
826.0670, 37016.00
827.2020, 36865.00
828.3370, 37084.00
829.4710, 36899.00
830.6060, 36928.00
831.7400, 37076.00
832.8740, 36726.00
834.0080, 37234.00
835.1410, 36944.00
836.2750, 37178.00
837.4080, 36969.00
838.5410, 37217.00
839.6740, 37202.00
840.8070, 37429.00
841.9400, 37293.00
843.0730, 37204.00
844.2050, 37245.00
845.3370, 37406.00
846.4690, 37138.00
847.6010, 37392.00
848.7330, 37278.00
849.8640, 37712.00
850.9960, 37691.00
852.1270, 37779.00
853.2580, 37612.00
854.3890, 37785.00
855.5200, 37583.00
856.6500, 37650.00
857.7810, 37642.00
858.9110, 37801.00
860.0410, 37979.00
861.1710, 37806.00
862.3010, 37775.00
863.4310, 37925.00
864.5600, 37985.00
865.6900, 38102.00
866.8190, 38075.00
867.9480, 38122.61
869.0770, 38142.89
870.2050, 38121.00
871.3340, 38111.00
872.4620, 38086.00
873.5900, 37974.00
874.7180, 37938.00
875.8460, 38051.00
876.9740, 38019.95
878.1010, 38205.00
879.2290, 38171.00
880.3560, 38191.00
881.4830, 38373.00
882.6100, 38275.00
883.7370, 38006.00
884.8630, 38496.00
885.9900, 38354.00
887.1160, 38501.00
888.2420, 38264.00
889.3680, 38735.00
890.4940, 38630.00
891.6200, 38620.00
892.7450, 38593.00
893.8700, 38682.00
894.9960, 38592.00
896.1210, 38664.00
897.2460, 38812.00
898.3700, 38942.00
899.4950, 38954.00
900.6190, 39034.00
901.7430, 38770.00
902.8670, 38937.00
903.9910, 39081.00
905.1150, 38799.00
906.2390, 38919.00
907.3620, 38970.00
908.4850, 38844.00
909.6080, 39167.00
910.7310, 38913.00
911.8540, 39100.00
912.9770, 39115.00
914.0990, 39114.00
915.2210, 38994.00
916.3440, 39325.00
917.4660, 39326.00
918.5870, 39513.00
919.7090, 39518.00
920.8310, 39444.00
921.9520, 39399.00
923.0730, 39413.00
924.1940, 39482.00
925.3150, 39571.00
926.4360, 39840.00
927.5560, 39586.00
928.6770, 39817.00
929.7970, 39689.00
930.9170, 39919.00
932.0370, 39662.00
933.1570, 39938.00
934.2760, 39855.00
935.3960, 39867.00
936.5150, 39961.00
937.6340, 40041.00
938.7530, 40201.00
939.8720, 40136.00
940.9910, 40175.00
942.1090, 40092.00
943.2280, 40284.00
944.3460, 40190.00
945.4640, 40257.00
946.5820, 40114.00
947.6990, 40255.00
948.8170, 40090.00
949.9340, 40268.00
951.0520, 40123.00
952.1690, 40352.00
953.2860, 40485.00
954.4030, 40397.00
955.5190, 40336.00
956.6360, 40442.00
957.7520, 40734.00
958.8680, 40602.00
959.9840, 40636.00
961.1000, 40692.00
962.2160, 40633.00
963.3310, 40543.00
964.4470, 40738.00
965.5620, 40934.00
966.6770, 40766.00
967.7920, 40922.00
968.9060, 41125.00
970.0210, 41141.00
971.1360, 40783.00
972.2500, 41115.00
973.3640, 40889.00
974.4780, 41060.00
975.5920, 40926.00
976.7050, 41079.00
977.8190, 41495.00
978.9320, 41136.00
980.0450, 41156.00
981.1580, 41450.00
982.2710, 41419.00
983.3840, 41278.00
984.4970, 41603.00
985.6090, 41614.00
986.7210, 41639.00
987.8330, 41841.98
988.9450, 42020.00
990.0570, 42040.00
991.1690, 42053.00
992.2800, 42019.00
993.3920, 42339.00
994.5030, 42590.00
995.6140, 42353.00
996.7250, 42291.00
997.8350, 42142.00
998.9460, 42463.00
1000.056, 42360.00
1001.167, 42384.00
1002.277, 42297.00
1003.387, 42383.00
1004.496, 42354.00
1005.606, 42321.00
1006.715, 42241.00
1007.825, 42278.00
1008.934, 42231.00
1010.043, 42352.00
1011.152, 42584.00
1012.260, 42612.00
1013.369, 42478.00
1014.477, 42336.00
1015.586, 42549.00
1016.694, 42487.00
1017.802, 42626.00
1018.909, 42415.00
1020.017, 42713.00
1021.124, 42554.00
1022.232, 42596.00
1023.339, 42688.00
1024.446, 42734.00
1025.553, 42656.00
1026.659, 42844.00
1027.766, 43173.00
1028.872, 43074.00
1029.979, 42893.00
1031.085, 43471.00
1032.191, 43176.00
1033.296, 43267.00
1034.402, 43144.00
1035.507, 43382.00
1036.613, 43483.00
1037.718, 43503.00
1038.823, 43357.00
1039.928, 43506.00
1041.032, 43663.00
1042.137, 43367.00
1043.241, 43664.00
1044.346, 43683.00
1045.450, 43510.00
1046.554, 43459.00
1047.657, 43617.00
1048.761, 43725.00
1049.864, 43682.00
1050.968, 43626.00
1052.071, 43839.00
1053.174, 43859.00
1054.277, 43775.00
1055.379, 43982.00
1056.482, 43556.00
1057.584, 43915.00
1058.687, 43613.00
1059.789, 44043.00
1060.891, 44044.00
1061.992, 43955.00
1063.094, 43750.00
1064.196, 43817.00
1065.297, 43874.00
1066.398, 43975.00
1067.499, 44125.00
1068.600, 43871.00
1069.701, 44100.00
1070.801, 43979.00
1071.902, 43918.00
1073.002, 44164.00
1074.102, 44042.00
1075.202, 44186.00
1076.302, 44140.00
1077.402, 44263.00
1078.501, 44218.00
1079.600, 44146.00
1080.700, 44158.00
1081.799, 44541.00
1082.898, 44395.00
1083.996, 44397.00
1085.095, 44636.00
1086.193, 44438.00
1087.292, 44198.00
1088.390, 44719.00
1089.488, 44559.00
1090.586, 44838.00
1091.683, 44696.00
1092.781, 45070.00
1093.878, 45033.00
1094.975, 44972.00
1096.073, 45011.00
1097.169, 44858.00
1098.266, 45107.00
1099.363, 45346.00
1100.459, 45558.00
1101.556, 45422.00
1102.652, 45373.00
1103.748, 45420.00
1104.844, 45638.00
1105.940, 45665.00
1107.035, 45941.00
1108.131, 45867.00
1109.226, 46384.00
1110.321, 46602.00
1111.416, 46679.00
1112.511, 46917.00
1113.605, 47150.00
1114.700, 47415.00
1115.794, 48004.00
1116.889, 48502.00
1117.983, 49291.00
1119.077, 50394.00
1120.170, 51074.00
1121.264, 52085.00
1122.357, 52548.00
1123.451, 53022.00
1124.544, 52875.00
1125.637, 52691.00
1126.730, 51956.00
1127.823, 51312.00
1128.915, 50723.00
1130.008, 50130.00
1131.100, 49778.00
1132.192, 49384.00
1133.284, 49542.00
1134.376, 49660.00
1135.467, 49705.00
1136.559, 49757.00
1137.650, 49744.82
1138.742, 49664.00
1139.833, 49550.00
1140.924, 49419.00
1142.014, 49073.00
1143.105, 48759.00
1144.195, 48255.00
1145.286, 47870.00
1146.376, 47656.00
1147.466, 47501.00
1148.556, 47055.00
1149.646, 47157.00
1150.735, 47260.00
1151.825, 47066.00
1152.914, 47003.00
1154.003, 46972.00
1155.092, 47057.00
1156.181, 46696.00
1157.270, 47049.00
1158.358, 46876.00
1159.447, 47178.00
1160.535, 46808.00
1161.623, 46773.00
1162.711, 47085.00
1163.799, 46698.00
1164.886, 46846.00
1165.974, 47005.00
1167.061, 47162.00
1168.148, 46764.00
1169.235, 47039.00
1170.322, 46801.00
1171.409, 47219.00
1172.496, 46794.00
1173.582, 46818.00
1174.669, 46918.00
1175.755, 47067.00
1176.841, 47000.00
1177.927, 47187.00
1179.012, 47166.00
1180.098, 47154.00
1181.183, 47121.00
1182.269, 46965.00
1183.354, 47228.00
1184.439, 47519.00
1185.524, 47309.00
1186.608, 47480.00
1187.693, 47464.00
1188.777, 47412.00
1189.862, 47336.00
1190.946, 47325.00
1192.030, 47493.00
1193.113, 47405.00
1194.197, 47511.00
1195.281, 47763.00
1196.364, 47535.00
1197.447, 47634.00
1198.530, 47724.00
1199.613, 47685.00
1200.696, 47426.00
1201.779, 47718.00
1202.861, 48046.00
1203.944, 47684.00
1205.026, 47997.00
1206.108, 47897.00
1207.190, 47955.00
1208.271, 48082.00
1209.353, 47827.00
1210.435, 47895.00
1211.516, 48035.00
1212.597, 47937.00
1213.678, 47900.00
1214.759, 48217.00
1215.840, 47997.00
1216.920, 48111.00
1218.001, 48465.00
1219.081, 48275.00
1220.161, 48152.00
1221.241, 48221.00
1222.321, 48438.00
1223.401, 48214.00
1224.480, 48392.00
1225.560, 48437.00
1226.639, 48375.00
1227.718, 48592.00
1228.797, 48507.00
1229.876, 48556.21
1230.955, 48556.00
1232.033, 48508.00
1233.112, 48576.00
1234.190, 48414.00
1235.268, 48657.00
1236.346, 48627.00
1237.424, 48554.00
1238.501, 48950.00
1239.579, 48603.00
1240.656, 48704.00
1241.733, 48831.00
1242.811, 48804.00
1243.888, 48808.00
1244.964, 48698.00
1246.041, 48641.00
1247.117, 48927.00
1248.194, 48411.00
1249.270, 48882.00
1250.346, 48800.00
1251.422, 48971.00
1252.498, 49092.00
1253.573, 49124.00
1254.649, 48862.00
1255.724, 49208.00
1256.800, 49307.00
1257.875, 49584.00
1258.950, 49244.00
1260.024, 49019.00
1261.099, 49166.00
1262.173, 49042.00
1263.248, 49346.00
1264.322, 49700.00
1265.396, 49514.00
1266.470, 49514.00
1267.544, 49432.00
1268.617, 49605.00
1269.691, 49398.00
1270.764, 49416.00
1271.837, 49360.00
1272.910, 49232.00
1273.983, 49797.00
1275.056, 49895.00
1276.129, 49670.00
1277.201, 49810.00
1278.273, 49497.00
1279.346, 49804.00
1280.418, 49850.00
1281.489, 49970.00
1282.561, 49832.00
1283.633, 50184.00
1284.704, 50308.00
1285.776, 49881.00
1286.847, 50028.00
1287.918, 50286.00
1288.989, 49816.00
1290.059, 50000.00
1291.130, 50102.00
1292.200, 50440.00
1293.271, 49945.00
1294.341, 50399.00
1295.411, 50359.00
1296.481, 50176.00
1297.551, 50420.00
1298.620, 50484.00
1299.690, 50361.00
1300.759, 50688.00
1301.828, 50575.00
1302.897, 50466.00
1303.966, 50611.00
1305.035, 50730.00
1306.103, 50843.00
1307.172, 50876.00
1308.240, 50701.00
1309.308, 50508.00
1310.376, 50841.00
1311.444, 50928.00
1312.512, 51262.00
