##NAMES=Microcline
##RRUFFID=R050150
##IDEAL CHEMISTRY=KAlSi_3_O_8_
##LOCALITY=Crystal Peak area, Park/Teller Counties, Colorado, USA
##OWNER=RRUFF
##SOURCE=Dave Bunk Minerals
##DESCRIPTION=Pale blue prismatic crystals
##STATUS=The identification of this mineral has been confirmed by X-ray diffraction and chemical analysis
##URL=rruff.info/R050150
##MEASURED CHEMISTRY=(K_0.95_Na_0.05_)_Î£=1_Al_1.00_Si_3.00_O_8_
##PIN_ID=L01538
##ORIENTATION=Laser parallel to c* (0 0 1). Fiducial mark perpendicular to laser is parallel to a [1 0 0]
135.1330, 14295.00
136.3730, 14920.00
137.6120, 16121.00
138.8510, 17075.00
140.0900, 17593.00
141.3290, 17691.00
142.5680, 17741.00
143.8060, 17433.00
145.0440, 17892.00
146.2820, 18511.00
147.5200, 19667.00
148.7570, 20869.00
149.9950, 22569.00
151.2320, 24357.00
152.4690, 26662.00
153.7060, 29764.00
154.9420, 32208.00
156.1790, 32628.00
157.4150, 32918.00
158.6510, 32041.00
159.8870, 29671.00
161.1220, 26872.00
162.3570, 24234.00
163.5930, 21238.00
164.8280, 18894.00
166.0620, 16974.00
167.2970, 15490.00
168.5310, 14800.00
169.7650, 14211.00
170.9990, 14031.00
172.2330, 13888.00
173.4670, 14177.00
174.7000, 14679.00
175.9330, 15075.00
177.1660, 15395.00
178.3990, 15473.00
179.6310, 15007.00
180.8640, 14524.00
182.0960, 13648.00
183.3280, 12926.00
184.5600, 12405.00
185.7910, 11955.02
187.0220, 11667.00
188.2540, 11531.00
189.4840, 11605.00
190.7150, 11757.00
191.9460, 12040.00
193.1760, 12327.00
194.4060, 13139.00
195.6360, 13844.00
196.8660, 14476.00
198.0960, 14621.00
199.3250, 14723.00
200.5540, 14094.00
201.7830, 13360.00
203.0120, 12775.00
204.2400, 11819.00
205.4690, 11160.00
206.6970, 10471.00
207.9250, 9902.000
209.1530, 9636.000
210.3800, 9528.000
211.6080, 9235.000
212.8350, 9164.000
214.0620, 9048.101
215.2880, 9051.000
216.5150, 8947.000
217.7410, 8962.000
218.9680, 9015.000
220.1940, 8961.000
221.4190, 8947.000
222.6450, 9022.000
223.8700, 9039.000
225.0960, 8972.000
226.3210, 9119.000
227.5450, 9038.000
228.7700, 9034.000
229.9940, 9127.000
231.2190, 9180.000
232.4430, 9210.000
233.6660, 9274.316
234.8900, 9236.000
236.1140, 9339.000
237.3370, 9326.000
238.5600, 9304.000
239.7830, 9652.000
241.0050, 9626.000
242.2280, 9760.000
243.4500, 10015.00
244.6720, 10453.00
245.8940, 10754.00
247.1160, 11182.00
248.3370, 11948.00
249.5580, 12521.00
250.7790, 13650.00
252.0000, 14718.00
253.2210, 16093.00
254.4410, 17580.00
255.6620, 19329.00
256.8820, 20445.00
258.1020, 21240.00
259.3210, 21763.00
260.5410, 22083.00
261.7600, 22353.00
262.9790, 22679.00
264.1980, 22943.00
265.4170, 23005.00
266.6360, 22573.00
267.8540, 21780.00
269.0720, 20754.00
270.2900, 19822.00
271.5080, 19301.00
272.7260, 18599.00
273.9430, 18712.00
275.1600, 19473.00
276.3770, 20520.00
277.5940, 22065.00
278.8100, 23929.00
280.0270, 26078.00
281.2430, 28495.00
282.4590, 31112.00
283.6750, 32764.00
284.8910, 33408.00
286.1060, 32338.00
287.3210, 30291.00
288.5360, 27108.00
289.7510, 24144.00
290.9660, 21001.00
292.1800, 18416.00
293.3950, 16036.00
294.6090, 14626.00
295.8230, 13417.00
297.0360, 12527.00
298.2500, 12026.00
299.4630, 11591.00
300.6760, 11151.00
301.8890, 10901.00
303.1020, 10734.00
304.3150, 10447.00
305.5270, 10156.00
306.7390, 9952.000
307.9510, 10012.00
309.1630, 9800.000
310.3750, 9764.000
311.5860, 9722.000
312.7970, 9575.000
314.0080, 9586.000
315.2190, 9432.000
316.4300, 9484.000
317.6400, 9525.000
318.8510, 9572.000
320.0610, 9683.000
321.2710, 9838.000
322.4800, 9903.000
323.6900, 10004.00
324.8990, 10300.00
326.1080, 10578.00
327.3170, 10677.00
328.5260, 11180.00
329.7340, 11489.00
330.9430, 11608.00
332.1510, 11744.00
333.3590, 11656.00
334.5670, 11322.00
335.7740, 10953.00
336.9820, 10621.00
338.1890, 10307.00
339.3960, 10064.00
340.6030, 9962.000
341.8100, 9707.000
343.0160, 9806.000
344.2220, 9722.000
345.4280, 9639.000
346.6340, 9684.000
347.8400, 9732.000
349.0460, 9873.000
350.2510, 9826.000
351.4560, 9834.000
352.6610, 10054.00
353.8660, 10101.00
355.0700, 10089.00
356.2750, 10212.00
357.4790, 10312.00
358.6830, 10123.00
359.8870, 10276.00
361.0910, 9998.000
362.2940, 10161.00
363.4970, 10131.00
364.7000, 10102.00
365.9030, 10209.00
367.1060, 10294.00
368.3080, 10482.00
369.5110, 10615.00
370.7130, 10589.00
371.9150, 10797.00
373.1170, 10824.00
374.3180, 10683.00
375.5200, 10376.00
376.7210, 10447.00
377.9220, 10164.00
379.1230, 9940.000
380.3230, 9900.000
381.5240, 9754.000
382.7240, 9698.000
383.9240, 9627.000
385.1240, 9745.000
386.3240, 9732.000
387.5230, 9660.000
388.7230, 9900.000
389.9220, 9930.000
391.1210, 9836.000
392.3200, 9898.000
393.5180, 10114.00
394.7170, 10284.00
395.9150, 10297.00
397.1130, 10515.00
398.3110, 10682.00
399.5080, 11061.00
400.7060, 11422.00
401.9030, 11686.00
403.1000, 11854.00
404.2970, 11795.00
405.4940, 11747.00
406.6910, 11601.00
407.8870, 11396.00
409.0830, 11337.00
410.2790, 11422.00
411.4750, 11479.00
412.6710, 11408.00
413.8660, 11197.00
415.0610, 10868.00
416.2560, 10712.00
417.4510, 10524.00
418.6460, 10447.00
419.8410, 10192.00
421.0350, 10085.00
422.2290, 10147.00
423.4230, 9989.000
424.6170, 10118.00
425.8100, 10100.00
427.0040, 10135.00
428.1970, 10191.00
429.3900, 10258.00
430.5830, 10207.00
431.7760, 10261.00
432.9680, 10445.00
434.1610, 10610.00
435.3530, 10600.00
436.5450, 10853.00
437.7360, 10923.00
438.9280, 11255.00
440.1190, 11454.00
441.3110, 11937.00
442.5020, 12345.00
443.6930, 13091.00
444.8830, 14207.00
446.0740, 15125.00
447.2640, 16521.00
448.4540, 18047.00
449.6440, 19530.00
450.8340, 21394.00
452.0240, 23440.00
453.2130, 24145.00
454.4020, 24416.00
455.5910, 23463.00
456.7800, 22603.00
457.9690, 20937.00
459.1570, 19412.00
460.3460, 18222.00
461.5340, 17141.00
462.7220, 16683.00
463.9090, 16596.00
465.0970, 16941.00
466.2840, 17869.00
467.4720, 18831.00
468.6590, 20311.00
469.8460, 22082.00
471.0320, 24067.00
472.2190, 26097.00
473.4050, 28587.00
474.5910, 30214.00
475.7770, 30533.00
476.9630, 29722.00
478.1490, 28593.00
479.3340, 26626.00
480.5190, 24982.00
481.7040, 23567.00
482.8890, 22403.00
484.0740, 21376.00
485.2580, 20219.00
486.4430, 19304.00
487.6270, 17979.00
488.8110, 16853.00
489.9950, 16214.00
491.1780, 15292.00
492.3620, 14816.00
493.5450, 14829.00
494.7280, 14850.00
495.9110, 15167.00
497.0940, 15621.00
498.2760, 16148.00
499.4590, 17193.00
500.6410, 18560.00
501.8230, 20725.00
503.0050, 23178.00
504.1860, 26664.00
505.3680, 31042.00
506.5490, 35960.00
507.7300, 41625.00
508.9110, 48080.00
510.0920, 54875.00
511.2730, 61363.00
512.4530, 65134.00
513.6330, 65535.00
514.8130, 62850.00
515.9930, 58064.00
517.1730, 50913.00
518.3520, 43495.00
519.5320, 36546.00
520.7110, 30904.00
521.8900, 26466.00
523.0690, 23426.00
524.2470, 20948.00
525.4260, 19156.00
526.6040, 17835.00
527.7820, 16804.00
528.9600, 16106.00
530.1380, 15365.00
531.3150, 14768.00
532.4930, 14386.00
533.6700, 14091.00
534.8470, 13899.00
536.0240, 13530.00
537.2000, 13341.00
538.3770, 13118.00
539.5530, 12961.00
540.7290, 12847.43
541.9050, 12698.00
543.0810, 12687.00
544.2570, 12633.00
545.4320, 12583.00
546.6080, 12403.00
547.7830, 12364.00
548.9580, 12407.00
550.1320, 12252.00
551.3070, 12287.25
552.4810, 12242.25
553.6550, 12225.00
554.8300, 12243.00
556.0030, 12131.00
557.1770, 12240.00
558.3510, 12248.00
559.5240, 12052.00
560.6970, 12113.00
561.8700, 12199.00
563.0430, 12064.00
564.2160, 12020.00
565.3880, 12109.00
566.5600, 12025.00
567.7320, 12033.00
568.9040, 12017.00
570.0760, 12086.00
571.2480, 12102.00
572.4190, 12163.00
573.5900, 12190.00
574.7610, 12189.00
575.9320, 12357.00
577.1030, 12388.00
578.2740, 12639.00
579.4440, 12698.00
580.6140, 12769.00
581.7840, 12767.00
582.9540, 12938.00
584.1240, 12910.00
585.2930, 12798.00
586.4630, 12527.00
587.6320, 12347.00
588.8010, 12224.00
589.9700, 12138.00
591.1380, 12143.00
592.3070, 11938.00
593.4750, 11859.00
594.6430, 11739.00
595.8110, 11852.00
596.9790, 11788.00
598.1460, 11754.00
599.3140, 11645.00
600.4810, 11812.00
601.6480, 11854.00
602.8150, 11770.00
603.9820, 11858.00
605.1480, 11854.00
606.3150, 11883.00
607.4810, 11909.00
608.6470, 11708.00
609.8130, 11945.00
610.9790, 11953.00
612.1440, 11945.00
613.3100, 12189.00
614.4750, 12048.00
615.6400, 12033.00
616.8050, 11999.00
617.9690, 12112.00
619.1340, 12211.00
620.2980, 12261.00
621.4620, 12357.83
622.6260, 12500.00
623.7900, 12526.00
624.9540, 12667.00
626.1170, 12801.00
627.2810, 13006.00
628.4440, 12947.00
629.6070, 13002.00
630.7690, 13111.00
631.9320, 13030.00
633.0950, 13005.00
634.2570, 13014.00
635.4190, 13159.00
636.5810, 13233.00
637.7430, 13320.00
638.9040, 13383.00
640.0660, 13567.00
641.2270, 13472.00
642.3880, 13917.00
643.5490, 13826.00
644.7100, 14069.00
645.8700, 14277.00
647.0310, 14545.00
648.1910, 14668.00
649.3510, 15036.00
650.5110, 14976.00
651.6710, 15103.00
652.8300, 14926.00
653.9900, 14859.00
655.1490, 14787.00
656.3080, 14611.00
657.4670, 14282.00
658.6250, 14055.00
659.7840, 13916.00
660.9420, 13648.84
662.1010, 13513.00
663.2590, 13258.00
664.4170, 13060.00
665.5740, 12909.13
666.7320, 12954.00
667.8890, 12739.00
669.0460, 12700.00
670.2030, 12659.00
671.3600, 12593.00
672.5170, 12402.00
673.6740, 12418.00
674.8300, 12529.00
675.9860, 12612.00
677.1420, 12409.00
678.2980, 12269.00
679.4540, 12346.00
680.6090, 12384.00
681.7650, 12227.00
682.9200, 12262.00
684.0750, 12343.00
685.2300, 12273.00
686.3840, 12358.00
687.5390, 12317.00
688.6930, 12276.00
689.8470, 12296.00
691.0010, 12305.00
692.1550, 12413.00
693.3090, 12311.00
694.4620, 12410.00
695.6160, 12348.00
696.7690, 12244.00
697.9220, 12432.00
699.0750, 12460.00
700.2280, 12419.00
701.3800, 12308.00
702.5320, 12450.00
703.6850, 12441.00
704.8370, 12587.00
705.9880, 12632.00
707.1400, 12664.00
708.2920, 12638.00
709.4430, 12587.00
710.5940, 12668.00
711.7450, 12653.00
712.8960, 12589.00
714.0470, 12646.00
715.1970, 12637.33
716.3480, 12805.00
717.4980, 12695.00
718.6480, 12774.00
719.7980, 12816.00
720.9470, 12809.00
722.0970, 12873.00
723.2460, 12872.00
724.3960, 12937.38
725.5450, 12977.00
726.6940, 13037.00
727.8420, 13126.00
728.9910, 13112.00
730.1390, 13299.00
731.2870, 13452.00
732.4350, 13513.00
733.5830, 13533.00
734.7310, 13876.00
735.8790, 14006.00
737.0260, 14356.00
738.1730, 14665.00
739.3200, 15107.00
740.4670, 15638.00
741.6140, 16037.00
742.7610, 16796.00
743.9070, 17615.00
745.0530, 18254.00
746.1990, 19132.00
747.3450, 19757.00
748.4910, 20024.00
749.6370, 20156.00
750.7820, 19744.00
751.9270, 19091.00
753.0720, 18468.00
754.2170, 17448.00
755.3620, 16784.00
756.5070, 16107.00
757.6510, 15796.00
758.7950, 15257.00
759.9400, 15103.00
761.0840, 14787.00
762.2270, 14660.00
763.3710, 14482.00
764.5140, 14359.00
765.6580, 14410.00
766.8010, 14378.00
767.9440, 14226.00
769.0870, 14256.00
770.2290, 14222.00
771.3720, 14002.00
772.5140, 13903.00
773.6560, 13837.00
774.7990, 13793.00
775.9400, 13691.00
777.0820, 13516.00
778.2240, 13599.00
779.3650, 13432.00
780.5060, 13472.00
781.6470, 13522.00
782.7880, 13623.00
783.9290, 13589.00
785.0690, 13573.00
786.2100, 13628.00
787.3500, 13659.38
788.4900, 13692.74
789.6300, 13760.00
790.7700, 13824.00
791.9090, 13791.00
793.0490, 13936.00
794.1880, 14001.00
795.3270, 14008.00
796.4660, 14150.64
797.6050, 14181.00
798.7440, 14352.00
799.8820, 14445.00
801.0200, 14529.00
802.1590, 14964.00
803.2970, 15177.00
804.4340, 15691.00
805.5720, 16426.00
806.7100, 16985.00
807.8470, 17724.00
808.9840, 18856.00
810.1210, 19745.00
811.2580, 20617.00
812.3950, 20909.00
813.5310, 21012.00
814.6680, 20546.00
815.8040, 19978.00
816.9400, 18541.00
818.0760, 17501.00
819.2120, 16534.00
820.3470, 15856.00
821.4830, 15331.00
822.6180, 14973.00
823.7530, 14512.00
824.8880, 14539.00
826.0230, 14316.00
827.1580, 14281.00
828.2920, 14008.00
829.4270, 13836.00
830.5610, 14108.00
831.6950, 13860.00
832.8290, 13865.00
833.9620, 14022.00
835.0960, 13870.00
836.2290, 13762.00
837.3620, 13822.00
838.4950, 13832.00
839.6280, 13782.00
840.7610, 13830.00
841.8940, 13873.00
843.0260, 13786.00
844.1580, 13770.00
845.2910, 13822.00
846.4230, 13827.00
847.5540, 13885.00
848.6860, 13684.00
849.8170, 13603.00
850.9490, 13668.00
852.0800, 13800.00
853.2110, 13722.00
854.3420, 13797.00
855.4730, 13816.00
856.6030, 13843.00
857.7340, 13927.00
858.8640, 13887.00
859.9940, 13792.00
861.1240, 13880.00
862.2540, 13852.00
863.3830, 13842.00
864.5130, 13643.00
865.6420, 13901.00
866.7710, 13917.00
867.9000, 13917.00
869.0290, 14103.00
870.1570, 14004.00
871.2860, 13762.00
872.4140, 13967.00
873.5430, 13877.00
874.6710, 13873.00
875.7980, 13931.00
876.9260, 14008.00
878.0540, 13965.00
879.1810, 14010.00
880.3080, 13920.00
881.4360, 13965.00
882.5630, 14006.00
883.6890, 14018.00
884.8160, 14006.00
885.9420, 14081.00
887.0690, 14129.00
888.1950, 14266.00
889.3210, 14114.00
890.4470, 14084.00
891.5730, 14191.00
892.6980, 14085.00
893.8240, 14205.00
894.9490, 14109.00
896.0740, 14256.00
897.1990, 14183.00
898.3240, 14226.00
899.4480, 14293.00
900.5730, 14192.00
901.6970, 14197.00
902.8210, 14064.00
903.9450, 14153.00
905.0690, 14255.00
906.1930, 14223.00
907.3160, 14213.00
908.4400, 14314.00
909.5630, 14209.00
910.6860, 14257.00
911.8090, 14322.00
912.9320, 14294.00
914.0550, 14557.00
915.1770, 14386.00
916.2990, 14524.00
917.4210, 14325.00
918.5440, 14374.00
919.6650, 14577.00
920.7870, 14556.00
921.9090, 14430.00
923.0300, 14489.00
924.1510, 14554.00
925.2720, 14699.00
926.3930, 14595.00
927.5140, 14573.00
928.6350, 14589.00
929.7550, 14576.00
930.8760, 14634.00
931.9960, 14629.32
933.1160, 14643.00
934.2360, 14651.00
935.3550, 14751.00
936.4750, 14760.00
937.5940, 14688.00
938.7140, 14621.00
939.8330, 14832.00
940.9520, 14688.00
942.0710, 14698.00
943.1890, 14881.00
944.3080, 14737.00
945.4260, 14899.00
946.5440, 14903.00
947.6620, 14884.00
948.7800, 14893.00
949.8980, 14896.25
951.0160, 14985.00
952.1330, 14936.00
953.2500, 14975.00
954.3680, 15045.00
955.4850, 14933.00
956.6010, 15235.00
957.7180, 15020.00
958.8350, 15266.00
959.9510, 14996.00
961.0670, 15079.00
962.1830, 15176.00
963.2990, 15045.00
964.4150, 15165.00
965.5310, 15049.00
966.6460, 15149.00
967.7620, 15141.00
968.8770, 15246.00
969.9920, 15223.00
971.1070, 15376.00
972.2210, 15586.00
973.3360, 15514.00
974.4500, 15428.00
975.5650, 15407.00
976.6790, 15575.00
977.7930, 15637.00
978.9070, 15739.00
980.0200, 15774.00
981.1340, 15793.00
982.2470, 15916.00
983.3610, 16210.00
984.4740, 16232.00
985.5870, 16505.00
986.6990, 16686.00
987.8120, 17173.00
988.9250, 17581.00
990.0370, 17992.00
991.1490, 18190.00
992.2610, 18629.00
993.3730, 18760.00
994.4850, 18963.00
995.5960, 18836.00
996.7080, 18693.00
997.8190, 18408.00
998.9300, 18312.75
1000.041, 18069.00
1001.152, 17983.00
1002.263, 17873.00
1003.373, 17635.00
1004.484, 17548.00
1005.594, 17174.00
1006.704, 17064.00
1007.814, 16871.00
1008.924, 16814.00
1010.034, 16623.00
1011.143, 16603.00
1012.253, 16476.76
1013.362, 16270.00
1014.471, 16294.00
1015.580, 16241.00
1016.689, 16188.00
1017.797, 16327.00
1018.906, 16180.00
1020.014, 16300.00
1021.122, 16219.00
1022.230, 16200.00
1023.338, 16226.00
1024.446, 16165.00
1025.554, 16335.00
1026.661, 16260.00
1027.768, 16365.00
1028.875, 16517.00
1029.983, 16528.19
1031.089, 16642.80
1032.196, 16671.00
1033.303, 16740.00
1034.409, 16788.00
1035.515, 16728.00
1036.622, 16927.00
1037.728, 16992.00
1038.833, 17095.00
1039.939, 16997.00
1041.045, 17263.00
1042.150, 17235.11
1043.255, 18218.00
1044.360, 17258.00
1045.465, 17710.00
1046.570, 17596.00
1047.675, 16811.00
1048.779, 16636.00
1049.884, 16550.00
1050.988, 16573.00
1052.092, 16510.00
1053.196, 16386.00
1054.300, 16474.00
1055.404, 16394.00
1056.507, 16373.00
1057.610, 16335.00
1058.714, 16215.00
1059.817, 16344.00
1060.920, 16287.00
1062.022, 16057.00
1063.125, 16286.00
1064.228, 16227.00
1065.330, 16076.00
1066.432, 16235.00
1067.534, 16335.00
1068.636, 16205.00
1069.738, 16260.00
1070.840, 16213.00
1071.941, 16330.00
1073.042, 16216.00
1074.144, 16544.00
1075.245, 16481.00
1076.346, 16520.00
1077.446, 16410.00
1078.547, 16438.00
1079.647, 16492.00
1080.748, 16571.00
1081.848, 16519.00
1082.948, 16561.00
1084.048, 16787.00
1085.148, 16775.53
1086.247, 16900.41
1087.347, 16990.00
1088.446, 16967.00
1089.545, 17177.00
1090.644, 16997.00
1091.743, 17485.00
1092.842, 17282.00
1093.940, 17495.00
1095.039, 17726.00
1096.137, 18005.00
1097.235, 18051.90
1098.333, 18085.00
1099.431, 18094.00
1100.529, 17983.00
1101.627, 17878.00
1102.724, 17714.00
1103.822, 17663.00
1104.919, 17698.00
1106.016, 17557.00
1107.113, 17485.00
1108.209, 17803.00
1109.306, 17561.00
1110.402, 17859.00
1111.499, 17797.00
1112.595, 17947.00
1113.691, 18167.00
1114.787, 18465.00
1115.883, 18769.00
1116.978, 18994.00
1118.074, 19490.00
1119.169, 19817.00
1120.264, 20147.00
1121.359, 20492.00
1122.454, 20916.00
1123.549, 21062.00
1124.644, 20733.00
1125.738, 20793.00
1126.832, 20494.00
1127.927, 20308.00
1129.021, 20267.00
1130.115, 20076.00
1131.208, 20198.00
1132.302, 20260.00
1133.396, 20464.00
1134.489, 20701.00
1135.582, 20957.00
1136.675, 21292.00
1137.768, 21370.00
1138.861, 21330.00
1139.954, 21164.00
1141.046, 20939.00
1142.138, 20477.00
1143.231, 20049.00
1144.323, 19672.00
1145.415, 19325.72
1146.507, 18920.00
1147.598, 18724.00
1148.690, 18431.00
1149.781, 18152.00
1150.872, 18038.00
1151.964, 17997.00
1153.054, 17811.00
1154.145, 17661.00
1155.236, 17696.00
1156.327, 17839.00
1157.417, 17753.00
1158.507, 17723.00
1159.597, 17773.64
1160.687, 17722.00
1161.777, 17750.00
1162.867, 17611.00
1163.956, 17483.00
1165.046, 17539.00
1166.135, 17481.00
1167.224, 17510.00
1168.313, 17412.00
1169.402, 17425.00
1170.491, 17361.00
1171.580, 17533.00
1172.668, 17336.00
1173.756, 17493.00
1174.845, 17513.00
1175.933, 17410.00
1177.020, 17380.00
1178.108, 17490.00
1179.196, 17601.00
1180.283, 17350.00
1181.371, 17406.00
1182.458, 17459.00
1183.545, 17376.00
1184.632, 17535.00
1185.719, 17391.00
1186.805, 17379.00
1187.892, 17686.00
1188.978, 17483.00
1190.065, 17445.00
1191.151, 17534.00
1192.237, 17559.00
1193.323, 17512.00
1194.408, 17705.00
1195.494, 17770.00
1196.579, 17622.00
1197.664, 17586.00
1198.750, 17483.00
1199.835, 17552.00
1200.919, 17816.00
1202.004, 17737.00
1203.089, 17678.00
1204.173, 17478.00
1205.258, 17506.71
1206.342, 17780.00
1207.426, 17541.00
1208.510, 17678.00
1209.594, 17805.00
1210.677, 17582.00
1211.761, 17750.00
1212.844, 17816.00
1213.927, 17642.00
1215.010, 17713.00
1216.093, 17818.00
1217.176, 17798.00
1218.259, 17827.00
1219.341, 17855.64
1220.424, 17806.00
1221.506, 17863.00
1222.588, 17896.00
1223.670, 17869.00
1224.752, 17843.00
1225.834, 17975.00
1226.915, 17847.00
1227.997, 17754.00
1229.078, 17892.00
1230.159, 17966.00
1231.240, 17987.00
1232.321, 18028.00
1233.402, 17857.00
1234.483, 17973.00
1235.563, 17893.00
1236.644, 18050.00
1237.724, 18240.00
1238.804, 18005.00
1239.884, 18054.00
1240.964, 18135.00
1242.044, 18149.00
1243.123, 17904.00
1244.203, 18108.00
1245.282, 18072.00
1246.361, 17832.00
1247.440, 18002.00
1248.519, 17961.00
1249.598, 18285.00
1250.676, 17961.00
1251.755, 18196.00
1252.833, 18132.00
1253.911, 18333.00
1254.989, 18346.00
1256.067, 18150.00
1257.145, 18241.00
1258.223, 18303.00
1259.300, 18372.00
1260.378, 18382.95
1261.455, 18391.93
1262.532, 18318.00
1263.609, 18357.00
1264.686, 18200.00
1265.763, 18172.00
1266.840, 18379.00
1267.916, 18169.00
1268.992, 18341.00
1270.069, 18399.00
1271.145, 18302.00
1272.221, 18364.00
1273.296, 18383.00
1274.372, 18435.00
1275.448, 18386.00
1276.523, 18431.00
1277.598, 18505.00
1278.673, 18332.00
1279.749, 18571.00
1280.823, 18439.00
1281.898, 18339.00
1282.973, 18503.00
1284.047, 18650.00
1285.122, 18607.00
1286.196, 18619.00
1287.270, 18579.00
1288.344, 18652.00
1289.418, 18674.00
1290.491, 18611.00
1291.565, 18688.00
1292.638, 18508.00
1293.712, 18767.00
1294.785, 18729.00
1295.858, 18737.00
1296.931, 18567.00
1298.003, 18700.00
1299.076, 18634.00
1300.149, 18609.00
1301.221, 18724.00
1302.293, 18640.00
1303.365, 18714.00
1304.437, 18752.00
1305.509, 18601.00
1306.581, 18926.00
1307.652, 19137.00
1308.724, 18910.00
1309.795, 18879.00
1310.866, 18841.00
