##NAMES=Microcline
##RRUFFID=R050150
##IDEAL CHEMISTRY=KAlSi_3_O_8_
##LOCALITY=Crystal Peak area, Park/Teller Counties, Colorado, USA
##OWNER=RRUFF
##SOURCE=Dave Bunk Minerals
##DESCRIPTION=Pale blue prismatic crystals
##STATUS=The identification of this mineral has been confirmed by X-ray diffraction and chemical analysis
##URL=rruff.info/R050150
##MEASURED CHEMISTRY=(K_0.95_Na_0.05_)_Î£=1_Al_1.00_Si_3.00_O_8_
##PIN_ID=L00941
##ORIENTATION=Laser parallel to (-1 0 -1). Fiducial mark perpendicular to laser is parallel to -b [0 -1 0]
137.6830, 14374.00
138.9210, 15000.00
140.1580, 15987.00
141.3950, 17034.00
142.6330, 17844.00
143.8690, 18474.00
145.1060, 18751.00
146.3430, 19117.00
147.5790, 19691.00
148.8150, 20343.00
150.0510, 20992.00
151.2870, 21707.00
152.5220, 22123.00
153.7580, 21807.00
154.9930, 20806.00
156.2280, 19173.00
157.4620, 17761.00
158.6970, 16457.00
159.9310, 15719.00
161.1660, 15467.00
162.4000, 15652.00
163.6330, 15621.00
164.8670, 15767.00
166.1000, 15928.00
167.3340, 16105.00
168.5670, 16212.00
169.8000, 16564.00
171.0320, 16935.00
172.2650, 17534.00
173.4970, 17907.00
174.7290, 18450.00
175.9610, 18989.00
177.1930, 19542.00
178.4240, 20110.00
179.6550, 20510.00
180.8870, 20878.00
182.1170, 21222.00
183.3480, 21508.00
184.5790, 22091.00
185.8090, 22345.00
187.0390, 22592.00
188.2690, 22359.00
189.4990, 22346.00
190.7290, 21851.00
191.9580, 20844.00
193.1870, 19953.00
194.4160, 19218.00
195.6450, 18747.30
196.8740, 18341.00
198.1020, 18376.00
199.3310, 18358.00
200.5590, 18778.00
201.7870, 18871.00
203.0140, 19051.00
204.2420, 18903.00
205.4690, 18943.00
206.6960, 18989.00
207.9230, 19334.00
209.1500, 19697.00
210.3760, 20164.00
211.6030, 20094.00
212.8290, 19760.00
214.0550, 19129.00
215.2810, 18040.00
216.5060, 16871.00
217.7320, 15840.00
218.9570, 15022.00
220.1820, 14518.00
221.4070, 14122.00
222.6320, 13793.00
223.8560, 13678.00
225.0800, 13485.00
226.3040, 13424.03
227.5280, 13326.00
228.7520, 13412.00
229.9760, 13399.00
231.1990, 13417.00
232.4220, 13323.00
233.6450, 13375.00
234.8680, 13316.00
236.0910, 13445.00
237.3130, 13432.00
238.5350, 13548.00
239.7570, 13607.00
240.9790, 13834.00
242.2010, 14110.00
243.4220, 14237.00
244.6430, 14494.00
245.8640, 14675.00
247.0850, 14693.00
248.3060, 14947.00
249.5270, 15206.00
250.7470, 15533.00
251.9670, 15889.00
253.1870, 16237.00
254.4070, 16593.00
255.6260, 16665.00
256.8460, 16696.00
258.0650, 16779.00
259.2840, 16925.00
260.5030, 17115.00
261.7220, 17180.00
262.9400, 17216.00
264.1580, 17300.00
265.3760, 17660.00
266.5940, 17888.00
267.8120, 18169.00
269.0290, 18405.00
270.2470, 18618.00
271.4640, 18536.00
272.6810, 18453.00
273.8980, 18585.00
275.1140, 18092.00
276.3310, 17645.00
277.5470, 17576.00
278.7630, 17568.00
279.9790, 17720.00
281.1940, 18156.00
282.4100, 18958.00
283.6250, 19531.00
284.8400, 20196.00
286.0550, 20673.00
287.2700, 20898.00
288.4850, 21532.00
289.6990, 22958.00
290.9130, 22704.00
292.1270, 23134.00
293.3410, 23128.00
294.5540, 22613.00
295.7680, 21817.00
296.9810, 20384.00
298.1940, 19191.00
299.4070, 17874.00
300.6200, 17002.00
301.8320, 16436.00
303.0450, 15882.00
304.2570, 15447.00
305.4690, 15104.00
306.6800, 15058.00
307.8920, 14972.00
309.1030, 14784.00
310.3150, 14890.00
311.5260, 14757.00
312.7360, 14541.00
313.9470, 14803.00
315.1580, 14664.00
316.3680, 14755.00
317.5780, 14874.00
318.7880, 15134.00
319.9980, 15226.00
321.2070, 15420.24
322.4170, 15516.00
323.6260, 15782.00
324.8350, 15938.00
326.0430, 16161.00
327.2520, 16457.00
328.4610, 16568.00
329.6690, 17039.00
330.8770, 17006.00
332.0850, 17116.00
333.2920, 16775.00
334.5000, 16523.00
335.7070, 15967.00
336.9140, 15502.00
338.1210, 15332.00
339.3280, 15257.00
340.5350, 14980.00
341.7410, 15051.00
342.9470, 14901.00
344.1540, 14879.00
345.3590, 14874.00
346.5650, 14897.04
347.7710, 14889.00
348.9760, 14953.00
350.1810, 15125.00
351.3860, 14948.00
352.5910, 15023.00
353.7950, 14794.00
355.0000, 14912.00
356.2040, 14939.00
357.4080, 14940.00
358.6120, 14825.00
359.8150, 14947.00
361.0190, 14872.00
362.2220, 14917.00
363.4250, 15036.00
364.6280, 14945.00
365.8310, 15031.00
367.0340, 14895.00
368.2360, 15200.00
369.4380, 15041.00
370.6400, 15279.00
371.8420, 15173.00
373.0440, 15216.00
374.2450, 15110.00
375.4470, 15196.00
376.6480, 15185.00
377.8490, 15117.00
379.0490, 14944.00
380.2500, 15174.00
381.4500, 15095.00
382.6510, 15176.00
383.8510, 15059.00
385.0500, 15291.00
386.2500, 15311.00
387.4500, 15242.00
388.6490, 15516.00
389.8480, 15737.00
391.0470, 15674.00
392.2460, 15741.00
393.4440, 15912.00
394.6430, 15985.20
395.8410, 16238.00
397.0390, 16361.00
398.2370, 16714.00
399.4340, 17056.00
400.6320, 17271.00
401.8290, 17588.00
403.0260, 17463.00
404.2230, 17587.00
405.4200, 17691.00
406.6170, 17666.00
407.8130, 18223.00
409.0090, 18723.00
410.2050, 18878.00
411.4010, 18984.00
412.5970, 18770.00
413.7920, 18576.00
414.9880, 18828.00
416.1830, 18867.00
417.3780, 19117.00
418.5730, 19351.00
419.7670, 19141.00
420.9620, 18953.00
422.1560, 18192.00
423.3500, 17310.00
424.5440, 16932.00
425.7380, 16500.00
426.9310, 16382.00
428.1240, 16392.00
429.3180, 16375.00
430.5110, 16297.00
431.7030, 16218.00
432.8960, 16345.00
434.0890, 16409.00
435.2810, 16516.00
436.4730, 16613.00
437.6650, 16599.00
438.8570, 16834.00
440.0480, 16772.00
441.2390, 16757.00
442.4310, 17339.00
443.6220, 17782.00
444.8120, 18136.00
446.0030, 18712.00
447.1940, 19359.00
448.3840, 20352.00
449.5740, 21040.00
450.7640, 21889.00
451.9540, 22490.00
453.1430, 23293.00
454.3330, 24121.00
455.5220, 24698.00
456.7110, 25453.00
457.9000, 25851.00
459.0890, 26013.00
460.2770, 25416.00
461.4650, 24417.00
462.6540, 23546.00
463.8420, 22753.00
465.0290, 22137.00
466.2170, 22143.00
467.4050, 22716.00
468.5920, 23807.00
469.7790, 25685.00
470.9660, 27670.00
472.1530, 29884.00
473.3390, 31972.00
474.5250, 33134.00
475.7120, 34874.00
476.8980, 36402.00
478.0840, 38085.00
479.2690, 40257.00
480.4550, 41362.00
481.6400, 41831.00
482.8250, 40163.00
484.0100, 37366.00
485.1950, 33692.00
486.3800, 29933.00
487.5640, 26903.00
488.7480, 24882.00
489.9320, 23562.00
491.1160, 22906.00
492.3000, 22559.00
493.4840, 22718.00
494.6670, 23107.00
495.8500, 24051.00
497.0330, 25855.00
498.2160, 28051.00
499.3990, 31375.00
500.5810, 34185.00
501.7630, 37013.00
502.9460, 39151.00
504.1280, 41355.00
505.3090, 44133.00
506.4910, 47551.00
507.6720, 50874.00
508.8540, 53036.00
510.0350, 53816.00
511.2160, 52027.00
512.3960, 48703.00
513.5770, 43850.00
514.7570, 39081.00
515.9380, 34511.00
517.1180, 30897.00
518.2970, 28276.00
519.4770, 26242.00
520.6570, 24436.00
521.8360, 23103.00
523.0150, 22288.00
524.1940, 21431.00
525.3730, 21162.00
526.5510, 20512.00
527.7300, 20401.00
528.9080, 19971.00
530.0860, 19736.00
531.2640, 19599.00
532.4420, 19314.00
533.6200, 19224.20
534.7970, 19056.00
535.9740, 19016.00
537.1510, 18843.00
538.3280, 18741.00
539.5050, 18694.00
540.6810, 18772.00
541.8580, 18740.00
543.0340, 18734.00
544.2100, 18605.00
545.3860, 18644.00
546.5610, 18668.00
547.7370, 18389.00
548.9120, 18512.00
550.0870, 18470.00
551.2620, 18500.00
552.4370, 18467.00
553.6120, 18354.00
554.7860, 18512.00
555.9600, 18390.00
557.1340, 18375.00
558.3080, 18605.00
559.4820, 18635.00
560.6560, 18522.00
561.8290, 18550.00
563.0020, 18486.00
564.1750, 18515.00
565.3480, 18625.00
566.5210, 18528.00
567.6930, 18613.00
568.8660, 18701.00
570.0380, 18652.00
571.2100, 18913.00
572.3820, 19130.00
573.5530, 19124.00
574.7250, 19287.00
575.8960, 19305.00
577.0670, 19287.00
578.2380, 19544.00
579.4090, 19678.00
580.5800, 19578.00
581.7500, 19585.00
582.9210, 19506.00
584.0910, 19338.00
585.2610, 19350.00
586.4300, 19072.00
587.6000, 18839.00
588.7690, 18672.00
589.9390, 18909.00
591.1080, 18613.00
592.2770, 18727.00
593.4450, 18556.00
594.6140, 18526.00
595.7820, 18392.00
596.9500, 18527.00
598.1190, 18720.00
599.2860, 18507.00
600.4540, 18705.00
601.6220, 18511.00
602.7890, 18664.00
603.9560, 18499.00
605.1230, 18617.00
606.2900, 18726.00
607.4570, 18656.00
608.6230, 18802.00
609.7890, 18611.00
610.9560, 18734.00
612.1220, 18809.00
613.2870, 18854.00
614.4530, 18850.73
615.6180, 18804.00
616.7840, 18778.00
617.9490, 18840.00
619.1140, 18829.00
620.2790, 18954.00
621.4430, 18821.00
622.6080, 18911.00
623.7720, 18930.00
624.9360, 19039.00
626.1000, 19343.00
627.2640, 19076.00
628.4270, 19206.80
629.5910, 19554.00
630.7540, 19240.00
631.9170, 19239.00
633.0800, 19490.00
634.2430, 19295.00
635.4050, 19456.00
636.5680, 19504.00
637.7300, 19456.00
638.8920, 19827.00
640.0540, 19567.00
641.2150, 19789.00
642.3770, 20740.00
643.5380, 20780.00
644.7000, 20394.00
645.8610, 21459.00
647.0210, 20280.00
648.1820, 19919.00
649.3430, 20182.00
650.5030, 20283.00
651.6630, 20094.00
652.8230, 19915.00
653.9830, 19984.00
655.1430, 19901.00
656.3020, 19721.00
657.4620, 19681.00
658.6210, 19579.00
659.7800, 19513.00
660.9390, 19533.00
662.0970, 19774.00
663.2560, 19565.00
664.4140, 19335.00
665.5720, 19640.00
666.7300, 19456.00
667.8880, 19609.00
669.0460, 19430.00
670.2030, 19656.00
671.3600, 19596.00
672.5180, 19507.00
673.6740, 19635.00
674.8310, 19679.00
675.9880, 19682.17
677.1440, 19490.00
678.3010, 19668.00
679.4570, 19614.00
680.6130, 19447.00
681.7690, 19746.00
682.9240, 19604.00
684.0800, 19561.00
685.2350, 19538.00
686.3900, 19793.00
687.5450, 19686.00
688.7000, 19658.00
689.8540, 19545.00
691.0090, 19637.00
692.1630, 19658.00
693.3170, 19752.00
694.4710, 19843.00
695.6250, 19697.00
696.7780, 19671.00
697.9320, 19903.00
699.0850, 19738.00
700.2380, 19760.00
701.3910, 19795.00
702.5440, 19974.00
703.6970, 19975.00
704.8490, 19797.00
706.0010, 20068.00
707.1530, 19934.00
708.3050, 19914.00
709.4570, 19901.00
710.6090, 19932.00
711.7600, 20084.00
712.9110, 20113.00
714.0620, 20085.00
715.2130, 20160.00
716.3640, 20032.00
717.5150, 20102.00
718.6650, 20105.00
719.8150, 20293.00
720.9650, 20364.00
722.1150, 20276.00
723.2650, 20286.00
724.4150, 20442.00
725.5640, 20380.00
726.7130, 20551.00
727.8630, 20493.00
729.0110, 20469.00
730.1600, 20442.00
731.3090, 20527.00
732.4570, 20570.02
733.6060, 20559.00
734.7540, 20762.00
735.9020, 20799.00
737.0490, 20906.00
738.1970, 21002.00
739.3440, 20960.00
740.4920, 21311.00
741.6390, 21246.00
742.7860, 21442.00
743.9320, 21844.00
745.0790, 21665.00
746.2250, 22188.00
747.3720, 22371.00
748.5180, 22551.00
749.6640, 22798.00
750.8100, 23029.00
751.9550, 23254.00
753.1010, 23735.00
754.2460, 24091.00
755.3910, 24911.00
756.5360, 25851.00
757.6810, 26982.00
758.8250, 27674.00
759.9700, 28667.00
761.1140, 29757.00
762.2580, 30457.00
763.4020, 31239.00
764.5460, 31782.00
765.6900, 31768.00
766.8330, 31031.00
767.9760, 29873.00
769.1200, 28197.00
770.2620, 26534.00
771.4050, 25495.00
772.5480, 24523.00
773.6900, 23660.00
774.8330, 23297.00
775.9750, 22887.00
777.1170, 22412.00
778.2590, 22458.00
779.4000, 22464.00
780.5420, 22358.00
781.6830, 22093.00
782.8240, 21972.00
783.9650, 21951.00
785.1060, 21882.00
786.2470, 21686.00
787.3870, 21787.00
788.5280, 21816.00
789.6680, 21675.00
790.8080, 21895.00
791.9480, 22115.00
793.0870, 21923.00
794.2270, 21879.00
795.3660, 22074.00
796.5060, 22156.00
797.6450, 22263.00
798.7830, 22285.00
799.9220, 22598.00
801.0610, 22618.00
802.1990, 22943.00
803.3370, 23517.00
804.4750, 23845.00
805.6130, 24463.00
806.7510, 25444.00
807.8890, 26264.00
809.0260, 27596.00
810.1630, 28863.00
811.3000, 29850.00
812.4370, 30872.00
813.5740, 31595.00
814.7110, 32405.00
815.8470, 32584.00
816.9830, 32899.00
818.1190, 32149.00
819.2550, 30595.00
820.3910, 28961.00
821.5270, 27550.00
822.6620, 26056.00
823.7970, 24970.00
824.9330, 24383.00
826.0670, 23888.00
827.2020, 23589.00
828.3370, 23276.00
829.4710, 22937.00
830.6060, 22973.00
831.7400, 22912.00
832.8740, 22888.00
834.0080, 22755.00
835.1410, 22718.00
836.2750, 22477.00
837.4080, 22477.00
838.5410, 22333.00
839.6740, 22586.00
840.8070, 22557.00
841.9400, 22486.00
843.0730, 22363.00
844.2050, 22322.00
845.3370, 22368.00
846.4690, 22402.00
847.6010, 22521.00
848.7330, 22476.00
849.8640, 22221.00
850.9960, 22605.00
852.1270, 22363.00
853.2580, 22452.00
854.3890, 22199.00
855.5200, 22435.00
856.6500, 22368.00
857.7810, 22326.00
858.9110, 22212.00
860.0410, 22537.00
861.1710, 22298.00
862.3010, 22412.00
863.4310, 22324.00
864.5600, 22393.00
865.6900, 22379.00
866.8190, 22637.00
867.9480, 22502.00
869.0770, 22719.00
870.2050, 23028.00
871.3340, 22834.00
872.4620, 22484.00
873.5900, 22566.00
874.7180, 22526.00
875.8460, 22493.00
876.9740, 22496.00
878.1010, 22628.00
879.2290, 22557.00
880.3560, 22709.00
881.4830, 22662.00
882.6100, 22662.00
883.7370, 22651.00
884.8630, 22785.00
885.9900, 22768.00
887.1160, 22593.00
888.2420, 22774.00
889.3680, 22656.00
890.4940, 22845.00
891.6200, 22697.00
892.7450, 22985.00
893.8700, 22853.00
894.9960, 22917.00
896.1210, 22861.00
897.2460, 23116.00
898.3700, 22779.00
899.4950, 23176.00
900.6190, 22981.00
901.7430, 23011.00
902.8670, 23184.00
903.9910, 23120.00
905.1150, 23093.00
906.2390, 23134.00
907.3620, 23125.00
908.4850, 23167.82
909.6080, 23214.00
910.7310, 23270.00
911.8540, 23262.00
912.9770, 23325.00
914.0990, 23357.00
915.2210, 23452.00
916.3440, 23290.00
917.4660, 23233.00
918.5870, 23191.00
919.7090, 23464.00
920.8310, 23431.00
921.9520, 23465.00
923.0730, 23478.00
924.1940, 23425.00
925.3150, 23590.00
926.4360, 23418.00
927.5560, 23460.00
928.6770, 23651.00
929.7970, 23603.00
930.9170, 23400.00
932.0370, 23774.00
933.1570, 23611.00
934.2760, 23875.00
935.3960, 23627.00
936.5150, 23652.00
937.6340, 23674.00
938.7530, 23819.00
939.8720, 23971.00
940.9910, 23655.00
942.1090, 23932.00
943.2280, 23838.00
944.3460, 23912.00
945.4640, 23941.00
946.5820, 24012.00
947.6990, 24054.99
948.8170, 23993.00
949.9340, 24080.00
951.0520, 24102.00
952.1690, 23972.00
953.2860, 24181.00
954.4030, 24081.00
955.5190, 24096.00
956.6360, 24220.00
957.7520, 24226.00
958.8680, 24267.67
959.9840, 24335.00
961.1000, 24288.00
962.2160, 24321.00
963.3310, 24273.00
964.4470, 24432.00
965.5620, 24641.00
966.6770, 24471.00
967.7920, 24669.00
968.9060, 24874.00
970.0210, 24930.00
971.1360, 25056.00
972.2500, 25339.00
973.3640, 25440.00
974.4780, 25553.00
975.5920, 25626.00
976.7050, 25965.00
977.8190, 26099.00
978.9320, 26163.00
980.0450, 25888.00
981.1580, 25908.00
982.2710, 25867.00
983.3840, 25452.00
984.4970, 25322.00
985.6090, 25410.00
986.7210, 25214.00
987.8330, 25413.00
988.9450, 25189.00
990.0570, 25421.00
991.1690, 25345.00
992.2800, 25420.00
993.3920, 25428.00
994.5030, 25716.00
995.6140, 25631.00
996.7250, 25667.00
997.8350, 25436.00
998.9460, 25670.00
1000.056, 25859.00
1001.167, 26063.00
1002.277, 26267.00
1003.387, 26208.00
1004.496, 26469.00
1005.606, 26474.00
1006.715, 26402.00
1007.825, 26540.00
1008.934, 26441.00
1010.043, 26412.14
1011.152, 26706.00
1012.260, 26298.00
1013.369, 26238.00
1014.477, 26227.00
1015.586, 26449.00
1016.694, 26374.00
1017.802, 26146.00
1018.909, 26171.00
1020.017, 26071.00
1021.124, 25893.00
1022.232, 25840.00
1023.339, 25691.00
1024.446, 25760.00
1025.553, 25717.63
1026.659, 25939.00
1027.766, 25824.00
1028.872, 25854.00
1029.979, 26051.00
1031.085, 25864.00
1032.191, 26307.00
1033.296, 25996.00
1034.402, 26025.00
1035.507, 26168.00
1036.613, 25828.00
1037.718, 25996.00
1038.823, 26105.00
1039.928, 26231.00
1041.032, 26337.00
1042.137, 26348.00
1043.241, 26548.00
1044.346, 26432.00
1045.450, 26346.00
1046.554, 26413.00
1047.657, 26367.00
1048.761, 26494.00
1049.864, 26437.00
1050.968, 26194.00
1052.071, 26397.00
1053.174, 26283.00
1054.277, 25978.00
1055.379, 25988.00
1056.482, 26236.00
1057.584, 26145.00
1058.687, 26042.00
1059.789, 26218.00
1060.891, 26208.00
1061.992, 26227.00
1063.094, 26318.00
1064.196, 26118.00
1065.297, 26438.00
1066.398, 26267.00
1067.499, 26298.00
1068.600, 26380.00
1069.701, 26283.00
1070.801, 26305.00
1071.902, 26500.00
1073.002, 26100.00
1074.102, 26346.00
1075.202, 26366.00
1076.302, 26303.00
1077.402, 26529.00
1078.501, 26798.00
1079.600, 26836.00
1080.700, 26817.00
1081.799, 26961.00
1082.898, 27043.00
1083.996, 27065.00
1085.095, 27103.00
1086.193, 27386.00
1087.292, 27601.00
1088.390, 27870.00
1089.488, 27878.00
1090.586, 28393.00
1091.683, 28686.00
1092.781, 29374.00
1093.878, 29597.00
1094.975, 30367.00
1096.073, 30794.00
1097.169, 30828.00
1098.266, 31427.00
1099.363, 31209.00
1100.459, 31260.00
1101.556, 31077.00
1102.652, 30793.00
1103.748, 30237.00
1104.844, 29852.00
1105.940, 29275.00
1107.035, 28989.00
1108.131, 28751.00
1109.226, 28416.00
1110.321, 28184.00
1111.416, 28226.00
1112.511, 28388.00
1113.605, 27868.00
1114.700, 28059.00
1115.794, 28048.00
1116.889, 28098.00
1117.983, 28027.00
1119.077, 28152.00
1120.170, 28203.00
1121.264, 28321.00
1122.357, 28212.00
1123.451, 28066.00
1124.544, 28262.00
1125.637, 28012.00
1126.730, 27864.00
1127.823, 27831.00
1128.915, 27927.00
1130.008, 27932.00
1131.100, 27764.00
1132.192, 27699.00
1133.284, 27642.00
1134.376, 27804.00
1135.467, 27635.00
1136.559, 27878.00
1137.650, 27825.00
1138.742, 27874.00
1139.833, 27628.00
1140.924, 27753.00
1142.014, 27886.00
1143.105, 27621.00
1144.195, 27787.00
1145.286, 27903.00
1146.376, 27844.00
1147.466, 28045.00
1148.556, 27737.00
1149.646, 27825.00
1150.735, 27951.00
1151.825, 27815.00
1152.914, 28059.00
1154.003, 27950.74
1155.092, 27923.00
1156.181, 27903.00
1157.270, 27813.00
1158.358, 27904.00
1159.447, 27807.00
1160.535, 27898.00
1161.623, 27904.00
1162.711, 27747.00
1163.799, 27916.00
1164.886, 27867.00
1165.974, 27886.00
1167.061, 27764.00
1168.148, 27654.00
1169.235, 27821.00
1170.322, 27751.00
1171.409, 27934.00
1172.496, 27871.00
1173.582, 27907.00
1174.669, 27743.00
1175.755, 27842.00
1176.841, 27849.00
1177.927, 27764.00
1179.012, 27927.00
1180.098, 27715.00
1181.183, 28158.00
1182.269, 28024.00
1183.354, 28153.00
1184.439, 28083.00
1185.524, 28003.00
1186.608, 28014.00
1187.693, 28035.32
1188.777, 28030.00
1189.862, 28153.00
1190.946, 28139.00
1192.030, 28167.00
1193.113, 28278.00
1194.197, 28253.00
1195.281, 28299.00
1196.364, 28359.00
1197.447, 28465.00
1198.530, 28340.00
1199.613, 28404.00
1200.696, 28269.00
1201.779, 28395.00
1202.861, 28320.00
1203.944, 28175.00
1205.026, 28272.00
1206.108, 28583.00
1207.190, 28424.00
1208.271, 28661.00
1209.353, 28327.00
1210.435, 28521.00
1211.516, 28502.00
1212.597, 28619.00
1213.678, 28577.00
1214.759, 28446.00
1215.840, 28789.00
1216.920, 28564.00
1218.001, 28599.00
1219.081, 28565.00
1220.161, 28596.00
1221.241, 28664.00
1222.321, 28724.00
1223.401, 28609.00
1224.480, 28849.00
1225.560, 28926.00
1226.639, 28715.00
1227.718, 28771.00
1228.797, 28801.00
1229.876, 28698.00
1230.955, 28974.00
1232.033, 28890.00
1233.112, 28983.00
1234.190, 29015.00
1235.268, 29013.00
1236.346, 29024.00
1237.424, 28874.00
1238.501, 28846.00
1239.579, 28854.41
1240.656, 28933.00
1241.733, 28930.00
1242.811, 28853.00
1243.888, 28959.00
1244.964, 28987.00
1246.041, 29097.00
1247.117, 28951.00
1248.194, 28966.00
1249.270, 28894.00
1250.346, 28937.00
1251.422, 29280.00
1252.498, 29222.00
1253.573, 29243.00
1254.649, 29251.00
1255.724, 29208.00
1256.800, 29316.00
1257.875, 29499.00
1258.950, 29482.00
1260.024, 29081.00
1261.099, 29173.00
1262.173, 29358.00
1263.248, 29215.00
1264.322, 29473.00
1265.396, 29323.00
1266.470, 29195.00
1267.544, 29337.00
1268.617, 29599.00
1269.691, 29642.00
1270.764, 29618.00
1271.837, 29569.00
1272.910, 29660.00
1273.983, 29502.00
1275.056, 29739.00
1276.129, 29727.00
1277.201, 29421.00
1278.273, 29778.00
1279.346, 29651.00
1280.418, 29754.00
1281.489, 29657.00
1282.561, 29752.00
1283.633, 29716.00
1284.704, 29821.00
1285.776, 29694.00
1286.847, 29964.00
1287.918, 29845.00
1288.989, 29935.00
1290.059, 29864.00
1291.130, 29930.05
1292.200, 29969.00
1293.271, 30011.00
1294.341, 30136.00
1295.411, 30041.00
1296.481, 30130.00
1297.551, 29965.00
1298.620, 30310.00
1299.690, 30259.00
1300.759, 30025.00
1301.828, 30373.00
1302.897, 30180.00
1303.966, 30192.00
1305.035, 30296.00
1306.103, 30284.00
1307.172, 30488.00
1308.240, 30435.00
1309.308, 30435.00
1310.376, 30322.00
1311.444, 30320.00
1312.512, 30359.00
