##NAMES=Microcline
##RRUFFID=R050193
##IDEAL CHEMISTRY=KAlSi_3_O_8_
##LOCALITY=Devil's Head, Douglas County, Colorado, USA
##OWNER=RRUFF
##SOURCE=Dave Bunk Minerals
##DESCRIPTION=White to colorless heterogeneous mixture of K and Na feldspar in a cluster of crystals. Crystal structure determined, presented below. This sample is known as an intermediate microcline in the literature.
##STATUS=The identification of this mineral has been confirmed by X-ray diffraction and chemical analysis
##URL=rruff.info/R050193
##MEASURED CHEMISTRY=(K_0.929_Na_0.071_)(Al_1.005_Si_2.994_Fe_0.001_)O_7.993_F_0.007_  ; Light Band :  (Na_0.973_K_0.007_Ca_0.020_)(Al_1.020_Si_2.980_)O_8_ ; Dark Band
##PIN_ID=L00861
##ORIENTATION=Laser parallel to (0 1 1). Fiducial mark perpendicular to laser is parallel to -a [-1 0 0]
62.16800, 6682.000
63.41100, 7639.000
64.65300, 8454.000
65.89600, 9399.000
67.13800, 10510.00
68.38000, 11508.00
69.62200, 12616.00
70.86300, 13881.00
72.10500, 15405.00
73.34600, 16363.00
74.58700, 17731.00
75.82800, 19420.00
77.06900, 19952.00
78.30900, 20688.00
79.55000, 21358.00
80.79000, 22658.00
82.03000, 23924.00
83.27000, 25640.00
84.51000, 26504.00
85.74900, 26970.00
86.98900, 27497.00
88.22800, 27472.00
89.46700, 27105.00
90.70600, 26689.00
91.94400, 26824.00
93.18300, 26562.00
94.42100, 26875.00
95.65900, 26536.00
96.89700, 26056.00
98.13500, 26654.00
99.37300, 26767.00
100.6100, 27207.00
101.8480, 27967.00
103.0850, 29130.00
104.3220, 30316.00
105.5590, 31567.00
106.7950, 32781.00
108.0320, 33833.00
109.2680, 34341.32
110.5040, 34207.00
111.7400, 34907.00
112.9760, 34872.00
114.2120, 34849.00
115.4470, 34763.00
116.6820, 33926.00
117.9170, 32767.00
119.1520, 31653.00
120.3870, 30654.00
121.6220, 29374.00
122.8560, 28668.00
124.0900, 28359.00
125.3240, 27982.00
126.5580, 27940.00
127.7920, 27673.00
129.0260, 27716.77
130.2590, 27984.00
131.4920, 27972.00
132.7250, 28322.00
133.9580, 28663.00
135.1910, 29363.00
136.4230, 30224.00
137.6560, 31342.00
138.8880, 32414.00
140.1200, 33930.00
141.3520, 34984.00
142.5830, 36136.00
143.8150, 37603.00
145.0460, 38697.00
146.2770, 39905.00
147.5080, 41487.00
148.7390, 42035.00
149.9700, 43339.00
151.2000, 44124.00
152.4310, 44917.00
153.6610, 45540.00
154.8910, 46603.00
156.1210, 47489.00
157.3500, 47903.00
158.5800, 48260.00
159.8090, 48784.00
161.0380, 48275.00
162.2670, 48096.00
163.4960, 47436.00
164.7240, 46084.00
165.9530, 44793.00
167.1810, 43578.00
168.4090, 42838.00
169.6370, 42118.00
170.8650, 42013.00
172.0920, 41859.00
173.3200, 41992.00
174.5470, 42126.00
175.7740, 42423.00
177.0010, 43548.00
178.2280, 44682.00
179.4540, 45722.00
180.6810, 47185.00
181.9070, 47940.00
183.1330, 48473.00
184.3590, 48726.00
185.5850, 48137.00
186.8100, 46996.00
188.0350, 45835.00
189.2610, 43990.00
190.4860, 42205.00
191.7110, 40143.00
192.9350, 38668.00
194.1600, 37244.00
195.3840, 36373.00
196.6080, 36045.00
197.8320, 35496.00
199.0560, 35764.00
200.2800, 35891.00
201.5030, 36387.00
202.7270, 37352.00
203.9500, 37634.00
205.1730, 38415.00
206.3950, 39017.00
207.6180, 39197.00
208.8410, 38572.00
210.0630, 38011.00
211.2850, 36702.00
212.5070, 35247.00
213.7290, 33451.00
214.9500, 32028.00
216.1720, 30469.00
217.3930, 29506.00
218.6140, 28720.00
219.8350, 28145.00
221.0560, 27980.00
222.2770, 27893.00
223.4970, 27613.00
224.7170, 27337.00
225.9370, 27260.00
227.1570, 27080.43
228.3770, 27278.00
229.5970, 26994.00
230.8160, 27099.00
232.0350, 27283.00
233.2540, 27148.00
234.4730, 27234.00
235.6920, 27627.00
236.9110, 27554.00
238.1290, 27911.00
239.3470, 28098.00
240.5650, 28712.00
241.7830, 29382.00
243.0010, 30184.00
244.2180, 30758.00
245.4360, 31726.00
246.6530, 32834.00
247.8700, 33755.00
249.0870, 34583.00
250.3040, 34788.00
251.5200, 35140.00
252.7370, 35382.00
253.9530, 34664.00
255.1690, 34107.00
256.3850, 33919.00
257.6000, 33229.00
258.8160, 32980.00
260.0310, 32828.00
261.2460, 33220.00
262.4610, 33949.00
263.6760, 34544.00
264.8910, 35129.00
266.1050, 35621.97
267.3200, 36199.00
268.5340, 36445.00
269.7480, 36805.00
270.9620, 37124.00
272.1750, 37205.00
273.3890, 37296.00
274.6020, 37166.00
275.8150, 37728.00
277.0280, 38866.00
278.2410, 40177.00
279.4540, 42197.00
280.6660, 44158.00
281.8790, 47006.00
283.0910, 50439.00
284.3030, 53563.00
285.5140, 57193.00
286.7260, 59957.00
287.9380, 62007.00
289.1490, 63343.00
290.3600, 63297.00
291.5710, 61388.00
292.7820, 57396.00
293.9920, 53097.00
295.2030, 48598.00
296.4130, 44264.00
297.6230, 40284.00
298.8330, 37708.00
300.0430, 35309.00
301.2520, 33974.00
302.4620, 32782.00
303.6710, 32188.00
304.8800, 31705.00
306.0890, 31079.00
307.2980, 30579.00
308.5070, 30549.00
309.7150, 30282.00
310.9230, 30297.00
312.1310, 30001.00
313.3390, 30067.00
314.5470, 29937.00
315.7550, 30053.00
316.9620, 30147.00
318.1690, 30517.00
319.3760, 31094.18
320.5830, 32007.00
321.7900, 32737.00
322.9960, 33631.00
324.2030, 34844.00
325.4090, 35807.00
326.6150, 36443.00
327.8210, 36933.00
329.0270, 37107.00
330.2320, 36358.00
331.4380, 35429.00
332.6430, 34175.00
333.8480, 33037.00
335.0530, 31760.00
336.2580, 30893.00
337.4620, 30610.00
338.6670, 30315.00
339.8710, 30057.00
341.0750, 29988.89
342.2790, 29887.97
343.4820, 30088.00
344.6860, 29822.00
345.8890, 30191.00
347.0920, 30041.00
348.2960, 30199.00
349.4980, 29754.00
350.7010, 29897.00
351.9040, 29858.00
353.1060, 29785.00
354.3080, 29763.41
355.5100, 29704.61
356.7120, 29670.06
357.9140, 29631.00
359.1150, 29609.00
360.3170, 29628.00
361.5180, 29611.58
362.7190, 29672.00
363.9200, 29594.95
365.1200, 29626.27
366.3210, 29663.00
367.5210, 29622.00
368.7210, 29852.00
369.9210, 29772.00
371.1210, 29876.00
372.3210, 29783.00
373.5200, 29853.00
374.7200, 29945.00
375.9190, 29939.00
377.1180, 29897.00
378.3170, 29838.00
379.5150, 29885.73
380.7140, 29914.75
381.9120, 30030.00
383.1110, 30091.00
384.3090, 30299.00
385.5060, 30458.88
386.7040, 30372.00
387.9020, 30887.00
389.0990, 30880.00
390.2960, 31273.00
391.4930, 31485.00
392.6900, 32016.00
393.8860, 32262.00
395.0830, 32808.00
396.2790, 33390.00
397.4750, 34010.00
398.6710, 34255.00
399.8670, 34833.00
401.0630, 35197.00
402.2580, 35684.00
403.4540, 36048.00
404.6490, 36281.00
405.8440, 36472.00
407.0390, 36774.00
408.2330, 36530.00
409.4280, 36545.00
410.6220, 36239.00
411.8160, 35588.00
413.0100, 35394.00
414.2040, 34759.00
415.3980, 34619.00
416.5910, 34435.00
417.7850, 33799.00
418.9780, 33413.00
420.1710, 32982.00
421.3640, 32570.71
422.5560, 32278.71
423.7490, 31949.00
424.9410, 31763.00
426.1330, 31624.00
427.3250, 31482.00
428.5170, 31523.00
429.7090, 31839.00
430.9000, 31566.00
432.0910, 31760.00
433.2820, 31838.00
434.4730, 31869.00
435.6640, 31994.00
436.8550, 32108.00
438.0450, 32327.00
439.2360, 32511.00
440.4260, 32537.00
441.6160, 32945.00
442.8060, 32976.00
443.9950, 33645.00
445.1850, 34097.00
446.3740, 34518.00
447.5630, 35222.00
448.7520, 35931.00
449.9410, 36688.00
451.1300, 37827.00
452.3180, 38731.00
453.5060, 38526.00
454.6950, 38649.00
455.8830, 38944.00
457.0700, 38807.00
458.2580, 38699.00
459.4450, 38299.00
460.6330, 38372.00
461.8200, 38472.00
463.0070, 38742.00
464.1940, 38726.00
465.3800, 39437.00
466.5670, 40639.00
467.7530, 42319.00
468.9390, 44354.00
470.1250, 46830.00
471.3110, 50237.00
472.4970, 53888.00
473.6820, 57593.00
474.8680, 60941.00
476.0530, 63856.00
477.2380, 65521.00
478.4230, 65737.00
479.6070, 64421.00
480.7920, 61649.00
481.9760, 57558.00
483.1600, 53672.00
484.3440, 49835.00
485.5280, 46337.00
486.7120, 44006.00
487.8950, 42571.00
489.0780, 42025.00
490.2620, 41419.00
491.4450, 41606.00
492.6270, 41920.00
493.8100, 42744.00
494.9920, 44558.00
496.1750, 46749.00
497.3570, 50164.00
498.5390, 54182.00
499.7210, 60017.00
500.9020, 66931.00
502.0840, 74220.00
503.2650, 81980.00
504.4460, 88512.00
505.6270, 94169.00
506.8080, 96526.00
507.9890, 96685.00
509.1690, 93344.00
510.3500, 86914.00
511.5300, 80242.00
512.7100, 72514.00
513.8900, 65926.00
515.0690, 60493.00
516.2490, 55723.00
517.4280, 51624.00
518.6070, 48235.00
519.7860, 45685.00
520.9650, 43831.00
522.1440, 42182.00
523.3220, 41193.00
524.5010, 39902.00
525.6790, 39090.00
526.8570, 38740.00
528.0350, 38274.00
529.2130, 37960.00
530.3900, 37616.00
531.5670, 37430.00
532.7450, 37018.00
533.9220, 36786.00
535.0980, 36359.00
536.2750, 36430.00
537.4520, 36298.00
538.6280, 36325.00
539.8040, 36295.31
540.9800, 36379.00
542.1560, 36159.00
543.3320, 36247.00
544.5070, 36006.00
545.6830, 36027.00
546.8580, 36237.00
548.0330, 35910.00
549.2080, 35715.00
550.3830, 35602.00
551.5570, 36019.00
552.7310, 35923.00
553.9060, 35874.00
555.0800, 35924.27
556.2540, 36350.70
557.4270, 36598.87
558.6010, 36678.40
559.7740, 36084.08
560.9470, 36359.87
562.1210, 36286.98
563.2930, 36199.76
564.4660, 36598.01
565.6390, 36101.70
566.8110, 36492.24
567.9830, 36528.76
569.1550, 36727.30
570.3270, 36575.00
571.4990, 36531.05
572.6710, 36838.08
573.8420, 36950.75
575.0130, 36758.04
576.1840, 36966.87
577.3550, 36458.27
578.5260, 36579.22
579.6970, 36971.80
580.8670, 36796.71
582.0370, 37011.94
583.2070, 37078.51
584.3770, 36469.51
585.5470, 37035.40
586.7170, 37093.18
587.8860, 36629.25
589.0550, 37154.86
590.2240, 36762.85
591.3930, 36698.38
592.5620, 36880.39
593.7310, 36805.45
594.8990, 37135.61
596.0670, 37075.49
597.2350, 36980.50
598.4030, 37037.69
599.5710, 36663.65
600.7390, 37089.62
601.9060, 36946.00
603.0740, 36888.00
604.2410, 36788.00
605.4080, 37377.00
606.5740, 37289.00
607.7410, 37351.00
608.9080, 37322.00
610.0740, 37428.00
611.2400, 37508.00
612.4060, 37695.00
613.5720, 37503.00
614.7370, 37466.00
615.9030, 37520.00
617.0680, 37718.00
618.2330, 37983.00
619.3980, 37844.00
620.5630, 38163.00
621.7280, 37953.00
622.8920, 38194.00
624.0570, 38649.00
625.2210, 38700.00
626.3850, 38747.00
627.5490, 39001.00
628.7120, 39268.00
629.8760, 39371.00
631.0390, 39573.78
632.2020, 39484.00
633.3650, 39838.00
634.5280, 39958.00
635.6910, 40062.00
636.8530, 39746.00
638.0160, 39727.00
639.1780, 39489.00
640.3400, 39696.00
641.5020, 39775.00
642.6640, 40081.00
643.8250, 40332.00
644.9870, 40240.00
646.1480, 40168.00
647.3090, 40203.00
648.4700, 40165.00
649.6300, 39713.00
650.7910, 39892.00
651.9510, 39569.00
653.1120, 39437.00
654.2720, 38924.00
655.4320, 39179.00
656.5910, 38940.00
657.7510, 38901.00
658.9100, 38930.00
660.0690, 38658.87
661.2290, 38814.31
662.3880, 38891.58
663.5460, 38895.10
664.7050, 38591.67
665.8630, 38693.91
667.0220, 38639.26
668.1800, 38582.09
669.3380, 38753.04
670.4950, 38515.18
671.6530, 38690.70
672.8100, 38706.88
673.9680, 38801.91
675.1250, 38739.05
676.2820, 38730.27
677.4390, 38887.53
678.5950, 38959.12
679.7520, 38893.85
680.9080, 39017.92
682.0640, 38814.92
683.2200, 38906.53
684.3760, 39127.56
685.5320, 39090.64
686.6870, 39237.87
687.8420, 39320.53
688.9980, 39095.49
690.1530, 39068.00
691.3070, 39236.00
692.4620, 39241.00
693.6170, 39502.00
694.7710, 39246.00
695.9250, 39240.00
697.0790, 39574.00
698.2330, 39367.71
699.3870, 39414.00
700.5400, 39343.00
701.6940, 39653.00
702.8470, 39712.00
704.0000, 39667.00
705.1530, 40232.00
706.3050, 40161.00
707.4580, 40339.00
708.6100, 40424.00
709.7630, 40839.00
710.9150, 40653.00
712.0660, 40944.00
713.2180, 41180.00
714.3700, 41261.00
715.5210, 41409.00
716.6720, 41540.00
717.8240, 41458.00
718.9740, 41611.00
720.1250, 41563.00
721.2760, 41651.00
722.4260, 41663.00
723.5770, 41459.00
724.7270, 41609.00
725.8770, 41280.00
727.0260, 41265.00
728.1760, 41404.00
729.3250, 41339.00
730.4750, 41463.20
731.6240, 41400.00
732.7730, 41691.00
733.9220, 41633.00
735.0700, 41801.00
736.2190, 42109.00
737.3670, 42050.00
738.5150, 42176.00
739.6630, 42416.00
740.8110, 42227.00
741.9590, 42643.00
743.1060, 42713.00
744.2540, 42748.00
745.4010, 43028.00
746.5480, 43132.00
747.6950, 43006.00
748.8410, 43374.00
749.9880, 43533.00
751.1340, 43681.00
752.2800, 44085.00
753.4260, 44572.00
754.5720, 45104.36
755.7180, 45747.67
756.8640, 46407.00
758.0090, 47283.00
759.1540, 47895.00
760.2990, 48912.00
761.4440, 49755.00
762.5890, 49684.00
763.7340, 49870.00
764.8780, 49330.00
766.0220, 48650.00
767.1660, 47566.00
768.3100, 46280.00
769.4540, 45898.00
770.5980, 45613.00
771.7410, 45455.00
772.8840, 44862.00
774.0280, 44712.00
775.1700, 44693.00
776.3130, 44374.00
777.4560, 44342.00
778.5980, 44274.00
779.7410, 44123.00
780.8830, 43856.00
782.0250, 43774.00
783.1670, 43476.00
784.3080, 43603.00
785.4500, 43469.00
786.5910, 43368.00
787.7320, 43703.00
788.8730, 43497.00
790.0140, 43572.00
791.1550, 43735.00
792.2950, 43986.00
793.4360, 43980.04
794.5760, 44016.00
795.7160, 44138.00
796.8560, 43957.00
797.9960, 44208.00
799.1350, 44219.00
800.2750, 44500.00
801.4140, 44723.00
802.5530, 44739.00
803.6920, 45154.00
804.8310, 45710.00
805.9690, 46296.00
807.1080, 47046.00
808.2460, 47883.00
809.3840, 48947.00
810.5220, 49634.00
811.6600, 50877.00
812.7970, 51627.00
813.9350, 51932.00
815.0720, 51848.00
816.2090, 51582.00
817.3460, 50398.00
818.4830, 49536.00
819.6200, 48599.00
820.7560, 47523.00
821.8930, 46833.00
823.0290, 46220.00
824.1650, 45928.00
825.3010, 45977.00
826.4360, 45687.00
827.5720, 45493.00
828.7070, 45376.00
829.8420, 45482.00
830.9770, 45329.00
832.1120, 45105.00
833.2470, 45471.00
834.3820, 45270.00
835.5160, 45245.00
836.6500, 45365.00
837.7840, 45461.00
838.9180, 45525.00
840.0520, 45552.00
841.1860, 45541.00
842.3190, 45392.00
843.4520, 45371.00
844.5850, 45548.00
845.7180, 45680.00
846.8510, 45681.00
847.9840, 45456.00
849.1160, 45328.00
850.2490, 45405.25
851.3810, 45397.31
852.5130, 45562.00
853.6450, 45648.00
854.7760, 45737.00
855.9080, 45902.00
857.0390, 45758.00
858.1700, 45949.00
859.3010, 46146.00
860.4320, 45989.00
861.5630, 46035.00
862.6930, 45968.00
863.8240, 45768.00
864.9540, 46004.00
866.0840, 45976.00
867.2140, 46072.00
868.3440, 46295.00
869.4730, 46170.00
870.6030, 46023.00
871.7320, 45963.85
872.8610, 46203.77
873.9900, 46361.41
875.1190, 46441.22
876.2470, 46209.98
877.3760, 46380.38
878.5040, 46389.80
879.6320, 46392.61
880.7600, 46619.48
881.8880, 46433.48
883.0150, 46656.76
884.1430, 46716.68
885.2700, 46851.35
886.3970, 46824.07
887.5240, 46846.82
888.6510, 47031.55
889.7780, 47126.59
890.9040, 47080.63
892.0310, 47220.04
893.1570, 47028.29
894.2830, 47127.11
895.4090, 47351.28
896.5350, 47313.46
897.6600, 47455.75
898.7860, 47529.47
899.9110, 47291.34
901.0360, 47595.47
902.1610, 47665.09
903.2860, 47493.92
904.4100, 47779.42
905.5350, 47641.45
906.6590, 47654.60
907.7830, 47781.52
908.9070, 47789.84
910.0310, 47985.14
911.1540, 48000.26
912.2780, 47999.34
913.4010, 48068.61
914.5240, 47938.84
915.6470, 48178.31
916.7700, 48165.57
917.8930, 48278.20
919.0150, 48419.19
920.1380, 48342.64
921.2600, 48496.41
922.3820, 48292.95
923.5040, 48388.39
924.6260, 48451.64
925.7470, 48705.91
926.8690, 48504.19
927.9900, 48591.28
929.1110, 48801.36
930.2320, 48839.35
931.3530, 48949.29
932.4730, 48846.18
933.5940, 48943.21
934.7140, 48985.05
935.8340, 49217.48
936.9540, 49299.45
938.0740, 49199.95
939.1930, 49270.00
940.3130, 49283.89
941.4320, 49310.47
942.5510, 49379.00
943.6700, 49370.00
944.7890, 49436.00
945.9080, 49596.00
947.0260, 49503.00
948.1450, 49673.00
949.2630, 49635.00
950.3810, 49789.00
951.4990, 49625.00
952.6170, 50012.00
953.7340, 49675.00
954.8520, 50177.00
955.9690, 50267.00
957.0860, 49978.00
958.2030, 50539.00
959.3200, 50404.00
960.4360, 50556.00
961.5530, 50709.00
962.6690, 50888.00
963.7850, 50901.00
964.9010, 51235.00
966.0170, 51593.19
967.1330, 51826.93
968.2480, 52450.00
969.3630, 52653.00
970.4790, 52901.00
971.5940, 53632.00
972.7080, 54188.00
973.8230, 54961.00
974.9380, 55626.00
976.0520, 56269.00
977.1660, 56633.00
978.2800, 56465.00
979.3940, 56123.00
980.5080, 55896.00
981.6220, 55008.00
982.7350, 54498.00
983.8480, 54235.00
984.9610, 53607.00
986.0740, 53292.00
987.1870, 53693.00
988.3000, 53125.00
989.4120, 53266.00
990.5250, 53031.00
991.6370, 53402.00
992.7490, 53661.00
993.8610, 53888.00
994.9720, 54198.00
996.0840, 54353.00
997.1950, 54762.00
998.3060, 55177.68
999.4170, 55659.00
1000.528, 56223.00
1001.639, 56641.00
1002.750, 56459.49
1003.860, 56819.00
1004.970, 55815.00
1006.080, 55353.00
1007.190, 54932.00
1008.300, 54713.00
1009.410, 54959.00
1010.519, 54712.24
1011.628, 54595.00
1012.738, 54756.00
1013.846, 54555.00
1014.955, 54701.00
1016.064, 54426.00
1017.172, 54282.00
1018.281, 54259.00
1019.389, 54218.00
1020.497, 54553.00
1021.605, 54400.00
1022.713, 54972.00
1023.820, 54978.00
1024.928, 55260.00
1026.035, 56466.00
1027.142, 56349.00
1028.249, 56947.00
1029.356, 57180.00
1030.462, 57612.00
1031.569, 57770.00
1032.675, 57733.00
1033.781, 57789.00
1034.887, 57110.00
1035.993, 57067.00
1037.098, 56664.00
1038.204, 55857.00
1039.309, 55731.00
1040.415, 55653.00
1041.520, 55624.00
1042.624, 55250.00
1043.729, 55033.00
1044.834, 55410.00
1045.938, 55559.00
1047.042, 55057.00
1048.146, 55042.00
1049.250, 55057.00
1050.354, 54922.00
1051.458, 54865.00
1052.561, 54888.00
1053.664, 54874.48
1054.767, 54913.51
1055.870, 54945.00
1056.973, 55036.00
1058.076, 55022.00
1059.178, 55107.43
1060.281, 54781.00
1061.383, 55057.00
1062.485, 55143.00
1063.587, 55051.00
1064.688, 55428.00
1065.790, 55480.00
1066.891, 55027.00
1067.993, 55533.00
1069.094, 55442.00
1070.195, 55675.00
1071.295, 55542.00
1072.396, 55878.00
1073.496, 56001.00
1074.597, 56042.00
1075.697, 55911.00
1076.797, 56253.00
1077.897, 55927.00
1078.996, 56232.00
1080.096, 56793.00
1081.195, 56958.00
1082.294, 56871.00
1083.393, 56956.00
1084.492, 57304.00
1085.591, 57366.00
1086.689, 57921.00
1087.788, 58372.00
1088.886, 58809.00
1089.984, 59248.00
1091.082, 59920.00
1092.180, 60545.00
1093.277, 61643.00
1094.375, 62386.00
1095.472, 63567.00
1096.569, 64361.00
1097.666, 64571.00
1098.763, 64573.00
1099.860, 64285.00
1100.956, 64469.00
1102.053, 63798.00
1103.149, 62865.00
1104.245, 62515.00
1105.341, 61713.00
1106.436, 61390.00
1107.532, 61051.00
1108.627, 60979.00
1109.723, 61173.00
1110.818, 60728.00
1111.913, 61005.00
1113.007, 60999.00
1114.102, 60968.00
1115.197, 61038.00
1116.291, 60985.00
1117.385, 61158.00
1118.479, 61346.00
1119.573, 61160.00
1120.666, 61363.00
1121.760, 61020.00
1122.853, 61041.00
1123.947, 60868.00
1125.040, 60684.00
1126.132, 60438.00
1127.225, 59929.00
1128.318, 59828.00
1129.410, 59651.00
1130.502, 59555.00
1131.595, 59643.00
1132.687, 59394.00
1133.778, 59573.00
1134.870, 59237.00
1135.961, 59645.00
1137.053, 59305.00
1138.144, 59751.00
1139.235, 59503.00
1140.326, 59160.00
1141.416, 59738.00
1142.507, 59635.00
1143.597, 59744.00
1144.688, 59696.00
1145.778, 59510.00
1146.868, 59864.00
1147.957, 59664.00
1149.047, 59939.00
1150.136, 59860.00
1151.226, 59674.00
1152.315, 60091.00
1153.404, 60131.00
1154.493, 60120.00
1155.581, 59635.00
1156.670, 59891.00
1157.758, 60100.00
1158.846, 59709.00
1159.934, 59804.00
1161.022, 59971.00
1162.110, 59776.00
1163.198, 59708.00
1164.285, 59819.00
1165.372, 59920.00
1166.459, 59947.00
1167.546, 59993.75
1168.633, 60064.61
1169.720, 60030.00
1170.806, 60153.00
1171.892, 60219.00
1172.979, 60200.00
1174.065, 60057.00
1175.150, 60269.00
1176.236, 60064.00
1177.322, 60137.00
1178.407, 60255.00
1179.492, 60220.00
1180.577, 60485.00
1181.662, 60512.00
1182.747, 60161.00
1183.832, 60564.00
1184.916, 60527.00
1186.000, 60618.00
1187.084, 60785.00
1188.168, 60886.00
1189.252, 61005.00
1190.336, 60762.00
1191.419, 60829.00
1192.503, 60583.00
1193.586, 60716.00
1194.669, 60544.00
1195.752, 61111.00
1196.835, 60739.00
1197.917, 60924.00
1199.000, 61357.00
1200.082, 61113.00
1201.164, 61251.00
1202.246, 61555.00
1203.328, 61204.00
1204.409, 61089.00
1205.491, 61401.00
1206.572, 61397.00
1207.653, 61448.00
1208.734, 61314.00
1209.815, 61308.00
1210.896, 61679.00
1211.976, 61604.00
1213.057, 61803.00
1214.137, 61712.00
1215.217, 61824.86
1216.297, 62064.00
1217.377, 62001.00
1218.456, 62135.00
1219.536, 62236.00
1220.615, 62040.00
1221.694, 62371.00
1222.773, 62547.00
1223.852, 62428.00
1224.931, 62593.00
1226.009, 62727.00
1227.088, 62943.00
1228.166, 63013.65
1229.244, 63025.00
1230.322, 63148.00
1231.400, 62984.00
