##NAMES=Microcline
##RRUFFID=R050150
##IDEAL CHEMISTRY=KAlSi_3_O_8_
##LOCALITY=Crystal Peak area, Park/Teller Counties, Colorado, USA
##OWNER=RRUFF
##SOURCE=Dave Bunk Minerals
##DESCRIPTION=Pale blue prismatic crystals
##STATUS=The identification of this mineral has been confirmed by X-ray diffraction and chemical analysis
##URL=rruff.info/R050150
##MEASURED CHEMISTRY=(K_0.95_Na_0.05_)_Î£=1_Al_1.00_Si_3.00_O_8_
##PIN_ID=L00961
##ORIENTATION=Laser parallel to b* (0 1 0). Fiducial mark perpendicular to laser is parallel to c [0 0 1]
131.4920, 18782.00
132.7300, 18485.00
133.9690, 18936.00
135.2070, 19735.00
136.4450, 21406.00
137.6830, 23457.00
138.9210, 25685.00
140.1580, 27225.00
141.3950, 27732.00
142.6330, 27592.00
143.8690, 27898.00
145.1060, 28889.00
146.3430, 30606.00
147.5790, 32314.00
148.8150, 34458.00
150.0510, 36091.00
151.2870, 38508.00
152.5220, 40588.00
153.7580, 43034.00
154.9930, 45839.00
156.2280, 47497.00
157.4620, 47356.00
158.6970, 45732.00
159.9310, 41981.00
161.1660, 37811.00
162.4000, 33677.00
163.6330, 29770.00
164.8670, 26776.00
166.1000, 24344.00
167.3340, 22578.00
168.5670, 21306.00
169.8000, 20529.00
171.0320, 19963.00
172.2650, 19487.00
173.4970, 19406.00
174.7290, 19130.00
175.9610, 19100.00
177.1930, 18986.00
178.4240, 19206.00
179.6550, 19072.00
180.8870, 18778.00
182.1170, 18221.00
183.3480, 18111.00
184.5790, 17506.00
185.8090, 17334.00
187.0390, 17273.00
188.2690, 17246.00
189.4990, 17381.00
190.7290, 17302.00
191.9580, 17547.00
193.1870, 17761.00
194.4160, 18282.00
195.6450, 18587.00
196.8740, 19140.00
198.1020, 19689.00
199.3310, 19640.00
200.5590, 19324.00
201.7870, 18944.00
203.0140, 18006.00
204.2420, 17425.00
205.4690, 16977.00
206.6960, 16326.00
207.9230, 16016.00
209.1500, 15896.00
210.3760, 15929.00
211.6030, 15728.00
212.8290, 15878.00
214.0550, 15770.00
215.2810, 15710.00
216.5060, 15673.00
217.7320, 15683.00
218.9570, 15726.00
220.1820, 15632.00
221.4070, 15751.00
222.6320, 15906.00
223.8560, 15784.00
225.0800, 15913.00
226.3040, 15853.00
227.5280, 15909.00
228.7520, 15890.00
229.9760, 15980.00
231.1990, 15955.00
232.4220, 16023.00
233.6450, 16082.00
234.8680, 16124.00
236.0910, 16074.00
237.3130, 16381.00
238.5350, 16292.00
239.7570, 16526.00
240.9790, 16672.00
242.2010, 16884.00
243.4220, 17250.00
244.6430, 17476.00
245.8640, 18053.00
247.0850, 18543.00
248.3060, 19306.00
249.5270, 20087.00
250.7470, 20959.00
251.9670, 22271.00
253.1870, 23739.00
254.4070, 25142.00
255.6260, 26910.00
256.8460, 27928.00
258.0650, 28614.00
259.2840, 29097.00
260.5030, 28348.00
261.7220, 27255.00
262.9400, 26721.00
264.1580, 26712.00
265.3760, 26663.00
266.5940, 26545.00
267.8120, 25954.00
269.0290, 25297.00
270.2470, 24759.00
271.4640, 24406.00
272.6810, 24429.00
273.8980, 25213.00
275.1140, 26138.00
276.3310, 27715.00
277.5470, 29610.00
278.7630, 31805.00
279.9790, 34704.00
281.1940, 37558.00
282.4100, 40639.00
283.6250, 42848.00
284.8400, 44128.00
286.0550, 43677.00
287.2700, 40717.00
288.4850, 37553.00
289.6990, 33442.00
290.9130, 30048.00
292.1270, 26955.00
293.3410, 24639.00
294.5540, 23072.00
295.7680, 21979.00
296.9810, 21119.00
298.1940, 20703.00
299.4070, 20013.00
300.6200, 19598.00
301.8320, 19419.00
303.0450, 18902.00
304.2570, 18671.00
305.4690, 18393.00
306.6800, 18140.00
307.8920, 17951.00
309.1030, 17990.00
310.3150, 17731.00
311.5260, 17792.29
312.7360, 17697.00
313.9470, 17725.00
315.1580, 17750.00
316.3680, 17444.00
317.5780, 17701.00
318.7880, 17739.00
319.9980, 17985.00
321.2070, 18282.00
322.4170, 18438.00
323.6260, 18715.00
324.8350, 19052.00
326.0430, 19593.00
327.2520, 20019.00
328.4610, 20778.00
329.6690, 21187.00
330.8770, 21529.00
332.0850, 21708.00
333.2920, 21326.00
334.5000, 20743.00
335.7070, 20272.00
336.9140, 19484.00
338.1210, 18939.00
339.3280, 18709.00
340.5350, 18499.00
341.7410, 18266.00
342.9470, 18143.00
344.1540, 18023.00
345.3590, 17975.24
346.5650, 17987.69
347.7710, 18056.00
348.9760, 18124.00
350.1810, 18345.00
351.3860, 18475.00
352.5910, 18507.00
353.7950, 18465.00
355.0000, 18669.00
356.2040, 18907.00
357.4080, 18989.00
358.6120, 18871.00
359.8150, 18739.00
361.0190, 18787.00
362.2220, 18726.00
363.4250, 18824.00
364.6280, 19027.00
365.8310, 19129.00
367.0340, 19140.00
368.2360, 19591.00
369.4380, 19796.00
370.6400, 20153.00
371.8420, 20156.38
373.0440, 20221.00
374.2450, 20036.00
375.4470, 19702.00
376.6480, 19565.00
377.8490, 18856.00
379.0490, 18902.00
380.2500, 18685.00
381.4500, 18378.00
382.6510, 18453.00
383.8510, 18427.00
385.0500, 18221.00
386.2500, 18324.00
387.4500, 18373.00
388.6490, 18474.00
389.8480, 18519.00
391.0470, 18443.00
392.2460, 18625.00
393.4440, 18520.00
394.6430, 18645.00
395.8410, 18685.00
397.0390, 18927.00
398.2370, 18917.00
399.4340, 19286.00
400.6320, 19480.00
401.8290, 19516.00
403.0260, 19613.00
404.2230, 19598.00
405.4200, 19510.00
406.6170, 19239.00
407.8130, 19383.00
409.0090, 19144.00
410.2050, 19265.00
411.4010, 19374.00
412.5970, 19236.00
413.7920, 19070.00
414.9880, 19063.00
416.1830, 18923.00
417.3780, 18882.00
418.5730, 18742.00
419.7670, 18757.00
420.9620, 18671.00
422.1560, 18771.00
423.3500, 18611.00
424.5440, 18814.00
425.7380, 18818.00
426.9310, 18957.00
428.1240, 18884.00
429.3180, 18964.00
430.5110, 18932.00
431.7030, 18992.00
432.8960, 18974.00
434.0890, 19318.00
435.2810, 19164.00
436.4730, 19362.00
437.6650, 19285.00
438.8570, 19547.00
440.0480, 19634.00
441.2390, 19998.00
442.4310, 20385.00
443.6220, 20667.00
444.8120, 20980.00
446.0030, 21625.00
447.1940, 22310.00
448.3840, 23100.00
449.5740, 23905.00
450.7640, 24901.00
451.9540, 25759.00
453.1430, 26532.00
454.3330, 26441.00
455.5220, 26327.00
456.7110, 25744.00
457.9000, 25273.00
459.0890, 24325.00
460.2770, 23798.00
461.4650, 23559.00
462.6540, 23540.00
463.8420, 23921.00
465.0290, 24531.00
466.2170, 25549.00
467.4050, 26567.00
468.5920, 27867.00
469.7790, 29443.00
470.9660, 31262.00
472.1530, 33332.00
473.3390, 35527.00
474.5250, 36759.00
475.7120, 37708.00
476.8980, 37331.00
478.0840, 35876.00
479.2690, 33919.00
480.4550, 32225.00
481.6400, 31103.00
482.8250, 30226.00
484.0100, 29578.00
485.1950, 28669.00
486.3800, 27542.00
487.5640, 26299.00
488.7480, 25441.00
489.9320, 24576.00
491.1160, 23722.00
492.3000, 23671.00
493.4840, 23343.00
494.6670, 23643.00
495.8500, 23563.00
497.0330, 24163.00
498.2160, 24641.00
499.3990, 25385.00
500.5810, 26696.00
501.7630, 28251.00
502.9460, 30379.00
504.1280, 33194.00
505.3090, 36269.00
506.4910, 40174.00
507.6720, 44865.00
508.8540, 49737.00
510.0350, 55164.00
511.2160, 60400.00
512.3960, 64508.00
513.5770, 64781.00
514.7570, 62467.00
515.9380, 57421.00
517.1180, 51225.00
518.2970, 45173.00
519.4770, 39624.00
520.6570, 35237.00
521.8360, 32032.00
523.0150, 29733.00
524.1940, 28099.00
525.3730, 26746.00
526.5510, 25868.00
527.7300, 24975.00
528.9080, 24283.00
530.0860, 23846.00
531.2640, 23593.00
532.4420, 23151.00
533.6200, 23010.00
534.7970, 22805.00
535.9740, 22420.00
537.1510, 22301.00
538.3280, 22179.00
539.5050, 22118.00
540.6810, 22079.03
541.8580, 21958.00
543.0340, 21978.00
544.2100, 21988.00
545.3860, 21752.00
546.5610, 21835.00
547.7370, 21815.00
548.9120, 21888.00
550.0870, 21753.00
551.2620, 21622.00
552.4370, 21657.00
553.6120, 21783.00
554.7860, 21654.00
555.9600, 21675.46
557.1340, 21776.00
558.3080, 21557.00
559.4820, 21702.00
560.6560, 21645.00
561.8290, 21710.00
563.0020, 21617.00
564.1750, 21682.00
565.3480, 21717.00
566.5210, 21555.00
567.6930, 21767.00
568.8660, 21697.00
570.0380, 21672.00
571.2100, 21737.00
572.3820, 21775.00
573.5530, 21940.00
574.7250, 22063.00
575.8960, 22160.10
577.0670, 22246.00
578.2380, 22347.00
579.4090, 22346.00
580.5800, 22336.00
581.7500, 22426.00
582.9210, 22414.00
584.0910, 22498.00
585.2610, 22528.00
586.4300, 22289.00
587.6000, 22266.00
588.7690, 22155.00
589.9390, 22300.00
591.1080, 22006.00
592.2770, 21953.00
593.4450, 22053.00
594.6140, 21953.00
595.7820, 21985.82
596.9500, 21900.00
598.1190, 21997.00
599.2860, 22071.00
600.4540, 22101.00
601.6220, 22162.18
602.7890, 22270.00
603.9560, 22165.00
605.1230, 22154.00
606.2900, 22005.00
607.4570, 22238.00
608.6230, 22187.00
609.7890, 22175.00
610.9560, 22109.00
612.1220, 22225.00
613.2870, 22264.00
614.4530, 22285.00
615.6180, 22365.00
616.7840, 22328.00
617.9490, 22569.00
619.1140, 22386.00
620.2790, 22886.00
621.4430, 22869.00
622.6080, 22922.00
623.7720, 23112.00
624.9360, 23268.00
626.1000, 23326.00
627.2640, 23497.00
628.4270, 23561.00
629.5910, 23644.00
630.7540, 23574.00
631.9170, 23656.00
633.0800, 23429.00
634.2430, 23615.00
635.4050, 23277.00
636.5680, 23464.00
637.7300, 23533.00
638.8920, 23410.00
640.0540, 23722.00
641.2150, 23692.00
642.3770, 23824.00
643.5380, 24048.00
644.7000, 24192.00
645.8610, 24648.00
647.0210, 24566.00
648.1820, 24879.00
649.3430, 25085.00
650.5030, 25120.00
651.6630, 25342.00
652.8230, 25167.00
653.9830, 25125.00
655.1430, 24880.00
656.3020, 24749.00
657.4620, 24574.00
658.6210, 24486.00
659.7800, 24081.00
660.9390, 24111.00
662.0970, 23912.00
663.2560, 23684.00
664.4140, 23769.00
665.5720, 23446.00
666.7300, 23677.00
667.8880, 23370.00
669.0460, 23288.00
670.2030, 23423.00
671.3600, 23394.00
672.5180, 23134.00
673.6740, 23042.00
674.8310, 23057.00
675.9880, 22934.00
677.1440, 23301.00
678.3010, 23358.00
679.4570, 23297.00
680.6130, 23291.00
681.7690, 23290.00
682.9240, 23238.42
684.0800, 23218.00
685.2350, 23169.00
686.3900, 23277.00
687.5450, 23265.00
688.7000, 23472.00
689.8540, 23250.00
691.0090, 23277.00
692.1630, 23465.00
693.3170, 23219.00
694.4710, 23459.00
695.6250, 23503.00
696.7780, 23352.00
697.9320, 23195.00
699.0850, 23274.00
700.2380, 23472.00
701.3910, 23271.00
702.5440, 23651.00
703.6970, 23461.00
704.8490, 23667.00
706.0010, 23552.00
707.1530, 23648.00
708.3050, 23600.00
709.4570, 23707.00
710.6090, 23570.00
711.7600, 23919.00
712.9110, 23788.00
714.0620, 23876.00
715.2130, 23730.00
716.3640, 23872.00
717.5150, 23724.00
718.6650, 23682.00
719.8150, 23666.00
720.9650, 23888.00
722.1150, 23830.00
723.2650, 23912.00
724.4150, 23947.00
725.5640, 23983.00
726.7130, 23923.00
727.8630, 24000.00
729.0110, 23967.00
730.1600, 24045.00
731.3090, 23924.00
732.4570, 24238.00
733.6060, 24141.00
734.7540, 24248.00
735.9020, 24587.00
737.0490, 24644.00
738.1970, 24758.00
739.3440, 24857.00
740.4920, 25094.22
741.6390, 25595.00
742.7860, 25710.00
743.9320, 26117.00
745.0790, 26615.00
746.2250, 26948.00
747.3720, 27157.00
748.5180, 27285.00
749.6640, 27233.00
750.8100, 26990.00
751.9550, 26733.00
753.1010, 26423.00
754.2460, 26180.35
755.3910, 25870.00
756.5360, 25661.00
757.6810, 25413.00
758.8250, 25178.00
759.9700, 25088.00
761.1140, 25345.00
762.2580, 25151.00
763.4020, 25200.00
764.5460, 25420.00
765.6900, 25357.00
766.8330, 25218.00
767.9760, 25238.00
769.1200, 25304.00
770.2620, 25279.00
771.4050, 25099.00
772.5480, 25114.00
773.6900, 24915.00
774.8330, 24906.00
775.9750, 24893.00
777.1170, 24999.00
778.2590, 24999.00
779.4000, 25010.02
780.5420, 24906.00
781.6830, 24983.00
782.8240, 24935.00
783.9650, 24862.00
785.1060, 24869.00
786.2470, 25055.00
787.3870, 24950.00
788.5280, 24718.00
789.6680, 25189.00
790.8080, 24978.00
791.9480, 25135.00
793.0870, 24938.00
794.2270, 25171.00
795.3660, 25276.00
796.5060, 25164.00
797.6450, 25413.00
798.7830, 25312.00
799.9220, 25493.00
801.0610, 25449.00
802.1990, 25744.00
803.3370, 25732.00
804.4750, 25956.00
805.6130, 26182.00
806.7510, 26461.79
807.8890, 26960.00
809.0260, 27220.00
810.1630, 27680.00
811.3000, 28122.00
812.4370, 28369.00
813.5740, 28378.00
814.7110, 28254.00
815.8470, 27765.00
816.9830, 27320.00
818.1190, 27072.00
819.2550, 26361.00
820.3910, 26422.00
821.5270, 26217.00
822.6620, 25876.00
823.7970, 25953.00
824.9330, 25688.00
826.0670, 25721.00
827.2020, 25850.00
828.3370, 25549.00
829.4710, 25462.00
830.6060, 25632.00
831.7400, 25847.00
832.8740, 25569.00
834.0080, 25392.00
835.1410, 25669.00
836.2750, 25458.00
837.4080, 25942.00
838.5410, 25570.00
839.6740, 25624.00
840.8070, 25597.00
841.9400, 25753.00
843.0730, 25703.00
844.2050, 25788.00
845.3370, 25705.00
846.4690, 25851.00
847.6010, 25707.00
848.7330, 25654.00
849.8640, 25848.00
850.9960, 25811.00
852.1270, 25754.00
853.2580, 25968.00
854.3890, 25836.00
855.5200, 25786.00
856.6500, 25851.00
857.7810, 25842.00
858.9110, 25982.00
860.0410, 26063.00
861.1710, 25976.00
862.3010, 25864.00
863.4310, 25867.00
864.5600, 25900.86
865.6900, 25983.00
866.8190, 26052.00
867.9480, 25990.00
869.0770, 26006.00
870.2050, 25964.00
871.3340, 26052.00
872.4620, 26036.62
873.5900, 26101.10
874.7180, 26105.00
875.8460, 26172.00
876.9740, 26285.00
878.1010, 26191.00
879.2290, 26337.00
880.3560, 26361.00
881.4830, 26186.00
882.6100, 26304.00
883.7370, 26378.00
884.8630, 26277.00
885.9900, 26242.00
887.1160, 26318.00
888.2420, 26367.00
889.3680, 26293.00
890.4940, 26447.00
891.6200, 26280.00
892.7450, 26623.00
893.8700, 26600.00
894.9960, 26548.00
896.1210, 26566.00
897.2460, 26472.00
898.3700, 26816.00
899.4950, 26440.00
900.6190, 26808.00
901.7430, 26743.00
902.8670, 26521.00
903.9910, 26700.00
905.1150, 26740.00
906.2390, 26815.00
907.3620, 26804.00
908.4850, 26717.00
909.6080, 26687.00
910.7310, 26773.00
911.8540, 26658.00
912.9770, 26936.00
914.0990, 26914.00
915.2210, 26886.00
916.3440, 26694.00
917.4660, 27043.00
918.5870, 26888.62
919.7090, 26938.00
920.8310, 26930.00
921.9520, 26846.00
923.0730, 26966.00
924.1940, 27001.00
925.3150, 27021.32
926.4360, 27086.46
927.5560, 27090.00
928.6770, 27149.00
929.7970, 27142.10
930.9170, 27153.00
932.0370, 27194.00
933.1570, 27369.00
934.2760, 27316.00
935.3960, 27410.00
936.5150, 27185.00
937.6340, 27451.00
938.7530, 27518.00
939.8720, 27274.00
940.9910, 27324.00
942.1090, 27696.00
943.2280, 27653.00
944.3460, 27632.00
945.4640, 27542.00
946.5820, 27565.00
947.6990, 27589.00
948.8170, 27542.73
949.9340, 27703.00
951.0520, 27588.00
952.1690, 27674.00
953.2860, 27875.00
954.4030, 27871.00
955.5190, 27962.68
956.6360, 27996.23
957.7520, 28019.00
958.8680, 28000.00
959.9840, 27971.00
961.1000, 27955.00
962.2160, 28055.00
963.3310, 27773.00
964.4470, 28133.00
965.5620, 27964.00
966.6770, 28202.00
967.7920, 28194.00
968.9060, 28029.00
970.0210, 28016.00
971.1360, 28047.00
972.2500, 27982.00
973.3640, 28301.00
974.4780, 28393.00
975.5920, 28208.00
976.7050, 28465.00
977.8190, 28202.00
978.9320, 28246.00
980.0450, 28561.00
981.1580, 28483.00
982.2710, 28654.00
983.3840, 28880.00
984.4970, 28957.00
985.6090, 28898.00
986.7210, 29086.00
987.8330, 29220.00
988.9450, 29633.00
990.0570, 29633.00
991.1690, 30010.00
992.2800, 30334.00
993.3920, 30506.00
994.5030, 30405.00
995.6140, 30692.00
996.7250, 30693.00
997.8350, 30934.00
998.9460, 30807.00
1000.056, 30889.10
1001.167, 31191.00
1002.277, 30864.00
1003.387, 30956.00
1004.496, 30872.00
1005.606, 30638.00
1006.715, 30477.00
1007.825, 30372.00
1008.934, 30173.00
1010.043, 29786.00
1011.152, 30008.00
1012.260, 29691.00
1013.369, 29685.00
1014.477, 29812.00
1015.586, 29804.00
1016.694, 29484.00
1017.802, 29627.00
1018.909, 29463.00
1020.017, 29615.00
1021.124, 29775.00
1022.232, 29429.00
1023.339, 29718.00
1024.446, 29617.00
1025.553, 29570.84
1026.659, 29637.91
1027.766, 29710.00
1028.872, 29612.00
1029.979, 29787.16
1031.085, 30127.00
1032.191, 30056.00
1033.296, 30213.00
1034.402, 30382.00
1035.507, 30443.00
1036.613, 30541.00
1037.718, 30612.00
1038.823, 30735.00
1039.928, 30633.00
1041.032, 30552.00
1042.137, 30346.00
1043.241, 30381.00
1044.346, 30272.00
1045.450, 30054.00
1046.554, 30202.00
1047.657, 30046.00
1048.761, 29880.00
1049.864, 30145.00
1050.968, 30062.00
1052.071, 30140.00
1053.174, 29881.00
1054.277, 30200.00
1055.379, 30031.00
1056.482, 29830.00
1057.584, 29744.00
1058.687, 29942.00
1059.789, 29613.00
1060.891, 29897.00
1061.992, 29671.00
1063.094, 29848.00
1064.196, 29615.00
1065.297, 30027.00
1066.398, 29741.00
1067.499, 29715.00
1068.600, 29887.00
1069.701, 29757.00
1070.801, 29878.00
1071.902, 29972.00
1073.002, 29845.00
1074.102, 30008.00
1075.202, 29684.00
1076.302, 29985.00
1077.402, 30201.00
1078.501, 30050.00
1079.600, 30030.00
1080.700, 29964.00
1081.799, 30216.00
1082.898, 30175.00
1083.996, 30311.00
1085.095, 30262.00
1086.193, 30324.00
1087.292, 30340.15
1088.390, 30139.00
1089.488, 30356.00
1090.586, 30401.00
1091.683, 30430.00
1092.781, 30745.00
1093.878, 30793.00
1094.975, 30777.00
1096.073, 30734.00
1097.169, 30801.00
1098.266, 30919.00
1099.363, 30865.00
1100.459, 31041.00
1101.556, 31019.30
1102.652, 31174.00
1103.748, 31005.00
1104.844, 31043.00
1105.940, 30964.00
1107.035, 31079.00
1108.131, 31301.00
1109.226, 31572.00
1110.321, 31852.00
1111.416, 31935.41
1112.511, 31937.00
1113.605, 32265.00
1114.700, 32620.00
1115.794, 33174.00
1116.889, 33468.00
1117.983, 34157.00
1119.077, 35161.00
1120.170, 35397.00
1121.264, 35686.00
1122.357, 35709.00
1123.451, 35906.00
1124.544, 35983.00
1125.637, 35691.00
1126.730, 35521.00
1127.823, 35186.00
1128.915, 35011.61
1130.008, 34853.00
1131.100, 34751.00
1132.192, 34755.00
1133.284, 34920.00
1134.376, 35392.00
1135.467, 35492.00
1136.559, 35568.00
1137.650, 35729.00
1138.742, 35572.00
1139.833, 35520.00
1140.924, 35103.00
1142.014, 34505.00
1143.105, 34200.00
1144.195, 33565.00
1145.286, 33185.00
1146.376, 32838.00
1147.466, 32691.00
1148.556, 32384.00
1149.646, 31920.00
1150.735, 31994.00
1151.825, 31804.00
1152.914, 31914.00
1154.003, 31741.00
1155.092, 31673.00
1156.181, 31653.00
1157.270, 31555.00
1158.358, 31524.88
1159.447, 31444.00
1160.535, 31484.00
1161.623, 31481.00
1162.711, 31566.00
1163.799, 31562.00
1164.886, 31454.00
1165.974, 31398.00
1167.061, 31756.00
1168.148, 31339.00
1169.235, 31160.00
1170.322, 31510.00
1171.409, 31465.00
1172.496, 31396.00
1173.582, 31397.00
1174.669, 31551.00
1175.755, 31710.00
1176.841, 31454.00
1177.927, 31622.00
1179.012, 31512.00
1180.098, 31308.00
1181.183, 31697.00
1182.269, 31475.00
1183.354, 31374.00
1184.439, 31533.00
1185.524, 31613.00
1186.608, 31708.00
1187.693, 31523.00
1188.777, 31720.00
1189.862, 31624.00
1190.946, 31643.00
1192.030, 31883.00
1193.113, 32025.00
1194.197, 31771.00
1195.281, 31720.00
1196.364, 31580.00
1197.447, 31622.00
1198.530, 31775.00
1199.613, 31850.08
1200.696, 31863.38
1201.779, 32033.00
1202.861, 31895.00
1203.944, 31576.00
1205.026, 31616.00
1206.108, 32014.00
1207.190, 31712.00
1208.271, 31820.00
1209.353, 31796.00
1210.435, 31845.00
1211.516, 31918.06
1212.597, 31988.00
1213.678, 32023.00
1214.759, 32090.00
1215.840, 32074.18
1216.920, 32182.00
1218.001, 32106.00
1219.081, 32163.00
1220.161, 32060.00
1221.241, 32168.00
1222.321, 32214.00
1223.401, 32033.00
1224.480, 31914.00
1225.560, 32200.00
1226.639, 32097.00
1227.718, 32125.00
1228.797, 32245.00
1229.876, 32280.00
1230.955, 32244.00
1232.033, 32243.00
1233.112, 32354.00
1234.190, 32344.00
1235.268, 32245.00
1236.346, 32281.00
1237.424, 32381.00
1238.501, 32493.00
1239.579, 32446.00
1240.656, 32360.00
1241.733, 32333.00
1242.811, 32264.00
1243.888, 32289.00
1244.964, 32304.00
1246.041, 32234.00
1247.117, 32366.00
1248.194, 32477.00
1249.270, 32213.00
1250.346, 32626.00
1251.422, 32366.00
1252.498, 32370.00
1253.573, 32621.00
1254.649, 32303.00
1255.724, 32699.00
1256.800, 32699.00
1257.875, 32478.00
1258.950, 32541.00
1260.024, 32456.00
1261.099, 32616.00
1262.173, 32677.00
1263.248, 32741.00
1264.322, 32747.00
1265.396, 32697.00
1266.470, 32774.00
1267.544, 32768.00
1268.617, 32899.00
1269.691, 32689.00
1270.764, 32929.00
1271.837, 32491.00
1272.910, 32944.00
1273.983, 32811.00
1275.056, 33059.00
1276.129, 32715.00
1277.201, 33000.00
1278.273, 32958.00
1279.346, 32840.00
1280.418, 32704.00
1281.489, 33026.00
1282.561, 33140.00
1283.633, 32916.00
1284.704, 32949.00
1285.776, 32891.00
1286.847, 32869.00
1287.918, 33112.00
1288.989, 32881.00
1290.059, 33034.00
1291.130, 32871.00
1292.200, 33165.00
1293.271, 33179.00
1294.341, 33193.00
1295.411, 33108.00
1296.481, 33130.70
1297.551, 33177.86
1298.620, 33126.00
1299.690, 33273.00
1300.759, 33329.00
1301.828, 33276.00
1302.897, 33462.00
1303.966, 33370.00
1305.035, 33427.00
1306.103, 33322.00
1307.172, 33295.00
