##NAMES=Microcline
##RRUFFID=R050150
##IDEAL CHEMISTRY=KAlSi_3_O_8_
##LOCALITY=Crystal Peak area, Park/Teller Counties, Colorado, USA
##OWNER=RRUFF
##SOURCE=Dave Bunk Minerals
##DESCRIPTION=Pale blue prismatic crystals
##STATUS=The identification of this mineral has been confirmed by X-ray diffraction and chemical analysis
##URL=rruff.info/R050150
##MEASURED CHEMISTRY=(K_0.95_Na_0.05_)_Î£=1_Al_1.00_Si_3.00_O_8_
##PIN_ID=L00945
##ORIENTATION=Laser parallel to a* (1 0 0). Fiducial mark perpendicular to laser is parallel to b [0 1 0]
137.6830, 13440.00
138.9210, 13704.00
140.1580, 13789.00
141.3950, 13999.00
142.6330, 14112.00
143.8690, 14464.00
145.1060, 14750.00
146.3430, 15241.00
147.5790, 15868.00
148.8150, 16207.00
150.0510, 16579.00
151.2870, 16672.00
152.5220, 16521.00
153.7580, 15922.00
154.9930, 15208.00
156.2280, 14911.00
157.4620, 14183.00
158.6970, 13950.00
159.9310, 13576.00
161.1660, 13655.00
162.4000, 13350.00
163.6330, 13342.00
164.8670, 13621.00
166.1000, 13686.00
167.3340, 14060.00
168.5670, 14500.00
169.8000, 14904.00
171.0320, 15248.00
172.2650, 15540.00
173.4970, 16019.00
174.7290, 16656.00
175.9610, 17484.00
177.1930, 18306.00
178.4240, 18740.00
179.6550, 19179.00
180.8870, 18910.00
182.1170, 18272.00
183.3480, 17304.00
184.5790, 16406.00
185.8090, 15522.00
187.0390, 14914.00
188.2690, 14577.00
189.4990, 14459.00
190.7290, 14312.00
191.9580, 14052.00
193.1870, 14283.00
194.4160, 14420.00
195.6450, 14379.00
196.8740, 14627.00
198.1020, 14795.00
199.3310, 14976.00
200.5590, 14816.00
201.7870, 14804.00
203.0140, 14413.00
204.2420, 14201.00
205.4690, 13907.00
206.6960, 13606.00
207.9230, 13255.00
209.1500, 13271.00
210.3760, 13176.00
211.6030, 13009.00
212.8290, 13139.00
214.0550, 13203.00
215.2810, 13046.00
216.5060, 13188.00
217.7320, 13095.00
218.9570, 13125.00
220.1820, 13171.00
221.4070, 13068.00
222.6320, 13145.00
223.8560, 13206.00
225.0800, 13241.00
226.3040, 13338.00
227.5280, 13274.00
228.7520, 13249.00
229.9760, 13379.00
231.1990, 13395.00
232.4220, 13329.00
233.6450, 13307.00
234.8680, 13264.00
236.0910, 13361.00
237.3130, 13461.00
238.5350, 13402.00
239.7570, 13449.00
240.9790, 13529.00
242.2010, 13586.84
243.4220, 13704.00
244.6430, 13786.00
245.8640, 14203.00
247.0850, 14298.00
248.3060, 14608.00
249.5270, 15026.00
250.7470, 15239.00
251.9670, 15712.00
253.1870, 16260.00
254.4070, 16954.00
255.6260, 17536.00
256.8460, 18272.00
258.0650, 19067.00
259.2840, 19774.00
260.5030, 19949.00
261.7220, 20083.00
262.9400, 20270.00
264.1580, 20311.00
265.3760, 20660.00
266.5940, 20792.00
267.8120, 20612.00
269.0290, 20152.00
270.2470, 19486.00
271.4640, 18941.00
272.6810, 18291.00
273.8980, 17813.00
275.1140, 17869.00
276.3310, 17878.00
277.5470, 18033.00
278.7630, 18416.00
279.9790, 18479.00
281.1940, 19205.00
282.4100, 19763.00
283.6250, 20250.00
284.8400, 20804.00
286.0550, 20724.00
287.2700, 20698.00
288.4850, 20029.00
289.6990, 19378.00
290.9130, 18737.00
292.1270, 18077.56
293.3410, 17333.00
294.5540, 16851.00
295.7680, 16409.00
296.9810, 15974.00
298.1940, 15717.92
299.4070, 15443.34
300.6200, 15335.00
301.8320, 15103.00
303.0450, 15018.00
304.2570, 14923.00
305.4690, 14676.00
306.6800, 14505.00
307.8920, 14478.00
309.1030, 14281.00
310.3150, 14201.00
311.5260, 14251.00
312.7360, 14279.00
313.9470, 14067.00
315.1580, 14297.00
316.3680, 14152.00
317.5780, 14056.00
318.7880, 14141.00
319.9980, 14155.00
321.2070, 14280.00
322.4170, 14367.00
323.6260, 14384.00
324.8350, 14463.00
326.0430, 14536.00
327.2520, 14600.00
328.4610, 14693.00
329.6690, 14928.00
330.8770, 14900.00
332.0850, 15086.00
333.2920, 15096.00
334.5000, 14970.00
335.7070, 14982.00
336.9140, 14905.00
338.1210, 14832.00
339.3280, 14788.00
340.5350, 14765.00
341.7410, 14658.00
342.9470, 14727.00
344.1540, 14765.00
345.3590, 14950.00
346.5650, 14849.00
347.7710, 14871.00
348.9760, 15040.00
350.1810, 14819.00
351.3860, 15121.00
352.5910, 14989.00
353.7950, 15286.00
355.0000, 15564.00
356.2040, 15414.00
357.4080, 15395.00
358.6120, 15466.00
359.8150, 15487.00
361.0190, 15518.00
362.2220, 15489.70
363.4250, 15489.73
364.6280, 15405.00
365.8310, 15408.00
367.0340, 15392.00
368.2360, 15273.00
369.4380, 15562.00
370.6400, 15833.00
371.8420, 15855.00
373.0440, 15894.00
374.2450, 15772.00
375.4470, 15843.00
376.6480, 15611.00
377.8490, 15451.00
379.0490, 15303.00
380.2500, 15160.00
381.4500, 15084.00
382.6510, 15101.00
383.8510, 15121.00
385.0500, 15079.68
386.2500, 15209.00
387.4500, 15088.00
388.6490, 15100.00
389.8480, 15195.44
391.0470, 15286.00
392.2460, 15584.00
393.4440, 15826.00
394.6430, 16133.00
395.8410, 16416.00
397.0390, 16743.00
398.2370, 17092.61
399.4340, 17379.00
400.6320, 17876.00
401.8290, 18203.00
403.0260, 18700.00
404.2230, 18734.00
405.4200, 18713.00
406.6170, 18400.00
407.8130, 17967.00
409.0090, 17605.00
410.2050, 17321.00
411.4010, 17382.00
412.5970, 17226.00
413.7920, 17116.00
414.9880, 16710.00
416.1830, 16449.00
417.3780, 16319.00
418.5730, 15929.00
419.7670, 15801.00
420.9620, 15713.00
422.1560, 15584.00
423.3500, 15714.00
424.5440, 15722.00
425.7380, 15694.00
426.9310, 15713.00
428.1240, 15644.00
429.3180, 15743.00
430.5110, 15780.31
431.7030, 15882.00
432.8960, 15963.00
434.0890, 16041.00
435.2810, 16165.00
436.4730, 16376.00
437.6650, 16414.00
438.8570, 16662.00
440.0480, 16941.00
441.2390, 17283.00
442.4310, 17691.00
443.6220, 18199.00
444.8120, 18719.00
446.0030, 19581.00
447.1940, 20492.00
448.3840, 21393.00
449.5740, 22194.00
450.7640, 23345.00
451.9540, 24357.00
453.1430, 25168.00
454.3330, 25933.00
455.5220, 25893.00
456.7110, 25377.00
457.9000, 24668.00
459.0890, 23551.00
460.2770, 22763.00
461.4650, 22293.00
462.6540, 22164.00
463.8420, 22398.00
465.0290, 23157.00
466.2170, 24562.00
467.4050, 26099.00
468.5920, 27906.00
469.7790, 29715.00
470.9660, 31943.00
472.1530, 34328.00
473.3390, 36744.00
474.5250, 38674.00
475.7120, 40496.00
476.8980, 40593.00
478.0840, 39149.00
479.2690, 36601.00
480.4550, 33516.00
481.6400, 30423.00
482.8250, 28288.00
484.0100, 26381.00
485.1950, 25227.00
486.3800, 23930.00
487.5640, 22701.00
488.7480, 21970.00
489.9320, 20900.00
491.1160, 20163.00
492.3000, 20037.00
493.4840, 19723.00
494.6670, 19619.00
495.8500, 19749.00
497.0330, 20125.00
498.2160, 20614.00
499.3990, 21251.00
500.5810, 22205.00
501.7630, 23999.00
502.9460, 25816.00
504.1280, 28609.00
505.3090, 31643.00
506.4910, 35464.00
507.6720, 38728.00
508.8540, 42305.00
510.0350, 46875.00
511.2160, 50913.00
512.3960, 54725.00
513.5770, 56254.00
514.7570, 56137.00
515.9380, 53401.00
517.1180, 48327.00
518.2970, 42754.00
519.4770, 37051.00
520.6570, 32509.00
521.8360, 28925.00
523.0150, 26279.00
524.1940, 24486.00
525.3730, 23086.00
526.5510, 22043.00
527.7300, 21137.00
528.9080, 20663.00
530.0860, 20081.00
531.2640, 19586.00
532.4420, 19369.00
533.6200, 18908.00
534.7970, 19072.00
535.9740, 18816.00
537.1510, 18579.00
538.3280, 18381.00
539.5050, 18282.00
540.6810, 18114.00
541.8580, 18107.00
543.0340, 17965.00
544.2100, 17971.00
545.3860, 17759.00
546.5610, 17765.00
547.7370, 17652.00
548.9120, 17763.00
550.0870, 17767.00
551.2620, 17644.00
552.4370, 17683.00
553.6120, 17727.00
554.7860, 17653.00
555.9600, 17505.00
557.1340, 17729.00
558.3080, 17606.00
559.4820, 17656.00
560.6560, 17733.00
561.8290, 17718.00
563.0020, 17724.86
564.1750, 17583.00
565.3480, 17663.00
566.5210, 17595.00
567.6930, 17544.00
568.8660, 17705.00
570.0380, 17685.00
571.2100, 17695.00
572.3820, 17523.00
573.5530, 17608.00
574.7250, 17728.00
575.8960, 17915.00
577.0670, 17820.00
578.2380, 17850.00
579.4090, 17907.00
580.5800, 17872.00
581.7500, 17921.00
582.9210, 17961.00
584.0910, 18035.00
585.2610, 17989.00
586.4300, 17876.00
587.6000, 17841.00
588.7690, 17806.13
589.9390, 17706.00
591.1080, 17742.00
592.2770, 17752.00
593.4450, 17664.00
594.6140, 17640.00
595.7820, 17572.00
596.9500, 17764.00
598.1190, 17627.00
599.2860, 17713.00
600.4540, 17885.00
601.6220, 17637.00
602.7890, 17662.00
603.9560, 17662.00
605.1230, 17607.97
606.2900, 17685.29
607.4570, 17701.00
608.6230, 17792.00
609.7890, 17968.00
610.9560, 18008.00
612.1220, 18071.00
613.2870, 18026.00
614.4530, 17922.00
615.6180, 18075.00
616.7840, 17945.00
617.9490, 18079.00
619.1140, 18077.00
620.2790, 18199.00
621.4430, 18280.00
622.6080, 18250.00
623.7720, 18352.53
624.9360, 18355.19
626.1000, 18475.00
627.2640, 18429.00
628.4270, 18528.00
629.5910, 18649.00
630.7540, 18732.00
631.9170, 18731.00
633.0800, 18776.00
634.2430, 18824.00
635.4050, 18973.00
636.5680, 19008.00
637.7300, 19253.00
638.8920, 19178.00
640.0540, 19353.00
641.2150, 19507.00
642.3770, 19506.00
643.5380, 19616.00
644.7000, 19733.00
645.8610, 19838.00
647.0210, 19735.00
648.1820, 20047.00
649.3430, 19965.00
650.5030, 20029.00
651.6630, 20197.00
652.8230, 20513.00
653.9830, 20380.00
655.1430, 20354.00
656.3020, 20212.00
657.4620, 20011.00
658.6210, 20000.00
659.7800, 19861.00
660.9390, 19978.00
662.0970, 19816.00
663.2560, 19721.51
664.4140, 19286.00
665.5720, 19397.00
666.7300, 19177.00
667.8880, 18909.00
669.0460, 18903.00
670.2030, 19008.00
671.3600, 18759.00
672.5180, 18839.00
673.6740, 18605.00
674.8310, 18805.00
675.9880, 18587.00
677.1440, 18759.00
678.3010, 18747.00
679.4570, 18724.25
680.6130, 18629.00
681.7690, 18659.00
682.9240, 19189.00
684.0800, 18998.00
685.2350, 18900.00
686.3900, 18634.00
687.5450, 18556.00
688.7000, 18695.00
689.8540, 18739.00
691.0090, 18770.00
692.1630, 18711.00
693.3170, 18774.00
694.4710, 18753.00
695.6250, 18985.00
696.7780, 18946.00
697.9320, 18736.00
699.0850, 19036.00
700.2380, 18769.00
701.3910, 18898.00
702.5440, 18894.00
703.6970, 19065.00
704.8490, 18925.00
706.0010, 19094.00
707.1530, 19211.00
708.3050, 19214.00
709.4570, 19319.77
710.6090, 19252.00
711.7600, 19444.00
712.9110, 19286.00
714.0620, 19405.00
715.2130, 19405.00
716.3640, 19175.00
717.5150, 19447.00
718.6650, 19378.00
719.8150, 19235.00
720.9650, 19525.00
722.1150, 19385.00
723.2650, 19366.00
724.4150, 19602.00
725.5640, 19455.00
726.7130, 19496.00
727.8630, 19571.00
729.0110, 19685.00
730.1600, 19641.00
731.3090, 19804.00
732.4570, 20067.00
733.6060, 20051.00
734.7540, 20115.00
735.9020, 20466.00
737.0490, 20655.00
738.1970, 20962.00
739.3440, 21329.00
740.4920, 21411.00
741.6390, 21800.00
742.7860, 22263.00
743.9320, 22747.00
745.0790, 23210.00
746.2250, 23895.00
747.3720, 24403.00
748.5180, 24707.00
749.6640, 24849.00
750.8100, 24825.00
751.9550, 24095.00
753.1010, 23657.00
754.2460, 23086.00
755.3910, 22660.00
756.5360, 21867.00
757.6810, 21550.00
758.8250, 21359.00
759.9700, 20848.00
761.1140, 20804.00
762.2580, 20747.00
763.4020, 20316.00
764.5460, 20423.00
765.6900, 20287.00
766.8330, 20340.00
767.9760, 20248.00
769.1200, 20233.00
770.2620, 20259.00
771.4050, 20116.00
772.5480, 20005.00
773.6900, 19750.00
774.8330, 19787.57
775.9750, 19765.67
777.1170, 19840.00
778.2590, 19907.00
779.4000, 19991.00
780.5420, 20075.00
781.6830, 20026.00
782.8240, 19927.00
783.9650, 20061.00
785.1060, 19887.00
786.2470, 19961.00
787.3870, 20114.00
788.5280, 19826.00
789.6680, 19952.00
790.8080, 20238.00
791.9480, 20012.00
793.0870, 20246.00
794.2270, 20315.00
795.3660, 20266.00
796.5060, 20422.00
797.6450, 20220.00
798.7830, 20304.00
799.9220, 20489.00
801.0610, 20291.00
802.1990, 20562.00
803.3370, 20730.00
804.4750, 20897.00
805.6130, 21172.00
806.7510, 21442.00
807.8890, 21780.00
809.0260, 22122.00
810.1630, 22385.00
811.3000, 22544.00
812.4370, 22663.35
813.5740, 23019.00
814.7110, 22600.00
815.8470, 22637.00
816.9830, 22314.00
818.1190, 21811.00
819.2550, 21365.00
820.3910, 21316.00
821.5270, 20985.00
822.6620, 20920.00
823.7970, 20735.00
824.9330, 20618.00
826.0670, 20575.00
827.2020, 20568.00
828.3370, 20415.00
829.4710, 20431.00
830.6060, 20629.00
831.7400, 20476.00
832.8740, 20480.00
834.0080, 20286.00
835.1410, 20476.00
836.2750, 20530.00
837.4080, 20501.00
838.5410, 20504.00
839.6740, 20542.00
840.8070, 20593.00
841.9400, 20505.00
843.0730, 20486.00
844.2050, 20525.00
845.3370, 20353.00
846.4690, 20508.00
847.6010, 20604.00
848.7330, 20555.00
849.8640, 20716.00
850.9960, 20530.00
852.1270, 20497.00
853.2580, 20652.00
854.3890, 20636.00
855.5200, 20621.48
856.6500, 20649.00
857.7810, 20574.00
858.9110, 20582.00
860.0410, 20617.00
861.1710, 20696.00
862.3010, 20606.00
863.4310, 20770.00
864.5600, 20661.00
865.6900, 20788.00
866.8190, 20819.00
867.9480, 20770.00
869.0770, 20699.00
870.2050, 20908.00
871.3340, 20647.00
872.4620, 20810.00
873.5900, 20631.00
874.7180, 20741.00
875.8460, 20967.00
876.9740, 20834.00
878.1010, 20934.00
879.2290, 20834.00
880.3560, 20833.00
881.4830, 20856.03
882.6100, 20928.00
883.7370, 20904.00
884.8630, 20901.00
885.9900, 20990.00
887.1160, 20962.00
888.2420, 20931.23
889.3680, 21138.00
890.4940, 20904.00
891.6200, 21037.00
892.7450, 21232.00
893.8700, 21079.00
894.9960, 21096.00
896.1210, 21312.00
897.2460, 21012.00
898.3700, 21138.00
899.4950, 21135.00
900.6190, 20950.00
901.7430, 21321.00
902.8670, 21156.00
903.9910, 21553.00
905.1150, 21191.00
906.2390, 21325.00
907.3620, 21104.00
908.4850, 21140.00
909.6080, 21358.00
910.7310, 21303.00
911.8540, 21246.00
912.9770, 21277.00
914.0990, 21628.00
915.2210, 21464.00
916.3440, 21464.00
917.4660, 21370.00
918.5870, 21293.00
919.7090, 21331.00
920.8310, 21447.00
921.9520, 21658.00
923.0730, 21596.00
924.1940, 21567.00
925.3150, 21586.00
926.4360, 21589.96
927.5560, 21621.67
928.6770, 21660.00
929.7970, 21686.00
930.9170, 21712.00
932.0370, 21693.00
933.1570, 21831.00
934.2760, 21837.00
935.3960, 21801.00
936.5150, 21734.00
937.6340, 21777.00
938.7530, 21881.00
939.8720, 21890.00
940.9910, 21854.00
942.1090, 21916.00
943.2280, 21921.00
944.3460, 21915.00
945.4640, 21887.00
946.5820, 22022.00
947.6990, 22056.00
948.8170, 22138.00
949.9340, 22121.00
951.0520, 22072.00
952.1690, 22146.00
953.2860, 22350.00
954.4030, 22367.00
955.5190, 22271.00
956.6360, 22231.00
957.7520, 22150.00
958.8680, 22244.00
959.9840, 22236.00
961.1000, 22362.00
962.2160, 22308.00
963.3310, 22216.00
964.4470, 22198.00
965.5620, 22372.00
966.6770, 22199.00
967.7920, 22586.00
968.9060, 22269.00
970.0210, 22542.00
971.1360, 22470.00
972.2500, 22317.00
973.3640, 22597.00
974.4780, 22856.00
975.5920, 22705.00
976.7050, 22788.00
977.8190, 22767.00
978.9320, 22789.00
980.0450, 22812.00
981.1580, 22770.00
982.2710, 23145.00
983.3840, 23108.00
984.4970, 23203.00
985.6090, 23256.00
986.7210, 23625.00
987.8330, 23853.00
988.9450, 23998.00
990.0570, 24540.00
991.1690, 24647.00
992.2800, 24892.00
993.3920, 24830.00
994.5030, 25079.00
995.6140, 25065.00
996.7250, 25119.00
997.8350, 25022.00
998.9460, 24813.00
1000.056, 24558.00
1001.167, 24540.00
1002.277, 24274.00
1003.387, 24404.00
1004.496, 24310.00
1005.606, 24280.00
1006.715, 24125.00
1007.825, 23870.00
1008.934, 23733.00
1010.043, 23620.48
1011.152, 23820.00
1012.260, 23530.00
1013.369, 23560.00
1014.477, 23691.00
1015.586, 23344.00
1016.694, 23352.00
1017.802, 23580.00
1018.909, 23500.00
1020.017, 23743.00
1021.124, 23697.00
1022.232, 23797.00
1023.339, 23912.00
1024.446, 23927.00
1025.553, 24064.00
1026.659, 24093.36
1027.766, 24274.00
1028.872, 24206.00
1029.979, 24185.00
1031.085, 24293.00
1032.191, 24427.00
1033.296, 24357.00
1034.402, 24282.00
1035.507, 24092.00
1036.613, 24249.00
1037.718, 24296.00
1038.823, 24354.00
1039.928, 24396.04
1041.032, 24191.00
1042.137, 24432.00
1043.241, 24308.00
1044.346, 24354.00
1045.450, 24508.00
1046.554, 24630.00
1047.657, 24547.00
1048.761, 24783.00
1049.864, 25038.00
1050.968, 24769.00
1052.071, 25104.00
1053.174, 25051.00
1054.277, 24990.00
1055.379, 24926.00
1056.482, 24671.00
1057.584, 24492.00
1058.687, 24464.00
1059.789, 24462.00
1060.891, 24284.00
1061.992, 24142.00
1063.094, 24105.00
1064.196, 24051.00
1065.297, 24124.00
1066.398, 24001.00
1067.499, 23901.00
1068.600, 24081.00
1069.701, 24026.00
1070.801, 23996.00
1071.902, 24000.00
1073.002, 24208.00
1074.102, 23937.00
1075.202, 23973.00
1076.302, 24119.00
1077.402, 23907.00
1078.501, 24166.00
1079.600, 24201.00
1080.700, 24150.00
1081.799, 24395.00
1082.898, 24368.00
1083.996, 24431.25
1085.095, 24433.00
1086.193, 24519.00
1087.292, 24515.02
1088.390, 24547.08
1089.488, 24556.00
1090.586, 24624.00
1091.683, 24711.89
1092.781, 24835.00
1093.878, 24925.00
1094.975, 25125.00
1096.073, 25350.00
1097.169, 25646.00
1098.266, 25610.29
1099.363, 25483.00
1100.459, 25545.00
1101.556, 25386.00
1102.652, 25349.00
1103.748, 25395.00
1104.844, 25507.00
1105.940, 25621.87
1107.035, 25804.00
1108.131, 25980.00
1109.226, 26197.00
1110.321, 26394.00
1111.416, 26643.00
1112.511, 27041.00
1113.605, 27443.00
1114.700, 28064.00
1115.794, 28565.00
1116.889, 29355.00
1117.983, 30332.00
1119.077, 31284.00
1120.170, 32172.00
1121.264, 32976.00
1122.357, 33678.00
1123.451, 33743.00
1124.544, 33644.00
1125.637, 33213.00
1126.730, 32675.00
1127.823, 31941.00
1128.915, 31068.00
1130.008, 30439.00
1131.100, 29937.00
1132.192, 29740.00
1133.284, 29635.00
1134.376, 29445.00
1135.467, 29538.00
1136.559, 29414.08
1137.650, 29692.00
1138.742, 29283.00
1139.833, 29298.00
1140.924, 29124.00
1142.014, 28507.00
1143.105, 28011.00
1144.195, 27620.00
1145.286, 27270.00
1146.376, 26932.61
1147.466, 26645.18
1148.556, 26450.00
1149.646, 26179.00
1150.735, 26106.00
1151.825, 26009.00
1152.914, 25915.00
1154.003, 25600.00
1155.092, 25683.00
1156.181, 25541.00
1157.270, 25375.00
1158.358, 25510.00
1159.447, 25367.00
1160.535, 25453.00
1161.623, 25292.00
1162.711, 25228.00
1163.799, 25160.00
1164.886, 25348.00
1165.974, 25282.00
1167.061, 25155.00
1168.148, 25361.00
1169.235, 25267.00
1170.322, 25361.00
1171.409, 25230.00
1172.496, 25170.00
1173.582, 25224.00
1174.669, 25202.00
1175.755, 25184.61
1176.841, 25223.00
1177.927, 25159.00
1179.012, 25128.00
1180.098, 25130.00
1181.183, 25118.00
1182.269, 25142.32
1183.354, 25205.58
1184.439, 25219.00
1185.524, 25319.00
1186.608, 25386.00
1187.693, 25335.00
1188.777, 25352.00
1189.862, 25225.00
1190.946, 25142.00
1192.030, 25177.00
1193.113, 25206.00
1194.197, 25199.00
1195.281, 25254.98
1196.364, 25223.00
1197.447, 25345.00
1198.530, 25330.00
1199.613, 25374.00
1200.696, 25352.00
1201.779, 25377.00
1202.861, 25403.42
1203.944, 25451.00
1205.026, 25473.00
1206.108, 25488.00
1207.190, 25551.00
1208.271, 25561.00
1209.353, 25626.00
1210.435, 25526.00
1211.516, 25439.00
1212.597, 25684.00
1213.678, 25541.00
1214.759, 25571.00
1215.840, 25547.00
1216.920, 25516.00
1218.001, 25534.46
1219.081, 25650.00
1220.161, 25533.00
1221.241, 25676.00
1222.321, 25670.00
1223.401, 25481.00
1224.480, 25624.00
1225.560, 25615.00
1226.639, 25594.00
1227.718, 25743.00
1228.797, 25741.00
1229.876, 25698.00
1230.955, 25799.00
1232.033, 25774.71
1233.112, 25783.00
1234.190, 25860.00
1235.268, 25778.00
1236.346, 25919.00
1237.424, 25873.00
1238.501, 25736.00
1239.579, 25810.00
1240.656, 25803.00
1241.733, 25872.00
1242.811, 25780.00
1243.888, 25818.00
1244.964, 25833.00
1246.041, 25898.00
1247.117, 25853.00
1248.194, 25901.00
1249.270, 25817.00
1250.346, 25816.00
1251.422, 25842.00
1252.498, 25870.05
1253.573, 26042.00
1254.649, 26024.00
1255.724, 25970.00
1256.800, 26069.00
1257.875, 25996.00
1258.950, 25979.00
1260.024, 25952.00
1261.099, 26058.00
1262.173, 25847.00
1263.248, 26153.00
1264.322, 26064.00
1265.396, 26264.00
1266.470, 26227.00
1267.544, 26315.00
1268.617, 26265.00
1269.691, 26140.00
1270.764, 26153.00
1271.837, 26168.00
1272.910, 26136.20
1273.983, 26106.00
1275.056, 26183.00
1276.129, 26229.00
1277.201, 26316.00
1278.273, 26000.00
1279.346, 26275.00
1280.418, 26230.00
1281.489, 26226.00
1282.561, 26420.00
1283.633, 26313.00
1284.704, 26100.00
1285.776, 26307.00
1286.847, 26425.00
1287.918, 26326.00
1288.989, 26460.00
1290.059, 26197.00
1291.130, 26461.00
1292.200, 26539.00
1293.271, 26392.00
1294.341, 26335.00
1295.411, 26501.00
1296.481, 26495.00
1297.551, 26371.00
1298.620, 26523.00
1299.690, 26481.00
1300.759, 26511.00
1301.828, 26665.00
1302.897, 26309.00
1303.966, 26621.00
1305.035, 26749.00
1306.103, 26474.00
1307.172, 26473.00
1308.240, 26695.00
1309.308, 26797.00
1310.376, 26778.00
1311.444, 26707.00
1312.512, 26711.00
