##NAMES=Microcline
##RRUFFID=R050150
##IDEAL CHEMISTRY=KAlSi_3_O_8_
##LOCALITY=Crystal Peak area, Park/Teller Counties, Colorado, USA
##OWNER=RRUFF
##SOURCE=Dave Bunk Minerals
##DESCRIPTION=Pale blue prismatic crystals
##STATUS=The identification of this mineral has been confirmed by X-ray diffraction and chemical analysis
##URL=rruff.info/R050150
##MEASURED CHEMISTRY=(K_0.95_Na_0.05_)_Î£=1_Al_1.00_Si_3.00_O_8_
##PIN_ID=L00941
##ORIENTATION=Laser parallel to (-1 0 -1). Fiducial mark perpendicular to laser is parallel to -b [0 -1 0]
137.6830, 11840.00
138.9210, 12491.00
140.1580, 13258.00
141.3950, 14076.00
142.6330, 14990.00
143.8690, 15584.00
145.1060, 16264.00
146.3430, 17530.00
147.5790, 18516.00
148.8150, 19681.00
150.0510, 20883.00
151.2870, 21931.00
152.5220, 23419.00
153.7580, 24203.00
154.9930, 24606.00
156.2280, 24117.00
157.4620, 23520.00
158.6970, 23511.00
159.9310, 24010.00
161.1660, 24806.00
162.4000, 25922.00
163.6330, 26485.00
164.8670, 26356.00
166.1000, 26064.00
167.3340, 24600.00
168.5670, 23127.00
169.8000, 21906.00
171.0320, 21270.00
172.2650, 21038.00
173.4970, 21177.00
174.7290, 21534.00
175.9610, 22056.00
177.1930, 22566.00
178.4240, 22967.00
179.6550, 23523.00
180.8870, 23781.00
182.1170, 24558.00
183.3480, 25007.00
184.5790, 25827.00
185.8090, 26379.00
187.0390, 26560.00
188.2690, 26686.00
189.4990, 26086.00
190.7290, 25165.00
191.9580, 23497.00
193.1870, 21789.00
194.4160, 20350.00
195.6450, 19351.00
196.8740, 18661.00
198.1020, 18256.00
199.3310, 18266.00
200.5590, 18733.00
201.7870, 18765.00
203.0140, 18610.00
204.2420, 18736.00
205.4690, 18897.00
206.6960, 19304.00
207.9230, 19935.00
209.1500, 20626.00
210.3760, 21495.00
211.6030, 21626.00
212.8290, 21305.00
214.0550, 20031.00
215.2810, 18227.00
216.5060, 16459.00
217.7320, 14739.00
218.9570, 13565.00
220.1820, 12902.00
221.4070, 12184.00
222.6320, 11460.00
223.8560, 11386.00
225.0800, 11206.00
226.3040, 11011.00
227.5280, 10869.00
228.7520, 10759.03
229.9760, 10675.00
231.1990, 10630.00
232.4220, 10635.00
233.6450, 10579.70
234.8680, 10478.00
236.0910, 10542.00
237.3130, 10554.00
238.5350, 10565.00
239.7570, 10645.00
240.9790, 10754.00
242.2010, 11030.00
243.4220, 11151.00
244.6430, 11341.00
245.8640, 11611.00
247.0850, 11752.00
248.3060, 12076.00
249.5270, 12327.00
250.7470, 12461.00
251.9670, 12873.00
253.1870, 13140.00
254.4070, 13553.00
255.6260, 13634.00
256.8460, 13728.00
258.0650, 13576.00
259.2840, 13997.00
260.5030, 14214.00
261.7220, 14039.00
262.9400, 13859.00
264.1580, 14037.00
265.3760, 14120.00
266.5940, 14692.00
267.8120, 14743.00
269.0290, 15082.00
270.2470, 15346.00
271.4640, 15607.00
272.6810, 15586.00
273.8980, 15620.00
275.1140, 15597.00
276.3310, 15744.00
277.5470, 16177.00
278.7630, 16848.00
279.9790, 18190.00
281.1940, 19831.00
282.4100, 21584.00
283.6250, 23292.00
284.8400, 24684.00
286.0550, 25528.00
287.2700, 27076.00
288.4850, 28713.00
289.6990, 30478.00
290.9130, 32194.00
292.1270, 33463.00
293.3410, 33541.00
294.5540, 32544.00
295.7680, 29716.00
296.9810, 26387.00
298.1940, 23047.00
299.4070, 19828.00
300.6200, 17628.00
301.8320, 16076.00
303.0450, 14991.00
304.2570, 14274.00
305.4690, 13628.00
306.6800, 13148.00
307.8920, 13014.00
309.1030, 12862.00
310.3150, 12761.00
311.5260, 12594.00
312.7360, 12513.00
313.9470, 12503.00
315.1580, 12365.00
316.3680, 12271.00
317.5780, 12633.00
318.7880, 12552.00
319.9980, 12718.00
321.2070, 13047.00
322.4170, 13334.00
323.6260, 13354.00
324.8350, 13644.00
326.0430, 13809.00
327.2520, 14137.00
328.4610, 14532.00
329.6690, 15004.00
330.8770, 15336.00
332.0850, 15252.00
333.2920, 14839.00
334.5000, 14069.00
335.7070, 13621.00
336.9140, 12930.00
338.1210, 12416.00
339.3280, 12191.00
340.5350, 12113.00
341.7410, 11886.00
342.9470, 11730.00
344.1540, 11703.00
345.3590, 11773.00
346.5650, 11792.00
347.7710, 11912.00
348.9760, 11767.00
350.1810, 11835.00
351.3860, 11758.00
352.5910, 11849.00
353.7950, 11845.00
355.0000, 11687.00
356.2040, 11637.00
357.4080, 11693.00
358.6120, 11596.00
359.8150, 11445.00
361.0190, 11521.00
362.2220, 11527.00
363.4250, 11572.00
364.6280, 11615.00
365.8310, 11758.00
367.0340, 11671.00
368.2360, 11729.00
369.4380, 11649.00
370.6400, 11688.00
371.8420, 11735.00
373.0440, 11777.00
374.2450, 11824.00
375.4470, 11675.00
376.6480, 11736.00
377.8490, 11555.00
379.0490, 11558.00
380.2500, 11746.00
381.4500, 11538.00
382.6510, 11646.00
383.8510, 11491.00
385.0500, 11538.00
386.2500, 11518.00
387.4500, 11706.00
388.6490, 11854.00
389.8480, 11967.00
391.0470, 11856.00
392.2460, 12072.00
393.4440, 12225.00
394.6430, 12348.00
395.8410, 12547.00
397.0390, 12694.00
398.2370, 13054.00
399.4340, 13479.00
400.6320, 13934.00
401.8290, 14021.00
403.0260, 14271.00
404.2230, 14037.00
405.4200, 14200.00
406.6170, 14532.00
407.8130, 14788.00
409.0090, 15264.00
410.2050, 15478.00
411.4010, 15441.00
412.5970, 14914.00
413.7920, 14592.00
414.9880, 14429.00
416.1830, 14177.00
417.3780, 14191.00
418.5730, 14397.00
419.7670, 14190.00
420.9620, 13972.00
422.1560, 13564.00
423.3500, 13248.27
424.5440, 12791.00
425.7380, 12493.00
426.9310, 12423.00
428.1240, 12178.00
429.3180, 12283.51
430.5110, 12446.00
431.7030, 12501.00
432.8960, 12459.00
434.0890, 12423.00
435.2810, 12335.00
436.4730, 12567.00
437.6650, 12689.00
438.8570, 12499.00
440.0480, 12788.00
441.2390, 12989.00
442.4310, 13270.00
443.6220, 13287.00
444.8120, 13832.00
446.0030, 14020.00
447.1940, 14730.00
448.3840, 15174.00
449.5740, 15753.00
450.7640, 16293.00
451.9540, 17045.00
453.1430, 17436.00
454.3330, 18155.00
455.5220, 18592.00
456.7110, 19271.00
457.9000, 19717.00
459.0890, 19828.00
460.2770, 19489.00
461.4650, 18929.00
462.6540, 18295.00
463.8420, 18125.00
465.0290, 17813.00
466.2170, 18306.00
467.4050, 19258.00
468.5920, 20570.00
469.7790, 22400.00
470.9660, 25107.00
472.1530, 27760.00
473.3390, 30314.00
474.5250, 32034.00
475.7120, 34280.00
476.8980, 36590.00
478.0840, 39556.00
479.2690, 42146.00
480.4550, 44445.00
481.6400, 44591.00
482.8250, 43071.00
484.0100, 39367.00
485.1950, 34393.00
486.3800, 29439.00
487.5640, 25759.00
488.7480, 23125.00
489.9320, 21346.00
491.1160, 20277.00
492.3000, 19831.00
493.4840, 19719.00
494.6670, 20455.00
495.8500, 21659.00
497.0330, 23657.00
498.2160, 26293.00
499.3990, 29720.00
500.5810, 33490.00
501.7630, 36896.00
502.9460, 40194.00
504.1280, 43815.00
505.3090, 47735.00
506.4910, 52871.00
507.6720, 57505.00
508.8540, 60745.00
510.0350, 62039.00
511.2160, 60114.00
512.3960, 55423.00
513.5770, 48666.00
514.7570, 41748.00
515.9380, 35889.00
517.1180, 31198.00
518.2970, 27367.00
519.4770, 24526.00
520.6570, 22206.00
521.8360, 20793.00
523.0150, 19411.00
524.1940, 18607.00
525.3730, 17728.00
526.5510, 17296.00
527.7300, 16729.00
528.9080, 16412.00
530.0860, 16125.00
531.2640, 15721.00
532.4420, 15559.00
533.6200, 15449.00
534.7970, 15197.00
535.9740, 15023.00
537.1510, 14991.00
538.3280, 14913.00
539.5050, 14790.00
540.6810, 14781.00
541.8580, 14521.00
543.0340, 14553.00
544.2100, 14520.00
545.3860, 14511.00
546.5610, 14312.00
547.7370, 14316.00
548.9120, 14365.00
550.0870, 14322.00
551.2620, 14357.00
552.4370, 14438.00
553.6120, 14323.00
554.7860, 14264.00
555.9600, 14264.00
557.1340, 14273.00
558.3080, 14138.00
559.4820, 14114.00
560.6560, 14123.00
561.8290, 14243.00
563.0020, 14253.00
564.1750, 14256.00
565.3480, 14307.00
566.5210, 14356.00
567.6930, 14362.15
568.8660, 14488.00
570.0380, 14443.00
571.2100, 14481.00
572.3820, 14629.00
573.5530, 14731.00
574.7250, 14919.00
575.8960, 15047.00
577.0670, 15099.00
578.2380, 15382.00
579.4090, 15478.00
580.5800, 15600.00
581.7500, 15627.00
582.9210, 15559.00
584.0910, 15261.00
585.2610, 15038.00
586.4300, 14717.00
587.6000, 14601.00
588.7690, 14506.00
589.9390, 14246.00
591.1080, 14365.00
592.2770, 14204.00
593.4450, 14177.00
594.6140, 14032.00
595.7820, 14084.00
596.9500, 14087.00
598.1190, 13867.00
599.2860, 13858.00
600.4540, 14043.00
601.6220, 13971.00
602.7890, 14139.00
603.9560, 14117.00
605.1230, 14005.00
606.2900, 14078.00
607.4570, 14091.00
608.6230, 14297.00
609.7890, 13896.00
610.9560, 13995.00
612.1220, 14233.00
613.2870, 14481.00
614.4530, 14367.00
615.6180, 14111.00
616.7840, 14268.00
617.9490, 14352.00
619.1140, 14270.00
620.2790, 14334.00
621.4430, 14417.00
622.6080, 14491.00
623.7720, 14642.00
624.9360, 14528.00
626.1000, 14510.00
627.2640, 14745.00
628.4270, 14743.00
629.5910, 14809.00
630.7540, 15081.00
631.9170, 14917.00
633.0800, 15135.00
634.2430, 15155.00
635.4050, 15287.00
636.5680, 15300.00
637.7300, 15353.00
638.8920, 15238.00
640.0540, 15335.00
641.2150, 15467.00
642.3770, 15421.00
643.5380, 15536.00
644.7000, 15751.00
645.8610, 15764.00
647.0210, 15827.00
648.1820, 15938.00
649.3430, 15688.00
650.5030, 15881.00
651.6630, 15711.00
652.8230, 15693.00
653.9830, 15511.00
655.1430, 15445.00
656.3020, 15322.00
657.4620, 15135.00
658.6210, 15205.00
659.7800, 14830.00
660.9390, 14963.00
662.0970, 14922.00
663.2560, 14752.00
664.4140, 14656.00
665.5720, 14805.00
666.7300, 14785.00
667.8880, 14781.00
669.0460, 14793.53
670.2030, 14762.98
671.3600, 14716.00
672.5180, 14685.00
673.6740, 14625.00
674.8310, 14512.00
675.9880, 14689.00
677.1440, 14684.00
678.3010, 14858.00
679.4570, 14654.00
680.6130, 14795.00
681.7690, 14582.00
682.9240, 14740.00
684.0800, 14615.00
685.2350, 14671.00
686.3900, 14692.00
687.5450, 14786.00
688.7000, 14887.00
689.8540, 14882.45
691.0090, 14859.00
692.1630, 14858.00
693.3170, 14821.00
694.4710, 14710.00
695.6250, 14862.00
696.7780, 14864.00
697.9320, 14782.00
699.0850, 15042.00
700.2380, 14866.00
701.3910, 14967.00
702.5440, 14860.00
703.6970, 14745.00
704.8490, 14827.00
706.0010, 14829.00
707.1530, 14849.00
708.3050, 14889.00
709.4570, 14994.00
710.6090, 14960.00
711.7600, 14918.00
712.9110, 15129.00
714.0620, 15130.00
715.2130, 15047.00
716.3640, 15103.00
717.5150, 15051.00
718.6650, 15215.00
719.8150, 15353.00
720.9650, 15097.00
722.1150, 15289.00
723.2650, 15447.00
724.4150, 15365.00
725.5640, 15328.00
726.7130, 15407.00
727.8630, 15268.00
729.0110, 15333.00
730.1600, 15274.00
731.3090, 15326.00
732.4570, 15419.00
733.6060, 15311.00
734.7540, 15469.00
735.9020, 15602.00
737.0490, 15652.00
738.1970, 15644.00
739.3440, 15760.00
740.4920, 15862.71
741.6390, 16021.00
742.7860, 16170.00
743.9320, 16301.00
745.0790, 16498.00
746.2250, 16676.00
747.3720, 16876.00
748.5180, 16942.00
749.6640, 17068.00
750.8100, 17181.00
751.9550, 17279.00
753.1010, 17437.00
754.2460, 17830.00
755.3910, 18227.00
756.5360, 18961.00
757.6810, 19687.00
758.8250, 20071.00
759.9700, 20913.00
761.1140, 21672.00
762.2580, 22364.00
763.4020, 23028.00
764.5460, 23568.00
765.6900, 23702.00
766.8330, 23333.00
767.9760, 22583.00
769.1200, 21297.00
770.2620, 20197.00
771.4050, 19086.00
772.5480, 18657.00
773.6900, 18291.00
774.8330, 17883.00
775.9750, 17872.00
777.1170, 17763.00
778.2590, 17417.00
779.4000, 17355.00
780.5420, 17074.00
781.6830, 16908.00
782.8240, 16792.00
783.9650, 16562.00
785.1060, 16565.00
786.2470, 16549.00
787.3870, 16543.00
788.5280, 16338.00
789.6680, 16289.00
790.8080, 16296.00
791.9480, 16453.00
793.0870, 16475.00
794.2270, 16512.00
795.3660, 16521.00
796.5060, 16543.00
797.6450, 16480.00
798.7830, 16612.00
799.9220, 16767.00
801.0610, 16932.00
802.1990, 17282.00
803.3370, 17380.00
804.4750, 17980.00
805.6130, 18284.00
806.7510, 18911.00
807.8890, 19585.00
809.0260, 20482.00
810.1630, 21500.00
811.3000, 22325.00
812.4370, 23079.00
813.5740, 24047.00
814.7110, 24871.00
815.8470, 25308.00
816.9830, 25301.00
818.1190, 24830.00
819.2550, 23815.00
820.3910, 22406.00
821.5270, 20912.00
822.6620, 19901.00
823.7970, 18977.00
824.9330, 18313.00
826.0670, 17863.00
827.2020, 17660.00
828.3370, 17411.00
829.4710, 17384.00
830.6060, 17016.00
831.7400, 17011.00
832.8740, 17010.00
834.0080, 16878.00
835.1410, 16811.00
836.2750, 16752.00
837.4080, 16702.76
838.5410, 16707.00
839.6740, 16676.00
840.8070, 16690.49
841.9400, 16781.00
843.0730, 16754.00
844.2050, 16779.00
845.3370, 16859.00
846.4690, 16699.00
847.6010, 16602.00
848.7330, 16783.00
849.8640, 16592.00
850.9960, 16700.00
852.1270, 16609.00
853.2580, 16588.00
854.3890, 16698.00
855.5200, 16570.00
856.6500, 16520.00
857.7810, 16666.00
858.9110, 16625.00
860.0410, 16610.00
861.1710, 16665.00
862.3010, 16726.00
863.4310, 16666.00
864.5600, 16596.00
865.6900, 16697.00
866.8190, 16748.00
867.9480, 16628.00
869.0770, 16787.00
870.2050, 16738.00
871.3340, 16800.00
872.4620, 16701.00
873.5900, 16820.00
874.7180, 16861.00
875.8460, 16747.00
876.9740, 16662.00
878.1010, 16687.00
879.2290, 16834.00
880.3560, 16985.00
881.4830, 16966.00
882.6100, 16951.00
883.7370, 16946.00
884.8630, 16902.00
885.9900, 16877.00
887.1160, 16850.78
888.2420, 16846.27
889.3680, 16850.00
890.4940, 16854.00
891.6200, 16983.00
892.7450, 16997.00
893.8700, 16850.00
894.9960, 17074.00
896.1210, 17048.00
897.2460, 17207.00
898.3700, 17058.00
899.4950, 17008.00
900.6190, 17039.00
901.7430, 17137.00
902.8670, 17108.00
903.9910, 16997.00
905.1150, 17140.00
906.2390, 17301.00
907.3620, 17048.00
908.4850, 17189.00
909.6080, 17322.00
910.7310, 17435.00
911.8540, 17184.00
912.9770, 17461.00
914.0990, 17583.00
915.2210, 17260.00
916.3440, 17440.00
917.4660, 17466.00
918.5870, 17341.00
919.7090, 17297.00
920.8310, 17408.00
921.9520, 17314.00
923.0730, 17461.00
924.1940, 17474.00
925.3150, 17476.00
926.4360, 17433.00
927.5560, 17401.00
928.6770, 17454.79
929.7970, 17518.00
930.9170, 17534.00
932.0370, 17729.00
933.1570, 17714.00
934.2760, 17737.00
935.3960, 17747.33
936.5150, 17661.00
937.6340, 17689.00
938.7530, 17688.00
939.8720, 17719.00
940.9910, 17729.00
942.1090, 17723.00
943.2280, 17686.00
944.3460, 17855.00
945.4640, 17895.00
946.5820, 17819.00
947.6990, 17912.00
948.8170, 17908.32
949.9340, 17951.55
951.0520, 17927.00
952.1690, 18079.00
953.2860, 18013.00
954.4030, 18093.00
955.5190, 17975.00
956.6360, 17949.00
957.7520, 18014.00
958.8680, 17981.00
959.9840, 18101.00
961.1000, 18244.00
962.2160, 18215.00
963.3310, 18174.00
964.4470, 18215.00
965.5620, 18422.00
966.6770, 18341.00
967.7920, 18654.00
968.9060, 18544.00
970.0210, 18629.00
971.1360, 18834.00
972.2500, 19116.00
973.3640, 19213.00
974.4780, 19534.00
975.5920, 19489.00
976.7050, 19737.00
977.8190, 19802.00
978.9320, 19835.00
980.0450, 19976.00
981.1580, 19751.00
982.2710, 19750.00
983.3840, 19496.00
984.4970, 19241.00
985.6090, 19147.00
986.7210, 19163.00
987.8330, 19174.00
988.9450, 19158.00
990.0570, 19158.56
991.1690, 19168.24
992.2800, 19103.00
993.3920, 19228.00
994.5030, 19146.00
995.6140, 19253.00
996.7250, 19208.00
997.8350, 19264.00
998.9460, 19344.87
1000.056, 19394.00
1001.167, 19549.00
1002.277, 19662.00
1003.387, 19846.00
1004.496, 19830.00
1005.606, 20012.00
1006.715, 20100.00
1007.825, 20298.00
1008.934, 20365.00
1010.043, 20192.00
1011.152, 20018.00
1012.260, 20172.00
1013.369, 20330.00
1014.477, 20194.00
1015.586, 20026.00
1016.694, 20049.00
1017.802, 19995.00
1018.909, 19845.00
1020.017, 19714.00
1021.124, 19591.00
1022.232, 19597.00
1023.339, 19572.42
1024.446, 19633.00
1025.553, 19657.00
1026.659, 19773.00
1027.766, 19839.00
1028.872, 20029.00
1029.979, 20116.00
1031.085, 20131.00
1032.191, 20202.00
1033.296, 20514.00
1034.402, 20264.00
1035.507, 20385.00
1036.613, 20250.00
1037.718, 20007.00
1038.823, 19733.00
1039.928, 19837.00
1041.032, 19733.00
1042.137, 19727.00
1043.241, 19855.00
1044.346, 19758.00
1045.450, 19690.00
1046.554, 19689.00
1047.657, 19677.00
1048.761, 19750.00
1049.864, 19543.00
1050.968, 19762.00
1052.071, 19617.00
1053.174, 19348.00
1054.277, 19708.00
1055.379, 19524.00
1056.482, 19535.00
1057.584, 19554.00
1058.687, 19462.00
1059.789, 19355.00
1060.891, 19607.00
1061.992, 19602.00
1063.094, 19413.00
1064.196, 19402.00
1065.297, 19708.00
1066.398, 19527.00
1067.499, 19501.00
1068.600, 19734.00
1069.701, 19666.00
1070.801, 19773.00
1071.902, 19847.00
1073.002, 19859.00
1074.102, 19993.00
1075.202, 19826.00
1076.302, 19958.00
1077.402, 20017.00
1078.501, 20119.00
1079.600, 20194.00
1080.700, 20270.00
1081.799, 20351.00
1082.898, 20396.00
1083.996, 20584.00
1085.095, 20922.00
1086.193, 21019.00
1087.292, 21347.00
1088.390, 21664.00
1089.488, 21988.00
1090.586, 22626.00
1091.683, 23240.00
1092.781, 23957.00
1093.878, 24667.00
1094.975, 25811.00
1096.073, 26515.00
1097.169, 27130.00
1098.266, 27923.00
1099.363, 27908.00
1100.459, 28058.00
1101.556, 27948.00
1102.652, 27271.00
1103.748, 26595.00
1104.844, 25851.00
1105.940, 24982.00
1107.035, 24615.00
1108.131, 24283.00
1109.226, 23961.00
1110.321, 23904.00
1111.416, 23478.00
1112.511, 23686.00
1113.605, 23636.97
1114.700, 23568.09
1115.794, 23768.00
1116.889, 23574.00
1117.983, 23422.00
1119.077, 23371.00
1120.170, 23012.00
1121.264, 23002.00
1122.357, 22721.00
1123.451, 22491.82
1124.544, 22381.00
1125.637, 22036.00
1126.730, 21789.00
1127.823, 21616.00
1128.915, 21517.00
1130.008, 21441.00
1131.100, 21181.00
1132.192, 21236.00
1133.284, 21018.00
1134.376, 21243.00
1135.467, 21089.00
1136.559, 21234.00
1137.650, 21096.00
1138.742, 21120.00
1139.833, 21195.00
1140.924, 21128.00
1142.014, 20818.00
1143.105, 20980.00
1144.195, 20679.00
1145.286, 20850.00
1146.376, 20927.00
1147.466, 20893.00
1148.556, 20996.41
1149.646, 20968.56
1150.735, 21017.00
1151.825, 20882.00
1152.914, 20775.00
1154.003, 20595.00
1155.092, 20839.00
1156.181, 20708.00
1157.270, 20735.00
1158.358, 20615.00
1159.447, 20550.00
1160.535, 20540.00
1161.623, 20656.00
1162.711, 20676.00
1163.799, 20530.00
1164.886, 20691.00
1165.974, 20574.00
1167.061, 20559.00
1168.148, 20432.00
1169.235, 20550.00
1170.322, 20363.00
1171.409, 20741.00
1172.496, 20529.00
1173.582, 20572.00
1174.669, 20455.00
1175.755, 20456.00
1176.841, 20632.00
1177.927, 20550.00
1179.012, 20526.00
1180.098, 20615.00
1181.183, 20807.00
1182.269, 20617.00
1183.354, 20738.00
1184.439, 20767.00
1185.524, 20672.00
1186.608, 20756.00
1187.693, 20769.00
1188.777, 20730.00
1189.862, 20850.00
1190.946, 20752.00
1192.030, 20727.00
1193.113, 20765.00
1194.197, 20843.00
1195.281, 20774.00
1196.364, 20955.00
1197.447, 20872.00
1198.530, 20710.00
1199.613, 20815.00
1200.696, 20753.00
1201.779, 21024.00
1202.861, 20968.00
1203.944, 21026.00
1205.026, 20944.00
1206.108, 21024.00
1207.190, 20847.00
1208.271, 21130.00
1209.353, 20828.00
1210.435, 20778.00
1211.516, 21030.00
1212.597, 21034.00
1213.678, 20949.00
1214.759, 21177.00
1215.840, 20976.00
1216.920, 20897.00
1218.001, 21176.00
1219.081, 21021.00
1220.161, 21120.00
1221.241, 21087.00
1222.321, 21001.00
1223.401, 21102.00
1224.480, 21040.00
1225.560, 21169.00
1226.639, 21322.00
1227.718, 21187.00
1228.797, 21094.00
1229.876, 21174.00
1230.955, 21115.43
1232.033, 21375.00
1233.112, 21196.00
1234.190, 21293.00
1235.268, 21410.00
1236.346, 21232.00
1237.424, 21253.00
1238.501, 21187.00
1239.579, 21309.00
1240.656, 21292.00
1241.733, 21286.00
1242.811, 21320.00
1243.888, 21380.00
1244.964, 21210.00
1246.041, 21222.00
1247.117, 21275.00
1248.194, 21425.00
1249.270, 21507.00
1250.346, 21522.00
1251.422, 21427.00
1252.498, 21602.00
1253.573, 21517.45
1254.649, 21472.00
1255.724, 21564.00
1256.800, 21443.00
1257.875, 21643.00
1258.950, 21483.00
1260.024, 21519.00
1261.099, 21608.00
1262.173, 21650.00
1263.248, 21699.00
1264.322, 21583.00
1265.396, 21680.00
1266.470, 21672.00
1267.544, 21628.00
1268.617, 21794.00
1269.691, 21834.00
1270.764, 21576.00
1271.837, 21883.00
1272.910, 21674.00
1273.983, 21827.00
1275.056, 21765.00
1276.129, 21900.00
1277.201, 21602.00
1278.273, 21822.00
1279.346, 21844.00
1280.418, 21690.00
1281.489, 21798.00
1282.561, 21822.00
1283.633, 21799.00
1284.704, 21941.00
1285.776, 21935.00
1286.847, 21848.00
1287.918, 21928.00
1288.989, 21793.00
1290.059, 22008.00
1291.130, 21837.00
1292.200, 22031.00
1293.271, 22154.00
1294.341, 21989.00
1295.411, 21987.00
1296.481, 22206.00
1297.551, 22042.00
1298.620, 21944.00
1299.690, 21964.00
1300.759, 22097.00
1301.828, 22224.00
1302.897, 22126.00
1303.966, 21939.00
1305.035, 22053.00
1306.103, 22119.00
1307.172, 22164.00
1308.240, 22303.00
1309.308, 22338.00
1310.376, 22360.00
1311.444, 22245.00
1312.512, 22273.00
