##NAMES=Microcline
##RRUFFID=R050150
##IDEAL CHEMISTRY=KAlSi_3_O_8_
##LOCALITY=Crystal Peak area, Park/Teller Counties, Colorado, USA
##OWNER=RRUFF
##SOURCE=Dave Bunk Minerals
##DESCRIPTION=Pale blue prismatic crystals
##STATUS=The identification of this mineral has been confirmed by X-ray diffraction and chemical analysis
##URL=rruff.info/R050150
##MEASURED CHEMISTRY=(K_0.95_Na_0.05_)_Î£=1_Al_1.00_Si_3.00_O_8_
##PIN_ID=L00945
##ORIENTATION=Laser parallel to a* (1 0 0). Fiducial mark perpendicular to laser is parallel to b [0 1 0]
137.6830, 11568.00
138.9210, 11836.00
140.1580, 11988.00
141.3950, 12090.00
142.6330, 12233.00
143.8690, 12415.00
145.1060, 12656.00
146.3430, 13052.00
147.5790, 13542.00
148.8150, 13986.00
150.0510, 14503.00
151.2870, 14806.00
152.5220, 14918.00
153.7580, 14599.00
154.9930, 13981.00
156.2280, 13083.00
157.4620, 12694.00
158.6970, 12371.00
159.9310, 12053.00
161.1660, 11674.00
162.4000, 11621.00
163.6330, 11478.00
164.8670, 11475.00
166.1000, 11582.00
167.3340, 11877.00
168.5670, 12112.00
169.8000, 12377.00
171.0320, 12702.00
172.2650, 12797.00
173.4970, 13171.00
174.7290, 13496.00
175.9610, 13833.00
177.1930, 14399.00
178.4240, 14765.00
179.6550, 15110.00
180.8870, 15172.00
182.1170, 15010.00
183.3480, 14433.00
184.5790, 13889.00
185.8090, 13283.00
187.0390, 12631.00
188.2690, 12396.00
189.4990, 12258.00
190.7290, 12125.00
191.9580, 12133.00
193.1870, 12110.00
194.4160, 12113.00
195.6450, 12141.00
196.8740, 12472.00
198.1020, 12615.00
199.3310, 12728.00
200.5590, 13020.00
201.7870, 12813.00
203.0140, 12641.00
204.2420, 12290.00
205.4690, 11760.00
206.6960, 11570.00
207.9230, 11264.00
209.1500, 11218.00
210.3760, 10912.00
211.6030, 10995.00
212.8290, 10889.00
214.0550, 11000.00
215.2810, 10858.00
216.5060, 10890.00
217.7320, 10893.00
218.9570, 10984.00
220.1820, 11045.00
221.4070, 10821.00
222.6320, 10913.00
223.8560, 11027.00
225.0800, 10828.00
226.3040, 10994.00
227.5280, 11093.00
228.7520, 11046.00
229.9760, 11048.00
231.1990, 11081.65
232.4220, 11076.49
233.6450, 11135.00
234.8680, 11091.00
236.0910, 11170.00
237.3130, 11119.00
238.5350, 11269.00
239.7570, 11334.00
240.9790, 11331.00
242.2010, 11459.00
243.4220, 11364.00
244.6430, 11702.00
245.8640, 11883.00
247.0850, 12105.00
248.3060, 12489.00
249.5270, 12777.67
250.7470, 13194.00
251.9670, 13560.00
253.1870, 14183.00
254.4070, 14683.00
255.6260, 15754.00
256.8460, 16405.00
258.0650, 17392.00
259.2840, 18195.00
260.5030, 18643.00
261.7220, 18667.00
262.9400, 19010.00
264.1580, 18967.00
265.3760, 19376.00
266.5940, 19580.00
267.8120, 19518.00
269.0290, 19303.00
270.2470, 18666.00
271.4640, 17923.00
272.6810, 17197.00
273.8980, 16920.00
275.1140, 16337.00
276.3310, 16302.00
277.5470, 16382.00
278.7630, 16581.00
279.9790, 16825.00
281.1940, 17129.00
282.4100, 17918.00
283.6250, 18393.00
284.8400, 18828.00
286.0550, 19056.00
287.2700, 19077.00
288.4850, 18680.00
289.6990, 17883.00
290.9130, 17001.00
292.1270, 15967.00
293.3410, 15234.00
294.5540, 14587.00
295.7680, 14032.00
296.9810, 13663.00
298.1940, 13467.00
299.4070, 13239.00
300.6200, 13048.00
301.8320, 12872.00
303.0450, 12593.00
304.2570, 12482.00
305.4690, 12285.00
306.6800, 12076.00
307.8920, 12008.00
309.1030, 11989.00
310.3150, 11686.00
311.5260, 11747.00
312.7360, 11791.00
313.9470, 11632.00
315.1580, 11644.00
316.3680, 11780.00
317.5780, 11662.00
318.7880, 11807.00
319.9980, 11655.00
321.2070, 11789.00
322.4170, 11664.00
323.6260, 11978.00
324.8350, 11980.00
326.0430, 11979.00
327.2520, 11970.00
328.4610, 12043.00
329.6690, 12096.00
330.8770, 12158.00
332.0850, 12405.00
333.2920, 12388.00
334.5000, 12376.00
335.7070, 12365.00
336.9140, 12265.00
338.1210, 12181.00
339.3280, 12120.00
340.5350, 12170.00
341.7410, 12076.00
342.9470, 12188.00
344.1540, 12233.00
345.3590, 12070.00
346.5650, 12184.00
347.7710, 12300.00
348.9760, 12292.00
350.1810, 12294.00
351.3860, 12482.00
352.5910, 12486.00
353.7950, 12572.00
355.0000, 12609.00
356.2040, 12847.00
357.4080, 12873.00
358.6120, 12886.00
359.8150, 12804.00
361.0190, 12911.00
362.2220, 12771.00
363.4250, 12788.00
364.6280, 12781.00
365.8310, 12759.00
367.0340, 12801.00
368.2360, 12920.00
369.4380, 12853.00
370.6400, 13083.00
371.8420, 13331.00
373.0440, 13313.00
374.2450, 13236.00
375.4470, 13268.00
376.6480, 13134.00
377.8490, 12805.00
379.0490, 12675.00
380.2500, 12618.00
381.4500, 12644.00
382.6510, 12527.00
383.8510, 12506.00
385.0500, 12398.00
386.2500, 12508.00
387.4500, 12545.00
388.6490, 12568.00
389.8480, 12612.00
391.0470, 12681.00
392.2460, 12951.00
393.4440, 12976.00
394.6430, 13485.00
395.8410, 13533.00
397.0390, 13952.00
398.2370, 14186.00
399.4340, 14318.00
400.6320, 14762.00
401.8290, 15257.00
403.0260, 15823.00
404.2230, 16322.00
405.4200, 16333.00
406.6170, 15965.00
407.8130, 15450.00
409.0090, 15129.00
410.2050, 14923.00
411.4010, 14880.00
412.5970, 14686.00
413.7920, 14625.00
414.9880, 14398.00
416.1830, 14149.00
417.3780, 13864.00
418.5730, 13591.00
419.7670, 13141.00
420.9620, 12980.00
422.1560, 12973.00
423.3500, 13003.00
424.5440, 12969.00
425.7380, 12843.00
426.9310, 13116.00
428.1240, 13087.00
429.3180, 13078.00
430.5110, 12940.00
431.7030, 13066.99
432.8960, 13227.00
434.0890, 13290.00
435.2810, 13377.00
436.4730, 13523.00
437.6650, 13701.00
438.8570, 13940.00
440.0480, 14266.00
441.2390, 14643.00
442.4310, 15279.00
443.6220, 15846.00
444.8120, 16923.00
446.0030, 17877.00
447.1940, 18836.00
448.3840, 19775.00
449.5740, 20716.00
450.7640, 21417.00
451.9540, 22717.00
453.1430, 23665.00
454.3330, 24435.00
455.5220, 24715.00
456.7110, 24948.00
457.9000, 23679.00
459.0890, 22509.00
460.2770, 21388.00
461.4650, 20577.00
462.6540, 20080.00
463.8420, 20192.00
465.0290, 21011.00
466.2170, 22121.00
467.4050, 23706.00
468.5920, 25149.00
469.7790, 27138.00
470.9660, 28745.00
472.1530, 30843.00
473.3390, 33189.00
474.5250, 35480.00
475.7120, 37688.00
476.8980, 38566.00
478.0840, 37732.00
479.2690, 35657.00
480.4550, 32590.00
481.6400, 29304.00
482.8250, 26567.00
484.0100, 24394.00
485.1950, 23191.00
486.3800, 21859.00
487.5640, 20903.00
488.7480, 19933.00
489.9320, 18918.00
491.1160, 17990.00
492.3000, 17484.00
493.4840, 17345.00
494.6670, 17218.00
495.8500, 17213.00
497.0330, 17588.00
498.2160, 18123.00
499.3990, 18829.00
500.5810, 20085.00
501.7630, 21955.00
502.9460, 24143.00
504.1280, 27093.00
505.3090, 30610.00
506.4910, 34739.00
507.6720, 38060.00
508.8540, 41390.00
510.0350, 45517.00
511.2160, 49443.00
512.3960, 53715.00
513.5770, 56289.00
514.7570, 57675.00
515.9380, 55754.00
517.1180, 51513.00
518.2970, 45450.00
519.4770, 38881.00
520.6570, 33319.00
521.8360, 29534.00
523.0150, 25360.00
524.1940, 23123.00
525.3730, 21411.00
526.5510, 20050.00
527.7300, 19054.00
528.9080, 18448.00
530.0860, 17720.00
531.2640, 17196.00
532.4420, 16970.00
533.6200, 16593.00
534.7970, 16219.00
535.9740, 15981.00
537.1510, 15723.00
538.3280, 15512.00
539.5050, 15502.00
540.6810, 15470.00
541.8580, 15288.00
543.0340, 15162.00
544.2100, 15163.00
545.3860, 14962.00
546.5610, 14913.00
547.7370, 14867.00
548.9120, 14906.00
550.0870, 14767.00
551.2620, 14623.00
552.4370, 14707.00
553.6120, 14689.00
554.7860, 14692.00
555.9600, 14584.00
557.1340, 14651.00
558.3080, 14593.00
559.4820, 14664.00
560.6560, 14634.00
561.8290, 14599.00
563.0020, 14794.00
564.1750, 14745.00
565.3480, 14582.00
566.5210, 14608.00
567.6930, 14773.00
568.8660, 14690.00
570.0380, 14431.00
571.2100, 14730.00
572.3820, 14721.00
573.5530, 14636.00
574.7250, 14801.00
575.8960, 14777.27
577.0670, 14744.00
578.2380, 14854.00
579.4090, 14877.00
580.5800, 14858.00
581.7500, 14869.00
582.9210, 15031.00
584.0910, 15014.00
585.2610, 14964.00
586.4300, 14862.00
587.6000, 14893.00
588.7690, 14779.00
589.9390, 14689.00
591.1080, 14684.00
592.2770, 14489.00
593.4450, 14538.00
594.6140, 14506.00
595.7820, 14579.00
596.9500, 14527.00
598.1190, 14537.00
599.2860, 14495.00
600.4540, 14688.00
601.6220, 14592.00
602.7890, 14641.00
603.9560, 14669.00
605.1230, 14460.00
606.2900, 14762.00
607.4570, 14831.00
608.6230, 14637.00
609.7890, 14633.00
610.9560, 14697.00
612.1220, 14820.00
613.2870, 14816.00
614.4530, 14740.00
615.6180, 14743.00
616.7840, 14860.00
617.9490, 14984.00
619.1140, 14797.00
620.2790, 14958.00
621.4430, 14930.00
622.6080, 15060.00
623.7720, 15158.00
624.9360, 15198.16
626.1000, 15345.00
627.2640, 15359.00
628.4270, 15326.00
629.5910, 15444.00
630.7540, 15419.00
631.9170, 15590.00
633.0800, 15714.00
634.2430, 15755.00
635.4050, 15886.00
636.5680, 15950.00
637.7300, 15977.00
638.8920, 16065.00
640.0540, 16166.60
641.2150, 16226.00
642.3770, 16373.00
643.5380, 16521.00
644.7000, 16549.00
645.8610, 16692.00
647.0210, 16778.00
648.1820, 16808.00
649.3430, 17010.00
650.5030, 17125.00
651.6630, 17263.00
652.8230, 17251.00
653.9830, 17135.00
655.1430, 17161.84
656.3020, 17215.00
657.4620, 16997.00
658.6210, 16970.00
659.7800, 16780.00
660.9390, 16593.00
662.0970, 16604.00
663.2560, 16266.00
664.4140, 16114.00
665.5720, 15974.00
666.7300, 16040.00
667.8880, 15847.00
669.0460, 15709.00
670.2030, 15535.00
671.3600, 15467.00
672.5180, 15464.00
673.6740, 15316.00
674.8310, 15460.00
675.9880, 15362.00
677.1440, 15373.00
678.3010, 15394.00
679.4570, 15280.00
680.6130, 15223.00
681.7690, 15226.65
682.9240, 15316.00
684.0800, 15229.00
685.2350, 15376.00
686.3900, 15418.00
687.5450, 15189.00
688.7000, 15420.00
689.8540, 15143.00
691.0090, 15419.00
692.1630, 15328.00
693.3170, 15344.00
694.4710, 15424.00
695.6250, 15436.00
696.7780, 15376.00
697.9320, 15555.00
699.0850, 15321.00
700.2380, 15331.00
701.3910, 15429.00
702.5440, 15575.00
703.6970, 15454.00
704.8490, 15602.00
706.0010, 15771.00
707.1530, 15641.00
708.3050, 15703.00
709.4570, 15837.00
710.6090, 15946.00
711.7600, 15822.00
712.9110, 15816.00
714.0620, 15927.00
715.2130, 15912.00
716.3640, 15970.00
717.5150, 16037.00
718.6650, 15994.00
719.8150, 15823.00
720.9650, 15989.00
722.1150, 15982.00
723.2650, 15794.00
724.4150, 15964.00
725.5640, 16037.00
726.7130, 15898.00
727.8630, 16045.00
729.0110, 16010.00
730.1600, 16318.00
731.3090, 16473.00
732.4570, 16597.00
733.6060, 16757.00
734.7540, 16916.00
735.9020, 16936.00
737.0490, 17436.00
738.1970, 17463.00
739.3440, 18131.00
740.4920, 18447.00
741.6390, 18911.00
742.7860, 19367.00
743.9320, 19836.00
745.0790, 20497.00
746.2250, 21040.00
747.3720, 21561.00
748.5180, 21975.00
749.6640, 22003.00
750.8100, 22049.00
751.9550, 21681.00
753.1010, 21304.00
754.2460, 20338.00
755.3910, 19565.00
756.5360, 19076.00
757.6810, 18565.00
758.8250, 18206.00
759.9700, 17686.00
761.1140, 17626.00
762.2580, 17473.00
763.4020, 17187.00
764.5460, 17079.00
765.6900, 16955.00
766.8330, 17011.00
767.9760, 16834.00
769.1200, 16667.00
770.2620, 16770.00
771.4050, 16564.00
772.5480, 16628.00
773.6900, 16518.00
774.8330, 16535.00
775.9750, 16497.00
777.1170, 16453.00
778.2590, 16433.00
779.4000, 16328.00
780.5420, 16386.00
781.6830, 16369.02
782.8240, 16456.00
783.9650, 16425.00
785.1060, 16512.00
786.2470, 16553.00
787.3870, 16377.00
788.5280, 16458.00
789.6680, 16452.00
790.8080, 16457.00
791.9480, 16543.00
793.0870, 16745.00
794.2270, 16793.00
795.3660, 16634.00
796.5060, 16908.00
797.6450, 16826.00
798.7830, 16682.00
799.9220, 17040.00
801.0610, 16936.00
802.1990, 17219.00
803.3370, 17333.00
804.4750, 17543.00
805.6130, 18092.00
806.7510, 18592.00
807.8890, 18708.00
809.0260, 19394.00
810.1630, 19746.00
811.3000, 20153.00
812.4370, 20157.00
813.5740, 20277.00
814.7110, 20199.00
815.8470, 19839.00
816.9830, 19632.00
818.1190, 19004.00
819.2550, 18568.00
820.3910, 17744.00
821.5270, 17658.00
822.6620, 17391.00
823.7970, 17251.00
824.9330, 17007.00
826.0670, 16995.00
827.2020, 16942.00
828.3370, 16830.00
829.4710, 16834.00
830.6060, 16845.00
831.7400, 16808.00
832.8740, 16734.00
834.0080, 16806.00
835.1410, 16651.00
836.2750, 16536.00
837.4080, 16845.00
838.5410, 16784.00
839.6740, 16720.00
840.8070, 16721.00
841.9400, 16827.00
843.0730, 16908.00
844.2050, 16629.00
845.3370, 16964.00
846.4690, 16905.00
847.6010, 16727.00
848.7330, 16943.00
849.8640, 16739.00
850.9960, 16826.00
852.1270, 16826.00
853.2580, 16765.00
854.3890, 16863.00
855.5200, 16797.00
856.6500, 16931.00
857.7810, 16835.00
858.9110, 16870.00
860.0410, 16913.00
861.1710, 16820.00
862.3010, 16865.00
863.4310, 16862.00
864.5600, 16863.00
865.6900, 16901.97
866.8190, 16894.00
867.9480, 16892.00
869.0770, 16967.00
870.2050, 16817.00
871.3340, 17051.00
872.4620, 16963.00
873.5900, 17123.00
874.7180, 17012.00
875.8460, 17046.00
876.9740, 16886.00
878.1010, 16961.00
879.2290, 17009.00
880.3560, 17128.00
881.4830, 16959.00
882.6100, 17032.00
883.7370, 17042.00
884.8630, 16879.00
885.9900, 17068.00
887.1160, 17035.00
888.2420, 17013.00
889.3680, 17304.00
890.4940, 17129.00
891.6200, 17109.00
892.7450, 17204.00
893.8700, 17180.00
894.9960, 17207.00
896.1210, 17202.00
897.2460, 17132.00
898.3700, 17037.00
899.4950, 17061.00
900.6190, 17145.00
901.7430, 17193.00
902.8670, 17375.00
903.9910, 17227.00
905.1150, 17408.00
906.2390, 17216.00
907.3620, 17280.00
908.4850, 17380.00
909.6080, 17326.00
910.7310, 17487.00
911.8540, 17243.00
912.9770, 17531.00
914.0990, 17323.00
915.2210, 17457.00
916.3440, 17405.00
917.4660, 17361.00
918.5870, 17374.00
919.7090, 17447.00
920.8310, 17459.00
921.9520, 17393.00
923.0730, 17600.00
924.1940, 17511.00
925.3150, 17577.00
926.4360, 17609.00
927.5560, 17574.00
928.6770, 17703.00
929.7970, 17674.00
930.9170, 17578.00
932.0370, 17769.00
933.1570, 17755.00
934.2760, 17662.00
935.3960, 17746.00
936.5150, 17638.00
937.6340, 17717.00
938.7530, 17764.00
939.8720, 17783.00
940.9910, 17777.49
942.1090, 17902.00
943.2280, 17752.00
944.3460, 17710.00
945.4640, 17784.00
946.5820, 17969.00
947.6990, 17742.00
948.8170, 17838.00
949.9340, 18033.00
951.0520, 17896.00
952.1690, 18078.00
953.2860, 18054.00
954.4030, 17978.00
955.5190, 18052.00
956.6360, 17956.00
957.7520, 17851.00
958.8680, 17976.00
959.9840, 18022.00
961.1000, 18090.00
962.2160, 18127.00
963.3310, 18094.00
964.4470, 18118.00
965.5620, 18118.00
966.6770, 18225.00
967.7920, 18287.00
968.9060, 18271.00
970.0210, 18203.00
971.1360, 18271.00
972.2500, 18179.00
973.3640, 18226.00
974.4780, 18258.00
975.5920, 18565.00
976.7050, 18394.00
977.8190, 18532.00
978.9320, 18220.00
980.0450, 18469.00
981.1580, 18329.00
982.2710, 18471.00
983.3840, 18840.00
984.4970, 18922.00
985.6090, 18887.00
986.7210, 19062.00
987.8330, 19420.00
988.9450, 19650.00
990.0570, 19924.00
991.1690, 20130.00
992.2800, 20274.00
993.3920, 20372.00
994.5030, 20576.00
995.6140, 20399.00
996.7250, 20258.00
997.8350, 20368.00
998.9460, 20013.00
1000.056, 19872.00
1001.167, 19707.00
1002.277, 19838.00
1003.387, 19545.00
1004.496, 19553.00
1005.606, 19377.00
1006.715, 19379.00
1007.825, 19293.00
1008.934, 19179.00
1010.043, 19178.00
1011.152, 19156.00
1012.260, 19075.00
1013.369, 18983.00
1014.477, 18906.00
1015.586, 19073.00
1016.694, 19123.00
1017.802, 19050.00
1018.909, 19039.00
1020.017, 19079.00
1021.124, 19123.00
1022.232, 19170.96
1023.339, 19336.00
1024.446, 19321.00
1025.553, 19419.00
1026.659, 19529.00
1027.766, 19553.00
1028.872, 19579.00
1029.979, 19444.00
1031.085, 19509.00
1032.191, 19537.00
1033.296, 19513.00
1034.402, 19547.00
1035.507, 19518.00
1036.613, 19479.00
1037.718, 19403.00
1038.823, 19428.00
1039.928, 19441.00
1041.032, 19345.00
1042.137, 19687.00
1043.241, 19628.00
1044.346, 19743.00
1045.450, 19726.00
1046.554, 19798.00
1047.657, 20093.00
1048.761, 20066.00
1049.864, 20174.00
1050.968, 20321.00
1052.071, 20337.00
1053.174, 20275.00
1054.277, 20161.00
1055.379, 20013.00
1056.482, 19938.00
1057.584, 19839.00
1058.687, 19825.00
1059.789, 19680.00
1060.891, 19597.00
1061.992, 19437.00
1063.094, 19434.00
1064.196, 19400.00
1065.297, 19356.00
1066.398, 19452.00
1067.499, 19311.00
1068.600, 19394.00
1069.701, 19186.00
1070.801, 19434.00
1071.902, 19224.00
1073.002, 19311.00
1074.102, 19324.00
1075.202, 19490.00
1076.302, 19439.00
1077.402, 19474.00
1078.501, 19405.00
1079.600, 19368.00
1080.700, 19546.00
1081.799, 19620.00
1082.898, 19686.00
1083.996, 19748.71
1085.095, 19637.00
1086.193, 19818.00
1087.292, 19822.00
1088.390, 19902.00
1089.488, 20094.00
1090.586, 20172.00
1091.683, 20331.00
1092.781, 20416.00
1093.878, 20474.68
1094.975, 20612.00
1096.073, 20572.00
1097.169, 20633.00
1098.266, 20696.00
1099.363, 20731.00
1100.459, 20818.00
1101.556, 20844.97
1102.652, 20880.50
1103.748, 20917.00
1104.844, 20922.00
1105.940, 20956.00
1107.035, 20963.00
1108.131, 21145.00
1109.226, 21169.00
1110.321, 21347.00
1111.416, 21624.00
1112.511, 22015.00
1113.605, 22276.00
1114.700, 22897.00
1115.794, 23134.00
1116.889, 23729.00
1117.983, 24721.00
1119.077, 25492.00
1120.170, 25969.00
1121.264, 26631.00
1122.357, 27152.00
1123.451, 27657.00
1124.544, 27602.00
1125.637, 27402.00
1126.730, 26848.00
1127.823, 26311.00
1128.915, 25623.00
1130.008, 25073.00
1131.100, 24757.00
1132.192, 24442.00
1133.284, 24469.00
1134.376, 24417.00
1135.467, 24309.00
1136.559, 24209.00
1137.650, 24371.00
1138.742, 24190.00
1139.833, 24103.00
1140.924, 23847.00
1142.014, 23510.00
1143.105, 23097.00
1144.195, 22837.00
1145.286, 22516.00
1146.376, 22169.40
1147.466, 21797.00
1148.556, 21606.00
1149.646, 21308.00
1150.735, 21232.00
1151.825, 21034.00
1152.914, 20882.00
1154.003, 20786.00
1155.092, 20738.00
1156.181, 20805.00
1157.270, 20693.96
1158.358, 20678.68
1159.447, 20579.00
1160.535, 20516.00
1161.623, 20471.00
1162.711, 20270.00
1163.799, 20566.00
1164.886, 20488.00
1165.974, 20363.00
1167.061, 20461.00
1168.148, 20448.00
1169.235, 20388.00
1170.322, 20303.00
1171.409, 20287.00
1172.496, 20440.00
1173.582, 20359.00
1174.669, 20408.00
1175.755, 20457.11
1176.841, 20436.00
1177.927, 20482.00
1179.012, 20377.00
1180.098, 20278.00
1181.183, 20423.00
1182.269, 20398.00
1183.354, 20399.00
1184.439, 20327.00
1185.524, 20372.00
1186.608, 20500.00
1187.693, 20379.00
1188.777, 20434.00
1189.862, 20363.00
1190.946, 20292.00
1192.030, 20401.00
1193.113, 20456.00
1194.197, 20328.00
1195.281, 20442.00
1196.364, 20506.00
1197.447, 20396.00
1198.530, 20477.00
1199.613, 20500.00
1200.696, 20307.00
1201.779, 20425.00
1202.861, 20488.00
1203.944, 20449.00
1205.026, 20550.00
1206.108, 20507.00
1207.190, 20326.00
1208.271, 20455.00
1209.353, 20744.00
1210.435, 20738.00
1211.516, 20534.00
1212.597, 20741.00
1213.678, 20630.00
1214.759, 20608.00
1215.840, 20664.00
1216.920, 20633.00
1218.001, 20475.00
1219.081, 20456.00
1220.161, 20421.00
1221.241, 20624.00
1222.321, 20693.00
1223.401, 20801.00
1224.480, 20667.00
1225.560, 20716.00
1226.639, 20747.00
1227.718, 20578.00
1228.797, 20728.00
1229.876, 20702.00
1230.955, 20755.00
1232.033, 20922.00
1233.112, 20712.00
1234.190, 20830.00
1235.268, 20683.00
1236.346, 20909.00
1237.424, 20742.00
1238.501, 20853.00
1239.579, 20830.00
1240.656, 20855.00
1241.733, 20879.00
1242.811, 20677.00
1243.888, 20791.00
1244.964, 20899.00
1246.041, 20720.00
1247.117, 20901.00
1248.194, 20690.00
1249.270, 20805.00
1250.346, 20835.00
1251.422, 20848.00
1252.498, 20912.00
1253.573, 20827.00
1254.649, 20888.00
1255.724, 20995.00
1256.800, 20907.00
1257.875, 20888.00
1258.950, 20913.00
1260.024, 20998.00
1261.099, 20927.00
1262.173, 20885.00
1263.248, 20905.00
1264.322, 21068.00
1265.396, 21226.00
1266.470, 21030.00
1267.544, 20963.00
1268.617, 21010.00
1269.691, 21094.00
1270.764, 21100.00
1271.837, 21024.00
1272.910, 21023.00
1273.983, 21124.00
1275.056, 21036.00
1276.129, 21101.00
1277.201, 21052.00
1278.273, 21131.00
1279.346, 21177.00
1280.418, 21142.00
1281.489, 21099.00
1282.561, 21422.00
1283.633, 21125.00
1284.704, 21129.00
1285.776, 21464.00
1286.847, 21352.00
1287.918, 21336.00
1288.989, 21218.00
1290.059, 21127.00
1291.130, 21026.00
1292.200, 21320.00
1293.271, 21039.00
1294.341, 21233.00
1295.411, 21208.00
1296.481, 21116.00
1297.551, 21234.00
1298.620, 21300.00
1299.690, 21208.00
1300.759, 21500.00
1301.828, 21239.00
1302.897, 21556.00
1303.966, 21219.00
1305.035, 21288.00
1306.103, 21501.00
1307.172, 21592.00
1308.240, 21372.00
1309.308, 21343.00
1310.376, 21449.00
1311.444, 21504.00
1312.512, 21432.00
