##NAMES=Microcline
##RRUFFID=R050150
##IDEAL CHEMISTRY=KAlSi_3_O_8_
##LOCALITY=Crystal Peak area, Park/Teller Counties, Colorado, USA
##OWNER=RRUFF
##SOURCE=Dave Bunk Minerals
##DESCRIPTION=Pale blue prismatic crystals
##STATUS=The identification of this mineral has been confirmed by X-ray diffraction and chemical analysis
##URL=rruff.info/R050150
##MEASURED CHEMISTRY=(K_0.95_Na_0.05_)_Î£=1_Al_1.00_Si_3.00_O_8_
##PIN_ID=L01075
##ORIENTATION=Laser parallel to (0 1 1). Fiducial mark perpendicular to laser is parallel to a [1 0 0]
131.4920, 11810.00
132.7300, 11619.00
133.9690, 11661.00
135.2070, 11813.00
136.4450, 12301.00
137.6830, 13069.00
138.9210, 13921.00
140.1580, 14737.00
141.3950, 15328.00
142.6330, 16243.00
143.8690, 17652.00
145.1060, 19287.00
146.3430, 21133.00
147.5790, 22479.00
148.8150, 23135.00
150.0510, 23273.00
151.2870, 22654.00
152.5220, 22163.00
153.7580, 21621.00
154.9930, 20919.00
156.2280, 20180.00
157.4620, 19269.00
158.6970, 18100.00
159.9310, 17130.00
161.1660, 15998.00
162.4000, 15254.00
163.6330, 14272.00
164.8670, 13503.00
166.1000, 13226.00
167.3340, 12897.00
168.5670, 12948.00
169.8000, 13242.00
171.0320, 13670.00
172.2650, 13991.00
173.4970, 15213.00
174.7290, 16360.00
175.9610, 17658.00
177.1930, 18185.00
178.4240, 18003.00
179.6550, 17209.00
180.8870, 16226.00
182.1170, 15209.00
183.3480, 14315.00
184.5790, 13639.00
185.8090, 12873.00
187.0390, 12583.00
188.2690, 12297.00
189.4990, 12258.00
190.7290, 12360.00
191.9580, 12643.00
193.1870, 13120.00
194.4160, 13788.00
195.6450, 14355.00
196.8740, 14725.00
198.1020, 14955.00
199.3310, 14690.00
200.5590, 14214.00
201.7870, 13507.00
203.0140, 12921.00
204.2420, 12158.00
205.4690, 11670.00
206.6960, 11177.00
207.9230, 10943.00
209.1500, 10734.00
210.3760, 10531.67
211.6030, 10537.00
212.8290, 10407.00
214.0550, 10427.00
215.2810, 10367.81
216.5060, 10361.00
217.7320, 10326.00
218.9570, 10285.00
220.1820, 10345.00
221.4070, 10319.00
222.6320, 10415.00
223.8560, 10284.00
225.0800, 10415.00
226.3040, 10331.00
227.5280, 10384.00
228.7520, 10399.00
229.9760, 10438.00
231.1990, 10418.00
232.4220, 10506.00
233.6450, 10530.00
234.8680, 10465.00
236.0910, 10531.00
237.3130, 10542.00
238.5350, 10620.00
239.7570, 10719.00
240.9790, 10639.00
242.2010, 10844.00
243.4220, 10876.00
244.6430, 11138.00
245.8640, 11387.00
247.0850, 11643.00
248.3060, 11817.00
249.5270, 12306.00
250.7470, 12897.00
251.9670, 13483.00
253.1870, 14478.00
254.4070, 15412.00
255.6260, 16376.00
256.8460, 16903.00
258.0650, 17561.00
259.2840, 18111.00
260.5030, 18358.00
261.7220, 18467.00
262.9400, 18793.00
264.1580, 19033.00
265.3760, 18859.00
266.5940, 18359.00
267.8120, 17533.00
269.0290, 16862.00
270.2470, 16360.00
271.4640, 15818.00
272.6810, 15452.00
273.8980, 15065.00
275.1140, 15340.00
276.3310, 15456.00
277.5470, 16281.00
278.7630, 17074.00
279.9790, 18162.00
281.1940, 19581.00
282.4100, 20621.00
283.6250, 21303.00
284.8400, 21667.00
286.0550, 21226.00
287.2700, 20378.00
288.4850, 19113.00
289.6990, 18023.00
290.9130, 17070.00
292.1270, 15838.00
293.3410, 15031.00
294.5540, 14471.00
295.7680, 13969.00
296.9810, 13743.00
298.1940, 13483.00
299.4070, 13161.00
300.6200, 12785.00
301.8320, 12441.00
303.0450, 12258.00
304.2570, 11931.00
305.4690, 11808.00
306.6800, 11604.00
307.8920, 11450.00
309.1030, 11316.00
310.3150, 11308.00
311.5260, 11247.00
312.7360, 11138.00
313.9470, 11220.00
315.1580, 11097.00
316.3680, 11183.00
317.5780, 11238.00
318.7880, 11340.00
319.9980, 11248.00
321.2070, 11441.00
322.4170, 11538.00
323.6260, 11850.00
324.8350, 12092.83
326.0430, 12292.00
327.2520, 12701.00
328.4610, 13085.00
329.6690, 13375.00
330.8770, 13431.25
332.0850, 13505.00
333.2920, 13275.00
334.5000, 12966.00
335.7070, 12651.00
336.9140, 12284.00
338.1210, 12051.00
339.3280, 11876.00
340.5350, 11823.00
341.7410, 11579.00
342.9470, 11647.00
344.1540, 11646.00
345.3590, 11484.00
346.5650, 11609.00
347.7710, 11518.00
348.9760, 11658.00
350.1810, 11729.00
351.3860, 11829.00
352.5910, 12021.00
353.7950, 12066.00
355.0000, 12161.48
356.2040, 12213.27
357.4080, 12256.00
358.6120, 12260.00
359.8150, 12250.00
361.0190, 12275.00
362.2220, 12277.00
363.4250, 12285.00
364.6280, 12341.00
365.8310, 12522.00
367.0340, 12727.00
368.2360, 13134.00
369.4380, 13448.00
370.6400, 13732.00
371.8420, 13788.00
373.0440, 13747.00
374.2450, 13350.00
375.4470, 13329.00
376.6480, 12870.00
377.8490, 12537.00
379.0490, 12217.00
380.2500, 12060.00
381.4500, 11914.00
382.6510, 11803.00
383.8510, 11900.00
385.0500, 11781.00
386.2500, 11651.00
387.4500, 11907.00
388.6490, 11886.00
389.8480, 11944.00
391.0470, 11888.00
392.2460, 12219.00
393.4440, 12326.00
394.6430, 12597.00
395.8410, 12813.00
397.0390, 13199.00
398.2370, 13584.00
399.4340, 14338.00
400.6320, 14880.00
401.8290, 15143.00
403.0260, 15259.00
404.2230, 14845.00
405.4200, 14616.00
406.6170, 14151.00
407.8130, 14039.00
409.0090, 13753.00
410.2050, 13727.00
411.4010, 13659.00
412.5970, 13431.00
413.7920, 13283.00
414.9880, 13091.00
416.1830, 12701.00
417.3780, 12480.00
418.5730, 12341.00
419.7670, 12107.00
420.9620, 12068.00
422.1560, 12116.00
423.3500, 12015.00
424.5440, 12138.00
425.7380, 12110.00
426.9310, 12221.00
428.1240, 12125.00
429.3180, 12176.00
430.5110, 12105.00
431.7030, 12210.00
432.8960, 12330.00
434.0890, 12361.00
435.2810, 12401.00
436.4730, 12463.00
437.6650, 12687.00
438.8570, 12822.00
440.0480, 12951.00
441.2390, 13487.00
442.4310, 13562.00
443.6220, 14153.00
444.8120, 14826.00
446.0030, 15425.00
447.1940, 16403.00
448.3840, 17438.00
449.5740, 18687.00
450.7640, 20222.00
451.9540, 21210.00
453.1430, 21701.00
454.3330, 21293.00
455.5220, 20564.00
456.7110, 19909.00
457.9000, 18777.00
459.0890, 18208.00
460.2770, 17360.00
461.4650, 17058.00
462.6540, 17197.00
463.8420, 17350.00
465.0290, 17975.00
466.2170, 19074.00
467.4050, 20519.00
468.5920, 22409.00
469.7790, 24554.00
470.9660, 27009.00
472.1530, 29532.00
473.3390, 32122.00
474.5250, 33233.00
475.7120, 32990.00
476.8980, 31691.00
478.0840, 29610.00
479.2690, 27294.00
480.4550, 25561.00
481.6400, 23705.00
482.8250, 22296.00
484.0100, 21141.00
485.1950, 19716.00
486.3800, 18714.00
487.5640, 17790.00
488.7480, 16853.00
489.9320, 16304.00
491.1160, 15895.00
492.3000, 15572.00
493.4840, 15389.00
494.6670, 15534.00
495.8500, 15389.00
497.0330, 15998.00
498.2160, 16260.00
499.3990, 17035.00
500.5810, 17946.00
501.7630, 19137.00
502.9460, 20950.00
504.1280, 23168.00
505.3090, 26198.00
506.4910, 30093.00
507.6720, 34164.00
508.8540, 39060.00
510.0350, 44305.00
511.2160, 49117.00
512.3960, 51159.00
513.5770, 50343.00
514.7570, 47419.00
515.9380, 43045.00
517.1180, 38393.00
518.2970, 33275.00
519.4770, 28995.00
520.6570, 25436.00
521.8360, 22974.00
523.0150, 20673.00
524.1940, 19058.00
525.3730, 18048.00
526.5510, 17289.00
527.7300, 16616.00
528.9080, 15978.00
530.0860, 15579.00
531.2640, 15328.00
532.4420, 15156.00
533.6200, 14740.00
534.7970, 14707.00
535.9740, 14430.00
537.1510, 14379.00
538.3280, 14268.00
539.5050, 14071.00
540.6810, 14082.00
541.8580, 13979.00
543.0340, 13741.00
544.2100, 13751.00
545.3860, 13794.00
546.5610, 13946.00
547.7370, 13767.00
548.9120, 13792.00
550.0870, 13727.00
551.2620, 13672.00
552.4370, 13655.00
553.6120, 13606.93
554.7860, 13633.00
555.9600, 13576.00
557.1340, 13595.00
558.3080, 13645.00
559.4820, 13686.00
560.6560, 13663.00
561.8290, 13677.00
563.0020, 13581.00
564.1750, 13624.00
565.3480, 13446.00
566.5210, 13536.00
567.6930, 13688.00
568.8660, 13580.00
570.0380, 13596.00
571.2100, 13666.00
572.3820, 13713.00
573.5530, 13763.00
574.7250, 13817.08
575.8960, 13891.68
577.0670, 13916.00
578.2380, 14013.00
579.4090, 14071.00
580.5800, 14046.00
581.7500, 14094.96
582.9210, 14084.72
584.0910, 14085.00
585.2610, 14076.00
586.4300, 14031.00
587.6000, 14042.00
588.7690, 13841.00
589.9390, 13789.00
591.1080, 13670.00
592.2770, 13654.00
593.4450, 13613.00
594.6140, 13632.00
595.7820, 13565.00
596.9500, 13711.00
598.1190, 13573.00
599.2860, 13811.00
600.4540, 13670.00
601.6220, 13591.00
602.7890, 13660.00
603.9560, 13591.21
605.1230, 13594.00
606.2900, 13625.00
607.4570, 13654.00
608.6230, 13711.00
609.7890, 13725.88
610.9560, 13690.00
612.1220, 13777.00
613.2870, 13771.00
614.4530, 13806.00
615.6180, 13891.00
616.7840, 13904.62
617.9490, 13974.00
619.1140, 13982.00
620.2790, 14098.00
621.4430, 14124.00
622.6080, 14102.00
623.7720, 14252.00
624.9360, 14215.00
626.1000, 14433.00
627.2640, 14335.00
628.4270, 14513.00
629.5910, 14653.00
630.7540, 14682.00
631.9170, 14837.00
633.0800, 14787.00
634.2430, 14741.00
635.4050, 14849.00
636.5680, 15076.00
637.7300, 14974.00
638.8920, 15146.00
640.0540, 15131.00
641.2150, 15361.00
642.3770, 15260.00
643.5380, 15510.00
644.7000, 15717.00
645.8610, 15791.00
647.0210, 15911.00
648.1820, 16000.00
649.3430, 16271.00
650.5030, 16347.00
651.6630, 16350.00
652.8230, 16491.00
653.9830, 16256.00
655.1430, 16219.00
656.3020, 16046.00
657.4620, 15890.35
658.6210, 15764.00
659.7800, 15574.00
660.9390, 15370.00
662.0970, 15194.00
663.2560, 15033.00
664.4140, 14912.00
665.5720, 14686.00
666.7300, 14841.00
667.8880, 14633.00
669.0460, 14523.00
670.2030, 14363.00
671.3600, 14455.00
672.5180, 14439.00
673.6740, 14446.00
674.8310, 14511.00
675.9880, 14515.00
677.1440, 14351.00
678.3010, 14410.00
679.4570, 14309.00
680.6130, 14400.00
681.7690, 14498.00
682.9240, 14290.00
684.0800, 14441.00
685.2350, 14399.00
686.3900, 14381.00
687.5450, 14632.00
688.7000, 14445.00
689.8540, 14473.00
691.0090, 14363.00
692.1630, 14508.00
693.3170, 14431.00
694.4710, 14456.00
695.6250, 14382.00
696.7780, 14423.00
697.9320, 14373.00
699.0850, 14301.00
700.2380, 14446.00
701.3910, 14497.00
702.5440, 14696.00
703.6970, 14553.00
704.8490, 14713.00
706.0010, 14549.00
707.1530, 14784.00
708.3050, 14704.00
709.4570, 14675.00
710.6090, 14771.00
711.7600, 14690.00
712.9110, 14574.00
714.0620, 14873.00
715.2130, 14705.19
716.3640, 15144.00
717.5150, 14739.00
718.6650, 14584.00
719.8150, 14802.00
720.9650, 14848.00
722.1150, 14750.00
723.2650, 14646.00
724.4150, 14692.00
725.5640, 14767.00
726.7130, 14974.00
727.8630, 14830.00
729.0110, 14980.00
730.1600, 14937.00
731.3090, 15081.00
732.4570, 15156.00
733.6060, 15207.00
734.7540, 15336.68
735.9020, 15513.00
737.0490, 15585.00
738.1970, 15934.00
739.3440, 16162.00
740.4920, 16355.00
741.6390, 16648.00
742.7860, 17263.00
743.9320, 17554.00
745.0790, 18152.00
746.2250, 18596.00
747.3720, 19233.00
748.5180, 19331.00
749.6640, 19218.00
750.8100, 18775.00
751.9550, 18290.00
753.1010, 17965.00
754.2460, 17479.00
755.3910, 17095.00
756.5360, 16629.00
757.6810, 16367.00
758.8250, 16226.00
759.9700, 15945.00
761.1140, 15940.00
762.2580, 15816.00
763.4020, 15608.00
764.5460, 15761.00
765.6900, 15612.00
766.8330, 15571.00
767.9760, 15591.00
769.1200, 15610.00
770.2620, 15446.00
771.4050, 15511.00
772.5480, 15554.00
773.6900, 15254.00
774.8330, 15300.00
775.9750, 15288.00
777.1170, 15339.00
778.2590, 15284.00
779.4000, 15246.00
780.5420, 15174.00
781.6830, 15232.00
782.8240, 15233.00
783.9650, 15226.00
785.1060, 15234.00
786.2470, 15206.75
787.3870, 15174.00
788.5280, 15164.00
789.6680, 15191.00
790.8080, 15197.95
791.9480, 15379.00
793.0870, 15333.00
794.2270, 15499.00
795.3660, 15562.00
796.5060, 15480.00
797.6450, 15475.00
798.7830, 15491.00
799.9220, 15463.00
801.0610, 15713.00
802.1990, 15660.00
803.3370, 15671.00
804.4750, 16009.00
805.6130, 15960.00
806.7510, 16108.00
807.8890, 16587.00
809.0260, 16769.00
810.1630, 16958.00
811.3000, 17266.00
812.4370, 17500.00
813.5740, 17198.00
814.7110, 17204.00
815.8470, 16967.00
816.9830, 16652.00
818.1190, 16473.00
819.2550, 16180.00
820.3910, 16189.00
821.5270, 15891.00
822.6620, 15767.00
823.7970, 15747.00
824.9330, 15828.00
826.0670, 15659.00
827.2020, 15717.00
828.3370, 15702.00
829.4710, 15541.00
830.6060, 15604.00
831.7400, 15502.00
832.8740, 15556.00
834.0080, 15614.00
835.1410, 15646.00
836.2750, 15484.00
837.4080, 15774.00
838.5410, 15592.00
839.6740, 15667.00
840.8070, 15810.00
841.9400, 15682.00
843.0730, 15554.00
844.2050, 15594.00
845.3370, 15528.00
846.4690, 15672.00
847.6010, 15850.00
848.7330, 15577.00
849.8640, 15550.00
850.9960, 15857.00
852.1270, 15784.00
853.2580, 15759.00
854.3890, 15758.00
855.5200, 15794.00
856.6500, 15793.00
857.7810, 15722.00
858.9110, 15747.58
860.0410, 15677.00
861.1710, 15730.00
862.3010, 15823.00
863.4310, 15825.00
864.5600, 15798.00
865.6900, 15915.73
866.8190, 16016.00
867.9480, 16011.00
869.0770, 16001.00
870.2050, 15853.00
871.3340, 15864.00
872.4620, 15783.00
873.5900, 15879.00
874.7180, 15962.00
875.8460, 15995.00
876.9740, 16023.00
878.1010, 15852.00
879.2290, 15867.00
880.3560, 15912.00
881.4830, 16012.00
882.6100, 15863.00
883.7370, 16045.00
884.8630, 16035.00
885.9900, 15890.00
887.1160, 15882.00
888.2420, 16010.00
889.3680, 15970.00
890.4940, 15884.00
891.6200, 16211.00
892.7450, 16058.00
893.8700, 16087.00
894.9960, 16070.00
896.1210, 16116.00
897.2460, 16039.00
898.3700, 16148.00
899.4950, 16051.00
900.6190, 16008.00
901.7430, 16141.00
902.8670, 16228.00
903.9910, 16121.00
905.1150, 16225.00
906.2390, 16293.00
907.3620, 16077.00
908.4850, 16404.00
909.6080, 16152.00
910.7310, 16173.00
911.8540, 16431.00
912.9770, 16391.00
914.0990, 16228.00
915.2210, 16288.00
916.3440, 16324.00
917.4660, 16355.00
918.5870, 16312.00
919.7090, 16400.00
920.8310, 16297.00
921.9520, 16510.00
923.0730, 16419.00
924.1940, 16466.00
925.3150, 16582.00
926.4360, 16467.00
927.5560, 16531.00
928.6770, 16580.98
929.7970, 16532.79
930.9170, 16753.00
932.0370, 16518.00
933.1570, 16690.00
934.2760, 16700.00
935.3960, 16582.00
936.5150, 16663.00
937.6340, 16662.00
938.7530, 16680.00
939.8720, 16635.00
940.9910, 16612.00
942.1090, 16653.00
943.2280, 16735.00
944.3460, 16659.00
945.4640, 16747.00
946.5820, 16830.00
947.6990, 16724.00
948.8170, 16772.00
949.9340, 17038.00
951.0520, 16945.00
952.1690, 16802.00
953.2860, 16942.00
954.4030, 16829.00
955.5190, 16847.00
956.6360, 16777.00
957.7520, 16752.00
958.8680, 16841.00
959.9840, 16874.00
961.1000, 16966.00
962.2160, 16989.00
963.3310, 16935.73
964.4470, 17042.00
965.5620, 16880.00
966.6770, 16924.00
967.7920, 17119.00
968.9060, 17060.00
970.0210, 16972.00
971.1360, 16952.00
972.2500, 17193.00
973.3640, 17025.00
974.4780, 17274.00
975.5920, 17143.00
976.7050, 17152.00
977.8190, 17215.00
978.9320, 17362.00
980.0450, 17361.46
981.1580, 17358.00
982.2710, 17489.00
983.3840, 17537.00
984.4970, 17701.00
985.6090, 17927.00
986.7210, 18073.00
987.8330, 18302.22
988.9450, 18423.00
990.0570, 18751.00
991.1690, 18851.00
992.2800, 19081.00
993.3920, 19199.00
994.5030, 19280.00
995.6140, 19140.00
996.7250, 19150.00
997.8350, 19060.00
998.9460, 19158.00
1000.056, 19146.00
1001.167, 19111.00
1002.277, 18931.00
1003.387, 19092.00
1004.496, 18804.00
1005.606, 18747.00
1006.715, 18482.00
1007.825, 18333.00
1008.934, 18313.00
1010.043, 18128.00
1011.152, 18246.00
1012.260, 17988.00
1013.369, 17939.00
1014.477, 18076.00
1015.586, 17884.00
1016.694, 18018.00
1017.802, 17851.00
1018.909, 17864.00
1020.017, 18115.00
1021.124, 18020.00
1022.232, 18174.00
1023.339, 18098.00
1024.446, 18374.00
1025.553, 18194.00
1026.659, 18431.00
1027.766, 18358.00
1028.872, 18366.00
1029.979, 18427.00
1031.085, 18363.54
1032.191, 18420.00
1033.296, 18285.00
1034.402, 18397.00
1035.507, 18312.00
1036.613, 18457.00
1037.718, 18417.00
1038.823, 18594.00
1039.928, 18504.00
1041.032, 18595.00
1042.137, 18576.00
1043.241, 18404.00
1044.346, 18351.00
1045.450, 18578.00
1046.554, 18560.00
1047.657, 18627.00
1048.761, 18881.00
1049.864, 18924.00
1050.968, 18821.00
1052.071, 18877.00
1053.174, 18816.00
1054.277, 18655.00
1055.379, 18640.00
1056.482, 18552.00
1057.584, 18591.00
1058.687, 18316.00
1059.789, 18241.00
1060.891, 18064.00
1061.992, 18207.00
1063.094, 17999.00
1064.196, 18120.00
1065.297, 18209.00
1066.398, 18108.00
1067.499, 18043.00
1068.600, 18157.00
1069.701, 18094.00
1070.801, 18103.00
1071.902, 18020.00
1073.002, 18274.00
1074.102, 17981.00
1075.202, 18203.00
1076.302, 18122.00
1077.402, 18129.00
1078.501, 18318.00
1079.600, 18179.00
1080.700, 18376.00
1081.799, 18199.00
1082.898, 18257.00
1083.996, 18323.00
1085.095, 18320.17
1086.193, 18416.00
1087.292, 18437.00
1088.390, 18514.00
1089.488, 18520.00
1090.586, 18639.39
1091.683, 18800.00
1092.781, 18859.00
1093.878, 19055.00
1094.975, 19140.00
1096.073, 19072.00
1097.169, 18987.00
1098.266, 19167.00
1099.363, 19161.00
1100.459, 19304.00
1101.556, 19220.00
1102.652, 19206.00
1103.748, 19056.00
1104.844, 19172.00
1105.940, 19356.00
1107.035, 19407.00
1108.131, 19551.00
1109.226, 19681.00
1110.321, 19842.00
1111.416, 19961.00
1112.511, 20565.00
1113.605, 20717.00
1114.700, 21315.00
1115.794, 21951.00
1116.889, 22352.00
1117.983, 23141.00
1119.077, 23924.00
1120.170, 24851.00
1121.264, 25285.00
1122.357, 25762.00
1123.451, 25784.00
1124.544, 25410.00
1125.637, 25132.00
1126.730, 24489.00
1127.823, 23792.00
1128.915, 23230.00
1130.008, 22918.00
1131.100, 22750.00
1132.192, 22587.00
1133.284, 22734.00
1134.376, 22934.00
1135.467, 23084.00
1136.559, 23120.00
1137.650, 23085.38
1138.742, 22942.00
1139.833, 22750.00
1140.924, 22414.00
1142.014, 22010.00
1143.105, 21627.00
1144.195, 21073.00
1145.286, 20762.00
1146.376, 20459.00
1147.466, 20339.00
1148.556, 19909.00
1149.646, 19777.00
1150.735, 19497.00
1151.825, 19709.00
1152.914, 19530.00
1154.003, 19468.00
1155.092, 19202.00
1156.181, 19302.00
1157.270, 19301.00
1158.358, 19396.00
1159.447, 19317.29
1160.535, 19299.14
1161.623, 19170.00
1162.711, 19141.00
1163.799, 19128.00
1164.886, 18992.00
1165.974, 18959.00
1167.061, 19086.00
1168.148, 19143.00
1169.235, 18865.00
1170.322, 19159.00
1171.409, 18947.00
1172.496, 19052.00
1173.582, 18995.00
1174.669, 18944.00
1175.755, 18951.00
1176.841, 18965.00
1177.927, 19016.00
1179.012, 19043.00
1180.098, 18947.00
1181.183, 19062.00
1182.269, 19061.00
1183.354, 19086.00
1184.439, 18956.00
1185.524, 19124.00
1186.608, 18991.00
1187.693, 19096.00
1188.777, 19070.00
1189.862, 18933.00
1190.946, 18977.00
1192.030, 18972.79
1193.113, 19099.00
1194.197, 19024.00
1195.281, 19021.00
1196.364, 18970.00
1197.447, 19036.00
1198.530, 18993.00
1199.613, 18978.00
1200.696, 19067.00
1201.779, 18861.00
1202.861, 19134.00
1203.944, 19195.00
1205.026, 19179.00
1206.108, 19056.00
1207.190, 19270.00
1208.271, 19119.00
1209.353, 19085.00
1210.435, 19329.00
1211.516, 19259.00
1212.597, 19258.00
1213.678, 19186.00
1214.759, 19204.78
1215.840, 19264.00
1216.920, 19197.00
1218.001, 19295.00
1219.081, 19204.00
1220.161, 19263.00
1221.241, 19382.00
1222.321, 19304.00
1223.401, 19154.00
1224.480, 19420.00
1225.560, 19267.00
1226.639, 19206.00
1227.718, 19240.00
1228.797, 19240.00
1229.876, 19217.00
1230.955, 19215.76
1232.033, 19211.02
1233.112, 19176.00
1234.190, 19251.00
1235.268, 19245.00
1236.346, 19359.00
1237.424, 19446.00
1238.501, 19594.00
1239.579, 19413.00
1240.656, 19497.00
1241.733, 19299.00
1242.811, 19224.00
1243.888, 19308.00
1244.964, 19288.00
1246.041, 19355.00
1247.117, 19332.00
1248.194, 19492.00
1249.270, 19431.00
1250.346, 19450.00
1251.422, 19525.00
1252.498, 19302.00
1253.573, 19322.00
1254.649, 19471.00
1255.724, 19672.00
1256.800, 19683.00
1257.875, 19484.00
1258.950, 19566.00
1260.024, 19400.00
1261.099, 19499.00
1262.173, 19624.00
1263.248, 19621.00
1264.322, 19642.00
1265.396, 19648.00
1266.470, 19654.00
1267.544, 19655.00
1268.617, 19585.00
1269.691, 19668.00
1270.764, 19725.00
1271.837, 19493.00
1272.910, 19630.00
1273.983, 19672.00
1275.056, 19840.00
1276.129, 19737.00
1277.201, 19678.00
1278.273, 19707.00
1279.346, 19809.00
1280.418, 19622.00
1281.489, 19814.00
1282.561, 19858.00
1283.633, 19832.00
1284.704, 19658.00
1285.776, 19787.00
1286.847, 19707.00
1287.918, 19764.00
1288.989, 19755.00
1290.059, 19813.00
1291.130, 19806.00
1292.200, 19752.00
1293.271, 19916.00
1294.341, 19898.00
1295.411, 19785.00
1296.481, 19849.00
1297.551, 19885.00
1298.620, 19909.00
1299.690, 19877.00
1300.759, 19948.00
1301.828, 19837.00
1302.897, 19771.00
1303.966, 20010.00
1305.035, 19909.00
1306.103, 20048.00
1307.172, 19917.00
