##NAMES=Microcline
##RRUFFID=R050150
##IDEAL CHEMISTRY=KAlSi_3_O_8_
##LOCALITY=Crystal Peak area, Park/Teller Counties, Colorado, USA
##OWNER=RRUFF
##SOURCE=Dave Bunk Minerals
##DESCRIPTION=Pale blue prismatic crystals
##STATUS=The identification of this mineral has been confirmed by X-ray diffraction and chemical analysis
##URL=rruff.info/R050150
##MEASURED CHEMISTRY=(K_0.95_Na_0.05_)_Î£=1_Al_1.00_Si_3.00_O_8_
##PIN_ID=L00961
##ORIENTATION=Laser parallel to b* (0 1 0). Fiducial mark perpendicular to laser is parallel to c [0 0 1]
131.4920, 17399.00
132.7300, 17116.00
133.9690, 17155.00
135.2070, 17744.00
136.4450, 18534.00
137.6830, 19922.00
138.9210, 21345.00
140.1580, 22651.00
141.3950, 23364.00
142.6330, 23826.00
143.8690, 24732.00
145.1060, 25863.00
146.3430, 27590.00
147.5790, 29825.00
148.8150, 31601.00
150.0510, 32702.00
151.2870, 33598.00
152.5220, 33668.00
153.7580, 33739.00
154.9930, 33830.00
156.2280, 33706.00
157.4620, 33439.00
158.6970, 32411.00
159.9310, 30303.00
161.1660, 28229.00
162.4000, 25916.00
163.6330, 23828.00
164.8670, 22086.00
166.1000, 21067.00
167.3340, 19911.00
168.5670, 19246.00
169.8000, 18951.00
171.0320, 18856.00
172.2650, 18629.00
173.4970, 18472.00
174.7290, 18569.00
175.9610, 19026.00
177.1930, 19252.00
178.4240, 19430.00
179.6550, 19392.00
180.8870, 19068.00
182.1170, 18544.00
183.3480, 18130.00
184.5790, 17857.00
185.8090, 17546.00
187.0390, 17543.00
188.2690, 17485.00
189.4990, 17414.00
190.7290, 17460.00
191.9580, 17713.00
193.1870, 17998.00
194.4160, 18297.00
195.6450, 18692.00
196.8740, 19011.00
198.1020, 20073.00
199.3310, 19592.00
200.5590, 19398.00
201.7870, 19128.00
203.0140, 18377.00
204.2420, 17783.00
205.4690, 17209.00
206.6960, 16887.00
207.9230, 16724.00
209.1500, 16455.00
210.3760, 16237.00
211.6030, 16288.00
212.8290, 16079.00
214.0550, 16184.00
215.2810, 16127.00
216.5060, 16216.00
217.7320, 16108.00
218.9570, 16122.00
220.1820, 16198.00
221.4070, 16217.00
222.6320, 16464.00
223.8560, 16268.00
225.0800, 16482.00
226.3040, 16504.00
227.5280, 16489.00
228.7520, 16535.00
229.9760, 16592.00
231.1990, 16622.00
232.4220, 16397.00
233.6450, 16637.00
234.8680, 16446.00
236.0910, 16664.00
237.3130, 16735.00
238.5350, 16727.00
239.7570, 16714.00
240.9790, 16962.00
242.2010, 17222.00
243.4220, 17316.00
244.6430, 17568.00
245.8640, 17700.00
247.0850, 18254.00
248.3060, 18926.00
249.5270, 19269.00
250.7470, 19825.00
251.9670, 20755.00
253.1870, 21596.00
254.4070, 22829.00
255.6260, 24010.00
256.8460, 24970.00
258.0650, 25675.00
259.2840, 26278.00
260.5030, 26339.00
261.7220, 25075.00
262.9400, 24961.00
264.1580, 25015.00
265.3760, 25011.00
266.5940, 24883.00
267.8120, 24517.00
269.0290, 23827.00
270.2470, 23208.00
271.4640, 22957.00
272.6810, 22542.00
273.8980, 22907.00
275.1140, 23276.00
276.3310, 24144.00
277.5470, 25147.00
278.7630, 26558.00
279.9790, 27756.00
281.1940, 29794.00
282.4100, 31674.00
283.6250, 33229.00
284.8400, 34310.00
286.0550, 34268.00
287.2700, 32981.00
288.4850, 31160.00
289.6990, 28970.00
290.9130, 26759.00
292.1270, 25097.00
293.3410, 23548.00
294.5540, 22435.00
295.7680, 21891.00
296.9810, 21107.00
298.1940, 20879.00
299.4070, 20439.00
300.6200, 19996.00
301.8320, 19805.00
303.0450, 19363.00
304.2570, 19120.00
305.4690, 18758.00
306.6800, 18618.00
307.8920, 18604.00
309.1030, 18307.00
310.3150, 18212.00
311.5260, 18065.00
312.7360, 18024.00
313.9470, 18201.00
315.1580, 18172.00
316.3680, 18187.00
317.5780, 18269.00
318.7880, 18157.00
319.9980, 18269.00
321.2070, 18636.00
322.4170, 18651.00
323.6260, 18929.00
324.8350, 19004.00
326.0430, 19556.00
327.2520, 19722.00
328.4610, 20134.00
329.6690, 20813.00
330.8770, 20931.00
332.0850, 21151.00
333.2920, 20855.00
334.5000, 20442.00
335.7070, 20160.00
336.9140, 19613.00
338.1210, 19357.00
339.3280, 19006.00
340.5350, 18779.00
341.7410, 18773.00
342.9470, 18658.00
344.1540, 18697.00
345.3590, 18740.00
346.5650, 18707.00
347.7710, 18756.00
348.9760, 18912.00
350.1810, 19029.00
351.3860, 19051.00
352.5910, 19171.00
353.7950, 19422.00
355.0000, 19522.00
356.2040, 19582.00
357.4080, 19708.00
358.6120, 19603.00
359.8150, 19726.00
361.0190, 19660.00
362.2220, 19631.00
363.4250, 19526.00
364.6280, 19816.00
365.8310, 20006.00
367.0340, 20245.00
368.2360, 20272.00
369.4380, 20750.00
370.6400, 21356.00
371.8420, 21591.00
373.0440, 21710.00
374.2450, 21343.00
375.4470, 20764.00
376.6480, 20421.00
377.8490, 19881.00
379.0490, 19866.00
380.2500, 19423.00
381.4500, 19387.00
382.6510, 19320.00
383.8510, 19321.00
385.0500, 19294.00
386.2500, 19136.00
387.4500, 19181.00
388.6490, 19249.00
389.8480, 19446.00
391.0470, 19410.00
392.2460, 19453.00
393.4440, 19623.00
394.6430, 19911.00
395.8410, 20127.00
397.0390, 20327.00
398.2370, 20681.00
399.4340, 20890.00
400.6320, 21109.00
401.8290, 21948.00
403.0260, 22310.00
404.2230, 22281.00
405.4200, 22091.00
406.6170, 21835.00
407.8130, 21085.00
409.0090, 20979.00
410.2050, 20796.00
411.4010, 20570.00
412.5970, 20626.00
413.7920, 20563.00
414.9880, 20520.00
416.1830, 20116.00
417.3780, 19981.00
418.5730, 19838.00
419.7670, 19719.00
420.9620, 19680.00
422.1560, 19708.00
423.3500, 19508.00
424.5440, 19667.00
425.7380, 19743.00
426.9310, 19629.00
428.1240, 19732.00
429.3180, 19731.00
430.5110, 19716.00
431.7030, 19829.00
432.8960, 19872.00
434.0890, 19958.45
435.2810, 20101.00
436.4730, 20144.00
437.6650, 20227.00
438.8570, 20288.00
440.0480, 20467.00
441.2390, 20658.00
442.4310, 20952.00
443.6220, 21324.51
444.8120, 21762.00
446.0030, 22248.00
447.1940, 22779.00
448.3840, 23352.00
449.5740, 24131.00
450.7640, 24770.00
451.9540, 25714.00
453.1430, 26452.00
454.3330, 26687.00
455.5220, 26688.00
456.7110, 26294.00
457.9000, 25700.00
459.0890, 25013.00
460.2770, 24824.00
461.4650, 24471.00
462.6540, 24714.00
463.8420, 25165.00
465.0290, 26133.00
466.2170, 27205.00
467.4050, 28610.96
468.5920, 30436.00
469.7790, 32298.00
470.9660, 34502.00
472.1530, 37124.00
473.3390, 39932.00
474.5250, 41761.00
475.7120, 42905.00
476.8980, 42167.00
478.0840, 40574.00
479.2690, 37768.00
480.4550, 35264.00
481.6400, 32997.00
482.8250, 31723.00
484.0100, 30487.00
485.1950, 29436.00
486.3800, 28327.00
487.5640, 27028.00
488.7480, 26176.00
489.9320, 25168.00
491.1160, 24727.00
492.3000, 24222.00
493.4840, 24022.00
494.6670, 24136.00
495.8500, 24188.00
497.0330, 24666.00
498.2160, 24790.00
499.3990, 25834.00
500.5810, 26634.00
501.7630, 28176.00
502.9460, 30166.00
504.1280, 32469.00
505.3090, 35137.00
506.4910, 38639.00
507.6720, 42547.00
508.8540, 47039.00
510.0350, 52396.00
511.2160, 57149.00
512.3960, 60960.00
513.5770, 62395.00
514.7570, 60526.00
515.9380, 56673.00
517.1180, 50809.00
518.2970, 45429.00
519.4770, 40134.00
520.6570, 35799.00
521.8360, 32879.00
523.0150, 30625.00
524.1940, 28607.00
525.3730, 27529.00
526.5510, 26340.00
527.7300, 25551.00
528.9080, 25212.00
530.0860, 24544.00
531.2640, 24408.00
532.4420, 24004.00
533.6200, 23571.00
534.7970, 23577.00
535.9740, 23322.00
537.1510, 23178.00
538.3280, 22874.00
539.5050, 22852.00
540.6810, 22680.00
541.8580, 22566.65
543.0340, 22664.00
544.2100, 22415.00
545.3860, 22500.00
546.5610, 22484.00
547.7370, 22549.00
548.9120, 22486.00
550.0870, 22427.00
551.2620, 22497.00
552.4370, 22489.00
553.6120, 22426.00
554.7860, 22538.00
555.9600, 22535.00
557.1340, 22409.00
558.3080, 22359.00
559.4820, 22541.00
560.6560, 22412.46
561.8290, 22458.52
563.0020, 22377.00
564.1750, 22442.00
565.3480, 22473.00
566.5210, 22470.00
567.6930, 22686.00
568.8660, 22428.00
570.0380, 22353.00
571.2100, 22644.00
572.3820, 22550.00
573.5530, 22615.00
574.7250, 22600.00
575.8960, 22694.29
577.0670, 22594.00
578.2380, 23011.00
579.4090, 23019.00
580.5800, 23326.00
581.7500, 22979.00
582.9210, 23120.00
584.0910, 23158.00
585.2610, 23201.00
586.4300, 23231.00
587.6000, 23068.00
588.7690, 22980.00
589.9390, 22947.00
591.1080, 22892.00
592.2770, 22780.00
593.4450, 22807.00
594.6140, 22954.00
595.7820, 22696.00
596.9500, 22511.00
598.1190, 22677.00
599.2860, 22756.00
600.4540, 22812.00
601.6220, 22848.00
602.7890, 23004.00
603.9560, 22890.00
605.1230, 22951.00
606.2900, 23028.00
607.4570, 22938.00
608.6230, 22903.00
609.7890, 23013.00
610.9560, 23192.00
612.1220, 23184.09
613.2870, 23261.75
614.4530, 23246.00
615.6180, 23274.00
616.7840, 23217.00
617.9490, 23163.00
619.1140, 23468.00
620.2790, 23594.00
621.4430, 23544.00
622.6080, 23499.00
623.7720, 23617.00
624.9360, 23644.00
626.1000, 24149.00
627.2640, 23958.00
628.4270, 24336.00
629.5910, 24137.00
630.7540, 24217.00
631.9170, 24122.00
633.0800, 24126.00
634.2430, 24166.00
635.4050, 24313.00
636.5680, 24446.00
637.7300, 24383.00
638.8920, 24266.00
640.0540, 24402.00
641.2150, 24585.00
642.3770, 24658.00
643.5380, 24973.00
644.7000, 24953.00
645.8610, 25312.00
647.0210, 25451.74
648.1820, 25581.00
649.3430, 25761.00
650.5030, 25886.00
651.6630, 25890.00
652.8230, 25989.00
653.9830, 26055.00
655.1430, 25703.00
656.3020, 25632.00
657.4620, 25331.00
658.6210, 25344.00
659.7800, 25030.00
660.9390, 24797.00
662.0970, 24923.00
663.2560, 24773.00
664.4140, 24453.00
665.5720, 24665.00
666.7300, 24432.00
667.8880, 24254.00
669.0460, 24134.00
670.2030, 24177.00
671.3600, 24141.00
672.5180, 24221.00
673.6740, 24062.00
674.8310, 24153.00
675.9880, 24128.00
677.1440, 24422.00
678.3010, 23977.00
679.4570, 24174.00
680.6130, 24292.00
681.7690, 24145.00
682.9240, 24275.00
684.0800, 24242.00
685.2350, 24404.00
686.3900, 24448.00
687.5450, 24482.00
688.7000, 24386.00
689.8540, 24241.00
691.0090, 24281.64
692.1630, 24170.00
693.3170, 24252.00
694.4710, 24334.00
695.6250, 24278.00
696.7780, 24320.00
697.9320, 24346.00
699.0850, 24386.06
700.2380, 24357.00
701.3910, 24505.00
702.5440, 24654.00
703.6970, 24690.00
704.8490, 24730.00
706.0010, 24628.00
707.1530, 24592.00
708.3050, 24588.00
709.4570, 24823.00
710.6090, 24948.00
711.7600, 25107.00
712.9110, 24960.00
714.0620, 24987.00
715.2130, 24753.00
716.3640, 24935.00
717.5150, 24949.00
718.6650, 24714.00
719.8150, 24839.00
720.9650, 24676.00
722.1150, 24787.00
723.2650, 24922.00
724.4150, 24940.00
725.5640, 24975.00
726.7130, 25035.00
727.8630, 24957.00
729.0110, 25008.00
730.1600, 25080.00
731.3090, 25161.00
732.4570, 25113.00
733.6060, 25246.00
734.7540, 25525.00
735.9020, 25634.00
737.0490, 25646.00
738.1970, 25844.00
739.3440, 25933.00
740.4920, 26344.00
741.6390, 26671.00
742.7860, 26901.00
743.9320, 27372.00
745.0790, 27876.00
746.2250, 28210.00
747.3720, 28470.00
748.5180, 28676.00
749.6640, 28534.00
750.8100, 28151.00
751.9550, 28091.00
753.1010, 27863.00
754.2460, 27284.00
755.3910, 26942.00
756.5360, 26787.00
757.6810, 26400.00
758.8250, 26289.00
759.9700, 26263.00
761.1140, 26265.00
762.2580, 26153.00
763.4020, 26068.00
764.5460, 25808.00
765.6900, 26087.00
766.8330, 26079.00
767.9760, 26349.00
769.1200, 26173.00
770.2620, 26219.00
771.4050, 26098.00
772.5480, 25902.00
773.6900, 25766.00
774.8330, 25920.00
775.9750, 25792.00
777.1170, 25886.00
778.2590, 25863.00
779.4000, 25789.00
780.5420, 25758.00
781.6830, 25996.00
782.8240, 25816.00
783.9650, 25912.00
785.1060, 25757.00
786.2470, 25937.00
787.3870, 25832.00
788.5280, 25905.00
789.6680, 25883.00
790.8080, 25934.00
791.9480, 26115.00
793.0870, 25987.00
794.2270, 26141.00
795.3660, 26187.00
796.5060, 26172.00
797.6450, 26346.00
798.7830, 26256.00
799.9220, 26475.00
801.0610, 26553.48
802.1990, 26677.00
803.3370, 26848.00
804.4750, 26813.00
805.6130, 27037.00
806.7510, 26853.00
807.8890, 27173.00
809.0260, 27267.00
810.1630, 27765.00
811.3000, 27983.00
812.4370, 27987.00
813.5740, 27934.00
814.7110, 27943.00
815.8470, 27781.00
816.9830, 27526.00
818.1190, 27190.00
819.2550, 27241.00
820.3910, 26927.00
821.5270, 26697.00
822.6620, 26844.00
823.7970, 26590.00
824.9330, 26714.00
826.0670, 26636.00
827.2020, 26367.00
828.3370, 26393.00
829.4710, 26397.00
830.6060, 26419.53
831.7400, 26591.00
832.8740, 26676.00
834.0080, 26593.00
835.1410, 26773.00
836.2750, 26580.00
837.4080, 26621.00
838.5410, 26683.00
839.6740, 26729.00
840.8070, 26849.00
841.9400, 26811.00
843.0730, 26870.00
844.2050, 27140.00
845.3370, 26789.00
846.4690, 26992.00
847.6010, 26657.00
848.7330, 26894.00
849.8640, 26938.00
850.9960, 27074.00
852.1270, 26996.00
853.2580, 27123.00
854.3890, 26982.00
855.5200, 26930.00
856.6500, 26818.00
857.7810, 27014.00
858.9110, 27110.00
860.0410, 27183.00
861.1710, 27248.00
862.3010, 27141.00
863.4310, 27009.00
864.5600, 27228.00
865.6900, 27039.00
866.8190, 26914.00
867.9480, 27045.00
869.0770, 27391.00
870.2050, 27305.00
871.3340, 27427.00
872.4620, 27272.00
873.5900, 27122.00
874.7180, 27168.00
875.8460, 27321.00
876.9740, 27361.00
878.1010, 27507.00
879.2290, 27373.00
880.3560, 27576.00
881.4830, 27528.00
882.6100, 27506.00
883.7370, 27622.00
884.8630, 27561.00
885.9900, 27383.00
887.1160, 27236.00
888.2420, 27295.76
889.3680, 27669.00
890.4940, 27459.00
891.6200, 27578.00
892.7450, 27747.00
893.8700, 27690.00
894.9960, 27685.00
896.1210, 27574.00
897.2460, 27669.00
898.3700, 27671.00
899.4950, 27850.00
900.6190, 27793.00
901.7430, 27986.00
902.8670, 27772.00
903.9910, 27999.00
905.1150, 28087.00
906.2390, 27972.00
907.3620, 27879.00
908.4850, 27934.00
909.6080, 28128.00
910.7310, 27858.00
911.8540, 28124.00
912.9770, 28062.00
914.0990, 28037.00
915.2210, 28286.00
916.3440, 28179.00
917.4660, 28347.00
918.5870, 28205.00
919.7090, 28216.00
920.8310, 28231.00
921.9520, 28220.00
923.0730, 28491.00
924.1940, 28518.00
925.3150, 28486.98
926.4360, 28611.21
927.5560, 28317.00
928.6770, 28635.00
929.7970, 28499.00
930.9170, 28403.00
932.0370, 28645.00
933.1570, 28585.00
934.2760, 28515.00
935.3960, 28619.00
936.5150, 28567.87
937.6340, 28646.73
938.7530, 28585.00
939.8720, 28793.00
940.9910, 28802.00
942.1090, 28856.00
943.2280, 28751.00
944.3460, 28937.00
945.4640, 28628.00
946.5820, 28869.00
947.6990, 28868.00
948.8170, 28968.00
949.9340, 29103.00
951.0520, 29022.00
952.1690, 28940.00
953.2860, 29008.00
954.4030, 29297.00
955.5190, 29160.00
956.6360, 29098.00
957.7520, 29137.00
958.8680, 28950.00
959.9840, 29000.00
961.1000, 29202.00
962.2160, 29162.00
963.3310, 29346.00
964.4470, 29104.00
965.5620, 29469.00
966.6770, 29587.00
967.7920, 29230.00
968.9060, 29296.00
970.0210, 29420.00
971.1360, 29570.00
972.2500, 29624.00
973.3640, 29732.00
974.4780, 29590.00
975.5920, 29472.00
976.7050, 29633.00
977.8190, 29758.00
978.9320, 29732.00
980.0450, 29652.00
981.1580, 29770.00
982.2710, 29776.00
983.3840, 30043.00
984.4970, 30143.00
985.6090, 30227.00
986.7210, 30391.00
987.8330, 30598.04
988.9450, 31052.00
990.0570, 31052.00
991.1690, 31480.00
992.2800, 31637.00
993.3920, 31695.00
994.5030, 31800.00
995.6140, 31875.00
996.7250, 31882.00
997.8350, 31693.00
998.9460, 31629.00
1000.056, 31894.00
1001.167, 31698.00
1002.277, 31796.00
1003.387, 31950.00
1004.496, 31622.00
1005.606, 31700.00
1006.715, 31706.00
1007.825, 31394.00
1008.934, 30863.00
1010.043, 31232.00
1011.152, 30863.00
1012.260, 30919.00
1013.369, 30975.00
1014.477, 30590.00
1015.586, 30913.00
1016.694, 30719.00
1017.802, 30742.00
1018.909, 30770.00
1020.017, 30886.00
1021.124, 30954.00
1022.232, 30944.00
1023.339, 31117.00
1024.446, 30951.00
1025.553, 31107.00
1026.659, 31205.00
1027.766, 31437.00
1028.872, 31630.00
1029.979, 31612.00
1031.085, 31680.00
1032.191, 31455.00
1033.296, 31685.00
1034.402, 31626.00
1035.507, 31784.00
1036.613, 31637.00
1037.718, 32005.00
1038.823, 31809.00
1039.928, 32042.00
1041.032, 31926.00
1042.137, 31820.00
1043.241, 31754.00
1044.346, 31620.00
1045.450, 31822.00
1046.554, 31917.00
1047.657, 31816.00
1048.761, 32146.00
1049.864, 32131.00
1050.968, 31978.00
1052.071, 32247.00
1053.174, 32088.00
1054.277, 31800.00
1055.379, 31990.00
1056.482, 31719.00
1057.584, 31764.00
1058.687, 31369.00
1059.789, 31581.00
1060.891, 31437.00
1061.992, 31655.00
1063.094, 31405.00
1064.196, 31220.00
1065.297, 31270.00
1066.398, 31140.00
1067.499, 31553.00
1068.600, 31472.00
1069.701, 31548.00
1070.801, 31519.00
1071.902, 31430.00
1073.002, 31399.00
1074.102, 31396.81
1075.202, 31396.40
1076.302, 31474.00
1077.402, 31486.00
1078.501, 31646.00
1079.600, 31750.00
1080.700, 31737.57
1081.799, 31681.00
1082.898, 31744.00
1083.996, 31795.00
1085.095, 31840.86
1086.193, 31878.00
1087.292, 31931.50
1088.390, 32020.00
1089.488, 32004.00
1090.586, 32038.00
1091.683, 32016.00
1092.781, 32058.00
1093.878, 32348.00
1094.975, 32077.00
1096.073, 32387.00
1097.169, 32381.00
1098.266, 32389.00
1099.363, 32379.00
1100.459, 32608.00
1101.556, 32445.00
1102.652, 32635.00
1103.748, 32558.00
1104.844, 32860.00
1105.940, 33018.00
1107.035, 32926.00
1108.131, 33174.00
1109.226, 33357.00
1110.321, 33559.00
1111.416, 33967.00
1112.511, 34108.00
1113.605, 34532.00
1114.700, 35200.00
1115.794, 35564.00
1116.889, 36394.00
1117.983, 37118.00
1119.077, 37945.00
1120.170, 38746.00
1121.264, 39413.00
1122.357, 39999.00
1123.451, 40173.00
1124.544, 39946.00
1125.637, 39550.00
1126.730, 38843.00
1127.823, 38221.00
1128.915, 37680.00
1130.008, 37331.00
1131.100, 37170.00
1132.192, 37111.00
1133.284, 37228.00
1134.376, 37286.00
1135.467, 37260.77
1136.559, 37668.00
1137.650, 37304.00
1138.742, 37209.00
1139.833, 37343.00
1140.924, 36678.00
1142.014, 36330.00
1143.105, 35711.00
1144.195, 35176.00
1145.286, 35000.00
1146.376, 34832.00
1147.466, 34464.00
1148.556, 34066.00
1149.646, 33912.00
1150.735, 33773.00
1151.825, 33462.00
1152.914, 33646.00
1154.003, 33139.00
1155.092, 33255.00
1156.181, 33148.00
1157.270, 33200.00
1158.358, 33148.75
1159.447, 33328.00
1160.535, 33100.00
1161.623, 33055.00
1162.711, 33183.00
1163.799, 32967.00
1164.886, 33289.00
1165.974, 33053.00
1167.061, 33064.00
1168.148, 32897.00
1169.235, 33316.00
1170.322, 33141.00
1171.409, 33140.00
1172.496, 33016.00
1173.582, 33063.00
1174.669, 33162.00
1175.755, 33125.61
1176.841, 33163.00
1177.927, 33212.00
1179.012, 33222.00
1180.098, 33323.00
1181.183, 33335.06
1182.269, 33440.00
1183.354, 33319.00
1184.439, 33302.00
1185.524, 33114.00
1186.608, 33330.00
1187.693, 33290.00
1188.777, 33339.00
1189.862, 33480.00
1190.946, 33436.17
1192.030, 33322.00
1193.113, 33448.00
1194.197, 33345.00
1195.281, 33332.00
1196.364, 33374.00
1197.447, 33388.00
1198.530, 33304.00
1199.613, 33399.00
1200.696, 33438.00
1201.779, 33461.00
1202.861, 33635.00
1203.944, 33399.00
1205.026, 33828.00
1206.108, 33563.00
1207.190, 33431.00
1208.271, 33442.00
1209.353, 33332.21
1210.435, 33555.00
1211.516, 33308.00
1212.597, 33658.00
1213.678, 33666.00
1214.759, 33702.00
1215.840, 33733.00
1216.920, 33639.00
1218.001, 33753.00
1219.081, 33617.00
1220.161, 33729.00
1221.241, 33840.00
1222.321, 33930.00
1223.401, 33888.00
1224.480, 33964.00
1225.560, 34023.00
1226.639, 33829.00
1227.718, 33978.00
1228.797, 33893.00
1229.876, 33820.00
1230.955, 34026.00
1232.033, 33817.00
1233.112, 34021.00
1234.190, 33957.00
1235.268, 34090.00
1236.346, 34081.00
1237.424, 34109.00
1238.501, 34308.00
1239.579, 34181.00
1240.656, 34214.00
1241.733, 34169.00
1242.811, 34033.00
1243.888, 34169.00
1244.964, 34184.00
1246.041, 34262.00
1247.117, 34049.00
1248.194, 34264.00
1249.270, 34007.00
1250.346, 34198.00
1251.422, 34344.00
1252.498, 34471.00
1253.573, 34119.00
1254.649, 34377.00
1255.724, 34195.00
1256.800, 34302.00
1257.875, 34298.00
1258.950, 34295.54
1260.024, 34464.00
1261.099, 34397.00
1262.173, 34411.00
1263.248, 34510.00
1264.322, 34370.00
1265.396, 34511.00
1266.470, 34527.00
1267.544, 34560.00
1268.617, 34541.00
1269.691, 34577.84
1270.764, 34626.00
1271.837, 34623.00
1272.910, 34653.00
1273.983, 34671.00
1275.056, 34718.18
1276.129, 34813.77
1277.201, 34801.00
1278.273, 35032.00
1279.346, 35026.00
1280.418, 35111.85
1281.489, 34627.00
1282.561, 35096.00
1283.633, 34836.00
1284.704, 34875.00
1285.776, 34905.00
1286.847, 35154.00
1287.918, 35177.00
1288.989, 35121.00
1290.059, 35119.00
1291.130, 34912.00
1292.200, 34946.00
1293.271, 35402.00
1294.341, 35144.00
1295.411, 35296.00
1296.481, 35061.00
1297.551, 35200.00
1298.620, 35245.00
1299.690, 35308.00
1300.759, 35135.00
1301.828, 35171.00
1302.897, 35518.00
1303.966, 35239.00
1305.035, 35412.00
1306.103, 35375.00
1307.172, 35345.00
