##NAMES=Microcline
##RRUFFID=R050193
##IDEAL CHEMISTRY=KAlSi_3_O_8_
##LOCALITY=Devil's Head, Douglas County, Colorado, USA
##OWNER=RRUFF
##SOURCE=Dave Bunk Minerals
##DESCRIPTION=White to colorless heterogeneous mixture of K and Na feldspar in a cluster of crystals. Crystal structure determined, presented below. This sample is known as an intermediate microcline in the literature.
##STATUS=The identification of this mineral has been confirmed by X-ray diffraction and chemical analysis
##URL=rruff.info/R050193
##MEASURED CHEMISTRY=(K_0.929_Na_0.071_)(Al_1.005_Si_2.994_Fe_0.001_)O_7.993_F_0.007_  ; Light Band :  (Na_0.973_K_0.007_Ca_0.020_)(Al_1.020_Si_2.980_)O_8_ ; Dark Band
##PIN_ID=L00660
##ORIENTATION=Laser parallel to c* (0 0 1). Fiducial mark perpendicular to laser is parallel to a [1 0 0]
142.5560, 17598.00
143.7880, 17763.00
145.0190, 17899.00
146.2510, 18241.00
147.4820, 18620.00
148.7130, 18491.00
149.9440, 18914.00
151.1750, 18919.00
152.4050, 19093.00
153.6360, 19294.00
154.8660, 19279.00
156.0960, 19335.71
157.3260, 19271.00
158.5560, 19211.00
159.7850, 19147.00
161.0150, 18954.00
162.2440, 19078.00
163.4730, 19057.00
164.7020, 19128.00
165.9310, 18950.00
167.1590, 19027.00
168.3880, 19228.00
169.6160, 19104.00
170.8440, 19357.00
172.0720, 19445.00
173.3000, 19484.00
174.5280, 19896.00
175.7550, 19975.00
176.9820, 19961.00
178.2100, 19858.00
179.4370, 19884.00
180.6630, 19766.00
181.8900, 19845.00
183.1170, 19764.75
184.3430, 19531.00
185.5690, 19598.00
186.7950, 19534.00
188.0210, 19309.00
189.2470, 19467.00
190.4720, 19482.00
191.6970, 19795.00
192.9230, 19654.00
194.1480, 19647.00
195.3730, 19833.00
196.5970, 19881.00
197.8220, 19889.00
199.0460, 20025.00
200.2700, 19987.00
201.4940, 19891.00
202.7180, 19798.00
203.9420, 19781.04
205.1660, 19774.00
206.3890, 19713.00
207.6120, 19699.00
208.8350, 19628.00
210.0580, 19694.00
211.2810, 19818.00
212.5040, 19762.00
213.7260, 19793.00
214.9480, 19688.00
216.1700, 19841.00
217.3920, 19831.00
218.6140, 19743.00
219.8360, 19783.00
221.0570, 19695.00
222.2790, 19781.00
223.5000, 19987.00
224.7210, 19936.00
225.9410, 19957.00
227.1620, 20096.00
228.3820, 20063.00
229.6030, 20198.00
230.8230, 20219.00
232.0430, 20244.37
233.2630, 20247.00
234.4820, 20273.00
235.7020, 20308.00
236.9210, 20276.00
238.1400, 20268.00
239.3590, 20442.00
240.5780, 20456.00
241.7970, 20656.00
243.0150, 20715.52
244.2340, 20939.00
245.4520, 20883.00
246.6700, 21054.00
247.8880, 21158.00
249.1060, 21318.00
250.3230, 21462.00
251.5400, 21699.00
252.7580, 22024.00
253.9750, 22236.00
255.1920, 22242.00
256.4080, 22835.00
257.6250, 22863.00
258.8410, 23432.00
260.0580, 23980.00
261.2740, 23910.00
262.4900, 24188.00
263.7050, 24117.00
264.9210, 24359.00
266.1360, 24314.00
267.3520, 24232.00
268.5670, 24348.00
269.7820, 24391.00
270.9960, 24259.00
272.2110, 24526.00
273.4250, 24486.00
274.6400, 24419.00
275.8540, 24536.00
277.0680, 24719.00
278.2810, 24986.00
279.4950, 24783.00
280.7090, 25021.00
281.9220, 24914.00
283.1350, 24886.00
284.3480, 24790.66
285.5610, 24492.00
286.7730, 24428.00
287.9860, 23960.00
289.1980, 23747.00
290.4100, 23334.00
291.6220, 23019.00
292.8340, 22974.00
294.0460, 22555.00
295.2570, 22784.00
296.4690, 22374.00
297.6800, 22280.00
298.8910, 22298.00
300.1020, 22114.00
301.3120, 21926.00
302.5230, 21988.00
303.7330, 21892.00
304.9440, 22130.00
306.1540, 21971.00
307.3630, 22049.00
308.5730, 21910.00
309.7830, 21982.00
310.9920, 21971.00
312.2010, 22205.00
313.4100, 22162.00
314.6190, 22197.00
315.8280, 22208.00
317.0370, 22225.00
318.2450, 22131.00
319.4530, 22324.00
320.6610, 22277.00
321.8690, 22394.00
323.0770, 22323.00
324.2850, 22316.00
325.4920, 22479.00
326.6990, 22520.00
327.9060, 22621.00
329.1130, 22490.00
330.3200, 22609.00
331.5270, 22709.00
332.7330, 22591.00
333.9390, 22689.00
335.1450, 22768.00
336.3510, 22601.00
337.5570, 22760.00
338.7630, 22782.00
339.9680, 22601.00
341.1740, 22784.00
342.3790, 22862.00
343.5840, 22880.00
344.7890, 22897.00
345.9930, 22893.00
347.1980, 22985.00
348.4020, 22971.00
349.6060, 22958.00
350.8100, 23006.00
352.0140, 23127.00
353.2180, 23097.77
354.4210, 23145.00
355.6250, 23167.00
356.8280, 23198.00
358.0310, 23347.00
359.2340, 23229.00
360.4360, 23512.00
361.6390, 23607.00
362.8410, 23504.00
364.0430, 23571.00
365.2450, 23608.00
366.4470, 23479.00
367.6490, 23722.00
368.8510, 23841.00
370.0520, 23728.00
371.2530, 23744.00
372.4540, 23823.00
373.6550, 23909.00
374.8560, 23944.80
376.0560, 23989.56
377.2570, 23994.00
378.4570, 23977.00
379.6570, 23870.00
380.8570, 23726.00
382.0570, 23803.00
383.2560, 23861.00
384.4560, 23787.00
385.6550, 23973.00
386.8540, 24001.00
388.0530, 24103.00
389.2520, 24189.76
390.4510, 24232.00
391.6490, 24286.00
392.8470, 24331.00
394.0450, 24288.00
395.2430, 24409.00
396.4410, 24739.00
397.6390, 24526.00
398.8360, 24972.00
400.0340, 24910.00
401.2310, 25228.00
402.4280, 25325.00
403.6250, 25390.00
404.8210, 25253.00
406.0180, 25413.00
407.2140, 25357.00
408.4100, 25445.00
409.6060, 25403.97
410.8020, 25351.00
411.9980, 25263.00
413.1930, 25106.00
414.3890, 24973.00
415.5840, 25153.00
416.7790, 24914.00
417.9740, 25055.00
419.1680, 24764.00
420.3630, 24797.00
421.5570, 24667.00
422.7510, 24896.00
423.9450, 24949.00
425.1390, 24940.00
426.3330, 24921.00
427.5270, 24936.00
428.7200, 25078.00
429.9130, 25168.00
431.1060, 25033.00
432.2990, 25249.00
433.4920, 25546.00
434.6840, 25303.00
435.8770, 25579.00
437.0690, 25659.00
438.2610, 26042.00
439.4530, 26001.00
440.6450, 26375.00
441.8360, 26678.00
443.0280, 27052.00
444.2190, 27636.00
445.4100, 27773.00
446.6010, 28412.00
447.7920, 28740.00
448.9820, 29164.00
450.1730, 29674.00
451.3630, 30159.00
452.5530, 30163.00
453.7430, 30332.00
454.9330, 30353.00
456.1230, 30015.00
457.3120, 29610.00
458.5010, 29561.00
459.6910, 29043.00
460.8800, 28792.00
462.0680, 28855.00
463.2570, 28666.00
464.4460, 28701.00
465.6340, 28799.00
466.8220, 29306.00
468.0100, 29424.00
469.1980, 29777.00
470.3860, 30712.00
471.5730, 30947.00
472.7600, 31137.00
473.9480, 31554.00
475.1350, 31625.00
476.3210, 31612.00
477.5080, 31277.00
478.6950, 31284.00
479.8810, 30712.00
481.0670, 30086.00
482.2530, 29702.00
483.4390, 29393.00
484.6250, 29231.00
485.8100, 28995.00
486.9960, 28483.00
488.1810, 28669.00
489.3660, 28517.00
490.5510, 28367.00
491.7360, 28721.00
492.9200, 28734.00
494.1050, 28591.00
495.2890, 28619.00
496.4730, 29212.00
497.6570, 29625.00
498.8400, 30172.00
500.0240, 30912.00
501.2070, 31893.00
502.3910, 33108.00
503.5740, 34232.00
504.7570, 35953.00
505.9400, 37503.00
507.1220, 39387.00
508.3050, 41325.00
509.4870, 43281.00
510.6690, 44640.00
511.8510, 45321.00
513.0330, 45203.00
514.2140, 44177.00
515.3960, 42579.00
516.5770, 40652.00
517.7580, 38389.00
518.9390, 36076.00
520.1200, 34580.00
521.3010, 32889.00
522.4810, 31912.00
523.6610, 31080.00
524.8420, 30427.00
526.0220, 29938.00
527.2010, 29649.00
528.3810, 29084.00
529.5610, 28967.00
530.7400, 28749.00
531.9190, 28569.00
533.0980, 28411.00
534.2770, 28364.00
535.4560, 28221.00
536.6340, 28276.00
537.8120, 28264.00
538.9910, 28368.00
540.1690, 28236.00
541.3460, 28126.00
542.5240, 28232.00
543.7020, 28364.00
544.8790, 27892.00
546.0560, 28241.00
547.2330, 27880.00
548.4100, 28007.00
549.5870, 27969.00
550.7630, 28187.00
551.9400, 28146.00
553.1160, 28146.00
554.2920, 28295.00
555.4680, 28010.00
556.6440, 28108.00
557.8190, 28064.00
558.9950, 28135.00
560.1700, 28190.00
561.3450, 28251.00
562.5200, 28143.00
563.6950, 28069.00
564.8690, 28320.00
566.0440, 28223.00
567.2180, 28425.00
568.3920, 28328.00
569.5660, 28548.00
570.7400, 28321.00
571.9130, 28536.00
573.0870, 28446.00
574.2600, 28584.00
575.4330, 28609.00
576.6060, 28643.00
577.7790, 28628.00
578.9520, 28436.00
580.1240, 28631.00
581.2960, 28591.00
582.4690, 28309.00
583.6410, 28527.00
584.8120, 28347.00
585.9840, 28513.00
587.1560, 28569.00
588.3270, 28546.00
589.4980, 28593.00
590.6690, 28540.00
591.8400, 28572.02
593.0110, 28673.00
594.1810, 28579.00
595.3510, 28727.00
596.5220, 28686.00
597.6920, 28767.00
598.8610, 28842.00
600.0310, 28783.00
601.2010, 28685.00
602.3700, 28991.00
603.5390, 28992.00
604.7080, 28938.00
605.8770, 28897.00
607.0460, 29028.00
608.2140, 28943.00
609.3830, 28957.00
610.5510, 28908.00
611.7190, 28943.00
612.8870, 29168.00
614.0550, 28942.00
615.2220, 29191.00
616.3900, 28883.00
617.5570, 29265.00
618.7240, 29145.00
619.8910, 29219.00
621.0580, 29150.00
622.2240, 29210.79
623.3910, 29225.00
624.5570, 29344.00
625.7230, 29459.00
626.8890, 29511.00
628.0550, 29632.00
629.2200, 29520.00
630.3860, 29688.00
631.5510, 29456.00
632.7160, 29474.00
633.8810, 29518.00
635.0460, 29497.00
636.2100, 29450.00
637.3750, 29578.97
638.5390, 29626.00
639.7030, 29734.00
640.8670, 29752.07
642.0310, 29763.00
643.1950, 29766.00
644.3580, 29815.77
645.5210, 29853.18
646.6850, 29945.00
647.8480, 29961.00
649.0100, 30088.00
650.1730, 30137.00
651.3350, 30123.46
652.4980, 30161.67
653.6600, 30093.00
654.8220, 30096.00
655.9840, 30117.00
657.1450, 29999.00
658.3070, 30214.00
659.4680, 29803.00
660.6300, 30249.00
661.7910, 30030.00
662.9510, 30037.00
664.1120, 30198.00
665.2730, 30099.00
666.4330, 30008.00
667.5930, 29807.00
668.7530, 29972.00
669.9130, 30074.00
671.0730, 29938.00
672.2320, 29905.00
673.3920, 30183.00
674.5510, 30185.00
675.7100, 29926.00
676.8690, 30114.00
678.0280, 30241.00
679.1860, 30018.00
680.3450, 30111.00
681.5030, 30010.00
682.6610, 30347.00
683.8190, 30208.00
684.9770, 30260.00
686.1340, 30264.00
687.2920, 30427.00
688.4490, 30310.00
689.6060, 30409.00
690.7630, 30556.00
691.9200, 30393.00
693.0760, 30344.00
694.2330, 30362.00
695.3890, 30317.00
696.5450, 30607.00
697.7010, 30506.00
698.8570, 30638.00
700.0130, 30607.00
701.1680, 30578.00
702.3230, 30555.00
703.4780, 30539.00
704.6330, 30816.00
705.7880, 30847.00
706.9430, 30906.56
708.0970, 30839.00
709.2520, 30963.00
710.4060, 30973.00
711.5600, 30954.00
712.7140, 30960.00
713.8670, 31003.60
715.0210, 31199.00
716.1740, 31059.00
717.3270, 31129.00
718.4800, 31058.00
719.6330, 31355.00
720.7860, 30988.00
721.9380, 31192.00
723.0910, 31139.00
724.2430, 31448.00
725.3950, 31438.00
726.5470, 31455.00
727.6980, 31412.00
728.8500, 31443.00
730.0010, 31727.00
731.1530, 31954.00
732.3040, 31898.00
733.4550, 31850.00
734.6050, 32230.00
735.7560, 32420.00
736.9060, 32192.00
738.0560, 32566.00
739.2060, 32703.00
740.3560, 32818.00
741.5060, 32984.00
742.6560, 33103.00
743.8050, 33219.52
744.9540, 33509.00
746.1030, 33400.00
747.2520, 33473.00
748.4010, 33476.00
749.5500, 33838.00
750.6980, 33704.00
751.8460, 33738.00
752.9950, 33447.00
754.1420, 33211.00
755.2900, 33357.00
756.4380, 32994.00
757.5850, 33280.00
758.7330, 33401.00
759.8800, 33036.00
761.0270, 32867.00
762.1730, 32823.00
763.3200, 33093.00
764.4670, 32794.00
765.6130, 32807.00
766.7590, 32853.00
767.9050, 32740.00
769.0510, 32731.00
770.1960, 32680.00
771.3420, 32864.00
772.4870, 32730.00
773.6320, 32723.00
774.7770, 32672.00
775.9220, 32515.00
777.0670, 32610.00
778.2110, 32786.00
779.3560, 32638.00
780.5000, 32721.00
781.6440, 32721.00
782.7880, 32624.00
783.9320, 32935.00
785.0750, 32816.00
786.2180, 32872.00
787.3620, 32791.00
788.5050, 32953.00
789.6480, 32913.00
790.7900, 32997.00
791.9330, 33180.00
793.0750, 33179.00
794.2170, 33278.39
795.3590, 33405.00
796.5010, 33363.00
797.6430, 33436.00
798.7850, 33430.95
799.9260, 33591.00
801.0670, 33552.00
802.2080, 33824.00
803.3490, 33930.00
804.4900, 34231.00
805.6310, 34114.00
806.7710, 34344.00
807.9110, 34590.00
809.0510, 34796.00
810.1910, 35040.00
811.3310, 34864.00
812.4710, 34887.00
813.6100, 34966.00
814.7490, 34708.00
815.8880, 34303.00
817.0270, 34386.00
818.1660, 34010.00
819.3050, 33838.00
820.4430, 33705.00
821.5820, 33422.00
822.7200, 33266.00
823.8580, 33115.00
824.9950, 33138.00
826.1330, 33047.00
827.2710, 33017.00
828.4080, 32988.00
829.5450, 33029.00
830.6820, 32984.00
831.8190, 33001.00
832.9560, 33015.00
834.0920, 32922.00
835.2280, 33038.00
836.3650, 32930.00
837.5010, 33128.00
838.6360, 33133.00
839.7720, 33170.00
840.9080, 33175.00
842.0430, 33261.00
843.1780, 33229.00
844.3130, 33069.00
845.4480, 33160.00
846.5830, 33079.00
847.7170, 33188.00
848.8520, 33284.00
849.9860, 33021.00
851.1200, 33522.00
852.2540, 33479.00
853.3870, 33386.00
854.5210, 33309.00
855.6540, 33182.00
856.7880, 33563.00
857.9210, 33433.00
859.0540, 33643.00
860.1860, 33490.00
861.3190, 33665.00
862.4510, 33482.00
863.5840, 33618.00
864.7160, 33459.00
865.8480, 33623.00
866.9790, 33680.00
868.1110, 33798.00
869.2420, 33699.00
870.3740, 33784.00
871.5050, 33821.00
872.6360, 33702.00
873.7660, 33895.00
874.8970, 33640.00
876.0280, 33826.00
877.1580, 33671.00
878.2880, 33884.00
879.4180, 33943.00
880.5480, 33752.00
881.6770, 33804.00
882.8070, 33797.00
883.9360, 33737.00
885.0650, 33744.00
886.1940, 33875.00
887.3230, 33929.00
888.4520, 34129.00
889.5800, 34180.00
890.7090, 33859.00
891.8370, 33849.00
892.9650, 33996.00
894.0930, 34267.00
895.2200, 34186.00
896.3480, 34105.00
897.4750, 34044.00
898.6020, 33951.00
899.7290, 34264.00
900.8560, 34201.00
901.9830, 34292.00
903.1090, 34176.00
904.2360, 34218.00
905.3620, 34441.00
906.4880, 34263.00
907.6140, 34379.00
908.7400, 34439.00
909.8650, 34377.20
910.9900, 34365.00
912.1160, 34372.00
913.2410, 34421.00
914.3660, 34442.00
915.4900, 34412.00
916.6150, 34442.00
917.7390, 34442.00
918.8640, 34827.00
919.9880, 34412.00
921.1120, 34730.00
922.2350, 34658.00
923.3590, 34577.00
924.4820, 34702.00
925.6060, 34639.00
926.7290, 34548.00
927.8520, 34847.00
928.9740, 34923.00
930.0970, 34669.00
931.2190, 34661.00
932.3420, 34650.00
933.4640, 34785.00
934.5860, 34742.00
935.7080, 34828.00
936.8290, 34763.00
937.9510, 34875.00
939.0720, 34808.00
940.1930, 35079.00
941.3140, 35108.00
942.4350, 35031.00
943.5560, 35136.00
944.6760, 35118.85
945.7960, 35203.00
946.9170, 35169.00
948.0370, 35323.00
949.1560, 35370.39
950.2760, 35475.00
951.3960, 35372.00
952.5150, 35269.00
953.6340, 35160.00
954.7530, 34969.00
955.8720, 35198.00
956.9910, 35407.00
958.1090, 35183.00
959.2280, 35418.00
960.3460, 35192.00
961.4640, 35501.00
962.5820, 35380.00
963.6990, 35582.00
964.8170, 35269.00
965.9340, 35314.00
967.0510, 35473.00
968.1690, 35661.00
969.2850, 35680.43
970.4020, 35858.00
971.5190, 35759.00
972.6350, 35653.00
973.7510, 35631.00
974.8670, 35847.00
975.9830, 35829.00
977.0990, 36015.00
978.2150, 35950.00
979.3300, 36304.00
980.4450, 36159.00
981.5600, 36255.00
982.6750, 36155.00
983.7900, 36240.95
984.9050, 36117.00
986.0190, 36456.00
987.1340, 36431.00
988.2480, 36593.00
989.3620, 36722.00
990.4750, 36600.00
991.5890, 36644.00
992.7020, 36497.00
993.8160, 36520.00
994.9290, 36790.00
996.0420, 36965.00
997.1550, 36819.00
998.2670, 36742.00
999.3800, 37127.00
1000.492, 36861.00
1001.604, 36851.00
1002.716, 36678.00
1003.828, 36823.00
1004.940, 36832.00
1006.051, 36875.00
1007.163, 36969.00
1008.274, 36933.18
1009.385, 36880.00
1010.496, 36913.00
1011.606, 36988.00
1012.717, 37009.00
1013.827, 36764.00
1014.937, 36920.00
1016.047, 36740.00
1017.157, 36914.00
1018.267, 36965.00
1019.377, 36791.00
1020.486, 36846.00
1021.595, 36888.09
1022.704, 37103.00
1023.813, 37004.00
1024.922, 37166.00
1026.030, 37140.00
1027.139, 36991.00
1028.247, 37270.00
1029.355, 37439.00
1030.463, 37043.00
1031.571, 37059.00
1032.678, 37178.00
1033.786, 37556.00
1034.893, 37233.00
1036.000, 37108.00
1037.107, 37393.00
1038.214, 37358.00
1039.321, 37125.00
1040.427, 37310.00
1041.533, 37324.00
1042.639, 37477.00
1043.745, 37472.92
1044.851, 37330.00
1045.957, 37463.00
1047.062, 37477.00
1048.168, 37504.00
1049.273, 37585.00
1050.378, 37586.40
1051.482, 37607.62
1052.587, 37599.00
1053.692, 37622.00
1054.796, 37559.00
1055.900, 37582.00
1057.004, 37468.00
1058.108, 37977.00
1059.212, 37719.00
1060.315, 37879.00
1061.418, 37638.00
1062.522, 37914.00
1063.625, 37901.00
1064.728, 37985.00
1065.830, 37908.00
1066.933, 37825.00
1068.035, 37907.00
1069.137, 38011.00
1070.239, 37984.00
1071.341, 38328.00
1072.443, 38176.00
1073.545, 38189.00
1074.646, 38057.00
1075.747, 38285.00
1076.848, 38326.00
1077.949, 38174.00
1079.050, 37949.00
1080.150, 38236.00
1081.251, 38266.00
1082.351, 38413.00
1083.451, 38334.00
1084.551, 38498.00
1085.651, 38443.00
1086.750, 38559.00
1087.850, 38505.00
1088.949, 38567.00
1090.048, 38902.00
1091.147, 38819.00
1092.246, 38890.00
1093.345, 39168.00
1094.443, 39029.00
1095.541, 39220.00
1096.639, 39314.00
1097.737, 39325.00
1098.835, 39325.70
1099.933, 39335.72
1101.030, 39235.00
1102.128, 39244.00
1103.225, 39329.00
1104.322, 39188.00
1105.419, 39174.00
1106.515, 39306.00
1107.612, 39171.00
1108.708, 39353.00
1109.804, 39098.00
1110.900, 39164.00
1111.996, 39289.00
1113.092, 39677.00
1114.187, 39399.00
1115.283, 39597.00
1116.378, 39699.00
1117.473, 39519.00
1118.568, 39656.00
1119.662, 40039.00
1120.757, 39726.00
1121.851, 39903.00
1122.946, 39835.00
1124.040, 39893.00
1125.134, 39877.00
1126.227, 39915.00
1127.321, 39916.00
1128.414, 40084.00
1129.508, 40154.00
1130.601, 39730.00
1131.693, 40137.00
1132.786, 39979.00
1133.879, 40137.00
1134.971, 40273.00
1136.064, 40341.00
1137.156, 40364.07
1138.248, 40413.00
1139.339, 40254.00
1140.431, 40221.00
1141.522, 40031.00
1142.614, 39988.00
1143.705, 40125.00
1144.796, 40055.47
1145.887, 40290.00
1146.977, 40106.00
1148.068, 40084.00
1149.158, 40028.89
1150.248, 40267.00
1151.338, 40083.00
1152.428, 40107.00
1153.518, 40225.00
1154.607, 40025.00
1155.696, 40043.00
1156.785, 40122.00
1157.874, 40069.00
1158.963, 40350.00
1160.052, 40006.00
1161.141, 40311.00
1162.229, 40009.00
1163.317, 40344.00
1164.405, 40187.00
1165.493, 40260.00
1166.581, 40322.00
1167.668, 40278.00
1168.756, 40179.00
1169.843, 40237.00
1170.930, 40369.00
1172.017, 40249.00
1173.103, 40521.00
1174.190, 40552.00
1175.276, 40515.00
1176.363, 40387.00
1177.449, 40359.00
1178.535, 40290.00
1179.620, 40561.00
1180.706, 40468.00
1181.791, 40610.00
1182.877, 40782.00
1183.962, 40663.00
1185.047, 40792.00
1186.131, 40644.00
1187.216, 40519.00
1188.300, 40739.00
1189.385, 40756.00
1190.469, 40482.00
1191.553, 40574.00
1192.637, 40959.00
1193.720, 40847.00
1194.804, 40691.00
1195.887, 40720.00
1196.970, 40600.00
1198.053, 40693.80
1199.136, 40888.00
1200.219, 40842.00
1201.301, 41063.00
1202.383, 40999.00
1203.465, 41181.00
1204.547, 41422.00
1205.629, 41249.00
1206.711, 41276.00
1207.792, 41228.00
1208.874, 41280.00
1209.955, 41270.00
1211.036, 41212.00
1212.117, 41401.00
1213.198, 41350.00
1214.278, 41394.00
1215.359, 41279.00
1216.439, 41331.00
1217.519, 41302.00
1218.599, 41374.00
1219.678, 41657.00
1220.758, 41579.00
1221.837, 41599.00
1222.917, 41481.00
1223.996, 41689.00
1225.075, 41696.00
1226.153, 41509.00
1227.232, 41725.00
1228.310, 41851.00
1229.389, 41864.00
1230.467, 41815.00
1231.545, 42086.00
1232.622, 41968.00
1233.700, 41950.00
1234.777, 41941.00
1235.855, 41814.00
1236.932, 41760.00
1238.009, 42135.00
1239.086, 42357.00
1240.162, 41889.00
1241.239, 41784.00
1242.315, 42164.00
1243.391, 42409.00
1244.467, 41955.00
1245.543, 42225.00
1246.619, 42004.00
1247.694, 42493.00
1248.769, 42256.00
1249.844, 42386.00
1250.919, 42359.00
1251.994, 42270.00
1253.069, 42471.00
1254.144, 42435.00
1255.218, 42651.00
1256.292, 42267.00
1257.366, 42510.00
1258.440, 42373.00
1259.514, 42550.00
1260.587, 42462.00
1261.661, 42651.00
1262.734, 42608.00
1263.807, 42655.00
1264.880, 42769.00
1265.952, 42780.00
1267.025, 42934.00
1268.097, 42608.00
1269.170, 42924.00
1270.242, 42693.00
1271.314, 43013.00
1272.385, 42884.00
1273.457, 42930.00
1274.528, 42917.00
1275.600, 43009.00
1276.671, 42995.00
1277.742, 42971.00
1278.812, 43058.00
1279.883, 43023.00
1280.954, 43082.00
1282.024, 43103.45
1283.094, 43355.00
1284.164, 43092.00
1285.234, 43228.00
1286.303, 43110.00
1287.373, 43295.00
1288.442, 43574.00
1289.511, 43313.00
1290.580, 43628.00
1291.649, 43408.00
1292.718, 43414.00
1293.786, 43710.00
1294.855, 43586.00
1295.923, 43849.00
1296.991, 43642.00
1298.059, 43628.00
1299.126, 43471.00
1300.194, 43767.00
1301.261, 43778.00
1302.328, 43836.00
