##NAMES=Microcline
##RRUFFID=R050150
##IDEAL CHEMISTRY=KAlSi_3_O_8_
##LOCALITY=Crystal Peak area, Park/Teller Counties, Colorado, USA
##OWNER=RRUFF
##SOURCE=Dave Bunk Minerals
##DESCRIPTION=Pale blue prismatic crystals
##STATUS=The identification of this mineral has been confirmed by X-ray diffraction and chemical analysis
##URL=rruff.info/R050150
##MEASURED CHEMISTRY=(K_0.95_Na_0.05_)_Î£=1_Al_1.00_Si_3.00_O_8_
##PIN_ID=L00915
##ORIENTATION=Laser parallel to (1 1 0). Fiducial mark perpendicular to laser is parallel to c [0 0 1]
137.6830, 22089.00
138.9210, 22273.00
140.1580, 22718.00
141.3950, 22995.00
142.6330, 23487.00
143.8690, 23680.00
145.1060, 24311.00
146.3430, 24723.00
147.5790, 25717.00
148.8150, 26651.00
150.0510, 27397.00
151.2870, 27531.00
152.5220, 27519.00
153.7580, 27032.00
154.9930, 26942.00
156.2280, 26575.00
157.4620, 26332.00
158.6970, 26299.00
159.9310, 26046.00
161.1660, 25640.00
162.4000, 25451.00
163.6330, 25157.94
164.8670, 24747.00
166.1000, 24723.00
167.3340, 24491.00
168.5670, 24412.00
169.8000, 24668.00
171.0320, 24641.00
172.2650, 24971.00
173.4970, 25507.00
174.7290, 25855.00
175.9610, 26492.00
177.1930, 27276.00
178.4240, 28142.00
179.6550, 28290.00
180.8870, 28249.00
182.1170, 27731.00
183.3480, 27115.00
184.5790, 26396.00
185.8090, 25832.00
187.0390, 25397.00
188.2690, 25463.00
189.4990, 25389.00
190.7290, 25537.00
191.9580, 25238.00
193.1870, 25570.00
194.4160, 25594.00
195.6450, 25856.00
196.8740, 26267.00
198.1020, 26579.00
199.3310, 26985.00
200.5590, 26878.00
201.7870, 26699.00
203.0140, 26313.00
204.2420, 25852.00
205.4690, 25651.00
206.6960, 25153.00
207.9230, 25235.00
209.1500, 25046.00
210.3760, 25314.00
211.6030, 25067.00
212.8290, 25206.00
214.0550, 25086.00
215.2810, 25046.00
216.5060, 25131.00
217.7320, 25165.00
218.9570, 25262.00
220.1820, 25283.00
221.4070, 25477.00
222.6320, 25380.00
223.8560, 25538.00
225.0800, 25506.00
226.3040, 25607.00
227.5280, 25659.66
228.7520, 25589.00
229.9760, 25747.00
231.1990, 25646.00
232.4220, 25653.00
233.6450, 25805.00
234.8680, 25657.00
236.0910, 25811.00
237.3130, 25804.00
238.5350, 25690.00
239.7570, 26102.00
240.9790, 26054.00
242.2010, 26108.00
243.4220, 25936.00
244.6430, 26287.00
245.8640, 26288.00
247.0850, 26459.00
248.3060, 26691.00
249.5270, 27069.00
250.7470, 26988.00
251.9670, 27628.00
253.1870, 27876.00
254.4070, 28561.00
255.6260, 29112.00
256.8460, 29888.00
258.0650, 30686.00
259.2840, 31127.00
260.5030, 31324.00
261.7220, 30792.00
262.9400, 31178.00
264.1580, 31505.00
265.3760, 32242.00
266.5940, 32545.00
267.8120, 32250.00
269.0290, 31778.00
270.2470, 30930.00
271.4640, 30331.00
272.6810, 29980.00
273.8980, 29659.00
275.1140, 29514.00
276.3310, 29325.00
277.5470, 29441.00
278.7630, 29759.00
279.9790, 30124.00
281.1940, 30678.00
282.4100, 31414.00
283.6250, 32177.00
284.8400, 32503.00
286.0550, 32881.00
287.2700, 32737.00
288.4850, 32222.00
289.6990, 31364.00
290.9130, 30837.00
292.1270, 29892.00
293.3410, 29451.00
294.5540, 29257.00
295.7680, 28963.00
296.9810, 28667.00
298.1940, 28713.00
299.4070, 28455.00
300.6200, 28366.00
301.8320, 28307.00
303.0450, 28098.00
304.2570, 28148.00
305.4690, 28235.00
306.6800, 27991.00
307.8920, 27820.00
309.1030, 28114.00
310.3150, 27921.00
311.5260, 28123.00
312.7360, 28063.00
313.9470, 28061.00
315.1580, 28189.00
316.3680, 28044.00
317.5780, 28074.00
318.7880, 28158.00
319.9980, 28142.01
321.2070, 28315.00
322.4170, 28300.00
323.6260, 28365.00
324.8350, 28541.00
326.0430, 28472.00
327.2520, 28611.00
328.4610, 28782.99
329.6690, 29161.00
330.8770, 29153.00
332.0850, 29467.00
333.2920, 29607.00
334.5000, 29445.00
335.7070, 29320.00
336.9140, 29263.00
338.1210, 29029.00
339.3280, 28997.00
340.5350, 28820.00
341.7410, 28876.00
342.9470, 28953.00
344.1540, 29013.00
345.3590, 28992.00
346.5650, 29032.00
347.7710, 28973.00
348.9760, 28861.00
350.1810, 29111.00
351.3860, 28974.00
352.5910, 29114.00
353.7950, 29377.00
355.0000, 29443.00
356.2040, 29603.00
357.4080, 29665.39
358.6120, 29757.00
359.8150, 29772.42
361.0190, 29790.00
362.2220, 29715.00
363.4250, 29682.00
364.6280, 29581.00
365.8310, 29689.00
367.0340, 29955.00
368.2360, 29918.00
369.4380, 30385.00
370.6400, 30697.00
371.8420, 31211.00
373.0440, 31234.00
374.2450, 31365.00
375.4470, 31058.00
376.6480, 30820.00
377.8490, 30386.00
379.0490, 30136.00
380.2500, 30008.00
381.4500, 30051.00
382.6510, 30008.00
383.8510, 30051.00
385.0500, 29910.00
386.2500, 29978.00
387.4500, 29993.00
388.6490, 30180.00
389.8480, 30115.00
391.0470, 30031.00
392.2460, 30278.00
393.4440, 30548.00
394.6430, 30253.00
395.8410, 30662.00
397.0390, 30656.78
398.2370, 31056.00
399.4340, 31026.00
400.6320, 31090.00
401.8290, 31618.00
403.0260, 31883.00
404.2230, 32225.00
405.4200, 32055.00
406.6170, 31786.00
407.8130, 31605.00
409.0090, 31388.00
410.2050, 31404.00
411.4010, 31892.00
412.5970, 31579.00
413.7920, 31822.00
414.9880, 31675.00
416.1830, 31642.00
417.3780, 31321.00
418.5730, 31251.00
419.7670, 30968.00
420.9620, 30943.00
422.1560, 31092.00
423.3500, 31095.00
424.5440, 31055.00
425.7380, 31036.00
426.9310, 30888.00
428.1240, 30954.00
429.3180, 31222.00
430.5110, 30941.00
431.7030, 31236.00
432.8960, 31061.00
434.0890, 31543.00
435.2810, 31543.00
436.4730, 31658.00
437.6650, 31492.00
438.8570, 31541.00
440.0480, 31924.00
441.2390, 31988.00
442.4310, 32112.00
443.6220, 32431.00
444.8120, 32769.00
446.0030, 33187.00
447.1940, 33371.00
448.3840, 34017.00
449.5740, 34652.00
450.7640, 35616.00
451.9540, 36283.00
453.1430, 37520.00
454.3330, 38504.00
455.5220, 38769.00
456.7110, 38108.00
457.9000, 37286.00
459.0890, 36497.00
460.2770, 35527.00
461.4650, 35039.00
462.6540, 34948.00
463.8420, 34869.00
465.0290, 34836.00
466.2170, 35014.00
467.4050, 35375.00
468.5920, 36109.00
469.7790, 36870.90
470.9660, 37775.00
472.1530, 39131.00
473.3390, 40641.00
474.5250, 42320.00
475.7120, 43303.00
476.8980, 43706.00
478.0840, 42956.00
479.2690, 41826.00
480.4550, 40434.00
481.6400, 39151.00
482.8250, 38230.00
484.0100, 37777.00
485.1950, 37295.00
486.3800, 36752.00
487.5640, 36228.00
488.7480, 35500.00
489.9320, 35045.00
491.1160, 34577.00
492.3000, 34368.00
493.4840, 34413.00
494.6670, 34332.00
495.8500, 34323.00
497.0330, 34544.00
498.2160, 35139.00
499.3990, 35161.00
500.5810, 35790.00
501.7630, 35804.00
502.9460, 37053.00
504.1280, 37604.00
505.3090, 39040.00
506.4910, 40312.00
507.6720, 42174.00
508.8540, 45113.00
510.0350, 47600.00
511.2160, 51095.00
512.3960, 54416.00
513.5770, 57080.00
514.7570, 57211.00
515.9380, 55731.00
517.1180, 52514.00
518.2970, 48471.00
519.4770, 45433.00
520.6570, 42709.00
521.8360, 40738.00
523.0150, 39183.00
524.1940, 38108.00
525.3730, 37309.00
526.5510, 36877.00
527.7300, 36264.00
528.9080, 35845.00
530.0860, 35907.00
531.2640, 35578.00
532.4420, 35335.00
533.6200, 35405.00
534.7970, 35205.00
535.9740, 35087.00
537.1510, 35290.00
538.3280, 34512.00
539.5050, 34831.00
540.6810, 34725.00
541.8580, 34911.00
543.0340, 34704.00
544.2100, 34634.00
545.3860, 34800.00
546.5610, 34829.00
547.7370, 34841.00
548.9120, 34718.00
550.0870, 34810.00
551.2620, 34478.00
552.4370, 34805.00
553.6120, 34613.00
554.7860, 34700.00
555.9600, 34933.00
557.1340, 34730.00
558.3080, 34806.00
559.4820, 34779.00
560.6560, 35006.00
561.8290, 34961.00
563.0020, 34864.00
564.1750, 34771.00
565.3480, 34880.00
566.5210, 34875.00
567.6930, 35079.00
568.8660, 34874.00
570.0380, 35054.00
571.2100, 35291.00
572.3820, 35124.00
573.5530, 35283.00
574.7250, 35212.00
575.8960, 35123.00
577.0670, 35377.00
578.2380, 35525.00
579.4090, 35417.00
580.5800, 35422.00
581.7500, 36107.00
582.9210, 35777.56
584.0910, 36323.00
585.2610, 35613.00
586.4300, 35715.00
587.6000, 35649.00
588.7690, 35612.00
589.9390, 35632.00
591.1080, 35629.00
592.2770, 35643.00
593.4450, 35632.00
594.6140, 35734.00
595.7820, 35669.00
596.9500, 35563.00
598.1190, 35805.00
599.2860, 35606.00
600.4540, 35672.00
601.6220, 35816.00
602.7890, 35873.00
603.9560, 35991.00
605.1230, 35783.00
606.2900, 36025.00
607.4570, 35754.00
608.6230, 36004.00
609.7890, 36059.00
610.9560, 36196.00
612.1220, 36174.00
613.2870, 36028.00
614.4530, 36399.00
615.6180, 35982.00
616.7840, 36306.00
617.9490, 36131.00
619.1140, 36356.00
620.2790, 36456.00
621.4430, 36303.00
622.6080, 36488.00
623.7720, 36623.00
624.9360, 36506.00
626.1000, 36686.00
627.2640, 37014.00
628.4270, 36728.00
629.5910, 36831.00
630.7540, 36691.00
631.9170, 36675.00
633.0800, 36771.42
634.2430, 37097.00
635.4050, 36970.00
636.5680, 37230.00
637.7300, 37378.00
638.8920, 37494.00
640.0540, 37370.00
641.2150, 37677.00
642.3770, 37588.00
643.5380, 37739.00
644.7000, 37636.00
645.8610, 38049.00
647.0210, 37945.00
648.1820, 37800.00
649.3430, 38417.00
650.5030, 38652.00
651.6630, 38357.00
652.8230, 38379.00
653.9830, 38820.00
655.1430, 38537.00
656.3020, 38623.00
657.4620, 38503.00
658.6210, 38309.00
659.7800, 38121.00
660.9390, 38131.00
662.0970, 38258.00
663.2560, 38037.00
664.4140, 38049.00
665.5720, 37942.00
666.7300, 38078.00
667.8880, 37869.00
669.0460, 38035.00
670.2030, 37948.00
671.3600, 37893.00
672.5180, 37996.00
673.6740, 37855.00
674.8310, 38098.00
675.9880, 37989.00
677.1440, 37887.00
678.3010, 37853.00
679.4570, 37918.00
680.6130, 38268.00
681.7690, 37996.00
682.9240, 38129.00
684.0800, 38186.00
685.2350, 37936.00
686.3900, 38341.00
687.5450, 38419.00
688.7000, 38220.00
689.8540, 38241.00
691.0090, 38263.00
692.1630, 38287.00
693.3170, 38436.00
694.4710, 38229.00
695.6250, 38176.00
696.7780, 38315.00
697.9320, 38348.00
699.0850, 38393.98
700.2380, 38527.00
701.3910, 38487.00
702.5440, 38534.00
703.6970, 38526.00
704.8490, 38646.00
706.0010, 38760.00
707.1530, 38807.00
708.3050, 38844.00
709.4570, 38768.00
710.6090, 38949.00
711.7600, 39186.00
712.9110, 38904.00
714.0620, 38934.00
715.2130, 39229.00
716.3640, 39056.00
717.5150, 39215.00
718.6650, 38876.00
719.8150, 39155.00
720.9650, 39011.00
722.1150, 39074.00
723.2650, 38983.00
724.4150, 39282.00
725.5640, 39448.00
726.7130, 39328.00
727.8630, 39400.00
729.0110, 39617.00
730.1600, 39355.00
731.3090, 39605.00
732.4570, 39740.00
733.6060, 39911.00
734.7540, 39801.00
735.9020, 39878.00
737.0490, 40067.00
738.1970, 40156.00
739.3440, 40558.00
740.4920, 40722.00
741.6390, 41003.00
742.7860, 41185.00
743.9320, 41581.00
745.0790, 41915.00
746.2250, 42286.00
747.3720, 42940.00
748.5180, 43406.00
749.6640, 43576.00
750.8100, 43384.00
751.9550, 43227.00
753.1010, 42644.00
754.2460, 42416.00
755.3910, 42047.00
756.5360, 41703.00
757.6810, 41497.02
758.8250, 41064.00
759.9700, 41062.00
761.1140, 40930.00
762.2580, 40744.00
763.4020, 40927.00
764.5460, 40912.00
765.6900, 40916.00
766.8330, 40927.00
767.9760, 40972.00
769.1200, 40677.00
770.2620, 41022.00
771.4050, 40632.00
772.5480, 40878.00
773.6900, 40784.00
774.8330, 40807.00
775.9750, 40801.00
777.1170, 40656.00
778.2590, 40831.00
779.4000, 40849.00
780.5420, 40586.00
781.6830, 40816.00
782.8240, 41008.00
783.9650, 40729.00
785.1060, 41182.00
786.2470, 41068.00
787.3870, 41095.00
788.5280, 41076.00
789.6680, 41231.00
790.8080, 41316.00
791.9480, 41303.00
793.0870, 41216.00
794.2270, 41294.00
795.3660, 41506.00
796.5060, 41452.00
797.6450, 41593.00
798.7830, 41605.00
799.9220, 41476.00
801.0610, 41742.00
802.1990, 41955.00
803.3370, 42021.00
804.4750, 41999.00
805.6130, 42313.00
806.7510, 42395.00
807.8890, 42965.00
809.0260, 43098.00
810.1630, 43439.00
811.3000, 43900.00
812.4370, 44060.00
813.5740, 44105.00
814.7110, 44432.00
815.8470, 43969.00
816.9830, 43836.00
818.1190, 43326.00
819.2550, 42654.00
820.3910, 42519.00
821.5270, 42571.00
822.6620, 42325.00
823.7970, 42349.00
824.9330, 42333.00
826.0670, 42320.00
827.2020, 42166.00
828.3370, 42187.00
829.4710, 42204.00
830.6060, 42389.00
831.7400, 42350.52
832.8740, 42330.00
834.0080, 42434.00
835.1410, 42452.00
836.2750, 42607.00
837.4080, 42273.00
838.5410, 42651.00
839.6740, 42530.00
840.8070, 42574.00
841.9400, 42771.00
843.0730, 42774.00
844.2050, 42519.00
845.3370, 42927.00
846.4690, 42639.00
847.6010, 42607.00
848.7330, 42970.00
849.8640, 42750.00
850.9960, 42819.00
852.1270, 42805.00
853.2580, 42800.00
854.3890, 42724.00
855.5200, 42639.00
856.6500, 42989.00
857.7810, 43000.00
858.9110, 43158.00
860.0410, 42986.00
861.1710, 43154.00
862.3010, 43255.00
863.4310, 43114.00
864.5600, 43345.00
865.6900, 43257.00
866.8190, 43235.00
867.9480, 43362.00
869.0770, 43415.00
870.2050, 43523.00
871.3340, 43245.00
872.4620, 43270.00
873.5900, 43736.00
874.7180, 43433.00
875.8460, 43407.00
876.9740, 43797.00
878.1010, 43585.00
879.2290, 43789.00
880.3560, 44016.00
881.4830, 43840.00
882.6100, 43996.77
883.7370, 43847.00
884.8630, 43974.00
885.9900, 43942.00
887.1160, 43851.00
888.2420, 43988.00
889.3680, 43770.00
890.4940, 44127.00
891.6200, 43927.00
892.7450, 44530.00
893.8700, 44026.00
894.9960, 44398.00
896.1210, 44257.00
897.2460, 44039.00
898.3700, 44276.00
899.4950, 44247.00
900.6190, 44067.00
901.7430, 44277.00
902.8670, 44303.00
903.9910, 44588.00
905.1150, 44124.00
906.2390, 44496.00
907.3620, 44558.00
908.4850, 44538.00
909.6080, 44756.00
910.7310, 44542.00
911.8540, 44656.00
912.9770, 44719.00
914.0990, 44796.00
915.2210, 44817.00
916.3440, 44889.56
917.4660, 44952.75
918.5870, 45019.00
919.7090, 45025.00
920.8310, 45123.00
921.9520, 45021.00
923.0730, 45445.00
924.1940, 45070.00
925.3150, 45421.00
926.4360, 45370.00
927.5560, 45509.00
928.6770, 45598.27
929.7970, 45245.00
930.9170, 45568.00
932.0370, 45429.00
933.1570, 45148.00
934.2760, 45325.00
935.3960, 45534.00
936.5150, 45390.00
937.6340, 45538.00
938.7530, 45718.00
939.8720, 45726.00
940.9910, 45762.59
942.1090, 45899.00
943.2280, 45848.95
944.3460, 45873.16
945.4640, 45784.00
946.5820, 45857.00
947.6990, 45755.00
948.8170, 45816.00
949.9340, 46289.00
951.0520, 46233.00
952.1690, 46335.00
953.2860, 46107.00
954.4030, 46261.00
955.5190, 46262.00
956.6360, 46176.00
957.7520, 46112.00
958.8680, 46367.00
959.9840, 46206.00
961.1000, 46461.00
962.2160, 46452.00
963.3310, 46450.00
964.4470, 46655.00
965.5620, 46800.00
966.6770, 46618.00
967.7920, 46823.00
968.9060, 46839.00
970.0210, 46820.00
971.1360, 46829.00
972.2500, 46783.00
973.3640, 46802.00
974.4780, 47013.00
975.5920, 46958.00
976.7050, 47157.00
977.8190, 47114.00
978.9320, 47302.00
980.0450, 47274.00
981.1580, 47346.00
982.2710, 47108.00
983.3840, 47474.00
984.4970, 47259.00
985.6090, 47696.00
986.7210, 47876.00
987.8330, 47825.00
988.9450, 48030.00
990.0570, 48048.00
991.1690, 48438.00
992.2800, 48807.00
993.3920, 48993.00
994.5030, 48957.00
995.6140, 49127.00
996.7250, 49223.00
997.8350, 48798.00
998.9460, 48716.00
1000.056, 48761.00
1001.167, 48755.00
1002.277, 48650.00
1003.387, 48672.00
1004.496, 48734.00
1005.606, 48674.00
1006.715, 48397.00
1007.825, 48513.00
1008.934, 48396.00
1010.043, 48595.00
1011.152, 48429.00
1012.260, 48492.00
1013.369, 48592.00
1014.477, 48497.00
1015.586, 48703.00
1016.694, 48507.00
1017.802, 48351.00
1018.909, 48813.00
1020.017, 48644.00
1021.124, 48607.00
1022.232, 48626.00
1023.339, 48889.00
1024.446, 48651.00
1025.553, 48856.00
1026.659, 48865.00
1027.766, 48903.00
1028.872, 49228.00
1029.979, 49135.00
1031.085, 49177.00
1032.191, 49125.00
1033.296, 49084.00
1034.402, 49252.00
1035.507, 49286.00
1036.613, 49210.00
1037.718, 49191.00
1038.823, 49379.00
1039.928, 49450.00
1041.032, 49352.00
1042.137, 49590.00
1043.241, 49391.00
1044.346, 49812.00
1045.450, 49288.00
1046.554, 49478.00
1047.657, 49820.00
1048.761, 49716.00
1049.864, 49694.00
1050.968, 49758.00
1052.071, 49733.13
1053.174, 50004.00
1054.277, 49768.00
1055.379, 50054.00
1056.482, 50022.00
1057.584, 50310.00
1058.687, 49610.00
1059.789, 50000.00
1060.891, 49770.00
1061.992, 49877.00
1063.094, 49831.00
1064.196, 49863.00
1065.297, 49867.00
1066.398, 49840.00
1067.499, 49879.54
1068.600, 49921.84
1069.701, 50002.00
1070.801, 50039.00
1071.902, 50264.00
1073.002, 50307.00
1074.102, 50211.00
1075.202, 50261.00
1076.302, 50048.00
1077.402, 50223.00
1078.501, 50401.00
1079.600, 50259.00
1080.700, 50481.00
1081.799, 50516.00
1082.898, 50639.00
1083.996, 50801.00
1085.095, 50741.00
1086.193, 50719.00
1087.292, 50593.00
1088.390, 50970.00
1089.488, 50908.00
1090.586, 50969.00
1091.683, 51039.00
1092.781, 50936.00
1093.878, 51114.00
1094.975, 51683.00
1096.073, 51204.00
1097.169, 51605.00
1098.266, 52249.00
1099.363, 52302.00
1100.459, 51840.00
1101.556, 52161.00
1102.652, 51827.00
1103.748, 51395.00
1104.844, 51847.00
1105.940, 51789.00
1107.035, 51960.00
1108.131, 51951.00
1109.226, 51856.00
1110.321, 51936.00
1111.416, 52352.00
1112.511, 52510.00
1113.605, 52187.00
1114.700, 52845.00
1115.794, 52936.00
1116.889, 53359.00
1117.983, 53772.00
1119.077, 54349.00
1120.170, 54641.00
1121.264, 55000.00
1122.357, 55607.00
1123.451, 55616.00
1124.544, 55832.00
1125.637, 55464.00
1126.730, 55318.00
1127.823, 54869.00
1128.915, 54620.00
1130.008, 54464.49
1131.100, 54225.00
1132.192, 54237.00
1133.284, 54157.00
1134.376, 54184.00
1135.467, 54307.00
1136.559, 54460.00
1137.650, 54761.00
1138.742, 54566.00
1139.833, 54475.00
1140.924, 54185.00
1142.014, 54090.00
1143.105, 54166.00
1144.195, 53747.00
1145.286, 53639.00
1146.376, 53694.00
1147.466, 53467.00
1148.556, 53209.00
1149.646, 53107.00
1150.735, 52998.50
1151.825, 53232.00
1152.914, 53006.00
1154.003, 52960.00
1155.092, 53160.00
1156.181, 52949.00
1157.270, 53078.00
1158.358, 53048.00
1159.447, 53222.00
1160.535, 53188.00
1161.623, 53271.00
1162.711, 53181.00
1163.799, 53309.00
1164.886, 53369.00
1165.974, 53298.13
1167.061, 53290.00
1168.148, 53274.00
1169.235, 53344.00
1170.322, 53498.00
1171.409, 53374.00
1172.496, 53410.00
1173.582, 53690.00
1174.669, 53371.00
1175.755, 53733.00
1176.841, 53588.00
1177.927, 53558.00
1179.012, 53443.00
1180.098, 53601.00
1181.183, 53956.00
1182.269, 53643.00
1183.354, 53861.00
1184.439, 53992.00
1185.524, 53610.00
1186.608, 54018.00
1187.693, 53895.00
1188.777, 54050.00
1189.862, 54051.00
1190.946, 53967.00
1192.030, 54213.00
1193.113, 53973.00
1194.197, 54060.00
1195.281, 54131.00
1196.364, 53954.00
1197.447, 54167.00
1198.530, 54112.00
1199.613, 54326.00
1200.696, 54127.00
1201.779, 54487.00
1202.861, 54459.00
1203.944, 54262.00
1205.026, 54473.00
1206.108, 54705.00
1207.190, 54339.00
1208.271, 54576.76
1209.353, 54812.00
1210.435, 54635.00
1211.516, 54575.00
1212.597, 54618.00
1213.678, 54692.00
1214.759, 54762.00
1215.840, 54928.00
1216.920, 55138.00
1218.001, 54972.00
1219.081, 55070.00
1220.161, 54762.00
1221.241, 54988.00
1222.321, 55102.00
1223.401, 55353.00
1224.480, 55019.00
1225.560, 55391.00
1226.639, 55334.00
1227.718, 55039.00
1228.797, 55462.00
1229.876, 55270.00
1230.955, 55240.00
1232.033, 55340.00
1233.112, 55254.00
1234.190, 55428.00
1235.268, 55315.00
1236.346, 55370.00
1237.424, 55287.00
1238.501, 55581.00
1239.579, 55478.00
1240.656, 55511.00
1241.733, 55619.00
1242.811, 55456.00
1243.888, 55575.00
1244.964, 55278.00
1246.041, 55582.00
1247.117, 55725.00
1248.194, 55484.00
1249.270, 55381.00
1250.346, 55550.00
1251.422, 55836.00
1252.498, 55671.00
1253.573, 55732.00
1254.649, 56013.00
1255.724, 55909.00
1256.800, 56297.00
1257.875, 55936.00
1258.950, 56022.00
1260.024, 56118.00
1261.099, 55888.00
1262.173, 56209.00
1263.248, 56234.00
1264.322, 56464.00
1265.396, 55914.00
1266.470, 56412.00
1267.544, 56164.00
1268.617, 56399.00
1269.691, 56356.00
1270.764, 56444.00
1271.837, 56590.00
1272.910, 56581.00
1273.983, 56533.00
1275.056, 56584.00
1276.129, 56511.00
1277.201, 56572.00
1278.273, 56456.00
1279.346, 56790.00
1280.418, 56779.00
1281.489, 56933.00
1282.561, 56647.00
1283.633, 56907.00
1284.704, 57054.00
1285.776, 56850.00
1286.847, 56972.00
1287.918, 57195.00
1288.989, 57157.00
1290.059, 56889.00
1291.130, 57077.00
1292.200, 57313.00
1293.271, 57113.00
1294.341, 57347.00
1295.411, 57236.00
1296.481, 57323.00
1297.551, 57352.00
1298.620, 57300.00
1299.690, 57372.00
1300.759, 57667.00
1301.828, 57552.00
1302.897, 57474.00
1303.966, 57929.00
1305.035, 57730.00
1306.103, 57449.00
1307.172, 57726.00
1308.240, 57739.00
1309.308, 57716.00
1310.376, 57829.00
1311.444, 58154.00
1312.512, 57911.00
