##NAMES=Microcline
##RRUFFID=R050150
##IDEAL CHEMISTRY=KAlSi_3_O_8_
##LOCALITY=Crystal Peak area, Park/Teller Counties, Colorado, USA
##OWNER=RRUFF
##SOURCE=Dave Bunk Minerals
##DESCRIPTION=Pale blue prismatic crystals
##STATUS=The identification of this mineral has been confirmed by X-ray diffraction and chemical analysis
##URL=rruff.info/R050150
##MEASURED CHEMISTRY=(K_0.95_Na_0.05_)_Î£=1_Al_1.00_Si_3.00_O_8_
##PIN_ID=L00915
##ORIENTATION=Laser parallel to (1 1 0). Fiducial mark perpendicular to laser is parallel to c [0 0 1]
137.6830, 19998.00
138.9210, 20109.00
140.1580, 20404.05
141.3950, 20716.86
142.6330, 21077.00
143.8690, 21466.00
145.1060, 21955.00
146.3430, 22430.00
147.5790, 23055.00
148.8150, 24015.00
150.0510, 24046.00
151.2870, 24360.00
152.5220, 24437.00
153.7580, 24060.00
154.9930, 24211.00
156.2280, 23957.00
157.4620, 23732.00
158.6970, 23758.00
159.9310, 23395.00
161.1660, 22965.00
162.4000, 22388.00
163.6330, 22053.00
164.8670, 21805.00
166.1000, 21672.00
167.3340, 21664.00
168.5670, 21766.00
169.8000, 21992.00
171.0320, 22216.00
172.2650, 22445.82
173.4970, 22356.00
174.7290, 23141.00
175.9610, 23341.00
177.1930, 24011.00
178.4240, 24215.00
179.6550, 24248.00
180.8870, 24209.00
182.1170, 23457.00
183.3480, 23104.00
184.5790, 22844.00
185.8090, 22179.00
187.0390, 22127.00
188.2690, 22155.00
189.4990, 22194.00
190.7290, 22334.00
191.9580, 22162.00
193.1870, 22364.00
194.4160, 22434.00
195.6450, 22871.00
196.8740, 23175.00
198.1020, 23430.00
199.3310, 23453.00
200.5590, 23256.00
201.7870, 23335.00
203.0140, 22806.00
204.2420, 22680.00
205.4690, 22697.00
206.6960, 22313.00
207.9230, 22137.00
209.1500, 22110.00
210.3760, 22117.00
211.6030, 22092.00
212.8290, 21973.00
214.0550, 22130.00
215.2810, 22064.00
216.5060, 22186.00
217.7320, 22552.00
218.9570, 22517.00
220.1820, 21997.00
221.4070, 22284.00
222.6320, 22010.00
223.8560, 22364.00
225.0800, 22382.00
226.3040, 22312.00
227.5280, 22407.00
228.7520, 22395.00
229.9760, 22296.00
231.1990, 22437.00
232.4220, 22559.00
233.6450, 22387.00
234.8680, 22447.00
236.0910, 22526.00
237.3130, 22686.00
238.5350, 22669.00
239.7570, 22725.00
240.9790, 22706.00
242.2010, 22917.00
243.4220, 22917.00
244.6430, 22850.00
245.8640, 23373.00
247.0850, 23237.00
248.3060, 23489.00
249.5270, 23833.00
250.7470, 23722.00
251.9670, 24015.00
253.1870, 24401.00
254.4070, 25099.00
255.6260, 25627.00
256.8460, 26240.00
258.0650, 26859.00
259.2840, 27191.00
260.5030, 27376.00
261.7220, 27786.09
262.9400, 27796.00
264.1580, 28271.00
265.3760, 28638.00
266.5940, 28771.00
267.8120, 28398.00
269.0290, 27874.00
270.2470, 27140.00
271.4640, 26835.00
272.6810, 26424.00
273.8980, 26281.00
275.1140, 26227.00
276.3310, 26167.00
277.5470, 26561.00
278.7630, 27010.00
279.9790, 27440.00
281.1940, 28200.00
282.4100, 29106.00
283.6250, 29878.00
284.8400, 30455.00
286.0550, 30440.98
287.2700, 30706.00
288.4850, 29653.00
289.6990, 28818.00
290.9130, 27672.00
292.1270, 26916.00
293.3410, 26185.00
294.5540, 25871.00
295.7680, 25627.00
296.9810, 25396.00
298.1940, 25121.00
299.4070, 25028.00
300.6200, 24990.00
301.8320, 24831.00
303.0450, 24763.00
304.2570, 24741.00
305.4690, 24630.00
306.6800, 24589.00
307.8920, 24505.00
309.1030, 24644.00
310.3150, 24456.00
311.5260, 24563.00
312.7360, 24395.00
313.9470, 24534.00
315.1580, 24565.00
316.3680, 24623.00
317.5780, 24693.00
318.7880, 24823.00
319.9980, 24718.00
321.2070, 24846.00
322.4170, 24884.40
323.6260, 25035.00
324.8350, 25028.00
326.0430, 25160.00
327.2520, 25269.00
328.4610, 25371.00
329.6690, 25646.00
330.8770, 25896.00
332.0850, 25792.00
333.2920, 25890.00
334.5000, 25666.00
335.7070, 25312.00
336.9140, 25575.00
338.1210, 25337.00
339.3280, 25117.00
340.5350, 25381.00
341.7410, 25303.00
342.9470, 25268.00
344.1540, 25637.00
345.3590, 25518.00
346.5650, 25433.00
347.7710, 25654.00
348.9760, 25530.00
350.1810, 25610.00
351.3860, 25464.00
352.5910, 25777.00
353.7950, 25803.00
355.0000, 25844.00
356.2040, 25947.00
357.4080, 25946.00
358.6120, 25931.00
359.8150, 25969.00
361.0190, 26123.00
362.2220, 26225.00
363.4250, 26092.00
364.6280, 26324.00
365.8310, 26592.00
367.0340, 26592.00
368.2360, 26927.00
369.4380, 27130.00
370.6400, 27716.00
371.8420, 28119.00
373.0440, 28656.00
374.2450, 28325.00
375.4470, 27992.00
376.6480, 27439.00
377.8490, 26965.00
379.0490, 26893.00
380.2500, 26670.00
381.4500, 26487.00
382.6510, 26207.00
383.8510, 26479.00
385.0500, 26443.00
386.2500, 26298.00
387.4500, 26340.00
388.6490, 26451.00
389.8480, 26441.00
391.0470, 26381.00
392.2460, 26548.00
393.4440, 26890.00
394.6430, 26694.00
395.8410, 26965.00
397.0390, 27108.00
398.2370, 27127.00
399.4340, 27441.00
400.6320, 27578.00
401.8290, 28043.00
403.0260, 28036.00
404.2230, 28083.00
405.4200, 28028.00
406.6170, 27898.00
407.8130, 27904.96
409.0090, 27847.53
410.2050, 27802.00
411.4010, 27778.00
412.5970, 27709.00
413.7920, 27618.00
414.9880, 27526.70
416.1830, 27359.00
417.3780, 27276.00
418.5730, 27135.00
419.7670, 27097.78
420.9620, 27041.93
422.1560, 27072.00
423.3500, 27049.00
424.5440, 27086.60
425.7380, 27222.00
426.9310, 27111.00
428.1240, 27229.00
429.3180, 27186.00
430.5110, 27379.00
431.7030, 27368.00
432.8960, 27594.00
434.0890, 27515.00
435.2810, 27621.00
436.4730, 27583.00
437.6650, 27629.00
438.8570, 27822.00
440.0480, 27856.00
441.2390, 28375.00
442.4310, 28444.00
443.6220, 28913.00
444.8120, 29054.00
446.0030, 29572.00
447.1940, 30217.00
448.3840, 30690.00
449.5740, 31614.00
450.7640, 32657.00
451.9540, 34149.00
453.1430, 35230.00
454.3330, 35329.00
455.5220, 35389.00
456.7110, 34498.00
457.9000, 33734.00
459.0890, 32996.00
460.2770, 32174.00
461.4650, 31667.00
462.6540, 31809.00
463.8420, 31855.00
465.0290, 32229.00
466.2170, 32695.00
467.4050, 33672.00
468.5920, 34269.00
469.7790, 35642.00
470.9660, 37041.00
472.1530, 39257.00
473.3390, 41586.00
474.5250, 43943.00
475.7120, 45449.00
476.8980, 45074.00
478.0840, 43707.00
479.2690, 41166.00
480.4550, 38911.00
481.6400, 37361.00
482.8250, 36006.00
484.0100, 35235.00
485.1950, 34637.00
486.3800, 33351.00
487.5640, 32762.00
488.7480, 31912.00
489.9320, 31532.00
491.1160, 31274.00
492.3000, 30835.00
493.4840, 30714.00
494.6670, 30863.00
495.8500, 30798.00
497.0330, 31001.00
498.2160, 31220.00
499.3990, 31573.00
500.5810, 32142.00
501.7630, 32922.00
502.9460, 33810.00
504.1280, 35376.00
505.3090, 37245.00
506.4910, 39422.00
507.6720, 41952.00
508.8540, 44777.00
510.0350, 48397.00
511.2160, 52863.00
512.3960, 56636.00
513.5770, 59141.00
514.7570, 58461.00
515.9380, 55279.00
517.1180, 51163.00
518.2970, 46279.00
519.4770, 42644.00
520.6570, 39621.00
521.8360, 37796.00
523.0150, 36180.00
524.1940, 34848.00
525.3730, 33704.00
526.5510, 33024.00
527.7300, 32397.00
528.9080, 32196.00
530.0860, 31787.00
531.2640, 31471.00
532.4420, 31181.00
533.6200, 31274.00
534.7970, 30927.00
535.9740, 31119.00
537.1510, 30826.00
538.3280, 30701.00
539.5050, 30531.00
540.6810, 30515.00
541.8580, 30528.00
543.0340, 30678.00
544.2100, 30690.00
545.3860, 30503.00
546.5610, 30599.00
547.7370, 30573.00
548.9120, 30564.00
550.0870, 30631.00
551.2620, 30569.00
552.4370, 30641.00
553.6120, 30637.00
554.7860, 30591.00
555.9600, 30592.00
557.1340, 30553.00
558.3080, 30662.00
559.4820, 30667.00
560.6560, 30583.00
561.8290, 30536.00
563.0020, 30648.00
564.1750, 30711.00
565.3480, 30700.00
566.5210, 30757.24
567.6930, 30868.00
568.8660, 30772.00
570.0380, 30771.00
571.2100, 30754.00
572.3820, 30860.00
573.5530, 31046.00
574.7250, 31073.00
575.8960, 31201.00
577.0670, 31300.52
578.2380, 31306.51
579.4090, 31429.00
580.5800, 31395.00
581.7500, 31325.00
582.9210, 31493.00
584.0910, 31525.00
585.2610, 31470.00
586.4300, 31513.00
587.6000, 31412.00
588.7690, 31445.14
589.9390, 31172.00
591.1080, 31392.00
592.2770, 31210.00
593.4450, 31005.00
594.6140, 31309.00
595.7820, 31198.00
596.9500, 31103.00
598.1190, 31070.00
599.2860, 31258.00
600.4540, 31248.00
601.6220, 31428.00
602.7890, 31304.00
603.9560, 31486.00
605.1230, 31419.00
606.2900, 31425.00
607.4570, 31261.00
608.6230, 31867.00
609.7890, 31501.00
610.9560, 31713.00
612.1220, 31647.00
613.2870, 31599.00
614.4530, 31545.00
615.6180, 31703.00
616.7840, 31657.00
617.9490, 31776.00
619.1140, 31966.00
620.2790, 31886.00
621.4430, 31916.00
622.6080, 31980.00
623.7720, 32001.00
624.9360, 32122.00
626.1000, 32150.00
627.2640, 32064.00
628.4270, 32246.00
629.5910, 32212.00
630.7540, 32214.00
631.9170, 32334.00
633.0800, 32396.00
634.2430, 32448.00
635.4050, 32560.00
636.5680, 32541.00
637.7300, 32755.00
638.8920, 32867.00
640.0540, 32975.27
641.2150, 33018.00
642.3770, 33098.00
643.5380, 33223.00
644.7000, 33346.00
645.8610, 33369.00
647.0210, 33523.00
648.1820, 33498.00
649.3430, 34150.00
650.5030, 33942.00
651.6630, 34135.00
652.8230, 34204.00
653.9830, 33931.00
655.1430, 34145.00
656.3020, 34045.00
657.4620, 34050.00
658.6210, 34021.13
659.7800, 33534.00
660.9390, 33747.00
662.0970, 33486.00
663.2560, 33114.00
664.4140, 33395.00
665.5720, 33502.00
666.7300, 33086.00
667.8880, 33116.00
669.0460, 33015.00
670.2030, 33182.00
671.3600, 33310.00
672.5180, 33222.00
673.6740, 33077.00
674.8310, 33384.00
675.9880, 33246.00
677.1440, 33325.00
678.3010, 33239.00
679.4570, 33147.00
680.6130, 33481.00
681.7690, 33203.00
682.9240, 33124.00
684.0800, 33483.00
685.2350, 33543.00
686.3900, 33509.00
687.5450, 33455.00
688.7000, 33356.00
689.8540, 33305.00
691.0090, 33573.00
692.1630, 33417.00
693.3170, 33677.00
694.4710, 33681.00
695.6250, 33529.00
696.7780, 33617.00
697.9320, 33525.00
699.0850, 33478.00
700.2380, 33579.00
701.3910, 33563.73
702.5440, 33632.60
703.6970, 33702.00
704.8490, 33790.00
706.0010, 33907.00
707.1530, 34022.00
708.3050, 33920.00
709.4570, 33926.00
710.6090, 34140.00
711.7600, 34187.00
712.9110, 34438.00
714.0620, 34273.00
715.2130, 34164.00
716.3640, 34338.00
717.5150, 34310.00
718.6650, 34061.00
719.8150, 34376.00
720.9650, 34158.00
722.1150, 34390.00
723.2650, 34458.00
724.4150, 34568.00
725.5640, 34253.00
726.7130, 34389.00
727.8630, 34330.00
729.0110, 34462.00
730.1600, 34746.00
731.3090, 34744.00
732.4570, 34564.00
733.6060, 34746.00
734.7540, 34948.00
735.9020, 35134.00
737.0490, 35271.00
738.1970, 35129.00
739.3440, 35567.00
740.4920, 35649.00
741.6390, 35956.00
742.7860, 36237.00
743.9320, 36575.00
745.0790, 36833.00
746.2250, 37311.00
747.3720, 37846.00
748.5180, 38216.00
749.6640, 38181.00
750.8100, 37949.00
751.9550, 37977.00
753.1010, 37296.00
754.2460, 36919.00
755.3910, 36623.00
756.5360, 36374.00
757.6810, 36195.00
758.8250, 36223.00
759.9700, 35919.00
761.1140, 35741.00
762.2580, 36029.00
763.4020, 35871.00
764.5460, 35619.00
765.6900, 35813.00
766.8330, 36122.00
767.9760, 35612.00
769.1200, 35889.00
770.2620, 35677.00
771.4050, 35950.00
772.5480, 35636.00
773.6900, 35549.00
774.8330, 35775.00
775.9750, 35757.00
777.1170, 35505.00
778.2590, 35688.00
779.4000, 35860.00
780.5420, 35759.00
781.6830, 35857.00
782.8240, 35747.00
783.9650, 35669.00
785.1060, 35662.00
786.2470, 35918.00
787.3870, 35743.00
788.5280, 35998.00
789.6680, 35905.00
790.8080, 35943.00
791.9480, 35922.00
793.0870, 36070.00
794.2270, 36054.00
795.3660, 36345.00
796.5060, 36261.00
797.6450, 36413.00
798.7830, 36448.40
799.9220, 36320.00
801.0610, 36493.00
802.1990, 36616.00
803.3370, 36688.00
804.4750, 36710.00
805.6130, 37063.00
806.7510, 37140.00
807.8890, 37370.00
809.0260, 37789.00
810.1630, 38084.00
811.3000, 38359.00
812.4370, 38530.00
813.5740, 38580.00
814.7110, 38512.00
815.8470, 38356.00
816.9830, 38096.00
818.1190, 37780.00
819.2550, 37212.00
820.3910, 37276.00
821.5270, 36982.00
822.6620, 37019.00
823.7970, 36923.00
824.9330, 36917.00
826.0670, 37012.00
827.2020, 36915.00
828.3370, 37014.00
829.4710, 36692.00
830.6060, 36978.00
831.7400, 37065.00
832.8740, 36977.00
834.0080, 37187.00
835.1410, 37081.00
836.2750, 36981.00
837.4080, 37183.00
838.5410, 37392.00
839.6740, 37299.00
840.8070, 37283.00
841.9400, 37282.00
843.0730, 37286.00
844.2050, 37352.00
845.3370, 37245.00
846.4690, 37259.00
847.6010, 37466.00
848.7330, 37356.00
849.8640, 37469.66
850.9960, 37645.00
852.1270, 37559.00
853.2580, 37577.00
854.3890, 37601.00
855.5200, 37545.00
856.6500, 37384.00
857.7810, 37613.00
858.9110, 37566.00
860.0410, 37646.00
861.1710, 37848.00
862.3010, 37885.00
863.4310, 37961.17
864.5600, 37701.00
865.6900, 38050.00
866.8190, 37807.00
867.9480, 37847.00
869.0770, 37850.00
870.2050, 37935.00
871.3340, 38050.00
872.4620, 37934.00
873.5900, 37928.00
874.7180, 38065.00
875.8460, 38260.00
876.9740, 38193.00
878.1010, 38407.00
879.2290, 38219.00
880.3560, 38225.00
881.4830, 38258.00
882.6100, 38071.00
883.7370, 38383.00
884.8630, 38265.00
885.9900, 38305.00
887.1160, 38255.00
888.2420, 38335.00
889.3680, 38422.00
890.4940, 38448.00
891.6200, 38425.00
892.7450, 38598.00
893.8700, 38631.00
894.9960, 38341.00
896.1210, 38804.00
897.2460, 38466.00
898.3700, 38767.00
899.4950, 38551.00
900.6190, 38742.00
901.7430, 38818.00
902.8670, 38650.00
903.9910, 38880.00
905.1150, 38929.00
906.2390, 38920.00
907.3620, 38912.00
908.4850, 38918.00
909.6080, 38959.00
910.7310, 39136.00
911.8540, 38944.00
912.9770, 39092.00
914.0990, 38994.00
915.2210, 39093.00
916.3440, 39109.00
917.4660, 39469.00
918.5870, 38954.00
919.7090, 39459.00
920.8310, 39474.00
921.9520, 39303.00
923.0730, 39389.00
924.1940, 39405.00
925.3150, 39653.00
926.4360, 39632.00
927.5560, 39471.00
928.6770, 39739.00
929.7970, 39904.00
930.9170, 39424.00
932.0370, 39710.00
933.1570, 39863.00
934.2760, 40080.00
935.3960, 39947.00
936.5150, 39925.00
937.6340, 39709.00
938.7530, 39935.00
939.8720, 40088.00
940.9910, 40062.00
942.1090, 40040.00
943.2280, 39862.00
944.3460, 39948.00
945.4640, 40018.00
946.5820, 40107.00
947.6990, 40143.85
948.8170, 40157.00
949.9340, 40170.00
951.0520, 40218.00
952.1690, 40141.00
953.2860, 40624.00
954.4030, 40175.00
955.5190, 40520.00
956.6360, 40501.00
957.7520, 40165.00
958.8680, 40414.00
959.9840, 40440.00
961.1000, 40229.00
962.2160, 40570.00
963.3310, 40763.00
964.4470, 40901.00
965.5620, 40713.00
966.6770, 40491.00
967.7920, 40586.00
968.9060, 40797.00
970.0210, 40870.00
971.1360, 41118.00
972.2500, 40996.00
973.3640, 41034.00
974.4780, 41226.00
975.5920, 41203.00
976.7050, 41110.00
977.8190, 41307.00
978.9320, 41151.00
980.0450, 41317.00
981.1580, 41004.00
982.2710, 41462.00
983.3840, 41362.00
984.4970, 41740.00
985.6090, 41689.00
986.7210, 41749.00
987.8330, 41993.00
988.9450, 42192.00
990.0570, 42259.00
991.1690, 42354.00
992.2800, 42572.00
993.3920, 42766.00
994.5030, 42692.00
995.6140, 42767.81
996.7250, 42588.00
997.8350, 42649.00
998.9460, 42526.00
1000.056, 42404.00
1001.167, 42537.00
1002.277, 42699.00
1003.387, 42802.00
1004.496, 42507.00
1005.606, 42328.00
1006.715, 42442.00
1007.825, 42430.00
1008.934, 42319.00
1010.043, 42301.00
1011.152, 42276.12
1012.260, 42275.32
1013.369, 42280.00
1014.477, 42327.00
1015.586, 42396.00
1016.694, 42408.00
1017.802, 42366.00
1018.909, 42616.00
1020.017, 42551.00
1021.124, 42436.00
1022.232, 42574.00
1023.339, 42920.00
1024.446, 42766.00
1025.553, 42571.00
1026.659, 43121.00
1027.766, 43095.00
1028.872, 42477.00
1029.979, 42880.00
1031.085, 43065.00
1032.191, 42914.00
1033.296, 43221.00
1034.402, 43096.00
1035.507, 43379.00
1036.613, 43425.00
1037.718, 43290.00
1038.823, 43358.00
1039.928, 43290.00
1041.032, 43248.00
1042.137, 43333.00
1043.241, 43355.00
1044.346, 43306.00
1045.450, 43449.07
1046.554, 43342.00
1047.657, 43632.00
1048.761, 43693.00
1049.864, 43696.00
1050.968, 43674.00
1052.071, 43952.00
1053.174, 43910.00
1054.277, 43989.00
1055.379, 43677.00
1056.482, 43737.00
1057.584, 43951.00
1058.687, 43676.00
1059.789, 43724.00
1060.891, 43691.00
1061.992, 43798.00
1063.094, 43651.00
1064.196, 43816.00
1065.297, 43463.00
1066.398, 43787.00
1067.499, 43792.00
1068.600, 44159.00
1069.701, 43873.00
1070.801, 44184.00
1071.902, 43993.00
1073.002, 44070.00
1074.102, 44055.00
1075.202, 43971.00
1076.302, 44132.00
1077.402, 44037.00
1078.501, 43997.00
1079.600, 44222.00
1080.700, 44215.00
1081.799, 44192.00
1082.898, 44613.00
1083.996, 44417.00
1085.095, 44137.00
1086.193, 44703.00
1087.292, 44639.00
1088.390, 44734.00
1089.488, 44719.00
1090.586, 44783.00
1091.683, 44855.00
1092.781, 44496.00
1093.878, 44876.00
1094.975, 45395.00
1096.073, 45121.00
1097.169, 45020.00
1098.266, 45575.00
1099.363, 45265.00
1100.459, 45406.00
1101.556, 45800.00
1102.652, 45364.00
1103.748, 45584.00
1104.844, 45944.00
1105.940, 45842.00
1107.035, 45890.00
1108.131, 45950.00
1109.226, 45819.00
1110.321, 46111.00
1111.416, 46522.00
1112.511, 46634.00
1113.605, 47123.00
1114.700, 47191.00
1115.794, 47799.00
1116.889, 48326.00
1117.983, 49139.00
1119.077, 49561.00
1120.170, 50554.00
1121.264, 50984.00
1122.357, 51419.00
1123.451, 51973.00
1124.544, 51783.00
1125.637, 51458.00
1126.730, 51191.00
1127.823, 50763.91
1128.915, 50285.00
1130.008, 49839.00
1131.100, 49338.00
1132.192, 48877.00
1133.284, 49272.00
1134.376, 48989.00
1135.467, 49276.00
1136.559, 49455.00
1137.650, 49250.00
1138.742, 49418.00
1139.833, 49346.00
1140.924, 49218.00
1142.014, 48800.00
1143.105, 48018.00
1144.195, 48140.00
1145.286, 47417.00
1146.376, 47644.00
1147.466, 47752.00
1148.556, 47540.00
1149.646, 47089.00
1150.735, 46717.00
1151.825, 46793.00
1152.914, 46880.00
1154.003, 46422.00
1155.092, 46850.00
1156.181, 46903.00
1157.270, 46844.00
1158.358, 47072.00
1159.447, 46966.37
1160.535, 46738.00
1161.623, 46866.00
1162.711, 46699.00
1163.799, 46606.00
1164.886, 47014.00
1165.974, 46904.00
1167.061, 46652.00
1168.148, 46734.00
1169.235, 47047.00
1170.322, 46739.00
1171.409, 47008.00
1172.496, 46963.00
1173.582, 47047.00
1174.669, 46686.00
1175.755, 46901.00
1176.841, 46785.00
1177.927, 46979.00
1179.012, 46784.00
1180.098, 47386.00
1181.183, 47166.00
1182.269, 47311.00
1183.354, 47043.00
1184.439, 47081.00
1185.524, 47100.00
1186.608, 47175.00
1187.693, 47251.00
1188.777, 47325.00
1189.862, 47391.00
1190.946, 47341.00
1192.030, 47433.00
1193.113, 47595.00
1194.197, 47447.00
1195.281, 47531.00
1196.364, 47603.00
1197.447, 47416.00
1198.530, 47556.00
1199.613, 47474.00
1200.696, 47625.00
1201.779, 47672.00
1202.861, 47676.00
1203.944, 47735.00
1205.026, 47862.00
1206.108, 47656.00
1207.190, 47696.00
1208.271, 48286.00
1209.353, 48078.00
1210.435, 47861.00
1211.516, 47988.00
1212.597, 47744.00
1213.678, 47629.00
1214.759, 48102.00
1215.840, 48038.00
1216.920, 48020.00
1218.001, 48520.00
1219.081, 48211.00
1220.161, 48028.00
1221.241, 48279.00
1222.321, 48256.00
1223.401, 48284.00
1224.480, 48306.00
1225.560, 48189.00
1226.639, 48663.00
1227.718, 48269.00
1228.797, 48406.00
1229.876, 48186.00
1230.955, 48535.00
1232.033, 48655.00
1233.112, 48463.00
1234.190, 48567.00
1235.268, 48514.00
1236.346, 48448.00
1237.424, 48587.00
1238.501, 48471.00
1239.579, 48652.00
1240.656, 48533.00
1241.733, 48836.00
1242.811, 48879.00
1243.888, 48922.00
1244.964, 48908.00
1246.041, 49022.00
1247.117, 49229.00
1248.194, 48780.00
1249.270, 48655.00
1250.346, 49107.00
1251.422, 49135.00
1252.498, 49219.00
1253.573, 48941.00
1254.649, 49027.00
1255.724, 49369.00
1256.800, 48937.00
1257.875, 49238.00
1258.950, 49301.00
1260.024, 49086.00
1261.099, 49073.00
1262.173, 49042.00
1263.248, 49029.00
1264.322, 49295.00
1265.396, 49300.00
1266.470, 49251.49
1267.544, 49348.00
1268.617, 49218.00
1269.691, 49363.00
1270.764, 49366.65
1271.837, 49351.00
1272.910, 49500.00
1273.983, 49481.00
1275.056, 49627.00
1276.129, 49815.00
1277.201, 49949.00
1278.273, 49967.96
1279.346, 49720.00
1280.418, 49897.00
1281.489, 49811.00
1282.561, 49653.00
1283.633, 50139.00
1284.704, 50186.00
1285.776, 50166.00
1286.847, 50150.00
1287.918, 50139.61
1288.989, 50117.11
1290.059, 50093.00
1291.130, 50070.00
1292.200, 50076.00
1293.271, 50039.00
1294.341, 50312.00
1295.411, 50305.00
1296.481, 50159.00
1297.551, 50443.00
1298.620, 50617.00
1299.690, 50461.00
1300.759, 50630.00
1301.828, 50572.00
1302.897, 50290.00
1303.966, 50727.00
1305.035, 50551.00
1306.103, 50727.00
1307.172, 50762.00
1308.240, 50748.00
1309.308, 50750.00
1310.376, 50890.00
1311.444, 50835.10
1312.512, 50849.00
