##NAMES=Microcline
##RRUFFID=R050193
##IDEAL CHEMISTRY=KAlSi_3_O_8_
##LOCALITY=Devil's Head, Douglas County, Colorado, USA
##OWNER=RRUFF
##SOURCE=Dave Bunk Minerals
##DESCRIPTION=White to colorless heterogeneous mixture of K and Na feldspar in a cluster of crystals. Crystal structure determined, presented below. This sample is known as an intermediate microcline in the literature.
##STATUS=The identification of this mineral has been confirmed by X-ray diffraction and chemical analysis
##URL=rruff.info/R050193
##MEASURED CHEMISTRY=(K_0.929_Na_0.071_)(Al_1.005_Si_2.994_Fe_0.001_)O_7.993_F_0.007_  ; Light Band :  (Na_0.973_K_0.007_Ca_0.020_)(Al_1.020_Si_2.980_)O_8_ ; Dark Band
##PIN_ID=L00861
##ORIENTATION=Laser parallel to (0 1 1). Fiducial mark perpendicular to laser is parallel to -a [-1 0 0]
62.16800, 6925.000
63.41100, 8335.000
64.65300, 9836.000
65.89600, 9981.000
67.13800, 12056.00
68.38000, 11677.00
69.62200, 12778.96
70.86300, 12912.00
72.10500, 14455.00
73.34600, 15774.00
74.58700, 17194.00
75.82800, 18774.00
77.06900, 19661.00
78.30900, 20573.00
79.55000, 21400.00
80.79000, 23053.00
82.03000, 23810.00
83.27000, 24899.00
84.51000, 25664.00
85.74900, 26118.00
86.98900, 26724.00
88.22800, 26891.00
89.46700, 27318.00
90.70600, 27525.00
91.94400, 27810.00
93.18300, 27608.00
94.42100, 28085.00
95.65900, 28525.00
96.89700, 28529.00
98.13500, 29102.00
99.37300, 29894.00
100.6100, 30693.00
101.8480, 31857.00
103.0850, 32974.00
104.3220, 34346.92
105.5590, 35622.00
106.7950, 36884.00
108.0320, 37788.45
109.2680, 38474.00
110.5040, 39117.00
111.7400, 39499.00
112.9760, 39459.00
114.2120, 39573.00
115.4470, 39463.00
116.6820, 38426.00
117.9170, 37920.00
119.1520, 37152.00
120.3870, 36658.00
121.6220, 36046.43
122.8560, 35084.00
124.0900, 35010.00
125.3240, 34497.00
126.5580, 34239.00
127.7920, 34231.00
129.0260, 33858.00
130.2590, 34067.00
131.4920, 34144.00
132.7250, 34786.00
133.9580, 35060.00
135.1910, 35928.00
136.4230, 37059.00
137.6560, 38276.00
138.8880, 40022.00
140.1200, 41036.00
141.3520, 42588.00
142.5830, 43813.00
143.8150, 45259.00
145.0460, 46928.00
146.2770, 48486.00
147.5080, 50162.00
148.7390, 51279.00
149.9700, 52832.00
151.2000, 54024.00
152.4310, 54929.00
153.6610, 55706.00
154.8910, 56070.00
156.1210, 56238.00
157.3500, 56210.00
158.5800, 55690.00
159.8090, 55234.00
161.0380, 54271.00
162.2670, 53150.00
163.4960, 52062.00
164.7240, 50187.00
165.9530, 49005.00
167.1810, 47410.00
168.4090, 47089.00
169.6370, 46403.00
170.8650, 46296.00
172.0920, 46619.00
173.3200, 46273.00
174.5470, 46865.00
175.7740, 46884.00
177.0010, 47670.00
178.2280, 48374.00
179.4540, 49183.00
180.6810, 49933.00
181.9070, 50637.00
183.1330, 50792.00
184.3590, 50645.00
185.5850, 50447.00
186.8100, 49548.00
188.0350, 48593.00
189.2610, 46894.00
190.4860, 45482.00
191.7110, 43931.00
192.9350, 42765.00
194.1600, 41854.00
195.3840, 41130.00
196.6080, 41096.00
197.8320, 40849.00
199.0560, 41000.00
200.2800, 41373.00
201.5030, 41633.00
202.7270, 42194.00
203.9500, 42733.00
205.1730, 43546.00
206.3950, 44050.00
207.6180, 44177.00
208.8410, 44305.00
210.0630, 43512.00
211.2850, 42335.00
212.5070, 40708.00
213.7290, 39315.00
214.9500, 37297.00
216.1720, 35903.00
217.3930, 34794.00
218.6140, 34829.00
219.8350, 33691.00
221.0560, 33270.00
222.2770, 32995.00
223.4970, 32929.00
224.7170, 32487.00
225.9370, 32601.00
227.1570, 32581.00
228.3770, 32211.00
229.5970, 32404.00
230.8160, 32457.00
232.0350, 32505.00
233.2540, 32460.00
234.4730, 32336.00
235.6920, 32517.00
236.9110, 32760.00
238.1290, 32771.00
239.3470, 33307.00
240.5650, 33459.00
241.7830, 33907.00
243.0010, 34382.00
244.2180, 34983.00
245.4360, 35960.00
246.6530, 36710.00
247.8700, 37632.00
249.0870, 38260.00
250.3040, 39045.00
251.5200, 39412.00
252.7370, 39740.00
253.9530, 40426.00
255.1690, 40201.00
256.3850, 40274.00
257.6000, 40169.00
258.8160, 40770.00
260.0310, 41224.00
261.2460, 41371.00
262.4610, 42341.00
263.6760, 42845.00
264.8910, 43526.00
266.1050, 44073.00
267.3200, 44769.00
268.5340, 44789.00
269.7480, 45403.00
270.9620, 45580.00
272.1750, 45488.00
273.3890, 45975.00
274.6020, 46506.00
275.8150, 47429.70
277.0280, 48791.00
278.2410, 50101.00
279.4540, 52038.00
280.6660, 54068.00
281.8790, 56596.00
283.0910, 59047.00
284.3030, 61041.00
285.5140, 63368.00
286.7260, 64969.00
287.9380, 66408.00
289.1490, 66574.00
290.3600, 66014.00
291.5710, 64083.00
292.7820, 61213.00
293.9920, 57177.00
295.2030, 53219.00
296.4130, 48832.00
297.6230, 45562.00
298.8330, 42756.00
300.0430, 40729.00
301.2520, 39577.00
302.4620, 38691.00
303.6710, 37676.00
304.8800, 36896.00
306.0890, 36529.00
307.2980, 36304.00
308.5070, 35939.91
309.7150, 35572.00
310.9230, 35665.00
312.1310, 35635.00
313.3390, 35664.00
314.5470, 35372.00
315.7550, 35756.00
316.9620, 35652.00
318.1690, 35924.00
319.3760, 36289.00
320.5830, 36940.00
321.7900, 37543.00
322.9960, 38216.00
324.2030, 39427.00
325.4090, 40293.00
326.6150, 40890.00
327.8210, 41113.00
329.0270, 41245.00
330.2320, 41092.00
331.4380, 40573.00
332.6430, 39305.00
333.8480, 38600.00
335.0530, 37364.00
336.2580, 37063.00
337.4620, 36509.00
338.6670, 36331.00
339.8710, 36056.00
341.0750, 35957.00
342.2790, 35773.00
343.4820, 35783.00
344.6860, 35642.00
345.8890, 35729.00
347.0920, 35808.00
348.2960, 35740.00
349.4980, 35745.00
350.7010, 36097.00
351.9040, 35761.00
353.1060, 35863.00
354.3080, 36018.00
355.5100, 35812.00
356.7120, 35750.00
357.9140, 35779.00
359.1150, 35847.00
360.3170, 35968.00
361.5180, 35894.00
362.7190, 35868.00
363.9200, 35829.00
365.1200, 35819.00
366.3210, 36323.00
367.5210, 36307.00
368.7210, 36161.00
369.9210, 36165.00
371.1210, 35992.00
372.3210, 36000.20
373.5200, 36010.87
374.7200, 36016.00
375.9190, 36096.00
377.1180, 36174.00
378.3170, 36222.00
379.5150, 36047.00
380.7140, 36315.00
381.9120, 36183.00
383.1110, 36249.00
384.3090, 36504.00
385.5060, 36396.00
386.7040, 36451.00
387.9020, 36310.00
389.0990, 36671.00
390.2960, 36976.00
391.4930, 37335.00
392.6900, 37451.00
393.8860, 38193.00
395.0830, 38166.00
396.2790, 38794.00
397.4750, 38998.00
398.6710, 39639.00
399.8670, 40091.00
401.0630, 40431.00
402.2580, 41016.00
403.4540, 41456.00
404.6490, 41783.00
405.8440, 42111.00
407.0390, 42355.00
408.2330, 42421.00
409.4280, 42559.00
410.6220, 42377.00
411.8160, 42006.00
413.0100, 42043.00
414.2040, 41667.50
415.3980, 41934.00
416.5910, 41058.00
417.7850, 40654.00
418.9780, 40268.00
420.1710, 39413.00
421.3640, 39066.00
422.5560, 38701.00
423.7490, 38291.63
424.9410, 38117.05
426.1330, 37914.00
427.3250, 37875.00
428.5170, 37986.00
429.7090, 38111.00
430.9000, 38218.78
432.0910, 38388.47
433.2820, 38600.00
434.4730, 38695.00
435.6640, 39000.00
436.8550, 39077.00
438.0450, 39299.00
439.2360, 39768.86
440.4260, 40081.26
441.6160, 40615.51
442.8060, 41106.00
443.9950, 41891.00
445.1850, 42638.00
446.3740, 43595.00
447.5630, 44800.00
448.7520, 45748.88
449.9410, 47373.00
451.1300, 48434.00
452.3180, 49531.00
453.5060, 50195.97
454.6950, 50599.00
455.8830, 50755.00
457.0700, 50092.00
458.2580, 49589.00
459.4450, 48981.00
460.6330, 48095.00
461.8200, 47893.00
463.0070, 47733.00
464.1940, 48229.00
465.3800, 49218.00
466.5670, 50632.00
467.7530, 52897.00
468.9390, 55525.00
470.1250, 59040.00
471.3110, 62804.00
472.4970, 66948.00
473.6820, 71928.00
474.8680, 76169.00
476.0530, 79082.00
477.2380, 81021.00
478.4230, 81836.00
479.6070, 79653.00
480.7920, 76308.00
481.9760, 71230.00
483.1600, 66204.00
484.3440, 61565.00
485.5280, 57866.00
486.7120, 54732.00
487.8950, 52610.00
489.0780, 51323.00
490.2620, 50437.00
491.4450, 50436.00
492.6270, 50751.00
493.8100, 51397.00
494.9920, 52863.00
496.1750, 55204.00
497.3570, 58521.00
498.5390, 63170.70
499.7210, 68406.00
500.9020, 75483.00
502.0840, 83219.00
503.2650, 91960.00
504.4460, 100581.0
505.6270, 108263.0
506.8080, 113611.0
507.9890, 116496.0
509.1690, 116568.0
510.3500, 112805.0
511.5300, 106962.0
512.7100, 99911.00
513.8900, 92820.00
515.0690, 85481.00
516.2490, 78435.00
517.4280, 71956.00
518.6070, 66025.00
519.7860, 61285.00
520.9650, 57675.00
522.1440, 54892.00
523.3220, 52662.00
524.5010, 50513.00
525.6790, 49509.00
526.8570, 48661.00
528.0350, 47597.00
529.2130, 47077.00
530.3900, 46573.00
531.5670, 46012.00
532.7450, 45487.00
533.9220, 45114.00
535.0980, 44830.00
536.2750, 44405.00
537.4520, 44435.00
538.6280, 44187.89
539.8040, 44254.00
540.9800, 43992.00
542.1560, 43953.00
543.3320, 43883.00
544.5070, 43847.00
545.6830, 43668.00
546.8580, 43649.00
548.0330, 43617.00
549.2080, 43493.00
550.3830, 43494.77
551.5570, 43503.00
552.7310, 43420.00
553.9060, 43414.00
555.0800, 43357.21
556.2540, 43399.75
557.4270, 43376.00
558.6010, 43506.12
559.7740, 43587.00
560.9470, 43632.00
562.1210, 43708.23
563.2930, 43653.00
564.4660, 43763.00
565.6390, 43633.00
566.8110, 43566.00
567.9830, 43962.00
569.1550, 43986.00
570.3270, 44496.00
571.4990, 44687.00
572.6710, 44878.22
573.8420, 45297.00
575.0130, 45440.00
576.1840, 45488.00
577.3550, 46125.00
578.5260, 46390.00
579.6970, 46449.00
580.8670, 46071.00
582.0370, 45647.00
583.2070, 45411.00
584.3770, 45055.00
585.5470, 45057.00
586.7170, 44735.00
587.8860, 44638.00
589.0550, 44677.00
590.2240, 44556.00
591.3930, 44498.00
592.5620, 44457.00
593.7310, 44355.00
594.8990, 44450.84
596.0670, 44207.00
597.2350, 44555.00
598.4030, 44606.00
599.5710, 44465.00
600.7390, 44542.00
601.9060, 44583.14
603.0740, 44478.00
604.2410, 44791.00
605.4080, 44746.00
606.5740, 44938.00
607.7410, 44753.00
608.9080, 44819.00
610.0740, 45014.00
611.2400, 45091.00
612.4060, 45135.00
613.5720, 45431.00
614.7370, 45229.00
615.9030, 45534.00
617.0680, 45371.00
618.2330, 45746.00
619.3980, 45514.00
620.5630, 45841.00
621.7280, 45888.00
622.8920, 45753.00
624.0570, 46086.00
625.2210, 46119.00
626.3850, 46424.00
627.5490, 46685.00
628.7120, 46672.00
629.8760, 47064.00
631.0390, 47064.00
632.2020, 47362.00
633.3650, 47246.18
634.5280, 47432.00
635.6910, 47060.00
636.8530, 47261.00
638.0160, 47445.00
639.1780, 47155.00
640.3400, 47459.00
641.5020, 47674.00
642.6640, 47817.00
643.8250, 47703.00
644.9870, 48852.00
646.1480, 48603.00
647.3090, 48644.00
648.4700, 48244.00
649.6300, 48367.00
650.7910, 48061.00
651.9510, 47880.00
653.1120, 47802.00
654.2720, 47760.00
655.4320, 47471.00
656.5910, 47088.00
657.7510, 47213.00
658.9100, 47232.00
660.0690, 46920.00
661.2290, 47094.00
662.3880, 46979.00
663.5460, 46859.00
664.7050, 47154.00
665.8630, 46894.00
667.0220, 47146.00
668.1800, 46819.00
669.3380, 46753.00
670.4950, 46713.00
671.6530, 46768.00
672.8100, 46792.00
673.9680, 46911.00
675.1250, 46911.89
676.2820, 47036.00
677.4390, 46997.00
678.5950, 47054.00
679.7520, 47184.00
680.9080, 47155.00
682.0640, 47228.73
683.2200, 47272.00
684.3760, 47325.00
685.5320, 47334.38
686.6870, 47449.18
687.8420, 47447.00
688.9980, 47501.00
690.1530, 47614.97
691.3070, 47663.17
692.4620, 47505.00
693.6170, 47519.00
694.7710, 47413.00
695.9250, 47380.68
697.0790, 47398.00
698.2330, 47374.00
699.3870, 47503.00
700.5400, 47606.09
701.6940, 47607.00
702.8470, 47751.00
704.0000, 47918.00
705.1530, 47975.00
706.3050, 47955.00
707.4580, 48460.00
708.6100, 48188.00
709.7630, 48344.00
710.9150, 48644.00
712.0660, 48664.00
713.2180, 48946.00
714.3700, 48703.00
715.5210, 48814.00
716.6720, 49100.00
717.8240, 49024.00
718.9740, 48710.00
720.1250, 49142.00
721.2760, 48913.00
722.4260, 49192.00
723.5770, 49195.00
724.7270, 49246.00
725.8770, 49121.00
727.0260, 49405.00
728.1760, 49483.00
729.3250, 49664.00
730.4750, 49652.00
731.6240, 49900.00
732.7730, 49916.00
733.9220, 50026.00
735.0700, 50342.00
736.2190, 50546.00
737.3670, 51021.00
738.5150, 50982.00
739.6630, 51141.00
740.8110, 51511.00
741.9590, 51612.00
743.1060, 52061.00
744.2540, 52772.00
745.4010, 52898.00
746.5480, 53014.00
747.6950, 53069.00
748.8410, 53367.00
749.9880, 53551.00
751.1340, 53642.00
752.2800, 53995.00
753.4260, 54468.00
754.5720, 54563.00
755.7180, 55460.00
756.8640, 56055.00
758.0090, 56954.00
759.1540, 58250.00
760.2990, 59140.00
761.4440, 60193.00
762.5890, 60800.00
763.7340, 60749.00
764.8780, 59948.00
766.0220, 58907.00
767.1660, 57836.00
768.3100, 56534.00
769.4540, 55611.00
770.5980, 54645.00
771.7410, 53989.00
772.8840, 53801.00
774.0280, 53712.00
775.1700, 53066.00
776.3130, 53283.00
777.4560, 52662.00
778.5980, 52894.00
779.7410, 52747.00
780.8830, 52538.00
782.0250, 52405.00
783.1670, 52275.00
784.3080, 52462.00
785.4500, 52316.00
786.5910, 52352.00
787.7320, 52483.00
788.8730, 52380.00
790.0140, 52664.00
791.1550, 53044.00
792.2950, 52793.00
793.4360, 52866.00
794.5760, 52850.00
795.7160, 53263.00
796.8560, 53192.00
797.9960, 53402.00
799.1350, 53545.00
800.2750, 53737.00
801.4140, 54110.00
802.5530, 54379.00
803.6920, 54959.00
804.8310, 55615.00
805.9690, 56621.00
807.1080, 57280.00
808.2460, 58722.00
809.3840, 59975.00
810.5220, 61711.00
811.6600, 62670.00
812.7970, 63491.00
813.9350, 63988.00
815.0720, 63668.00
816.2090, 63154.00
817.3460, 62120.00
818.4830, 60115.00
819.6200, 58705.00
820.7560, 57405.00
821.8930, 56330.00
823.0290, 55771.00
824.1650, 55177.00
825.3010, 55051.00
826.4360, 54609.00
827.5720, 54630.00
828.7070, 54448.00
829.8420, 54133.00
830.9770, 54021.00
832.1120, 54322.00
833.2470, 53830.00
834.3820, 54218.00
835.5160, 54349.00
836.6500, 54098.00
837.7840, 54067.00
838.9180, 54106.00
840.0520, 53974.00
841.1860, 54194.00
842.3190, 54408.00
843.4520, 54171.00
844.5850, 54285.00
845.7180, 54291.00
846.8510, 54297.00
847.9840, 54308.00
849.1160, 54372.02
850.2490, 54374.00
851.3810, 54469.00
852.5130, 54430.00
853.6450, 54363.00
854.7760, 54381.00
855.9080, 54812.00
857.0390, 54606.00
858.1700, 54852.00
859.3010, 54877.00
860.4320, 54899.00
861.5630, 54851.00
862.6930, 54927.00
863.8240, 54659.00
864.9540, 55397.00
866.0840, 54827.00
867.2140, 55160.00
868.3440, 55149.00
869.4730, 55128.00
870.6030, 55333.00
871.7320, 55203.00
872.8610, 55360.00
873.9900, 55408.00
875.1190, 55291.00
876.2470, 55345.00
877.3760, 55454.00
878.5040, 55602.00
879.6320, 55795.00
880.7600, 55799.43
881.8880, 55469.00
883.0150, 55753.00
884.1430, 55708.00
885.2700, 55512.00
886.3970, 55742.00
887.5240, 55993.00
888.6510, 55669.00
889.7780, 56121.00
890.9040, 55822.00
892.0310, 56150.00
893.1570, 55839.00
894.2830, 56168.00
895.4090, 56126.00
896.5350, 56170.00
897.6600, 56247.00
898.7860, 56275.00
899.9110, 56319.00
901.0360, 56563.00
902.1610, 56674.00
903.2860, 56628.00
904.4100, 56834.00
905.5350, 56797.00
906.6590, 56820.00
907.7830, 56975.00
908.9070, 57050.00
910.0310, 56991.00
911.1540, 56993.00
912.2780, 57236.00
913.4010, 57299.00
914.5240, 57137.00
915.6470, 57338.19
916.7700, 57175.00
917.8930, 57481.00
919.0150, 57674.00
920.1380, 57738.00
921.2600, 57765.00
922.3820, 57608.00
923.5040, 57326.00
924.6260, 57732.00
925.7470, 58057.00
926.8690, 57763.00
927.9900, 57795.00
929.1110, 58337.00
930.2320, 58252.00
931.3530, 58106.00
932.4730, 57888.00
933.5940, 58260.00
934.7140, 58227.00
935.8340, 58172.00
936.9540, 58190.00
938.0740, 58438.00
939.1930, 58722.00
940.3130, 58711.74
941.4320, 58703.00
942.5510, 58771.00
943.6700, 58973.00
944.7890, 58941.00
945.9080, 58803.00
947.0260, 59117.00
948.1450, 59306.00
949.2630, 59136.00
950.3810, 59376.00
951.4990, 59128.00
952.6170, 59274.00
953.7340, 59520.00
954.8520, 60019.00
955.9690, 59622.00
957.0860, 60146.00
958.2030, 59661.00
959.3200, 59689.00
960.4360, 59939.00
961.5530, 60039.00
962.6690, 60116.00
963.7850, 60390.00
964.9010, 60431.00
966.0170, 60620.00
967.1330, 60949.00
968.2480, 61146.76
969.3630, 61452.15
970.4790, 61772.00
971.5940, 62054.00
972.7080, 62419.00
973.8230, 62727.00
974.9380, 63038.00
976.0520, 63730.00
977.1660, 63929.00
978.2800, 63935.00
979.3940, 63759.00
980.5080, 63628.00
981.6220, 63695.00
982.7350, 63026.00
983.8480, 62886.00
984.9610, 62918.00
986.0740, 62828.00
987.1870, 62957.00
988.3000, 63075.00
989.4120, 62965.00
990.5250, 63077.00
991.6370, 63482.00
992.7490, 63455.00
993.8610, 63486.00
994.9720, 64058.00
996.0840, 63884.00
997.1950, 64223.00
998.3060, 64616.00
999.4170, 64294.00
1000.528, 64839.00
1001.639, 65291.00
1002.750, 65122.00
1003.860, 65303.00
1004.970, 65433.00
1006.080, 64906.00
1007.190, 64869.00
1008.300, 64794.00
1009.410, 64722.00
1010.519, 65001.00
1011.628, 64585.00
1012.738, 64681.00
1013.846, 64951.00
1014.955, 64482.00
1016.064, 64651.00
1017.172, 64710.00
1018.281, 64774.00
1019.389, 64564.00
1020.497, 64742.00
1021.605, 64435.00
1022.713, 64538.00
1023.820, 64850.00
1024.928, 65255.00
1026.035, 65702.00
1027.142, 65827.00
1028.249, 65665.00
1029.356, 66248.00
1030.462, 66371.00
1031.569, 66755.00
1032.675, 66575.00
1033.781, 66687.00
1034.887, 66310.00
1035.993, 66542.00
1037.098, 65872.00
1038.204, 65973.00
1039.309, 66085.00
1040.415, 65838.00
1041.520, 65444.00
1042.624, 65298.00
1043.729, 65521.00
1044.834, 65224.00
1045.938, 65569.00
1047.042, 64928.00
1048.146, 65392.00
1049.250, 64845.00
1050.354, 65643.00
1051.458, 65227.00
1052.561, 65424.00
1053.664, 65395.00
1054.767, 65331.00
1055.870, 65074.00
1056.973, 65270.00
1058.076, 65242.78
1059.178, 65712.00
1060.281, 65556.00
1061.383, 65296.00
1062.485, 65642.00
1063.587, 65638.00
1064.688, 65743.00
1065.790, 65827.00
1066.891, 65883.51
1067.993, 65978.00
1069.094, 66036.00
1070.195, 66167.00
1071.295, 66236.00
1072.396, 66728.00
1073.496, 66138.00
1074.597, 66293.00
1075.697, 66727.00
1076.797, 66583.00
1077.897, 67218.00
1078.996, 66955.00
1080.096, 67207.00
1081.195, 67654.00
1082.294, 67417.00
1083.393, 67644.00
1084.492, 67844.56
1085.591, 68034.00
1086.689, 68364.00
1087.788, 68625.00
1088.886, 69147.00
1089.984, 69747.00
1091.082, 70250.00
1092.180, 71075.62
1093.277, 72156.00
1094.375, 72810.00
1095.472, 73652.00
1096.569, 74617.00
1097.666, 74818.00
1098.763, 75087.00
1099.860, 74795.00
1100.956, 74552.00
1102.053, 74387.00
1103.149, 73584.00
1104.245, 73222.00
1105.341, 72520.00
1106.436, 72335.00
1107.532, 71975.00
1108.627, 71789.62
1109.723, 71780.47
1110.818, 71659.00
1111.913, 71910.00
1113.007, 71926.00
1114.102, 72088.00
1115.197, 72171.00
1116.291, 72123.00
1117.385, 72948.00
1118.479, 72753.00
1119.573, 72565.00
1120.666, 73291.00
1121.760, 73187.00
1122.853, 73650.00
1123.947, 73356.00
1125.040, 73196.00
1126.132, 72710.00
1127.225, 72420.00
1128.318, 71864.00
1129.410, 71954.00
1130.502, 71822.00
1131.595, 71868.00
1132.687, 71786.00
1133.778, 71838.00
1134.870, 71887.00
1135.961, 71834.00
1137.053, 71552.00
1138.144, 72082.00
1139.235, 71532.00
1140.326, 71488.00
1141.416, 71846.00
1142.507, 71740.00
1143.597, 71857.00
1144.688, 71543.00
1145.778, 71351.00
1146.868, 71456.00
1147.957, 71182.00
1149.047, 71468.00
1150.136, 71070.00
1151.226, 71005.00
1152.315, 71408.00
1153.404, 71473.00
1154.493, 71226.00
1155.581, 71208.00
1156.670, 71307.00
1157.758, 70873.00
1158.846, 70978.00
1159.934, 71171.00
1161.022, 70547.00
1162.110, 71137.00
1163.198, 70871.00
1164.285, 71072.00
1165.372, 70779.00
1166.459, 70884.00
1167.546, 70852.00
1168.633, 71182.00
1169.720, 71059.00
1170.806, 71419.00
1171.892, 71441.00
1172.979, 71449.00
1174.065, 71265.00
1175.150, 71395.00
1176.236, 71173.00
1177.322, 71256.00
1178.407, 71320.00
1179.492, 71439.00
1180.577, 71462.00
1181.662, 71576.20
1182.747, 71660.84
1183.832, 71688.00
1184.916, 71852.00
1186.000, 71740.00
1187.084, 71824.00
1188.168, 72136.00
1189.252, 71910.00
1190.336, 71901.00
1191.419, 71945.00
1192.503, 72159.00
1193.586, 72255.00
1194.669, 72259.00
1195.752, 72480.00
1196.835, 72114.00
1197.917, 72454.00
1199.000, 72652.00
1200.082, 72469.00
1201.164, 72646.00
1202.246, 72735.00
1203.328, 72542.00
1204.409, 72688.00
1205.491, 72806.00
1206.572, 72846.00
1207.653, 73115.00
1208.734, 72992.00
1209.815, 72962.00
1210.896, 73180.00
1211.976, 73300.00
1213.057, 73419.00
1214.137, 73080.00
1215.217, 73490.00
1216.297, 73782.00
1217.377, 73324.00
1218.456, 73753.00
1219.536, 73506.00
1220.615, 73784.00
1221.694, 73652.00
1222.773, 73925.00
1223.852, 73954.00
1224.931, 73918.00
1226.009, 74144.00
1227.088, 74271.00
1228.166, 74208.00
1229.244, 74649.00
1230.322, 74464.00
1231.400, 74413.00
