##NAMES=Microcline
##RRUFFID=R050193
##IDEAL CHEMISTRY=KAlSi_3_O_8_
##LOCALITY=Devil's Head, Douglas County, Colorado, USA
##OWNER=RRUFF
##SOURCE=Dave Bunk Minerals
##DESCRIPTION=White to colorless heterogeneous mixture of K and Na feldspar in a cluster of crystals. Crystal structure determined, presented below. This sample is known as an intermediate microcline in the literature.
##STATUS=The identification of this mineral has been confirmed by X-ray diffraction and chemical analysis
##URL=rruff.info/R050193
##MEASURED CHEMISTRY=(K_0.929_Na_0.071_)(Al_1.005_Si_2.994_Fe_0.001_)O_7.993_F_0.007_  ; Light Band :  (Na_0.973_K_0.007_Ca_0.020_)(Al_1.020_Si_2.980_)O_8_ ; Dark Band
##PIN_ID=L00937
##ORIENTATION=Laser parallel to (1 1 0). Fiducial mark perpendicular to laser is parallel to c [0 0 1]
62.16800, 6828.000
63.41100, 8894.000
64.65300, 9718.000
65.89600, 11238.00
67.13800, 13000.00
68.38000, 14632.00
69.62200, 16338.00
70.86300, 18427.00
72.10500, 20564.00
73.34600, 22484.00
74.58700, 24610.00
75.82800, 26635.13
77.06900, 28830.00
78.30900, 30642.00
79.55000, 32462.00
80.79000, 34280.00
82.03000, 36472.00
83.27000, 38295.00
84.51000, 40057.00
85.74900, 41098.00
86.98900, 43070.00
88.22800, 44655.00
89.46700, 46042.00
90.70600, 48036.00
91.94400, 50206.00
93.18300, 51374.00
94.42100, 53186.00
95.65900, 54385.00
96.89700, 55750.00
98.13500, 57867.00
99.37300, 59437.00
100.6100, 61230.00
101.8480, 63018.00
103.0850, 65036.00
104.3220, 67470.00
105.5590, 69908.00
106.7950, 72566.00
108.0320, 74867.00
109.2680, 76358.00
110.5040, 77196.00
111.7400, 77376.00
112.9760, 76513.00
114.2120, 75130.00
115.4470, 74189.00
116.6820, 73255.00
117.9170, 72211.00
119.1520, 72194.00
120.3870, 72066.00
121.6220, 72132.00
122.8560, 72954.00
124.0900, 72849.00
125.3240, 72834.00
126.5580, 72334.00
127.7920, 71802.00
129.0260, 70834.00
130.2590, 69771.00
131.4920, 68935.00
132.7250, 68133.00
133.9580, 67603.00
135.1910, 67240.00
136.4230, 67068.00
137.6560, 67510.00
138.8880, 67720.00
140.1200, 68290.00
141.3520, 68900.00
142.5830, 69708.00
143.8150, 70632.97
145.0460, 71688.02
146.2770, 72812.00
147.5080, 74273.00
148.7390, 75560.00
149.9700, 77275.00
151.2000, 78981.00
152.4310, 80508.00
153.6610, 80922.00
154.8910, 80619.00
156.1210, 80274.00
157.3500, 78890.00
158.5800, 77027.00
159.8090, 76551.00
161.0380, 75491.00
162.2670, 75061.00
163.4960, 74228.00
164.7240, 73530.00
165.9530, 73113.00
167.1810, 72589.00
168.4090, 72241.00
169.6370, 72367.00
170.8650, 72241.00
172.0920, 72444.00
173.3200, 73052.00
174.5470, 73141.00
175.7740, 73906.00
177.0010, 74338.00
178.2280, 74664.00
179.4540, 75109.00
180.6810, 74501.00
181.9070, 74382.00
183.1330, 73809.00
184.3590, 73692.00
185.5850, 73165.00
186.8100, 72411.00
188.0350, 72506.00
189.2610, 71883.00
190.4860, 72137.00
191.7110, 72001.00
192.9350, 71777.00
194.1600, 71905.00
195.3840, 71869.00
196.6080, 71992.00
197.8320, 72522.00
199.0560, 72827.00
200.2800, 72655.00
201.5030, 73095.00
202.7270, 72879.00
203.9500, 72439.00
205.1730, 72713.00
206.3950, 72305.00
207.6180, 72205.00
208.8410, 72184.00
210.0630, 72350.00
211.2850, 72351.00
212.5070, 71993.00
213.7290, 71863.00
214.9500, 71387.00
216.1720, 71236.00
217.3930, 70671.00
218.6140, 70947.00
219.8350, 70523.00
221.0560, 70666.00
222.2770, 70488.00
223.4970, 70866.00
224.7170, 70686.00
225.9370, 71100.00
227.1570, 71159.00
228.3770, 70959.00
229.5970, 71497.00
230.8160, 71079.00
232.0350, 71241.00
233.2540, 71543.00
234.4730, 71564.00
235.6920, 71885.00
236.9110, 71910.00
238.1290, 71754.00
239.3470, 72038.00
240.5650, 72416.00
241.7830, 72973.00
243.0010, 72743.00
244.2180, 73009.00
245.4360, 73998.00
246.6530, 73835.00
247.8700, 74415.00
249.0870, 75257.00
250.3040, 75963.00
251.5200, 76507.00
252.7370, 76772.00
253.9530, 77606.00
255.1690, 78507.00
256.3850, 79482.00
257.6000, 80230.45
258.8160, 80827.00
260.0310, 81802.00
261.2460, 82709.00
262.4610, 83535.00
263.6760, 84940.00
264.8910, 85627.00
266.1050, 86821.00
267.3200, 87200.00
268.5340, 87694.00
269.7480, 87827.00
270.9620, 87544.00
272.1750, 87083.00
273.3890, 87583.00
274.6020, 87356.00
275.8150, 88260.00
277.0280, 88747.00
278.2410, 90367.00
279.4540, 91559.00
280.6660, 92728.00
281.8790, 93027.00
283.0910, 93330.08
284.3030, 93353.84
285.5140, 92899.00
286.7260, 92275.00
287.9380, 91678.00
289.1490, 90086.00
290.3600, 89095.00
291.5710, 87394.00
292.7820, 86304.00
293.9920, 85085.00
295.2030, 83615.00
296.4130, 81936.00
297.6230, 80506.00
298.8330, 79925.00
300.0430, 78856.00
301.2520, 78384.00
302.4620, 77805.00
303.6710, 77436.00
304.8800, 77380.00
306.0890, 77207.00
307.2980, 77036.00
308.5070, 76855.00
309.7150, 76648.00
310.9230, 76392.00
312.1310, 76766.00
313.3390, 76484.00
314.5470, 76381.00
315.7550, 76935.00
316.9620, 76699.07
318.1690, 77422.00
319.3760, 76770.00
320.5830, 77058.00
321.7900, 77051.00
322.9960, 77286.00
324.2030, 77950.00
325.4090, 77986.00
326.6150, 78352.00
327.8210, 78654.00
329.0270, 78551.00
330.2320, 78788.72
331.4380, 78735.87
332.6430, 78817.00
333.8480, 78632.00
335.0530, 78436.00
336.2580, 78387.00
337.4620, 78644.00
338.6670, 78094.00
339.8710, 78273.00
341.0750, 78731.00
342.2790, 78118.00
343.4820, 78400.00
344.6860, 77850.00
345.8890, 77846.00
347.0920, 78263.00
348.2960, 78396.00
349.4980, 78755.00
350.7010, 78709.00
351.9040, 79140.00
353.1060, 78508.00
354.3080, 79297.00
355.5100, 78868.00
356.7120, 79176.00
357.9140, 79212.00
359.1150, 79654.00
360.3170, 79922.00
361.5180, 79914.00
362.7190, 80353.60
363.9200, 80432.55
365.1200, 80938.00
366.3210, 80747.00
367.5210, 80959.00
368.7210, 81093.00
369.9210, 81383.00
371.1210, 81800.00
372.3210, 81817.00
373.5200, 82079.00
374.7200, 81483.00
375.9190, 81408.00
377.1180, 80898.00
378.3170, 81081.00
379.5150, 80971.00
380.7140, 80671.00
381.9120, 80925.00
383.1110, 80706.02
384.3090, 81089.00
385.5060, 80723.00
386.7040, 80978.00
387.9020, 81337.00
389.0990, 81386.00
390.2960, 81917.00
391.4930, 81566.00
392.6900, 81649.00
393.8860, 82147.00
395.0830, 82272.00
396.2790, 82828.12
397.4750, 83259.00
398.6710, 83865.00
399.8670, 84285.00
401.0630, 84597.00
402.2580, 85568.00
403.4540, 86191.00
404.6490, 86485.00
405.8440, 87230.00
407.0390, 87862.00
408.2330, 87894.00
409.4280, 87836.00
410.6220, 88076.00
411.8160, 87916.00
413.0100, 86927.00
414.2040, 86482.00
415.3980, 85698.00
416.5910, 85728.00
417.7850, 85221.00
418.9780, 85101.00
420.1710, 84528.00
421.3640, 84181.00
422.5560, 84046.00
423.7490, 83458.00
424.9410, 83506.00
426.1330, 83495.78
427.3250, 83671.00
428.5170, 83867.00
429.7090, 84006.00
430.9000, 84355.00
432.0910, 84228.00
433.2820, 84511.16
434.4730, 85045.00
435.6640, 85106.00
436.8550, 85220.00
438.0450, 86064.00
439.2360, 86283.00
440.4260, 86846.00
441.6160, 87865.00
442.8060, 88479.00
443.9950, 89247.00
445.1850, 90268.00
446.3740, 91883.00
447.5630, 93220.00
448.7520, 94719.00
449.9410, 96941.00
451.1300, 98374.00
452.3180, 100195.0
453.5060, 101744.0
454.6950, 102364.0
455.8830, 103177.0
457.0700, 102684.0
458.2580, 102052.0
459.4450, 101524.0
460.6330, 100768.0
461.8200, 100445.0
463.0070, 100557.0
464.1940, 101057.0
465.3800, 102375.0
466.5670, 104089.0
467.7530, 106279.0
468.9390, 109632.0
470.1250, 114377.0
471.3110, 118965.0
472.4970, 124874.0
473.6820, 130348.0
474.8680, 136373.0
476.0530, 139071.0
477.2380, 140080.0
478.4230, 137497.0
479.6070, 134173.0
480.7920, 128442.0
481.9760, 122294.0
483.1600, 117606.0
484.3440, 113210.0
485.5280, 109626.0
486.7120, 106710.3
487.8950, 104485.0
489.0780, 102751.0
490.2620, 101385.0
491.4450, 100989.0
492.6270, 100270.0
493.8100, 100334.0
494.9920, 99974.00
496.1750, 100593.0
497.3570, 102132.0
498.5390, 104490.0
499.7210, 107086.4
500.9020, 110174.0
502.0840, 115033.0
503.2650, 119802.0
504.4460, 126608.0
505.6270, 133304.0
506.8080, 142364.0
507.9890, 150441.0
509.1690, 159615.0
510.3500, 168856.0
511.5300, 177343.0
512.7100, 183052.0
513.8900, 185413.0
515.0690, 181608.0
516.2490, 172571.0
517.4280, 160338.0
518.6070, 147597.0
519.7860, 137163.0
520.9650, 127547.0
522.1440, 120182.0
523.3220, 114161.0
524.5010, 109648.0
525.6790, 106541.0
526.8570, 104003.0
528.0350, 102371.0
529.2130, 100536.0
530.3900, 99495.00
531.5670, 98584.00
532.7450, 97615.00
533.9220, 97814.00
535.0980, 97513.00
536.2750, 96263.00
537.4520, 95496.00
538.6280, 94878.00
539.8040, 94997.00
540.9800, 94661.00
542.1560, 94407.00
543.3320, 94534.00
544.5070, 94018.00
545.6830, 94003.00
546.8580, 93402.00
548.0330, 94222.00
549.2080, 93352.00
550.3830, 93587.00
551.5570, 93817.00
552.7310, 93566.00
553.9060, 93752.00
555.0800, 94051.00
556.2540, 93720.00
557.4270, 93336.00
558.6010, 93708.00
559.7740, 93686.00
560.9470, 93662.00
562.1210, 94142.00
563.2930, 93844.00
564.4660, 93887.00
565.6390, 93966.00
566.8110, 93901.00
567.9830, 93966.00
569.1550, 94315.00
570.3270, 94336.00
571.4990, 94596.00
572.6710, 94683.00
573.8420, 94907.00
575.0130, 95075.28
576.1840, 95142.00
577.3550, 95383.00
578.5260, 95570.00
579.6970, 95649.00
580.8670, 95548.00
582.0370, 95425.00
583.2070, 95525.00
584.3770, 96020.00
585.5470, 95722.00
586.7170, 95656.00
587.8860, 96112.00
589.0550, 95573.00
590.2240, 95649.00
591.3930, 95423.00
592.5620, 95919.00
593.7310, 95765.00
594.8990, 95661.00
596.0670, 96113.00
597.2350, 95941.00
598.4030, 95870.00
599.5710, 95963.00
600.7390, 96353.00
601.9060, 95760.00
603.0740, 96337.00
604.2410, 96427.00
605.4080, 96197.00
606.5740, 96515.00
607.7410, 96610.00
608.9080, 96821.00
610.0740, 96687.00
611.2400, 96868.00
612.4060, 97007.00
613.5720, 96901.00
614.7370, 97371.00
615.9030, 97285.00
617.0680, 97448.00
618.2330, 97435.00
619.3980, 97456.00
620.5630, 97983.00
621.7280, 97917.00
622.8920, 97966.00
624.0570, 98457.00
625.2210, 98410.00
626.3850, 98666.00
627.5490, 98733.00
628.7120, 98854.34
629.8760, 99098.00
631.0390, 99123.00
632.2020, 98930.00
633.3650, 98809.26
634.5280, 99206.55
635.6910, 99476.27
636.8530, 99625.16
638.0160, 99291.84
639.1780, 99581.23
640.3400, 99621.02
641.5020, 99650.59
642.6640, 100027.6
643.8250, 99764.27
644.9870, 100135.8
646.1480, 100253.9
647.3090, 100487.9
648.4700, 100470.8
649.6300, 100386.0
650.7910, 100479.0
651.9510, 100783.0
653.1120, 100752.0
654.2720, 100491.0
655.4320, 100920.0
656.5910, 100704.0
657.7510, 100828.0
658.9100, 100662.0
660.0690, 100780.0
661.2290, 100844.0
662.3880, 100661.0
663.5460, 100684.0
664.7050, 100648.0
665.8630, 100530.8
667.0220, 100361.0
668.1800, 100520.0
669.3380, 100377.0
670.4950, 100721.0
671.6530, 100461.0
672.8100, 100415.0
673.9680, 100731.0
675.1250, 101014.0
676.2820, 100461.0
677.4390, 100819.0
678.5950, 100801.0
679.7520, 101296.0
680.9080, 101024.0
682.0640, 101039.0
683.2200, 100658.0
684.3760, 101279.0
685.5320, 100823.0
686.6870, 100964.0
687.8420, 101100.0
688.9980, 100853.0
690.1530, 101021.0
691.3070, 101485.0
692.4620, 101208.0
693.6170, 101388.0
694.7710, 101772.0
695.9250, 101894.0
697.0790, 102149.5
698.2330, 102254.0
699.3870, 102447.0
700.5400, 102523.0
701.6940, 102397.0
702.8470, 102703.0
704.0000, 102595.0
705.1530, 103027.0
706.3050, 102914.0
707.4580, 103515.0
708.6100, 103313.0
709.7630, 103618.0
710.9150, 103737.0
712.0660, 104052.8
713.2180, 104453.0
714.3700, 104632.0
715.5210, 104635.1
716.6720, 104961.6
717.8240, 105199.9
718.9740, 105353.7
720.1250, 105202.4
721.2760, 105421.3
722.4260, 105477.1
723.5770, 105516.4
724.7270, 105757.5
725.8770, 105596.9
727.0260, 105813.7
728.1760, 106353.0
729.3250, 106007.0
730.4750, 106695.0
731.6240, 106919.0
732.7730, 106679.0
733.9220, 107554.0
735.0700, 107762.0
736.2190, 108283.0
737.3670, 109028.0
738.5150, 108849.0
739.6630, 109694.0
740.8110, 110331.0
741.9590, 110505.0
743.1060, 111266.0
744.2540, 111943.0
745.4010, 112539.0
746.5480, 112410.0
747.6950, 113188.0
748.8410, 113172.0
749.9880, 113977.0
751.1340, 113542.0
752.2800, 113296.0
753.4260, 113567.0
754.5720, 113058.0
755.7180, 113348.0
756.8640, 113282.0
758.0090, 113319.0
759.1540, 113532.0
760.2990, 113476.0
761.4440, 113802.0
762.5890, 114016.0
763.7340, 114014.0
764.8780, 113624.0
766.0220, 113345.0
767.1660, 113097.0
768.3100, 112030.0
769.4540, 111748.0
770.5980, 110985.0
771.7410, 110858.0
772.8840, 110777.0
774.0280, 110881.0
775.1700, 110856.0
776.3130, 110341.0
777.4560, 110335.0
778.5980, 110753.0
779.7410, 110160.0
780.8830, 110381.0
782.0250, 110465.0
783.1670, 110484.0
784.3080, 110399.0
785.4500, 110653.0
786.5910, 111060.0
787.7320, 111355.0
788.8730, 111293.0
790.0140, 111307.0
791.1550, 111777.0
792.2950, 111535.0
793.4360, 111713.0
794.5760, 111939.0
795.7160, 111817.7
796.8560, 112211.0
797.9960, 111906.0
799.1350, 112164.0
800.2750, 112425.0
801.4140, 113037.0
802.5530, 113152.0
803.6920, 113390.0
804.8310, 113521.0
805.9690, 113609.0
807.1080, 113979.0
808.2460, 114476.9
809.3840, 115825.0
810.5220, 115860.0
811.6600, 116224.0
812.7970, 117114.0
813.9350, 117262.0
815.0720, 117155.7
816.2090, 116923.2
817.3460, 116612.7
818.4830, 116228.5
819.6200, 114800.0
820.7560, 114740.0
821.8930, 114289.5
823.0290, 113979.0
824.1650, 113841.0
825.3010, 113683.0
826.4360, 113522.0
827.5720, 113539.0
828.7070, 113317.0
829.8420, 113570.0
830.9770, 113733.0
832.1120, 113887.0
833.2470, 113896.0
834.3820, 113781.0
835.5160, 113682.0
836.6500, 113988.0
837.7840, 114378.0
838.9180, 114195.0
840.0520, 114497.0
841.1860, 114479.7
842.3190, 114271.0
843.4520, 114492.0
844.5850, 114157.0
845.7180, 114195.0
846.8510, 115210.0
847.9840, 115053.0
849.1160, 114950.0
850.2490, 114869.0
851.3810, 114824.0
852.5130, 115219.0
853.6450, 115241.0
854.7760, 115146.0
855.9080, 115632.0
857.0390, 115356.0
858.1700, 115468.0
859.3010, 115755.0
860.4320, 115656.0
861.5630, 116030.0
862.6930, 116039.1
863.8240, 115953.0
864.9540, 116196.0
866.0840, 116320.0
867.2140, 116443.0
868.3440, 116223.0
869.4730, 116804.0
870.6030, 116733.0
871.7320, 116559.0
872.8610, 116774.0
873.9900, 116737.8
875.1190, 116402.0
876.2470, 117010.0
877.3760, 116989.0
878.5040, 117309.0
879.6320, 117241.0
880.7600, 117491.0
881.8880, 117929.0
883.0150, 117449.0
884.1430, 117688.0
885.2700, 117653.0
886.3970, 118004.0
887.5240, 118027.0
888.6510, 118268.0
889.7780, 118310.0
890.9040, 118321.0
892.0310, 118227.0
893.1570, 118447.0
894.2830, 118974.0
895.4090, 118731.0
896.5350, 119085.0
897.6600, 118904.0
898.7860, 119204.0
899.9110, 119388.0
901.0360, 119065.0
902.1610, 119385.0
903.2860, 119636.0
904.4100, 119728.0
905.5350, 119515.0
906.6590, 119579.0
907.7830, 119792.0
908.9070, 119830.0
910.0310, 120053.0
911.1540, 120103.0
912.2780, 120424.0
913.4010, 120376.0
914.5240, 120835.0
915.6470, 120905.0
916.7700, 121096.0
917.8930, 120674.0
919.0150, 121384.0
920.1380, 121625.0
921.2600, 121088.0
922.3820, 121512.0
923.5040, 121683.0
924.6260, 121197.0
925.7470, 121517.0
926.8690, 122243.0
927.9900, 122150.0
929.1110, 122225.0
930.2320, 122148.0
931.3530, 122037.0
932.4730, 122341.0
933.5940, 122461.0
934.7140, 122133.0
935.8340, 122721.0
936.9540, 122973.0
938.0740, 122566.0
939.1930, 122848.0
940.3130, 122937.0
941.4320, 123378.0
942.5510, 123390.0
943.6700, 123474.0
944.7890, 123987.0
945.9080, 123656.0
947.0260, 123633.0
948.1450, 123752.0
949.2630, 124430.0
950.3810, 124044.0
951.4990, 124365.0
952.6170, 124851.0
953.7340, 124410.0
954.8520, 124871.0
955.9690, 124942.0
957.0860, 124983.0
958.2030, 125420.0
959.3200, 125348.0
960.4360, 125767.0
961.5530, 125789.5
962.6690, 125882.0
963.7850, 125872.0
964.9010, 126168.0
966.0170, 126208.0
967.1330, 126323.0
968.2480, 126750.0
969.3630, 126809.0
970.4790, 127505.0
971.5940, 126848.0
972.7080, 127361.0
973.8230, 127620.0
974.9380, 128146.0
976.0520, 128395.0
977.1660, 128510.0
978.2800, 128672.0
979.3940, 128844.0
980.5080, 129044.0
981.6220, 129401.0
982.7350, 129000.0
983.8480, 130007.0
984.9610, 129795.0
986.0740, 129809.0
987.1870, 130358.0
988.3000, 130783.0
989.4120, 130717.0
990.5250, 131036.0
991.6370, 131186.0
992.7490, 131406.0
993.8610, 131906.0
994.9720, 132557.0
996.0840, 132362.0
997.1950, 132514.0
998.3060, 132659.0
999.4170, 133310.0
1000.528, 133550.0
1001.639, 133464.0
1002.750, 133737.0
1003.860, 133789.0
1004.970, 133699.0
1006.080, 133294.0
1007.190, 132772.0
1008.300, 132740.0
1009.410, 132371.0
1010.519, 132650.0
1011.628, 132061.0
1012.738, 132589.0
1013.846, 132883.0
1014.955, 132378.0
1016.064, 132269.0
1017.172, 132439.0
1018.281, 132840.0
1019.389, 132533.0
1020.497, 133117.0
1021.605, 132574.0
1022.713, 133182.0
1023.820, 133486.0
1024.928, 133621.0
1026.035, 133128.0
1027.142, 133568.0
1028.249, 133890.0
1029.356, 133581.0
1030.462, 134359.0
1031.569, 134467.0
1032.675, 134601.0
1033.781, 134441.0
1034.887, 134061.0
1035.993, 134370.0
1037.098, 134114.0
1038.204, 134385.0
1039.309, 133935.0
1040.415, 134972.0
1041.520, 134442.0
1042.624, 135033.0
1043.729, 135633.0
1044.834, 135006.0
1045.938, 134969.0
1047.042, 135440.0
1048.146, 135684.0
1049.250, 135890.0
1050.354, 135715.0
1051.458, 136185.0
1052.561, 136517.0
1053.664, 136076.0
1054.767, 136657.0
1055.870, 136238.0
1056.973, 136490.0
1058.076, 136484.0
1059.178, 136061.0
1060.281, 136714.0
1061.383, 136896.0
1062.485, 136662.0
1063.587, 136900.0
1064.688, 136854.0
1065.790, 136876.0
1066.891, 136651.0
1067.993, 136917.0
1069.094, 136982.0
1070.195, 137161.0
1071.295, 138047.0
1072.396, 137632.0
1073.496, 138574.0
1074.597, 137916.0
1075.697, 138544.0
1076.797, 138436.0
1077.897, 138316.0
1078.996, 139083.0
1080.096, 139032.0
1081.195, 139213.0
1082.294, 139393.0
1083.393, 139856.0
1084.492, 140001.0
1085.591, 140369.0
1086.689, 140417.0
1087.788, 140959.0
1088.886, 141321.0
1089.984, 141777.0
1091.082, 142007.0
1092.180, 142774.0
1093.277, 143458.0
1094.375, 143966.0
1095.472, 144842.0
1096.569, 145617.0
1097.666, 145994.0
1098.763, 146407.0
1099.860, 146288.0
1100.956, 146604.0
1102.053, 146904.0
1103.149, 146520.0
1104.245, 146807.0
1105.341, 146448.0
1106.436, 146355.0
1107.532, 147148.0
1108.627, 147129.0
1109.723, 147642.0
1110.818, 147924.0
1111.913, 147966.0
1113.007, 148562.0
1114.102, 149545.0
1115.197, 150081.0
1116.291, 150496.0
1117.385, 151726.0
1118.479, 152684.0
1119.573, 153112.0
1120.666, 153997.0
1121.760, 154639.0
1122.853, 155344.0
1123.947, 155170.0
1125.040, 154814.0
1126.132, 154433.0
1127.225, 154045.0
1128.318, 153593.1
1129.410, 153541.0
1130.502, 152804.0
1131.595, 152746.0
1132.687, 152716.8
1133.778, 152214.0
1134.870, 152317.0
1135.961, 152041.0
1137.053, 151507.0
1138.144, 152342.0
1139.235, 151730.0
1140.326, 151680.0
1141.416, 151342.0
1142.507, 151451.0
1143.597, 151063.0
1144.688, 150994.0
1145.778, 150387.0
1146.868, 150142.0
1147.957, 149640.0
1149.047, 149340.4
1150.136, 149307.0
1151.226, 148935.0
1152.315, 148677.0
1153.404, 148811.0
1154.493, 148640.0
1155.581, 148482.0
1156.670, 148792.0
1157.758, 148101.0
1158.846, 147677.0
1159.934, 148815.0
1161.022, 148199.0
1162.110, 148060.0
1163.198, 148391.0
1164.285, 148230.0
1165.372, 147867.0
1166.459, 147779.0
1167.546, 148543.0
1168.633, 148276.0
1169.720, 148504.0
1170.806, 148631.0
1171.892, 148604.0
1172.979, 148450.0
1174.065, 148633.0
1175.150, 148793.0
1176.236, 149284.0
1177.322, 149308.4
1178.407, 149143.0
1179.492, 149815.0
1180.577, 148850.0
1181.662, 149573.0
1182.747, 149828.0
1183.832, 149448.0
1184.916, 149735.0
1186.000, 149886.0
1187.084, 149688.0
1188.168, 149958.0
1189.252, 150041.0
1190.336, 150536.0
1191.419, 150277.0
1192.503, 150513.0
1193.586, 150041.0
1194.669, 150204.0
1195.752, 150643.0
1196.835, 151022.0
1197.917, 150604.0
1199.000, 151056.7
1200.082, 151074.0
1201.164, 151355.0
1202.246, 151270.0
1203.328, 151408.0
1204.409, 151165.0
1205.491, 150674.0
1206.572, 152287.0
1207.653, 151756.0
1208.734, 152173.0
1209.815, 151708.0
1210.896, 153062.0
1211.976, 153272.0
1213.057, 152363.0
1214.137, 152863.0
1215.217, 152373.0
1216.297, 153163.0
1217.377, 152626.0
1218.456, 153098.0
1219.536, 152859.0
1220.615, 153492.0
1221.694, 154242.0
1222.773, 153922.0
1223.852, 153880.0
1224.931, 153989.0
1226.009, 154498.0
1227.088, 154362.0
1228.166, 154715.0
1229.244, 154600.0
1230.322, 154732.6
1231.400, 155008.0
