##NAMES=Microcline
##RRUFFID=R050150
##IDEAL CHEMISTRY=KAlSi_3_O_8_
##LOCALITY=Crystal Peak area, Park/Teller Counties, Colorado, USA
##OWNER=RRUFF
##SOURCE=Dave Bunk Minerals
##DESCRIPTION=Pale blue prismatic crystals
##STATUS=The identification of this mineral has been confirmed by X-ray diffraction and chemical analysis
##URL=rruff.info/R050150
##MEASURED CHEMISTRY=(K_0.95_Na_0.05_)_Î£=1_Al_1.00_Si_3.00_O_8_
##PIN_ID=L00961
##ORIENTATION=Laser parallel to b* (0 1 0). Fiducial mark perpendicular to laser is parallel to c [0 0 1]
137.6830, 16618.00
138.9210, 17612.00
140.1580, 18535.00
141.3950, 19184.00
142.6330, 20145.00
143.8690, 21049.00
145.1060, 22798.00
146.3430, 24316.00
147.5790, 26211.00
148.8150, 27510.00
150.0510, 27820.00
151.2870, 27652.00
152.5220, 26179.00
153.7580, 24627.00
154.9930, 23298.00
156.2280, 22035.00
157.4620, 20898.95
158.6970, 19867.63
159.9310, 18988.00
161.1660, 18161.00
162.4000, 17467.00
163.6330, 16975.13
164.8670, 16593.73
166.1000, 16435.00
167.3340, 16303.00
168.5670, 16367.00
169.8000, 16577.00
171.0320, 16546.00
172.2650, 16694.00
173.4970, 16828.00
174.7290, 17282.00
175.9610, 17533.00
177.1930, 18046.00
178.4240, 18327.00
179.6550, 18286.00
180.8870, 18220.00
182.1170, 17650.00
183.3480, 17136.00
184.5790, 16807.00
185.8090, 16600.00
187.0390, 16391.00
188.2690, 16341.00
189.4990, 16377.00
190.7290, 16536.00
191.9580, 16592.00
193.1870, 16761.00
194.4160, 17153.00
195.6450, 17500.00
196.8740, 17748.00
198.1020, 18011.00
199.3310, 18320.00
200.5590, 18053.00
201.7870, 17759.00
203.0140, 17180.00
204.2420, 16731.00
205.4690, 16150.00
206.6960, 15933.00
207.9230, 15441.00
209.1500, 15325.00
210.3760, 15460.00
211.6030, 15348.00
212.8290, 15369.00
214.0550, 15398.00
215.2810, 15211.00
216.5060, 15159.00
217.7320, 15236.00
218.9570, 15249.00
220.1820, 15305.00
221.4070, 15328.00
222.6320, 15385.15
223.8560, 15310.00
225.0800, 15452.00
226.3040, 15534.00
227.5280, 15458.00
228.7520, 15350.00
229.9760, 15428.00
231.1990, 15507.00
232.4220, 15466.00
233.6450, 15446.00
234.8680, 15572.00
236.0910, 15505.00
237.3130, 15521.00
238.5350, 15617.00
239.7570, 15614.00
240.9790, 15688.00
242.2010, 15830.65
243.4220, 15942.00
244.6430, 16144.00
245.8640, 16371.00
247.0850, 16534.00
248.3060, 17039.00
249.5270, 17209.00
250.7470, 17416.00
251.9670, 18221.00
253.1870, 18637.00
254.4070, 19500.00
255.6260, 20225.00
256.8460, 21055.00
258.0650, 21316.00
259.2840, 22165.00
260.5030, 22257.00
261.7220, 21520.00
262.9400, 21589.00
264.1580, 21713.00
265.3760, 21859.00
266.5940, 21739.00
267.8120, 21266.00
269.0290, 20820.00
270.2470, 20361.00
271.4640, 20040.00
272.6810, 19842.93
273.8980, 19376.00
275.1140, 19752.00
276.3310, 20030.00
277.5470, 20325.00
278.7630, 21172.00
279.9790, 21784.00
281.1940, 22803.00
282.4100, 23594.00
283.6250, 24679.00
284.8400, 25466.00
286.0550, 25460.00
287.2700, 25027.00
288.4850, 24104.00
289.6990, 22971.00
290.9130, 22059.00
292.1270, 21323.00
293.3410, 20645.00
294.5540, 20119.00
295.7680, 19789.00
296.9810, 19657.00
298.1940, 19429.00
299.4070, 19168.00
300.6200, 18915.00
301.8320, 18512.00
303.0450, 17973.00
304.2570, 17736.00
305.4690, 17557.00
306.6800, 17431.00
307.8920, 17119.00
309.1030, 16947.00
310.3150, 16873.00
311.5260, 16767.38
312.7360, 17032.00
313.9470, 16873.00
315.1580, 16916.00
316.3680, 17261.00
317.5780, 17093.00
318.7880, 16932.00
319.9980, 16968.00
321.2070, 17230.00
322.4170, 17241.00
323.6260, 17412.00
324.8350, 17454.00
326.0430, 17927.00
327.2520, 18125.00
328.4610, 18297.00
329.6690, 18545.00
330.8770, 18699.00
332.0850, 18843.00
333.2920, 18540.00
334.5000, 18546.00
335.7070, 18188.00
336.9140, 18054.00
338.1210, 17745.00
339.3280, 17544.00
340.5350, 17535.00
341.7410, 17500.00
342.9470, 17636.00
344.1540, 17526.00
345.3590, 17655.00
346.5650, 17669.00
347.7710, 17675.00
348.9760, 17818.00
350.1810, 17950.00
351.3860, 17906.00
352.5910, 18252.00
353.7950, 18398.00
355.0000, 18677.00
356.2040, 18708.00
357.4080, 18808.00
358.6120, 18686.00
359.8150, 18715.00
361.0190, 18643.00
362.2220, 18706.46
363.4250, 18778.00
364.6280, 18961.00
365.8310, 19061.00
367.0340, 19389.00
368.2360, 19662.00
369.4380, 20180.00
370.6400, 20822.00
371.8420, 21262.00
373.0440, 21301.00
374.2450, 21068.00
375.4470, 20480.00
376.6480, 19747.00
377.8490, 19252.00
379.0490, 18701.00
380.2500, 18419.00
381.4500, 18386.00
382.6510, 18215.00
383.8510, 18199.00
385.0500, 18165.00
386.2500, 18129.00
387.4500, 18138.00
388.6490, 18114.00
389.8480, 18250.00
391.0470, 18307.00
392.2460, 18493.00
393.4440, 18914.00
394.6430, 19129.72
395.8410, 19341.00
397.0390, 19880.00
398.2370, 20275.00
399.4340, 20764.00
400.6320, 21713.00
401.8290, 22067.00
403.0260, 22618.00
404.2230, 22636.00
405.4200, 22211.00
406.6170, 21459.00
407.8130, 20842.00
409.0090, 20585.00
410.2050, 20115.00
411.4010, 19958.00
412.5970, 19855.00
413.7920, 19625.00
414.9880, 19538.00
416.1830, 19363.00
417.3780, 18997.00
418.5730, 18946.00
419.7670, 18577.00
420.9620, 18498.00
422.1560, 18531.00
423.3500, 18660.00
424.5440, 18548.00
425.7380, 18536.00
426.9310, 18498.00
428.1240, 18483.00
429.3180, 18716.00
430.5110, 18608.00
431.7030, 18918.00
432.8960, 18881.00
434.0890, 18846.00
435.2810, 18877.00
436.4730, 19017.00
437.6650, 19175.00
438.8570, 19396.00
440.0480, 19660.00
441.2390, 19518.00
442.4310, 20017.00
443.6220, 20467.00
444.8120, 20570.00
446.0030, 21201.00
447.1940, 21651.00
448.3840, 22530.00
449.5740, 23202.00
450.7640, 23887.00
451.9540, 24464.00
453.1430, 25453.00
454.3330, 25705.00
455.5220, 25818.00
456.7110, 25442.00
457.9000, 24648.00
459.0890, 24244.00
460.2770, 23994.00
461.4650, 24122.00
462.6540, 24526.00
463.8420, 25200.00
465.0290, 26579.00
466.2170, 28194.00
467.4050, 29836.00
468.5920, 32043.00
469.7790, 34661.00
470.9660, 37562.00
472.1530, 40791.00
473.3390, 44089.00
474.5250, 46678.00
475.7120, 47984.00
476.8980, 46596.00
478.0840, 44197.00
479.2690, 40216.00
480.4550, 36701.00
481.6400, 33855.00
482.8250, 31657.00
484.0100, 29624.00
485.1950, 28135.00
486.3800, 27114.00
487.5640, 25850.00
488.7480, 24814.00
489.9320, 24170.00
491.1160, 23468.00
492.3000, 23085.00
493.4840, 22826.00
494.6670, 22830.00
495.8500, 22976.00
497.0330, 23345.00
498.2160, 23864.00
499.3990, 24429.00
500.5810, 26378.00
501.7630, 26848.00
502.9460, 28638.00
504.1280, 31137.00
505.3090, 34217.00
506.4910, 37801.00
507.6720, 41362.00
508.8540, 45979.00
510.0350, 50991.00
511.2160, 56096.00
512.3960, 59777.00
513.5770, 60676.00
514.7570, 59103.00
515.9380, 55034.00
517.1180, 48974.00
518.2970, 43107.00
519.4770, 38112.00
520.6570, 34159.00
521.8360, 30879.00
523.0150, 28663.00
524.1940, 26937.00
525.3730, 25919.00
526.5510, 24991.00
527.7300, 24302.00
528.9080, 23602.00
530.0860, 23092.00
531.2640, 22783.00
532.4420, 22513.00
533.6200, 22325.00
534.7970, 22067.00
535.9740, 21871.00
537.1510, 21566.00
538.3280, 21637.00
539.5050, 21400.00
540.6810, 21663.00
541.8580, 21249.00
543.0340, 21344.00
544.2100, 21224.00
545.3860, 21127.00
546.5610, 21197.00
547.7370, 21142.00
548.9120, 21177.00
550.0870, 21020.00
551.2620, 21048.00
552.4370, 20996.00
553.6120, 21105.00
554.7860, 21031.00
555.9600, 20992.00
557.1340, 20926.00
558.3080, 20991.00
559.4820, 21065.00
560.6560, 20933.00
561.8290, 21105.00
563.0020, 21189.00
564.1750, 20949.00
565.3480, 21068.00
566.5210, 21016.00
567.6930, 21005.00
568.8660, 21184.00
570.0380, 21167.00
571.2100, 21165.00
572.3820, 21097.00
573.5530, 21338.00
574.7250, 21265.00
575.8960, 21334.00
577.0670, 21211.00
578.2380, 21301.43
579.4090, 21597.00
580.5800, 21377.00
581.7500, 21681.00
582.9210, 21603.00
584.0910, 21635.00
585.2610, 21555.00
586.4300, 21562.00
587.6000, 21375.00
588.7690, 21455.00
589.9390, 21208.00
591.1080, 21169.00
592.2770, 21093.00
593.4450, 21311.00
594.6140, 21276.00
595.7820, 21133.00
596.9500, 21299.00
598.1190, 21141.00
599.2860, 21251.00
600.4540, 21150.00
601.6220, 20944.00
602.7890, 21168.00
603.9560, 21270.00
605.1230, 21162.00
606.2900, 21133.00
607.4570, 21163.00
608.6230, 21242.00
609.7890, 21311.00
610.9560, 21355.00
612.1220, 21377.00
613.2870, 21442.00
614.4530, 21457.00
615.6180, 21445.00
616.7840, 21717.00
617.9490, 21552.00
619.1140, 21773.00
620.2790, 21750.00
621.4430, 21908.00
622.6080, 21827.00
623.7720, 22059.00
624.9360, 21989.00
626.1000, 22210.00
627.2640, 22114.00
628.4270, 22155.00
629.5910, 22256.00
630.7540, 22297.00
631.9170, 22219.00
633.0800, 22290.00
634.2430, 22236.00
635.4050, 22327.00
636.5680, 22461.00
637.7300, 22528.00
638.8920, 22659.00
640.0540, 22749.00
641.2150, 22944.00
642.3770, 22872.00
643.5380, 23151.00
644.7000, 23205.00
645.8610, 23682.00
647.0210, 23923.00
648.1820, 23915.00
649.3430, 23915.00
650.5030, 24322.00
651.6630, 24115.00
652.8230, 24414.00
653.9830, 24270.00
655.1430, 24186.00
656.3020, 23948.00
657.4620, 23546.00
658.6210, 23687.00
659.7800, 23197.00
660.9390, 23152.00
662.0970, 22941.00
663.2560, 22833.00
664.4140, 22776.00
665.5720, 22639.78
666.7300, 22570.00
667.8880, 22478.00
669.0460, 22386.00
670.2030, 22329.00
671.3600, 22602.00
672.5180, 22260.00
673.6740, 22469.00
674.8310, 22504.00
675.9880, 22251.00
677.1440, 22571.00
678.3010, 22311.00
679.4570, 22309.00
680.6130, 22448.00
681.7690, 22409.00
682.9240, 22557.00
684.0800, 22509.00
685.2350, 22465.00
686.3900, 22524.00
687.5450, 22501.02
688.7000, 22548.00
689.8540, 22535.00
691.0090, 22545.00
692.1630, 22552.00
693.3170, 22456.00
694.4710, 22391.00
695.6250, 22624.00
696.7780, 22563.00
697.9320, 22681.00
699.0850, 22720.71
700.2380, 22821.00
701.3910, 22755.00
702.5440, 22706.00
703.6970, 22702.00
704.8490, 22797.00
706.0010, 22868.56
707.1530, 23007.00
708.3050, 23148.00
709.4570, 23275.00
710.6090, 23444.00
711.7600, 23190.00
712.9110, 23107.00
714.0620, 23263.00
715.2130, 23142.00
716.3640, 23062.00
717.5150, 23069.00
718.6650, 23198.00
719.8150, 22989.00
720.9650, 23160.00
722.1150, 23125.00
723.2650, 23197.00
724.4150, 23441.31
725.5640, 24095.00
726.7130, 23759.00
727.8630, 24153.00
729.0110, 23931.00
730.1600, 23612.00
731.3090, 23741.00
732.4570, 23584.09
733.6060, 23485.00
734.7540, 23615.00
735.9020, 23752.00
737.0490, 23858.00
738.1970, 23947.00
739.3440, 24267.00
740.4920, 24592.00
741.6390, 24753.00
742.7860, 25221.00
743.9320, 25699.00
745.0790, 26174.00
746.2250, 26327.00
747.3720, 26793.00
748.5180, 26836.00
749.6640, 26860.00
750.8100, 26825.00
751.9550, 26044.00
753.1010, 25681.00
754.2460, 25293.00
755.3910, 24907.00
756.5360, 24554.00
757.6810, 24394.00
758.8250, 24205.00
759.9700, 24174.00
761.1140, 24125.00
762.2580, 24104.00
763.4020, 24007.00
764.5460, 24130.00
765.6900, 24270.00
766.8330, 24062.00
767.9760, 24006.00
769.1200, 24050.00
770.2620, 23867.00
771.4050, 24012.00
772.5480, 23958.00
773.6900, 23931.00
774.8330, 23681.00
775.9750, 23905.00
777.1170, 23544.00
778.2590, 23819.00
779.4000, 23661.00
780.5420, 23801.00
781.6830, 23869.00
782.8240, 23649.00
783.9650, 23719.00
785.1060, 23780.00
786.2470, 23732.00
787.3870, 23684.00
788.5280, 23836.00
789.6680, 24004.00
790.8080, 23871.00
791.9480, 23952.00
793.0870, 23745.00
794.2270, 23778.00
795.3660, 23949.00
796.5060, 23859.00
797.6450, 24023.00
798.7830, 23817.00
799.9220, 23946.00
801.0610, 24077.00
802.1990, 24061.00
803.3370, 24063.00
804.4750, 24352.00
805.6130, 24203.00
806.7510, 24535.00
807.8890, 24509.00
809.0260, 24536.00
810.1630, 24527.00
811.3000, 24503.16
812.4370, 24706.00
813.5740, 24591.00
814.7110, 24506.00
815.8470, 24844.00
816.9830, 24537.00
818.1190, 24602.00
819.2550, 24508.00
820.3910, 24231.00
821.5270, 24375.00
822.6620, 24448.00
823.7970, 24500.00
824.9330, 24525.00
826.0670, 24461.00
827.2020, 24464.00
828.3370, 24461.00
829.4710, 24461.00
830.6060, 24224.00
831.7400, 24367.00
832.8740, 24637.00
834.0080, 24359.00
835.1410, 24494.00
836.2750, 24407.00
837.4080, 24370.00
838.5410, 24271.00
839.6740, 24192.00
840.8070, 24506.00
841.9400, 24464.00
843.0730, 24725.00
844.2050, 24529.00
845.3370, 24368.00
846.4690, 24511.00
847.6010, 24405.00
848.7330, 24742.00
849.8640, 24465.00
850.9960, 24711.00
852.1270, 24684.00
853.2580, 24818.00
854.3890, 24645.00
855.5200, 24543.00
856.6500, 24542.00
857.7810, 24631.00
858.9110, 24583.47
860.0410, 24772.00
861.1710, 24685.00
862.3010, 24757.00
863.4310, 24972.00
864.5600, 25024.00
865.6900, 24784.00
866.8190, 24969.00
867.9480, 24928.00
869.0770, 24853.00
870.2050, 24884.00
871.3340, 24945.00
872.4620, 24922.00
873.5900, 25130.00
874.7180, 24684.00
875.8460, 25043.00
876.9740, 25004.00
878.1010, 24865.00
879.2290, 25141.00
880.3560, 25146.00
881.4830, 24850.00
882.6100, 25051.00
883.7370, 25098.00
884.8630, 25045.00
885.9900, 25138.00
887.1160, 25007.00
888.2420, 25041.00
889.3680, 25144.00
890.4940, 25184.00
891.6200, 25214.00
892.7450, 25280.79
893.8700, 25345.00
894.9960, 25258.00
896.1210, 25375.00
897.2460, 25126.00
898.3700, 25436.00
899.4950, 25451.00
900.6190, 25368.00
901.7430, 25170.00
902.8670, 25648.00
903.9910, 25425.00
905.1150, 25127.00
906.2390, 25484.00
907.3620, 25569.00
908.4850, 25579.00
909.6080, 25479.00
910.7310, 25585.00
911.8540, 25580.00
912.9770, 25700.00
914.0990, 25855.00
915.2210, 25895.00
916.3440, 25924.83
917.4660, 25594.00
918.5870, 25865.00
919.7090, 25856.00
920.8310, 25771.00
921.9520, 25926.00
923.0730, 25661.00
924.1940, 25755.00
925.3150, 25870.00
926.4360, 25931.00
927.5560, 25974.42
928.6770, 26104.00
929.7970, 25991.00
930.9170, 26129.00
932.0370, 26091.00
933.1570, 26016.00
934.2760, 26069.00
935.3960, 26205.00
936.5150, 25970.00
937.6340, 26148.00
938.7530, 26222.00
939.8720, 26204.00
940.9910, 26178.00
942.1090, 26233.00
943.2280, 26222.56
944.3460, 26271.00
945.4640, 26276.00
946.5820, 26337.00
947.6990, 26401.00
948.8170, 26515.00
949.9340, 26589.00
951.0520, 26554.00
952.1690, 26400.00
953.2860, 26392.00
954.4030, 26453.00
955.5190, 26573.00
956.6360, 26434.00
957.7520, 26547.00
958.8680, 26572.00
959.9840, 26548.52
961.1000, 26604.00
962.2160, 26568.00
963.3310, 26654.00
964.4470, 26666.00
965.5620, 26644.36
966.6770, 26725.00
967.7920, 26625.00
968.9060, 26663.00
970.0210, 26711.00
971.1360, 26622.00
972.2500, 26828.00
973.3640, 26924.00
974.4780, 26822.00
975.5920, 26925.00
976.7050, 26899.00
977.8190, 27185.00
978.9320, 27014.00
980.0450, 27259.00
981.1580, 27370.00
982.2710, 27197.00
983.3840, 27382.00
984.4970, 27573.00
985.6090, 27613.00
986.7210, 27778.00
987.8330, 28035.00
988.9450, 28089.00
990.0570, 28363.00
991.1690, 28632.00
992.2800, 28789.00
993.3920, 28825.00
994.5030, 29036.00
995.6140, 28989.00
996.7250, 28998.00
997.8350, 28766.00
998.9460, 28680.00
1000.056, 28607.00
1001.167, 28714.00
1002.277, 28628.00
1003.387, 28575.00
1004.496, 28627.00
1005.606, 28456.00
1006.715, 28082.00
1007.825, 28149.00
1008.934, 28262.00
1010.043, 28094.02
1011.152, 28006.00
1012.260, 27880.00
1013.369, 27882.05
1014.477, 27821.82
1015.586, 27892.00
1016.694, 28017.00
1017.802, 27940.00
1018.909, 28141.00
1020.017, 28085.00
1021.124, 28118.00
1022.232, 28407.00
1023.339, 28509.00
1024.446, 28521.00
1025.553, 28618.00
1026.659, 28625.00
1027.766, 28556.00
1028.872, 28680.00
1029.979, 28650.31
1031.085, 28906.00
1032.191, 28653.00
1033.296, 28858.00
1034.402, 28789.00
1035.507, 28941.00
1036.613, 29053.00
1037.718, 29086.00
1038.823, 29116.00
1039.928, 29241.00
1041.032, 29049.00
1042.137, 29033.00
1043.241, 29403.00
1044.346, 29305.00
1045.450, 29250.00
1046.554, 29347.00
1047.657, 29433.00
1048.761, 29697.00
1049.864, 29851.00
1050.968, 29744.00
1052.071, 30133.00
1053.174, 29573.00
1054.277, 29288.00
1055.379, 29580.00
1056.482, 29410.00
1057.584, 29123.00
1058.687, 29081.00
1059.789, 28987.00
1060.891, 28926.00
1061.992, 28809.00
1063.094, 28796.00
1064.196, 28536.00
1065.297, 28586.00
1066.398, 28581.00
1067.499, 28662.00
1068.600, 28476.00
1069.701, 28417.00
1070.801, 28389.00
1071.902, 28665.00
1073.002, 28576.00
1074.102, 28561.00
1075.202, 28732.00
1076.302, 28656.00
1077.402, 28532.00
1078.501, 28740.00
1079.600, 28667.00
1080.700, 28704.00
1081.799, 28819.49
1082.898, 28715.00
1083.996, 28967.00
1085.095, 28999.00
1086.193, 29014.00
1087.292, 29086.00
1088.390, 29130.92
1089.488, 29167.03
1090.586, 29227.00
1091.683, 29267.00
1092.781, 29244.00
1093.878, 29329.00
1094.975, 29186.00
1096.073, 29589.00
1097.169, 29330.00
1098.266, 29569.00
1099.363, 29716.00
1100.459, 29760.00
1101.556, 29801.00
1102.652, 29774.00
1103.748, 29987.00
1104.844, 30000.00
1105.940, 30191.00
1107.035, 30225.00
1108.131, 30473.19
1109.226, 30904.00
1110.321, 31027.00
1111.416, 31467.00
1112.511, 31846.00
1113.605, 32493.00
1114.700, 33214.00
1115.794, 33931.00
1116.889, 35321.00
1117.983, 36454.00
1119.077, 37560.00
1120.170, 38706.00
1121.264, 39653.00
1122.357, 40182.00
1123.451, 40616.00
1124.544, 40113.00
1125.637, 39185.00
1126.730, 38245.00
1127.823, 37274.00
1128.915, 36462.00
1130.008, 35744.00
1131.100, 35254.00
1132.192, 35270.00
1133.284, 35120.00
1134.376, 35211.00
1135.467, 35152.00
1136.559, 35217.00
1137.650, 35132.00
1138.742, 34894.29
1139.833, 34696.00
1140.924, 34165.00
1142.014, 33739.00
1143.105, 33044.00
1144.195, 32645.00
1145.286, 32135.00
1146.376, 31807.00
1147.466, 31164.00
1148.556, 31083.00
1149.646, 30761.00
1150.735, 30483.00
1151.825, 30438.00
1152.914, 30465.00
1154.003, 30222.00
1155.092, 30228.00
1156.181, 30276.00
1157.270, 30073.00
1158.358, 30041.00
1159.447, 30248.00
1160.535, 30029.00
1161.623, 30101.00
1162.711, 30050.00
1163.799, 29775.00
1164.886, 29956.00
1165.974, 29942.00
1167.061, 29765.00
1168.148, 30238.00
1169.235, 29789.00
1170.322, 30034.00
1171.409, 30042.00
1172.496, 29711.00
1173.582, 29791.00
1174.669, 29702.00
1175.755, 29850.00
1176.841, 29706.00
1177.927, 29930.00
1179.012, 29968.00
1180.098, 29888.00
1181.183, 29782.00
1182.269, 29743.00
1183.354, 29914.00
1184.439, 29926.00
1185.524, 29780.00
1186.608, 29992.00
1187.693, 29782.00
1188.777, 30026.00
1189.862, 29945.00
1190.946, 29965.00
1192.030, 29951.00
1193.113, 29957.30
1194.197, 29956.00
1195.281, 29964.19
1196.364, 30000.00
1197.447, 29993.00
1198.530, 30005.00
1199.613, 30028.00
1200.696, 29915.00
1201.779, 29981.00
1202.861, 29971.00
1203.944, 30162.00
1205.026, 30168.00
1206.108, 30118.00
1207.190, 30058.00
1208.271, 30042.00
1209.353, 30033.89
1210.435, 30072.43
1211.516, 30057.00
1212.597, 30162.00
1213.678, 30182.00
1214.759, 30145.00
1215.840, 30174.00
1216.920, 30166.00
1218.001, 30224.16
1219.081, 30366.00
1220.161, 30358.00
1221.241, 30440.00
1222.321, 30494.00
1223.401, 30260.00
1224.480, 30262.00
1225.560, 30216.00
1226.639, 30406.00
1227.718, 30452.00
1228.797, 30705.00
1229.876, 30432.00
1230.955, 30341.00
1232.033, 30584.00
1233.112, 30742.00
1234.190, 30278.00
1235.268, 30393.00
1236.346, 30602.00
1237.424, 30659.00
1238.501, 30369.00
1239.579, 30506.00
1240.656, 30395.00
1241.733, 30495.00
1242.811, 30493.00
1243.888, 30385.00
1244.964, 30591.00
1246.041, 30329.00
1247.117, 30567.00
1248.194, 30618.00
1249.270, 30654.00
1250.346, 30538.00
1251.422, 30635.00
1252.498, 30536.00
1253.573, 30700.00
1254.649, 30543.00
1255.724, 30706.00
1256.800, 30932.00
1257.875, 30763.00
1258.950, 30901.00
1260.024, 30877.00
1261.099, 30656.00
1262.173, 30798.00
1263.248, 30754.00
1264.322, 30882.00
1265.396, 30930.00
1266.470, 31030.00
1267.544, 30871.00
1268.617, 30961.00
1269.691, 30913.00
1270.764, 30947.00
1271.837, 30993.84
1272.910, 30956.18
1273.983, 31034.00
1275.056, 30970.00
1276.129, 30882.00
1277.201, 30975.00
1278.273, 31001.00
1279.346, 31139.00
1280.418, 31137.79
1281.489, 31199.05
1282.561, 31137.00
1283.633, 31212.00
1284.704, 31153.00
1285.776, 31019.00
1286.847, 31219.00
1287.918, 31254.00
1288.989, 31157.00
1290.059, 31110.00
1291.130, 31348.00
1292.200, 31088.00
1293.271, 31112.00
1294.341, 31335.00
1295.411, 31251.00
1296.481, 31144.00
1297.551, 31488.00
1298.620, 31464.00
1299.690, 31577.00
1300.759, 31422.00
1301.828, 31477.00
1302.897, 31412.00
1303.966, 31689.00
1305.035, 31298.00
1306.103, 31365.00
1307.172, 31658.00
1308.240, 31545.00
1309.308, 31504.00
1310.376, 31553.00
1311.444, 31857.00
1312.512, 31745.00
