##NAMES=Microcline
##RRUFFID=R050193
##IDEAL CHEMISTRY=KAlSi_3_O_8_
##LOCALITY=Devil's Head, Douglas County, Colorado, USA
##OWNER=RRUFF
##SOURCE=Dave Bunk Minerals
##DESCRIPTION=White to colorless heterogeneous mixture of K and Na feldspar in a cluster of crystals. Crystal structure determined, presented below. This sample is known as an intermediate microcline in the literature.
##STATUS=The identification of this mineral has been confirmed by X-ray diffraction and chemical analysis
##URL=rruff.info/R050193
##MEASURED CHEMISTRY=(K_0.929_Na_0.071_)(Al_1.005_Si_2.994_Fe_0.001_)O_7.993_F_0.007_  ; Light Band :  (Na_0.973_K_0.007_Ca_0.020_)(Al_1.020_Si_2.980_)O_8_ ; Dark Band
##PIN_ID=L00937
##ORIENTATION=Laser parallel to (1 1 0). Fiducial mark perpendicular to laser is parallel to c [0 0 1]
62.16800, 6538.000
63.41100, 7801.000
64.65300, 9400.000
65.89600, 10980.00
67.13800, 12555.00
68.38000, 14057.00
69.62200, 15469.00
70.86300, 16745.00
72.10500, 18361.00
73.34600, 20021.00
74.58700, 21741.00
75.82800, 23429.00
77.06900, 24633.00
78.30900, 25809.00
79.55000, 27238.00
80.79000, 28965.00
82.03000, 30302.00
83.27000, 32218.00
84.51000, 33767.00
85.74900, 34802.00
86.98900, 36226.00
88.22800, 37412.00
89.46700, 38833.00
90.70600, 40767.00
91.94400, 42560.00
93.18300, 43560.00
94.42100, 44868.00
95.65900, 46567.00
96.89700, 47688.00
98.13500, 49612.00
99.37300, 51231.00
100.6100, 52826.00
101.8480, 55013.00
103.0850, 57523.02
104.3220, 60793.00
105.5590, 63168.00
106.7950, 66317.00
108.0320, 69104.00
109.2680, 70378.00
110.5040, 70852.00
111.7400, 70771.00
112.9760, 69377.00
114.2120, 68435.00
115.4470, 66469.00
116.6820, 64707.00
117.9170, 63356.00
119.1520, 62831.00
120.3870, 62452.00
121.6220, 62585.00
122.8560, 62478.00
124.0900, 62419.00
125.3240, 61930.00
126.5580, 61357.00
127.7920, 60364.00
129.0260, 59106.00
130.2590, 58187.00
131.4920, 57815.00
132.7250, 56960.00
133.9580, 56705.00
135.1910, 56683.00
136.4230, 56893.00
137.6560, 57221.00
138.8880, 57918.00
140.1200, 58814.00
141.3520, 59749.00
142.5830, 60703.00
143.8150, 62544.00
145.0460, 64183.00
146.2770, 66492.00
147.5080, 68523.00
148.7390, 71633.00
149.9700, 74400.00
151.2000, 76077.00
152.4310, 77238.00
153.6610, 77208.00
154.8910, 75459.00
156.1210, 73690.00
157.3500, 72050.00
158.5800, 70926.00
159.8090, 69376.37
161.0380, 67554.00
162.2670, 67060.00
163.4960, 65966.00
164.7240, 65451.00
165.9530, 64604.00
167.1810, 63554.00
168.4090, 63944.00
169.6370, 64241.00
170.8650, 64061.00
172.0920, 65016.00
173.3200, 65578.00
174.5470, 66369.00
175.7740, 67767.00
177.0010, 68111.00
178.2280, 68954.00
179.4540, 68400.00
180.6810, 67902.00
181.9070, 67394.00
183.1330, 66704.00
184.3590, 66032.33
185.5850, 64733.00
186.8100, 64487.00
188.0350, 63758.00
189.2610, 62947.00
190.4860, 62522.00
191.7110, 62100.39
192.9350, 61827.00
194.1600, 61803.00
195.3840, 61603.00
196.6080, 61922.00
197.8320, 62187.00
199.0560, 62061.00
200.2800, 62167.00
201.5030, 62027.00
202.7270, 61841.00
203.9500, 61470.00
205.1730, 61527.00
206.3950, 61484.00
207.6180, 61199.00
208.8410, 61162.00
210.0630, 60940.00
211.2850, 60611.00
212.5070, 60195.00
213.7290, 59299.00
214.9500, 58902.00
216.1720, 58670.00
217.3930, 58218.00
218.6140, 58288.00
219.8350, 58096.00
221.0560, 57841.00
222.2770, 57604.00
223.4970, 58187.00
224.7170, 58217.00
225.9370, 58335.00
227.1570, 58184.00
228.3770, 58269.85
229.5970, 58297.00
230.8160, 58314.00
232.0350, 58504.00
233.2540, 58586.00
234.4730, 58731.01
235.6920, 58915.16
236.9110, 59051.00
238.1290, 59224.00
239.3470, 59398.00
240.5650, 59423.00
241.7830, 59982.00
243.0010, 60538.00
244.2180, 60944.00
245.4360, 61977.00
246.6530, 62595.00
247.8700, 63644.00
249.0870, 64622.00
250.3040, 65499.00
251.5200, 66449.00
252.7370, 67292.00
253.9530, 68046.00
255.1690, 68646.00
256.3850, 69157.00
257.6000, 69732.00
258.8160, 70322.00
260.0310, 71520.00
261.2460, 72744.00
262.4610, 73581.00
263.6760, 75005.00
264.8910, 76025.00
266.1050, 77043.00
267.3200, 77715.00
268.5340, 78376.00
269.7480, 78867.00
270.9620, 78112.00
272.1750, 77731.00
273.3890, 77588.00
274.6020, 77626.00
275.8150, 78335.00
277.0280, 79048.00
278.2410, 79789.00
279.4540, 81383.00
280.6660, 82439.00
281.8790, 82736.00
283.0910, 82940.00
284.3030, 82372.00
285.5140, 81738.00
286.7260, 80664.00
287.9380, 80252.00
289.1490, 78595.00
290.3600, 77585.00
291.5710, 76090.00
292.7820, 74072.00
293.9920, 72344.00
295.2030, 70169.00
296.4130, 68333.00
297.6230, 67185.00
298.8330, 65635.00
300.0430, 64746.00
301.2520, 64351.00
302.4620, 63593.00
303.6710, 63087.00
304.8800, 62981.00
306.0890, 62907.00
307.2980, 62140.00
308.5070, 62284.00
309.7150, 61902.00
310.9230, 62258.00
312.1310, 62130.00
313.3390, 62082.00
314.5470, 61963.00
315.7550, 62274.00
316.9620, 62103.00
318.1690, 62319.05
319.3760, 62177.00
320.5830, 62716.00
321.7900, 62866.00
322.9960, 63189.00
324.2030, 63813.00
325.4090, 64228.00
326.6150, 64850.00
327.8210, 65564.00
329.0270, 65431.74
330.2320, 65881.00
331.4380, 65094.00
332.6430, 64854.00
333.8480, 64486.00
335.0530, 64225.00
336.2580, 64154.00
337.4620, 63452.00
338.6670, 63398.00
339.8710, 62927.00
341.0750, 63275.00
342.2790, 63008.00
343.4820, 63018.00
344.6860, 63061.00
345.8890, 63156.00
347.0920, 63378.00
348.2960, 62940.00
349.4980, 63286.00
350.7010, 63331.00
351.9040, 64117.00
353.1060, 63539.00
354.3080, 64119.00
355.5100, 64035.00
356.7120, 64647.00
357.9140, 64364.00
359.1150, 64854.00
360.3170, 64695.00
361.5180, 65288.00
362.7190, 65517.00
363.9200, 65395.00
365.1200, 65730.00
366.3210, 65895.00
367.5210, 65874.00
368.7210, 65914.00
369.9210, 66268.00
371.1210, 66511.00
372.3210, 66463.00
373.5200, 66517.04
374.7200, 66045.00
375.9190, 66272.00
377.1180, 65704.00
378.3170, 65509.00
379.5150, 65296.00
380.7140, 65168.01
381.9120, 65062.67
383.1110, 65227.00
384.3090, 65065.00
385.5060, 65215.00
386.7040, 65523.00
387.9020, 65477.00
389.0990, 65744.00
390.2960, 65742.00
391.4930, 65500.00
392.6900, 66424.00
393.8860, 66577.00
395.0830, 66780.00
396.2790, 67557.00
397.4750, 68000.00
398.6710, 68743.00
399.8670, 69203.00
401.0630, 69792.02
402.2580, 70402.00
403.4540, 71030.00
404.6490, 71170.00
405.8440, 71985.00
407.0390, 72672.00
408.2330, 72820.00
409.4280, 72862.00
410.6220, 72925.00
411.8160, 72386.00
413.0100, 71498.00
414.2040, 71473.00
415.3980, 71002.00
416.5910, 70592.00
417.7850, 70462.00
418.9780, 69264.00
420.1710, 69124.00
421.3640, 68080.00
422.5560, 67724.00
423.7490, 67578.00
424.9410, 67393.00
426.1330, 67403.00
427.3250, 67513.00
428.5170, 67758.00
429.7090, 67801.12
430.9000, 67942.00
432.0910, 68020.00
433.2820, 68057.00
434.4730, 68123.00
435.6640, 68395.00
436.8550, 68652.00
438.0450, 69034.11
439.2360, 69734.00
440.4260, 70144.00
441.6160, 70733.00
442.8060, 71709.00
443.9950, 72255.00
445.1850, 73310.00
446.3740, 74747.00
447.5630, 76211.00
448.7520, 77801.00
449.9410, 79559.00
451.1300, 81146.00
452.3180, 82837.00
453.5060, 84034.00
454.6950, 84550.00
455.8830, 84618.00
457.0700, 84342.00
458.2580, 83571.00
459.4450, 82685.00
460.6330, 81740.00
461.8200, 80882.00
463.0070, 80477.00
464.1940, 80392.00
465.3800, 80712.00
466.5670, 81867.00
467.7530, 83729.00
468.9390, 85615.00
470.1250, 88595.00
471.3110, 91904.00
472.4970, 95395.00
473.6820, 99216.00
474.8680, 103134.0
476.0530, 105433.0
477.2380, 106426.0
478.4230, 106126.0
479.6070, 103850.0
480.7920, 100658.0
481.9760, 97553.00
483.1600, 94428.00
484.3440, 90658.00
485.5280, 87840.00
486.7120, 85963.00
487.8950, 84111.00
489.0780, 82787.00
490.2620, 81916.00
491.4450, 81356.14
492.6270, 81255.81
493.8100, 81545.00
494.9920, 82261.00
496.1750, 83342.00
497.3570, 84938.00
498.5390, 87583.00
499.7210, 90889.00
500.9020, 95999.00
502.0840, 101258.0
503.2650, 107366.0
504.4460, 115350.0
505.6270, 123157.0
506.8080, 131141.0
507.9890, 139103.0
509.1690, 146223.0
510.3500, 152059.0
511.5300, 157058.0
512.7100, 158337.0
513.8900, 156670.0
515.0690, 150243.0
516.2490, 140417.0
517.4280, 130384.0
518.6070, 119116.0
519.7860, 110156.0
520.9650, 102237.0
522.1440, 96863.00
523.3220, 92211.00
524.5010, 88741.00
525.6790, 86032.00
526.8570, 84163.00
528.0350, 82447.00
529.2130, 81247.00
530.3900, 80221.00
531.5670, 79379.00
532.7450, 78446.00
533.9220, 77790.00
535.0980, 77375.00
536.2750, 77116.00
537.4520, 76996.00
538.6280, 76408.00
539.8040, 76287.00
540.9800, 76393.00
542.1560, 75764.00
543.3320, 75764.00
544.5070, 75933.00
545.6830, 75341.00
546.8580, 75338.00
548.0330, 75356.00
549.2080, 75142.00
550.3830, 75218.00
551.5570, 75256.00
552.7310, 75255.00
553.9060, 75166.00
555.0800, 75233.00
556.2540, 74874.00
557.4270, 74888.00
558.6010, 74955.00
559.7740, 74871.76
560.9470, 74969.00
562.1210, 74989.00
563.2930, 75070.00
564.4660, 75175.00
565.6390, 75246.02
566.8110, 75379.00
567.9830, 75492.00
569.1550, 75358.00
570.3270, 75564.00
571.4990, 75540.00
572.6710, 76020.00
573.8420, 75937.00
575.0130, 76511.00
576.1840, 76473.00
577.3550, 77010.00
578.5260, 76623.00
579.6970, 76819.00
580.8670, 77094.00
582.0370, 77085.00
583.2070, 77341.00
584.3770, 77073.00
585.5470, 77225.00
586.7170, 76907.00
587.8860, 76938.00
589.0550, 76836.00
590.2240, 76869.00
591.3930, 76845.52
592.5620, 76406.00
593.7310, 76888.00
594.8990, 76525.00
596.0670, 76641.00
597.2350, 76719.00
598.4030, 76684.00
599.5710, 76699.00
600.7390, 77044.00
601.9060, 76601.00
603.0740, 76639.00
604.2410, 77060.00
605.4080, 77283.00
606.5740, 77423.00
607.7410, 76848.00
608.9080, 77286.00
610.0740, 77191.00
611.2400, 77567.00
612.4060, 77448.00
613.5720, 77485.00
614.7370, 77650.00
615.9030, 77933.00
617.0680, 77699.00
618.2330, 77997.00
619.3980, 78152.00
620.5630, 78304.00
621.7280, 78502.91
622.8920, 78459.00
624.0570, 78831.00
625.2210, 78920.00
626.3850, 79114.00
627.5490, 79082.00
628.7120, 78931.00
629.8760, 79254.00
631.0390, 79106.00
632.2020, 79489.00
633.3650, 79675.00
634.5280, 79462.00
635.6910, 79357.00
636.8530, 79484.00
638.0160, 79697.00
639.1780, 79183.00
640.3400, 79660.00
641.5020, 79497.00
642.6640, 80166.00
643.8250, 80004.00
644.9870, 79798.00
646.1480, 80325.00
647.3090, 80255.00
648.4700, 80675.00
649.6300, 80338.00
650.7910, 80408.00
651.9510, 80257.00
653.1120, 80517.00
654.2720, 80197.00
655.4320, 80212.98
656.5910, 80409.88
657.7510, 80062.00
658.9100, 80677.00
660.0690, 80734.00
661.2290, 80600.00
662.3880, 80076.00
663.5460, 80443.00
664.7050, 80364.00
665.8630, 80539.00
667.0220, 80255.00
668.1800, 80282.00
669.3380, 80275.00
670.4950, 80448.00
671.6530, 80377.00
672.8100, 81041.00
673.9680, 80200.00
675.1250, 80056.00
676.2820, 80392.00
677.4390, 80630.00
678.5950, 80494.00
679.7520, 80735.00
680.9080, 80503.00
682.0640, 80855.00
683.2200, 80701.00
684.3760, 80591.00
685.5320, 80629.00
686.6870, 80740.00
687.8420, 80872.00
688.9980, 80771.00
690.1530, 81200.00
691.3070, 80925.00
692.4620, 80826.00
693.6170, 81247.00
694.7710, 81605.00
695.9250, 81399.00
697.0790, 81334.00
698.2330, 81333.00
699.3870, 81648.00
700.5400, 81733.00
701.6940, 81784.00
702.8470, 81891.00
704.0000, 81951.00
705.1530, 82295.00
706.3050, 82532.00
707.4580, 82578.00
708.6100, 82974.00
709.7630, 82737.00
710.9150, 82946.00
712.0660, 83431.00
713.2180, 83010.00
714.3700, 83477.00
715.5210, 83562.00
716.6720, 83606.00
717.8240, 83986.00
718.9740, 84276.00
720.1250, 84176.00
721.2760, 84606.00
722.4260, 84653.00
723.5770, 84527.00
724.7270, 84919.00
725.8770, 84710.00
727.0260, 84648.00
728.1760, 85113.00
729.3250, 84808.00
730.4750, 85442.00
731.6240, 85811.00
732.7730, 86204.00
733.9220, 86814.00
735.0700, 87357.00
736.2190, 87638.00
737.3670, 88056.00
738.5150, 88406.00
739.6630, 88958.00
740.8110, 89448.00
741.9590, 89922.45
743.1060, 90607.00
744.2540, 91010.00
745.4010, 91313.00
746.5480, 91988.00
747.6950, 91968.00
748.8410, 92311.00
749.9880, 92678.00
751.1340, 92538.00
752.2800, 92663.00
753.4260, 92663.00
754.5720, 92763.00
755.7180, 92695.00
756.8640, 93103.00
758.0090, 93965.00
759.1540, 94242.00
760.2990, 94410.00
761.4440, 95191.00
762.5890, 95540.00
763.7340, 95754.00
764.8780, 94947.00
766.0220, 94009.00
767.1660, 92773.00
768.3100, 92195.00
769.4540, 91550.00
770.5980, 90971.00
771.7410, 90386.00
772.8840, 89984.00
774.0280, 90112.00
775.1700, 89908.00
776.3130, 89282.00
777.4560, 89022.00
778.5980, 89520.00
779.7410, 89519.00
780.8830, 89705.00
782.0250, 89433.00
783.1670, 89513.00
784.3080, 90018.00
785.4500, 89784.00
786.5910, 89942.00
787.7320, 90113.00
788.8730, 90292.00
790.0140, 90472.00
791.1550, 90962.00
792.2950, 91114.00
793.4360, 90882.00
794.5760, 91430.00
795.7160, 91673.00
796.8560, 91815.00
797.9960, 92271.00
799.1350, 92247.00
800.2750, 92221.00
801.4140, 92768.00
802.5530, 92539.00
803.6920, 92982.00
804.8310, 93622.00
805.9690, 94035.00
807.1080, 94804.00
808.2460, 95495.00
809.3840, 96710.00
810.5220, 97875.00
811.6600, 98683.00
812.7970, 99320.00
813.9350, 99206.00
815.0720, 98506.00
816.2090, 98102.00
817.3460, 96875.00
818.4830, 95621.00
819.6200, 94454.00
820.7560, 93603.00
821.8930, 92720.00
823.0290, 92156.00
824.1650, 91801.00
825.3010, 91437.00
826.4360, 91516.00
827.5720, 91277.00
828.7070, 91444.00
829.8420, 91014.00
830.9770, 91250.00
832.1120, 91178.00
833.2470, 91266.00
834.3820, 91105.00
835.5160, 90559.00
836.6500, 91355.00
837.7840, 91192.00
838.9180, 91736.00
840.0520, 91256.00
841.1860, 91327.00
842.3190, 91412.00
843.4520, 91531.00
844.5850, 91075.00
845.7180, 91467.00
846.8510, 91467.00
847.9840, 91913.00
849.1160, 92014.95
850.2490, 92198.00
851.3810, 92135.00
852.5130, 92405.00
853.6450, 92093.00
854.7760, 92367.00
855.9080, 92169.00
857.0390, 92067.00
858.1700, 92380.00
859.3010, 92361.00
860.4320, 92556.00
861.5630, 92865.00
862.6930, 92824.00
863.8240, 91824.00
864.9540, 92804.00
866.0840, 92662.00
867.2140, 93427.00
868.3440, 93292.00
869.4730, 93461.00
870.6030, 93022.00
871.7320, 92812.00
872.8610, 92857.02
873.9900, 93445.00
875.1190, 93012.00
876.2470, 93119.00
877.3760, 93588.00
878.5040, 93587.00
879.6320, 93589.00
880.7600, 93608.00
881.8880, 93840.00
883.0150, 93834.70
884.1430, 94222.00
885.2700, 94021.00
886.3970, 94157.00
887.5240, 94328.00
888.6510, 94152.00
889.7780, 94524.00
890.9040, 94423.00
892.0310, 94507.00
893.1570, 94621.07
894.2830, 94538.75
895.4090, 94715.00
896.5350, 94603.00
897.6600, 94614.00
898.7860, 94918.00
899.9110, 95302.00
901.0360, 94952.00
902.1610, 95219.00
903.2860, 95373.00
904.4100, 95847.00
905.5350, 95394.00
906.6590, 95954.00
907.7830, 95798.00
908.9070, 95843.00
910.0310, 95986.00
911.1540, 95916.00
912.2780, 96174.92
913.4010, 96014.00
914.5240, 96637.00
915.6470, 96577.00
916.7700, 96799.00
917.8930, 96507.00
919.0150, 97087.00
920.1380, 96569.00
921.2600, 97148.00
922.3820, 97305.00
923.5040, 96753.00
924.6260, 96940.00
925.7470, 97210.00
926.8690, 97417.00
927.9900, 97556.19
929.1110, 97628.00
930.2320, 97706.00
931.3530, 97837.00
932.4730, 97689.00
933.5940, 97988.00
934.7140, 97944.00
935.8340, 98185.00
936.9540, 98332.00
938.0740, 98006.00
939.1930, 98582.00
940.3130, 97733.00
941.4320, 98368.00
942.5510, 98389.00
943.6700, 98662.00
944.7890, 98549.00
945.9080, 98714.00
947.0260, 98960.00
948.1450, 98976.00
949.2630, 99191.00
950.3810, 99311.00
951.4990, 99675.00
952.6170, 99732.00
953.7340, 99420.00
954.8520, 100129.0
955.9690, 100388.0
957.0860, 99841.00
958.2030, 100232.0
959.3200, 100026.0
960.4360, 100494.0
961.5530, 100741.0
962.6690, 100738.0
963.7850, 100904.0
964.9010, 100747.0
966.0170, 101591.0
967.1330, 101325.0
968.2480, 102115.0
969.3630, 101522.0
970.4790, 102478.0
971.5940, 102466.0
972.7080, 103424.0
973.8230, 103942.0
974.9380, 104368.0
976.0520, 104739.0
977.1660, 105059.0
978.2800, 105230.0
979.3940, 105923.0
980.5080, 105004.0
981.6220, 105581.0
982.7350, 104670.0
983.8480, 104934.0
984.9610, 105125.0
986.0740, 105386.0
987.1870, 105496.0
988.3000, 106092.0
989.4120, 105894.0
990.5250, 106119.0
991.6370, 106642.0
992.7490, 106457.0
993.8610, 106518.0
994.9720, 106966.0
996.0840, 107375.0
997.1950, 106858.0
998.3060, 107116.0
999.4170, 107429.0
1000.528, 107525.0
1001.639, 107684.0
1002.750, 108035.0
1003.860, 107728.0
1004.970, 107116.0
1006.080, 107206.0
1007.190, 107033.0
1008.300, 106484.0
1009.410, 106654.0
1010.519, 107009.0
1011.628, 105768.0
1012.738, 106801.0
1013.846, 106743.0
1014.955, 106513.0
1016.064, 106904.0
1017.172, 106699.8
1018.281, 107238.0
1019.389, 106544.0
1020.497, 106569.0
1021.605, 106284.0
1022.713, 106571.0
1023.820, 107113.0
1024.928, 106956.0
1026.035, 107243.0
1027.142, 106920.0
1028.249, 106946.0
1029.356, 107241.0
1030.462, 107662.0
1031.569, 107944.0
1032.675, 107787.0
1033.781, 107759.0
1034.887, 107448.0
1035.993, 108274.0
1037.098, 107451.0
1038.204, 107694.0
1039.309, 108100.0
1040.415, 107584.0
1041.520, 108245.0
1042.624, 107960.0
1043.729, 108008.0
1044.834, 108166.0
1045.938, 108199.0
1047.042, 108166.0
1048.146, 108404.0
1049.250, 108491.0
1050.354, 108378.0
1051.458, 108858.0
1052.561, 108363.0
1053.664, 108633.0
1054.767, 108634.0
1055.870, 108913.0
1056.973, 109361.0
1058.076, 108392.0
1059.178, 109385.0
1060.281, 108744.0
1061.383, 108600.0
1062.485, 109122.0
1063.587, 108760.0
1064.688, 109046.0
1065.790, 109085.0
1066.891, 109038.0
1067.993, 109358.0
1069.094, 109487.0
1070.195, 109589.4
1071.295, 109467.0
1072.396, 109901.0
1073.496, 110024.5
1074.597, 110305.0
1075.697, 110519.0
1076.797, 110609.0
1077.897, 110983.0
1078.996, 111155.0
1080.096, 111279.0
1081.195, 111578.0
1082.294, 111630.0
1083.393, 111432.0
1084.492, 112242.0
1085.591, 112100.0
1086.689, 112240.0
1087.788, 112851.0
1088.886, 113172.0
1089.984, 113635.8
1091.082, 114203.0
1092.180, 114617.0
1093.277, 115016.0
1094.375, 115480.0
1095.472, 116436.0
1096.569, 116770.0
1097.666, 117319.0
1098.763, 117412.0
1099.860, 117704.0
1100.956, 117148.0
1102.053, 117709.0
1103.149, 116759.0
1104.245, 116945.0
1105.341, 116561.0
1106.436, 116585.0
1107.532, 116885.0
1108.627, 116242.0
1109.723, 116886.0
1110.818, 116265.0
1111.913, 116982.0
1113.007, 117289.0
1114.102, 117196.0
1115.197, 117408.0
1116.291, 117578.0
1117.385, 117749.0
1118.479, 117545.0
1119.573, 118420.0
1120.666, 118913.0
1121.760, 118785.0
1122.853, 119801.0
1123.947, 119383.0
1125.040, 119397.0
1126.132, 118690.0
1127.225, 118809.0
1128.318, 119185.0
1129.410, 118662.0
1130.502, 118854.0
1131.595, 118790.0
1132.687, 118325.0
1133.778, 118569.0
1134.870, 118372.9
1135.961, 118659.0
1137.053, 118440.0
1138.144, 118705.0
1139.235, 119050.0
1140.326, 118988.0
1141.416, 119088.3
1142.507, 118336.0
1143.597, 118862.0
1144.688, 118467.0
1145.778, 118074.0
1146.868, 118567.0
1147.957, 118043.0
1149.047, 118309.0
1150.136, 117946.0
1151.226, 118264.0
1152.315, 117739.0
1153.404, 118405.0
1154.493, 118477.0
1155.581, 118058.0
1156.670, 118272.0
1157.758, 118217.0
1158.846, 117896.0
1159.934, 118211.0
1161.022, 117792.0
1162.110, 117949.0
1163.198, 117680.0
1164.285, 118020.0
1165.372, 117667.0
1166.459, 117822.0
1167.546, 118168.0
1168.633, 118379.0
1169.720, 118523.0
1170.806, 118160.0
1171.892, 118687.0
1172.979, 118740.0
1174.065, 118363.0
1175.150, 118775.0
1176.236, 118646.0
1177.322, 118953.0
1178.407, 119129.0
1179.492, 119044.0
1180.577, 118702.0
1181.662, 119257.0
1182.747, 119077.0
1183.832, 119411.0
1184.916, 119404.0
1186.000, 119085.0
1187.084, 119734.0
1188.168, 119614.0
1189.252, 119310.0
1190.336, 119850.0
1191.419, 119500.0
1192.503, 119590.0
1193.586, 120062.0
1194.669, 119899.0
1195.752, 120598.0
1196.835, 120642.0
1197.917, 120192.0
1199.000, 120811.0
1200.082, 120720.0
1201.164, 121039.0
1202.246, 121207.2
1203.328, 120579.0
1204.409, 121321.0
1205.491, 120999.0
1206.572, 120765.0
1207.653, 121381.0
1208.734, 121134.0
1209.815, 121188.0
1210.896, 121255.0
1211.976, 121576.0
1213.057, 121847.0
1214.137, 121779.0
1215.217, 121832.0
1216.297, 122184.0
1217.377, 121875.0
1218.456, 121523.0
1219.536, 122589.0
1220.615, 122879.0
1221.694, 122841.0
1222.773, 122530.0
1223.852, 122636.0
1224.931, 123124.0
1226.009, 122838.0
1227.088, 123052.0
1228.166, 123217.0
1229.244, 123366.0
1230.322, 123682.0
1231.400, 123396.0
