##NAMES=Microcline
##RRUFFID=R050150
##IDEAL CHEMISTRY=KAlSi_3_O_8_
##LOCALITY=Crystal Peak area, Park/Teller Counties, Colorado, USA
##OWNER=RRUFF
##SOURCE=Dave Bunk Minerals
##DESCRIPTION=Pale blue prismatic crystals
##STATUS=The identification of this mineral has been confirmed by X-ray diffraction and chemical analysis
##URL=rruff.info/R050150
##MEASURED CHEMISTRY=(K_0.95_Na_0.05_)_Î£=1_Al_1.00_Si_3.00_O_8_
##PIN_ID=L00945
##ORIENTATION=Laser parallel to a* (1 0 0). Fiducial mark perpendicular to laser is parallel to b [0 1 0]
137.6830, 11370.00
138.9210, 11476.00
140.1580, 11702.00
141.3950, 11739.00
142.6330, 11830.00
143.8690, 11877.00
145.1060, 12000.00
146.3430, 12281.00
147.5790, 12467.00
148.8150, 12631.00
150.0510, 12654.00
151.2870, 12699.86
152.5220, 12638.98
153.7580, 12563.00
154.9930, 12392.00
156.2280, 12141.00
157.4620, 11948.00
158.6970, 11820.00
159.9310, 11787.00
161.1660, 11712.00
162.4000, 11718.00
163.6330, 11732.00
164.8670, 11659.00
166.1000, 11700.00
167.3340, 12016.00
168.5670, 12284.00
169.8000, 12929.00
171.0320, 13102.00
172.2650, 13277.00
173.4970, 13374.00
174.7290, 13666.36
175.9610, 13787.60
177.1930, 14103.00
178.4240, 14022.00
179.6550, 13950.00
180.8870, 13818.00
182.1170, 13488.00
183.3480, 13179.00
184.5790, 12773.00
185.8090, 12440.00
187.0390, 12411.00
188.2690, 12437.00
189.4990, 12505.00
190.7290, 12518.00
191.9580, 12564.00
193.1870, 12497.00
194.4160, 12589.00
195.6450, 12681.00
196.8740, 12753.00
198.1020, 12633.00
199.3310, 12764.00
200.5590, 12773.00
201.7870, 12674.00
203.0140, 12368.00
204.2420, 12198.00
205.4690, 12007.00
206.6960, 11600.00
207.9230, 11663.00
209.1500, 11421.00
210.3760, 11344.00
211.6030, 11305.00
212.8290, 11324.00
214.0550, 11266.62
215.2810, 11274.90
216.5060, 11238.00
217.7320, 11273.00
218.9570, 11312.00
220.1820, 11319.00
221.4070, 11501.00
222.6320, 11449.00
223.8560, 11470.00
225.0800, 11546.00
226.3040, 11502.00
227.5280, 11612.00
228.7520, 11545.00
229.9760, 11523.00
231.1990, 11502.00
232.4220, 11687.00
233.6450, 11723.00
234.8680, 11904.00
236.0910, 11687.00
237.3130, 11919.00
238.5350, 11805.00
239.7570, 11877.00
240.9790, 12185.00
242.2010, 12152.00
243.4220, 12395.00
244.6430, 12754.00
245.8640, 13289.00
247.0850, 13560.00
248.3060, 14250.00
249.5270, 15002.00
250.7470, 15529.00
251.9670, 16323.00
253.1870, 17366.96
254.4070, 18426.00
255.6260, 19719.00
256.8460, 20919.00
258.0650, 22284.00
259.2840, 23047.00
260.5030, 23767.00
261.7220, 23812.00
262.9400, 23896.00
264.1580, 24341.00
265.3760, 24269.00
266.5940, 23910.00
267.8120, 23178.00
269.0290, 22355.00
270.2470, 21596.00
271.4640, 20482.00
272.6810, 19976.00
273.8980, 19175.00
275.1140, 18976.00
276.3310, 18908.00
277.5470, 18827.00
278.7630, 19041.00
279.9790, 19250.00
281.1940, 19408.00
282.4100, 19437.00
283.6250, 19417.00
284.8400, 19222.00
286.0550, 18866.41
287.2700, 18439.00
288.4850, 17797.00
289.6990, 16875.00
290.9130, 16065.00
292.1270, 15107.00
293.3410, 14425.00
294.5540, 13808.00
295.7680, 13476.00
296.9810, 13172.00
298.1940, 12948.00
299.4070, 12680.00
300.6200, 12552.88
301.8320, 12469.00
303.0450, 12346.00
304.2570, 12289.00
305.4690, 12194.00
306.6800, 12149.00
307.8920, 12153.00
309.1030, 12223.00
310.3150, 12065.00
311.5260, 12141.00
312.7360, 12045.00
313.9470, 12089.00
315.1580, 12093.00
316.3680, 12031.00
317.5780, 12139.00
318.7880, 12221.00
319.9980, 12308.00
321.2070, 12342.00
322.4170, 12359.00
323.6260, 12517.00
324.8350, 12626.00
326.0430, 12663.00
327.2520, 12723.00
328.4610, 12780.41
329.6690, 12882.00
330.8770, 12830.00
332.0850, 12894.00
333.2920, 12836.00
334.5000, 12905.00
335.7070, 12741.00
336.9140, 12716.00
338.1210, 12546.00
339.3280, 12584.00
340.5350, 12646.00
341.7410, 12600.00
342.9470, 12515.00
344.1540, 12546.00
345.3590, 12541.00
346.5650, 12606.00
347.7710, 12600.60
348.9760, 12520.00
350.1810, 12652.00
351.3860, 12654.00
352.5910, 12753.00
353.7950, 12766.00
355.0000, 12909.00
356.2040, 12863.00
357.4080, 13014.00
358.6120, 13044.00
359.8150, 12892.00
361.0190, 13170.00
362.2220, 13149.00
363.4250, 13379.00
364.6280, 13464.00
365.8310, 13664.00
367.0340, 13718.00
368.2360, 13838.00
369.4380, 13926.00
370.6400, 13900.00
371.8420, 14076.00
373.0440, 14075.00
374.2450, 13896.00
375.4470, 13712.00
376.6480, 13611.17
377.8490, 13378.00
379.0490, 13336.00
380.2500, 13271.00
381.4500, 13203.00
382.6510, 13210.00
383.8510, 13159.00
385.0500, 13314.00
386.2500, 13158.00
387.4500, 13140.00
388.6490, 13330.00
389.8480, 13409.00
391.0470, 13311.00
392.2460, 13383.00
393.4440, 13525.00
394.6430, 13766.00
395.8410, 13972.00
397.0390, 14085.00
398.2370, 14256.00
399.4340, 14497.00
400.6320, 14624.00
401.8290, 14837.00
403.0260, 15216.00
404.2230, 15605.00
405.4200, 15810.00
406.6170, 15742.00
407.8130, 15810.00
409.0090, 15805.66
410.2050, 15634.00
411.4010, 15703.00
412.5970, 15523.00
413.7920, 15398.00
414.9880, 15406.00
416.1830, 14798.00
417.3780, 14491.00
418.5730, 14276.00
419.7670, 14015.00
420.9620, 13961.00
422.1560, 13697.00
423.3500, 13768.00
424.5440, 13691.00
425.7380, 13705.00
426.9310, 13655.00
428.1240, 14003.00
429.3180, 13987.00
430.5110, 14134.00
431.7030, 14178.00
432.8960, 14192.00
434.0890, 14534.00
435.2810, 14686.00
436.4730, 14938.00
437.6650, 15247.00
438.8570, 15719.00
440.0480, 16222.00
441.2390, 17057.00
442.4310, 18387.00
443.6220, 19914.00
444.8120, 22035.00
446.0030, 24099.00
447.1940, 26067.00
448.3840, 27667.00
449.5740, 28907.00
450.7640, 30200.00
451.9540, 30944.00
453.1430, 31248.00
454.3330, 31251.00
455.5220, 30660.00
456.7110, 29418.00
457.9000, 27464.00
459.0890, 25554.00
460.2770, 23750.00
461.4650, 22273.00
462.6540, 21595.00
463.8420, 21495.00
465.0290, 21842.00
466.2170, 22825.00
467.4050, 24055.00
468.5920, 25194.00
469.7790, 26377.00
470.9660, 26935.00
472.1530, 27896.00
473.3390, 28799.00
474.5250, 29166.00
475.7120, 29315.00
476.8980, 28978.00
478.0840, 27942.00
479.2690, 26804.00
480.4550, 25541.00
481.6400, 23809.00
482.8250, 22657.00
484.0100, 21790.00
485.1950, 20993.00
486.3800, 20223.00
487.5640, 19725.00
488.7480, 19017.00
489.9320, 18863.00
491.1160, 18458.00
492.3000, 18159.00
493.4840, 18242.00
494.6670, 18571.00
495.8500, 18965.00
497.0330, 19648.00
498.2160, 20557.00
499.3990, 21921.00
500.5810, 24032.00
501.7630, 26978.00
502.9460, 30851.00
504.1280, 35389.00
505.3090, 40726.00
506.4910, 45712.00
507.6720, 49915.00
508.8540, 53204.00
510.0350, 55692.00
511.2160, 58094.00
512.3960, 58833.00
513.5770, 57922.00
514.7570, 55949.00
515.9380, 51859.00
517.1180, 46931.00
518.2970, 41474.00
519.4770, 35992.00
520.6570, 31284.00
521.8360, 27705.00
523.0150, 25143.00
524.1940, 23045.00
525.3730, 21674.00
526.5510, 20617.00
527.7300, 19719.00
528.9080, 19032.00
530.0860, 18508.00
531.2640, 18275.00
532.4420, 17665.00
533.6200, 17406.00
534.7970, 17255.00
535.9740, 16859.00
537.1510, 16838.00
538.3280, 16771.00
539.5050, 16538.00
540.6810, 16577.00
541.8580, 16327.00
543.0340, 16220.00
544.2100, 16114.00
545.3860, 16095.00
546.5610, 16021.00
547.7370, 16106.00
548.9120, 16039.00
550.0870, 15946.00
551.2620, 15856.00
552.4370, 15822.77
553.6120, 15753.00
554.7860, 15761.00
555.9600, 15732.51
557.1340, 15712.00
558.3080, 15745.00
559.4820, 15749.00
560.6560, 15747.00
561.8290, 15685.00
563.0020, 15641.00
564.1750, 15681.00
565.3480, 15641.00
566.5210, 15638.00
567.6930, 15706.00
568.8660, 15664.00
570.0380, 15654.00
571.2100, 15685.00
572.3820, 15729.00
573.5530, 15740.19
574.7250, 15771.04
575.8960, 15779.00
577.0670, 15828.00
578.2380, 15816.00
579.4090, 15872.00
580.5800, 15849.00
581.7500, 15978.00
582.9210, 15869.00
584.0910, 15944.00
585.2610, 15900.00
586.4300, 15653.00
587.6000, 15724.00
588.7690, 15826.00
589.9390, 15955.00
591.1080, 15791.00
592.2770, 15596.00
593.4450, 15625.00
594.6140, 15791.00
595.7820, 15561.00
596.9500, 15666.00
598.1190, 15689.00
599.2860, 15666.00
600.4540, 15729.00
601.6220, 15759.00
602.7890, 15791.00
603.9560, 15712.00
605.1230, 15814.00
606.2900, 15818.36
607.4570, 15844.00
608.6230, 15905.00
609.7890, 15896.00
610.9560, 15928.00
612.1220, 15858.00
613.2870, 15882.00
614.4530, 15831.00
615.6180, 15873.00
616.7840, 16000.00
617.9490, 15919.00
619.1140, 16083.00
620.2790, 16118.00
621.4430, 16013.00
622.6080, 16387.00
623.7720, 16103.00
624.9360, 16254.00
626.1000, 16413.00
627.2640, 16561.00
628.4270, 16660.74
629.5910, 16648.00
630.7540, 16799.00
631.9170, 16876.00
633.0800, 16851.00
634.2430, 17159.00
635.4050, 17141.00
636.5680, 17323.00
637.7300, 17555.00
638.8920, 17506.00
640.0540, 17776.00
641.2150, 17508.00
642.3770, 18076.00
643.5380, 17916.00
644.7000, 18306.00
645.8610, 18340.00
647.0210, 18495.00
648.1820, 18688.00
649.3430, 18868.00
650.5030, 18748.00
651.6630, 18842.00
652.8230, 18992.00
653.9830, 18770.00
655.1430, 18770.00
656.3020, 18694.00
657.4620, 18608.00
658.6210, 18252.00
659.7800, 18021.00
660.9390, 17796.00
662.0970, 17805.00
663.2560, 17479.00
664.4140, 17571.00
665.5720, 17169.00
666.7300, 17145.00
667.8880, 16977.00
669.0460, 16973.00
670.2030, 16880.00
671.3600, 16800.00
672.5180, 16739.00
673.6740, 16768.00
674.8310, 16820.00
675.9880, 16769.00
677.1440, 16762.67
678.3010, 16734.00
679.4570, 16662.00
680.6130, 16568.00
681.7690, 16487.00
682.9240, 16601.00
684.0800, 16712.00
685.2350, 16640.00
686.3900, 16518.00
687.5450, 16616.00
688.7000, 16797.00
689.8540, 16813.00
691.0090, 16651.00
692.1630, 16802.00
693.3170, 16709.00
694.4710, 16864.00
695.6250, 16705.00
696.7780, 16713.00
697.9320, 16659.00
699.0850, 16816.00
700.2380, 16754.00
701.3910, 16815.00
702.5440, 16813.00
703.6970, 16933.00
704.8490, 17083.00
706.0010, 16835.00
707.1530, 17008.00
708.3050, 17032.00
709.4570, 17184.00
710.6090, 17034.00
711.7600, 17190.00
712.9110, 17246.00
714.0620, 17021.00
715.2130, 17295.00
716.3640, 17066.00
717.5150, 17337.00
718.6650, 17376.00
719.8150, 17296.00
720.9650, 17543.00
722.1150, 17468.00
723.2650, 17558.00
724.4150, 17641.00
725.5640, 17734.00
726.7130, 17776.00
727.8630, 17906.00
729.0110, 18087.00
730.1600, 18302.00
731.3090, 18422.00
732.4570, 18737.90
733.6060, 19038.00
734.7540, 19318.00
735.9020, 20066.00
737.0490, 20330.00
738.1970, 20869.00
739.3440, 21466.00
740.4920, 22376.00
741.6390, 23461.00
742.7860, 24594.00
743.9320, 25132.00
745.0790, 26345.00
746.2250, 26620.00
747.3720, 27134.00
748.5180, 27258.00
749.6640, 27219.00
750.8100, 26761.00
751.9550, 25898.00
753.1010, 24675.00
754.2460, 23843.00
755.3910, 22872.00
756.5360, 22032.00
757.6810, 21370.00
758.8250, 20751.21
759.9700, 20290.00
761.1140, 19913.00
762.2580, 19621.00
763.4020, 19484.00
764.5460, 18997.00
765.6900, 18917.00
766.8330, 18883.00
767.9760, 18603.00
769.1200, 18509.00
770.2620, 18459.00
771.4050, 18564.00
772.5480, 18465.00
773.6900, 18389.00
774.8330, 18345.00
775.9750, 18226.00
777.1170, 18397.00
778.2590, 18253.00
779.4000, 18375.00
780.5420, 18452.00
781.6830, 18290.00
782.8240, 18490.00
783.9650, 18578.00
785.1060, 18542.00
786.2470, 18444.00
787.3870, 18423.00
788.5280, 18602.00
789.6680, 18559.04
790.8080, 18730.00
791.9480, 18722.00
793.0870, 18902.00
794.2270, 19112.00
795.3660, 19140.00
796.5060, 19137.00
797.6450, 19309.00
798.7830, 19510.00
799.9220, 19812.00
801.0610, 19953.00
802.1990, 20535.00
803.3370, 21310.00
804.4750, 22109.00
805.6130, 23181.00
806.7510, 24386.00
807.8890, 25305.00
809.0260, 26299.00
810.1630, 26809.00
811.3000, 27201.00
812.4370, 27109.00
813.5740, 27097.00
814.7110, 26270.00
815.8470, 25239.00
816.9830, 24190.00
818.1190, 23050.00
819.2550, 22028.00
820.3910, 21077.00
821.5270, 20340.00
822.6620, 19861.00
823.7970, 19584.00
824.9330, 19183.00
826.0670, 18980.00
827.2020, 18916.00
828.3370, 18908.00
829.4710, 18750.00
830.6060, 18816.00
831.7400, 18677.00
832.8740, 18634.00
834.0080, 18543.00
835.1410, 18469.00
836.2750, 18729.00
837.4080, 18641.00
838.5410, 18585.00
839.6740, 18470.00
840.8070, 18827.00
841.9400, 18431.00
843.0730, 18654.00
844.2050, 18567.00
845.3370, 18419.00
846.4690, 18629.00
847.6010, 18630.00
848.7330, 18487.00
849.8640, 18495.00
850.9960, 18491.03
852.1270, 18616.00
853.2580, 18566.00
854.3890, 18506.00
855.5200, 18605.00
856.6500, 18589.00
857.7810, 18638.00
858.9110, 18501.00
860.0410, 18607.00
861.1710, 18617.00
862.3010, 18684.00
863.4310, 18706.00
864.5600, 18772.00
865.6900, 18674.00
866.8190, 18519.00
867.9480, 18794.00
869.0770, 18687.00
870.2050, 18804.00
871.3340, 18661.00
872.4620, 18695.00
873.5900, 18463.00
874.7180, 18775.00
875.8460, 18851.00
876.9740, 18844.00
878.1010, 18686.00
879.2290, 18629.00
880.3560, 18715.00
881.4830, 18723.00
882.6100, 18789.00
883.7370, 18956.00
884.8630, 18966.00
885.9900, 19005.67
887.1160, 18812.00
888.2420, 19005.00
889.3680, 18874.00
890.4940, 18865.00
891.6200, 18844.00
892.7450, 19041.00
893.8700, 18877.00
894.9960, 19083.00
896.1210, 19093.00
897.2460, 19040.00
898.3700, 18967.00
899.4950, 18999.91
900.6190, 19058.00
901.7430, 19040.00
902.8670, 19115.00
903.9910, 19160.00
905.1150, 19167.00
906.2390, 19157.00
907.3620, 19017.00
908.4850, 19046.00
909.6080, 19226.00
910.7310, 19302.00
911.8540, 19147.00
912.9770, 19280.00
914.0990, 19190.00
915.2210, 19221.00
916.3440, 19263.00
917.4660, 19253.00
918.5870, 19523.00
919.7090, 19407.00
920.8310, 19225.00
921.9520, 19390.00
923.0730, 19195.00
924.1940, 19191.00
925.3150, 19433.00
926.4360, 19403.00
927.5560, 19367.00
928.6770, 19515.00
929.7970, 19458.00
930.9170, 19476.00
932.0370, 19359.00
933.1570, 19308.00
934.2760, 19396.00
935.3960, 19441.00
936.5150, 19564.00
937.6340, 19621.00
938.7530, 19598.00
939.8720, 19697.00
940.9910, 19835.00
942.1090, 19539.00
943.2280, 19528.00
944.3460, 19684.00
945.4640, 19670.00
946.5820, 19714.00
947.6990, 19848.00
948.8170, 19794.00
949.9340, 19812.00
951.0520, 19832.00
952.1690, 19921.00
953.2860, 19901.00
954.4030, 19696.00
955.5190, 19891.00
956.6360, 19772.00
957.7520, 19785.00
958.8680, 19914.00
959.9840, 19928.00
961.1000, 19983.00
962.2160, 19949.00
963.3310, 19985.00
964.4470, 19878.00
965.5620, 20031.00
966.6770, 20161.00
967.7920, 20090.00
968.9060, 20082.00
970.0210, 20233.00
971.1360, 20258.00
972.2500, 20184.00
973.3640, 20256.00
974.4780, 20117.00
975.5920, 20386.00
976.7050, 20514.00
977.8190, 20423.00
978.9320, 20568.00
980.0450, 20587.00
981.1580, 20575.00
982.2710, 20690.00
983.3840, 21084.00
984.4970, 20942.00
985.6090, 21308.00
986.7210, 21430.00
987.8330, 21669.00
988.9450, 21809.00
990.0570, 22162.00
991.1690, 22516.00
992.2800, 22473.00
993.3920, 22674.00
994.5030, 22532.00
995.6140, 22506.00
996.7250, 22457.00
997.8350, 22277.00
998.9460, 21941.00
1000.056, 21896.00
1001.167, 21686.00
1002.277, 21595.00
1003.387, 21533.00
1004.496, 21373.51
1005.606, 21376.00
1006.715, 21163.00
1007.825, 21184.00
1008.934, 21144.00
1010.043, 21186.00
1011.152, 21149.00
1012.260, 20990.00
1013.369, 20947.00
1014.477, 21125.00
1015.586, 20960.00
1016.694, 20922.00
1017.802, 21068.00
1018.909, 20877.00
1020.017, 20904.00
1021.124, 21072.00
1022.232, 20948.00
1023.339, 21120.00
1024.446, 20824.00
1025.553, 20842.00
1026.659, 21147.00
1027.766, 21018.00
1028.872, 21020.00
1029.979, 21184.00
1031.085, 20992.00
1032.191, 21022.00
1033.296, 21245.00
1034.402, 21058.00
1035.507, 21172.00
1036.613, 21038.00
1037.718, 21258.00
1038.823, 21121.00
1039.928, 21145.00
1041.032, 21117.00
1042.137, 21194.00
1043.241, 21118.00
1044.346, 21109.00
1045.450, 21230.00
1046.554, 21069.00
1047.657, 21253.00
1048.761, 21186.00
1049.864, 21250.00
1050.968, 21129.00
1052.071, 21222.00
1053.174, 21216.59
1054.277, 21145.00
1055.379, 21248.00
1056.482, 21235.00
1057.584, 21200.00
1058.687, 21317.00
1059.789, 21388.00
1060.891, 21213.00
1061.992, 21293.00
1063.094, 21299.00
1064.196, 21079.00
1065.297, 21308.00
1066.398, 21235.00
1067.499, 21406.00
1068.600, 21436.00
1069.701, 21377.00
1070.801, 21488.00
1071.902, 21362.00
1073.002, 21322.00
1074.102, 21593.00
1075.202, 21482.00
1076.302, 21639.00
1077.402, 21483.00
1078.501, 21607.00
1079.600, 21765.00
1080.700, 21558.00
1081.799, 21867.00
1082.898, 21787.00
1083.996, 21963.00
1085.095, 22006.00
1086.193, 22057.00
1087.292, 22232.00
1088.390, 22236.00
1089.488, 22285.00
1090.586, 22508.00
1091.683, 22828.00
1092.781, 22805.00
1093.878, 23197.00
1094.975, 23069.00
1096.073, 23241.00
1097.169, 23336.00
1098.266, 23411.00
1099.363, 23474.00
1100.459, 23233.00
1101.556, 23090.00
1102.652, 22893.00
1103.748, 22735.00
1104.844, 22741.00
1105.940, 22600.00
1107.035, 22735.00
1108.131, 22576.00
1109.226, 22379.00
1110.321, 22402.00
1111.416, 22718.00
1112.511, 22646.00
1113.605, 22689.00
1114.700, 22731.00
1115.794, 22834.00
1116.889, 23056.00
1117.983, 23379.00
1119.077, 23530.00
1120.170, 23657.00
1121.264, 23905.00
1122.357, 23877.00
1123.451, 24034.00
1124.544, 23910.00
1125.637, 23729.00
1126.730, 23780.00
1127.823, 23442.00
1128.915, 23511.00
1130.008, 23415.00
1131.100, 23553.00
1132.192, 23724.00
1133.284, 23765.00
1134.376, 23781.00
1135.467, 23908.00
1136.559, 24012.00
1137.650, 24255.00
1138.742, 23958.00
1139.833, 23966.00
1140.924, 23707.00
1142.014, 23592.00
1143.105, 23365.00
1144.195, 23043.00
1145.286, 23187.00
1146.376, 23051.00
1147.466, 22747.00
1148.556, 22683.00
1149.646, 22631.00
1150.735, 22518.00
1151.825, 22528.00
1152.914, 22515.00
1154.003, 22339.00
1155.092, 22309.00
1156.181, 22376.00
1157.270, 22519.00
1158.358, 22453.00
1159.447, 22406.00
1160.535, 22337.00
1161.623, 22498.00
1162.711, 22460.00
1163.799, 22242.00
1164.886, 22407.00
1165.974, 22550.00
1167.061, 22428.00
1168.148, 22295.00
1169.235, 22437.00
1170.322, 22369.00
1171.409, 22425.00
1172.496, 22351.00
1173.582, 22401.48
1174.669, 22426.00
1175.755, 22478.00
1176.841, 22511.00
1177.927, 22528.00
1179.012, 22640.00
1180.098, 22615.00
1181.183, 22620.00
1182.269, 22642.00
1183.354, 22536.00
1184.439, 22659.00
1185.524, 22576.00
1186.608, 22611.00
1187.693, 22592.00
1188.777, 22567.00
1189.862, 22584.00
1190.946, 22555.00
1192.030, 22556.00
1193.113, 22560.37
1194.197, 22540.39
1195.281, 22584.00
1196.364, 22561.00
1197.447, 22602.38
1198.530, 22710.00
1199.613, 22666.00
1200.696, 22696.00
1201.779, 22665.00
1202.861, 22726.00
1203.944, 22881.00
1205.026, 22705.00
1206.108, 22831.00
1207.190, 22761.00
1208.271, 22885.00
1209.353, 22556.00
1210.435, 22695.00
1211.516, 22649.00
1212.597, 23193.00
1213.678, 22827.00
1214.759, 22950.00
1215.840, 22811.00
1216.920, 22930.00
1218.001, 22915.00
1219.081, 23057.00
1220.161, 22901.00
1221.241, 23063.00
1222.321, 22988.00
1223.401, 23074.00
1224.480, 22965.00
1225.560, 23006.00
1226.639, 23042.00
1227.718, 23014.00
1228.797, 23237.00
1229.876, 23191.05
1230.955, 23162.00
1232.033, 23243.00
1233.112, 23180.00
1234.190, 23210.00
1235.268, 23107.00
1236.346, 23175.00
1237.424, 23292.00
1238.501, 23339.00
1239.579, 23070.00
1240.656, 23229.00
1241.733, 23187.00
1242.811, 23159.00
1243.888, 23289.00
1244.964, 23090.00
1246.041, 23199.00
1247.117, 23173.00
1248.194, 23273.00
1249.270, 23113.00
1250.346, 23100.00
1251.422, 23288.00
1252.498, 23360.00
1253.573, 23126.00
1254.649, 23289.00
1255.724, 23240.00
1256.800, 23375.00
1257.875, 23365.00
1258.950, 23385.00
1260.024, 23314.00
1261.099, 23370.00
1262.173, 23365.00
1263.248, 23302.00
1264.322, 23446.00
1265.396, 23522.00
1266.470, 23252.00
1267.544, 23630.00
1268.617, 23327.00
1269.691, 23451.00
1270.764, 23383.00
1271.837, 23419.00
1272.910, 23588.00
1273.983, 23722.00
1275.056, 23419.00
1276.129, 23569.00
1277.201, 23413.00
1278.273, 23592.00
1279.346, 23792.00
1280.418, 23520.00
1281.489, 23686.00
1282.561, 23459.00
1283.633, 23492.00
1284.704, 23616.00
1285.776, 23607.00
1286.847, 23690.00
1287.918, 23673.00
1288.989, 23809.00
1290.059, 23691.00
1291.130, 23717.00
1292.200, 23709.00
1293.271, 23650.00
1294.341, 23678.00
1295.411, 23721.00
1296.481, 23897.00
1297.551, 23752.00
1298.620, 23743.00
1299.690, 24012.00
1300.759, 24080.00
1301.828, 24029.20
1302.897, 23665.00
1303.966, 23907.00
1305.035, 23801.00
1306.103, 23788.00
1307.172, 23855.00
1308.240, 23908.00
1309.308, 24044.00
1310.376, 24059.00
1311.444, 23967.00
1312.512, 23763.00
