##NAMES=Microcline
##RRUFFID=R050193
##IDEAL CHEMISTRY=KAlSi_3_O_8_
##LOCALITY=Devil's Head, Douglas County, Colorado, USA
##OWNER=RRUFF
##SOURCE=Dave Bunk Minerals
##DESCRIPTION=White to colorless heterogeneous mixture of K and Na feldspar in a cluster of crystals. Crystal structure determined, presented below. This sample is known as an intermediate microcline in the literature.
##STATUS=The identification of this mineral has been confirmed by X-ray diffraction and chemical analysis
##URL=rruff.info/R050193
##MEASURED CHEMISTRY=(K_0.929_Na_0.071_)(Al_1.005_Si_2.994_Fe_0.001_)O_7.993_F_0.007_  ; Light Band :  (Na_0.973_K_0.007_Ca_0.020_)(Al_1.020_Si_2.980_)O_8_ ; Dark Band
##PIN_ID=L00861
##ORIENTATION=Laser parallel to (0 1 1). Fiducial mark perpendicular to laser is parallel to -a [-1 0 0]
62.16800, 7254.000
63.41100, 7992.000
64.65300, 8818.000
65.89600, 9742.000
67.13800, 10766.00
68.38000, 11710.00
69.62200, 12908.00
70.86300, 14361.00
72.10500, 16369.00
73.34600, 17718.00
74.58700, 19367.00
75.82800, 21005.34
77.06900, 22625.00
78.30900, 24093.00
79.55000, 25653.00
80.79000, 27100.00
82.03000, 29148.00
83.27000, 30741.00
84.51000, 32173.00
85.74900, 33243.00
86.98900, 34226.00
88.22800, 33828.00
89.46700, 33295.00
90.70600, 32792.00
91.94400, 32771.00
93.18300, 32433.44
94.42100, 32480.00
95.65900, 32230.00
96.89700, 32198.00
98.13500, 32218.00
99.37300, 32480.91
100.6100, 33130.00
101.8480, 33367.00
103.0850, 34281.00
104.3220, 34986.00
105.5590, 35550.00
106.7950, 36662.00
108.0320, 37134.00
109.2680, 37560.00
110.5040, 37904.00
111.7400, 38306.00
112.9760, 38512.00
114.2120, 39147.00
115.4470, 39442.00
116.6820, 39253.00
117.9170, 38900.00
119.1520, 38685.00
120.3870, 38046.00
121.6220, 37277.00
122.8560, 37042.00
124.0900, 36847.00
125.3240, 36838.00
126.5580, 36654.00
127.7920, 36917.00
129.0260, 36959.00
130.2590, 37570.00
131.4920, 38058.00
132.7250, 39236.00
133.9580, 39981.00
135.1910, 41302.00
136.4230, 42941.00
137.6560, 44766.00
138.8880, 46807.00
140.1200, 48819.00
141.3520, 50352.00
142.5830, 51710.00
143.8150, 53306.00
145.0460, 54871.00
146.2770, 56262.00
147.5080, 57765.00
148.7390, 58932.00
149.9700, 60467.00
151.2000, 62620.00
152.4310, 65575.00
153.6610, 69093.00
154.8910, 72211.00
156.1210, 75644.00
157.3500, 78441.00
158.5800, 80638.00
159.8090, 81420.00
161.0380, 81405.02
162.2670, 80556.00
163.4960, 78226.00
164.7240, 74954.00
165.9530, 70729.00
167.1810, 67053.00
168.4090, 65858.00
169.6370, 63274.00
170.8650, 63223.00
172.0920, 63210.00
173.3200, 64169.00
174.5470, 65278.00
175.7740, 66564.00
177.0010, 68552.00
178.2280, 70941.00
179.4540, 73605.00
180.6810, 75966.00
181.9070, 78327.00
183.1330, 79286.00
184.3590, 80155.00
185.5850, 79636.00
186.8100, 77259.00
188.0350, 74303.00
189.2610, 70679.00
190.4860, 66379.00
191.7110, 62294.00
192.9350, 58914.00
194.1600, 56402.54
195.3840, 54185.00
196.6080, 53052.00
197.8320, 52629.00
199.0560, 52389.00
200.2800, 53070.00
201.5030, 53931.00
202.7270, 55325.00
203.9500, 57295.00
205.1730, 58460.00
206.3950, 59905.00
207.6180, 60639.00
208.8410, 61050.00
210.0630, 59810.00
211.2850, 57739.00
212.5070, 54410.00
213.7290, 50955.00
214.9500, 47387.00
216.1720, 44527.00
217.3930, 42477.00
218.6140, 41191.00
219.8350, 39790.00
221.0560, 39426.00
222.2770, 38463.00
223.4970, 38355.00
224.7170, 37996.00
225.9370, 38151.00
227.1570, 37762.00
228.3770, 37650.00
229.5970, 37313.00
230.8160, 37318.00
232.0350, 37422.00
233.2540, 37715.00
234.4730, 37351.00
235.6920, 37445.00
236.9110, 37711.00
238.1290, 37818.00
239.3470, 38295.00
240.5650, 38775.00
241.7830, 39133.00
243.0010, 39857.00
244.2180, 40954.00
245.4360, 42134.00
246.6530, 42968.00
247.8700, 44343.00
249.0870, 45025.00
250.3040, 46452.00
251.5200, 46792.00
252.7370, 47158.00
253.9530, 47151.00
255.1690, 46810.00
256.3850, 46292.00
257.6000, 45335.00
258.8160, 44991.00
260.0310, 44911.00
261.2460, 45029.00
262.4610, 45126.00
263.6760, 45427.00
264.8910, 45960.00
266.1050, 46405.10
267.3200, 47405.00
268.5340, 47749.00
269.7480, 48966.00
270.9620, 49923.00
272.1750, 50904.00
273.3890, 52403.00
274.6020, 54489.00
275.8150, 56555.00
277.0280, 59075.00
278.2410, 62659.00
279.4540, 66886.00
280.6660, 72410.00
281.8790, 78233.00
283.0910, 85774.00
284.3030, 92917.00
285.5140, 100263.0
286.7260, 107534.0
287.9380, 113153.0
289.1490, 117267.0
290.3600, 117971.0
291.5710, 115187.0
292.7820, 107576.0
293.9920, 97701.00
295.2030, 85814.00
296.4130, 75491.00
297.6230, 66604.00
298.8330, 60144.00
300.0430, 54712.00
301.2520, 51618.00
302.4620, 49115.00
303.6710, 47130.00
304.8800, 46107.00
306.0890, 44902.00
307.2980, 44203.00
308.5070, 44027.00
309.7150, 43499.00
310.9230, 43060.00
312.1310, 43014.00
313.3390, 42917.00
314.5470, 42702.00
315.7550, 42749.00
316.9620, 43073.00
318.1690, 43681.00
319.3760, 44541.00
320.5830, 45773.00
321.7900, 47455.00
322.9960, 49109.00
324.2030, 51245.00
325.4090, 53434.00
326.6150, 55194.00
327.8210, 56568.00
329.0270, 56739.00
330.2320, 55929.00
331.4380, 53901.00
332.6430, 51440.00
333.8480, 48764.00
335.0530, 46277.00
336.2580, 44881.00
337.4620, 43769.00
338.6670, 43050.00
339.8710, 42772.00
341.0750, 42601.00
342.2790, 42378.00
343.4820, 41728.74
344.6860, 41998.14
345.8890, 42136.61
347.0920, 42151.17
348.2960, 41670.64
349.4980, 41829.43
350.7010, 41732.01
351.9040, 41624.08
353.1060, 41872.84
354.3080, 41464.36
355.5100, 41707.47
356.7120, 41690.48
357.9140, 41792.52
359.1150, 41636.82
360.3170, 41365.00
361.5180, 41467.00
362.7190, 41190.00
363.9200, 41536.00
365.1200, 41644.00
366.3210, 41484.00
367.5210, 41599.00
368.7210, 41577.00
369.9210, 41744.00
371.1210, 41648.00
372.3210, 41660.73
373.5200, 41574.00
374.7200, 41519.00
375.9190, 41553.00
377.1180, 41361.00
378.3170, 41853.00
379.5150, 41687.00
380.7140, 41667.00
381.9120, 42136.00
383.1110, 41781.00
384.3090, 41725.00
385.5060, 42039.00
386.7040, 42443.00
387.9020, 42208.00
389.0990, 42753.00
390.2960, 42647.00
391.4930, 42850.00
392.6900, 43394.00
393.8860, 43601.00
395.0830, 44121.00
396.2790, 44335.00
397.4750, 44783.00
398.6710, 45173.00
399.8670, 45431.00
401.0630, 45780.00
402.2580, 45972.00
403.4540, 46132.00
404.6490, 46187.00
405.8440, 46577.00
407.0390, 46581.00
408.2330, 46505.00
409.4280, 46260.00
410.6220, 45892.00
411.8160, 45048.00
413.0100, 44920.00
414.2040, 44560.00
415.3980, 44636.00
416.5910, 44364.00
417.7850, 43937.00
418.9780, 43709.00
420.1710, 43612.24
421.3640, 43635.00
422.5560, 43581.00
423.7490, 43564.00
424.9410, 43624.00
426.1330, 43463.00
427.3250, 43333.00
428.5170, 43657.00
429.7090, 43475.00
430.9000, 44007.00
432.0910, 43933.00
433.2820, 43784.00
434.4730, 44066.00
435.6640, 44057.00
436.8550, 44208.00
438.0450, 44385.00
439.2360, 44548.45
440.4260, 44953.00
441.6160, 45069.00
442.8060, 45267.00
443.9950, 45663.00
445.1850, 46355.00
446.3740, 46661.00
447.5630, 47285.00
448.7520, 47715.00
449.9410, 48414.00
451.1300, 48789.00
452.3180, 49298.00
453.5060, 49926.00
454.6950, 50099.00
455.8830, 50158.00
457.0700, 50596.00
458.2580, 50533.00
459.4450, 50577.00
460.6330, 51052.00
461.8200, 51144.00
463.0070, 51515.00
464.1940, 52788.00
465.3800, 53906.00
466.5670, 55850.00
467.7530, 58234.00
468.9390, 61468.00
470.1250, 65171.00
471.3110, 70007.00
472.4970, 75186.00
473.6820, 81091.00
474.8680, 86704.00
476.0530, 91247.00
477.2380, 94998.00
478.4230, 96823.00
479.6070, 95455.00
480.7920, 91557.00
481.9760, 85512.00
483.1600, 78564.00
484.3440, 72457.00
485.5280, 67153.00
486.7120, 63891.00
487.8950, 61698.00
489.0780, 59940.00
490.2620, 59261.00
491.4450, 59120.00
492.6270, 60266.00
493.8100, 61610.00
494.9920, 64105.00
496.1750, 67591.00
497.3570, 72752.00
498.5390, 80158.00
499.7210, 88546.00
500.9020, 99907.00
502.0840, 112508.0
503.2650, 125758.0
504.4460, 139022.0
505.6270, 150030.0
506.8080, 156643.0
507.9890, 158176.0
509.1690, 153583.0
510.3500, 143419.0
511.5300, 129797.0
512.7100, 116201.0
513.8900, 103963.0
515.0690, 93692.00
516.2490, 84981.00
517.4280, 77925.00
518.6070, 72017.00
519.7860, 67605.00
520.9650, 64033.00
522.1440, 61708.00
523.3220, 59391.00
524.5010, 57533.00
525.6790, 56272.00
526.8570, 55426.00
528.0350, 54578.00
529.2130, 54127.00
530.3900, 53079.00
531.5670, 53010.00
532.7450, 52144.00
533.9220, 51799.00
535.0980, 51551.00
536.2750, 51267.00
537.4520, 51200.00
538.6280, 51080.00
539.8040, 50868.00
540.9800, 50756.00
542.1560, 50635.00
543.3320, 50622.00
544.5070, 50416.00
545.6830, 50423.00
546.8580, 50057.00
548.0330, 50430.00
549.2080, 50207.00
550.3830, 50104.00
551.5570, 50299.00
552.7310, 50416.00
553.9060, 50222.00
555.0800, 50318.00
556.2540, 50202.00
557.4270, 50133.00
558.6010, 50632.00
559.7740, 50292.00
560.9470, 50509.00
562.1210, 50465.00
563.2930, 50373.00
564.4660, 50529.00
565.6390, 50382.00
566.8110, 50874.00
567.9830, 50891.00
569.1550, 50990.00
570.3270, 51185.00
571.4990, 51641.00
572.6710, 52045.00
573.8420, 52135.00
575.0130, 52772.00
576.1840, 53079.00
577.3550, 53582.00
578.5260, 53297.00
579.6970, 53556.00
580.8670, 53237.00
582.0370, 52745.00
583.2070, 52901.00
584.3770, 52437.00
585.5470, 52388.14
586.7170, 51562.00
587.8860, 52133.00
589.0550, 52000.00
590.2240, 51700.00
591.3930, 50945.00
592.5620, 50809.00
593.7310, 50883.00
594.8990, 50878.00
596.0670, 51223.00
597.2350, 51245.00
598.4030, 51277.00
599.5710, 51062.00
600.7390, 51301.00
601.9060, 51232.00
603.0740, 51168.00
604.2410, 51552.00
605.4080, 51506.00
606.5740, 51368.00
607.7410, 51338.00
608.9080, 51538.00
610.0740, 51834.00
611.2400, 51831.87
612.4060, 52253.00
613.5720, 51996.00
614.7370, 52203.00
615.9030, 52285.00
617.0680, 52371.00
618.2330, 52911.00
619.3980, 53014.00
620.5630, 53152.00
621.7280, 52977.00
622.8920, 53457.00
624.0570, 54222.00
625.2210, 54207.00
626.3850, 54555.00
627.5490, 55433.00
628.7120, 55266.00
629.8760, 55987.00
631.0390, 56124.00
632.2020, 56260.00
633.3650, 56510.00
634.5280, 56029.00
635.6910, 56231.00
636.8530, 55706.00
638.0160, 56057.00
639.1780, 55626.00
640.3400, 55867.00
641.5020, 56167.00
642.6640, 56366.00
643.8250, 56938.00
644.9870, 57065.00
646.1480, 56935.00
647.3090, 56922.00
648.4700, 56773.00
649.6300, 56442.00
650.7910, 56079.00
651.9510, 55714.00
653.1120, 55285.00
654.2720, 54936.00
655.4320, 54663.30
656.5910, 54386.46
657.7510, 54254.00
658.9100, 54050.00
660.0690, 54020.00
661.2290, 54058.00
662.3880, 54123.00
663.5460, 54009.28
664.7050, 53908.00
665.8630, 53818.00
667.0220, 53658.00
668.1800, 53577.00
669.3380, 54051.00
670.4950, 53993.00
671.6530, 54047.00
672.8100, 53954.00
673.9680, 53965.02
675.1250, 53976.00
676.2820, 53901.00
677.4390, 53913.00
678.5950, 53795.00
679.7520, 53765.00
680.9080, 53813.00
682.0640, 54169.00
683.2200, 53998.00
684.3760, 53967.00
685.5320, 54285.00
686.6870, 54163.00
687.8420, 54222.00
688.9980, 54285.00
690.1530, 54218.00
691.3070, 54165.00
692.4620, 54176.00
693.6170, 54385.00
694.7710, 54532.00
695.9250, 54498.00
697.0790, 54453.00
698.2330, 54553.00
699.3870, 54552.32
700.5400, 54630.00
701.6940, 54690.00
702.8470, 55002.00
704.0000, 55152.00
705.1530, 55312.00
706.3050, 55303.00
707.4580, 55359.00
708.6100, 55551.00
709.7630, 55752.00
710.9150, 55684.00
712.0660, 55855.00
713.2180, 55896.00
714.3700, 55801.00
715.5210, 56233.00
716.6720, 56093.00
717.8240, 56166.00
718.9740, 56188.00
720.1250, 55946.00
721.2760, 56240.00
722.4260, 56074.00
723.5770, 56239.00
724.7270, 56410.00
725.8770, 56364.00
727.0260, 56610.00
728.1760, 56568.00
729.3250, 56485.00
730.4750, 56539.00
731.6240, 56770.00
732.7730, 56685.00
733.9220, 56979.00
735.0700, 57203.00
736.2190, 57007.00
737.3670, 57391.00
738.5150, 57018.00
739.6630, 57378.00
740.8110, 57776.00
741.9590, 57656.00
743.1060, 58059.00
744.2540, 58182.00
745.4010, 58331.00
746.5480, 58353.00
747.6950, 58721.00
748.8410, 58497.00
749.9880, 59017.00
751.1340, 59027.00
752.2800, 59287.00
753.4260, 59503.00
754.5720, 59878.00
755.7180, 59961.00
756.8640, 60533.00
758.0090, 60580.00
759.1540, 61334.00
760.2990, 61948.00
761.4440, 62614.00
762.5890, 62984.00
763.7340, 63200.00
764.8780, 62698.00
766.0220, 62613.00
767.1660, 61824.00
768.3100, 61590.00
769.4540, 61102.00
770.5980, 60994.00
771.7410, 60866.00
772.8840, 60717.00
774.0280, 61070.00
775.1700, 60882.00
776.3130, 60825.00
777.4560, 60882.00
778.5980, 60538.00
779.7410, 60500.00
780.8830, 59952.00
782.0250, 60012.00
783.1670, 59895.00
784.3080, 59822.00
785.4500, 59571.00
786.5910, 59684.00
787.7320, 59986.00
788.8730, 59765.00
790.0140, 59823.00
791.1550, 59755.00
792.2950, 60078.00
793.4360, 59907.00
794.5760, 59957.00
795.7160, 60342.00
796.8560, 60423.00
797.9960, 60323.00
799.1350, 60573.00
800.2750, 60833.00
801.4140, 61152.00
802.5530, 61224.00
803.6920, 61514.00
804.8310, 62158.32
805.9690, 62977.00
807.1080, 63781.00
808.2460, 64728.00
809.3840, 65971.00
810.5220, 66912.00
811.6600, 67990.00
812.7970, 68812.00
813.9350, 69660.00
815.0720, 69457.00
816.2090, 69541.00
817.3460, 68202.00
818.4830, 67148.00
819.6200, 65771.00
820.7560, 64682.00
821.8930, 63977.57
823.0290, 63208.00
824.1650, 62831.00
825.3010, 62550.00
826.4360, 62207.00
827.5720, 62050.00
828.7070, 62034.00
829.8420, 61932.00
830.9770, 61782.00
832.1120, 62046.00
833.2470, 62099.00
834.3820, 62092.00
835.5160, 61971.00
836.6500, 61997.00
837.7840, 62004.00
838.9180, 62040.27
840.0520, 62030.00
841.1860, 62285.00
842.3190, 62191.00
843.4520, 62482.00
844.5850, 62245.00
845.7180, 62044.00
846.8510, 62340.00
847.9840, 62138.00
849.1160, 62128.00
850.2490, 62399.00
851.3810, 62235.00
852.5130, 62573.00
853.6450, 62328.00
854.7760, 62443.00
855.9080, 62810.00
857.0390, 62790.00
858.1700, 62764.00
859.3010, 62751.00
860.4320, 62750.00
861.5630, 62794.92
862.6930, 62895.00
863.8240, 62778.00
864.9540, 62917.05
866.0840, 63062.00
867.2140, 63018.00
868.3440, 63026.00
869.4730, 62935.00
870.6030, 63223.00
871.7320, 63559.00
872.8610, 63129.00
873.9900, 63435.00
875.1190, 63203.00
876.2470, 63369.00
877.3760, 63648.00
878.5040, 63772.00
879.6320, 63679.00
880.7600, 63494.00
881.8880, 63610.00
883.0150, 63501.00
884.1430, 64191.00
885.2700, 63579.00
886.3970, 64008.00
887.5240, 64178.00
888.6510, 63975.00
889.7780, 64009.00
890.9040, 64218.00
892.0310, 64447.00
893.1570, 64534.00
894.2830, 64508.00
895.4090, 64545.00
896.5350, 64386.00
897.6600, 64876.00
898.7860, 64395.00
899.9110, 64530.00
901.0360, 64747.00
902.1610, 65179.00
903.2860, 64715.00
904.4100, 65147.00
905.5350, 65100.00
906.6590, 65216.00
907.7830, 65201.00
908.9070, 65679.00
910.0310, 65403.00
911.1540, 65382.00
912.2780, 65654.00
913.4010, 65141.00
914.5240, 65939.00
915.6470, 65461.00
916.7700, 66030.00
917.8930, 65320.00
919.0150, 65747.00
920.1380, 66352.00
921.2600, 65892.00
922.3820, 65988.00
923.5040, 66220.00
924.6260, 66351.00
925.7470, 66072.00
926.8690, 66288.00
927.9900, 66541.00
929.1110, 66090.00
930.2320, 66292.00
931.3530, 66444.00
932.4730, 66592.00
933.5940, 66828.00
934.7140, 66779.00
935.8340, 66973.00
936.9540, 66843.00
938.0740, 66981.00
939.1930, 66792.00
940.3130, 67128.00
941.4320, 67057.00
942.5510, 67370.00
943.6700, 67263.00
944.7890, 67176.00
945.9080, 67383.00
947.0260, 67431.00
948.1450, 67377.00
949.2630, 67621.00
950.3810, 67670.00
951.4990, 67630.00
952.6170, 67725.00
953.7340, 67804.88
954.8520, 67876.56
955.9690, 68021.00
957.0860, 68092.00
958.2030, 68165.00
959.3200, 68267.84
960.4360, 68503.00
961.5530, 68703.00
962.6690, 68798.00
963.7850, 69104.00
964.9010, 68790.00
966.0170, 68890.00
967.1330, 70300.00
968.2480, 69939.99
969.3630, 70428.00
970.4790, 70222.00
971.5940, 70524.00
972.7080, 70401.00
973.8230, 70804.00
974.9380, 71204.00
976.0520, 71482.00
977.1660, 71622.00
978.2800, 71734.25
979.3940, 71521.00
980.5080, 71617.00
981.6220, 71532.00
982.7350, 71217.00
983.8480, 71427.00
984.9610, 70820.00
986.0740, 70810.00
987.1870, 70963.00
988.3000, 71272.00
989.4120, 71092.00
990.5250, 71097.00
991.6370, 71773.00
992.7490, 71556.00
993.8610, 72034.00
994.9720, 72342.00
996.0840, 72504.00
997.1950, 73173.00
998.3060, 73705.00
999.4170, 73870.98
1000.528, 73862.00
1001.639, 74245.00
1002.750, 73720.00
1003.860, 73700.00
1004.970, 73797.00
1006.080, 73774.00
1007.190, 73253.00
1008.300, 73276.00
1009.410, 72602.00
1010.519, 72921.00
1011.628, 72920.00
1012.738, 73330.00
1013.846, 73198.00
1014.955, 72957.00
1016.064, 73329.00
1017.172, 73309.00
1018.281, 73618.00
1019.389, 73590.00
1020.497, 74086.00
1021.605, 74138.00
1022.713, 74610.00
1023.820, 75109.78
1024.928, 75366.00
1026.035, 76303.00
1027.142, 77025.00
1028.249, 77775.00
1029.356, 78689.00
1030.462, 79344.00
1031.569, 80017.00
1032.675, 79861.00
1033.781, 79409.00
1034.887, 78758.00
1035.993, 78411.00
1037.098, 77521.00
1038.204, 76832.00
1039.309, 76616.00
1040.415, 75692.00
1041.520, 75529.00
1042.624, 74638.00
1043.729, 74966.00
1044.834, 74957.00
1045.938, 74294.00
1047.042, 74511.00
1048.146, 74600.00
1049.250, 74394.00
1050.354, 74423.00
1051.458, 74367.00
1052.561, 74238.00
1053.664, 74403.00
1054.767, 74147.00
1055.870, 74251.00
1056.973, 74845.00
1058.076, 74399.00
1059.178, 74623.00
1060.281, 74600.00
1061.383, 74330.00
1062.485, 74748.00
1063.587, 75336.00
1064.688, 74992.00
1065.790, 75044.00
1066.891, 75339.00
1067.993, 75161.00
1069.094, 75060.00
1070.195, 75169.00
1071.295, 75679.00
1072.396, 75422.00
1073.496, 75875.00
1074.597, 75626.00
1075.697, 75978.00
1076.797, 75967.00
1077.897, 76503.00
1078.996, 76536.00
1080.096, 76692.00
1081.195, 76770.00
1082.294, 77254.00
1083.393, 77260.00
1084.492, 77615.00
1085.591, 77468.00
1086.689, 78470.00
1087.788, 78849.00
1088.886, 79692.00
1089.984, 80024.00
1091.082, 81064.00
1092.180, 82106.00
1093.277, 82663.00
1094.375, 83988.00
1095.472, 85508.00
1096.569, 86071.00
1097.666, 87277.00
1098.763, 87643.00
1099.860, 87862.00
1100.956, 87308.00
1102.053, 86417.00
1103.149, 85953.00
1104.245, 85205.00
1105.341, 84681.00
1106.436, 84425.00
1107.532, 84051.70
1108.627, 84293.58
1109.723, 84358.34
1110.818, 84379.49
1111.913, 84359.38
1113.007, 84174.37
1114.102, 84202.28
1115.197, 84144.86
1116.291, 84083.97
1117.385, 84141.90
1118.479, 83980.88
1119.573, 83901.00
1120.666, 83653.00
1121.760, 83513.00
1122.853, 83246.00
1123.947, 82792.00
1125.040, 82654.00
1126.132, 82149.00
1127.225, 81670.00
1128.318, 81588.00
1129.410, 81553.00
1130.502, 81048.00
1131.595, 80923.00
1132.687, 81073.00
1133.778, 81182.00
1134.870, 81027.00
1135.961, 81094.00
1137.053, 80795.00
1138.144, 80827.98
1139.235, 81088.00
1140.326, 80847.00
1141.416, 81236.00
1142.507, 81462.00
1143.597, 80992.00
1144.688, 81182.00
1145.778, 80762.00
1146.868, 80940.00
1147.957, 80692.00
1149.047, 81008.00
1150.136, 81081.00
1151.226, 81309.00
1152.315, 80958.00
1153.404, 81453.00
1154.493, 81307.00
1155.581, 81287.00
1156.670, 80726.00
1157.758, 81357.00
1158.846, 80511.00
1159.934, 80868.00
1161.022, 80870.00
1162.110, 80955.00
1163.198, 80907.00
1164.285, 81157.00
1165.372, 81070.00
1166.459, 81145.00
1167.546, 81142.00
1168.633, 81198.00
1169.720, 81181.00
1170.806, 81802.00
1171.892, 81431.00
1172.979, 81410.00
1174.065, 81647.00
1175.150, 81331.00
1176.236, 81187.00
1177.322, 81404.00
1178.407, 81710.00
1179.492, 82059.00
1180.577, 81583.00
1181.662, 81573.00
1182.747, 81807.00
1183.832, 81726.00
1184.916, 81845.00
1186.000, 81784.00
1187.084, 81930.00
1188.168, 82188.00
1189.252, 82551.00
1190.336, 82627.00
1191.419, 82336.00
1192.503, 81978.00
1193.586, 82657.00
1194.669, 82304.00
1195.752, 82379.00
1196.835, 82596.00
1197.917, 82478.00
1199.000, 82752.00
1200.082, 82574.00
1201.164, 82909.00
1202.246, 82997.00
1203.328, 82792.00
1204.409, 83104.00
1205.491, 83133.57
1206.572, 83250.00
1207.653, 83363.00
1208.734, 83587.00
1209.815, 83544.00
1210.896, 83177.00
1211.976, 83307.00
1213.057, 82947.00
1214.137, 83642.00
1215.217, 83393.00
1216.297, 83703.00
1217.377, 83926.00
1218.456, 83991.00
1219.536, 84057.00
1220.615, 84187.00
1221.694, 84330.97
1222.773, 84336.00
1223.852, 84460.42
1224.931, 84660.00
1226.009, 84609.00
1227.088, 84645.00
1228.166, 84712.00
1229.244, 84932.00
1230.322, 84884.00
1231.400, 84778.00
