##NAMES=Microcline
##RRUFFID=R050193
##IDEAL CHEMISTRY=KAlSi_3_O_8_
##LOCALITY=Devil's Head, Douglas County, Colorado, USA
##OWNER=RRUFF
##SOURCE=Dave Bunk Minerals
##DESCRIPTION=White to colorless heterogeneous mixture of K and Na feldspar in a cluster of crystals. Crystal structure determined, presented below. This sample is known as an intermediate microcline in the literature.
##STATUS=The identification of this mineral has been confirmed by X-ray diffraction and chemical analysis
##URL=rruff.info/R050193
##MEASURED CHEMISTRY=(K_0.929_Na_0.071_)(Al_1.005_Si_2.994_Fe_0.001_)O_7.993_F_0.007_  ; Light Band :  (Na_0.973_K_0.007_Ca_0.020_)(Al_1.020_Si_2.980_)O_8_ ; Dark Band
##PIN_ID=L00861
##ORIENTATION=Laser parallel to (0 1 1). Fiducial mark perpendicular to laser is parallel to -a [-1 0 0]
62.16800, 8448.000
63.41100, 9170.000
64.65300, 9597.000
65.89600, 10132.00
67.13800, 10692.00
68.38000, 11539.00
69.62200, 12195.00
70.86300, 13323.00
72.10500, 14561.00
73.34600, 15188.00
74.58700, 15886.00
75.82800, 17127.00
77.06900, 17255.00
78.30900, 17439.00
79.55000, 17704.00
80.79000, 18658.00
82.03000, 19446.00
83.27000, 19944.00
84.51000, 20318.00
85.74900, 20700.00
86.98900, 20930.00
88.22800, 20927.00
89.46700, 20833.00
90.70600, 20925.00
91.94400, 21278.00
93.18300, 20969.00
94.42100, 21223.00
95.65900, 21729.00
96.89700, 22134.00
98.13500, 22909.00
99.37300, 23976.00
100.6100, 25079.00
101.8480, 26810.00
103.0850, 28612.00
104.3220, 30824.00
105.5590, 33146.00
106.7950, 35426.00
108.0320, 36650.00
109.2680, 37300.00
110.5040, 37817.00
111.7400, 37770.00
112.9760, 36912.00
114.2120, 36378.00
115.4470, 35474.00
116.6820, 33821.00
117.9170, 32492.00
119.1520, 30939.00
120.3870, 29417.00
121.6220, 28103.00
122.8560, 27516.00
124.0900, 27022.00
125.3240, 26390.00
126.5580, 25995.00
127.7920, 25578.00
129.0260, 25488.00
130.2590, 25091.00
131.4920, 25067.00
132.7250, 24808.00
133.9580, 25235.00
135.1910, 25648.00
136.4230, 26210.00
137.6560, 27402.00
138.8880, 28964.00
140.1200, 30834.00
141.3520, 32481.00
142.5830, 34785.00
143.8150, 37006.00
145.0460, 39122.00
146.2770, 40940.00
147.5080, 42332.00
148.7390, 42648.00
149.9700, 42964.00
151.2000, 41374.00
152.4310, 39876.00
153.6610, 37270.00
154.8910, 34741.00
156.1210, 31907.00
157.3500, 29727.00
158.5800, 28619.00
159.8090, 28298.00
161.0380, 28230.00
162.2670, 28280.00
163.4960, 29070.00
164.7240, 29735.00
165.9530, 30454.00
167.1810, 31340.00
168.4090, 32115.00
169.6370, 32939.00
170.8650, 34170.00
172.0920, 34795.00
173.3200, 35498.00
174.5470, 36142.00
175.7740, 36569.00
177.0010, 37290.00
178.2280, 38329.00
179.4540, 39058.00
180.6810, 39492.00
181.9070, 40520.00
183.1330, 40560.00
184.3590, 40625.00
185.5850, 40197.00
186.8100, 39092.00
188.0350, 38147.00
189.2610, 36837.00
190.4860, 35268.00
191.7110, 33797.00
192.9350, 32626.00
194.1600, 31716.00
195.3840, 31324.00
196.6080, 31216.00
197.8320, 31262.00
199.0560, 31913.00
200.2800, 32421.00
201.5030, 33461.00
202.7270, 34809.00
203.9500, 35712.00
205.1730, 36765.00
206.3950, 37845.00
207.6180, 38192.00
208.8410, 38068.00
210.0630, 37231.00
211.2850, 35220.00
212.5070, 33317.00
213.7290, 31414.00
214.9500, 29221.00
216.1720, 27565.00
217.3930, 26193.00
218.6140, 25422.00
219.8350, 24528.00
221.0560, 24132.00
222.2770, 23649.00
223.4970, 23713.00
224.7170, 23352.00
225.9370, 23168.00
227.1570, 22925.00
228.3770, 22754.00
229.5970, 22789.00
230.8160, 22568.00
232.0350, 22439.00
233.2540, 22712.00
234.4730, 22596.00
235.6920, 22909.00
236.9110, 22918.00
238.1290, 22977.00
239.3470, 23309.00
240.5650, 23477.00
241.7830, 23845.00
243.0010, 24587.00
244.2180, 25268.00
245.4360, 25665.00
246.6530, 26552.00
247.8700, 27350.00
249.0870, 27530.00
250.3040, 28455.00
251.5200, 29077.00
252.7370, 29244.00
253.9530, 29604.00
255.1690, 29771.00
256.3850, 29843.00
257.6000, 30403.00
258.8160, 31199.00
260.0310, 31715.00
261.2460, 33588.00
262.4610, 34236.00
263.6760, 35493.00
264.8910, 36424.00
266.1050, 37357.00
267.3200, 37797.00
268.5340, 37619.00
269.7480, 37507.00
270.9620, 37025.00
272.1750, 35767.00
273.3890, 34638.00
274.6020, 33714.00
275.8150, 33789.00
277.0280, 33319.00
278.2410, 33615.00
279.4540, 34671.00
280.6660, 35924.00
281.8790, 37580.00
283.0910, 39617.00
284.3030, 41694.00
285.5140, 43695.00
286.7260, 45361.00
287.9380, 46853.00
289.1490, 47357.00
290.3600, 47333.00
291.5710, 46204.00
292.7820, 43944.00
293.9920, 41006.00
295.2030, 37754.00
296.4130, 34752.00
297.6230, 32082.00
298.8330, 30006.00
300.0430, 28588.00
301.2520, 27388.00
302.4620, 26505.00
303.6710, 25786.00
304.8800, 25131.00
306.0890, 24751.00
307.2980, 24506.00
308.5070, 24195.26
309.7150, 24059.00
310.9230, 23913.00
312.1310, 23822.00
313.3390, 23769.00
314.5470, 23764.31
315.7550, 23759.00
316.9620, 23873.00
318.1690, 23940.00
319.3760, 24064.00
320.5830, 24427.00
321.7900, 25002.00
322.9960, 25469.00
324.2030, 26187.00
325.4090, 26576.00
326.6150, 26982.00
327.8210, 27257.00
329.0270, 27291.00
330.2320, 26992.00
331.4380, 26616.00
332.6430, 25857.00
333.8480, 25272.00
335.0530, 24817.00
336.2580, 24318.00
337.4620, 24067.00
338.6670, 23740.00
339.8710, 23739.00
341.0750, 23594.31
342.2790, 23563.00
343.4820, 23604.00
344.6860, 23658.00
345.8890, 23803.00
347.0920, 23614.00
348.2960, 23543.00
349.4980, 23690.00
350.7010, 23619.00
351.9040, 23734.00
353.1060, 23586.00
354.3080, 23785.00
355.5100, 23838.00
356.7120, 23927.00
357.9140, 23735.00
359.1150, 23936.00
360.3170, 23841.00
361.5180, 23907.00
362.7190, 23993.00
363.9200, 23934.00
365.1200, 23980.00
366.3210, 24006.00
367.5210, 23993.00
368.7210, 24158.00
369.9210, 24240.00
371.1210, 24209.00
372.3210, 24177.00
373.5200, 24339.00
374.7200, 24316.00
375.9190, 24334.00
377.1180, 24151.00
378.3170, 23947.00
379.5150, 24267.00
380.7140, 24127.00
381.9120, 24190.00
383.1110, 24536.00
384.3090, 24453.00
385.5060, 24436.00
386.7040, 24644.00
387.9020, 24800.00
389.0990, 24903.00
390.2960, 25256.00
391.4930, 25434.00
392.6900, 25797.35
393.8860, 26205.00
395.0830, 26615.00
396.2790, 27160.00
397.4750, 27692.00
398.6710, 28271.00
399.8670, 28734.00
401.0630, 29617.00
402.2580, 30160.00
403.4540, 31114.00
404.6490, 31724.00
405.8440, 32078.00
407.0390, 32655.00
408.2330, 33620.00
409.4280, 33653.00
410.6220, 33957.00
411.8160, 34202.00
413.0100, 33968.00
414.2040, 33884.00
415.3980, 33880.00
416.5910, 33440.00
417.7850, 32439.00
418.9780, 31216.00
420.1710, 29790.00
421.3640, 28618.00
422.5560, 27500.00
423.7490, 27084.00
424.9410, 26474.00
426.1330, 26317.00
427.3250, 26097.00
428.5170, 26964.00
429.7090, 26421.00
430.9000, 26523.00
432.0910, 26584.00
433.2820, 26561.00
434.4730, 26981.00
435.6640, 27214.00
436.8550, 27501.00
438.0450, 27876.00
439.2360, 28137.00
440.4260, 28780.00
441.6160, 29483.00
442.8060, 30276.00
443.9950, 31556.00
445.1850, 33133.00
446.3740, 34950.00
447.5630, 36649.00
448.7520, 39410.00
449.9410, 41673.00
451.1300, 44435.00
452.3180, 46599.00
453.5060, 47792.00
454.6950, 48579.59
455.8830, 48858.00
457.0700, 48005.00
458.2580, 46521.00
459.4450, 44639.00
460.6330, 42665.00
461.8200, 41288.00
463.0070, 40658.00
464.1940, 40820.00
465.3800, 41925.00
466.5670, 44092.00
467.7530, 47017.00
468.9390, 51204.00
470.1250, 56575.00
471.3110, 63665.00
472.4970, 71384.00
473.6820, 79664.00
474.8680, 87456.00
476.0530, 93790.00
477.2380, 97320.00
478.4230, 97757.00
479.6070, 94506.00
480.7920, 87840.00
481.9760, 78930.00
483.1600, 68867.00
484.3440, 60519.00
485.5280, 53506.00
486.7120, 48465.00
487.8950, 45163.00
489.0780, 43253.00
490.2620, 41962.00
491.4450, 41316.00
492.6270, 42097.00
493.8100, 43198.00
494.9920, 45102.00
496.1750, 49185.00
497.3570, 53046.00
498.5390, 59487.00
499.7210, 67649.00
500.9020, 78146.00
502.0840, 89383.00
503.2650, 101298.0
504.4460, 112480.0
505.6270, 121560.0
506.8080, 126813.0
507.9890, 128860.0
509.1690, 124942.0
510.3500, 117265.0
511.5300, 107789.0
512.7100, 97051.00
513.8900, 86749.00
515.0690, 76967.00
516.2490, 68536.00
517.4280, 61053.00
518.6070, 54637.00
519.7860, 50059.00
520.9650, 46187.00
522.1440, 43031.00
523.3220, 40541.00
524.5010, 38716.00
525.6790, 37313.00
526.8570, 36061.00
528.0350, 36226.00
529.2130, 35065.75
530.3900, 34169.00
531.5670, 33976.00
532.7450, 32945.00
533.9220, 32486.00
535.0980, 31806.00
536.2750, 31674.00
537.4520, 31453.00
538.6280, 31449.00
539.8040, 30956.00
540.9800, 30774.00
542.1560, 30547.00
543.3320, 30510.00
544.5070, 30362.00
545.6830, 30121.00
546.8580, 30235.00
548.0330, 30193.00
549.2080, 30001.00
550.3830, 29976.00
551.5570, 29984.00
552.7310, 29993.00
553.9060, 29823.00
555.0800, 29868.00
556.2540, 29805.00
557.4270, 29654.00
558.6010, 29896.00
559.7740, 29831.00
560.9470, 29656.00
562.1210, 29734.00
563.2930, 29733.00
564.4660, 29820.00
565.6390, 29853.00
566.8110, 29856.00
567.9830, 29934.00
569.1550, 30074.00
570.3270, 30456.00
571.4990, 30917.00
572.6710, 31006.00
573.8420, 31502.00
575.0130, 31623.00
576.1840, 31831.00
577.3550, 32606.00
578.5260, 33098.00
579.6970, 32332.00
580.8670, 31835.00
582.0370, 31396.00
583.2070, 31211.00
584.3770, 30842.17
585.5470, 30551.00
586.7170, 30366.00
587.8860, 30138.00
589.0550, 29938.00
590.2240, 30008.00
591.3930, 29842.00
592.5620, 29759.00
593.7310, 29965.00
594.8990, 29768.00
596.0670, 29975.00
597.2350, 29900.00
598.4030, 29724.00
599.5710, 29855.00
600.7390, 29731.00
601.9060, 29826.00
603.0740, 29912.04
604.2410, 29979.00
605.4080, 30043.00
606.5740, 30075.00
607.7410, 29949.00
608.9080, 30053.00
610.0740, 30116.00
611.2400, 30252.00
612.4060, 30248.00
613.5720, 30275.00
614.7370, 30276.00
615.9030, 30149.00
617.0680, 30359.00
618.2330, 30516.00
619.3980, 30199.00
620.5630, 30521.00
621.7280, 30506.00
622.8920, 30320.00
624.0570, 30643.00
625.2210, 30653.00
626.3850, 30741.00
627.5490, 30990.00
628.7120, 30961.00
629.8760, 31185.00
631.0390, 31125.00
632.2020, 31087.00
633.3650, 31142.00
634.5280, 31331.00
635.6910, 31492.00
636.8530, 31538.00
638.0160, 31483.00
639.1780, 31809.00
640.3400, 31995.00
641.5020, 32340.00
642.6640, 32630.00
643.8250, 32641.00
644.9870, 32932.00
646.1480, 33118.00
647.3090, 32961.00
648.4700, 33039.61
649.6300, 32982.00
650.7910, 32777.00
651.9510, 32641.00
653.1120, 32359.00
654.2720, 32259.70
655.4320, 32141.00
656.5910, 32017.00
657.7510, 31949.00
658.9100, 31851.00
660.0690, 31705.00
661.2290, 31677.16
662.3880, 31542.00
663.5460, 31538.00
664.7050, 31332.00
665.8630, 31151.00
667.0220, 31260.00
668.1800, 31266.00
669.3380, 31247.00
670.4950, 31237.56
671.6530, 31091.00
672.8100, 31161.00
673.9680, 31128.00
675.1250, 31163.00
676.2820, 31232.01
677.4390, 31051.00
678.5950, 31258.00
679.7520, 31212.00
680.9080, 30959.00
682.0640, 31079.00
683.2200, 30982.00
684.3760, 30941.00
685.5320, 31085.00
686.6870, 31006.00
687.8420, 31199.00
688.9980, 31256.00
690.1530, 31106.00
691.3070, 31053.00
692.4620, 30969.00
693.6170, 31204.00
694.7710, 31396.00
695.9250, 31514.00
697.0790, 31304.00
698.2330, 31533.00
699.3870, 31655.00
700.5400, 31353.00
701.6940, 31696.00
702.8470, 31728.00
704.0000, 31624.00
705.1530, 31926.00
706.3050, 31590.00
707.4580, 31838.00
708.6100, 32123.00
709.7630, 32174.00
710.9150, 32325.00
712.0660, 32384.00
713.2180, 32450.00
714.3700, 32657.00
715.5210, 32565.00
716.6720, 32779.00
717.8240, 32689.00
718.9740, 32650.00
720.1250, 32808.00
721.2760, 32835.00
722.4260, 32955.00
723.5770, 32822.00
724.7270, 32809.00
725.8770, 33040.00
727.0260, 33283.00
728.1760, 33094.00
729.3250, 33223.00
730.4750, 33436.00
731.6240, 33592.00
732.7730, 33937.00
733.9220, 33893.00
735.0700, 34352.00
736.2190, 34498.00
737.3670, 35302.00
738.5150, 35248.00
739.6630, 35736.00
740.8110, 36229.00
741.9590, 36628.00
743.1060, 37210.00
744.2540, 37747.00
745.4010, 37949.00
746.5480, 38273.00
747.6950, 38931.00
748.8410, 39308.00
749.9880, 39680.00
751.1340, 39955.00
752.2800, 40643.00
753.4260, 41494.00
754.5720, 42827.00
755.7180, 44338.00
756.8640, 46630.00
758.0090, 49357.00
759.1540, 52390.00
760.2990, 55014.00
761.4440, 57054.00
762.5890, 58404.00
763.7340, 57909.00
764.8780, 55804.00
766.0220, 52616.00
767.1660, 49217.00
768.3100, 45898.00
769.4540, 43272.00
770.5980, 41550.00
771.7410, 39939.00
772.8840, 39067.00
774.0280, 38288.00
775.1700, 37777.00
776.3130, 37349.00
777.4560, 36820.00
778.5980, 36547.84
779.7410, 36268.61
780.8830, 36143.00
782.0250, 35878.00
783.1670, 35931.00
784.3080, 35717.00
785.4500, 35816.00
786.5910, 35907.00
787.7320, 35882.00
788.8730, 35946.28
790.0140, 35808.00
791.1550, 36022.00
792.2950, 36163.00
793.4360, 36308.00
794.5760, 36606.00
795.7160, 36868.00
796.8560, 36816.00
797.9960, 37339.00
799.1350, 37431.00
800.2750, 37587.00
801.4140, 38041.00
802.5530, 38781.00
803.6920, 39640.00
804.8310, 40894.00
805.9690, 42007.00
807.1080, 43983.00
808.2460, 46114.00
809.3840, 48879.00
810.5220, 51481.00
811.6600, 54237.00
812.7970, 55777.00
813.9350, 56664.00
815.0720, 56265.00
816.2090, 54474.00
817.3460, 51853.00
818.4830, 49292.00
819.6200, 46111.00
820.7560, 43356.00
821.8930, 41511.00
823.0290, 40093.00
824.1650, 39026.00
825.3010, 38483.00
826.4360, 37752.00
827.5720, 37100.00
828.7070, 36834.00
829.8420, 36735.00
830.9770, 36696.00
832.1120, 36680.00
833.2470, 36348.00
834.3820, 36535.00
835.5160, 36214.00
836.6500, 36315.00
837.7840, 36035.00
838.9180, 36042.00
840.0520, 36195.00
841.1860, 36092.00
842.3190, 35914.00
843.4520, 35796.00
844.5850, 35958.00
845.7180, 35763.00
846.8510, 35994.00
847.9840, 35760.00
849.1160, 35899.00
850.2490, 35857.00
851.3810, 35959.00
852.5130, 35903.00
853.6450, 35776.00
854.7760, 35916.00
855.9080, 35779.00
857.0390, 35952.00
858.1700, 35855.00
859.3010, 36116.00
860.4320, 35962.00
861.5630, 35787.00
862.6930, 36060.00
863.8240, 36105.00
864.9540, 36271.00
866.0840, 36204.00
867.2140, 36081.00
868.3440, 36227.29
869.4730, 36130.11
870.6030, 36415.00
871.7320, 36111.00
872.8610, 36254.00
873.9900, 36272.00
875.1190, 36081.00
876.2470, 36221.00
877.3760, 36213.00
878.5040, 36243.00
879.6320, 36164.00
880.7600, 36244.39
881.8880, 36604.00
883.0150, 36416.00
884.1430, 36498.00
885.2700, 36700.00
886.3970, 36590.00
887.5240, 36777.00
888.6510, 36595.00
889.7780, 36827.00
890.9040, 36609.00
892.0310, 36734.00
893.1570, 36553.00
894.2830, 36685.00
895.4090, 36865.00
896.5350, 37061.00
897.6600, 36969.00
898.7860, 36958.00
899.9110, 37213.00
901.0360, 36913.00
902.1610, 37091.00
903.2860, 37019.00
904.4100, 37242.00
905.5350, 37269.00
906.6590, 37339.00
907.7830, 37407.00
908.9070, 37483.00
910.0310, 37473.00
911.1540, 37481.00
912.2780, 37514.00
913.4010, 37458.00
914.5240, 37492.00
915.6470, 37591.00
916.7700, 37539.00
917.8930, 37764.00
919.0150, 37928.00
920.1380, 37551.00
921.2600, 37550.00
922.3820, 37759.00
923.5040, 37699.00
924.6260, 37798.00
925.7470, 38140.00
926.8690, 37924.00
927.9900, 38107.00
929.1110, 38036.00
930.2320, 38021.00
931.3530, 38080.00
932.4730, 38289.00
933.5940, 38248.00
934.7140, 38367.00
935.8340, 38331.00
936.9540, 38300.00
938.0740, 38361.00
939.1930, 38499.00
940.3130, 38385.00
941.4320, 38396.00
942.5510, 38514.00
943.6700, 38475.00
944.7890, 38667.00
945.9080, 38549.00
947.0260, 38884.00
948.1450, 38762.00
949.2630, 39109.00
950.3810, 38959.00
951.4990, 38899.00
952.6170, 39003.00
953.7340, 39186.00
954.8520, 39449.00
955.9690, 39404.00
957.0860, 39181.00
958.2030, 39773.00
959.3200, 39320.00
960.4360, 39454.00
961.5530, 39656.00
962.6690, 39677.00
963.7850, 39624.00
964.9010, 40041.00
966.0170, 40018.00
967.1330, 40349.00
968.2480, 40470.00
969.3630, 40587.00
970.4790, 40910.00
971.5940, 41096.00
972.7080, 41627.00
973.8230, 41997.00
974.9380, 42646.00
976.0520, 42772.00
977.1660, 42871.00
978.2800, 43070.00
979.3940, 43178.00
980.5080, 42769.00
981.6220, 42529.00
982.7350, 42237.00
983.8480, 42070.00
984.9610, 41885.00
986.0740, 41728.00
987.1870, 41899.00
988.3000, 41991.00
989.4120, 41978.00
990.5250, 42026.00
991.6370, 42284.00
992.7490, 42435.00
993.8610, 42879.00
994.9720, 42943.00
996.0840, 42701.00
997.1950, 43134.00
998.3060, 43167.00
999.4170, 43273.00
1000.528, 43745.00
1001.639, 43819.00
1002.750, 43846.00
1003.860, 44100.00
1004.970, 44086.00
1006.080, 43780.00
1007.190, 44195.00
1008.300, 43880.00
1009.410, 43728.00
1010.519, 43996.00
1011.628, 43823.00
1012.738, 44084.00
1013.846, 44202.00
1014.955, 43842.00
1016.064, 43929.00
1017.172, 43593.11
1018.281, 43318.00
1019.389, 42964.00
1020.497, 42823.58
1021.605, 42817.00
1022.713, 42607.00
1023.820, 42599.00
1024.928, 42604.00
1026.035, 42779.00
1027.142, 42923.00
1028.249, 42876.00
1029.356, 43104.00
1030.462, 42910.00
1031.569, 43261.00
1032.675, 42953.00
1033.781, 42941.00
1034.887, 43061.00
1035.993, 43136.00
1037.098, 43099.00
1038.204, 43409.00
1039.309, 43277.00
1040.415, 43353.00
1041.520, 43326.00
1042.624, 44004.00
1043.729, 43779.00
1044.834, 43863.00
1045.938, 44007.00
1047.042, 43830.00
1048.146, 44128.00
1049.250, 43734.00
1050.354, 43640.00
1051.458, 43640.00
1052.561, 43691.00
1053.664, 43362.00
1054.767, 43483.00
1055.870, 43530.00
1056.973, 43270.00
1058.076, 43115.00
1059.178, 43179.00
1060.281, 43533.00
1061.383, 43299.00
1062.485, 43311.00
1063.587, 43585.00
1064.688, 43208.00
1065.790, 43321.00
1066.891, 43390.00
1067.993, 43708.00
1069.094, 43654.00
1070.195, 43867.80
1071.295, 43979.00
1072.396, 44083.00
1073.496, 44096.00
1074.597, 44028.00
1075.697, 44137.00
1076.797, 44272.00
1077.897, 44520.00
1078.996, 44793.00
1080.096, 44984.00
1081.195, 45312.00
1082.294, 45516.57
1083.393, 45803.00
1084.492, 46051.00
1085.591, 46352.00
1086.689, 46786.00
1087.788, 47306.00
1088.886, 48356.00
1089.984, 48994.00
1091.082, 49790.00
1092.180, 51317.00
1093.277, 52238.00
1094.375, 53642.00
1095.472, 54914.00
1096.569, 56238.00
1097.666, 56809.00
1098.763, 56998.00
1099.860, 56443.00
1100.956, 55356.00
1102.053, 54707.00
1103.149, 53526.00
1104.245, 52236.00
1105.341, 51599.00
1106.436, 50535.00
1107.532, 50030.34
1108.627, 49485.00
1109.723, 49144.00
1110.818, 48781.95
1111.913, 48532.00
1113.007, 48304.00
1114.102, 48289.00
1115.197, 48234.00
1116.291, 48339.00
1117.385, 48348.00
1118.479, 48299.00
1119.573, 48591.00
1120.666, 48452.00
1121.760, 48779.00
1122.853, 48922.26
1123.947, 48785.11
1125.040, 48626.25
1126.132, 48446.90
1127.225, 48184.71
1128.318, 48029.24
1129.410, 47831.17
1130.502, 47351.00
1131.595, 46954.00
1132.687, 47021.00
1133.778, 47050.00
1134.870, 46838.00
1135.961, 46928.00
1137.053, 47124.00
1138.144, 47001.00
1139.235, 46995.00
1140.326, 46867.00
1141.416, 46781.00
1142.507, 46849.00
1143.597, 46949.00
1144.688, 46640.00
1145.778, 46576.00
1146.868, 46841.00
1147.957, 46487.00
1149.047, 46742.00
1150.136, 46751.00
1151.226, 46711.00
1152.315, 46796.00
1153.404, 46597.00
1154.493, 46306.00
1155.581, 46329.00
1156.670, 46423.00
1157.758, 46144.00
1158.846, 46201.00
1159.934, 46230.00
1161.022, 45993.00
1162.110, 46151.00
1163.198, 46245.00
1164.285, 46327.00
1165.372, 46287.00
1166.459, 46356.00
1167.546, 46178.00
1168.633, 46000.00
1169.720, 46454.00
1170.806, 46200.00
1171.892, 46331.00
1172.979, 46397.00
1174.065, 46651.00
1175.150, 46467.00
1176.236, 46569.00
1177.322, 46503.00
1178.407, 46475.00
1179.492, 46542.00
1180.577, 46466.00
1181.662, 46281.00
1182.747, 46636.00
1183.832, 46533.00
1184.916, 46768.00
1186.000, 46694.00
1187.084, 46924.00
1188.168, 46736.00
1189.252, 46757.00
1190.336, 46821.00
1191.419, 46652.00
1192.503, 46834.00
1193.586, 46785.00
1194.669, 47070.00
1195.752, 47120.80
1196.835, 46857.00
1197.917, 47228.00
1199.000, 47376.00
1200.082, 47191.00
1201.164, 47148.00
1202.246, 47297.00
1203.328, 47116.00
1204.409, 47496.00
1205.491, 47499.00
1206.572, 47569.00
1207.653, 47368.00
1208.734, 47435.00
1209.815, 47278.00
1210.896, 47403.00
1211.976, 47822.00
1213.057, 47480.00
1214.137, 47621.00
1215.217, 47768.00
1216.297, 47586.00
1217.377, 47814.00
1218.456, 48058.00
1219.536, 47819.00
1220.615, 47902.00
1221.694, 47860.00
1222.773, 47916.00
1223.852, 47977.00
1224.931, 48131.00
1226.009, 48267.00
1227.088, 48241.73
1228.166, 48307.87
1229.244, 48195.00
1230.322, 48282.00
1231.400, 48269.00
