##NAMES=Microcline
##RRUFFID=R050150
##IDEAL CHEMISTRY=KAlSi_3_O_8_
##LOCALITY=Crystal Peak area, Park/Teller Counties, Colorado, USA
##OWNER=RRUFF
##SOURCE=Dave Bunk Minerals
##DESCRIPTION=Pale blue prismatic crystals
##STATUS=The identification of this mineral has been confirmed by X-ray diffraction and chemical analysis
##URL=rruff.info/R050150
##MEASURED CHEMISTRY=(K_0.95_Na_0.05_)_Î£=1_Al_1.00_Si_3.00_O_8_
##PIN_ID=L01075
##ORIENTATION=Laser parallel to (0 1 1). Fiducial mark perpendicular to laser is parallel to a [1 0 0]
131.4920, 12174.00
132.7300, 12084.00
133.9690, 12272.00
135.2070, 12812.00
136.4450, 15011.00
137.6830, 14744.00
138.9210, 16088.00
140.1580, 17180.00
141.3950, 17098.00
142.6330, 17605.00
143.8690, 18423.00
145.1060, 19563.00
146.3430, 21033.00
147.5790, 22600.00
148.8150, 23489.00
150.0510, 24405.00
151.2870, 24894.00
152.5220, 25504.00
153.7580, 26131.00
154.9930, 26843.00
156.2280, 26417.00
157.4620, 25364.00
158.6970, 24085.00
159.9310, 22251.00
161.1660, 20439.00
162.4000, 18504.00
163.6330, 16963.00
164.8670, 15747.00
166.1000, 14523.00
167.3340, 14033.00
168.5670, 13750.00
169.8000, 13485.00
171.0320, 13600.00
172.2650, 14019.00
173.4970, 14686.00
174.7290, 15436.00
175.9610, 16347.00
177.1930, 16691.00
178.4240, 16539.00
179.6550, 15923.00
180.8870, 15227.00
182.1170, 14327.00
183.3480, 13556.00
184.5790, 12870.00
185.8090, 12406.00
187.0390, 12074.00
188.2690, 11916.00
189.4990, 11835.00
190.7290, 11773.00
191.9580, 11898.00
193.1870, 12293.00
194.4160, 12663.00
195.6450, 13312.00
196.8740, 13801.00
198.1020, 13779.00
199.3310, 13566.00
200.5590, 13334.00
201.7870, 12647.00
203.0140, 12212.00
204.2420, 11316.00
205.4690, 11009.00
206.6960, 10500.00
207.9230, 10126.00
209.1500, 10208.00
210.3760, 9998.000
211.6030, 9748.000
212.8290, 9705.000
214.0550, 9668.000
215.2810, 9791.000
216.5060, 9596.000
217.7320, 9555.000
218.9570, 9477.000
220.1820, 9604.000
221.4070, 9613.000
222.6320, 9608.000
223.8560, 9617.000
225.0800, 9640.943
226.3040, 9627.000
227.5280, 9679.000
228.7520, 9684.000
229.9760, 9662.116
231.1990, 9674.224
232.4220, 9675.000
233.6450, 9676.000
234.8680, 9691.000
236.0910, 9752.000
237.3130, 9765.000
238.5350, 9718.000
239.7570, 9942.000
240.9790, 9989.000
242.2010, 10212.00
243.4220, 10132.00
244.6430, 10540.00
245.8640, 10836.00
247.0850, 11238.00
248.3060, 11761.00
249.5270, 12373.00
250.7470, 12699.00
251.9670, 13691.00
253.1870, 14670.00
254.4070, 15996.00
255.6260, 16974.00
256.8460, 17661.00
258.0650, 17962.00
259.2840, 18273.00
260.5030, 18744.00
261.7220, 18540.00
262.9400, 18819.00
264.1580, 19114.00
265.3760, 18866.00
266.5940, 18552.00
267.8120, 17954.00
269.0290, 17281.00
270.2470, 16390.00
271.4640, 16113.00
272.6810, 15991.00
273.8980, 16098.00
275.1140, 16620.00
276.3310, 17380.00
277.5470, 18648.00
278.7630, 19964.00
279.9790, 21647.00
281.1940, 23372.00
282.4100, 25305.00
283.6250, 26530.00
284.8400, 26796.00
286.0550, 26032.00
287.2700, 24655.00
288.4850, 22637.00
289.6990, 20592.00
290.9130, 18631.00
292.1270, 16908.00
293.3410, 15667.00
294.5540, 14806.00
295.7680, 13941.00
296.9810, 13417.00
298.1940, 12990.00
299.4070, 12567.00
300.6200, 12132.00
301.8320, 11712.00
303.0450, 11427.00
304.2570, 11303.00
305.4690, 11030.00
306.6800, 10844.00
307.8920, 10807.00
309.1030, 10575.00
310.3150, 10535.00
311.5260, 10343.00
312.7360, 10473.00
313.9470, 10394.00
315.1580, 10441.00
316.3680, 10386.00
317.5780, 10441.00
318.7880, 10520.00
319.9980, 10548.00
321.2070, 10563.00
322.4170, 10845.00
323.6260, 11081.00
324.8350, 11249.00
326.0430, 11668.00
327.2520, 11901.00
328.4610, 12356.00
329.6690, 12635.00
330.8770, 12788.00
332.0850, 12659.00
333.2920, 12404.00
334.5000, 12015.00
335.7070, 11841.00
336.9140, 11401.00
338.1210, 11110.00
339.3280, 10988.00
340.5350, 10819.00
341.7410, 10716.00
342.9470, 10677.00
344.1540, 10619.00
345.3590, 10553.00
346.5650, 10727.00
347.7710, 10780.00
348.9760, 10693.00
350.1810, 10690.00
351.3860, 11035.00
352.5910, 10998.00
353.7950, 11221.00
355.0000, 11230.00
356.2040, 11205.00
357.4080, 11246.00
358.6120, 11261.00
359.8150, 11254.00
361.0190, 11195.00
362.2220, 11299.00
363.4250, 11068.00
364.6280, 11252.00
365.8310, 11279.00
367.0340, 11530.00
368.2360, 11763.00
369.4380, 12115.00
370.6400, 12213.00
371.8420, 12208.00
373.0440, 11958.00
374.2450, 11756.00
375.4470, 11699.00
376.6480, 11371.00
377.8490, 11088.00
379.0490, 10997.00
380.2500, 10848.00
381.4500, 10616.00
382.6510, 10576.00
383.8510, 10644.00
385.0500, 10760.00
386.2500, 10581.00
387.4500, 10788.00
388.6490, 10603.00
389.8480, 10710.00
391.0470, 10775.00
392.2460, 11045.00
393.4440, 11158.00
394.6430, 11504.00
395.8410, 11595.00
397.0390, 11784.00
398.2370, 12083.00
399.4340, 12662.00
400.6320, 13179.00
401.8290, 13382.00
403.0260, 13325.00
404.2230, 13199.00
405.4200, 13007.00
406.6170, 12853.00
407.8130, 12587.00
409.0090, 12373.00
410.2050, 12141.00
411.4010, 12198.00
412.5970, 12133.00
413.7920, 11915.00
414.9880, 11821.00
416.1830, 11520.00
417.3780, 11304.00
418.5730, 11190.00
419.7670, 10946.00
420.9620, 11074.00
422.1560, 10935.00
423.3500, 10972.00
424.5440, 10962.00
425.7380, 11070.00
426.9310, 10958.00
428.1240, 10955.00
429.3180, 10962.00
430.5110, 10991.00
431.7030, 11098.00
432.8960, 11274.00
434.0890, 11301.00
435.2810, 11456.59
436.4730, 11542.00
437.6650, 11673.00
438.8570, 11783.00
440.0480, 11836.00
441.2390, 12207.00
442.4310, 12630.00
443.6220, 12982.00
444.8120, 13639.00
446.0030, 14477.00
447.1940, 15345.00
448.3840, 16268.00
449.5740, 17609.00
450.7640, 18731.00
451.9540, 20168.00
453.1430, 20261.00
454.3330, 20622.00
455.5220, 19778.00
456.7110, 18803.00
457.9000, 17812.00
459.0890, 17115.00
460.2770, 16442.00
461.4650, 16099.00
462.6540, 16060.00
463.8420, 16496.00
465.0290, 17318.00
466.2170, 18384.00
467.4050, 19782.00
468.5920, 21660.00
469.7790, 23552.00
470.9660, 25888.00
472.1530, 28588.00
473.3390, 30710.00
474.5250, 32207.00
475.7120, 32517.00
476.8980, 31539.00
478.0840, 29230.00
479.2690, 27488.00
480.4550, 25132.00
481.6400, 23704.00
482.8250, 22164.00
484.0100, 20734.00
485.1950, 19518.00
486.3800, 18320.00
487.5640, 17210.00
488.7480, 16113.00
489.9320, 15601.00
491.1160, 14973.00
492.3000, 14796.00
493.4840, 14489.00
494.6670, 14864.00
495.8500, 14941.00
497.0330, 15341.00
498.2160, 15823.00
499.3990, 16779.00
500.5810, 17830.00
501.7630, 19539.00
502.9460, 21751.00
504.1280, 24783.00
505.3090, 28346.00
506.4910, 32284.00
507.6720, 36511.00
508.8540, 41685.00
510.0350, 46826.00
511.2160, 51343.00
512.3960, 53570.00
513.5770, 52869.00
514.7570, 49588.00
515.9380, 45035.00
517.1180, 39653.00
518.2970, 34010.00
519.4770, 28992.00
520.6570, 25192.00
521.8360, 22107.00
523.0150, 20195.00
524.1940, 18416.00
525.3730, 17391.00
526.5510, 16295.00
527.7300, 15657.00
528.9080, 15274.00
530.0860, 14729.00
531.2640, 14357.00
532.4420, 14080.00
533.6200, 13718.00
534.7970, 13713.00
535.9740, 13434.00
537.1510, 13395.00
538.3280, 13229.00
539.5050, 13192.00
540.6810, 13061.00
541.8580, 13019.00
543.0340, 12901.00
544.2100, 12859.00
545.3860, 12751.54
546.5610, 12515.00
547.7370, 12571.00
548.9120, 12531.00
550.0870, 12502.00
551.2620, 12584.00
552.4370, 12436.00
553.6120, 12435.00
554.7860, 12507.00
555.9600, 12415.00
557.1340, 12524.00
558.3080, 12451.00
559.4820, 12495.00
560.6560, 12486.00
561.8290, 12439.00
563.0020, 12419.00
564.1750, 12443.00
565.3480, 12412.80
566.5210, 12391.00
567.6930, 12438.00
568.8660, 12407.00
570.0380, 12498.00
571.2100, 12398.00
572.3820, 12526.00
573.5530, 12560.00
574.7250, 12679.00
575.8960, 12764.32
577.0670, 12788.00
578.2380, 12930.00
579.4090, 12996.00
580.5800, 13037.67
581.7500, 13101.00
582.9210, 13056.00
584.0910, 13056.00
585.2610, 13073.00
586.4300, 12890.00
587.6000, 12775.00
588.7690, 12688.00
589.9390, 12668.00
591.1080, 12679.00
592.2770, 12567.00
593.4450, 12567.26
594.6140, 12526.36
595.7820, 12503.00
596.9500, 12495.00
598.1190, 12483.00
599.2860, 12536.10
600.4540, 12497.00
601.6220, 12575.00
602.7890, 12438.00
603.9560, 12465.00
605.1230, 12512.00
606.2900, 12518.00
607.4570, 12465.00
608.6230, 12508.00
609.7890, 12576.00
610.9560, 12516.00
612.1220, 12569.00
613.2870, 12649.00
614.4530, 12603.00
615.6180, 12557.00
616.7840, 12689.00
617.9490, 12789.00
619.1140, 12810.00
620.2790, 12781.00
621.4430, 12919.00
622.6080, 12980.00
623.7720, 12998.00
624.9360, 13239.00
626.1000, 13287.00
627.2640, 13535.00
628.4270, 13528.00
629.5910, 13606.00
630.7540, 13574.00
631.9170, 13591.00
633.0800, 13632.00
634.2430, 13673.00
635.4050, 13716.58
636.5680, 13785.10
637.7300, 13843.00
638.8920, 13935.00
640.0540, 14050.00
641.2150, 14137.00
642.3770, 14120.00
643.5380, 14395.00
644.7000, 14520.00
645.8610, 14825.00
647.0210, 14798.00
648.1820, 15010.00
649.3430, 15208.00
650.5030, 15045.00
651.6630, 15271.00
652.8230, 15186.00
653.9830, 15208.00
655.1430, 14890.00
656.3020, 14897.00
657.4620, 14451.00
658.6210, 14560.00
659.7800, 14435.00
660.9390, 14189.00
662.0970, 13906.00
663.2560, 13732.00
664.4140, 13628.00
665.5720, 13478.00
666.7300, 13459.00
667.8880, 13450.00
669.0460, 13241.00
670.2030, 13312.00
671.3600, 13088.00
672.5180, 13208.00
673.6740, 13089.00
674.8310, 13205.00
675.9880, 13148.00
677.1440, 12969.00
678.3010, 13018.00
679.4570, 13156.00
680.6130, 13026.00
681.7690, 13019.00
682.9240, 12950.00
684.0800, 12864.00
685.2350, 13020.00
686.3900, 12999.00
687.5450, 13084.00
688.7000, 13012.00
689.8540, 13074.00
691.0090, 13168.00
692.1630, 13009.00
693.3170, 13171.00
694.4710, 12983.00
695.6250, 13250.00
696.7780, 13153.00
697.9320, 12920.00
699.0850, 13124.00
700.2380, 13117.00
701.3910, 13193.00
702.5440, 13134.00
703.6970, 13155.00
704.8490, 13228.00
706.0010, 13255.00
707.1530, 13442.00
708.3050, 13334.00
709.4570, 13451.00
710.6090, 13439.00
711.7600, 13446.00
712.9110, 13381.00
714.0620, 13455.00
715.2130, 13396.00
716.3640, 13427.00
717.5150, 13383.00
718.6650, 13476.00
719.8150, 13571.00
720.9650, 13419.00
722.1150, 13547.00
723.2650, 13499.00
724.4150, 13301.00
725.5640, 13329.00
726.7130, 13527.00
727.8630, 13595.00
729.0110, 13611.00
730.1600, 13754.00
731.3090, 13798.76
732.4570, 13782.00
733.6060, 13947.00
734.7540, 14058.00
735.9020, 14118.00
737.0490, 14311.00
738.1970, 14433.00
739.3440, 14788.00
740.4920, 15075.00
741.6390, 15293.00
742.7860, 15683.00
743.9320, 16152.00
745.0790, 16731.00
746.2250, 17121.00
747.3720, 17271.00
748.5180, 17470.00
749.6640, 17393.00
750.8100, 17270.00
751.9550, 16794.00
753.1010, 16350.00
754.2460, 15802.00
755.3910, 15542.00
756.5360, 15314.00
757.6810, 15066.00
758.8250, 14772.00
759.9700, 14704.00
761.1140, 14544.00
762.2580, 14582.00
763.4020, 14655.00
764.5460, 14504.00
765.6900, 14374.00
766.8330, 14509.00
767.9760, 14435.00
769.1200, 14330.00
770.2620, 14183.00
771.4050, 14145.00
772.5480, 14086.08
773.6900, 13969.00
774.8330, 14042.00
775.9750, 14098.00
777.1170, 14079.85
778.2590, 14081.76
779.4000, 14050.00
780.5420, 13967.00
781.6830, 13932.00
782.8240, 13792.00
783.9650, 13821.00
785.1060, 13827.00
786.2470, 13767.00
787.3870, 13812.00
788.5280, 13852.00
789.6680, 13873.15
790.8080, 13962.00
791.9480, 13985.00
793.0870, 14003.00
794.2270, 14076.00
795.3660, 14054.00
796.5060, 14221.00
797.6450, 14207.00
798.7830, 14141.00
799.9220, 14142.00
801.0610, 14296.00
802.1990, 14216.00
803.3370, 14460.00
804.4750, 14723.00
805.6130, 14828.00
806.7510, 14949.00
807.8890, 15436.00
809.0260, 15688.00
810.1630, 16196.00
811.3000, 16315.00
812.4370, 16578.00
813.5740, 16474.00
814.7110, 16243.00
815.8470, 15980.00
816.9830, 15721.00
818.1190, 15358.00
819.2550, 15078.00
820.3910, 14639.00
821.5270, 14510.00
822.6620, 14436.00
823.7970, 14448.00
824.9330, 14303.00
826.0670, 14302.00
827.2020, 14292.00
828.3370, 14255.00
829.4710, 14190.00
830.6060, 14226.00
831.7400, 14154.00
832.8740, 14167.00
834.0080, 14206.00
835.1410, 14079.00
836.2750, 14089.00
837.4080, 14343.00
838.5410, 14123.00
839.6740, 14316.00
840.8070, 14361.00
841.9400, 14131.00
843.0730, 14215.00
844.2050, 14268.00
845.3370, 14171.00
846.4690, 14141.00
847.6010, 14228.00
848.7330, 14164.00
849.8640, 14254.00
850.9960, 14295.00
852.1270, 14196.00
853.2580, 14366.00
854.3890, 14282.00
855.5200, 14271.00
856.6500, 14513.00
857.7810, 14258.00
858.9110, 14286.00
860.0410, 14242.00
861.1710, 14355.00
862.3010, 14319.00
863.4310, 14213.00
864.5600, 14176.00
865.6900, 14425.00
866.8190, 14515.00
867.9480, 14472.94
869.0770, 14482.99
870.2050, 14411.00
871.3340, 14345.00
872.4620, 14361.00
873.5900, 14443.00
874.7180, 14427.00
875.8460, 14481.00
876.9740, 14423.00
878.1010, 14481.00
879.2290, 14342.00
880.3560, 14364.00
881.4830, 14477.00
882.6100, 14373.00
883.7370, 14441.00
884.8630, 14380.00
885.9900, 14487.00
887.1160, 14506.00
888.2420, 14489.00
889.3680, 14580.00
890.4940, 14633.00
891.6200, 14660.00
892.7450, 14457.00
893.8700, 14477.00
894.9960, 14576.00
896.1210, 14700.00
897.2460, 14707.00
898.3700, 14571.00
899.4950, 14689.00
900.6190, 14542.00
901.7430, 14685.00
902.8670, 14704.00
903.9910, 14604.00
905.1150, 14641.00
906.2390, 14678.00
907.3620, 14596.00
908.4850, 14717.00
909.6080, 14864.00
910.7310, 14675.00
911.8540, 14686.00
912.9770, 14655.00
914.0990, 14800.00
915.2210, 14931.00
916.3440, 14828.00
917.4660, 14913.00
918.5870, 14689.00
919.7090, 15000.00
920.8310, 14770.00
921.9520, 14931.00
923.0730, 14753.00
924.1940, 14885.00
925.3150, 14941.00
926.4360, 14987.00
927.5560, 14829.00
928.6770, 15048.00
929.7970, 14956.00
930.9170, 15116.00
932.0370, 15040.00
933.1570, 14979.00
934.2760, 15101.00
935.3960, 15153.00
936.5150, 15060.00
937.6340, 15086.00
938.7530, 15023.00
939.8720, 14934.00
940.9910, 14964.00
942.1090, 15112.00
943.2280, 14982.00
944.3460, 15174.00
945.4640, 15150.00
946.5820, 15222.00
947.6990, 15154.00
948.8170, 15142.00
949.9340, 15172.00
951.0520, 15262.00
952.1690, 15239.01
953.2860, 15278.00
954.4030, 15261.00
955.5190, 15313.00
956.6360, 15347.00
957.7520, 15389.00
958.8680, 15360.00
959.9840, 15377.00
961.1000, 15402.00
962.2160, 15350.00
963.3310, 15452.00
964.4470, 15415.00
965.5620, 15268.00
966.6770, 15391.00
967.7920, 15459.00
968.9060, 15460.00
970.0210, 15570.00
971.1360, 15583.27
972.2500, 15521.00
973.3640, 15631.00
974.4780, 15658.00
975.5920, 15643.00
976.7050, 15725.81
977.8190, 15622.00
978.9320, 15784.00
980.0450, 15833.00
981.1580, 15787.00
982.2710, 15797.00
983.3840, 15915.00
984.4970, 15987.00
985.6090, 16237.00
986.7210, 16300.00
987.8330, 16511.00
988.9450, 16530.00
990.0570, 16988.00
991.1690, 16982.00
992.2800, 17417.00
993.3920, 17487.00
994.5030, 17555.00
995.6140, 17487.00
996.7250, 17419.00
997.8350, 17452.00
998.9460, 17405.00
1000.056, 17548.00
1001.167, 17674.00
1002.277, 17531.00
1003.387, 17455.00
1004.496, 17481.00
1005.606, 17298.00
1006.715, 17036.00
1007.825, 17004.00
1008.934, 16725.00
1010.043, 16768.00
1011.152, 16540.00
1012.260, 16611.00
1013.369, 16617.00
1014.477, 16559.00
1015.586, 16434.00
1016.694, 16572.00
1017.802, 16557.00
1018.909, 16549.00
1020.017, 16323.00
1021.124, 16597.00
1022.232, 16489.00
1023.339, 16511.00
1024.446, 16730.00
1025.553, 16561.00
1026.659, 16592.00
1027.766, 16672.00
1028.872, 16708.00
1029.979, 16759.95
1031.085, 16761.00
1032.191, 16843.00
1033.296, 16929.00
1034.402, 16944.00
1035.507, 16922.00
1036.613, 16970.00
1037.718, 16994.00
1038.823, 16774.00
1039.928, 17004.00
1041.032, 16781.00
1042.137, 16877.00
1043.241, 16796.00
1044.346, 16789.00
1045.450, 16880.00
1046.554, 17069.00
1047.657, 16973.00
1048.761, 17105.00
1049.864, 17094.00
1050.968, 17116.00
1052.071, 17194.00
1053.174, 16940.00
1054.277, 16837.00
1055.379, 16728.00
1056.482, 16834.00
1057.584, 16567.00
1058.687, 16612.00
1059.789, 16608.00
1060.891, 16500.00
1061.992, 16438.00
1063.094, 16496.00
1064.196, 16485.00
1065.297, 16440.00
1066.398, 16309.00
1067.499, 16340.00
1068.600, 16259.00
1069.701, 16351.00
1070.801, 16364.00
1071.902, 16466.00
1073.002, 16378.00
1074.102, 16513.00
1075.202, 16331.00
1076.302, 16605.00
1077.402, 16586.00
1078.501, 16597.00
1079.600, 16541.00
1080.700, 16639.00
1081.799, 16570.00
1082.898, 16748.00
1083.996, 16626.00
1085.095, 16795.00
1086.193, 16872.00
1087.292, 16726.00
1088.390, 16851.00
1089.488, 17123.00
1090.586, 17110.00
1091.683, 17232.00
1092.781, 17252.00
1093.878, 17424.00
1094.975, 17303.00
1096.073, 17520.00
1097.169, 17511.00
1098.266, 17671.00
1099.363, 17802.00
1100.459, 17758.00
1101.556, 17728.00
1102.652, 17710.00
1103.748, 17482.00
1104.844, 17783.00
1105.940, 17437.00
1107.035, 17616.00
1108.131, 17813.00
1109.226, 18146.00
1110.321, 18187.00
1111.416, 18328.00
1112.511, 18861.00
1113.605, 18817.00
1114.700, 19187.00
1115.794, 19836.00
1116.889, 20474.00
1117.983, 21130.00
1119.077, 21855.00
1120.170, 22380.00
1121.264, 22818.00
1122.357, 23232.00
1123.451, 23214.00
1124.544, 23161.00
1125.637, 22781.00
1126.730, 22174.00
1127.823, 21754.00
1128.915, 21377.00
1130.008, 21102.00
1131.100, 21055.00
1132.192, 20931.00
1133.284, 21014.00
1134.376, 21136.00
1135.467, 21256.00
1136.559, 21408.00
1137.650, 21473.00
1138.742, 21387.00
1139.833, 21028.00
1140.924, 20757.00
1142.014, 20387.00
1143.105, 19792.00
1144.195, 19376.00
1145.286, 19067.00
1146.376, 18762.00
1147.466, 18569.00
1148.556, 18210.00
1149.646, 18048.11
1150.735, 17929.00
1151.825, 17723.00
1152.914, 17625.00
1154.003, 17553.00
1155.092, 17549.00
1156.181, 17594.00
1157.270, 17598.00
1158.358, 17517.00
1159.447, 17360.00
1160.535, 17370.00
1161.623, 17253.00
1162.711, 17269.42
1163.799, 17238.48
1164.886, 17318.00
1165.974, 17233.00
1167.061, 17241.00
1168.148, 17284.00
1169.235, 17328.00
1170.322, 17093.00
1171.409, 17293.00
1172.496, 17064.00
1173.582, 17251.00
1174.669, 17315.00
1175.755, 17310.00
1176.841, 17227.00
1177.927, 17201.00
1179.012, 17232.00
1180.098, 17316.00
1181.183, 17293.00
1182.269, 17281.00
1183.354, 17293.45
1184.439, 17189.00
1185.524, 17268.00
1186.608, 17200.00
1187.693, 17191.00
1188.777, 17275.00
1189.862, 17217.00
1190.946, 17224.00
1192.030, 17198.00
1193.113, 17217.00
1194.197, 17311.00
1195.281, 17339.00
1196.364, 17237.00
1197.447, 17345.00
1198.530, 17354.00
1199.613, 17164.00
1200.696, 17158.00
1201.779, 17315.00
1202.861, 17171.00
1203.944, 17262.00
1205.026, 17365.00
1206.108, 17389.00
1207.190, 17433.20
1208.271, 17306.00
1209.353, 17425.00
1210.435, 17366.00
1211.516, 17289.00
1212.597, 17375.00
1213.678, 17459.00
1214.759, 17313.00
1215.840, 17463.00
1216.920, 17334.00
1218.001, 17417.00
1219.081, 17382.00
1220.161, 17377.00
1221.241, 17430.00
1222.321, 17386.00
1223.401, 17582.00
1224.480, 17529.00
1225.560, 17545.00
1226.639, 17475.00
1227.718, 17465.00
1228.797, 17439.00
1229.876, 17519.00
1230.955, 17530.00
1232.033, 17548.00
1233.112, 17562.00
1234.190, 17611.00
1235.268, 17596.00
1236.346, 17480.00
1237.424, 17472.00
1238.501, 17566.00
1239.579, 17637.00
1240.656, 17460.00
1241.733, 17690.00
1242.811, 17331.00
1243.888, 17392.00
1244.964, 17532.00
1246.041, 17611.00
1247.117, 17576.00
1248.194, 17649.93
1249.270, 17540.00
1250.346, 17621.00
1251.422, 17544.00
1252.498, 17414.00
1253.573, 17677.00
1254.649, 17641.00
1255.724, 17474.00
1256.800, 17776.00
1257.875, 17807.00
1258.950, 17692.00
1260.024, 17683.00
1261.099, 17675.00
1262.173, 17677.00
1263.248, 17698.00
1264.322, 17649.00
1265.396, 17676.00
1266.470, 17667.00
1267.544, 17625.00
1268.617, 17681.00
1269.691, 17712.00
1270.764, 17769.00
1271.837, 17658.00
1272.910, 17698.00
1273.983, 17682.00
1275.056, 17745.00
1276.129, 17936.00
1277.201, 17644.00
1278.273, 17867.00
1279.346, 17749.00
1280.418, 17908.00
1281.489, 17786.00
1282.561, 17912.00
1283.633, 17766.00
1284.704, 17836.00
1285.776, 17903.00
1286.847, 17860.00
1287.918, 18080.00
1288.989, 17867.00
1290.059, 17851.00
1291.130, 17986.00
1292.200, 17960.00
1293.271, 17824.00
1294.341, 17961.00
1295.411, 18131.00
1296.481, 17892.00
1297.551, 17882.00
1298.620, 18135.00
1299.690, 18034.00
1300.759, 18107.00
1301.828, 18032.00
1302.897, 18127.00
1303.966, 18178.00
1305.035, 18028.00
1306.103, 18058.00
1307.172, 18126.00
