##NAMES=Microcline
##RRUFFID=R050193
##IDEAL CHEMISTRY=KAlSi_3_O_8_
##LOCALITY=Devil's Head, Douglas County, Colorado, USA
##OWNER=RRUFF
##SOURCE=Dave Bunk Minerals
##DESCRIPTION=White to colorless heterogeneous mixture of K and Na feldspar in a cluster of crystals. Crystal structure determined, presented below. This sample is known as an intermediate microcline in the literature.
##STATUS=The identification of this mineral has been confirmed by X-ray diffraction and chemical analysis
##URL=rruff.info/R050193
##MEASURED CHEMISTRY=(K_0.929_Na_0.071_)(Al_1.005_Si_2.994_Fe_0.001_)O_7.993_F_0.007_  ; Light Band :  (Na_0.973_K_0.007_Ca_0.020_)(Al_1.020_Si_2.980_)O_8_ ; Dark Band
##PIN_ID=L00937
##ORIENTATION=Laser parallel to (1 1 0). Fiducial mark perpendicular to laser is parallel to c [0 0 1]
62.16800, 6819.000
63.41100, 8117.000
64.65300, 9568.000
65.89600, 11184.00
67.13800, 12904.00
68.38000, 14663.00
69.62200, 16232.00
70.86300, 18354.00
72.10500, 20511.00
73.34600, 22485.00
74.58700, 24877.00
75.82800, 27099.00
77.06900, 28994.00
78.30900, 30853.00
79.55000, 32370.00
80.79000, 34736.00
82.03000, 36754.00
83.27000, 38922.00
84.51000, 40325.00
85.74900, 41712.00
86.98900, 43364.00
88.22800, 45232.00
89.46700, 46702.00
90.70600, 48492.00
91.94400, 50210.00
93.18300, 51206.00
94.42100, 52999.00
95.65900, 54124.00
96.89700, 55011.00
98.13500, 56582.00
99.37300, 57663.00
100.6100, 59206.00
101.8480, 60504.00
103.0850, 62671.00
104.3220, 64091.00
105.5590, 66221.00
106.7950, 67791.00
108.0320, 69784.00
109.2680, 70826.73
110.5040, 72393.00
111.7400, 72312.00
112.9760, 72118.00
114.2120, 71894.00
115.4470, 71870.00
116.6820, 70890.00
117.9170, 70111.00
119.1520, 70029.00
120.3870, 70210.00
121.6220, 70627.00
122.8560, 71348.00
124.0900, 71944.00
125.3240, 71875.00
126.5580, 71234.00
127.7920, 70592.00
129.0260, 69759.00
130.2590, 68602.00
131.4920, 67908.00
132.7250, 67273.00
133.9580, 66875.00
135.1910, 66845.00
136.4230, 66625.00
137.6560, 67236.00
138.8880, 67617.00
140.1200, 68356.00
141.3520, 68663.00
142.5830, 69337.00
143.8150, 69536.00
145.0460, 70378.00
146.2770, 70967.00
147.5080, 71893.00
148.7390, 72805.00
149.9700, 73439.00
151.2000, 74622.00
152.4310, 75440.00
153.6610, 76095.00
154.8910, 76727.00
156.1210, 76453.00
157.3500, 76607.00
158.5800, 76566.00
159.8090, 76757.00
161.0380, 75993.00
162.2670, 75666.00
163.4960, 75232.00
164.7240, 74252.00
165.9530, 73401.00
167.1810, 72115.00
168.4090, 72405.00
169.6370, 71474.00
170.8650, 71554.00
172.0920, 71208.00
173.3200, 71228.00
174.5470, 71608.00
175.7740, 71433.00
177.0010, 71621.00
178.2280, 71777.00
179.4540, 72086.00
180.6810, 72262.00
181.9070, 71992.00
183.1330, 72194.00
184.3590, 72229.00
185.5850, 72478.00
186.8100, 72094.00
188.0350, 72389.00
189.2610, 72128.00
190.4860, 72072.00
191.7110, 72058.00
192.9350, 71655.00
194.1600, 72322.00
195.3840, 72297.00
196.6080, 73189.00
197.8320, 73194.00
199.0560, 73628.00
200.2800, 73639.00
201.5030, 73511.00
202.7270, 73586.00
203.9500, 73554.00
205.1730, 73583.00
206.3950, 73387.00
207.6180, 73349.00
208.8410, 73134.00
210.0630, 73033.00
211.2850, 72768.00
212.5070, 72482.00
213.7290, 72111.00
214.9500, 71699.00
216.1720, 71754.00
217.3930, 71574.00
218.6140, 71270.00
219.8350, 71169.00
221.0560, 70941.00
222.2770, 70991.00
223.4970, 70661.00
224.7170, 71266.00
225.9370, 71454.00
227.1570, 71468.00
228.3770, 71431.00
229.5970, 71330.00
230.8160, 71653.00
232.0350, 71967.00
233.2540, 71631.00
234.4730, 71656.00
235.6920, 72026.00
236.9110, 71887.00
238.1290, 72063.00
239.3470, 72252.00
240.5650, 72708.00
241.7830, 72866.12
243.0010, 72909.00
244.2180, 73405.00
245.4360, 73626.00
246.6530, 73944.00
247.8700, 74538.00
249.0870, 74966.00
250.3040, 75279.00
251.5200, 76192.00
252.7370, 76496.00
253.9530, 76673.00
255.1690, 77389.00
256.3850, 77566.00
257.6000, 78309.00
258.8160, 78834.36
260.0310, 79040.00
261.2460, 80159.00
262.4610, 80790.00
263.6760, 81725.00
264.8910, 82263.00
266.1050, 83698.00
267.3200, 84485.00
268.5340, 84587.00
269.7480, 84712.00
270.9620, 84886.00
272.1750, 85186.00
273.3890, 85276.00
274.6020, 85695.00
275.8150, 86976.00
277.0280, 87132.00
278.2410, 88377.00
279.4540, 89943.00
280.6660, 90422.00
281.8790, 91435.00
283.0910, 92093.00
284.3030, 91795.00
285.5140, 92044.00
286.7260, 90790.00
287.9380, 90270.00
289.1490, 89605.00
290.3600, 88629.00
291.5710, 87834.00
292.7820, 86419.00
293.9920, 85032.00
295.2030, 83704.00
296.4130, 82291.00
297.6230, 81077.00
298.8330, 79776.00
300.0430, 78962.00
301.2520, 79141.00
302.4620, 77682.00
303.6710, 78121.00
304.8800, 77698.00
306.0890, 77751.00
307.2980, 77357.00
308.5070, 77212.00
309.7150, 77674.00
310.9230, 77286.00
312.1310, 77085.00
313.3390, 77241.00
314.5470, 77080.00
315.7550, 77433.00
316.9620, 77546.00
318.1690, 77601.00
319.3760, 77493.00
320.5830, 77804.00
321.7900, 78061.00
322.9960, 77967.00
324.2030, 78098.00
325.4090, 78674.00
326.6150, 78851.00
327.8210, 78951.00
329.0270, 79272.00
330.2320, 79613.00
331.4380, 79298.00
332.6430, 79258.00
333.8480, 79045.00
335.0530, 79158.00
336.2580, 78862.00
337.4620, 78644.00
338.6670, 78445.00
339.8710, 78652.00
341.0750, 78700.00
342.2790, 78943.00
343.4820, 78980.55
344.6860, 78519.00
345.8890, 79086.00
347.0920, 78760.00
348.2960, 78769.00
349.4980, 79317.00
350.7010, 79122.00
351.9040, 79508.00
353.1060, 79218.00
354.3080, 79481.00
355.5100, 79471.00
356.7120, 79323.00
357.9140, 80100.00
359.1150, 79972.00
360.3170, 79689.00
361.5180, 79944.00
362.7190, 80431.00
363.9200, 80417.00
365.1200, 80974.00
366.3210, 80766.00
367.5210, 81020.00
368.7210, 81330.00
369.9210, 81484.00
371.1210, 81571.00
372.3210, 81553.00
373.5200, 81760.00
374.7200, 81266.00
375.9190, 81582.00
377.1180, 81825.00
378.3170, 81373.00
379.5150, 81332.00
380.7140, 81293.00
381.9120, 81022.00
383.1110, 81145.00
384.3090, 81154.00
385.5060, 81118.00
386.7040, 81384.00
387.9020, 81393.00
389.0990, 81779.00
390.2960, 81764.00
391.4930, 82165.00
392.6900, 82276.00
393.8860, 82598.00
395.0830, 82365.00
396.2790, 82745.00
397.4750, 82896.00
398.6710, 83775.00
399.8670, 83925.00
401.0630, 84706.00
402.2580, 84704.00
403.4540, 85003.00
404.6490, 84986.00
405.8440, 85706.00
407.0390, 86286.00
408.2330, 86358.00
409.4280, 86209.00
410.6220, 86674.00
411.8160, 85964.00
413.0100, 85435.00
414.2040, 85726.00
415.3980, 85548.00
416.5910, 85511.00
417.7850, 85541.00
418.9780, 85044.00
420.1710, 85094.00
421.3640, 84547.00
422.5560, 84547.00
423.7490, 84588.00
424.9410, 84450.00
426.1330, 84826.00
427.3250, 84647.82
428.5170, 84565.00
429.7090, 84536.00
430.9000, 84859.00
432.0910, 84821.00
433.2820, 85223.00
434.4730, 85553.00
435.6640, 85832.00
436.8550, 86357.00
438.0450, 86328.00
439.2360, 86873.00
440.4260, 87408.00
441.6160, 88254.00
442.8060, 89017.00
443.9950, 89661.00
445.1850, 90879.00
446.3740, 92024.00
447.5630, 93643.00
448.7520, 94614.00
449.9410, 96444.00
451.1300, 98570.00
452.3180, 99912.00
453.5060, 101131.0
454.6950, 102214.0
455.8830, 102564.0
457.0700, 102294.0
458.2580, 101832.0
459.4450, 101125.0
460.6330, 100649.0
461.8200, 100812.0
463.0070, 100739.0
464.1940, 101313.0
465.3800, 102618.0
466.5670, 104570.0
467.7530, 105982.0
468.9390, 108943.0
470.1250, 112537.0
471.3110, 118814.0
472.4970, 123691.0
473.6820, 128596.0
474.8680, 133877.0
476.0530, 136938.0
477.2380, 138388.0
478.4230, 136898.0
479.6070, 133507.0
480.7920, 128887.0
481.9760, 123709.0
483.1600, 118033.0
484.3440, 113707.0
485.5280, 109837.0
486.7120, 106527.0
487.8950, 104594.0
489.0780, 102104.0
490.2620, 101202.0
491.4450, 100735.0
492.6270, 99849.00
493.8100, 99906.00
494.9920, 100118.0
496.1750, 100556.0
497.3570, 102364.0
498.5390, 104076.0
499.7210, 106555.0
500.9020, 110118.0
502.0840, 114469.0
503.2650, 119378.0
504.4460, 127410.0
505.6270, 133214.0
506.8080, 141093.0
507.9890, 148989.0
509.1690, 156879.0
510.3500, 163440.0
511.5300, 170175.0
512.7100, 173930.0
513.8900, 173990.0
515.0690, 169358.0
516.2490, 161108.0
517.4280, 150112.0
518.6070, 139263.0
519.7860, 129938.0
520.9650, 122306.0
522.1440, 115366.0
523.3220, 111331.0
524.5010, 107534.0
525.6790, 105028.0
526.8570, 103149.0
528.0350, 101088.0
529.2130, 99840.00
530.3900, 98534.00
531.5670, 97946.00
532.7450, 97477.00
533.9220, 96618.00
535.0980, 95901.00
536.2750, 96164.00
537.4520, 95780.00
538.6280, 95496.00
539.8040, 95175.00
540.9800, 95240.00
542.1560, 94946.00
543.3320, 94678.00
544.5070, 94989.00
545.6830, 94713.00
546.8580, 93972.00
548.0330, 94863.00
549.2080, 93931.00
550.3830, 94183.00
551.5570, 94342.00
552.7310, 94231.00
553.9060, 93945.00
555.0800, 94529.00
556.2540, 94234.00
557.4270, 93729.00
558.6010, 94245.00
559.7740, 94062.00
560.9470, 94369.00
562.1210, 94126.00
563.2930, 94284.38
564.4660, 94472.00
565.6390, 94419.00
566.8110, 94533.00
567.9830, 94464.00
569.1550, 94804.00
570.3270, 94673.00
571.4990, 95169.00
572.6710, 95366.00
573.8420, 95569.00
575.0130, 95578.00
576.1840, 95431.00
577.3550, 95885.00
578.5260, 95704.00
579.6970, 96414.00
580.8670, 96265.00
582.0370, 96485.00
583.2070, 96789.00
584.3770, 96430.00
585.5470, 96357.00
586.7170, 96461.00
587.8860, 96334.00
589.0550, 96311.87
590.2240, 95986.00
591.3930, 96102.00
592.5620, 96333.00
593.7310, 96080.00
594.8990, 96567.00
596.0670, 96638.00
597.2350, 96608.00
598.4030, 96441.00
599.5710, 96347.00
600.7390, 96445.00
601.9060, 96893.00
603.0740, 96340.00
604.2410, 96836.00
605.4080, 96952.00
606.5740, 96858.00
607.7410, 97072.00
608.9080, 97486.00
610.0740, 97460.00
611.2400, 97666.00
612.4060, 97394.00
613.5720, 97373.00
614.7370, 97293.00
615.9030, 97345.00
617.0680, 97497.67
618.2330, 97664.00
619.3980, 97857.00
620.5630, 98211.00
621.7280, 98267.00
622.8920, 98123.00
624.0570, 98723.00
625.2210, 98107.00
626.3850, 98991.00
627.5490, 99180.00
628.7120, 98938.00
629.8760, 99547.00
631.0390, 99126.00
632.2020, 99394.00
633.3650, 99393.00
634.5280, 99878.00
635.6910, 99274.00
636.8530, 99456.00
638.0160, 99199.00
639.1780, 99882.00
640.3400, 100081.0
641.5020, 100423.0
642.6640, 100096.0
643.8250, 100380.0
644.9870, 100329.0
646.1480, 100437.1
647.3090, 100439.0
648.4700, 100775.0
649.6300, 100782.0
650.7910, 100952.0
651.9510, 101035.0
653.1120, 101143.0
654.2720, 101007.1
655.4320, 101080.1
656.5910, 100958.0
657.7510, 100845.0
658.9100, 100972.1
660.0690, 100999.0
661.2290, 101245.0
662.3880, 101064.0
663.5460, 101346.0
664.7050, 100915.0
665.8630, 101373.0
667.0220, 101175.0
668.1800, 101201.0
669.3380, 101169.0
670.4950, 101292.0
671.6530, 101047.0
672.8100, 100735.0
673.9680, 101328.0
675.1250, 101128.0
676.2820, 101337.0
677.4390, 101742.0
678.5950, 101420.0
679.7520, 101623.0
680.9080, 101751.0
682.0640, 101704.0
683.2200, 101831.0
684.3760, 101482.0
685.5320, 101798.0
686.6870, 101933.0
687.8420, 101811.0
688.9980, 102268.0
690.1530, 102107.0
691.3070, 102310.0
692.4620, 102056.0
693.6170, 102330.0
694.7710, 101971.0
695.9250, 102512.0
697.0790, 102887.0
698.2330, 102866.0
699.3870, 102797.0
700.5400, 102822.0
701.6940, 102667.0
702.8470, 103222.0
704.0000, 103439.0
705.1530, 103835.0
706.3050, 103687.0
707.4580, 103908.0
708.6100, 103986.0
709.7630, 104033.0
710.9150, 104439.0
712.0660, 104609.0
713.2180, 104622.0
714.3700, 104855.0
715.5210, 105567.0
716.6720, 105116.0
717.8240, 105014.0
718.9740, 105686.0
720.1250, 105612.0
721.2760, 105724.0
722.4260, 106089.0
723.5770, 106122.0
724.7270, 106316.6
725.8770, 105736.0
727.0260, 106394.0
728.1760, 106478.0
729.3250, 106102.0
730.4750, 106395.0
731.6240, 106900.0
732.7730, 107232.0
733.9220, 107511.2
735.0700, 107698.0
736.2190, 108099.0
737.3670, 108373.0
738.5150, 108825.0
739.6630, 109255.0
740.8110, 109310.0
741.9590, 109867.0
743.1060, 110161.5
744.2540, 110893.0
745.4010, 110898.0
746.5480, 111453.0
747.6950, 111761.0
748.8410, 111654.0
749.9880, 111684.0
751.1340, 112246.0
752.2800, 112254.0
753.4260, 112195.0
754.5720, 112361.5
755.7180, 112536.0
756.8640, 112231.0
758.0090, 112628.0
759.1540, 112806.9
760.2990, 112854.6
761.4440, 112778.2
762.5890, 112206.2
763.7340, 112274.3
764.8780, 112085.9
766.0220, 111887.1
767.1660, 112045.3
768.3100, 111545.5
769.4540, 111698.0
770.5980, 111590.2
771.7410, 111601.6
772.8840, 111355.0
774.0280, 111217.0
775.1700, 111007.0
776.3130, 111101.0
777.4560, 111234.0
778.5980, 111112.0
779.7410, 111177.0
780.8830, 110673.0
782.0250, 110770.0
783.1670, 110823.0
784.3080, 111001.0
785.4500, 111030.0
786.5910, 111062.0
787.7320, 111165.0
788.8730, 111258.0
790.0140, 111371.0
791.1550, 111698.0
792.2950, 111700.0
793.4360, 111379.0
794.5760, 112320.0
795.7160, 111852.0
796.8560, 112295.0
797.9960, 112253.0
799.1350, 112595.0
800.2750, 112275.0
801.4140, 112839.0
802.5530, 112603.0
803.6920, 113411.0
804.8310, 113257.0
805.9690, 113228.0
807.1080, 114155.0
808.2460, 115047.0
809.3840, 115136.0
810.5220, 116020.0
811.6600, 115946.0
812.7970, 116326.0
813.9350, 116750.0
815.0720, 116524.0
816.2090, 116356.0
817.3460, 115772.0
818.4830, 115654.0
819.6200, 114683.0
820.7560, 114356.0
821.8930, 114135.0
823.0290, 114383.0
824.1650, 113770.0
825.3010, 114016.0
826.4360, 114065.0
827.5720, 114156.0
828.7070, 114485.0
829.8420, 113862.0
830.9770, 114013.0
832.1120, 114040.0
833.2470, 114642.0
834.3820, 114244.0
835.5160, 114521.0
836.6500, 114501.0
837.7840, 114761.0
838.9180, 114903.0
840.0520, 114306.0
841.1860, 114782.0
842.3190, 114646.0
843.4520, 115219.0
844.5850, 115271.0
845.7180, 115207.0
846.8510, 115288.0
847.9840, 115548.0
849.1160, 115341.0
850.2490, 115649.0
851.3810, 115767.0
852.5130, 115286.0
853.6450, 115921.0
854.7760, 115972.0
855.9080, 115757.0
857.0390, 115887.0
858.1700, 116468.0
859.3010, 116581.0
860.4320, 116534.0
861.5630, 116898.0
862.6930, 116711.0
863.8240, 116157.0
864.9540, 116470.0
866.0840, 116954.0
867.2140, 116841.0
868.3440, 117274.0
869.4730, 117185.0
870.6030, 117196.0
871.7320, 117160.0
872.8610, 117442.0
873.9900, 117260.0
875.1190, 117878.0
876.2470, 117626.0
877.3760, 118030.0
878.5040, 117793.0
879.6320, 118096.0
880.7600, 117439.0
881.8880, 118129.0
883.0150, 118148.0
884.1430, 118610.0
885.2700, 118678.0
886.3970, 118465.0
887.5240, 118673.0
888.6510, 118638.0
889.7780, 118341.0
890.9040, 118909.0
892.0310, 119149.0
893.1570, 119053.0
894.2830, 118937.0
895.4090, 119167.0
896.5350, 119523.0
897.6600, 119701.0
898.7860, 119741.0
899.9110, 119800.0
901.0360, 119557.0
902.1610, 119924.0
903.2860, 120036.0
904.4100, 119740.0
905.5350, 119917.0
906.6590, 120110.0
907.7830, 120272.3
908.9070, 120884.0
910.0310, 120899.0
911.1540, 121092.0
912.2780, 121348.0
913.4010, 121155.0
914.5240, 121234.0
915.6470, 121417.0
916.7700, 121398.0
917.8930, 121427.0
919.0150, 121587.9
920.1380, 121935.0
921.2600, 121883.0
922.3820, 122015.0
923.5040, 122220.0
924.6260, 122251.9
925.7470, 122407.9
926.8690, 122467.0
927.9900, 122606.3
929.1110, 122716.3
930.2320, 122769.0
931.3530, 122900.0
932.4730, 122897.0
933.5940, 123531.0
934.7140, 122937.0
935.8340, 123426.0
936.9540, 123570.0
938.0740, 123283.0
939.1930, 123882.0
940.3130, 123681.0
941.4320, 123602.0
942.5510, 123692.0
943.6700, 124101.0
944.7890, 124061.0
945.9080, 124373.0
947.0260, 124321.0
948.1450, 124449.0
949.2630, 124619.0
950.3810, 124504.0
951.4990, 125213.0
952.6170, 125244.0
953.7340, 125279.3
954.8520, 125635.0
955.9690, 125866.9
957.0860, 125982.9
958.2030, 125570.1
959.3200, 125890.3
960.4360, 125947.3
961.5530, 126014.6
962.6690, 126500.4
963.7850, 126276.9
964.9010, 126800.1
966.0170, 127055.9
967.1330, 127465.9
968.2480, 126775.0
969.3630, 127061.0
970.4790, 127123.0
971.5940, 127166.0
972.7080, 127892.0
973.8230, 127760.0
974.9380, 128378.0
976.0520, 129076.0
977.1660, 129238.0
978.2800, 128864.0
979.3940, 129599.0
980.5080, 128930.0
981.6220, 129658.0
982.7350, 129729.0
983.8480, 130190.0
984.9610, 129660.0
986.0740, 129800.0
987.1870, 129879.0
988.3000, 130311.0
989.4120, 130444.0
990.5250, 130597.0
991.6370, 130958.0
992.7490, 131160.8
993.8610, 131430.6
994.9720, 131741.0
996.0840, 132024.0
997.1950, 132301.8
998.3060, 132717.0
999.4170, 132635.0
1000.528, 132622.0
1001.639, 133216.0
1002.750, 134099.0
1003.860, 133676.6
1004.970, 133771.0
1006.080, 133283.0
1007.190, 132552.0
1008.300, 132506.0
1009.410, 132661.0
1010.519, 133276.0
1011.628, 132466.0
1012.738, 132810.0
1013.846, 132697.0
1014.955, 133054.0
1016.064, 132522.0
1017.172, 133198.0
1018.281, 132563.0
1019.389, 133025.0
1020.497, 133303.0
1021.605, 133094.0
1022.713, 132920.0
1023.820, 133242.0
1024.928, 133482.0
1026.035, 133707.0
1027.142, 133784.0
1028.249, 133955.0
1029.356, 134050.0
1030.462, 134625.0
1031.569, 134891.0
1032.675, 134700.0
1033.781, 134860.0
1034.887, 134756.0
1035.993, 134993.0
1037.098, 134892.0
1038.204, 134843.0
1039.309, 135225.0
1040.415, 134949.0
1041.520, 135051.0
1042.624, 134927.0
1043.729, 135387.0
1044.834, 135287.0
1045.938, 135390.0
1047.042, 135623.0
1048.146, 135714.5
1049.250, 135865.0
1050.354, 136118.0
1051.458, 136024.0
1052.561, 136183.0
1053.664, 136549.0
1054.767, 136297.0
1055.870, 136802.0
1056.973, 136729.0
1058.076, 136557.0
1059.178, 136768.0
1060.281, 136456.0
1061.383, 136867.0
1062.485, 136851.0
1063.587, 136974.0
1064.688, 137608.0
1065.790, 137353.0
1066.891, 137009.0
1067.993, 137678.0
1069.094, 137415.0
1070.195, 137725.0
1071.295, 138232.0
1072.396, 138204.0
1073.496, 138768.0
1074.597, 138398.0
1075.697, 138770.0
1076.797, 138451.0
1077.897, 139223.0
1078.996, 139411.0
1080.096, 139543.0
1081.195, 140127.0
1082.294, 140430.0
1083.393, 140608.0
1084.492, 141207.0
1085.591, 141174.0
1086.689, 140998.0
1087.788, 142204.0
1088.886, 142142.0
1089.984, 142895.0
1091.082, 143930.0
1092.180, 143841.0
1093.277, 144454.0
1094.375, 145274.0
1095.472, 146667.0
1096.569, 146962.0
1097.666, 147918.0
1098.763, 147938.0
1099.860, 148576.0
1100.956, 148661.0
1102.053, 148642.0
1103.149, 148709.0
1104.245, 148041.0
1105.341, 148017.0
1106.436, 147848.0
1107.532, 148452.0
1108.627, 148455.0
1109.723, 148892.0
1110.818, 148979.0
1111.913, 149987.0
1113.007, 150045.0
1114.102, 150742.0
1115.197, 150776.0
1116.291, 151750.0
1117.385, 152935.0
1118.479, 153205.0
1119.573, 154078.0
1120.666, 154569.0
1121.760, 154802.0
1122.853, 155533.0
1123.947, 155670.0
1125.040, 155343.0
1126.132, 154473.0
1127.225, 153915.0
1128.318, 153366.0
1129.410, 152990.0
1130.502, 153072.0
1131.595, 152760.0
1132.687, 152467.0
1133.778, 152833.0
1134.870, 152533.0
1135.961, 152591.0
1137.053, 152594.2
1138.144, 152187.0
1139.235, 152502.0
1140.326, 152164.0
1141.416, 152101.0
1142.507, 151624.0
1143.597, 151385.0
1144.688, 151005.0
1145.778, 150592.0
1146.868, 150753.0
1147.957, 149818.0
1149.047, 150331.0
1150.136, 149665.0
1151.226, 149536.0
1152.315, 149526.0
1153.404, 149788.0
1154.493, 149642.0
1155.581, 149282.0
1156.670, 149017.0
1157.758, 148702.0
1158.846, 149040.0
1159.934, 148809.0
1161.022, 148419.0
1162.110, 148704.0
1163.198, 148376.0
1164.285, 149362.0
1165.372, 149679.0
1166.459, 149021.0
1167.546, 149492.0
1168.633, 148444.0
1169.720, 149102.0
1170.806, 148767.0
1171.892, 149930.0
1172.979, 149241.0
1174.065, 149424.0
1175.150, 149798.0
1176.236, 149410.0
1177.322, 149673.0
1178.407, 149079.0
1179.492, 149478.0
1180.577, 150027.0
1181.662, 149847.0
1182.747, 149978.0
1183.832, 149809.0
1184.916, 149836.0
1186.000, 150247.0
1187.084, 149936.0
1188.168, 150294.0
1189.252, 150930.0
1190.336, 150649.0
1191.419, 151047.0
1192.503, 150590.0
1193.586, 150893.0
1194.669, 151336.0
1195.752, 151361.0
1196.835, 151263.0
1197.917, 150964.0
1199.000, 151498.0
1200.082, 151896.0
1201.164, 151811.0
1202.246, 151808.0
1203.328, 151438.0
1204.409, 152183.0
1205.491, 152126.0
1206.572, 152552.0
1207.653, 151918.0
1208.734, 152406.0
1209.815, 152509.0
1210.896, 152482.0
1211.976, 152887.0
1213.057, 152637.0
1214.137, 153384.0
1215.217, 153180.0
1216.297, 153427.0
1217.377, 153092.0
1218.456, 153302.0
1219.536, 153524.0
1220.615, 154259.0
1221.694, 154460.0
1222.773, 154667.0
1223.852, 154263.0
1224.931, 154498.0
1226.009, 154179.0
1227.088, 154729.0
1228.166, 155067.0
1229.244, 155236.0
1230.322, 155196.0
1231.400, 154563.0
