##NAMES=Mimetite
##RRUFFID=R050527
##IDEAL CHEMISTRY=Pb^2+^_5_(As^5+^O_4_)_3_Cl
##LOCALITY=Tsumeb mine, Tsumeb, Otavi District, Oshikoto, Namibia
##OWNER=RRUFF
##SOURCE=University of Arizona Mineral Museum
##DESCRIPTION=Yellow hexagonal prisms, monoclinic polytype
##STATUS=The identification of this mineral has been confirmed by X-ray diffraction and chemical analysis
##URL=rruff.info/R050527
##MEASURED CHEMISTRY=Pb_5.00_(As_1.00_O_4_)_3_Cl_1.00_
##PIN_ID=M00655
##ORIENTATION=Laser parallel to a* (1 0 0). Fiducial mark perpendicular to laser is parallel to c [0 0 1]
43.47600, 396.0000
44.72200, 397.0000
45.96700, 383.0000
47.21200, 383.0000
48.45600, 389.0000
49.70100, 383.0000
50.94500, 395.0000
52.19000, 387.0000
53.43400, 387.0000
54.67800, 384.7940
55.92100, 387.0000
57.16500, 375.0000
58.40800, 378.0000
59.65200, 375.0000
60.89500, 364.0000
62.13700, 361.0000
63.38000, 377.0000
64.62300, 361.0000
65.86500, 360.0000
67.10700, 380.0000
68.34900, 373.0000
69.59100, 366.0000
70.83300, 376.0000
72.07400, 375.0000
73.31600, 394.0000
74.55700, 382.0000
75.79800, 390.0000
77.03900, 413.0000
78.27900, 427.0000
79.52000, 437.0000
80.76000, 488.0000
82.00000, 539.0000
83.24000, 585.0000
84.48000, 681.0000
85.72000, 788.0000
86.95900, 923.0000
88.19900, 1059.000
89.43800, 1271.000
90.67700, 1497.000
91.91600, 1712.000
93.15400, 1961.000
94.39300, 2203.000
95.63100, 2550.000
96.86900, 3009.000
98.10700, 3458.000
99.34500, 3962.000
100.5820, 4268.000
101.8200, 4612.000
103.0570, 4588.000
104.2940, 4663.000
105.5310, 4437.000
106.7680, 4369.000
108.0040, 4145.000
109.2410, 4093.000
110.4770, 3954.000
111.7130, 3822.000
112.9490, 3611.000
114.1850, 3481.000
115.4200, 3418.000
116.6560, 3403.000
117.8910, 3295.000
119.1260, 3161.000
120.3610, 3070.000
121.5960, 2994.000
122.8300, 2892.000
124.0640, 2848.000
125.2990, 2785.294
126.5330, 2709.000
127.7670, 2708.000
129.0000, 2719.000
130.2340, 2712.000
131.4670, 2777.000
132.7000, 2727.000
133.9330, 2642.000
135.1660, 2704.000
136.3990, 2761.000
137.6310, 2687.000
138.8640, 2775.000
140.0960, 2760.000
141.3280, 2847.000
142.5600, 2865.000
143.7910, 2887.000
145.0230, 2967.000
146.2540, 2936.000
147.4850, 2948.000
148.7160, 3005.000
149.9470, 2915.000
151.1780, 2945.000
152.4080, 2981.000
153.6380, 2943.000
154.8690, 2878.000
156.0980, 2871.000
157.3280, 2868.000
158.5580, 2841.000
159.7870, 2847.000
161.0170, 2840.590
162.2460, 2837.000
163.4750, 2842.000
164.7030, 2819.000
165.9320, 2819.000
167.1600, 2894.000
168.3890, 2855.000
169.6170, 2880.000
170.8450, 2865.000
172.0730, 2861.733
173.3000, 2893.000
174.5280, 2851.000
175.7550, 2839.000
176.9820, 2811.000
178.2090, 2739.000
179.4350, 2793.000
180.6620, 2680.000
181.8880, 2680.000
183.1150, 2661.000
184.3410, 2615.000
185.5670, 2589.000
186.7920, 2625.000
188.0180, 2563.000
189.2430, 2590.000
190.4690, 2590.000
191.6940, 2499.000
192.9180, 2472.000
194.1430, 2483.000
195.3680, 2426.000
196.5920, 2364.000
197.8160, 2371.000
199.0400, 2333.000
200.2640, 2305.000
201.4880, 2214.000
202.7110, 2134.000
203.9350, 2051.000
205.1580, 2048.000
206.3810, 2039.000
207.6040, 1974.000
208.8270, 1894.000
210.0490, 1840.000
211.2710, 1877.000
212.4940, 1810.000
213.7160, 1799.000
214.9370, 1755.000
216.1590, 1699.000
217.3810, 1654.000
218.6020, 1600.000
219.8230, 1556.000
221.0440, 1544.000
222.2650, 1539.000
223.4860, 1484.000
224.7060, 1454.000
225.9260, 1467.000
227.1470, 1425.000
228.3670, 1397.000
229.5860, 1375.000
230.8060, 1319.000
232.0260, 1343.000
233.2450, 1295.000
234.4640, 1283.000
235.6830, 1281.000
236.9020, 1263.000
238.1200, 1237.000
239.3390, 1226.606
240.5570, 1213.045
241.7750, 1192.000
242.9930, 1192.000
244.2110, 1178.000
245.4290, 1160.000
246.6460, 1152.072
247.8630, 1134.000
249.0810, 1125.000
250.2980, 1106.000
251.5140, 1091.000
252.7310, 1111.000
253.9470, 1103.000
255.1640, 1094.000
256.3800, 1052.000
257.5960, 1052.312
258.8120, 1035.782
260.0270, 1030.000
261.2430, 1026.000
262.4580, 1015.000
263.6730, 1026.000
264.8880, 1032.000
266.1030, 1017.000
267.3170, 986.0000
268.5320, 965.0000
269.7460, 984.0000
270.9600, 940.0000
272.1740, 972.0000
273.3880, 954.0000
274.6010, 976.0000
275.8150, 985.0000
277.0280, 955.0000
278.2410, 942.0000
279.4540, 965.0000
280.6670, 966.0000
281.8790, 943.0000
283.0920, 932.0000
284.3040, 946.0000
285.5160, 919.0000
286.7280, 983.0000
287.9400, 976.0000
289.1510, 973.0000
290.3630, 983.0000
291.5740, 1036.000
292.7850, 1065.000
293.9960, 1088.000
295.2070, 1143.000
296.4170, 1179.423
297.6280, 1261.000
298.8380, 1291.000
300.0480, 1371.000
301.2580, 1463.000
302.4680, 1559.000
303.6770, 1664.000
304.8870, 1689.000
306.0960, 1714.000
307.3050, 1737.000
308.5140, 1738.000
309.7230, 1728.000
310.9310, 1709.000
312.1400, 1736.000
313.3480, 1694.000
314.5560, 1681.000
315.7640, 1621.000
316.9720, 1637.000
318.1790, 1586.000
319.3870, 1555.000
320.5940, 1558.000
321.8010, 1509.000
323.0080, 1518.019
324.2150, 1536.000
325.4210, 1521.000
326.6280, 1572.000
327.8340, 1576.000
329.0400, 1586.000
330.2460, 1628.000
331.4510, 1637.000
332.6570, 1719.000
333.8620, 1756.000
335.0680, 1725.000
336.2730, 1822.000
337.4780, 1846.000
338.6820, 1909.000
339.8870, 1918.000
341.0910, 1942.000
342.2950, 1883.000
343.5000, 1830.000
344.7030, 1798.000
345.9070, 1774.000
347.1110, 1685.000
348.3140, 1693.000
349.5170, 1632.000
350.7200, 1545.000
351.9230, 1490.000
353.1260, 1416.000
354.3290, 1448.000
355.5310, 1388.000
356.7330, 1347.000
357.9350, 1340.000
359.1370, 1415.000
360.3390, 1442.000
361.5400, 1443.000
362.7420, 1511.000
363.9430, 1541.000
365.1440, 1653.000
366.3450, 1755.000
367.5460, 1839.000
368.7460, 1998.000
369.9470, 2124.000
371.1470, 2175.000
372.3470, 2188.000
373.5470, 2104.000
374.7460, 2017.000
375.9460, 1861.000
377.1450, 1726.000
378.3450, 1619.000
379.5440, 1509.000
380.7430, 1379.000
381.9410, 1370.000
383.1400, 1285.000
384.3380, 1297.000
385.5370, 1222.000
386.7350, 1193.000
387.9320, 1179.000
389.1300, 1126.000
390.3280, 1178.000
391.5250, 1195.000
392.7220, 1152.000
393.9190, 1131.000
395.1160, 1159.000
396.3130, 1106.000
397.5100, 1132.000
398.7060, 1127.000
399.9020, 1159.000
401.0980, 1096.000
402.2940, 1121.000
403.4900, 1121.000
404.6860, 1144.000
405.8810, 1179.000
407.0760, 1225.000
408.2710, 1263.000
409.4660, 1287.000
410.6610, 1350.000
411.8550, 1366.000
413.0500, 1434.000
414.2440, 1465.000
415.4380, 1575.000
416.6320, 1575.000
417.8260, 1730.000
419.0190, 1787.000
420.2130, 1886.000
421.4060, 1953.000
422.5990, 2022.000
423.7920, 2028.000
424.9850, 1959.000
426.1770, 2011.000
427.3700, 1830.000
428.5620, 1748.000
429.7540, 1645.000
430.9460, 1522.000
432.1380, 1416.000
433.3290, 1326.000
434.5210, 1217.000
435.7120, 1194.000
436.9030, 1076.000
438.0940, 1069.000
439.2850, 1050.000
440.4750, 1001.000
441.6660, 983.0000
442.8560, 908.0000
444.0460, 939.0000
445.2360, 867.0000
446.4260, 924.0000
447.6160, 859.0000
448.8050, 851.0000
449.9940, 837.0000
451.1830, 837.0000
452.3720, 774.0000
453.5610, 786.0000
454.7500, 758.0000
455.9380, 758.0000
457.1260, 772.0000
458.3150, 781.0000
459.5020, 751.0000
460.6900, 710.0000
461.8780, 736.0000
463.0650, 715.0000
464.2530, 729.0000
465.4400, 718.0000
466.6270, 714.0000
467.8130, 711.0000
469.0000, 689.0000
470.1870, 681.0000
471.3730, 674.0000
472.5590, 690.0000
473.7450, 713.0000
474.9310, 683.0000
476.1160, 678.0000
477.3020, 658.0000
478.4870, 665.0000
479.6720, 647.0000
480.8570, 698.0000
482.0420, 672.0000
483.2270, 687.0000
484.4110, 657.0000
485.5960, 632.0000
486.7800, 668.0000
487.9640, 663.0000
489.1480, 671.0000
490.3310, 664.0000
491.5150, 657.0000
492.6980, 665.0000
493.8810, 659.0000
495.0640, 627.0000
496.2470, 678.0000
497.4300, 648.0000
498.6120, 670.0000
499.7950, 649.0000
500.9770, 641.0000
502.1590, 664.0000
503.3410, 665.0000
504.5220, 627.0000
505.7040, 652.0000
506.8850, 655.0000
508.0660, 614.0000
509.2470, 630.0000
510.4280, 643.0000
511.6090, 644.0000
512.7890, 648.5768
513.9700, 633.0000
515.1500, 644.0000
516.3300, 640.0000
517.5100, 636.0000
518.6900, 643.0000
519.8690, 623.0000
521.0490, 645.0000
522.2280, 622.0000
523.4070, 646.0000
524.5860, 641.0000
525.7640, 647.0000
526.9430, 609.0000
528.1210, 640.0000
529.3000, 617.0000
530.4780, 638.0000
531.6560, 614.0000
532.8330, 624.0000
534.0110, 588.0000
535.1880, 622.0000
536.3650, 612.0000
537.5430, 598.0000
538.7190, 618.0000
539.8960, 640.0000
541.0730, 607.0000
542.2490, 620.0000
543.4250, 601.0000
544.6020, 635.0000
545.7780, 598.0000
546.9530, 614.0000
548.1290, 611.0000
549.3040, 609.0000
550.4800, 616.0000
551.6550, 621.1683
552.8300, 619.0000
554.0040, 635.0000
555.1790, 635.0000
556.3540, 629.0000
557.5280, 625.0000
558.7020, 622.0000
559.8760, 616.0000
561.0500, 615.3799
562.2230, 612.9058
563.3970, 616.0000
564.5700, 611.0000
565.7430, 617.0000
566.9160, 617.0000
568.0890, 643.0000
569.2620, 621.0000
570.4340, 613.0000
571.6070, 636.0000
572.7790, 599.0000
573.9510, 605.0000
575.1230, 623.0000
576.2940, 631.0000
577.4660, 660.0000
578.6370, 626.0000
579.8080, 620.0000
580.9790, 618.0000
582.1500, 634.0000
583.3210, 627.0000
584.4910, 639.0000
585.6620, 616.0000
586.8320, 633.0000
588.0020, 629.0000
589.1720, 629.0000
590.3410, 624.0000
591.5110, 644.0000
592.6800, 653.0000
593.8500, 618.0000
595.0190, 649.0000
596.1880, 643.0000
597.3560, 668.0000
598.5250, 670.9764
599.6930, 668.0000
600.8620, 672.0000
602.0300, 666.0000
603.1970, 654.0000
604.3650, 680.0000
605.5330, 678.0000
606.7000, 689.0000
607.8680, 681.0000
609.0350, 695.0000
610.2020, 690.9033
611.3680, 679.0000
612.5350, 688.0000
613.7010, 686.0000
614.8680, 686.0000
616.0340, 667.0000
617.2000, 676.0000
618.3660, 712.0000
619.5310, 660.0000
620.6970, 687.0000
621.8620, 667.0000
623.0270, 673.0000
624.1920, 657.0000
625.3570, 648.0000
626.5220, 647.0000
627.6860, 669.0000
628.8500, 666.0000
630.0140, 639.0000
631.1780, 673.0000
632.3420, 645.0000
633.5060, 652.0000
634.6700, 639.0000
635.8330, 645.0000
636.9960, 640.0000
638.1590, 635.0000
639.3220, 636.0000
640.4850, 630.0000
641.6470, 636.0000
642.8100, 623.0000
643.9720, 626.9580
645.1340, 637.0000
646.2960, 628.0000
647.4570, 630.0000
648.6190, 630.0000
649.7800, 617.0000
650.9420, 625.0000
652.1030, 640.0000
653.2640, 612.0000
654.4240, 644.0000
655.5850, 644.0000
656.7450, 628.0000
657.9060, 628.0000
659.0660, 629.0000
660.2260, 607.0000
661.3850, 617.0000
662.5450, 625.0000
663.7040, 632.0000
664.8640, 615.0000
666.0230, 633.0000
667.1820, 623.0000
668.3410, 614.0000
669.4990, 637.0000
670.6580, 622.8274
671.8160, 655.0000
672.9740, 622.0000
674.1320, 641.0000
675.2900, 652.0000
676.4480, 622.0000
677.6050, 634.0000
678.7630, 632.0000
679.9200, 645.0000
681.0770, 637.0000
682.2340, 641.0000
683.3900, 657.0000
684.5470, 654.5433
685.7030, 673.0000
686.8590, 667.0000
688.0150, 663.0000
689.1710, 673.0000
690.3270, 692.0000
691.4830, 700.0000
692.6380, 685.0000
693.7930, 663.0000
694.9480, 690.0000
696.1030, 676.0000
697.2580, 706.0000
698.4130, 721.0000
699.5670, 746.0000
700.7210, 705.0000
701.8750, 717.0000
703.0290, 708.0000
704.1830, 739.0000
705.3370, 747.0000
706.4900, 763.0000
707.6430, 773.7615
708.7970, 777.0000
709.9490, 784.0000
711.1020, 795.0000
712.2550, 795.0000
713.4070, 782.0000
714.5600, 819.0000
715.7120, 815.0000
716.8640, 857.0000
718.0160, 830.0000
719.1670, 899.0000
720.3190, 843.0000
721.4700, 873.0000
722.6210, 871.0000
723.7720, 871.0000
724.9230, 908.0000
726.0740, 913.0000
727.2250, 936.0000
728.3750, 933.0000
729.5250, 975.0000
730.6750, 954.0000
731.8250, 1005.000
732.9750, 1006.000
734.1240, 1048.000
735.2740, 1070.000
736.4230, 1108.000
737.5720, 1104.000
738.7210, 1121.000
739.8700, 1178.000
741.0190, 1173.000
742.1670, 1267.000
743.3150, 1273.000
744.4630, 1307.000
745.6110, 1376.000
746.7590, 1451.000
747.9070, 1444.000
749.0540, 1562.000
750.2020, 1634.000
751.3490, 1733.000
752.4960, 1901.000
753.6430, 2085.000
754.7890, 2186.000
755.9360, 2554.000
757.0820, 2790.000
758.2280, 3259.000
759.3740, 3564.000
760.5200, 4017.000
761.6660, 4549.000
762.8120, 5090.000
763.9570, 5412.000
765.1020, 5799.000
766.2470, 5972.000
767.3920, 5878.000
768.5370, 5780.000
769.6810, 5503.000
770.8260, 5092.000
771.9700, 4832.000
773.1140, 4521.000
774.2580, 4360.000
775.4020, 4278.000
776.5460, 4162.000
777.6890, 4127.000
778.8320, 4126.000
779.9750, 4254.000
781.1180, 4501.000
782.2610, 4707.000
783.4040, 5002.000
784.5460, 5186.000
785.6890, 5492.000
786.8310, 5721.000
787.9730, 5929.000
789.1150, 5970.000
790.2560, 6139.000
791.3980, 6256.000
792.5390, 6547.000
793.6810, 6852.000
794.8220, 7404.000
795.9630, 8274.000
797.1030, 9323.000
798.2440, 11056.00
799.3840, 13142.00
800.5240, 15704.00
801.6650, 18484.00
802.8040, 21904.00
803.9440, 26113.00
805.0840, 30630.00
806.2230, 34983.00
807.3630, 37803.00
808.5020, 38510.00
809.6410, 37230.00
810.7790, 34467.00
811.9180, 32295.00
813.0570, 29752.00
814.1950, 27680.00
815.3330, 25300.00
816.4710, 22403.00
817.6090, 19876.00
818.7470, 16674.00
819.8840, 13946.00
821.0220, 11511.00
822.1590, 9528.000
823.2960, 7990.000
824.4330, 6839.000
825.5690, 5957.000
826.7060, 5254.000
827.8420, 4731.000
828.9790, 4305.000
830.1150, 3930.000
831.2510, 3582.000
832.3860, 3352.000
833.5220, 3134.000
834.6570, 2936.000
835.7930, 2809.000
836.9280, 2619.000
838.0630, 2544.000
839.1980, 2402.000
840.3320, 2326.000
841.4670, 2271.000
842.6010, 2194.000
843.7350, 2114.000
844.8690, 2055.000
846.0030, 1979.000
847.1370, 1919.000
848.2700, 1901.000
849.4040, 1838.000
850.5370, 1816.000
851.6700, 1770.809
852.8030, 1720.000
853.9360, 1680.000
855.0680, 1622.000
856.2000, 1564.000
857.3330, 1502.000
858.4650, 1508.000
859.5970, 1441.000
860.7290, 1374.000
861.8600, 1388.000
862.9920, 1326.000
864.1230, 1322.000
865.2540, 1316.000
866.3850, 1276.000
867.5160, 1249.000
868.6460, 1230.000
869.7770, 1179.000
870.9070, 1174.000
872.0370, 1150.000
873.1670, 1161.000
874.2970, 1131.000
875.4270, 1126.889
876.5570, 1135.000
877.6860, 1104.000
878.8150, 1114.000
879.9440, 1096.000
881.0730, 1083.000
882.2020, 1080.000
883.3300, 1063.000
884.4590, 1016.000
885.5870, 1049.000
886.7150, 1010.000
887.8430, 1011.000
888.9710, 1023.000
890.0990, 990.0000
891.2260, 980.0000
892.3530, 978.0000
893.4810, 983.0000
894.6080, 948.0000
895.7340, 949.0000
896.8610, 951.0000
897.9880, 916.0000
899.1140, 901.0000
900.2400, 888.0000
901.3660, 880.0000
902.4920, 874.0000
903.6180, 851.0000
904.7430, 788.0000
905.8690, 847.0000
906.9940, 814.0000
908.1190, 830.0000
909.2440, 773.0000
910.3690, 811.0000
911.4930, 806.0000
912.6180, 789.0000
913.7420, 773.0000
914.8660, 779.0000
915.9900, 762.0000
917.1140, 776.0000
918.2380, 809.0000
919.3610, 811.0000
920.4850, 820.0000
921.6080, 790.0000
922.7310, 756.0000
923.8540, 790.0000
924.9760, 731.0000
926.0990, 720.0000
927.2210, 687.0000
928.3440, 678.0000
929.4660, 686.0000
930.5880, 654.0000
931.7090, 668.0000
932.8310, 653.0000
933.9520, 641.0000
935.0740, 635.0000
936.1950, 660.0000
937.3160, 658.0000
938.4360, 664.0000
939.5570, 636.0000
940.6780, 633.0000
941.7980, 626.0000
942.9180, 652.0000
944.0380, 646.0000
945.1580, 608.0000
946.2780, 604.0000
947.3970, 647.0000
948.5170, 616.0000
949.6360, 618.0000
950.7550, 625.0000
951.8740, 625.0000
952.9930, 637.0000
954.1110, 625.0000
955.2300, 644.0000
956.3480, 613.0000
957.4660, 593.0000
958.5840, 611.0000
959.7020, 629.0000
960.8190, 592.0000
961.9370, 613.0000
963.0540, 609.0000
964.1710, 614.0000
965.2880, 614.0000
966.4050, 629.0000
967.5220, 589.0000
968.6380, 593.0000
969.7550, 592.0000
970.8710, 601.0000
971.9870, 606.5869
973.1030, 606.0000
974.2190, 616.0000
975.3340, 593.0000
976.4500, 579.0000
977.5650, 611.0000
978.6800, 619.0000
979.7950, 589.0000
980.9100, 599.0000
982.0250, 606.0000
983.1390, 580.0000
984.2530, 581.0000
985.3680, 550.0000
986.4820, 592.0000
987.5950, 575.0000
988.7090, 580.0000
989.8230, 591.0000
990.9360, 581.0000
992.0490, 573.0000
993.1620, 596.0000
994.2750, 582.0000
995.3880, 575.0000
996.5010, 585.0000
997.6130, 582.0000
998.7250, 570.0000
999.8370, 585.0000
1000.949, 584.0000
1002.061, 598.0000
1003.173, 573.0000
1004.284, 596.0000
1005.396, 576.0000
1006.507, 580.0000
1007.618, 568.0000
1008.729, 585.0000
1009.839, 573.0000
1010.950, 592.0000
1012.060, 564.0000
1013.171, 572.0000
1014.281, 585.0000
1015.391, 561.0000
1016.500, 569.0000
1017.610, 557.0000
1018.719, 577.0000
1019.829, 576.0000
1020.938, 570.0000
1022.047, 557.0000
1023.156, 587.0000
1024.264, 569.0000
1025.373, 569.0000
1026.481, 553.0000
1027.589, 577.0000
1028.697, 570.0000
1029.805, 579.0000
1030.913, 585.0000
1032.020, 573.2471
1033.128, 568.0000
1034.235, 564.0000
1035.342, 553.0000
1036.449, 572.0000
1037.556, 575.0000
1038.663, 582.0000
1039.769, 569.0000
1040.875, 582.0000
1041.981, 571.0000
1043.087, 559.0000
1044.193, 613.0000
1045.299, 580.0000
1046.404, 582.0000
1047.510, 569.0000
1048.615, 563.0000
1049.720, 554.0000
1050.825, 554.0000
1051.930, 562.0000
1053.034, 561.0000
1054.139, 549.0000
1055.243, 561.0000
1056.347, 561.0000
1057.451, 544.0000
1058.555, 536.0000
1059.658, 566.0000
1060.762, 541.0000
1061.865, 569.0000
1062.968, 555.0000
1064.071, 550.0000
1065.174, 544.0000
1066.277, 556.0000
1067.380, 545.0000
1068.482, 552.0000
1069.584, 542.0000
1070.686, 547.1957
1071.788, 554.0000
1072.890, 556.0000
1073.992, 558.0000
1075.093, 561.0000
1076.194, 554.0000
1077.295, 561.0000
1078.396, 545.0000
1079.497, 537.0000
1080.598, 545.0000
1081.698, 533.0000
1082.799, 560.0000
1083.899, 556.0000
1084.999, 547.0000
1086.099, 540.0000
1087.199, 540.9552
1088.298, 549.0000
1089.398, 547.0000
1090.497, 543.0000
1091.596, 553.0000
1092.695, 548.0000
1093.794, 549.0000
1094.892, 538.0000
1095.991, 534.0000
1097.089, 539.0000
1098.187, 534.0000
1099.285, 546.0000
1100.383, 546.0000
1101.481, 560.0000
1102.579, 538.0000
1103.676, 546.0000
1104.773, 567.0000
1105.870, 571.0000
1106.967, 537.0000
1108.064, 563.0000
1109.161, 543.0000
1110.257, 572.0000
1111.353, 547.0000
1112.449, 563.0000
1113.545, 567.0000
1114.641, 548.0000
1115.737, 544.0000
1116.832, 558.0000
1117.928, 546.0000
1119.023, 566.0000
1120.118, 550.0000
1121.213, 585.0000
1122.308, 580.0000
1123.402, 571.0000
1124.497, 552.0000
1125.591, 584.0000
1126.685, 582.0000
1127.779, 597.0000
1128.873, 561.0000
1129.967, 574.0000
1131.060, 578.0000
1132.153, 554.0000
1133.247, 553.0000
1134.340, 563.0000
1135.433, 591.0000
1136.525, 557.0000
1137.618, 575.0000
1138.710, 565.0000
1139.802, 571.0000
1140.895, 564.0000
1141.987, 565.0000
1143.078, 568.0000
1144.170, 573.0000
1145.261, 552.0000
1146.353, 574.0000
1147.444, 539.0000
1148.535, 559.0000
1149.626, 556.0000
1150.716, 548.0000
1151.807, 558.0000
1152.897, 570.0000
1153.988, 532.0000
1155.078, 572.0000
1156.168, 554.0000
1157.257, 570.0000
1158.347, 556.0000
1159.436, 582.0000
1160.526, 571.0000
1161.615, 568.0000
1162.704, 571.0000
1163.793, 563.7744
1164.881, 563.6340
1165.970, 560.0000
1167.058, 565.0000
1168.147, 568.0000
1169.235, 582.0000
1170.323, 566.0000
1171.410, 558.0000
1172.498, 566.0000
1173.585, 570.0000
1174.673, 565.0000
1175.760, 590.0000
1176.847, 566.0000
1177.934, 542.0000
1179.020, 577.0000
1180.107, 573.0000
1181.193, 576.0000
1182.279, 568.0000
1183.365, 582.0000
1184.451, 551.0000
1185.537, 581.0000
1186.623, 560.0000
1187.708, 561.0000
1188.793, 574.0000
1189.878, 562.0000
1190.963, 587.0000
1192.048, 572.0000
1193.133, 558.0000
1194.217, 571.0000
1195.302, 574.0000
1196.386, 584.0000
1197.470, 590.0000
1198.554, 586.0000
1199.638, 568.0000
1200.721, 563.0000
1201.805, 585.0000
1202.888, 569.0000
1203.971, 573.0000
1205.054, 590.0000
1206.137, 578.0000
1207.219, 578.0000
1208.302, 576.0000
1209.384, 575.0000
1210.466, 597.0000
1211.548, 554.0000
1212.630, 589.0000
1213.712, 588.0000
1214.794, 547.0000
1215.875, 576.0000
1216.956, 601.0000
1218.037, 591.0000
1219.118, 578.0000
1220.199, 589.0000
1221.280, 593.0000
1222.360, 613.0000
1223.441, 580.0000
1224.521, 593.0000
1225.601, 593.0000
1226.681, 551.0000
1227.760, 572.0000
1228.840, 595.0000
