##NAMES=Mimetite
##RRUFFID=R060920
##IDEAL CHEMISTRY=Pb^2+^_5_(As^5+^O_4_)_3_Cl
##LOCALITY=Tsumeb mine, Tsumeb, Otavi District, Oshikoto, Namibia
##OWNER=RRUFF
##SOURCE=Marcus Origlieri
##DESCRIPTION=Yellow to brownish hexagonal prism, monoclinic polytype
##STATUS=The identification of this mineral has been made only by X-ray diffraction.
##URL=rruff.info/R060920
##PIN_ID=L01165
##ORIENTATION=Laser parallel to -c* (0 0 -1). Fiducial mark perpendicular to laser is parallel to b [0 1 0]
42.24800, 379.0000
43.49300, 358.0000
44.73800, 368.0000
45.98200, 374.0000
47.22600, 377.0000
48.47100, 369.0000
49.71500, 364.0000
50.95900, 360.0000
52.20200, 367.0000
53.44600, 376.0000
54.68900, 373.0000
55.93300, 380.0000
57.17600, 373.0000
58.41900, 374.0000
59.66100, 367.0000
60.90400, 368.4162
62.14600, 360.0000
63.38900, 369.0000
64.63100, 376.0000
65.87300, 373.0000
67.11500, 384.0000
68.35600, 378.0000
69.59800, 379.0000
70.83900, 397.0000
72.08000, 399.0000
73.32100, 400.0000
74.56200, 431.0000
75.80300, 439.0000
77.04300, 468.0000
78.28300, 508.0000
79.52300, 549.0000
80.76300, 620.0000
82.00300, 737.0000
83.24300, 927.0000
84.48300, 1078.000
85.72200, 1269.000
86.96100, 1568.000
88.20000, 1856.000
89.43900, 2131.000
90.67800, 2502.000
91.91600, 2962.000
93.15500, 3541.000
94.39300, 4197.000
95.63100, 4935.000
96.86900, 5623.000
98.10600, 6092.000
99.34400, 6642.000
100.5810, 6801.000
101.8190, 7007.000
103.0560, 6923.000
104.2930, 6916.000
105.5290, 6862.000
106.7660, 6776.000
108.0020, 6718.097
109.2390, 6702.000
110.4750, 6526.000
111.7110, 6446.000
112.9460, 6307.000
114.1820, 6376.000
115.4170, 6273.000
116.6530, 6204.000
117.8880, 6236.000
119.1230, 6160.000
120.3580, 6099.000
121.5920, 6006.000
122.8270, 5995.000
124.0610, 5956.000
125.2950, 5797.000
126.5290, 5743.000
127.7630, 5757.000
128.9970, 5712.000
130.2300, 5760.000
131.4640, 5754.000
132.6970, 5751.000
133.9300, 5782.000
135.1630, 5792.000
136.3950, 5820.000
137.6280, 6050.000
138.8600, 5975.000
140.0920, 6093.000
141.3240, 6120.000
142.5560, 5934.000
143.7880, 6148.000
145.0190, 6030.000
146.2510, 6100.000
147.4820, 5964.000
148.7130, 5969.000
149.9440, 5884.000
151.1750, 5839.000
152.4050, 5775.977
153.6360, 5710.000
154.8660, 5644.000
156.0960, 5634.000
157.3260, 5614.000
158.5560, 5714.000
159.7850, 5737.000
161.0150, 5659.000
162.2440, 5802.000
163.4730, 5762.000
164.7020, 5773.000
165.9310, 5869.000
167.1590, 5966.000
168.3880, 5878.000
169.6160, 5931.000
170.8440, 5966.000
172.0720, 5811.000
173.3000, 5840.000
174.5280, 5766.000
175.7550, 5718.000
176.9820, 5655.000
178.2100, 5590.000
179.4370, 5502.000
180.6630, 5475.000
181.8900, 5478.000
183.1170, 5300.000
184.3430, 5368.000
185.5690, 5315.000
186.7950, 5168.000
188.0210, 5135.000
189.2470, 5128.000
190.4720, 4985.000
191.6970, 4909.000
192.9230, 4828.000
194.1480, 4752.000
195.3730, 4663.286
196.5970, 4589.000
197.8220, 4492.000
199.0460, 4413.000
200.2700, 4344.783
201.4940, 4262.000
202.7180, 4259.000
203.9420, 4152.000
205.1660, 4146.000
206.3890, 3968.000
207.6120, 3888.000
208.8350, 3928.000
210.0580, 3841.000
211.2810, 3838.000
212.5040, 3709.000
213.7260, 3670.000
214.9480, 3674.000
216.1700, 3546.000
217.3920, 3512.000
218.6140, 3435.000
219.8360, 3477.000
221.0570, 3386.000
222.2790, 3289.000
223.5000, 3324.000
224.7210, 3243.000
225.9410, 3211.000
227.1620, 3294.000
228.3820, 3202.000
229.6030, 3147.000
230.8230, 3079.000
232.0430, 3119.000
233.2630, 3034.000
234.4820, 3019.000
235.7020, 3058.000
236.9210, 2977.000
238.1400, 2927.000
239.3590, 2951.000
240.5780, 2929.000
241.7970, 2944.000
243.0150, 2866.000
244.2340, 2916.000
245.4520, 2879.000
246.6700, 2874.000
247.8880, 2867.000
249.1060, 2858.000
250.3230, 2851.000
251.5400, 2824.000
252.7580, 2807.000
253.9750, 2799.000
255.1920, 2827.000
256.4080, 2814.306
257.6250, 2767.000
258.8410, 2811.000
260.0580, 2799.000
261.2740, 2776.000
262.4900, 2696.000
263.7050, 2733.000
264.9210, 2686.000
266.1360, 2740.000
267.3520, 2632.000
268.5670, 2609.000
269.7820, 2652.000
270.9960, 2641.000
272.2110, 2646.662
273.4250, 2681.000
274.6400, 2673.000
275.8540, 2677.000
277.0680, 2734.000
278.2810, 2652.000
279.4950, 2665.000
280.7090, 2635.000
281.9220, 2698.000
283.1350, 2678.000
284.3480, 2758.000
285.5610, 2741.000
286.7730, 2823.000
287.9860, 2838.000
289.1980, 2922.000
290.4100, 2896.000
291.6220, 2973.000
292.8340, 3106.000
294.0460, 3215.000
295.2570, 3344.000
296.4690, 3399.000
297.6800, 3629.000
298.8910, 3684.000
300.1020, 3850.000
301.3120, 3996.000
302.5230, 4156.000
303.7330, 4239.000
304.9440, 4445.000
306.1540, 4477.000
307.3630, 4441.000
308.5730, 4551.000
309.7830, 4539.000
310.9920, 4596.000
312.2010, 4577.000
313.4100, 4573.000
314.6190, 4493.000
315.8280, 4516.000
317.0370, 4412.000
318.2450, 4413.000
319.4530, 4310.000
320.6610, 4252.000
321.8690, 4239.000
323.0770, 4286.000
324.2850, 4295.000
325.4920, 4341.169
326.6990, 4399.615
327.9060, 4470.000
329.1130, 4539.000
330.3200, 4658.000
331.5270, 4748.889
332.7330, 4823.000
333.9390, 4913.000
335.1450, 4943.000
336.3510, 5010.000
337.5570, 5001.000
338.7630, 4973.000
339.9680, 4960.000
341.1740, 4816.000
342.3790, 4824.000
343.5840, 4722.000
344.7890, 4587.000
345.9930, 4597.000
347.1980, 4351.000
348.4020, 4231.000
349.6060, 4059.000
350.8100, 3972.000
352.0140, 3901.000
353.2180, 3814.000
354.4210, 3813.000
355.6250, 3785.835
356.8280, 3835.000
358.0310, 3819.000
359.2340, 3932.000
360.4360, 3999.000
361.6390, 4142.000
362.8410, 4340.000
364.0430, 4460.000
365.2450, 4635.000
366.4470, 4832.000
367.6490, 4750.000
368.8510, 4928.000
370.0520, 4910.000
371.2530, 4949.000
372.4540, 4849.000
373.6550, 4691.000
374.8560, 4556.000
376.0560, 4294.000
377.2570, 4063.000
378.4570, 3947.000
379.6570, 3742.000
380.8570, 3571.000
382.0570, 3520.000
383.2560, 3396.000
384.4560, 3346.000
385.6550, 3263.000
386.8540, 3226.000
388.0530, 3225.000
389.2520, 3198.000
390.4510, 3192.000
391.6490, 3189.000
392.8470, 3209.000
394.0450, 3154.000
395.2430, 3215.000
396.4410, 3174.000
397.6390, 3226.000
398.8360, 3250.000
400.0340, 3346.000
401.2310, 3386.000
402.4280, 3342.000
403.6250, 3412.000
404.8210, 3513.000
406.0180, 3492.000
407.2140, 3683.000
408.4100, 3689.000
409.6060, 3748.000
410.8020, 3753.000
411.9980, 3895.000
413.1930, 3939.000
414.3890, 4082.000
415.5840, 4099.000
416.7790, 4167.000
417.9740, 4194.000
419.1680, 4243.000
420.3630, 4320.000
421.5570, 4355.000
422.7510, 4278.000
423.9450, 4248.000
425.1390, 4114.000
426.3330, 4021.000
427.5270, 3871.000
428.7200, 3757.000
429.9130, 3495.000
431.1060, 3357.000
432.2990, 3280.000
433.4920, 3184.000
434.6840, 3112.000
435.8770, 3025.000
437.0690, 2919.000
438.2610, 2956.000
439.4530, 2857.000
440.6450, 2753.000
441.8360, 2749.000
443.0280, 2797.000
444.2190, 2692.000
445.4100, 2692.000
446.6010, 2627.000
447.7920, 2640.000
448.9820, 2593.000
450.1730, 2547.000
451.3630, 2586.000
452.5530, 2523.000
453.7430, 2531.000
454.9330, 2558.000
456.1230, 2532.000
457.3120, 2558.000
458.5010, 2531.000
459.6910, 2456.000
460.8800, 2493.000
462.0680, 2474.000
463.2570, 2454.000
464.4460, 2467.000
465.6340, 2536.000
466.8220, 2497.000
468.0100, 2469.000
469.1980, 2480.000
470.3860, 2424.000
471.5730, 2446.000
472.7600, 2440.000
473.9480, 2420.000
475.1350, 2481.000
476.3210, 2480.000
477.5080, 2480.000
478.6950, 2485.000
479.8810, 2504.000
481.0670, 2442.000
482.2530, 2407.000
483.4390, 2453.000
484.6250, 2476.000
485.8100, 2404.000
486.9960, 2494.000
488.1810, 2432.000
489.3660, 2437.000
490.5510, 2489.000
491.7360, 2449.000
492.9200, 2486.000
494.1050, 2465.000
495.2890, 2498.000
496.4730, 2505.000
497.6570, 2465.000
498.8400, 2462.000
500.0240, 2443.438
501.2070, 2434.000
502.3910, 2414.000
503.5740, 2402.000
504.7570, 2401.059
505.9400, 2417.000
507.1220, 2421.000
508.3050, 2475.000
509.4870, 2443.000
510.6690, 2463.000
511.8510, 2445.000
513.0330, 2485.000
514.2140, 2514.000
515.3960, 2438.000
516.5770, 2517.000
517.7580, 2454.000
518.9390, 2450.000
520.1200, 2452.000
521.3010, 2491.000
522.4810, 2372.000
523.6610, 2489.000
524.8420, 2435.000
526.0220, 2430.000
527.2010, 2478.000
528.3810, 2522.000
529.5610, 2494.000
530.7400, 2440.000
531.9190, 2442.000
533.0980, 2479.000
534.2770, 2480.000
535.4560, 2506.000
536.6340, 2451.000
537.8120, 2438.000
538.9910, 2506.000
540.1690, 2486.000
541.3460, 2537.000
542.5240, 2514.000
543.7020, 2479.000
544.8790, 2413.000
546.0560, 2561.000
547.2330, 2494.000
548.4100, 2528.000
549.5870, 2489.000
550.7630, 2606.000
551.9400, 2543.733
553.1160, 2533.000
554.2920, 2497.000
555.4680, 2491.000
556.6440, 2506.000
557.8190, 2486.000
558.9950, 2545.000
560.1700, 2531.722
561.3450, 2524.965
562.5200, 2548.000
563.6950, 2506.000
564.8690, 2523.000
566.0440, 2542.000
567.2180, 2613.000
568.3920, 2534.000
569.5660, 2493.000
570.7400, 2585.000
571.9130, 2515.000
573.0870, 2624.000
574.2600, 2569.000
575.4330, 2561.000
576.6060, 2544.000
577.7790, 2597.000
578.9520, 2514.000
580.1240, 2578.000
581.2960, 2591.000
582.4690, 2581.000
583.6410, 2570.000
584.8120, 2622.000
585.9840, 2625.000
587.1560, 2589.000
588.3270, 2528.000
589.4980, 2605.000
590.6690, 2609.000
591.8400, 2642.000
593.0110, 2579.000
594.1810, 2632.000
595.3510, 2634.000
596.5220, 2645.000
597.6920, 2676.000
598.8610, 2673.000
600.0310, 2676.611
601.2010, 2669.000
602.3700, 2662.000
603.5390, 2643.000
604.7080, 2628.000
605.8770, 2629.000
607.0460, 2741.000
608.2140, 2726.000
609.3830, 2743.000
610.5510, 2767.000
611.7190, 2752.000
612.8870, 2750.000
614.0550, 2751.000
615.2220, 2628.000
616.3900, 2724.000
617.5570, 2664.000
618.7240, 2766.000
619.8910, 2736.000
621.0580, 2683.000
622.2240, 2692.000
623.3910, 2690.000
624.5570, 2766.000
625.7230, 2709.000
626.8890, 2676.000
628.0550, 2749.000
629.2200, 2700.000
630.3860, 2721.000
631.5510, 2613.000
632.7160, 2732.000
633.8810, 2709.000
635.0460, 2681.000
636.2100, 2736.000
637.3750, 2735.000
638.5390, 2713.000
639.7030, 2644.000
640.8670, 2749.000
642.0310, 2651.000
643.1950, 2672.000
644.3580, 2598.000
645.5210, 2670.000
646.6850, 2680.000
647.8480, 2686.000
649.0100, 2661.000
650.1730, 2703.000
651.3350, 2668.000
652.4980, 2671.000
653.6600, 2681.000
654.8220, 2703.000
655.9840, 2705.825
657.1450, 2700.000
658.3070, 2715.000
659.4680, 2688.000
660.6300, 2672.000
661.7910, 2682.921
662.9510, 2712.000
664.1120, 2691.000
665.2730, 2726.000
666.4330, 2725.000
667.5930, 2779.000
668.7530, 2723.000
669.9130, 2759.000
671.0730, 2763.000
672.2320, 2723.000
673.3920, 2735.000
674.5510, 2753.000
675.7100, 2789.000
676.8690, 2776.000
678.0280, 2783.000
679.1860, 2760.000
680.3450, 2781.000
681.5030, 2841.000
682.6610, 2820.000
683.8190, 2780.000
684.9770, 2865.000
686.1340, 2834.000
687.2920, 2829.000
688.4490, 2848.000
689.6060, 2829.000
690.7630, 2784.000
691.9200, 2850.000
693.0760, 2876.000
694.2330, 2927.000
695.3890, 2867.000
696.5450, 2880.000
697.7010, 2887.000
698.8570, 2888.370
700.0130, 2946.000
701.1680, 2921.000
702.3230, 2944.000
703.4780, 2936.000
704.6330, 2990.000
705.7880, 3046.000
706.9430, 3051.000
708.0970, 3037.000
709.2520, 3042.000
710.4060, 3076.000
711.5600, 3124.000
712.7140, 3130.566
713.8670, 3083.000
715.0210, 3153.000
716.1740, 3166.000
717.3270, 3148.000
718.4800, 3266.000
719.6330, 3211.000
720.7860, 3273.000
721.9380, 3229.000
723.0910, 3205.000
724.2430, 3259.000
725.3950, 3284.000
726.5470, 3390.000
727.6980, 3385.000
728.8500, 3313.000
730.0010, 3415.000
731.1530, 3482.000
732.3040, 3438.000
733.4550, 3573.000
734.6050, 3561.000
735.7560, 3576.000
736.9060, 3635.000
738.0560, 3658.064
739.2060, 3775.000
740.3560, 3757.000
741.5060, 3855.000
742.6560, 3909.000
743.8050, 3974.000
744.9540, 4000.000
746.1030, 4124.000
747.2520, 4302.000
748.4010, 4444.000
749.5500, 4503.000
750.6980, 4790.000
751.8460, 4897.000
752.9950, 5318.000
754.1420, 5617.000
755.2900, 6018.000
756.4380, 6546.000
757.5850, 7126.000
758.7330, 7772.000
759.8800, 8419.000
761.0270, 8937.000
762.1730, 9599.000
763.3200, 9999.000
764.4670, 10447.00
765.6130, 10588.00
766.7590, 10635.00
767.9050, 10550.00
769.0510, 10310.00
770.1960, 10062.00
771.3420, 9701.000
772.4870, 9501.000
773.6320, 9396.000
774.7770, 9427.000
775.9220, 9362.000
777.0670, 9592.000
778.2110, 9825.000
779.3560, 10279.00
780.5000, 10714.00
781.6440, 11355.00
782.7880, 11819.00
783.9320, 12446.00
785.0750, 12893.00
786.2180, 13378.00
787.3620, 13707.00
788.5050, 13893.00
789.6480, 14255.00
790.7900, 14585.00
791.9330, 15049.00
793.0750, 15812.00
794.2170, 16853.00
795.3590, 18557.00
796.5010, 20903.00
797.6430, 24265.00
798.7850, 27865.00
799.9260, 32277.00
801.0670, 36340.00
802.2080, 40530.00
803.3490, 45585.00
804.4900, 49405.00
805.6310, 52280.00
806.7710, 53995.00
807.9110, 53837.00
809.0510, 52012.00
810.1910, 49637.00
811.3310, 46247.00
812.4710, 43019.00
813.6100, 39823.00
814.7490, 36383.00
815.8880, 32657.00
817.0270, 28907.00
818.1660, 25085.00
819.3050, 21272.00
820.4430, 18325.00
821.5820, 15675.00
822.7200, 13475.00
823.8580, 11870.00
824.9950, 10589.00
826.1330, 9689.000
827.2710, 9009.000
828.4080, 8413.000
829.5450, 7898.000
830.6820, 7404.000
831.8190, 7095.000
832.9560, 6870.000
834.0920, 6613.000
835.2280, 6265.000
836.3650, 6125.000
837.5010, 5956.000
838.6360, 5878.000
839.7720, 5716.000
840.9080, 5674.000
842.0430, 5556.947
843.1780, 5403.000
844.3130, 5365.000
845.4480, 5191.000
846.5830, 5084.000
847.7170, 4940.000
848.8520, 4889.000
849.9860, 4757.000
851.1200, 4783.000
852.2540, 4713.000
853.3870, 4615.000
854.5210, 4511.000
855.6540, 4469.000
856.7880, 4438.000
857.9210, 4361.000
859.0540, 4285.000
860.1860, 4232.000
861.3190, 4166.002
862.4510, 4152.000
863.5840, 4079.000
864.7160, 4076.000
865.8480, 4090.000
866.9790, 4052.232
868.1110, 4011.000
869.2420, 4019.000
870.3740, 4019.000
871.5050, 3986.000
872.6360, 3952.000
873.7660, 3918.000
874.8970, 3903.000
876.0280, 3912.000
877.1580, 3865.000
878.2880, 3854.000
879.4180, 3917.000
880.5480, 3871.000
881.6770, 3798.000
882.8070, 3825.000
883.9360, 3744.000
885.0650, 3761.000
886.1940, 3796.000
887.3230, 3731.000
888.4520, 3753.000
889.5800, 3730.000
890.7090, 3660.000
891.8370, 3683.000
892.9650, 3692.000
894.0930, 3640.000
895.2200, 3591.000
896.3480, 3549.000
897.4750, 3518.625
898.6020, 3601.000
899.7290, 3498.000
900.8560, 3472.000
901.9830, 3522.000
903.1090, 3455.000
904.2360, 3460.000
905.3620, 3445.000
906.4880, 3419.000
907.6140, 3393.000
908.7400, 3466.000
909.8650, 3409.000
910.9900, 3474.000
912.1160, 3493.000
913.2410, 3529.000
914.3660, 3523.000
915.4900, 3539.000
916.6150, 3500.000
917.7390, 3671.000
918.8640, 3567.000
919.9880, 3590.000
921.1120, 3633.000
922.2350, 3522.000
923.3590, 3506.000
924.4820, 3540.000
925.6060, 3456.000
926.7290, 3377.000
927.8520, 3317.000
928.9740, 3334.000
930.0970, 3301.000
931.2190, 3285.000
932.3420, 3244.000
933.4640, 3247.297
934.5860, 3243.000
935.7080, 3268.000
936.8290, 3253.000
937.9510, 3297.000
939.0720, 3217.000
940.1930, 3227.000
941.3140, 3234.000
942.4350, 3311.000
943.5560, 3217.000
944.6760, 3290.000
945.7960, 3208.000
946.9170, 3266.000
948.0370, 3255.000
949.1560, 3257.000
950.2760, 3245.000
951.3960, 3256.254
952.5150, 3291.000
953.6340, 3280.000
954.7530, 3290.000
955.8720, 3303.000
956.9910, 3269.000
958.1090, 3217.000
959.2280, 3222.000
960.3460, 3187.000
961.4640, 3215.000
962.5820, 3288.000
963.6990, 3332.000
964.8170, 3258.000
965.9340, 3245.000
967.0510, 3190.000
968.1690, 3213.000
969.2850, 3201.234
970.4020, 3294.000
971.5190, 3218.000
972.6350, 3279.000
973.7510, 3291.000
974.8670, 3262.000
975.9830, 3322.000
977.0990, 3290.000
978.2150, 3265.000
979.3300, 3258.000
980.4450, 3279.000
981.5600, 3286.000
982.6750, 3288.000
983.7900, 3223.000
984.9050, 3326.000
986.0190, 3237.000
987.1340, 3303.000
988.2480, 3244.000
989.3620, 3323.000
990.4750, 3208.000
991.5890, 3260.000
992.7020, 3234.000
993.8160, 3289.000
994.9290, 3230.000
996.0420, 3264.000
997.1550, 3318.000
998.2670, 3293.000
999.3800, 3218.000
1000.492, 3338.000
1001.604, 3243.000
1002.716, 3322.000
1003.828, 3317.000
1004.940, 3314.000
1006.051, 3271.000
1007.163, 3331.000
1008.274, 3321.000
1009.385, 3265.000
1010.496, 3222.000
1011.606, 3226.000
1012.717, 3299.000
1013.827, 3300.000
1014.937, 3309.000
1016.047, 3285.000
1017.157, 3241.000
1018.267, 3268.000
1019.377, 3347.000
1020.486, 3266.000
1021.595, 3256.000
1022.704, 3312.000
1023.813, 3265.000
1024.922, 3288.000
1026.030, 3286.000
1027.139, 3286.000
1028.247, 3339.000
1029.355, 3282.000
1030.463, 3303.000
1031.571, 3240.000
1032.678, 3309.000
1033.786, 3215.000
1034.893, 3300.000
1036.000, 3308.000
1037.107, 3313.000
1038.214, 3264.000
1039.321, 3263.000
1040.427, 3278.000
1041.533, 3276.000
1042.639, 3279.000
1043.745, 3310.000
1044.851, 3287.000
1045.957, 3322.000
1047.062, 3243.000
1048.168, 3270.000
1049.273, 3280.000
1050.378, 3308.000
1051.482, 3316.967
1052.587, 3340.000
1053.692, 3325.000
1054.796, 3298.000
1055.900, 3274.000
1057.004, 3299.000
1058.108, 3249.000
1059.212, 3290.000
1060.315, 3292.000
1061.418, 3300.000
1062.522, 3368.000
1063.625, 3363.000
1064.728, 3338.000
1065.830, 3305.000
1066.933, 3342.000
1068.035, 3337.000
1069.137, 3333.000
1070.239, 3368.000
1071.341, 3343.000
1072.443, 3245.000
1073.545, 3297.000
1074.646, 3321.000
1075.747, 3349.000
1076.848, 3392.000
1077.949, 3339.000
1079.050, 3367.000
1080.150, 3350.000
1081.251, 3360.000
1082.351, 3394.000
1083.451, 3397.075
1084.551, 3396.522
1085.651, 3420.000
1086.750, 3398.000
1087.850, 3369.000
1088.949, 3407.000
1090.048, 3344.000
1091.147, 3349.000
1092.246, 3433.000
1093.345, 3389.000
1094.443, 3388.000
1095.541, 3408.000
1096.639, 3399.000
1097.737, 3431.000
1098.835, 3398.000
1099.933, 3389.000
1101.030, 3357.000
1102.128, 3432.000
1103.225, 3399.000
1104.322, 3358.000
1105.419, 3437.000
1106.515, 3385.000
1107.612, 3439.000
1108.708, 3404.000
1109.804, 3490.000
1110.900, 3431.000
1111.996, 3395.000
1113.092, 3428.000
1114.187, 3392.000
1115.283, 3428.000
1116.378, 3458.000
1117.473, 3457.000
1118.568, 3469.849
1119.662, 3455.000
1120.757, 3461.000
1121.851, 3475.000
1122.946, 3465.000
1124.040, 3464.573
1125.134, 3469.000
1126.227, 3446.000
1127.321, 3447.000
1128.414, 3435.000
1129.508, 3497.000
1130.601, 3454.000
1131.693, 3437.000
1132.786, 3478.000
1133.879, 3450.000
1134.971, 3473.000
1136.064, 3404.000
1137.156, 3532.000
1138.248, 3441.000
1139.339, 3464.000
1140.431, 3463.000
1141.522, 3572.000
1142.614, 3484.000
1143.705, 3396.000
1144.796, 3500.000
1145.887, 3486.000
1146.977, 3515.000
1148.068, 3522.000
1149.158, 3437.000
1150.248, 3545.000
1151.338, 3579.000
1152.428, 3502.000
1153.518, 3503.000
1154.607, 3552.000
1155.696, 3532.000
1156.785, 3588.000
1157.874, 3575.000
1158.963, 3543.000
1160.052, 3557.000
1161.141, 3521.000
1162.229, 3521.000
1163.317, 3504.000
1164.405, 3513.713
1165.493, 3534.000
1166.581, 3542.000
1167.668, 3554.000
1168.756, 3557.000
1169.843, 3526.000
1170.930, 3568.000
1172.017, 3560.000
1173.103, 3546.000
1174.190, 3614.000
1175.276, 3549.000
1176.363, 3631.000
1177.449, 3585.000
1178.535, 3559.000
1179.620, 3591.000
1180.706, 3549.000
1181.791, 3555.000
1182.877, 3578.000
1183.962, 3539.000
1185.047, 3529.000
1186.131, 3593.000
1187.216, 3594.000
1188.300, 3614.000
1189.385, 3542.000
1190.469, 3570.000
1191.553, 3580.000
1192.637, 3608.000
1193.720, 3592.000
1194.804, 3644.000
1195.887, 3647.000
1196.970, 3696.000
1198.053, 3649.000
1199.136, 3601.000
1200.219, 3555.000
1201.301, 3608.000
1202.383, 3592.000
1203.465, 3640.000
1204.547, 3692.000
1205.629, 3646.000
1206.711, 3695.000
1207.792, 3662.000
1208.874, 3600.000
1209.955, 3637.000
1211.036, 3610.000
1212.117, 3683.000
1213.198, 3664.000
1214.278, 3687.000
1215.359, 3662.000
1216.439, 3673.000
1217.519, 3621.000
1218.599, 3668.000
1219.678, 3701.000
1220.758, 3763.000
1221.837, 3649.000
1222.917, 3711.000
1223.996, 3633.000
1225.075, 3696.000
1226.153, 3678.000
1227.232, 3671.000
1228.310, 3714.000
1229.389, 3690.000
1230.467, 3718.000
1231.545, 3697.000
1232.622, 3767.000
