##NAMES=Mimetite
##RRUFFID=R050527
##IDEAL CHEMISTRY=Pb^2+^_5_(As^5+^O_4_)_3_Cl
##LOCALITY=Tsumeb mine, Tsumeb, Otavi District, Oshikoto, Namibia
##OWNER=RRUFF
##SOURCE=University of Arizona Mineral Museum
##DESCRIPTION=Yellow hexagonal prisms, monoclinic polytype
##STATUS=The identification of this mineral has been confirmed by X-ray diffraction and chemical analysis
##URL=rruff.info/R050527
##MEASURED CHEMISTRY=Pb_5.00_(As_1.00_O_4_)_3_Cl_1.00_
##PIN_ID=M00655
##ORIENTATION=Laser parallel to a* (1 0 0). Fiducial mark perpendicular to laser is parallel to c [0 0 1]
43.47600, 359.0000
44.72200, 359.0000
45.96700, 356.0000
47.21200, 362.0000
48.45600, 356.0000
49.70100, 364.0000
50.94500, 367.0000
52.19000, 367.0000
53.43400, 359.0000
54.67800, 347.0000
55.92100, 361.0000
57.16500, 362.0000
58.40800, 353.0000
59.65200, 361.0000
60.89500, 361.0000
62.13700, 351.0000
63.38000, 352.0000
64.62300, 362.0000
65.86500, 362.0000
67.10700, 365.9369
68.34900, 353.0000
69.59100, 371.0000
70.83300, 364.0000
72.07400, 366.0000
73.31600, 381.0000
74.55700, 386.0000
75.79800, 395.0000
77.03900, 410.0000
78.27900, 427.0000
79.52000, 456.0000
80.76000, 486.0000
82.00000, 582.0000
83.24000, 639.0000
84.48000, 770.0000
85.72000, 898.0000
86.95900, 1103.000
88.19900, 1326.000
89.43800, 1502.000
90.67700, 1761.000
91.91600, 1936.000
93.15400, 2173.000
94.39300, 2417.000
95.63100, 2718.000
96.86900, 3144.000
98.10700, 3538.000
99.34500, 4097.000
100.5820, 4507.000
101.8200, 4968.000
103.0570, 5195.000
104.2940, 5232.000
105.5310, 5273.000
106.7680, 5284.000
108.0040, 5169.000
109.2410, 5102.000
110.4770, 5001.013
111.7130, 4807.000
112.9490, 4734.000
114.1850, 4653.000
115.4200, 4480.000
116.6560, 4390.000
117.8910, 4401.000
119.1260, 4277.000
120.3610, 4221.000
121.5960, 4046.000
122.8300, 4027.000
124.0640, 3900.000
125.2990, 3807.000
126.5330, 3731.000
127.7670, 3628.000
129.0000, 3659.000
130.2340, 3606.000
131.4670, 3619.000
132.7000, 3545.000
133.9330, 3534.000
135.1660, 3461.000
136.3990, 3568.000
137.6310, 3522.000
138.8640, 3436.000
140.0960, 3612.000
141.3280, 3602.000
142.5600, 3724.000
143.7910, 3845.000
145.0230, 3950.000
146.2540, 4086.000
147.4850, 4208.000
148.7160, 4330.455
149.9470, 4417.000
151.1780, 4558.000
152.4080, 4733.000
153.6380, 4799.000
154.8690, 5045.000
156.0980, 5095.000
157.3280, 5234.000
158.5580, 5320.000
159.7870, 5406.000
161.0170, 5442.000
162.2460, 5509.000
163.4750, 5615.000
164.7030, 5799.000
165.9320, 5800.000
167.1600, 5832.000
168.3890, 5760.000
169.6170, 5929.000
170.8450, 5748.000
172.0730, 5636.000
173.3000, 5495.000
174.5280, 5178.000
175.7550, 4870.000
176.9820, 4640.000
178.2090, 4339.000
179.4350, 4131.000
180.6620, 3942.000
181.8880, 3729.000
183.1150, 3579.000
184.3410, 3377.000
185.5670, 3205.000
186.7920, 3188.000
188.0180, 3078.000
189.2430, 2856.000
190.4690, 2835.000
191.6940, 2712.000
192.9180, 2647.000
194.1430, 2597.000
195.3680, 2486.000
196.5920, 2447.000
197.8160, 2364.000
199.0400, 2251.000
200.2640, 2254.000
201.4880, 2188.000
202.7110, 2087.000
203.9350, 2016.000
205.1580, 1993.000
206.3810, 1966.000
207.6040, 1923.000
208.8270, 1914.000
210.0490, 1841.000
211.2710, 1810.858
212.4940, 1753.000
213.7160, 1723.000
214.9370, 1709.000
216.1590, 1673.000
217.3810, 1677.000
218.6020, 1638.831
219.8230, 1603.890
221.0440, 1570.000
222.2650, 1529.000
223.4860, 1479.000
224.7060, 1461.000
225.9260, 1419.000
227.1470, 1433.000
228.3670, 1403.000
229.5860, 1388.000
230.8060, 1367.000
232.0260, 1330.000
233.2450, 1342.000
234.4640, 1333.000
235.6830, 1323.000
236.9020, 1279.000
238.1200, 1275.178
239.3390, 1233.000
240.5570, 1257.000
241.7750, 1261.000
242.9930, 1283.000
244.2110, 1287.000
245.4290, 1277.117
246.6460, 1228.000
247.8630, 1244.000
249.0810, 1218.000
250.2980, 1192.000
251.5140, 1233.000
252.7310, 1195.000
253.9470, 1178.000
255.1640, 1149.000
256.3800, 1137.000
257.5960, 1091.000
258.8120, 1118.000
260.0270, 1131.000
261.2430, 1143.000
262.4580, 1097.000
263.6730, 1122.000
264.8880, 1077.000
266.1030, 1108.000
267.3170, 1083.000
268.5320, 1100.000
269.7460, 1072.000
270.9600, 1108.000
272.1740, 1081.000
273.3880, 1103.000
274.6010, 1117.000
275.8150, 1092.000
277.0280, 1136.000
278.2410, 1152.000
279.4540, 1139.000
280.6670, 1122.000
281.8790, 1183.000
283.0920, 1141.000
284.3040, 1219.000
285.5160, 1237.000
286.7280, 1278.000
287.9400, 1317.000
289.1510, 1403.000
290.3630, 1479.000
291.5740, 1591.000
292.7850, 1742.000
293.9960, 1895.000
295.2070, 2039.000
296.4170, 2242.000
297.6280, 2417.000
298.8380, 2653.000
300.0480, 2942.000
301.2580, 3118.000
302.4680, 3453.000
303.6770, 3522.000
304.8870, 3647.000
306.0960, 3638.000
307.3050, 3524.000
308.5140, 3338.000
309.7230, 3235.000
310.9310, 3089.000
312.1400, 2973.000
313.3480, 2942.000
314.5560, 2898.000
315.7640, 2915.000
316.9720, 2851.000
318.1790, 3007.000
319.3870, 3069.000
320.5940, 3168.000
321.8010, 3397.000
323.0080, 3537.000
324.2150, 3825.000
325.4210, 4147.000
326.6280, 4411.000
327.8340, 4741.000
329.0400, 5099.000
330.2460, 5364.000
331.4510, 5582.000
332.6570, 5986.000
333.8620, 6033.000
335.0680, 6148.000
336.2730, 6275.000
337.4780, 6169.000
338.6820, 6219.000
339.8870, 6000.000
341.0910, 5638.000
342.2950, 5482.000
343.5000, 5244.000
344.7030, 4900.000
345.9070, 4634.000
347.1110, 4298.000
348.3140, 3992.000
349.5170, 3724.000
350.7200, 3470.000
351.9230, 3213.000
353.1260, 2978.000
354.3290, 2811.000
355.5310, 2662.000
356.7330, 2451.000
357.9350, 2352.000
359.1370, 2137.000
360.3390, 2053.000
361.5400, 1994.000
362.7420, 1883.000
363.9430, 1799.000
365.1440, 1777.000
366.3450, 1722.000
367.5460, 1701.000
368.7460, 1695.000
369.9470, 1603.000
371.1470, 1559.000
372.3470, 1579.000
373.5470, 1593.000
374.7460, 1602.000
375.9460, 1573.000
377.1450, 1598.000
378.3450, 1654.000
379.5440, 1730.000
380.7430, 1787.600
381.9410, 1868.000
383.1400, 1947.000
384.3380, 2040.000
385.5370, 2139.000
386.7350, 2250.000
387.9320, 2423.000
389.1300, 2456.000
390.3280, 2605.000
391.5250, 2636.000
392.7220, 2653.000
393.9190, 2600.000
395.1160, 2559.000
396.3130, 2609.000
397.5100, 2650.000
398.7060, 2748.000
399.9020, 2862.000
401.0980, 2999.000
402.2940, 3107.000
403.4900, 3421.000
404.6860, 3675.000
405.8810, 3781.000
407.0760, 4044.000
408.2710, 4134.000
409.4660, 4302.000
410.6610, 4154.000
411.8550, 4045.000
413.0500, 3815.000
414.2440, 3507.000
415.4380, 3191.000
416.6320, 2919.000
417.8260, 2663.000
419.0190, 2518.000
420.2130, 2341.000
421.4060, 2251.000
422.5990, 2242.000
423.7920, 2206.000
424.9850, 2135.000
426.1770, 2096.000
427.3700, 2082.000
428.5620, 2019.975
429.7540, 1982.000
430.9460, 1935.000
432.1380, 1901.240
433.3290, 1918.000
434.5210, 1862.000
435.7120, 1838.000
436.9030, 1857.000
438.0940, 1778.000
439.2850, 1756.000
440.4750, 1665.000
441.6660, 1666.000
442.8560, 1646.000
444.0460, 1594.000
445.2360, 1525.000
446.4260, 1545.000
447.6160, 1495.000
448.8050, 1424.000
449.9940, 1389.000
451.1830, 1323.000
452.3720, 1348.000
453.5610, 1289.000
454.7500, 1248.000
455.9380, 1240.000
457.1260, 1155.000
458.3150, 1099.000
459.5020, 1071.000
460.6900, 995.0000
461.8780, 1012.000
463.0650, 947.0000
464.2530, 956.0000
465.4400, 927.0000
466.6270, 878.0000
467.8130, 880.0000
469.0000, 880.0000
470.1870, 851.0000
471.3730, 825.0000
472.5590, 829.0000
473.7450, 815.0000
474.9310, 815.0000
476.1160, 802.4937
477.3020, 800.0000
478.4870, 775.0000
479.6720, 778.0000
480.8570, 763.0000
482.0420, 770.0000
483.2270, 753.0000
484.4110, 727.0000
485.5960, 738.0000
486.7800, 689.0000
487.9640, 695.0000
489.1480, 724.0000
490.3310, 704.0000
491.5150, 707.0000
492.6980, 706.0000
493.8810, 680.0000
495.0640, 695.0000
496.2470, 699.0000
497.4300, 712.0000
498.6120, 699.0000
499.7950, 661.0000
500.9770, 686.0000
502.1590, 665.0000
503.3410, 680.0000
504.5220, 688.0000
505.7040, 658.0000
506.8850, 661.0000
508.0660, 647.0000
509.2470, 657.0000
510.4280, 682.0000
511.6090, 656.0000
512.7890, 654.0000
513.9700, 640.0000
515.1500, 628.0000
516.3300, 619.0000
517.5100, 615.1717
518.6900, 621.0000
519.8690, 624.0000
521.0490, 615.0000
522.2280, 642.0000
523.4070, 640.0000
524.5860, 633.0000
525.7640, 636.0000
526.9430, 625.0000
528.1210, 617.0000
529.3000, 617.0000
530.4780, 628.0000
531.6560, 619.7063
532.8330, 607.0000
534.0110, 616.0000
535.1880, 609.0000
536.3650, 610.0000
537.5430, 586.0000
538.7190, 606.0000
539.8960, 580.0000
541.0730, 630.0000
542.2490, 601.0000
543.4250, 642.0000
544.6020, 614.0000
545.7780, 587.0000
546.9530, 633.0000
548.1290, 599.0000
549.3040, 600.0000
550.4800, 573.0000
551.6550, 599.0000
552.8300, 607.0000
554.0040, 613.0000
555.1790, 622.0000
556.3540, 613.0000
557.5280, 590.0000
558.7020, 605.0000
559.8760, 601.0000
561.0500, 631.0000
562.2230, 593.0000
563.3970, 618.0000
564.5700, 604.0000
565.7430, 599.0000
566.9160, 595.0000
568.0890, 599.0000
569.2620, 598.0000
570.4340, 595.8566
571.6070, 593.0000
572.7790, 590.0000
573.9510, 596.0000
575.1230, 590.2253
576.2940, 596.0000
577.4660, 593.0000
578.6370, 603.0000
579.8080, 603.0000
580.9790, 610.0000
582.1500, 599.0000
583.3210, 588.0000
584.4910, 592.0000
585.6620, 605.0000
586.8320, 591.0000
588.0020, 596.0000
589.1720, 612.0000
590.3410, 599.0000
591.5110, 614.0000
592.6800, 599.0000
593.8500, 605.0000
595.0190, 620.0000
596.1880, 611.0000
597.3560, 627.0000
598.5250, 635.0000
599.6930, 618.0000
600.8620, 655.0000
602.0300, 629.0000
603.1970, 660.0000
604.3650, 650.0000
605.5330, 624.0000
606.7000, 640.0000
607.8680, 652.0000
609.0350, 648.0000
610.2020, 632.0000
611.3680, 662.0000
612.5350, 643.0000
613.7010, 640.0000
614.8680, 652.0000
616.0340, 634.0000
617.2000, 628.0000
618.3660, 627.0000
619.5310, 655.0000
620.6970, 647.0000
621.8620, 658.0000
623.0270, 633.0000
624.1920, 613.0000
625.3570, 629.0000
626.5220, 627.0000
627.6860, 625.0000
628.8500, 626.0000
630.0140, 618.0000
631.1780, 608.0000
632.3420, 615.0000
633.5060, 641.0000
634.6700, 615.0000
635.8330, 620.0000
636.9960, 605.0000
638.1590, 608.0000
639.3220, 615.0000
640.4850, 610.0000
641.6470, 604.0000
642.8100, 587.0000
643.9720, 603.0000
645.1340, 592.2487
646.2960, 605.0000
647.4570, 599.0000
648.6190, 587.0000
649.7800, 610.0000
650.9420, 609.0000
652.1030, 606.0000
653.2640, 587.0000
654.4240, 603.0000
655.5850, 604.0000
656.7450, 635.0000
657.9060, 598.0000
659.0660, 620.0000
660.2260, 619.0000
661.3850, 623.0000
662.5450, 612.0000
663.7040, 590.0000
664.8640, 603.0000
666.0230, 615.0000
667.1820, 605.0000
668.3410, 629.0000
669.4990, 626.0000
670.6580, 635.0000
671.8160, 633.0000
672.9740, 649.0000
674.1320, 634.0000
675.2900, 651.0000
676.4480, 617.0000
677.6050, 625.0000
678.7630, 614.0000
679.9200, 645.0000
681.0770, 640.0000
682.2340, 627.0000
683.3900, 656.0000
684.5470, 657.0000
685.7030, 649.0000
686.8590, 657.0000
688.0150, 666.0000
689.1710, 670.0000
690.3270, 676.0000
691.4830, 683.0000
692.6380, 653.0000
693.7930, 666.0000
694.9480, 668.0000
696.1030, 682.0000
697.2580, 684.9524
698.4130, 684.0000
699.5670, 698.0000
700.7210, 702.0000
701.8750, 720.0000
703.0290, 711.0000
704.1830, 710.0000
705.3370, 742.0000
706.4900, 728.0000
707.6430, 729.0000
708.7970, 735.0000
709.9490, 758.0000
711.1020, 759.0000
712.2550, 780.0000
713.4070, 781.1170
714.5600, 782.0000
715.7120, 783.0000
716.8640, 798.0000
718.0160, 799.0000
719.1670, 822.0000
720.3190, 823.0000
721.4700, 836.0000
722.6210, 835.0000
723.7720, 848.0000
724.9230, 871.0000
726.0740, 873.0000
727.2250, 884.0000
728.3750, 897.8630
729.5250, 908.5449
730.6750, 920.0000
731.8250, 939.0000
732.9750, 948.0000
734.1240, 965.0000
735.2740, 996.0000
736.4230, 1008.635
737.5720, 1047.000
738.7210, 1056.000
739.8700, 1067.000
741.0190, 1106.000
742.1670, 1132.000
743.3150, 1196.000
744.4630, 1234.000
745.6110, 1284.000
746.7590, 1352.000
747.9070, 1409.000
749.0540, 1520.000
750.2020, 1602.000
751.3490, 1720.000
752.4960, 1857.000
753.6430, 2037.000
754.7890, 2226.000
755.9360, 2521.000
757.0820, 2791.000
758.2280, 3104.000
759.3740, 3413.000
760.5200, 3780.000
761.6660, 4092.000
762.8120, 4384.000
763.9570, 4622.000
765.1020, 4756.000
766.2470, 4712.000
767.3920, 4540.000
768.5370, 4193.000
769.6810, 3726.000
770.8260, 3459.000
771.9700, 3175.000
773.1140, 2848.000
774.2580, 2635.000
775.4020, 2527.000
776.5460, 2468.000
777.6890, 2420.000
778.8320, 2332.000
779.9750, 2386.000
781.1180, 2414.000
782.2610, 2459.000
783.4040, 2609.000
784.5460, 2675.000
785.6890, 2750.000
786.8310, 2914.000
787.9730, 3090.000
789.1150, 3229.000
790.2560, 3390.000
791.3980, 3668.000
792.5390, 3993.000
793.6810, 4466.000
794.8220, 5136.000
795.9630, 5956.000
797.1030, 6999.000
798.2440, 8669.000
799.3840, 10878.00
800.5240, 13387.00
801.6650, 16718.00
802.8040, 20902.00
803.9440, 26247.00
805.0840, 31882.00
806.2230, 37854.00
807.3630, 43485.00
808.5020, 48388.00
809.6410, 51980.00
810.7790, 55723.00
811.9180, 58390.00
813.0570, 60555.00
814.1950, 61867.00
815.3330, 61071.00
816.4710, 58414.00
817.6090, 53230.00
818.7470, 46898.00
819.8840, 40007.00
821.0220, 33253.00
822.1590, 27648.00
823.2960, 22872.00
824.4330, 19366.00
825.5690, 16310.00
826.7060, 13988.00
827.8420, 12354.00
828.9790, 10783.00
830.1150, 9628.000
831.2510, 8777.000
832.3860, 7853.000
833.5220, 7244.000
834.6570, 6589.000
835.7930, 6074.000
836.9280, 5672.000
838.0630, 5269.000
839.1980, 5120.000
840.3320, 4710.000
841.4670, 4500.000
842.6010, 4333.000
843.7350, 4089.000
844.8690, 3925.000
846.0030, 3795.000
847.1370, 3588.000
848.2700, 3450.000
849.4040, 3241.000
850.5370, 3156.000
851.6700, 3007.000
852.8030, 2891.000
853.9360, 2766.000
855.0680, 2688.000
856.2000, 2580.000
857.3330, 2480.783
858.4650, 2394.950
859.5970, 2277.000
860.7290, 2220.000
861.8600, 2102.000
862.9920, 2022.000
864.1230, 1965.000
865.2540, 1921.000
866.3850, 1867.000
867.5160, 1764.000
868.6460, 1693.000
869.7770, 1650.000
870.9070, 1655.000
872.0370, 1606.000
873.1670, 1586.000
874.2970, 1520.000
875.4270, 1457.000
876.5570, 1427.000
877.6860, 1384.000
878.8150, 1406.000
879.9440, 1353.000
881.0730, 1340.000
882.2020, 1313.000
883.3300, 1265.000
884.4590, 1275.000
885.5870, 1262.000
886.7150, 1184.000
887.8430, 1224.000
888.9710, 1206.000
890.0990, 1175.000
891.2260, 1137.000
892.3530, 1124.000
893.4810, 1092.000
894.6080, 1074.043
895.7340, 1041.000
896.8610, 1041.000
897.9880, 1015.000
899.1140, 1001.000
900.2400, 986.0000
901.3660, 970.0000
902.4920, 951.0000
903.6180, 931.0000
904.7430, 914.0000
905.8690, 918.0000
906.9940, 879.0000
908.1190, 888.0000
909.2440, 868.0000
910.3690, 885.0000
911.4930, 892.0000
912.6180, 833.0000
913.7420, 851.0000
914.8660, 846.0000
915.9900, 831.0000
917.1140, 847.0000
918.2380, 855.0000
919.3610, 853.0000
920.4850, 851.9875
921.6080, 863.0000
922.7310, 831.0000
923.8540, 810.0000
924.9760, 790.0000
926.0990, 789.0000
927.2210, 767.0000
928.3440, 763.0000
929.4660, 775.0000
930.5880, 735.0000
931.7090, 747.0000
932.8310, 720.0000
933.9520, 700.0000
935.0740, 706.0000
936.1950, 710.0000
937.3160, 711.0000
938.4360, 730.0000
939.5570, 688.0000
940.6780, 709.0000
941.7980, 687.0000
942.9180, 690.0000
944.0380, 700.0000
945.1580, 696.0000
946.2780, 716.0000
947.3970, 722.0000
948.5170, 733.0000
949.6360, 682.0000
950.7550, 716.0000
951.8740, 701.0000
952.9930, 709.0000
954.1110, 725.0000
955.2300, 694.0000
956.3480, 726.0000
957.4660, 728.0000
958.5840, 719.0000
959.7020, 717.0000
960.8190, 716.0000
961.9370, 691.0000
963.0540, 693.0000
964.1710, 678.0000
965.2880, 696.0000
966.4050, 690.0000
967.5220, 671.0000
968.6380, 673.0000
969.7550, 659.0000
970.8710, 653.0000
971.9870, 659.0000
973.1030, 678.0000
974.2190, 647.0000
975.3340, 671.0000
976.4500, 651.0000
977.5650, 655.0000
978.6800, 658.0000
979.7950, 664.0000
980.9100, 665.0000
982.0250, 671.0000
983.1390, 662.0000
984.2530, 661.1857
985.3680, 643.0000
986.4820, 649.0000
987.5950, 636.0000
988.7090, 627.0000
989.8230, 650.0000
990.9360, 660.0000
992.0490, 632.0000
993.1620, 616.0000
994.2750, 638.0000
995.3880, 626.0000
996.5010, 653.0000
997.6130, 641.0000
998.7250, 632.0000
999.8370, 621.0000
1000.949, 646.0000
1002.061, 653.0000
1003.173, 604.0000
1004.284, 640.0000
1005.396, 596.0000
1006.507, 613.0000
1007.618, 612.0000
1008.729, 623.0000
1009.839, 622.0000
1010.950, 626.0000
1012.060, 593.0000
1013.171, 619.0000
1014.281, 603.0000
1015.391, 616.0000
1016.500, 596.0000
1017.610, 592.0000
1018.719, 596.6628
1019.829, 570.0000
1020.938, 600.0000
1022.047, 600.0000
1023.156, 597.0000
1024.264, 608.2180
1025.373, 581.0000
1026.481, 598.0000
1027.589, 594.0000
1028.697, 560.0000
1029.805, 589.0000
1030.913, 570.0000
1032.020, 576.0000
1033.128, 566.0000
1034.235, 577.0000
1035.342, 548.0000
1036.449, 563.0000
1037.556, 581.0000
1038.663, 562.0000
1039.769, 570.0000
1040.875, 553.0000
1041.981, 550.0000
1043.087, 535.0000
1044.193, 552.0000
1045.299, 566.0000
1046.404, 570.0000
1047.510, 542.0000
1048.615, 539.0000
1049.720, 545.0000
1050.825, 550.0000
1051.930, 545.6639
1053.034, 528.0000
1054.139, 541.0000
1055.243, 531.0000
1056.347, 531.0000
1057.451, 532.0000
1058.555, 548.0000
1059.658, 539.0000
1060.762, 532.0000
1061.865, 551.0000
1062.968, 551.0000
1064.071, 533.0000
1065.174, 540.0000
1066.277, 532.0000
1067.380, 524.0000
1068.482, 523.0000
1069.584, 522.0000
1070.686, 535.0000
1071.788, 546.0000
1072.890, 539.0000
1073.992, 517.0000
1075.093, 515.0000
1076.194, 518.0000
1077.295, 513.0000
1078.396, 522.0000
1079.497, 532.0000
1080.598, 549.0000
1081.698, 519.0000
1082.799, 506.0000
1083.899, 528.0000
1084.999, 542.0000
1086.099, 529.0000
1087.199, 519.0000
1088.298, 524.0000
1089.398, 518.0000
1090.497, 532.0000
1091.596, 518.0000
1092.695, 508.0000
1093.794, 522.0000
1094.892, 506.0000
1095.991, 510.0000
1097.089, 534.0000
1098.187, 515.0000
1099.285, 516.0000
1100.383, 507.0000
1101.481, 509.6555
1102.579, 511.0363
1103.676, 524.0000
1104.773, 519.0000
1105.870, 531.0000
1106.967, 537.0000
1108.064, 518.0000
1109.161, 518.0000
1110.257, 522.0000
1111.353, 508.0000
1112.449, 532.0000
1113.545, 522.0000
1114.641, 534.0000
1115.737, 531.0000
1116.832, 531.0000
1117.928, 553.0000
1119.023, 577.0000
1120.118, 548.0000
1121.213, 559.0000
1122.308, 558.0000
1123.402, 592.0000
1124.497, 568.0000
1125.591, 569.0000
1126.685, 565.0000
1127.779, 542.0000
1128.873, 548.4597
1129.967, 526.0000
1131.060, 542.0000
1132.153, 531.0000
1133.247, 517.0000
1134.340, 527.0000
1135.433, 526.0000
1136.525, 519.0000
1137.618, 547.0000
1138.710, 534.0000
1139.802, 516.0000
1140.895, 544.0000
1141.987, 526.0000
1143.078, 547.0000
1144.170, 539.0000
1145.261, 549.0000
1146.353, 541.0000
1147.444, 554.0000
1148.535, 534.0000
1149.626, 547.0000
1150.716, 546.0000
1151.807, 556.0000
1152.897, 558.0000
1153.988, 554.7482
1155.078, 536.0000
1156.168, 543.0000
1157.257, 550.0000
1158.347, 538.0000
1159.436, 556.0000
1160.526, 540.0000
1161.615, 538.0000
1162.704, 550.0000
1163.793, 560.0000
1164.881, 556.0000
1165.970, 554.0000
1167.058, 544.0000
1168.147, 546.0000
1169.235, 553.0000
1170.323, 545.0000
1171.410, 546.0000
1172.498, 529.0000
1173.585, 533.0000
1174.673, 545.0000
1175.760, 524.0000
1176.847, 562.0000
1177.934, 557.0000
1179.020, 558.0000
1180.107, 536.0000
1181.193, 552.0000
1182.279, 557.0000
1183.365, 538.0000
1184.451, 538.0000
1185.537, 547.0000
1186.623, 555.0000
1187.708, 574.0000
1188.793, 548.0000
1189.878, 544.0000
1190.963, 537.0000
1192.048, 548.0000
1193.133, 546.0000
1194.217, 554.0000
1195.302, 561.0000
1196.386, 541.0000
1197.470, 548.0000
1198.554, 548.0000
1199.638, 560.0000
1200.721, 566.0000
1201.805, 564.8403
1202.888, 555.0000
1203.971, 561.0000
1205.054, 556.0000
1206.137, 550.0000
1207.219, 549.0000
1208.302, 561.0000
1209.384, 550.0000
1210.466, 579.0000
1211.548, 554.0000
1212.630, 586.0000
1213.712, 564.0000
1214.794, 591.0000
1215.875, 565.0000
1216.956, 587.0000
1218.037, 572.0000
1219.118, 567.0000
1220.199, 562.0000
1221.280, 547.0000
1222.360, 573.0000
1223.441, 568.0000
1224.521, 578.0000
1225.601, 577.0000
1226.681, 576.2889
1227.760, 584.0000
1228.840, 577.0000
