##NAMES=Mimetite
##RRUFFID=R060920
##IDEAL CHEMISTRY=Pb^2+^_5_(As^5+^O_4_)_3_Cl
##LOCALITY=Tsumeb mine, Tsumeb, Otavi District, Oshikoto, Namibia
##OWNER=RRUFF
##SOURCE=Marcus Origlieri
##DESCRIPTION=Yellow to brownish hexagonal prism, monoclinic polytype
##STATUS=The identification of this mineral has been made only by X-ray diffraction.
##URL=rruff.info/R060920
##PIN_ID=L01429
##ORIENTATION=Laser parallel to a* (1 0 0). Fiducial mark perpendicular to laser is parallel to c [0 0 1]
42.24800, 330.0000
43.49300, 341.0000
44.73800, 338.0000
45.98200, 334.0000
47.22600, 334.0000
48.47100, 326.0000
49.71500, 328.0000
50.95900, 333.0000
52.20200, 328.0507
53.44600, 331.0000
54.68900, 328.0000
55.93300, 329.0000
57.17600, 335.0000
58.41900, 329.0000
59.66100, 334.0000
60.90400, 336.0000
62.14600, 333.0000
63.38900, 328.0000
64.63100, 328.8822
65.87300, 337.0000
67.11500, 332.0000
68.35600, 335.0000
69.59800, 348.0000
70.83900, 337.0000
72.08000, 353.0000
73.32100, 356.0000
74.56200, 343.0000
75.80300, 363.0000
77.04300, 373.0000
78.28300, 400.0000
79.52300, 397.0000
80.76300, 449.0000
82.00300, 474.0000
83.24300, 542.0000
84.48300, 642.0000
85.72200, 702.0000
86.96100, 832.0000
88.20000, 938.0000
89.43900, 1093.000
90.67800, 1214.000
91.91600, 1414.000
93.15500, 1662.000
94.39300, 1953.000
95.63100, 2340.000
96.86900, 2821.000
98.10600, 3163.000
99.34400, 3422.000
100.5810, 3624.928
101.8190, 3737.809
103.0560, 3756.000
104.2930, 3752.000
105.5290, 3625.000
106.7660, 3451.000
108.0020, 3442.000
109.2390, 3319.000
110.4750, 3165.000
111.7110, 3045.000
112.9460, 2958.000
114.1820, 2896.000
115.4170, 2875.000
116.6530, 2852.000
117.8880, 2783.000
119.1230, 2747.000
120.3580, 2677.000
121.5920, 2648.000
122.8270, 2611.556
124.0610, 2556.000
125.2950, 2562.000
126.5290, 2539.000
127.7630, 2530.000
128.9970, 2581.000
130.2300, 2530.000
131.4640, 2608.000
132.6970, 2517.000
133.9300, 2650.000
135.1630, 2642.000
136.3950, 2637.000
137.6280, 2719.000
138.8600, 2768.000
140.0920, 2839.000
141.3240, 2818.000
142.5560, 2847.000
143.7880, 2858.000
145.0190, 2881.000
146.2510, 2869.000
147.4820, 2876.782
148.7130, 2887.000
149.9440, 2845.000
151.1750, 2862.000
152.4050, 2793.000
153.6360, 2707.000
154.8660, 2699.000
156.0960, 2719.000
157.3260, 2681.000
158.5560, 2764.000
159.7850, 2742.000
161.0150, 2771.000
162.2440, 2700.000
163.4730, 2806.000
164.7020, 2755.000
165.9310, 2757.000
167.1590, 2881.000
168.3880, 2877.000
169.6160, 2892.000
170.8440, 2918.000
172.0720, 2862.000
173.3000, 2889.000
174.5280, 2827.000
175.7550, 2844.000
176.9820, 2787.000
178.2100, 2767.000
179.4370, 2721.000
180.6630, 2709.000
181.8900, 2634.000
183.1170, 2629.000
184.3430, 2606.000
185.5690, 2652.000
186.7950, 2606.000
188.0210, 2578.000
189.2470, 2620.000
190.4720, 2531.000
191.6970, 2525.000
192.9230, 2536.000
194.1480, 2455.000
195.3730, 2436.000
196.5970, 2355.000
197.8220, 2283.000
199.0460, 2219.000
200.2700, 2181.000
201.4940, 2081.000
202.7180, 2088.000
203.9420, 2088.000
205.1660, 2004.000
206.3890, 1946.000
207.6120, 1953.000
208.8350, 1903.000
210.0580, 1842.000
211.2810, 1792.000
212.5040, 1741.000
213.7260, 1760.000
214.9480, 1715.000
216.1700, 1683.000
217.3920, 1640.000
218.6140, 1630.000
219.8360, 1597.000
221.0570, 1530.000
222.2790, 1575.000
223.5000, 1495.000
224.7210, 1498.000
225.9410, 1450.000
227.1620, 1486.000
228.3820, 1423.000
229.6030, 1428.000
230.8230, 1363.000
232.0430, 1391.000
233.2630, 1403.000
234.4820, 1366.000
235.7020, 1375.000
236.9210, 1337.000
238.1400, 1294.000
239.3590, 1296.000
240.5780, 1312.000
241.7970, 1249.000
243.0150, 1321.000
244.2340, 1298.000
245.4520, 1276.000
246.6700, 1230.000
247.8880, 1271.000
249.1060, 1239.000
250.3230, 1211.000
251.5400, 1243.000
252.7580, 1207.000
253.9750, 1162.000
255.1920, 1224.000
256.4080, 1187.000
257.6250, 1199.000
258.8410, 1170.000
260.0580, 1173.000
261.2740, 1164.000
262.4900, 1125.000
263.7050, 1124.480
264.9210, 1115.000
266.1360, 1102.000
267.3520, 1112.000
268.5670, 1117.000
269.7820, 1098.000
270.9960, 1107.000
272.2110, 1088.000
273.4250, 1080.000
274.6400, 1099.000
275.8540, 1094.000
277.0680, 1080.000
278.2810, 1087.000
279.4950, 1076.854
280.7090, 1113.000
281.9220, 1080.000
283.1350, 1096.000
284.3480, 1127.000
285.5610, 1116.000
286.7730, 1143.000
287.9860, 1153.000
289.1980, 1194.000
290.4100, 1199.000
291.6220, 1262.000
292.8340, 1265.000
294.0460, 1313.000
295.2570, 1417.000
296.4690, 1498.000
297.6800, 1596.000
298.8910, 1630.000
300.1020, 1810.000
301.3120, 1919.000
302.5230, 1999.000
303.7330, 2046.000
304.9440, 2073.000
306.1540, 2054.000
307.3630, 2062.000
308.5730, 2047.000
309.7830, 2035.000
310.9920, 2031.000
312.2010, 2049.000
313.4100, 1980.000
314.6190, 1975.000
315.8280, 1872.000
317.0370, 1828.000
318.2450, 1770.000
319.4530, 1700.000
320.6610, 1721.000
321.8690, 1681.000
323.0770, 1671.000
324.2850, 1689.000
325.4920, 1678.000
326.6990, 1681.000
327.9060, 1766.000
329.1130, 1778.000
330.3200, 1822.000
331.5270, 1872.000
332.7330, 1916.000
333.9390, 1982.590
335.1450, 2062.000
336.3510, 2105.000
337.5570, 2125.000
338.7630, 2151.000
339.9680, 2174.000
341.1740, 2137.000
342.3790, 2074.000
343.5840, 2051.000
344.7890, 1994.068
345.9930, 1944.000
347.1980, 1903.000
348.4020, 1809.000
349.6060, 1779.000
350.8100, 1691.000
352.0140, 1678.000
353.2180, 1635.000
354.4210, 1592.000
355.6250, 1557.000
356.8280, 1536.000
358.0310, 1547.000
359.2340, 1554.558
360.4360, 1584.242
361.6390, 1632.000
362.8410, 1684.000
364.0430, 1772.052
365.2450, 1862.000
366.4470, 1976.000
367.6490, 2108.000
368.8510, 2245.000
370.0520, 2361.000
371.2530, 2335.000
372.4540, 2273.000
373.6550, 2194.000
374.8560, 2043.000
376.0560, 1893.000
377.2570, 1760.000
378.4570, 1675.000
379.6570, 1593.000
380.8570, 1509.000
382.0570, 1453.000
383.2560, 1404.000
384.4560, 1351.000
385.6550, 1372.000
386.8540, 1380.000
388.0530, 1346.000
389.2520, 1361.000
390.4510, 1272.000
391.6490, 1317.000
392.8470, 1261.000
394.0450, 1269.000
395.2430, 1270.000
396.4410, 1298.000
397.6390, 1248.000
398.8360, 1326.000
400.0340, 1286.000
401.2310, 1342.000
402.4280, 1370.000
403.6250, 1361.000
404.8210, 1408.000
406.0180, 1424.000
407.2140, 1457.000
408.4100, 1492.000
409.6060, 1521.000
410.8020, 1552.000
411.9980, 1608.000
413.1930, 1702.000
414.3890, 1728.000
415.5840, 1746.000
416.7790, 1848.000
417.9740, 1980.000
419.1680, 2055.000
420.3630, 2092.000
421.5570, 2175.000
422.7510, 2163.000
423.9450, 2196.000
425.1390, 2160.000
426.3330, 2024.000
427.5270, 1891.000
428.7200, 1789.000
429.9130, 1686.000
431.1060, 1537.000
432.2990, 1461.000
433.4920, 1411.000
434.6840, 1310.000
435.8770, 1279.000
437.0690, 1235.000
438.2610, 1218.000
439.4530, 1172.000
440.6450, 1125.000
441.8360, 1155.000
443.0280, 1105.000
444.2190, 1093.000
445.4100, 1060.000
446.6010, 1032.000
447.7920, 1040.000
448.9820, 1010.000
450.1730, 999.0000
451.3630, 1016.000
452.5530, 982.0000
453.7430, 982.0000
454.9330, 1013.000
456.1230, 977.0000
457.3120, 955.0000
458.5010, 915.0000
459.6910, 972.0000
460.8800, 967.0000
462.0680, 951.0000
463.2570, 927.0000
464.4460, 917.0000
465.6340, 936.0000
466.8220, 959.0000
468.0100, 965.0000
469.1980, 934.0000
470.3860, 950.0000
471.5730, 935.0000
472.7600, 912.0000
473.9480, 905.0000
475.1350, 943.0000
476.3210, 935.0000
477.5080, 934.0000
478.6950, 903.0000
479.8810, 916.0000
481.0670, 933.0000
482.2530, 891.0000
483.4390, 922.0000
484.6250, 926.0000
485.8100, 922.0000
486.9960, 911.0000
488.1810, 903.0000
489.3660, 903.0000
490.5510, 906.0000
491.7360, 919.0000
492.9200, 923.0000
494.1050, 913.0000
495.2890, 904.0000
496.4730, 942.0000
497.6570, 902.0000
498.8400, 950.0000
500.0240, 910.0000
501.2070, 906.0000
502.3910, 916.0000
503.5740, 891.0000
504.7570, 901.0000
505.9400, 895.0000
507.1220, 878.0000
508.3050, 892.0000
509.4870, 910.0000
510.6690, 920.0000
511.8510, 914.0000
513.0330, 906.0000
514.2140, 913.0000
515.3960, 885.0000
516.5770, 884.0000
517.7580, 906.0000
518.9390, 921.0000
520.1200, 900.0000
521.3010, 884.0000
522.4810, 881.0000
523.6610, 901.0000
524.8420, 884.0000
526.0220, 875.0000
527.2010, 907.0000
528.3810, 905.0000
529.5610, 902.0000
530.7400, 897.0000
531.9190, 872.0000
533.0980, 889.0000
534.2770, 887.0000
535.4560, 901.0000
536.6340, 933.0000
537.8120, 908.0000
538.9910, 885.0000
540.1690, 919.0000
541.3460, 899.0000
542.5240, 914.0000
543.7020, 886.0000
544.8790, 923.0000
546.0560, 883.0000
547.2330, 888.0000
548.4100, 919.0000
549.5870, 920.0000
550.7630, 920.0000
551.9400, 912.0000
553.1160, 926.0000
554.2920, 908.0000
555.4680, 916.0000
556.6440, 898.0000
557.8190, 931.0000
558.9950, 874.0000
560.1700, 899.0000
561.3450, 912.0000
562.5200, 889.0000
563.6950, 926.0000
564.8690, 928.0000
566.0440, 912.0000
567.2180, 931.0000
568.3920, 900.0000
569.5660, 927.0000
570.7400, 900.0000
571.9130, 918.0000
573.0870, 895.0000
574.2600, 947.0000
575.4330, 915.0000
576.6060, 932.0000
577.7790, 908.0000
578.9520, 945.0000
580.1240, 918.0000
581.2960, 914.0000
582.4690, 900.0000
583.6410, 961.0000
584.8120, 890.0000
585.9840, 941.0000
587.1560, 932.0000
588.3270, 915.0000
589.4980, 968.0000
590.6690, 948.0000
591.8400, 928.0000
593.0110, 936.0000
594.1810, 944.0000
595.3510, 954.0000
596.5220, 966.0000
597.6920, 939.0000
598.8610, 978.0000
600.0310, 979.0000
601.2010, 944.0000
602.3700, 962.0000
603.5390, 952.0000
604.7080, 997.0000
605.8770, 975.0000
607.0460, 971.0000
608.2140, 1001.000
609.3830, 965.0000
610.5510, 969.0000
611.7190, 991.0000
612.8870, 962.0000
614.0550, 976.0000
615.2220, 982.0000
616.3900, 994.0000
617.5570, 992.0000
618.7240, 999.0000
619.8910, 1001.000
621.0580, 989.0000
622.2240, 994.0000
623.3910, 943.0000
624.5570, 971.0000
625.7230, 964.0000
626.8890, 950.0000
628.0550, 986.0000
629.2200, 956.0000
630.3860, 972.0000
631.5510, 937.0000
632.7160, 969.0000
633.8810, 998.0000
635.0460, 978.0000
636.2100, 954.0000
637.3750, 938.0000
638.5390, 960.0000
639.7030, 960.0000
640.8670, 964.0000
642.0310, 934.0000
643.1950, 973.0000
644.3580, 966.0000
645.5210, 950.0000
646.6850, 965.0000
647.8480, 933.0000
649.0100, 967.0000
650.1730, 952.0000
651.3350, 977.0000
652.4980, 966.0000
653.6600, 976.0000
654.8220, 976.0000
655.9840, 973.0000
657.1450, 965.0000
658.3070, 980.0000
659.4680, 954.0000
660.6300, 951.0000
661.7910, 974.0000
662.9510, 1008.000
664.1120, 1000.000
665.2730, 992.0000
666.4330, 985.0000
667.5930, 1002.000
668.7530, 983.0000
669.9130, 1007.000
671.0730, 986.0000
672.2320, 985.0000
673.3920, 1024.000
674.5510, 970.0000
675.7100, 982.0000
676.8690, 997.0000
678.0280, 1005.000
679.1860, 1010.000
680.3450, 998.0000
681.5030, 976.0000
682.6610, 1003.000
683.8190, 1001.000
684.9770, 1024.000
686.1340, 1013.000
687.2920, 1062.000
688.4490, 1034.000
689.6060, 1047.000
690.7630, 1026.000
691.9200, 1015.000
693.0760, 1055.000
694.2330, 1032.000
695.3890, 1033.000
696.5450, 1091.000
697.7010, 1098.000
698.8570, 1090.000
700.0130, 1066.000
701.1680, 1086.000
702.3230, 1108.000
703.4780, 1098.000
704.6330, 1117.439
705.7880, 1120.068
706.9430, 1133.000
708.0970, 1128.000
709.2520, 1134.000
710.4060, 1136.000
711.5600, 1161.000
712.7140, 1163.000
713.8670, 1169.000
715.0210, 1151.000
716.1740, 1171.000
717.3270, 1183.000
718.4800, 1179.000
719.6330, 1191.000
720.7860, 1212.000
721.9380, 1241.000
723.0910, 1271.000
724.2430, 1314.000
725.3950, 1247.000
726.5470, 1265.000
727.6980, 1289.000
728.8500, 1305.000
730.0010, 1328.000
731.1530, 1360.000
732.3040, 1379.241
733.4550, 1402.981
734.6050, 1420.000
735.7560, 1444.000
736.9060, 1447.000
738.0560, 1464.000
739.2060, 1503.000
740.3560, 1479.000
741.5060, 1515.000
742.6560, 1594.000
743.8050, 1587.000
744.9540, 1654.000
746.1030, 1722.000
747.2520, 1726.000
748.4010, 1820.000
749.5500, 1890.000
750.6980, 1978.000
751.8460, 2095.000
752.9950, 2233.708
754.1420, 2394.000
755.2900, 2609.000
756.4380, 2841.000
757.5850, 3145.000
758.7330, 3541.000
759.8800, 3913.000
761.0270, 4451.000
762.1730, 4899.000
763.3200, 5414.000
764.4670, 5666.000
765.6130, 5817.000
766.7590, 5807.000
767.9050, 5770.000
769.0510, 5394.000
770.1960, 5053.000
771.3420, 4764.000
772.4870, 4510.000
773.6320, 4299.000
774.7770, 4145.000
775.9220, 4041.000
777.0670, 4138.000
778.2110, 4154.000
779.3560, 4377.000
780.5000, 4659.000
781.6440, 4881.000
782.7880, 5172.000
783.9320, 5609.000
785.0750, 5984.000
786.2180, 6286.000
787.3620, 6598.000
788.5050, 6723.000
789.6480, 6836.000
790.7900, 7058.000
791.9330, 7176.000
793.0750, 7510.000
794.2170, 7958.000
795.3590, 8757.000
796.5010, 9774.000
797.6430, 11419.00
798.7850, 13184.00
799.9260, 15888.00
801.0670, 18881.00
802.2080, 23109.00
803.3490, 27661.00
804.4900, 31695.00
805.6310, 34211.00
806.7710, 34259.00
807.9110, 32530.00
809.0510, 30088.00
810.1910, 27889.00
811.3310, 26418.00
812.4710, 25237.00
813.6100, 23950.00
814.7490, 22749.00
815.8880, 20856.00
817.0270, 18329.00
818.1660, 15544.00
819.3050, 12936.00
820.4430, 10598.00
821.5820, 8792.000
822.7200, 7522.000
823.8580, 6532.000
824.9950, 5759.000
826.1330, 5063.000
827.2710, 4570.000
828.4080, 4202.000
829.5450, 3885.000
830.6820, 3577.000
831.8190, 3387.000
832.9560, 3302.000
834.0920, 3122.000
835.2280, 3030.000
836.3650, 2880.000
837.5010, 2694.000
838.6360, 2668.000
839.7720, 2596.000
840.9080, 2457.000
842.0430, 2454.000
843.1780, 2409.000
844.3130, 2314.000
845.4480, 2303.000
846.5830, 2245.000
847.7170, 2201.000
848.8520, 2116.000
849.9860, 2125.000
851.1200, 2036.000
852.2540, 1949.000
853.3870, 1956.000
854.5210, 1901.000
855.6540, 1885.000
856.7880, 1893.000
857.9210, 1803.000
859.0540, 1781.000
860.1860, 1779.000
861.3190, 1759.000
862.4510, 1745.000
863.5840, 1705.000
864.7160, 1662.000
865.8480, 1680.000
866.9790, 1651.000
868.1110, 1669.000
869.2420, 1580.000
870.3740, 1653.000
871.5050, 1542.000
872.6360, 1563.000
873.7660, 1573.000
874.8970, 1527.000
876.0280, 1569.000
877.1580, 1549.000
878.2880, 1542.000
879.4180, 1548.000
880.5480, 1517.000
881.6770, 1575.000
882.8070, 1519.000
883.9360, 1539.000
885.0650, 1505.000
886.1940, 1445.000
887.3230, 1464.000
888.4520, 1467.000
889.5800, 1425.000
890.7090, 1422.000
891.8370, 1372.000
892.9650, 1436.000
894.0930, 1422.000
895.2200, 1373.000
896.3480, 1338.000
897.4750, 1364.000
898.6020, 1355.000
899.7290, 1323.000
900.8560, 1328.000
901.9830, 1344.000
903.1090, 1343.000
904.2360, 1308.000
905.3620, 1282.000
906.4880, 1278.000
907.6140, 1269.000
908.7400, 1259.000
909.8650, 1273.000
910.9900, 1288.000
912.1160, 1282.000
913.2410, 1306.000
914.3660, 1258.000
915.4900, 1291.000
916.6150, 1271.000
917.7390, 1319.000
918.8640, 1290.000
919.9880, 1303.000
921.1120, 1328.000
922.2350, 1288.000
923.3590, 1265.000
924.4820, 1269.000
925.6060, 1248.000
926.7290, 1220.000
927.8520, 1198.000
928.9740, 1197.000
930.0970, 1207.000
931.2190, 1198.000
932.3420, 1198.000
933.4640, 1186.249
934.5860, 1164.000
935.7080, 1155.000
936.8290, 1162.000
937.9510, 1146.000
939.0720, 1152.000
940.1930, 1153.000
941.3140, 1147.163
942.4350, 1142.000
943.5560, 1153.000
944.6760, 1147.000
945.7960, 1170.000
946.9170, 1163.510
948.0370, 1136.000
949.1560, 1155.000
950.2760, 1143.000
951.3960, 1126.000
952.5150, 1140.000
953.6340, 1139.000
954.7530, 1151.000
955.8720, 1122.000
956.9910, 1175.000
958.1090, 1154.000
959.2280, 1173.000
960.3460, 1124.000
961.4640, 1139.000
962.5820, 1130.000
963.6990, 1137.000
964.8170, 1138.000
965.9340, 1123.000
967.0510, 1123.000
968.1690, 1131.928
969.2850, 1114.000
970.4020, 1153.000
971.5190, 1159.000
972.6350, 1162.000
973.7510, 1167.531
974.8670, 1123.000
975.9830, 1153.000
977.0990, 1134.000
978.2150, 1123.000
979.3300, 1154.000
980.4450, 1147.000
981.5600, 1145.000
982.6750, 1160.000
983.7900, 1165.000
984.9050, 1170.000
986.0190, 1159.000
987.1340, 1105.000
988.2480, 1154.000
989.3620, 1126.000
990.4750, 1121.000
991.5890, 1151.000
992.7020, 1139.000
993.8160, 1128.000
994.9290, 1103.000
996.0420, 1184.000
997.1550, 1167.000
998.2670, 1135.000
999.3800, 1153.000
1000.492, 1086.000
1001.604, 1174.000
1002.716, 1125.000
1003.828, 1148.000
1004.940, 1141.000
1006.051, 1129.000
1007.163, 1127.000
1008.274, 1122.884
1009.385, 1152.000
1010.496, 1125.000
1011.606, 1133.000
1012.717, 1144.000
1013.827, 1126.000
1014.937, 1143.000
1016.047, 1135.000
1017.157, 1127.000
1018.267, 1139.000
1019.377, 1136.000
1020.486, 1167.000
1021.595, 1150.000
1022.704, 1145.000
1023.813, 1159.000
1024.922, 1145.000
1026.030, 1132.000
1027.139, 1129.000
1028.247, 1101.000
1029.355, 1107.234
1030.463, 1102.010
1031.571, 1113.000
1032.678, 1116.000
1033.786, 1125.000
1034.893, 1154.000
1036.000, 1158.000
1037.107, 1153.000
1038.214, 1162.000
1039.321, 1138.000
1040.427, 1131.000
1041.533, 1107.000
1042.639, 1124.000
1043.745, 1150.000
1044.851, 1102.000
1045.957, 1155.000
1047.062, 1160.000
1048.168, 1108.000
1049.273, 1124.000
1050.378, 1151.000
1051.482, 1130.000
1052.587, 1140.000
1053.692, 1128.000
1054.796, 1131.000
1055.900, 1157.000
1057.004, 1167.000
1058.108, 1136.000
1059.212, 1121.000
1060.315, 1175.000
1061.418, 1141.000
1062.522, 1160.000
1063.625, 1147.000
1064.728, 1156.000
1065.830, 1137.000
1066.933, 1125.000
1068.035, 1138.000
1069.137, 1110.000
1070.239, 1168.000
1071.341, 1141.000
1072.443, 1130.000
1073.545, 1171.000
1074.646, 1177.000
1075.747, 1200.000
1076.848, 1164.000
1077.949, 1137.000
1079.050, 1162.000
1080.150, 1155.000
1081.251, 1142.000
1082.351, 1163.000
1083.451, 1131.000
1084.551, 1202.000
1085.651, 1175.000
1086.750, 1182.000
1087.850, 1186.000
1088.949, 1180.000
1090.048, 1163.000
1091.147, 1172.077
1092.246, 1154.000
1093.345, 1174.000
1094.443, 1157.000
1095.541, 1145.000
1096.639, 1170.000
1097.737, 1158.000
1098.835, 1169.000
1099.933, 1137.000
1101.030, 1158.000
1102.128, 1162.000
1103.225, 1185.000
1104.322, 1189.000
1105.419, 1225.000
1106.515, 1176.000
1107.612, 1181.000
1108.708, 1200.000
1109.804, 1196.000
1110.900, 1189.834
1111.996, 1194.000
1113.092, 1168.000
1114.187, 1160.000
1115.283, 1159.280
1116.378, 1195.000
1117.473, 1190.000
1118.568, 1221.000
1119.662, 1243.000
1120.757, 1199.000
1121.851, 1196.000
1122.946, 1211.000
1124.040, 1220.000
1125.134, 1195.000
1126.227, 1156.000
1127.321, 1198.000
1128.414, 1210.000
1129.508, 1172.000
1130.601, 1197.000
1131.693, 1192.000
1132.786, 1210.000
1133.879, 1203.000
1134.971, 1185.000
1136.064, 1194.000
1137.156, 1211.000
1138.248, 1211.000
1139.339, 1235.000
1140.431, 1183.000
1141.522, 1248.000
1142.614, 1237.000
1143.705, 1201.000
1144.796, 1247.000
1145.887, 1202.000
1146.977, 1221.000
1148.068, 1221.000
1149.158, 1270.000
1150.248, 1197.000
1151.338, 1193.000
1152.428, 1233.000
1153.518, 1237.000
1154.607, 1224.000
1155.696, 1232.000
1156.785, 1221.000
1157.874, 1225.909
1158.963, 1226.000
1160.052, 1238.000
1161.141, 1234.000
1162.229, 1246.000
1163.317, 1222.000
1164.405, 1278.000
1165.493, 1224.000
1166.581, 1261.000
1167.668, 1233.000
1168.756, 1218.000
1169.843, 1267.000
1170.930, 1248.000
1172.017, 1223.000
1173.103, 1260.000
1174.190, 1240.000
1175.276, 1226.000
1176.363, 1254.000
1177.449, 1267.000
1178.535, 1257.000
1179.620, 1273.000
1180.706, 1230.000
1181.791, 1268.000
1182.877, 1250.000
1183.962, 1275.000
1185.047, 1243.000
1186.131, 1268.000
1187.216, 1243.000
1188.300, 1243.000
1189.385, 1275.000
1190.469, 1290.000
1191.553, 1304.000
1192.637, 1254.000
1193.720, 1240.000
1194.804, 1273.000
1195.887, 1251.000
1196.970, 1307.000
1198.053, 1265.000
1199.136, 1263.000
1200.219, 1272.000
1201.301, 1281.000
1202.383, 1245.000
1203.465, 1267.000
1204.547, 1275.000
1205.629, 1279.000
1206.711, 1307.000
1207.792, 1282.000
1208.874, 1296.000
1209.955, 1258.000
1211.036, 1269.000
1212.117, 1272.000
1213.198, 1239.000
1214.278, 1271.000
1215.359, 1293.000
1216.439, 1319.000
1217.519, 1297.000
1218.599, 1309.000
1219.678, 1319.000
1220.758, 1302.000
1221.837, 1304.000
1222.917, 1283.000
1223.996, 1340.000
1225.075, 1288.000
1226.153, 1295.000
1227.232, 1337.000
1228.310, 1323.000
1229.389, 1301.000
1230.467, 1328.000
1231.545, 1320.000
1232.622, 1278.000
