##NAMES=Monazite-(Ce)
##RRUFFID=R040106
##IDEAL CHEMISTRY=CePO_4_
##LOCALITY=Angola
##OWNER=RRUFF
##SOURCE=University of Arizona Mineral Museum
##DESCRIPTION=Brown massive fragment
##STATUS=The identification of this mineral has been confirmed by X-ray diffraction and chemical analysis
##URL=rruff.info/R040106
##MEASURED CHEMISTRY=(Ce_0.41_La_0.17_Nd_0.17_Th_0.14_Ca_0.06_Y_0.04_)(P_0.95_Si_0.05_)O_4_
##PIN_ID=M00299
##ORIENTATION=Laser parallel to c* (0 0 1). Fiducial mark perpendicular to laser is parallel to a [1 0 0]
90.446, 0.000
91.844, 21.682
93.242, 3.409
94.639, 169.459
96.037, 275.441
97.434, 453.084
98.831, 680.361
100.227, 832.340
101.624, 887.830
103.020, 881.840
104.416, 938.358
105.812, 977.338
107.207, 913.009
108.603, 860.888
109.998, 827.736
111.393, 794.212
112.787, 797.123
114.182, 811.697
115.576, 813.988
116.970, 813.527
118.363, 796.265
119.757, 666.876
121.150, 673.200
122.543, 558.395
123.936, 600.217
125.328, 567.019
126.720, 647.250
128.112, 530.472
129.504, 531.299
130.896, 497.907
132.287, 511.511
133.678, 540.671
135.069, 471.538
136.460, 440.446
137.850, 487.676
139.240, 563.386
140.630, 491.838
142.020, 551.609
143.410, 552.317
144.799, 470.980
146.188, 540.475
147.577, 474.307
148.965, 441.548
150.354, 388.984
151.742, 401.263
153.130, 410.625
154.517, 286.057
155.905, 303.552
157.292, 178.100
158.679, 209.687
160.066, 147.307
161.452, 163.963
162.839, 91.661
164.225, 117.406
165.611, 61.201
166.996, 18.051
168.381, 2.960
169.767, 36.934
171.152, 23.975
172.536, 12.086
173.921, 26.503
175.305, 7.235
176.689, 19.767
178.073, 4.909
179.456, 26.695
180.839, 7.932
182.222, 39.770
183.605, 34.205
184.988, 43.009
186.370, 74.664
187.752, 91.188
189.134, 68.597
190.516, 113.908
191.898, 104.135
193.279, 161.292
194.660, 39.394
196.041, 64.454
197.421, 44.488
198.801, 61.508
200.182, 38.529
201.561, 31.437
202.941, 37.391
204.321, 16.672
205.700, 27.250
207.079, 107.144
208.457, 14.006
209.836, 108.795
211.214, 147.536
212.592, 193.172
213.970, 238.724
215.348, 269.202
216.725, 344.621
218.102, 398.978
219.479, 392.295
220.856, 439.554
222.232, 533.703
223.608, 504.739
224.984, 591.632
226.360, 504.458
227.736, 623.270
229.111, 527.104
230.486, 611.022
231.861, 587.031
233.236, 595.123
234.610, 660.302
235.984, 638.567
237.358, 610.922
238.732, 647.365
240.105, 729.898
241.479, 647.520
242.852, 741.232
244.224, 820.035
245.597, 809.930
246.969, 985.916
248.342, 990.994
249.713, 1041.166
251.085, 1089.430
252.457, 1213.788
253.828, 1274.239
255.199, 1375.786
256.570, 1510.104
257.940, 1511.288
259.310, 1612.308
260.681, 1593.323
262.050, 1571.208
263.420, 1680.944
264.790, 1595.518
266.159, 1611.922
267.528, 1558.149
268.896, 1640.192
270.265, 1607.044
271.633, 1639.702
273.001, 1575.168
274.369, 1653.441
275.737, 1661.519
277.104, 1577.396
278.471, 1641.068
279.838, 1605.531
281.205, 1660.782
282.572, 1770.812
283.938, 1707.626
285.304, 1687.242
286.670, 1633.669
288.035, 1643.921
289.401, 1614.980
290.766, 1637.847
292.131, 1595.514
293.495, 1576.619
294.860, 1540.716
296.224, 1496.172
297.588, 1450.988
298.952, 1370.647
300.315, 1336.879
301.679, 1296.866
303.042, 1265.774
304.405, 1265.618
305.767, 1247.806
307.130, 1240.799
308.492, 1173.658
309.854, 1063.068
311.216, 1163.801
312.578, 1064.339
313.939, 973.854
315.300, 972.079
316.661, 930.581
318.021, 861.329
319.382, 882.206
320.742, 808.409
322.102, 700.220
323.462, 701.771
324.821, 666.503
326.181, 595.805
327.540, 591.736
328.899, 598.649
330.257, 461.219
331.616, 543.233
332.974, 459.753
334.332, 384.373
335.690, 486.745
337.047, 387.851
338.405, 433.026
339.762, 385.553
341.119, 396.082
342.475, 454.146
343.832, 387.562
345.188, 421.458
346.544, 408.012
347.900, 463.922
349.255, 473.595
350.610, 566.593
351.965, 509.864
353.320, 666.857
354.675, 661.313
356.029, 802.686
357.384, 854.771
358.738, 899.807
360.091, 931.726
361.445, 1031.350
362.798, 1035.960
364.151, 1065.239
365.504, 1202.112
366.857, 1222.688
368.209, 1323.391
369.561, 1465.390
370.913, 1435.058
372.265, 1584.805
373.617, 1640.125
374.968, 1673.562
376.319, 1780.067
377.670, 1886.642
379.021, 1993.288
380.371, 2087.914
381.721, 2153.791
383.071, 2301.649
384.421, 2435.580
385.770, 2604.584
387.120, 2731.851
388.469, 2754.813
389.818, 2974.041
391.166, 3035.345
392.515, 3091.724
393.863, 3243.179
395.211, 3442.708
396.559, 3406.313
397.906, 3454.994
399.254, 3447.750
400.601, 3463.408
401.948, 3518.486
403.294, 3495.467
404.641, 3602.522
405.987, 3612.652
407.333, 3869.856
408.679, 3922.135
410.025, 4164.487
411.370, 4426.993
412.715, 4739.413
414.060, 5001.993
415.405, 5184.648
416.749, 5447.380
418.093, 5470.201
419.437, 5643.079
420.781, 5456.013
422.125, 5059.010
423.468, 4712.069
424.811, 4125.204
426.154, 3848.417
427.497, 3332.715
428.839, 2993.104
430.182, 2588.582
431.524, 2439.139
432.866, 2127.780
434.207, 2000.507
435.549, 1847.313
436.890, 1815.210
438.231, 1864.188
439.572, 1704.266
440.912, 1867.444
442.252, 1953.698
443.593, 1929.060
444.932, 2041.517
446.272, 2203.071
447.611, 2168.718
448.951, 2486.451
450.290, 2691.283
451.628, 2673.196
452.967, 2977.210
454.305, 3186.304
455.644, 3301.480
456.981, 3596.744
458.319, 3822.097
459.657, 4157.525
460.994, 4283.025
462.331, 4548.611
463.668, 4694.273
465.004, 4720.030
466.341, 4845.884
467.677, 4681.830
469.013, 4787.858
470.348, 5083.975
471.684, 4860.173
473.019, 4736.455
474.354, 4092.820
475.689, 3569.267
477.024, 3333.801
478.358, 3120.419
479.692, 3000.117
481.026, 2684.902
482.360, 2471.772
483.694, 2329.733
485.027, 2130.780
486.360, 1950.373
487.693, 1814.653
489.026, 1611.465
490.358, 1529.875
491.691, 1425.381
493.023, 1274.990
494.354, 1172.704
495.686, 1073.514
497.017, 960.422
498.349, 906.429
499.680, 746.529
501.010, 804.727
502.341, 597.018
503.671, 596.404
505.001, 571.893
506.331, 465.473
507.661, 456.138
508.990, 332.904
510.319, 381.771
511.648, 376.747
512.977, 197.835
514.306, 213.028
515.634, 135.336
516.962, 147.756
518.290, 83.302
519.618, 20.060
520.945, 37.326
522.273, 89.505
523.600, 61.401
524.927, 66.604
526.253, 96.543
527.580, 28.421
528.906, 107.223
530.232, 57.965
531.558, 55.644
532.883, 61.748
534.208, 121.209
535.534, 166.738
536.858, 156.337
538.183, 371.004
539.508, 235.739
540.832, 318.543
542.156, 204.414
543.480, 171.352
544.803, 117.358
546.127, 230.431
547.450, 173.570
548.773, 86.776
550.096, 184.048
551.418, 147.386
552.741, 168.789
554.063, 151.257
555.385, 115.791
556.706, 135.389
558.028, 166.052
559.349, 146.778
560.670, 223.568
561.991, 148.422
563.312, 246.339
564.632, 206.319
565.952, 259.362
567.272, 206.466
568.592, 288.634
569.911, 300.862
571.231, 340.152
572.550, 388.575
573.869, 452.987
575.187, 481.682
576.506, 509.149
577.824, 553.500
579.142, 534.402
580.460, 558.812
581.778, 568.683
583.095, 584.024
584.412, 631.104
585.729, 665.411
587.046, 691.941
588.363, 799.354
589.679, 758.472
590.995, 781.779
592.311, 933.699
593.627, 879.468
594.942, 979.406
596.258, 1025.400
597.573, 1148.769
598.888, 1218.169
600.202, 1105.907
601.517, 1310.677
602.831, 1336.637
604.145, 1237.708
605.459, 1480.302
606.772, 1518.479
608.086, 1728.209
609.399, 1851.805
610.712, 2044.530
612.024, 2380.521
613.337, 2539.781
614.649, 2861.908
615.961, 3244.195
617.273, 3542.967
618.585, 3821.271
619.896, 3898.128
621.208, 4052.468
622.519, 3810.833
623.829, 3940.332
625.140, 3694.212
626.450, 3262.188
627.761, 3106.003
629.071, 2816.542
630.380, 2543.319
631.690, 2396.895
632.999, 2158.443
634.308, 2025.679
635.617, 1881.327
636.926, 1829.979
638.235, 1654.112
639.543, 1632.832
640.851, 1575.646
642.159, 1468.433
643.466, 1465.253
644.774, 1479.104
646.081, 1399.989
647.388, 1477.904
648.695, 1384.851
650.002, 1408.829
651.308, 1392.836
652.614, 1219.874
653.920, 1406.941
655.226, 1237.037
656.531, 1274.162
657.837, 1258.315
659.142, 1215.497
660.447, 1297.706
661.752, 1259.941
663.056, 1239.205
664.360, 1324.493
665.664, 1260.809
666.968, 1401.150
668.272, 1275.516
669.575, 1293.907
670.879, 1419.322
672.182, 1302.761
673.484, 1368.224
674.787, 1234.709
676.089, 1390.218
677.392, 1362.591
678.694, 1313.832
679.995, 1388.334
681.297, 1352.929
682.598, 1354.852
683.899, 1323.289
685.200, 1298.563
686.501, 1266.983
687.802, 1251.097
689.102, 1202.258
690.402, 1197.993
691.702, 1203.747
693.002, 1197.520
694.301, 1115.311
695.600, 1099.121
696.899, 1135.948
698.198, 987.793
699.497, 1078.657
700.795, 946.537
702.093, 1017.434
703.391, 896.348
704.689, 808.279
705.987, 858.226
707.284, 740.188
708.581, 704.167
709.878, 650.162
711.175, 670.171
712.472, 621.196
713.768, 568.235
715.064, 487.290
716.360, 437.358
717.656, 415.441
718.951, 260.538
720.247, 308.649
721.542, 217.773
722.837, 285.911
724.131, 143.062
725.426, 224.226
726.720, 64.402
728.014, 9.591
729.308, 46.780
730.601, 22.980
731.895, 39.816
733.188, 16.637
734.481, 28.471
735.774, 54.253
737.067, 40.212
738.359, 88.125
739.651, 116.087
740.943, 136.828
742.235, 139.207
743.526, 135.377
744.818, 91.620
746.109, 111.915
747.400, 103.271
748.691, 80.687
749.981, 119.150
751.271, 63.680
752.562, 158.251
753.851, 140.642
755.141, 36.644
756.431, 161.408
757.720, 112.261
759.009, 113.179
760.298, 85.161
761.587, 58.195
762.875, 104.269
764.163, 27.403
765.451, 102.563
766.739, 14.784
768.027, 19.023
769.314, 34.284
770.601, 36.573
771.888, 35.109
773.175, 56.792
774.462, 8.517
775.748, 59.157
777.034, 35.160
778.320, 55.505
779.606, 6.889
780.892, 35.713
782.177, 14.318
783.462, 59.917
784.747, 47.525
786.032, 62.139
787.317, 71.927
788.601, 32.396
789.885, 64.031
791.169, 72.675
792.453, 38.331
793.736, 172.990
795.019, 59.660
796.303, 129.339
797.585, 70.029
798.868, 226.730
800.151, 174.441
801.433, 76.163
802.715, 294.896
803.997, 204.639
805.279, 224.394
806.560, 290.159
807.841, 247.936
809.122, 246.723
810.403, 358.521
811.684, 338.331
812.964, 420.150
814.245, 328.981
815.525, 470.824
816.804, 421.677
818.084, 510.541
819.363, 543.416
820.643, 515.303
821.922, 553.925
823.201, 578.109
824.479, 567.029
825.758, 591.960
827.036, 636.902
828.314, 608.855
829.592, 713.820
830.869, 712.797
832.147, 738.786
833.424, 750.787
834.701, 755.806
835.977, 824.836
837.254, 888.880
838.530, 849.943
839.807, 913.019
841.082, 836.113
842.358, 1031.221
843.634, 891.345
844.909, 961.479
846.184, 1051.627
847.459, 1053.786
848.734, 1087.957
850.008, 1050.139
851.283, 1103.333
852.557, 1173.540
853.831, 1191.759
855.105, 1235.989
856.378, 1257.232
857.651, 1250.487
858.925, 1240.755
860.197, 1242.035
861.470, 1230.302
862.743, 1371.632
864.015, 1237.949
865.287, 1359.279
866.559, 1428.623
867.831, 1343.979
869.102, 1429.354
870.373, 1359.741
871.645, 1420.144
872.915, 1447.570
874.186, 1392.530
875.457, 1404.467
876.727, 1295.944
877.997, 1312.439
879.267, 1226.951
880.536, 1185.478
881.806, 1316.959
883.075, 1092.536
884.344, 1201.540
885.613, 1077.401
886.882, 1086.490
888.150, 1105.913
889.419, 929.915
890.687, 936.651
891.954, 936.778
893.222, 832.382
894.490, 857.836
895.757, 762.153
897.024, 611.676
898.291, 689.573
899.557, 601.384
900.824, 654.668
902.090, 511.198
903.356, 563.648
904.622, 493.130
905.888, 513.346
907.153, 465.605
908.418, 439.648
909.683, 407.743
910.948, 474.737
912.213, 329.711
913.477, 405.259
914.741, 436.304
916.005, 355.896
917.269, 476.710
918.533, 451.192
919.796, 392.082
921.060, 519.495
922.323, 545.128
923.585, 627.682
924.848, 505.835
926.111, 748.546
927.373, 781.788
928.635, 770.621
929.897, 991.516
931.158, 1114.350
932.420, 1180.881
933.681, 1394.387
934.942, 1565.125
936.203, 1853.214
937.463, 1907.135
938.724, 2213.327
939.984, 2570.628
941.244, 2857.311
942.504, 3264.651
943.764, 3536.058
945.023, 3974.051
946.282, 4498.525
947.541, 5032.973
948.800, 5730.512
950.059, 6298.084
951.317, 7005.689
952.575, 7793.326
953.833, 8740.996
955.091, 9738.696
956.349, 10876.427
957.606, 11734.191
958.864, 13521.989
960.121, 14779.814
961.377, 16437.668
962.634, 18895.559
963.891, 20553.465
965.147, 22741.408
966.403, 25919.377
967.659, 28287.381
968.914, 31625.404
970.170, 34723.461
971.425, 36391.551
972.680, 39989.660
973.935, 40027.805
975.190, 40185.973
976.444, 38384.164
977.698, 35482.387
978.952, 32910.645
980.206, 29088.920
981.460, 25747.221
982.713, 22435.555
983.967, 19453.914
985.220, 17002.295
986.473, 15090.703
987.725, 12679.137
988.978, 11437.595
990.230, 9936.082
991.482, 8914.593
992.734, 7993.127
993.986, 6961.688
995.237, 6530.272
996.488, 5638.881
997.739, 5173.515
998.990, 4818.169
1000.241, 4141.851
1001.492, 3859.554
1002.742, 3596.282
1003.992, 3379.033
1005.242, 3114.806
1006.492, 2733.603
1007.741, 2704.422
1008.990, 2489.263
1010.239, 2283.126
1011.488, 2354.011
1012.737, 2215.919
1013.986, 1996.849
1015.234, 2139.018
1016.482, 1876.992
1017.730, 2034.067
1018.978, 1846.143
1020.225, 1796.197
1021.473, 1867.608
1022.720, 1674.253
1023.967, 1762.483
1025.213, 1744.893
1026.460, 1704.124
1027.706, 1784.846
1028.953, 1695.942
1030.198, 1655.426
1031.444, 1768.461
1032.690, 1636.833
1033.935, 1804.782
1035.180, 1742.089
1036.425, 1771.114
1037.670, 1877.313
1038.915, 1730.625
1040.159, 1900.767
1041.403, 1920.949
1042.647, 1977.140
1043.891, 2163.447
1045.135, 2119.162
1046.378, 2359.219
1047.621, 2364.800
1048.864, 2410.427
1050.107, 2809.004
1051.350, 2899.490
1052.592, 2976.188
1053.835, 3357.802
1055.077, 3369.341
1056.318, 3719.983
1057.560, 3975.319
1058.802, 4155.877
1060.043, 4372.754
1061.284, 4404.627
1062.525, 4633.820
1063.765, 4865.684
1065.006, 4733.187
1066.246, 4833.187
1067.486, 4857.872
1068.726, 4739.948
1069.966, 4837.833
1071.205, 4491.789
1072.445, 4535.187
1073.684, 4338.231
1074.923, 4058.028
1076.161, 4098.639
1077.400, 3920.672
1078.638, 3578.434
1079.876, 3644.302
1081.114, 3314.743
1082.352, 3233.016
1083.590, 3045.686
1084.827, 2708.690
1086.064, 2665.736
1087.301, 2474.816
1088.538, 2234.529
1089.775, 2232.746
1091.011, 1890.054
1092.247, 1941.591
1093.483, 1788.802
1094.719, 1619.767
1095.955, 1576.559
1097.190, 1391.202
1098.425, 1302.425
1099.660, 1335.699
1100.895, 1134.371
1102.130, 1087.330
1103.364, 1102.611
1104.598, 946.436
1105.833, 1023.148
1107.066, 825.619
1108.300, 911.071
1109.534, 783.917
1110.767, 705.158
1112.000, 717.154
1113.233, 658.167
1114.466, 670.504
1115.698, 615.546
1116.930, 504.282
1118.163, 522.312
1119.394, 460.398
1120.626, 474.232
1121.858, 465.197
1123.089, 365.795
1124.320, 353.625
1125.551, 424.409
1126.782, 272.800
1128.013, 346.787
1129.243, 328.271
1130.473, 188.867
1131.703, 322.396
1132.933, 158.864
1134.163, 232.322
1135.392, 231.019
1136.621, 177.251
1137.850, 208.938
1139.079, 201.333
1140.308, 101.478
1141.536, 162.889
1142.765, 69.089
1143.993, 113.298
1145.221, 131.546
1146.448, 85.598
1147.676, 176.885
1148.903, 144.920
1150.130, 48.900
1151.357, 123.120
1152.584, 76.056
1153.810, 95.968
1155.037, 55.943
1156.263, 30.809
1157.489, 66.768
1158.715, 62.604
1159.940, 53.398
1161.166, 73.486
1162.391, 8.230
1163.616, 61.081
1164.841, 38.988
1166.065, 22.322
1167.290, 62.514
1168.514, 9.112
1169.738, 44.320
1170.962, 47.195
1172.185, 26.682
1173.409, 32.863
1174.632, 2.631
1175.855, 8.997
1177.078, 40.335
1178.301, 39.271
1179.523, 27.028
1180.746, 6.233
1181.968, 70.612
1183.190, 10.467
1184.412, 33.492
1185.633, 33.510
1186.855, 17.414
1188.076, 75.635
1189.297, 73.835
1190.518, 22.882
1191.738, 30.305
1192.959, 33.692
1194.179, 8.144
1195.399, 86.650
1196.619, 20.251
1197.838, 64.715
1199.058, 34.464
1200.277, 31.283
1201.496, 108.101
1202.715, 28.102
1203.934, 69.173
1205.152, 55.338
1206.371, 42.589
1207.589, 40.828
1208.807, 60.241
1210.024, 5.652
1211.242, 78.189
1212.459, 20.859
1213.677, 46.458
1214.894, 35.290
1216.110, 15.188
1217.327, 31.130
1218.543, 5.199
1219.760, 14.338
1220.976, 41.401
1222.192, 21.703
1223.407, 29.916
1224.623, 38.354
1225.838, 43.119
1227.053, 0.723
1228.268, 27.111
1229.483, 65.400
1230.697, 10.848
1231.912, 42.058
1233.126, 41.278
1234.340, 15.273
1235.554, 36.699
1236.767, 33.925
1237.981, 26.986
1239.194, 125.818
1240.407, 17.750
1241.620, 68.593
1242.832, 81.339
1244.045, 43.048
1245.257, 122.749
1246.469, 81.252
1247.681, 59.980
1248.893, 123.358
1250.104, 70.797
1251.315, 80.288
1252.527, 101.619
1253.738, 104.434
1254.948, 191.711
1256.159, 129.753
1257.369, 159.017
1258.579, 156.941
1259.789, 117.952
1260.999, 153.246
1262.209, 211.140
1263.418, 154.082
1264.628, 147.058
1265.837, 182.677
1267.046, 160.411
1268.254, 235.128
1269.463, 177.871
1270.671, 186.513
1271.879, 277.968
1273.087, 154.335
1274.295, 250.798
1275.502, 221.007
1276.710, 234.243
1277.917, 245.772
1279.124, 245.122
1280.331, 184.687
1281.537, 292.633
1282.744, 180.733
1283.950, 246.807
1285.156, 330.600
1286.362, 235.469
1287.568, 282.441
1288.773, 276.071
1289.978, 262.680
1291.184, 305.356
1292.389, 244.833
1293.593, 300.411
1294.798, 313.874
1296.002, 247.192
1297.206, 354.764
1298.410, 317.046
1299.614, 291.290
1300.818, 356.550
1302.021, 284.618
1303.225, 308.737
1304.428, 394.091
1305.631, 238.014
1306.833, 326.240
1308.036, 282.850
1309.238, 263.627
1310.440, 309.511
1311.642, 265.196
1312.844, 318.867
1314.045, 317.217
1315.247, 314.184
1316.448, 327.794
1317.649, 315.940
1318.850, 292.295
1320.051, 394.114
1321.251, 319.481
1322.451, 290.432
1323.651, 351.799
1324.851, 292.806
1326.051, 351.340
1327.251, 305.400
1328.450, 307.681
1329.649, 333.771
1330.848, 365.734
1332.047, 283.860
1333.245, 369.932
1334.444, 322.996
1335.642, 256.947
1336.840, 368.698
1338.038, 310.920
1339.236, 306.628
1340.433, 330.342
1341.630, 227.055
1342.828, 323.019
1344.025, 312.861
1345.221, 246.539
1346.418, 318.283
1347.614, 261.008
1348.810, 275.979
1350.006, 271.869
1351.202, 216.298
1352.398, 237.801
1353.593, 207.204
1354.789, 219.654
1355.984, 247.505
1357.179, 183.022
1358.373, 214.626
1359.568, 204.841
1360.762, 195.229
1361.956, 215.524
1363.150, 219.360
1364.344, 160.533
1365.538, 219.916
1366.731, 202.557
1367.924, 146.643
1369.117, 218.965
1370.310, 136.181
1371.503, 168.842
1372.695, 214.637
1373.888, 125.040
1375.080, 163.984
1376.272, 146.989
1377.464, 76.863
1378.655, 183.979
1379.847, 91.570
1381.038, 115.058
1382.229, 153.179
1383.420, 117.097
1384.610, 119.049
1385.801, 128.344
1386.991, 122.431
1388.181, 109.231
1389.371, 142.417
1390.561, 74.368
1391.750, 144.092
1392.940, 116.730
1394.129, 90.095
1395.318, 114.919
1396.507, 24.218
1397.696, 100.698
1398.884, 144.426
1400.072, 78.271
1401.260, 161.617
1402.448, 112.180
1403.636, 44.798
1404.824, 113.233
1406.011, 88.305
1407.198, 66.807
1408.385, 146.296
1409.572, 97.726
1410.758, 87.931
1411.945, 68.084
1413.131, 78.467
1414.317, 109.653
1415.503, 116.680
1416.689, 79.375
1417.874, 153.209
1419.060, 104.806
1420.245, 126.362
1421.430, 147.123
1422.615, 48.809
1423.799, 132.314
1424.984, 64.734
1426.168, 56.146
1427.352, 108.619
1428.536, 76.059
1429.720, 36.373
1430.903, 113.812
1432.087, 94.022
1433.270, 63.431
1434.453, 96.570
1435.635, 58.048
1436.818, 71.468
1438.001, 95.073
1439.183, 18.606
1440.365, 73.205
1441.547, 68.964
1442.728, 51.607
1443.910, 108.461
1445.091, 59.477
1446.272, 2.293
1447.453, 101.132
1448.634, 3.982
1449.815, 81.119
1450.995, 83.854
1452.176, 19.111
1453.356, 58.763
1454.535, 59.538
1455.715, 43.079
1456.895, 111.786
1458.074, 8.532
1459.253, 70.002
1460.432, 53.353
1461.611, 54.711
1462.790, 69.370
1463.968, 69.824
1465.146, 67.490
1466.324, 67.703
1467.502, 27.956
1468.680, 47.875
1469.858, 111.661
1471.035, 63.169
1472.212, 87.503
1473.389, 94.146
1474.566, 79.205
1475.742, 61.473
1476.919, 99.633
1478.095, 2.231
1479.271, 76.975
1480.447, 95.350
1481.623, 35.319
1482.798, 65.276
1483.974, 8.638
1485.149, 4.030
1486.324, 101.051
1487.499, 47.488
1488.674, 27.160
1489.848, 68.646
1491.022, 4.538
1492.196, 73.042
1493.370, 25.319
1494.544, 6.334
1495.718, 128.232
1496.891, 27.169
1498.064, 3.461
1499.237, 87.155
1500.410, 56.776
1501.583, 81.424
1502.755, 71.895
1503.928, 49.215
1505.100, 54.829
1506.272, 78.718
1507.443, 13.877
1508.615, 80.311
1509.786, 69.473
1510.958, 33.480
