##NAMES=Montebrasite
##RRUFFID=R060890
##IDEAL CHEMISTRY=LiAlPO_4_(OH)
##LOCALITY=Mount Marie, Paris, Maine, USA
##OWNER=RRUFF
##SOURCE=Bob Jenkins
##DESCRIPTION=Colorless massive
##STATUS=The identification of this mineral is confirmed by single-crystal X-ray diffraction and chemical analysis.
##URL=rruff.info/R060890
##MEASURED CHEMISTRY=Li_1.00_Al_1.00_(P_1.00_O_4_)(OH)_0.63_F_0.37_)_Î£=1_ ; Li not measured but estimated by stoichiometry
##PIN_ID=M00747
##ORIENTATION=Laser parallel to (0 1 1). Fiducial mark perpendicular to laser is parallel to a [1 0 0]
90.67800, 18768.00
91.91600, 19012.00
93.15500, 18981.00
94.39300, 19049.00
95.63100, 18718.00
96.86900, 18595.00
98.10600, 18712.00
99.34400, 18626.00
100.5810, 18467.00
101.8190, 18238.00
103.0560, 18218.00
104.2930, 18306.00
105.5290, 18506.00
106.7660, 18590.00
108.0020, 18801.00
109.2390, 18731.00
110.4750, 18873.00
111.7110, 18837.52
112.9460, 18834.57
114.1820, 18696.00
115.4170, 18809.00
116.6530, 18647.00
117.8880, 18637.00
119.1230, 18516.00
120.3580, 18547.00
121.5920, 18628.00
122.8270, 19009.00
124.0610, 19292.00
125.2950, 18747.00
126.5290, 18713.00
127.7630, 19213.00
128.9970, 19282.00
130.2300, 19505.00
131.4640, 19481.00
132.6970, 19284.00
133.9300, 19307.00
135.1630, 19109.00
136.3950, 18809.00
137.6280, 18809.00
138.8600, 18791.00
140.0920, 19054.00
141.3240, 18730.00
142.5560, 18617.00
143.7880, 18504.00
145.0190, 18279.00
146.2510, 18377.00
147.4820, 18679.00
148.7130, 18706.00
149.9440, 18663.00
151.1750, 18997.00
152.4050, 19166.00
153.6360, 19462.00
154.8660, 19874.00
156.0960, 20403.00
157.3260, 20715.00
158.5560, 21073.00
159.7850, 21228.00
161.0150, 21728.00
162.2440, 21986.00
163.4730, 22406.00
164.7020, 22432.00
165.9310, 22561.82
167.1590, 22603.93
168.3880, 22437.00
169.6160, 22442.00
170.8440, 22107.00
172.0720, 21864.00
173.3000, 21682.00
174.5280, 21179.00
175.7550, 20902.00
176.9820, 20787.00
178.2100, 20334.00
179.4370, 20043.00
180.6630, 20047.00
181.8900, 20070.00
183.1170, 19761.00
184.3430, 19655.00
185.5690, 19545.00
186.7950, 19351.00
188.0210, 19248.00
189.2470, 19141.00
190.4720, 19096.00
191.6970, 19115.00
192.9230, 18865.00
194.1480, 18793.00
195.3730, 18703.60
196.5970, 18371.00
197.8220, 18475.00
199.0460, 18158.00
200.2700, 17933.00
201.4940, 17726.00
202.7180, 17296.00
203.9420, 16986.00
205.1660, 16986.00
206.3890, 16783.00
207.6120, 16661.00
208.8350, 16596.00
210.0580, 16561.00
211.2810, 16564.00
212.5040, 16498.00
213.7260, 16502.00
214.9480, 16569.00
216.1700, 16440.00
217.3920, 16365.00
218.6140, 16425.00
219.8360, 16312.00
221.0570, 16230.00
222.2790, 16358.00
223.5000, 16234.00
224.7210, 16158.00
225.9410, 16054.00
227.1620, 16103.00
228.3820, 16165.00
229.6030, 16057.73
230.8230, 15943.00
232.0430, 15938.00
233.2630, 15822.00
234.4820, 15807.00
235.7020, 15841.00
236.9210, 15876.00
238.1400, 15923.00
239.3590, 15869.09
240.5780, 15818.50
241.7970, 15836.00
243.0150, 15607.00
244.2340, 15764.00
245.4520, 15639.00
246.6700, 15816.00
247.8880, 15702.00
249.1060, 15585.00
250.3230, 15802.00
251.5400, 15820.00
252.7580, 15967.00
253.9750, 15957.00
255.1920, 16168.00
256.4080, 16272.00
257.6250, 16339.00
258.8410, 16712.00
260.0580, 16893.00
261.2740, 17032.00
262.4900, 17270.00
263.7050, 17754.00
264.9210, 18054.00
266.1360, 18372.00
267.3520, 18808.00
268.5670, 18986.00
269.7820, 19527.00
270.9960, 19557.07
272.2110, 19519.00
273.4250, 19642.00
274.6400, 19338.00
275.8540, 19276.00
277.0680, 19077.00
278.2810, 19032.00
279.4950, 18808.00
280.7090, 18673.00
281.9220, 18727.00
283.1350, 18809.00
284.3480, 18918.00
285.5610, 19281.00
286.7730, 19804.00
287.9860, 20618.00
289.1980, 21741.00
290.4100, 23192.00
291.6220, 24454.00
292.8340, 26529.00
294.0460, 28475.00
295.2570, 29848.00
296.4690, 31582.00
297.6800, 33408.00
298.8910, 35243.00
300.1020, 36628.00
301.3120, 37104.00
302.5230, 36649.00
303.7330, 35656.00
304.9440, 33394.00
306.1540, 31076.00
307.3630, 29014.00
308.5730, 27101.00
309.7830, 25717.00
310.9920, 24284.00
312.2010, 23463.00
313.4100, 22740.00
314.6190, 21974.00
315.8280, 21148.00
317.0370, 20367.00
318.2450, 19657.00
319.4530, 19147.00
320.6610, 18494.00
321.8690, 17842.00
323.0770, 17415.00
324.2850, 17173.00
325.4920, 16947.00
326.6990, 16658.00
327.9060, 16436.00
329.1130, 16239.00
330.3200, 15996.00
331.5270, 16000.00
332.7330, 16016.00
333.9390, 15948.00
335.1450, 15680.00
336.3510, 15738.00
337.5570, 15619.00
338.7630, 15571.00
339.9680, 15690.00
341.1740, 15943.00
342.3790, 15648.51
343.5840, 15951.00
344.7890, 15312.00
345.9930, 15323.00
347.1980, 15490.00
348.4020, 15470.00
349.6060, 15175.00
350.8100, 15423.00
352.0140, 15190.00
353.2180, 15339.00
354.4210, 15368.00
355.6250, 15315.00
356.8280, 15441.00
358.0310, 15452.00
359.2340, 15478.00
360.4360, 15461.00
361.6390, 15422.00
362.8410, 15571.00
364.0430, 15716.00
365.2450, 15534.00
366.4470, 15753.00
367.6490, 15620.00
368.8510, 15843.00
370.0520, 15698.00
371.2530, 15807.00
372.4540, 15729.00
373.6550, 15785.00
374.8560, 15602.00
376.0560, 15530.00
377.2570, 15670.00
378.4570, 15600.00
379.6570, 15596.00
380.8570, 15537.00
382.0570, 15523.00
383.2560, 15461.34
384.4560, 15443.80
385.6550, 15367.00
386.8540, 15380.00
388.0530, 15410.00
389.2520, 15334.00
390.4510, 15303.00
391.6490, 15253.00
392.8470, 15440.00
394.0450, 15427.00
395.2430, 15342.00
396.4410, 15467.00
397.6390, 15358.00
398.8360, 15425.00
400.0340, 15313.00
401.2310, 15430.00
402.4280, 15459.00
403.6250, 15338.00
404.8210, 15369.00
406.0180, 15378.00
407.2140, 15572.00
408.4100, 15494.00
409.6060, 15648.00
410.8020, 15807.00
411.9980, 15930.00
413.1930, 16220.00
414.3890, 16575.00
415.5840, 17157.00
416.7790, 17761.00
417.9740, 18535.00
419.1680, 19200.00
420.3630, 19946.00
421.5570, 20479.00
422.7510, 21342.00
423.9450, 22061.00
425.1390, 22684.00
426.3330, 22430.00
427.5270, 21738.00
428.7200, 20864.00
429.9130, 19535.00
431.1060, 18383.00
432.2990, 17579.00
433.4920, 17171.00
434.6840, 16682.00
435.8770, 16373.00
437.0690, 16204.00
438.2610, 16098.00
439.4530, 15943.00
440.6450, 15873.00
441.8360, 15875.00
443.0280, 15876.00
444.2190, 15738.00
445.4100, 15818.00
446.6010, 15797.00
447.7920, 15808.00
448.9820, 15892.00
450.1730, 15887.00
451.3630, 15858.00
452.5530, 15977.00
453.7430, 15937.00
454.9330, 15920.00
456.1230, 16038.00
457.3120, 16029.00
458.5010, 16113.00
459.6910, 16239.00
460.8800, 16402.00
462.0680, 16495.00
463.2570, 16590.00
464.4460, 16801.00
465.6340, 16865.00
466.8220, 17217.00
468.0100, 17312.00
469.1980, 17578.00
470.3860, 17886.00
471.5730, 18302.00
472.7600, 18755.00
473.9480, 19154.00
475.1350, 19505.15
476.3210, 19880.97
477.5080, 20127.00
478.6950, 20463.00
479.8810, 20690.00
481.0670, 20774.00
482.2530, 21177.00
483.4390, 21063.00
484.6250, 20911.00
485.8100, 21064.00
486.9960, 20899.00
488.1810, 20729.00
489.3660, 20767.00
490.5510, 20615.00
491.7360, 20235.00
492.9200, 20088.00
494.1050, 19711.00
495.2890, 19675.00
496.4730, 19295.00
497.6570, 18940.00
498.8400, 18824.00
500.0240, 18655.00
501.2070, 18180.00
502.3910, 17938.00
503.5740, 17838.00
504.7570, 17707.00
505.9400, 17350.00
507.1220, 17207.00
508.3050, 17010.00
509.4870, 16950.00
510.6690, 16732.42
511.8510, 16605.30
513.0330, 16439.00
514.2140, 16265.00
515.3960, 16294.00
516.5770, 16045.00
517.7580, 16131.00
518.9390, 15902.00
520.1200, 16169.00
521.3010, 16054.00
522.4810, 15977.00
523.6610, 15932.00
524.8420, 15852.00
526.0220, 15803.00
527.2010, 15847.00
528.3810, 15773.15
529.5610, 15805.00
530.7400, 15725.00
531.9190, 15777.00
533.0980, 15795.00
534.2770, 15570.00
535.4560, 15785.00
536.6340, 15738.00
537.8120, 15745.00
538.9910, 15874.00
540.1690, 15720.00
541.3460, 15753.00
542.5240, 15808.00
543.7020, 15965.00
544.8790, 15816.00
546.0560, 15892.00
547.2330, 15947.00
548.4100, 15967.00
549.5870, 16036.00
550.7630, 15887.00
551.9400, 16054.00
553.1160, 15949.00
554.2920, 16044.00
555.4680, 15953.00
556.6440, 16058.00
557.8190, 16026.00
558.9950, 15884.00
560.1700, 16113.00
561.3450, 16153.00
562.5200, 16226.00
563.6950, 16171.00
564.8690, 16278.00
566.0440, 16189.00
567.2180, 16095.00
568.3920, 16223.00
569.5660, 16250.00
570.7400, 16185.00
571.9130, 16188.00
573.0870, 16323.00
574.2600, 16282.00
575.4330, 16255.00
576.6060, 16381.00
577.7790, 16346.00
578.9520, 16371.00
580.1240, 16661.00
581.2960, 16525.00
582.4690, 16715.00
583.6410, 16653.00
584.8120, 16901.00
585.9840, 16829.00
587.1560, 16950.00
588.3270, 17204.00
589.4980, 17180.00
590.6690, 17401.00
591.8400, 17707.00
593.0110, 18073.00
594.1810, 18344.00
595.3510, 18844.00
596.5220, 19231.00
597.6920, 19720.00
598.8610, 20146.00
600.0310, 20549.00
601.2010, 20997.00
602.3700, 21195.00
603.5390, 20900.00
604.7080, 20475.00
605.8770, 20041.00
607.0460, 19468.00
608.2140, 19238.00
609.3830, 18707.00
610.5510, 18560.00
611.7190, 18535.00
612.8870, 18394.00
614.0550, 18363.00
615.2220, 18406.00
616.3900, 18629.00
617.5570, 18734.00
618.7240, 18890.00
619.8910, 19353.00
621.0580, 19418.00
622.2240, 19795.00
623.3910, 20461.00
624.5570, 20795.00
625.7230, 21269.00
626.8890, 21876.00
628.0550, 22550.00
629.2200, 23076.00
630.3860, 23543.00
631.5510, 23955.00
632.7160, 24161.00
633.8810, 24401.00
635.0460, 24534.00
636.2100, 24785.00
637.3750, 25329.00
638.5390, 26190.00
639.7030, 27361.00
640.8670, 28682.00
642.0310, 29709.00
643.1950, 31179.00
644.3580, 31833.00
645.5210, 32491.00
646.6850, 32237.00
647.8480, 30789.00
649.0100, 28570.00
650.1730, 26367.00
651.3350, 24550.00
652.4980, 23020.00
653.6600, 21668.00
654.8220, 20672.00
655.9840, 19957.00
657.1450, 19253.94
658.3070, 19048.00
659.4680, 18518.00
660.6300, 18540.00
661.7910, 18534.00
662.9510, 18064.00
664.1120, 18023.00
665.2730, 17942.00
666.4330, 17727.00
667.5930, 17620.00
668.7530, 17807.00
669.9130, 17631.00
671.0730, 17544.00
672.2320, 17655.00
673.3920, 17586.00
674.5510, 17429.00
675.7100, 17507.00
676.8690, 17465.00
678.0280, 17603.00
679.1860, 17422.00
680.3450, 17624.00
681.5030, 17431.00
682.6610, 17282.00
683.8190, 17300.00
684.9770, 17488.00
686.1340, 17347.00
687.2920, 17334.00
688.4490, 17489.00
689.6060, 17256.00
690.7630, 17386.00
691.9200, 17412.00
693.0760, 17456.00
694.2330, 17431.00
695.3890, 17408.00
696.5450, 17678.00
697.7010, 17617.00
698.8570, 17558.00
700.0130, 17440.00
701.1680, 17458.00
702.3230, 17446.55
703.4780, 17565.00
704.6330, 17506.00
705.7880, 17598.00
706.9430, 17620.00
708.0970, 17575.00
709.2520, 17697.00
710.4060, 17649.00
711.5600, 17621.00
712.7140, 17476.00
713.8670, 17771.00
715.0210, 17635.00
716.1740, 17735.00
717.3270, 17877.00
718.4800, 17574.00
719.6330, 17651.00
720.7860, 17752.00
721.9380, 17773.00
723.0910, 17841.00
724.2430, 17850.71
725.3950, 17846.00
726.5470, 17822.00
727.6980, 17840.00
728.8500, 17770.00
730.0010, 17722.00
731.1530, 17764.00
732.3040, 17811.00
733.4550, 17859.00
734.6050, 17966.00
735.7560, 17917.00
736.9060, 17915.00
738.0560, 18179.00
739.2060, 18015.00
740.3560, 18090.00
741.5060, 17952.00
742.6560, 18093.00
743.8050, 18185.00
744.9540, 18080.00
746.1030, 18156.00
747.2520, 18105.00
748.4010, 18310.00
749.5500, 18205.00
750.6980, 18277.00
751.8460, 18309.00
752.9950, 18091.00
754.1420, 18379.00
755.2900, 18479.00
756.4380, 18438.00
757.5850, 18394.00
758.7330, 18482.00
759.8800, 18495.24
761.0270, 18604.00
762.1730, 18584.00
763.3200, 18608.00
764.4670, 18546.00
765.6130, 18565.20
766.7590, 18463.00
767.9050, 18560.00
769.0510, 18560.00
770.1960, 18540.00
771.3420, 18835.00
772.4870, 18769.00
773.6320, 18927.00
774.7770, 18920.00
775.9220, 18944.00
777.0670, 19015.00
778.2110, 19131.00
779.3560, 18979.00
780.5000, 19061.00
781.6440, 19251.00
782.7880, 19442.00
783.9320, 19503.00
785.0750, 19523.00
786.2180, 19648.00
787.3620, 19824.00
788.5050, 19915.00
789.6480, 20178.00
790.7900, 20432.00
791.9330, 20308.00
793.0750, 20653.00
794.2170, 20847.00
795.3590, 20881.00
796.5010, 21357.00
797.6430, 21378.00
798.7850, 21467.00
799.9260, 21828.00
801.0670, 21865.00
802.2080, 21869.00
803.3490, 22119.00
804.4900, 22092.00
805.6310, 22177.00
806.7710, 22284.00
807.9110, 22150.00
809.0510, 22069.00
810.1910, 22177.00
811.3310, 22071.00
812.4710, 21903.00
813.6100, 22086.00
814.7490, 21840.00
815.8880, 21749.00
817.0270, 21708.00
818.1660, 21543.00
819.3050, 21333.00
820.4430, 21341.00
821.5820, 21196.00
822.7200, 21194.00
823.8580, 20989.00
824.9950, 20903.00
826.1330, 20792.00
827.2710, 20847.00
828.4080, 20761.00
829.5450, 20570.00
830.6820, 20410.00
831.8190, 20202.00
832.9560, 20246.00
834.0920, 20129.73
835.2280, 20109.14
836.3650, 20073.00
837.5010, 20075.00
838.6360, 20045.00
839.7720, 19970.00
840.9080, 20237.00
842.0430, 20032.00
843.1780, 19980.00
844.3130, 20307.00
845.4480, 20078.00
846.5830, 20025.00
847.7170, 19972.00
848.8520, 20092.00
849.9860, 20176.00
851.1200, 20066.00
852.2540, 20217.00
853.3870, 20311.00
854.5210, 20026.00
855.6540, 20156.00
856.7880, 20057.00
857.9210, 20104.00
859.0540, 20301.00
860.1860, 20185.00
861.3190, 20386.00
862.4510, 20442.00
863.5840, 20306.00
864.7160, 20350.00
865.8480, 20426.00
866.9790, 20409.98
868.1110, 20458.96
869.2420, 20454.00
870.3740, 20494.00
871.5050, 20403.00
872.6360, 20391.00
873.7660, 20430.00
874.8970, 20367.00
876.0280, 20563.00
877.1580, 20499.00
878.2880, 20667.00
879.4180, 20605.00
880.5480, 20655.00
881.6770, 20490.00
882.8070, 20514.48
883.9360, 20356.00
885.0650, 20536.00
886.1940, 20579.00
887.3230, 20731.00
888.4520, 20874.00
889.5800, 20833.00
890.7090, 20812.00
891.8370, 20936.00
892.9650, 20842.00
894.0930, 20760.00
895.2200, 20906.00
896.3480, 20798.00
897.4750, 20984.00
898.6020, 20863.00
899.7290, 21030.00
900.8560, 20756.00
901.9830, 21107.00
903.1090, 21010.00
904.2360, 21103.00
905.3620, 21064.00
906.4880, 21087.51
907.6140, 21142.00
908.7400, 21150.00
909.8650, 21215.00
910.9900, 21258.00
912.1160, 21340.00
913.2410, 21366.78
914.3660, 21408.00
915.4900, 21408.00
916.6150, 21327.00
917.7390, 21290.00
918.8640, 21556.00
919.9880, 21552.00
921.1120, 21488.00
922.2350, 21609.00
923.3590, 21532.00
924.4820, 21749.00
925.6060, 21680.00
926.7290, 21783.00
927.8520, 21600.00
928.9740, 21666.00
930.0970, 21738.00
931.2190, 21752.00
932.3420, 21685.00
933.4640, 21884.00
934.5860, 21833.00
935.7080, 21959.00
936.8290, 22100.00
937.9510, 21907.00
939.0720, 21962.00
940.1930, 22133.00
941.3140, 22172.00
942.4350, 22225.00
943.5560, 22225.00
944.6760, 22195.00
945.7960, 22361.00
946.9170, 22321.00
948.0370, 22252.00
949.1560, 22474.00
950.2760, 22370.00
951.3960, 22488.00
952.5150, 22622.00
953.6340, 22610.00
954.7530, 22794.00
955.8720, 22864.01
956.9910, 23201.00
958.1090, 23055.00
959.2280, 23243.00
960.3460, 23308.00
961.4640, 23613.00
962.5820, 23471.00
963.6990, 23479.00
964.8170, 23743.00
965.9340, 23699.00
967.0510, 23855.00
968.1690, 23732.00
969.2850, 23857.00
970.4020, 23903.00
971.5190, 23855.00
972.6350, 23636.00
973.7510, 23818.00
974.8670, 23891.42
975.9830, 23978.23
977.0990, 24297.00
978.2150, 24417.00
979.3300, 24617.00
980.4450, 25058.00
981.5600, 25012.00
982.6750, 25226.00
983.7900, 25497.00
984.9050, 25925.00
986.0190, 26203.00
987.1340, 27039.00
988.2480, 27424.00
989.3620, 27606.00
990.4750, 28693.00
991.5890, 29321.00
992.7020, 30261.00
993.8160, 31321.00
994.9290, 32682.00
996.0420, 33921.00
997.1550, 35393.00
998.2670, 36915.00
999.3800, 38714.00
1000.492, 40595.00
1001.604, 42909.00
1002.716, 45057.00
1003.828, 47022.00
1004.940, 49083.00
1006.051, 51360.00
1007.163, 52770.00
1008.274, 54216.00
1009.385, 55137.00
1010.496, 54833.00
1011.606, 54163.00
1012.717, 53244.00
1013.827, 51373.00
1014.937, 49426.00
1016.047, 47118.00
1017.157, 44815.00
1018.267, 42488.00
1019.377, 40174.00
1020.486, 38343.00
1021.595, 36732.00
1022.704, 35392.00
1023.813, 34458.00
1024.922, 33256.00
1026.030, 32577.00
1027.139, 31822.00
1028.247, 31642.00
1029.355, 31212.00
1030.463, 31251.00
1031.571, 31064.00
1032.678, 31167.00
1033.786, 31363.00
1034.893, 31672.00
1036.000, 32208.00
1037.107, 32627.00
1038.214, 33030.85
1039.321, 33374.00
1040.427, 33826.00
1041.533, 34297.00
1042.639, 34605.00
1043.745, 35005.00
1044.851, 35728.00
1045.957, 36368.00
1047.062, 36716.00
1048.168, 37530.00
1049.273, 38151.00
1050.378, 39119.00
1051.482, 40202.00
1052.587, 41392.00
1053.692, 42792.00
1054.796, 44878.00
1055.900, 46534.00
1057.004, 48822.00
1058.108, 50959.00
1059.212, 52408.00
1060.315, 53653.00
1061.418, 54625.00
1062.522, 54263.00
1063.625, 52854.00
1064.728, 50506.00
1065.830, 47045.00
1066.933, 44166.00
1068.035, 41228.00
1069.137, 38419.00
1070.239, 35976.00
1071.341, 33876.00
1072.443, 32528.00
1073.545, 31171.00
1074.646, 30173.00
1075.747, 29403.00
1076.848, 28845.00
1077.949, 28495.00
1079.050, 27678.00
1080.150, 27601.00
1081.251, 27306.00
1082.351, 27286.00
1083.451, 27050.00
1084.551, 26939.00
1085.651, 27124.00
1086.750, 26811.00
1087.850, 26464.00
1088.949, 26611.00
1090.048, 26405.00
1091.147, 26252.00
1092.246, 26427.00
1093.345, 26430.00
1094.443, 26477.00
1095.541, 26402.00
1096.639, 26564.00
1097.737, 26671.00
1098.835, 26583.00
1099.933, 26958.00
1101.030, 26906.00
1102.128, 27096.00
1103.225, 27330.00
1104.322, 27241.00
1105.419, 27736.00
1106.515, 27915.00
1107.612, 27959.00
1108.708, 28267.00
1109.804, 28522.00
1110.900, 28615.00
1111.996, 28742.00
1113.092, 28779.00
1114.187, 28861.00
1115.283, 28956.00
1116.378, 28949.00
1117.473, 29105.00
1118.568, 29156.00
1119.662, 29022.00
1120.757, 28966.00
1121.851, 28825.00
1122.946, 28815.00
1124.040, 28800.00
1125.134, 28445.00
1126.227, 28451.00
1127.321, 28531.00
1128.414, 28350.00
1129.508, 27972.00
1130.601, 28194.00
1131.693, 27892.00
1132.786, 27727.00
1133.879, 27836.00
1134.971, 27702.00
1136.064, 27307.00
1137.156, 27234.00
1138.248, 27321.00
1139.339, 26999.00
1140.431, 27177.00
1141.522, 27100.00
1142.614, 26953.00
1143.705, 26917.00
1144.796, 26881.24
1145.887, 27012.00
1146.977, 26842.00
1148.068, 26955.00
1149.158, 26878.00
1150.248, 26828.00
1151.338, 27035.00
1152.428, 27011.00
1153.518, 26936.00
1154.607, 27015.00
1155.696, 26941.00
1156.785, 27083.00
1157.874, 27043.00
1158.963, 27076.00
1160.052, 27059.78
1161.141, 27000.64
1162.229, 26985.00
1163.317, 26842.00
1164.405, 26837.00
1165.493, 26700.00
1166.581, 26793.00
1167.668, 26618.00
1168.756, 26677.00
1169.843, 26627.00
1170.930, 26861.00
1172.017, 26733.00
1173.103, 26562.00
1174.190, 26823.00
1175.276, 26772.00
1176.363, 27133.00
1177.449, 27172.00
1178.535, 27229.00
1179.620, 27071.00
1180.706, 27143.00
1181.791, 27119.00
1182.877, 27197.00
1183.962, 27404.00
1185.047, 27467.00
1186.131, 27746.00
1187.216, 27734.00
1188.300, 27966.00
1189.385, 27892.00
1190.469, 28028.00
1191.553, 28053.00
1192.637, 28512.00
1193.720, 28103.00
1194.804, 28465.00
1195.887, 28315.00
1196.970, 28448.00
1198.053, 28312.00
1199.136, 28527.00
1200.219, 28530.00
1201.301, 28318.00
1202.383, 28454.00
1203.465, 28336.00
1204.547, 28250.00
1205.629, 28456.00
1206.711, 28607.00
1207.792, 28493.00
1208.874, 28393.00
1209.955, 28069.00
1211.036, 27990.00
1212.117, 28081.00
1213.198, 27923.00
1214.278, 27962.00
1215.359, 27899.96
1216.439, 27934.00
1217.519, 27757.00
1218.599, 27943.00
1219.678, 27843.00
1220.758, 27813.00
1221.837, 27562.00
1222.917, 27616.00
1223.996, 27486.00
1225.075, 27515.00
1226.153, 27486.88
1227.232, 27466.84
1228.310, 27445.00
1229.389, 27496.00
1230.467, 27467.00
1231.545, 27517.00
1232.622, 27703.00
1233.700, 27507.00
1234.777, 27678.00
1235.855, 27412.00
1236.932, 27593.00
1238.009, 27664.00
1239.086, 27663.00
1240.162, 27693.00
1241.239, 27758.00
1242.315, 27644.00
1243.391, 27678.00
1244.467, 27733.00
1245.543, 27798.00
1246.619, 27577.00
1247.694, 27762.00
1248.769, 27673.00
1249.844, 27740.00
1250.919, 27757.00
1251.994, 27741.00
1253.069, 27949.00
1254.144, 27759.00
1255.218, 27851.00
1256.292, 28062.00
1257.366, 27743.00
1258.440, 28168.00
1259.514, 27922.00
1260.587, 28077.00
1261.661, 28165.00
1262.734, 27948.00
1263.807, 27970.00
1264.880, 28100.00
1265.952, 28053.00
1267.025, 27925.00
1268.097, 28113.00
1269.170, 28050.71
1270.242, 27992.00
