##NAMES=Montebrasite
##RRUFFID=R060890
##IDEAL CHEMISTRY=LiAlPO_4_(OH)
##LOCALITY=Mount Marie, Paris, Maine, USA
##OWNER=RRUFF
##SOURCE=Bob Jenkins
##DESCRIPTION=Colorless massive
##STATUS=The identification of this mineral is confirmed by single-crystal X-ray diffraction and chemical analysis.
##URL=rruff.info/R060890
##MEASURED CHEMISTRY=Li_1.00_Al_1.00_(P_1.00_O_4_)(OH)_0.63_F_0.37_)_Î£=1_ ; Li not measured but estimated by stoichiometry
##PIN_ID=M01307
##ORIENTATION=Laser parallel to -c* (0 0 -1). Fiducial mark perpendicular to laser is parallel to a [1 0 0]
90.67800, 13742.00
91.91600, 13894.00
93.15500, 13898.00
94.39300, 14095.00
95.63100, 14028.00
96.86900, 13989.00
98.10600, 14164.00
99.34400, 14108.00
100.5810, 14077.00
101.8190, 14249.00
103.0560, 14193.00
104.2930, 14399.00
105.5290, 14732.00
106.7660, 15061.00
108.0020, 15296.00
109.2390, 15247.00
110.4750, 15219.00
111.7110, 15373.00
112.9460, 15582.00
114.1820, 15841.00
115.4170, 16011.11
116.6530, 16279.00
117.8880, 16427.00
119.1230, 16573.00
120.3580, 16801.56
121.5920, 17014.00
122.8270, 17340.00
124.0610, 17777.00
125.2950, 18134.00
126.5290, 18862.00
127.7630, 19056.00
128.9970, 19729.00
130.2300, 20055.00
131.4640, 20355.00
132.6970, 19963.00
133.9300, 19392.00
135.1630, 18591.00
136.3950, 17736.00
137.6280, 16827.00
138.8600, 16710.00
140.0920, 16245.00
141.3240, 15847.00
142.5560, 15685.00
143.7880, 15371.00
145.0190, 15116.00
146.2510, 15099.00
147.4820, 15237.00
148.7130, 15333.00
149.9440, 15243.00
151.1750, 15284.00
152.4050, 15398.00
153.6360, 15535.00
154.8660, 15599.00
156.0960, 15749.00
157.3260, 15796.89
158.5560, 15822.00
159.7850, 15858.00
161.0150, 15858.49
162.2440, 15787.00
163.4730, 15973.00
164.7020, 15762.00
165.9310, 15946.00
167.1590, 15844.00
168.3880, 15808.00
169.6160, 15580.00
170.8440, 15458.00
172.0720, 15164.00
173.3000, 15067.00
174.5280, 15091.00
175.7550, 15084.00
176.9820, 15077.00
178.2100, 15070.37
179.4370, 14999.00
180.6630, 15010.00
181.8900, 15000.40
183.1170, 14914.00
184.3430, 15034.00
185.5690, 15183.00
186.7950, 15192.00
188.0210, 15117.00
189.2470, 15239.00
190.4720, 15185.00
191.6970, 15391.00
192.9230, 15354.79
194.1480, 15383.00
195.3730, 15388.00
196.5970, 15459.00
197.8220, 15537.00
199.0460, 15272.00
200.2700, 15421.00
201.4940, 15539.00
202.7180, 15080.00
203.9420, 14991.00
205.1660, 14933.00
206.3890, 14782.00
207.6120, 14839.00
208.8350, 14650.00
210.0580, 14802.00
211.2810, 14778.00
212.5040, 14731.00
213.7260, 14682.00
214.9480, 14785.00
216.1700, 14691.00
217.3920, 14697.00
218.6140, 14724.00
219.8360, 14582.00
221.0570, 14558.00
222.2790, 14783.00
223.5000, 14663.00
224.7210, 14683.00
225.9410, 14563.00
227.1620, 14493.00
228.3820, 14778.00
229.6030, 14731.00
230.8230, 14741.00
232.0430, 14553.00
233.2630, 14665.00
234.4820, 14723.00
235.7020, 14829.00
236.9210, 14826.21
238.1400, 14856.76
239.3590, 14759.00
240.5780, 14827.00
241.7970, 14702.00
243.0150, 14627.00
244.2340, 14704.00
245.4520, 14700.00
246.6700, 14717.87
247.8880, 14793.65
249.1060, 14816.00
250.3230, 14870.00
251.5400, 14998.00
252.7580, 14918.00
253.9750, 15060.00
255.1920, 15002.00
256.4080, 15272.00
257.6250, 15403.00
258.8410, 15437.00
260.0580, 15526.00
261.2740, 15663.00
262.4900, 15807.00
263.7050, 15843.00
264.9210, 15991.05
266.1360, 16328.00
267.3520, 16288.00
268.5670, 16408.00
269.7820, 16718.00
270.9960, 16732.00
272.2110, 16758.00
273.4250, 16883.00
274.6400, 16869.00
275.8540, 16742.00
277.0680, 16752.00
278.2810, 16740.00
279.4950, 16836.00
280.7090, 16789.00
281.9220, 16784.00
283.1350, 16931.00
284.3480, 16941.00
285.5610, 17151.00
286.7730, 17411.00
287.9860, 17787.00
289.1980, 18276.00
290.4100, 18689.00
291.6220, 19432.00
292.8340, 20093.00
294.0460, 20891.00
295.2570, 21945.00
296.4690, 22910.00
297.6800, 24479.00
298.8910, 26012.00
300.1020, 27078.00
301.3120, 28070.00
302.5230, 28169.00
303.7330, 27542.00
304.9440, 26838.00
306.1540, 25032.00
307.3630, 23908.00
308.5730, 22604.00
309.7830, 21688.00
310.9920, 21012.00
312.2010, 20235.00
313.4100, 19709.22
314.6190, 19092.00
315.8280, 18891.00
317.0370, 18504.00
318.2450, 18337.00
319.4530, 18114.00
320.6610, 17946.00
321.8690, 17973.00
323.0770, 17977.00
324.2850, 17809.00
325.4920, 17611.00
326.6990, 17557.00
327.9060, 17354.00
329.1130, 17215.00
330.3200, 17199.00
331.5270, 17221.00
332.7330, 17049.07
333.9390, 17141.00
335.1450, 16857.00
336.3510, 16748.00
337.5570, 16828.00
338.7630, 16571.00
339.9680, 16645.00
341.1740, 16521.00
342.3790, 16564.00
343.5840, 16585.00
344.7890, 16614.00
345.9930, 16623.84
347.1980, 16611.34
348.4020, 16613.00
349.6060, 16594.00
350.8100, 16546.00
352.0140, 16593.00
353.2180, 16493.00
354.4210, 16534.00
355.6250, 16709.00
356.8280, 16580.00
358.0310, 16562.00
359.2340, 16634.00
360.4360, 16580.00
361.6390, 16690.00
362.8410, 16687.00
364.0430, 16673.00
365.2450, 16692.00
366.4470, 16622.00
367.6490, 16673.00
368.8510, 16749.00
370.0520, 16837.00
371.2530, 16784.00
372.4540, 16865.00
373.6550, 16886.00
374.8560, 16988.00
376.0560, 17009.00
377.2570, 16812.00
378.4570, 16664.00
379.6570, 16854.00
380.8570, 16958.00
382.0570, 16914.00
383.2560, 16785.00
384.4560, 17074.00
385.6550, 16803.00
386.8540, 16939.00
388.0530, 17005.00
389.2520, 17041.00
390.4510, 17036.00
391.6490, 16995.00
392.8470, 16985.00
394.0450, 16874.00
395.2430, 17140.00
396.4410, 17147.00
397.6390, 17327.00
398.8360, 17163.00
400.0340, 17198.00
401.2310, 17215.00
402.4280, 16993.00
403.6250, 17017.00
404.8210, 17253.00
406.0180, 17414.00
407.2140, 17315.00
408.4100, 17178.00
409.6060, 17372.00
410.8020, 17613.00
411.9980, 17701.00
413.1930, 17917.95
414.3890, 17903.00
415.5840, 18333.00
416.7790, 18582.00
417.9740, 18944.00
419.1680, 19497.00
420.3630, 19946.00
421.5570, 20558.00
422.7510, 21133.00
423.9450, 21821.00
425.1390, 22584.00
426.3330, 22209.00
427.5270, 22015.00
428.7200, 20953.00
429.9130, 20181.00
431.1060, 19480.00
432.2990, 18946.00
433.4920, 18410.00
434.6840, 18398.00
435.8770, 18270.00
437.0690, 18094.00
438.2610, 17957.00
439.4530, 18081.00
440.6450, 18071.00
441.8360, 18000.00
443.0280, 17850.00
444.2190, 18102.00
445.4100, 17986.00
446.6010, 17984.00
447.7920, 18206.00
448.9820, 18287.00
450.1730, 18237.00
451.3630, 18193.00
452.5530, 18179.00
453.7430, 18268.22
454.9330, 18388.00
456.1230, 18485.00
457.3120, 18627.66
458.5010, 18832.00
459.6910, 18913.00
460.8800, 18992.00
462.0680, 19109.00
463.2570, 19111.00
464.4460, 19342.00
465.6340, 19341.00
466.8220, 19616.00
468.0100, 19706.50
469.1980, 19679.00
470.3860, 19989.00
471.5730, 19965.00
472.7600, 20155.00
473.9480, 20400.00
475.1350, 20672.00
476.3210, 20966.00
477.5080, 21248.00
478.6950, 21392.00
479.8810, 21746.00
481.0670, 21575.00
482.2530, 21808.00
483.4390, 22059.00
484.6250, 21823.00
485.8100, 21632.00
486.9960, 21655.00
488.1810, 21438.00
489.3660, 21361.00
490.5510, 21139.00
491.7360, 21008.00
492.9200, 20789.00
494.1050, 20778.00
495.2890, 20667.00
496.4730, 20296.00
497.6570, 20083.00
498.8400, 20088.00
500.0240, 20075.00
501.2070, 19987.00
502.3910, 19882.00
503.5740, 19533.00
504.7570, 19481.00
505.9400, 19431.00
507.1220, 19153.00
508.3050, 19227.00
509.4870, 19076.00
510.6690, 19117.00
511.8510, 18940.00
513.0330, 18882.00
514.2140, 18861.00
515.3960, 18852.00
516.5770, 18679.00
517.7580, 18795.00
518.9390, 18701.00
520.1200, 18629.00
521.3010, 18713.00
522.4810, 18608.00
523.6610, 18649.00
524.8420, 18517.00
526.0220, 18570.00
527.2010, 18826.00
528.3810, 18821.00
529.5610, 18777.00
530.7400, 18562.00
531.9190, 18669.00
533.0980, 18702.00
534.2770, 18730.00
535.4560, 18797.00
536.6340, 18852.00
537.8120, 18724.00
538.9910, 18690.00
540.1690, 18853.00
541.3460, 18778.00
542.5240, 18845.00
543.7020, 18844.00
544.8790, 18983.00
546.0560, 18820.00
547.2330, 18903.00
548.4100, 18702.00
549.5870, 18964.00
550.7630, 18962.00
551.9400, 19008.00
553.1160, 18957.00
554.2920, 19048.00
555.4680, 19007.00
556.6440, 18940.00
557.8190, 19129.00
558.9950, 19087.00
560.1700, 18989.00
561.3450, 19104.00
562.5200, 19194.00
563.6950, 19321.00
564.8690, 19239.00
566.0440, 19210.00
567.2180, 19124.00
568.3920, 19407.00
569.5660, 19416.00
570.7400, 19363.00
571.9130, 19248.00
573.0870, 19436.00
574.2600, 19474.00
575.4330, 19415.82
576.6060, 19637.00
577.7790, 19435.00
578.9520, 19375.00
580.1240, 19612.00
581.2960, 19696.00
582.4690, 19611.00
583.6410, 19881.00
584.8120, 19698.00
585.9840, 19807.00
587.1560, 19871.00
588.3270, 19874.00
589.4980, 19909.00
590.6690, 20077.00
591.8400, 20166.38
593.0110, 20376.00
594.1810, 20455.00
595.3510, 20664.00
596.5220, 20762.00
597.6920, 21128.00
598.8610, 21230.00
600.0310, 21564.00
601.2010, 21769.00
602.3700, 21954.00
603.5390, 21816.00
604.7080, 21920.00
605.8770, 21510.00
607.0460, 21556.00
608.2140, 21165.00
609.3830, 20993.00
610.5510, 21085.00
611.7190, 20972.00
612.8870, 21099.00
614.0550, 20935.00
615.2220, 20953.00
616.3900, 21200.00
617.5570, 21161.00
618.7240, 21334.00
619.8910, 21522.00
621.0580, 21841.00
622.2240, 21933.00
623.3910, 22379.00
624.5570, 22717.00
625.7230, 22860.00
626.8890, 23318.00
628.0550, 23857.00
629.2200, 24523.00
630.3860, 25011.00
631.5510, 25475.00
632.7160, 26207.00
633.8810, 26638.00
635.0460, 27396.00
636.2100, 28165.00
637.3750, 29425.00
638.5390, 31146.00
639.7030, 33083.00
640.8670, 35746.00
642.0310, 38890.00
643.1950, 43043.00
644.3580, 46756.00
645.5210, 50246.00
646.6850, 51007.00
647.8480, 49172.00
649.0100, 45329.00
650.1730, 40146.00
651.3350, 35899.00
652.4980, 32237.00
653.6600, 29372.00
654.8220, 27534.00
655.9840, 26074.00
657.1450, 24832.00
658.3070, 24325.00
659.4680, 23623.00
660.6300, 22928.00
661.7910, 22741.00
662.9510, 22241.00
664.1120, 21960.00
665.2730, 22081.00
666.4330, 21592.00
667.5930, 21455.00
668.7530, 21432.00
669.9130, 21386.00
671.0730, 21223.00
672.2320, 21288.00
673.3920, 21054.00
674.5510, 21010.00
675.7100, 21144.00
676.8690, 20939.00
678.0280, 20992.00
679.1860, 20980.00
680.3450, 20995.00
681.5030, 20974.69
682.6610, 20937.97
683.8190, 20913.00
684.9770, 20889.75
686.1340, 20839.00
687.2920, 20843.00
688.4490, 20827.79
689.6060, 20802.00
690.7630, 20859.00
691.9200, 20869.00
693.0760, 20930.00
694.2330, 20931.00
695.3890, 20943.00
696.5450, 20933.04
697.7010, 20941.17
698.8570, 20905.00
700.0130, 20940.00
701.1680, 20988.00
702.3230, 20975.00
703.4780, 21038.00
704.6330, 20951.00
705.7880, 21122.00
706.9430, 20993.00
708.0970, 20822.00
709.2520, 20917.00
710.4060, 21048.00
711.5600, 21018.00
712.7140, 21042.00
713.8670, 21036.00
715.0210, 20914.00
716.1740, 20927.00
717.3270, 20891.00
718.4800, 20875.00
719.6330, 21049.00
720.7860, 20961.00
721.9380, 21167.00
723.0910, 20908.00
724.2430, 21029.00
725.3950, 21047.00
726.5470, 21102.00
727.6980, 21138.00
728.8500, 21174.00
730.0010, 21206.31
731.1530, 21515.00
732.3040, 21231.00
733.4550, 21163.00
734.6050, 21111.00
735.7560, 21378.00
736.9060, 21063.00
738.0560, 21395.00
739.2060, 21396.00
740.3560, 21294.00
741.5060, 21475.00
742.6560, 21465.00
743.8050, 21573.00
744.9540, 21424.00
746.1030, 21604.00
747.2520, 21365.00
748.4010, 21538.00
749.5500, 21585.00
750.6980, 21458.00
751.8460, 21576.00
752.9950, 21670.00
754.1420, 21539.00
755.2900, 21494.00
756.4380, 21707.00
757.5850, 21652.00
758.7330, 21690.00
759.8800, 21705.00
761.0270, 21585.00
762.1730, 21564.00
763.3200, 21639.00
764.4670, 21749.00
765.6130, 21748.00
766.7590, 21809.64
767.9050, 21755.00
769.0510, 21870.00
770.1960, 21783.00
771.3420, 21821.00
772.4870, 21735.00
773.6320, 21843.00
774.7770, 21891.00
775.9220, 21977.00
777.0670, 21960.00
778.2110, 22090.00
779.3560, 22213.00
780.5000, 22020.00
781.6440, 22123.00
782.7880, 22270.00
783.9320, 22321.00
785.0750, 22236.00
786.2180, 22348.00
787.3620, 22442.00
788.5050, 22302.00
789.6480, 22317.00
790.7900, 22377.00
791.9330, 22579.00
793.0750, 22714.00
794.2170, 22543.00
795.3590, 22395.00
796.5010, 22785.00
797.6430, 22681.00
798.7850, 23166.00
799.9260, 22953.00
801.0670, 22749.00
802.2080, 23335.00
803.3490, 23186.00
804.4900, 23189.00
805.6310, 23122.00
806.7710, 22995.00
807.9110, 23375.00
809.0510, 23370.00
810.1910, 23285.00
811.3310, 23143.00
812.4710, 23379.00
813.6100, 23192.00
814.7490, 23102.00
815.8880, 23417.00
817.0270, 23248.00
818.1660, 23023.00
819.3050, 23298.00
820.4430, 23183.00
821.5820, 23303.00
822.7200, 23144.00
823.8580, 23125.00
824.9950, 23193.00
826.1330, 23131.00
827.2710, 23005.00
828.4080, 23169.00
829.5450, 23020.00
830.6820, 22995.00
831.8190, 22975.00
832.9560, 23176.00
834.0920, 22995.00
835.2280, 23125.00
836.3650, 22773.00
837.5010, 23033.00
838.6360, 22850.00
839.7720, 23094.00
840.9080, 22886.00
842.0430, 22673.00
843.1780, 22995.00
844.3130, 23124.00
845.4480, 23031.00
846.5830, 22883.00
847.7170, 23103.00
848.8520, 22988.00
849.9860, 23046.00
851.1200, 23033.00
852.2540, 23022.00
853.3870, 23206.00
854.5210, 23046.00
855.6540, 23187.00
856.7880, 23196.00
857.9210, 23105.00
859.0540, 23044.00
860.1860, 23222.00
861.3190, 23170.00
862.4510, 23317.00
863.5840, 23236.00
864.7160, 23268.00
865.8480, 23302.00
866.9790, 23411.00
868.1110, 23411.00
869.2420, 23147.00
870.3740, 23242.00
871.5050, 23199.00
872.6360, 23483.00
873.7660, 23647.00
874.8970, 23455.00
876.0280, 23405.00
877.1580, 23380.00
878.2880, 23417.00
879.4180, 23405.29
880.5480, 23650.00
881.6770, 23482.00
882.8070, 23615.00
883.9360, 23736.00
885.0650, 23677.00
886.1940, 23605.00
887.3230, 23559.00
888.4520, 23777.00
889.5800, 23691.00
890.7090, 23752.00
891.8370, 23653.00
892.9650, 23698.00
894.0930, 23578.00
895.2200, 23511.00
896.3480, 23678.00
897.4750, 23784.00
898.6020, 23700.00
899.7290, 23879.00
900.8560, 23818.00
901.9830, 23712.00
903.1090, 24011.00
904.2360, 23846.00
905.3620, 24107.00
906.4880, 23795.00
907.6140, 23945.00
908.7400, 23765.00
909.8650, 24103.00
910.9900, 24041.00
912.1160, 23782.00
913.2410, 23897.00
914.3660, 24168.00
915.4900, 24183.00
916.6150, 24089.00
917.7390, 24365.00
918.8640, 24071.00
919.9880, 24073.00
921.1120, 24190.00
922.2350, 24214.00
923.3590, 24369.00
924.4820, 24276.00
925.6060, 24306.00
926.7290, 24271.11
927.8520, 24390.13
928.9740, 24464.99
930.0970, 24498.09
931.2190, 24364.27
932.3420, 24445.98
933.4640, 24441.31
934.5860, 24433.10
935.7080, 24545.14
936.8290, 24435.58
937.9510, 24545.71
939.0720, 24568.13
940.1930, 24630.68
941.3140, 24725.88
942.4350, 24753.71
943.5560, 24891.31
944.6760, 24984.74
945.7960, 25036.38
946.9170, 24921.17
948.0370, 25021.43
949.1560, 25035.29
950.2760, 25045.65
951.3960, 25176.24
952.5150, 25085.24
953.6340, 25213.89
954.7530, 25254.86
955.8720, 25335.97
956.9910, 25330.17
958.1090, 25351.18
959.2280, 25459.15
960.3460, 25518.96
961.4640, 25503.12
962.5820, 25728.00
963.6990, 25665.00
964.8170, 25924.00
965.9340, 25906.00
967.0510, 25834.00
968.1690, 25974.00
969.2850, 25825.00
970.4020, 25742.00
971.5190, 25909.00
972.6350, 25673.00
973.7510, 25734.00
974.8670, 25918.00
975.9830, 25878.00
977.0990, 25982.00
978.2150, 26122.00
979.3300, 26280.00
980.4450, 26339.00
981.5600, 26385.00
982.6750, 26730.00
983.7900, 26589.00
984.9050, 26702.00
986.0190, 26975.00
987.1340, 27235.00
988.2480, 27561.00
989.3620, 27848.00
990.4750, 28072.00
991.5890, 28353.00
992.7020, 28672.00
993.8160, 29166.00
994.9290, 29567.00
996.0420, 29957.00
997.1550, 30757.00
998.2670, 31203.00
999.3800, 31845.00
1000.492, 32910.00
1001.604, 33760.00
1002.716, 34903.00
1003.828, 35914.00
1004.940, 37030.00
1006.051, 38354.00
1007.163, 39332.00
1008.274, 40189.00
1009.385, 40815.00
1010.496, 41296.00
1011.606, 41215.00
1012.717, 40924.00
1013.827, 40340.00
1014.937, 39385.00
1016.047, 38536.00
1017.157, 37922.00
1018.267, 36684.00
1019.377, 35611.00
1020.486, 35045.00
1021.595, 34291.00
1022.704, 33904.00
1023.813, 33454.89
1024.922, 32793.00
1026.030, 32815.00
1027.139, 32517.00
1028.247, 32275.00
1029.355, 32716.00
1030.463, 33096.00
1031.571, 33446.00
1032.678, 33959.00
1033.786, 34591.00
1034.893, 35288.00
1036.000, 35997.00
1037.107, 36987.00
1038.214, 37520.00
1039.321, 38203.00
1040.427, 39139.00
1041.533, 39443.00
1042.639, 40157.00
1043.745, 40755.00
1044.851, 40964.00
1045.957, 41326.00
1047.062, 41447.00
1048.168, 41531.00
1049.273, 41538.00
1050.378, 41378.00
1051.482, 41490.00
1052.587, 41862.00
1053.692, 42169.00
1054.796, 42703.00
1055.900, 43309.67
1057.004, 43858.00
1058.108, 44767.00
1059.212, 45502.00
1060.315, 46326.00
1061.418, 46781.00
1062.522, 46890.00
1063.625, 46272.00
1064.728, 45041.00
1065.830, 43070.00
1066.933, 40967.00
1068.035, 39206.00
1069.137, 37460.00
1070.239, 35773.00
1071.341, 34634.00
1072.443, 33411.00
1073.545, 32456.00
1074.646, 31763.00
1075.747, 30948.00
1076.848, 30756.00
1077.949, 30062.00
1079.050, 30015.00
1080.150, 29854.00
1081.251, 29677.00
1082.351, 29503.00
1083.451, 29262.00
1084.551, 29028.00
1085.651, 29122.00
1086.750, 29152.00
1087.850, 29022.00
1088.949, 28750.00
1090.048, 28730.00
1091.147, 28577.00
1092.246, 28708.00
1093.345, 28484.00
1094.443, 28401.00
1095.541, 28659.00
1096.639, 28542.00
1097.737, 28690.00
1098.835, 28665.00
1099.933, 28561.00
1101.030, 28787.00
1102.128, 28773.00
1103.225, 28906.00
1104.322, 28853.00
1105.419, 29182.00
1106.515, 29271.00
1107.612, 28944.00
1108.708, 29419.00
1109.804, 29467.00
1110.900, 29507.00
1111.996, 29760.00
1113.092, 29872.00
1114.187, 29947.00
1115.283, 29954.00
1116.378, 30077.00
1117.473, 30345.00
1118.568, 30248.00
1119.662, 30100.00
1120.757, 30391.00
1121.851, 30323.00
1122.946, 30233.00
1124.040, 30433.00
1125.134, 30047.00
1126.227, 30124.00
1127.321, 30167.00
1128.414, 30159.00
1129.508, 30152.03
1130.601, 29909.00
1131.693, 30081.00
1132.786, 29805.00
1133.879, 29784.00
1134.971, 29834.00
1136.064, 29515.00
1137.156, 29584.00
1138.248, 29344.00
1139.339, 29206.00
1140.431, 29115.89
1141.522, 29058.00
1142.614, 28983.00
1143.705, 28893.00
1144.796, 28900.73
1145.887, 28938.00
1146.977, 28886.00
1148.068, 28925.00
1149.158, 28859.00
1150.248, 28836.96
1151.338, 28656.00
1152.428, 28785.00
1153.518, 28881.00
1154.607, 28919.00
1155.696, 29097.00
1156.785, 28931.00
1157.874, 28881.00
1158.963, 28793.00
1160.052, 28911.00
1161.141, 28654.00
1162.229, 28873.00
1163.317, 28939.00
1164.405, 29223.00
1165.493, 29021.00
1166.581, 29157.00
1167.668, 29041.00
1168.756, 29016.00
1169.843, 29227.00
1170.930, 29140.00
1172.017, 29146.00
1173.103, 29186.00
1174.190, 29211.94
1175.276, 29360.00
1176.363, 29369.00
1177.449, 29403.00
1178.535, 29506.00
1179.620, 29734.00
1180.706, 29624.00
1181.791, 29798.00
1182.877, 29630.00
1183.962, 29569.00
1185.047, 29794.00
1186.131, 29798.00
1187.216, 29644.00
1188.300, 29971.00
1189.385, 30127.00
1190.469, 30087.00
1191.553, 29976.00
1192.637, 30158.00
1193.720, 30127.00
1194.804, 30156.00
1195.887, 30219.00
1196.970, 30330.00
1198.053, 30050.00
1199.136, 30195.00
1200.219, 30199.00
1201.301, 30356.00
1202.383, 30185.00
1203.465, 30203.00
1204.547, 30180.00
1205.629, 30198.00
1206.711, 29999.00
1207.792, 30096.00
1208.874, 29853.00
1209.955, 29869.00
1211.036, 29818.00
1212.117, 29848.00
1213.198, 29834.00
1214.278, 29816.31
1215.359, 29983.00
1216.439, 29824.00
1217.519, 29871.00
1218.599, 29952.00
1219.678, 29898.00
1220.758, 29922.24
1221.837, 29656.00
1222.917, 29878.00
1223.996, 29685.00
1225.075, 29646.00
1226.153, 29815.00
1227.232, 29657.00
1228.310, 29675.00
1229.389, 29955.00
1230.467, 29783.00
1231.545, 29728.00
1232.622, 29790.00
1233.700, 29790.00
1234.777, 29806.00
1235.855, 29693.00
1236.932, 29985.00
1238.009, 29809.00
1239.086, 29799.00
1240.162, 29932.00
1241.239, 29807.00
1242.315, 29997.00
1243.391, 29745.00
1244.467, 29913.00
1245.543, 30000.00
1246.619, 29885.00
1247.694, 29989.00
1248.769, 30068.00
1249.844, 30111.00
1250.919, 29961.00
1251.994, 29956.00
1253.069, 29839.00
1254.144, 29865.59
1255.218, 30225.00
1256.292, 29991.00
1257.366, 30139.00
1258.440, 30319.00
1259.514, 30304.00
1260.587, 30364.00
1261.661, 30127.00
1262.734, 30291.00
1263.807, 30293.00
1264.880, 30396.00
1265.952, 30448.09
1267.025, 30335.00
1268.097, 30453.00
1269.170, 30567.00
1270.242, 30407.00
