##NAMES=Montebrasite
##RRUFFID=R060890
##IDEAL CHEMISTRY=LiAlPO_4_(OH)
##LOCALITY=Mount Marie, Paris, Maine, USA
##OWNER=RRUFF
##SOURCE=Bob Jenkins
##DESCRIPTION=Colorless massive
##STATUS=The identification of this mineral is confirmed by single-crystal X-ray diffraction and chemical analysis.
##URL=rruff.info/R060890
##MEASURED CHEMISTRY=Li_1.00_Al_1.00_(P_1.00_O_4_)(OH)_0.63_F_0.37_)_Î£=1_ ; Li not measured but estimated by stoichiometry
##PIN_ID=M01307
##ORIENTATION=Laser parallel to -c* (0 0 -1). Fiducial mark perpendicular to laser is parallel to a [1 0 0]
90.67800, 15221.00
91.91600, 15528.00
93.15500, 15498.00
94.39300, 15308.00
95.63100, 15680.00
96.86900, 15269.00
98.10600, 15237.00
99.34400, 15278.00
100.5810, 15388.00
101.8190, 15409.00
103.0560, 15528.00
104.2930, 15953.00
105.5290, 16324.00
106.7660, 16998.00
108.0020, 17385.00
109.2390, 16939.00
110.4750, 16517.00
111.7110, 16341.00
112.9460, 16635.00
114.1820, 16846.00
115.4170, 17003.00
116.6530, 17136.00
117.8880, 16919.00
119.1230, 16987.00
120.3580, 16751.00
121.5920, 16859.00
122.8270, 17142.00
124.0610, 17555.00
125.2950, 17769.00
126.5290, 17974.00
127.7630, 18448.00
128.9970, 18975.00
130.2300, 19091.00
131.4640, 19458.00
132.6970, 19324.00
133.9300, 18826.00
135.1630, 18574.00
136.3950, 18153.00
137.6280, 17376.00
138.8600, 17224.00
140.0920, 17049.00
141.3240, 16402.00
142.5560, 16292.00
143.7880, 16343.00
145.0190, 16108.00
146.2510, 15951.00
147.4820, 16030.00
148.7130, 16167.00
149.9440, 16091.00
151.1750, 16144.00
152.4050, 16434.00
153.6360, 16467.00
154.8660, 16868.00
156.0960, 17003.71
157.3260, 17399.00
158.5560, 17538.00
159.7850, 17856.00
161.0150, 18424.00
162.2440, 19012.00
163.4730, 19555.00
164.7020, 19754.00
165.9310, 20076.00
167.1590, 20425.00
168.3880, 20316.00
169.6160, 20218.00
170.8440, 20043.00
172.0720, 19876.00
173.3000, 19634.00
174.5280, 19348.39
175.7550, 18971.00
176.9820, 18687.00
178.2100, 18362.00
179.4370, 18010.00
180.6630, 17838.00
181.8900, 17785.00
183.1170, 17453.00
184.3430, 17571.00
185.5690, 17449.00
186.7950, 17428.00
188.0210, 17241.00
189.2470, 17124.00
190.4720, 17069.59
191.6970, 17044.00
192.9230, 16959.00
194.1480, 16844.00
195.3730, 16835.00
196.5970, 16769.74
197.8220, 16767.00
199.0460, 16716.00
200.2700, 16800.00
201.4940, 16795.00
202.7180, 16527.00
203.9420, 16231.00
205.1660, 16038.00
206.3890, 15921.08
207.6120, 15973.00
208.8350, 15863.00
210.0580, 15845.00
211.2810, 15976.00
212.5040, 15967.00
213.7260, 15968.00
214.9480, 15910.00
216.1700, 15865.00
217.3920, 15949.00
218.6140, 15967.00
219.8360, 15839.00
221.0570, 15946.00
222.2790, 15851.00
223.5000, 15881.00
224.7210, 15873.50
225.9410, 15867.00
227.1620, 15860.00
228.3820, 15768.00
229.6030, 15801.00
230.8230, 15631.00
232.0430, 15674.00
233.2630, 15600.00
234.4820, 15682.00
235.7020, 15698.00
236.9210, 15582.00
238.1400, 15578.00
239.3590, 15667.00
240.5780, 15743.00
241.7970, 15648.00
243.0150, 15767.00
244.2340, 15620.00
245.4520, 15674.00
246.6700, 15776.00
247.8880, 15688.00
249.1060, 15798.00
250.3230, 15814.00
251.5400, 15864.00
252.7580, 16026.00
253.9750, 16164.00
255.1920, 16161.00
256.4080, 16266.00
257.6250, 16282.00
258.8410, 16536.00
260.0580, 16703.00
261.2740, 16886.00
262.4900, 17157.24
263.7050, 17334.11
264.9210, 17788.00
266.1360, 17780.00
267.3520, 18304.00
268.5670, 18591.00
269.7820, 18771.00
270.9960, 19173.00
272.2110, 19284.00
273.4250, 19373.00
274.6400, 19399.00
275.8540, 19394.00
277.0680, 19383.00
278.2810, 19054.00
279.4950, 19079.00
280.7090, 18899.00
281.9220, 18886.00
283.1350, 19003.00
284.3480, 18980.00
285.5610, 19120.00
286.7730, 19444.00
287.9860, 19765.69
289.1980, 20222.00
290.4100, 20860.00
291.6220, 21624.00
292.8340, 22539.00
294.0460, 23609.00
295.2570, 25169.00
296.4690, 26549.00
297.6800, 28173.00
298.8910, 30044.00
300.1020, 31922.00
301.3120, 33063.00
302.5230, 33469.00
303.7330, 32957.00
304.9440, 31612.00
306.1540, 29673.00
307.3630, 27761.00
308.5730, 26388.00
309.7830, 24880.00
310.9920, 23849.00
312.2010, 23066.00
313.4100, 22238.00
314.6190, 21667.00
315.8280, 20903.00
317.0370, 20310.00
318.2450, 20114.00
319.4530, 19649.00
320.6610, 19184.00
321.8690, 18937.00
323.0770, 18869.00
324.2850, 18635.00
325.4920, 18588.00
326.6990, 18621.00
327.9060, 18389.00
329.1130, 18233.00
330.3200, 18094.00
331.5270, 17919.00
332.7330, 17861.00
333.9390, 17875.00
335.1450, 17605.00
336.3510, 17410.00
337.5570, 17476.00
338.7630, 17407.00
339.9680, 17367.24
341.1740, 17463.00
342.3790, 17322.00
343.5840, 17396.00
344.7890, 17353.00
345.9930, 17287.00
347.1980, 17443.00
348.4020, 17370.00
349.6060, 17413.00
350.8100, 17312.00
352.0140, 17293.00
353.2180, 17398.00
354.4210, 17347.00
355.6250, 17531.00
356.8280, 17375.00
358.0310, 17685.00
359.2340, 17572.00
360.4360, 17601.00
361.6390, 17706.00
362.8410, 17799.00
364.0430, 17791.00
365.2450, 17812.00
366.4470, 17832.00
367.6490, 17814.00
368.8510, 17955.00
370.0520, 17986.00
371.2530, 17894.00
372.4540, 18129.00
373.6550, 18018.00
374.8560, 18087.00
376.0560, 18046.00
377.2570, 17930.00
378.4570, 17973.00
379.6570, 17959.00
380.8570, 17869.00
382.0570, 17774.00
383.2560, 17849.00
384.4560, 17662.00
385.6550, 17646.00
386.8540, 17741.00
388.0530, 17869.00
389.2520, 17759.00
390.4510, 17685.00
391.6490, 18033.00
392.8470, 17760.00
394.0450, 17736.00
395.2430, 17731.00
396.4410, 17934.00
397.6390, 17731.00
398.8360, 17842.00
400.0340, 17803.00
401.2310, 17816.00
402.4280, 17859.00
403.6250, 17983.00
404.8210, 17856.00
406.0180, 17911.00
407.2140, 17871.00
408.4100, 18092.00
409.6060, 17945.00
410.8020, 18112.00
411.9980, 18101.00
413.1930, 18519.00
414.3890, 18412.00
415.5840, 18716.00
416.7790, 18901.00
417.9740, 19485.00
419.1680, 19673.00
420.3630, 20250.00
421.5570, 20690.00
422.7510, 21278.00
423.9450, 22186.00
425.1390, 23126.00
426.3330, 23354.00
427.5270, 23201.00
428.7200, 22520.00
429.9130, 21400.00
431.1060, 20637.00
432.2990, 19908.00
433.4920, 19464.00
434.6840, 19253.00
435.8770, 18989.00
437.0690, 18897.00
438.2610, 18621.00
439.4530, 18672.00
440.6450, 18592.00
441.8360, 18592.00
443.0280, 18537.00
444.2190, 18574.12
445.4100, 18604.82
446.6010, 18668.00
447.7920, 18730.00
448.9820, 18773.00
450.1730, 18857.00
451.3630, 18872.00
452.5530, 18861.00
453.7430, 18913.00
454.9330, 19018.00
456.1230, 18980.00
457.3120, 19515.00
458.5010, 19379.00
459.6910, 19589.00
460.8800, 19911.00
462.0680, 19825.00
463.2570, 19819.00
464.4460, 19732.00
465.6340, 19904.00
466.8220, 20094.00
468.0100, 19940.00
469.1980, 19966.00
470.3860, 20136.00
471.5730, 20442.00
472.7600, 20439.00
473.9480, 20757.00
475.1350, 20862.00
476.3210, 21101.00
477.5080, 21401.00
478.6950, 21522.00
479.8810, 21911.00
481.0670, 22106.00
482.2530, 22042.00
483.4390, 22290.00
484.6250, 22250.00
485.8100, 22396.00
486.9960, 22059.00
488.1810, 22029.00
489.3660, 21995.00
490.5510, 21949.00
491.7360, 21891.55
492.9200, 21827.38
494.1050, 21739.00
495.2890, 21655.00
496.4730, 21534.00
497.6570, 21394.70
498.8400, 21064.00
500.0240, 21054.00
501.2070, 20746.00
502.3910, 20577.00
503.5740, 20585.00
504.7570, 20422.00
505.9400, 20189.00
507.1220, 20064.00
508.3050, 20005.00
509.4870, 20051.00
510.6690, 19805.00
511.8510, 19850.00
513.0330, 19733.00
514.2140, 19338.00
515.3960, 19471.00
516.5770, 19398.00
517.7580, 19483.00
518.9390, 19548.00
520.1200, 19423.00
521.3010, 19266.00
522.4810, 19236.00
523.6610, 19246.00
524.8420, 19375.00
526.0220, 19302.00
527.2010, 19534.00
528.3810, 19282.00
529.5610, 19246.00
530.7400, 19285.00
531.9190, 19363.00
533.0980, 19244.22
534.2770, 19308.00
535.4560, 19116.00
536.6340, 19270.00
537.8120, 19378.00
538.9910, 19249.00
540.1690, 19302.00
541.3460, 19203.00
542.5240, 19292.00
543.7020, 19380.00
544.8790, 19471.00
546.0560, 19422.00
547.2330, 19496.60
548.4100, 19375.00
549.5870, 19522.00
550.7630, 19425.00
551.9400, 19389.00
553.1160, 19527.00
554.2920, 19657.00
555.4680, 19536.00
556.6440, 19655.00
557.8190, 19562.00
558.9950, 19659.00
560.1700, 19382.00
561.3450, 19645.00
562.5200, 19484.00
563.6950, 19509.00
564.8690, 19779.00
566.0440, 19601.00
567.2180, 19614.00
568.3920, 19885.00
569.5660, 19803.00
570.7400, 19792.00
571.9130, 19860.00
573.0870, 19992.00
574.2600, 19934.00
575.4330, 20152.00
576.6060, 19923.00
577.7790, 20141.00
578.9520, 19731.00
580.1240, 19871.00
581.2960, 20218.00
582.4690, 20354.00
583.6410, 20418.21
584.8120, 20390.00
585.9840, 20477.00
587.1560, 20551.00
588.3270, 20628.00
589.4980, 20884.00
590.6690, 21338.00
591.8400, 21918.00
593.0110, 21315.00
594.1810, 21696.00
595.3510, 22295.00
596.5220, 22861.00
597.6920, 23314.00
598.8610, 24018.00
600.0310, 24971.00
601.2010, 25819.00
602.3700, 26542.00
603.5390, 26528.00
604.7080, 26392.00
605.8770, 25292.00
607.0460, 24347.00
608.2140, 23550.00
609.3830, 22816.00
610.5510, 22447.00
611.7190, 22007.00
612.8870, 22034.00
614.0550, 21771.00
615.2220, 21676.00
616.3900, 21342.00
617.5570, 21574.00
618.7240, 21570.00
619.8910, 21753.00
621.0580, 21487.00
622.2240, 22063.00
623.3910, 22359.00
624.5570, 22931.00
625.7230, 22982.00
626.8890, 22748.00
628.0550, 22831.00
629.2200, 23019.00
630.3860, 23429.00
631.5510, 23763.00
632.7160, 24026.00
633.8810, 24209.00
635.0460, 24087.00
636.2100, 24252.00
637.3750, 24506.00
638.5390, 24859.00
639.7030, 25524.00
640.8670, 26356.00
642.0310, 27174.00
643.1950, 28383.00
644.3580, 29599.00
645.5210, 30452.00
646.6850, 30763.00
647.8480, 30324.00
649.0100, 29245.00
650.1730, 27602.00
651.3350, 26296.00
652.4980, 25007.00
653.6600, 24248.00
654.8220, 23846.00
655.9840, 22900.00
657.1450, 22446.00
658.3070, 22062.00
659.4680, 21841.00
660.6300, 21837.00
661.7910, 21628.00
662.9510, 21514.00
664.1120, 21487.00
665.2730, 21280.00
666.4330, 21344.00
667.5930, 21251.00
668.7530, 21295.00
669.9130, 21255.00
671.0730, 21213.00
672.2320, 21154.00
673.3920, 21134.61
674.5510, 21122.00
675.7100, 21110.43
676.8690, 21091.00
678.0280, 21128.00
679.1860, 21182.00
680.3450, 21081.00
681.5030, 21057.00
682.6610, 21087.00
683.8190, 21046.00
684.9770, 21110.00
686.1340, 21159.00
687.2920, 21079.00
688.4490, 21299.00
689.6060, 21203.00
690.7630, 21101.00
691.9200, 21263.00
693.0760, 21225.00
694.2330, 20971.00
695.3890, 21053.00
696.5450, 21084.00
697.7010, 21209.00
698.8570, 21100.00
700.0130, 21258.00
701.1680, 21215.00
702.3230, 21270.00
703.4780, 21272.00
704.6330, 21177.00
705.7880, 21175.00
706.9430, 21340.00
708.0970, 21198.00
709.2520, 21382.00
710.4060, 21273.00
711.5600, 21478.00
712.7140, 21285.00
713.8670, 21507.00
715.0210, 21514.00
716.1740, 21273.00
717.3270, 21448.00
718.4800, 21535.00
719.6330, 21530.00
720.7860, 21268.00
721.9380, 21355.00
723.0910, 21428.00
724.2430, 21312.00
725.3950, 21557.00
726.5470, 21342.00
727.6980, 21555.00
728.8500, 21500.00
730.0010, 21509.00
731.1530, 21562.00
732.3040, 21582.00
733.4550, 21616.94
734.6050, 21679.00
735.7560, 21677.00
736.9060, 21603.00
738.0560, 21602.00
739.2060, 21677.00
740.3560, 21778.00
741.5060, 21781.66
742.6560, 21861.59
743.8050, 21823.00
744.9540, 21895.00
746.1030, 21881.00
747.2520, 21908.42
748.4010, 21909.00
749.5500, 21925.00
750.6980, 21929.00
751.8460, 21856.00
752.9950, 21895.00
754.1420, 21849.00
755.2900, 21950.00
756.4380, 21929.41
757.5850, 21954.00
758.7330, 21938.00
759.8800, 21977.00
761.0270, 21965.00
762.1730, 22075.00
763.3200, 22027.00
764.4670, 22093.00
765.6130, 22106.00
766.7590, 22067.00
767.9050, 22198.00
769.0510, 22121.00
770.1960, 22129.00
771.3420, 22388.00
772.4870, 22247.00
773.6320, 22239.00
774.7770, 22414.00
775.9220, 22425.00
777.0670, 22438.00
778.2110, 22429.00
779.3560, 22558.00
780.5000, 22643.00
781.6440, 22518.00
782.7880, 22571.00
783.9320, 22459.00
785.0750, 22977.00
786.2180, 22751.00
787.3620, 22984.00
788.5050, 22965.00
789.6480, 23052.00
790.7900, 23115.00
791.9330, 23223.36
793.0750, 23522.00
794.2170, 23525.00
795.3590, 23902.00
796.5010, 24130.00
797.6430, 23986.00
798.7850, 24278.00
799.9260, 24151.00
801.0670, 24341.00
802.2080, 24539.00
803.3490, 24415.00
804.4900, 24812.00
805.6310, 24618.00
806.7710, 24750.00
807.9110, 24802.00
809.0510, 24741.00
810.1910, 24806.00
811.3310, 24846.00
812.4710, 24825.00
813.6100, 24833.00
814.7490, 24727.00
815.8880, 24706.00
817.0270, 24457.00
818.1660, 24547.00
819.3050, 24478.00
820.4430, 24422.00
821.5820, 24448.00
822.7200, 24404.00
823.8580, 24180.00
824.9950, 24113.00
826.1330, 23982.00
827.2710, 23824.40
828.4080, 23700.00
829.5450, 23579.00
830.6820, 23603.00
831.8190, 23570.00
832.9560, 23504.00
834.0920, 23583.00
835.2280, 23484.00
836.3650, 23582.00
837.5010, 23189.00
838.6360, 23331.00
839.7720, 23324.00
840.9080, 23188.00
842.0430, 23346.00
843.1780, 23223.00
844.3130, 23255.99
845.4480, 23429.00
846.5830, 23268.00
847.7170, 23258.00
848.8520, 23240.00
849.9860, 23292.00
851.1200, 23442.00
852.2540, 23077.00
853.3870, 23156.00
854.5210, 23282.00
855.6540, 23261.00
856.7880, 23328.00
857.9210, 23398.00
859.0540, 23454.00
860.1860, 23552.00
861.3190, 23317.00
862.4510, 23488.00
863.5840, 23339.00
864.7160, 23584.00
865.8480, 23497.00
866.9790, 23467.00
868.1110, 23381.00
869.2420, 23440.00
870.3740, 23307.00
871.5050, 23703.00
872.6360, 23639.00
873.7660, 23580.00
874.8970, 23631.00
876.0280, 23506.00
877.1580, 23559.00
878.2880, 23678.00
879.4180, 23676.00
880.5480, 23612.00
881.6770, 23732.00
882.8070, 23720.00
883.9360, 23625.00
885.0650, 24017.00
886.1940, 23560.00
887.3230, 24017.00
888.4520, 23990.00
889.5800, 23858.00
890.7090, 23795.00
891.8370, 23925.00
892.9650, 23773.00
894.0930, 24000.00
895.2200, 23975.00
896.3480, 23914.00
897.4750, 24018.00
898.6020, 23914.00
899.7290, 23705.00
900.8560, 23945.00
901.9830, 23932.00
903.1090, 23729.00
904.2360, 23959.00
905.3620, 23939.00
906.4880, 23922.00
907.6140, 24124.00
908.7400, 24018.00
909.8650, 24061.00
910.9900, 24036.00
912.1160, 24193.00
913.2410, 24096.00
914.3660, 24217.00
915.4900, 24218.00
916.6150, 24257.00
917.7390, 24212.00
918.8640, 24217.00
919.9880, 24175.00
921.1120, 24257.00
922.2350, 24363.00
923.3590, 24390.00
924.4820, 24514.00
925.6060, 24366.00
926.7290, 24219.00
927.8520, 24379.00
928.9740, 24597.00
930.0970, 24517.00
931.2190, 24482.00
932.3420, 24384.00
933.4640, 24568.00
934.5860, 24376.00
935.7080, 24320.00
936.8290, 24475.00
937.9510, 24761.00
939.0720, 24539.00
940.1930, 24742.00
941.3140, 24591.00
942.4350, 24710.00
943.5560, 24664.00
944.6760, 24786.00
945.7960, 24747.00
946.9170, 24815.72
948.0370, 24923.00
949.1560, 24901.00
950.2760, 25006.00
951.3960, 24985.00
952.5150, 24925.00
953.6340, 24935.00
954.7530, 24991.00
955.8720, 24944.00
956.9910, 25205.00
958.1090, 25254.00
959.2280, 25308.00
960.3460, 25248.00
961.4640, 25362.00
962.5820, 25433.00
963.6990, 25448.00
964.8170, 25541.00
965.9340, 25650.00
967.0510, 25651.00
968.1690, 25743.00
969.2850, 25688.80
970.4020, 25533.00
971.5190, 25560.00
972.6350, 25606.00
973.7510, 25547.00
974.8670, 25622.00
975.9830, 25629.00
977.0990, 25660.73
978.2150, 25744.00
979.3300, 25731.00
980.4450, 25971.00
981.5600, 25977.00
982.6750, 26320.00
983.7900, 26304.00
984.9050, 26521.00
986.0190, 26400.00
987.1340, 26651.00
988.2480, 26801.00
989.3620, 27071.00
990.4750, 27239.00
991.5890, 27607.00
992.7020, 27956.00
993.8160, 28260.00
994.9290, 28737.00
996.0420, 29080.00
997.1550, 29591.00
998.2670, 29960.00
999.3800, 30434.00
1000.492, 31026.00
1001.604, 32021.00
1002.716, 32886.00
1003.828, 33601.00
1004.940, 34317.00
1006.051, 35103.00
1007.163, 36040.00
1008.274, 36337.00
1009.385, 37181.00
1010.496, 37356.00
1011.606, 37090.00
1012.717, 36943.00
1013.827, 36264.00
1014.937, 35754.00
1016.047, 35185.00
1017.157, 34281.00
1018.267, 33671.00
1019.377, 33032.00
1020.486, 32435.00
1021.595, 31814.00
1022.704, 31584.00
1023.813, 31139.00
1024.922, 30961.00
1026.030, 30831.00
1027.139, 30799.00
1028.247, 30742.00
1029.355, 30912.46
1030.463, 31162.00
1031.571, 31472.00
1032.678, 31954.00
1033.786, 32514.00
1034.893, 32802.00
1036.000, 33687.00
1037.107, 34197.00
1038.214, 34976.00
1039.321, 35247.00
1040.427, 36294.00
1041.533, 36540.00
1042.639, 37004.00
1043.745, 37552.00
1044.851, 37956.00
1045.957, 38580.00
1047.062, 38926.00
1048.168, 39170.00
1049.273, 39563.00
1050.378, 39662.00
1051.482, 40000.00
1052.587, 40671.00
1053.692, 41178.00
1054.796, 42089.00
1055.900, 42899.00
1057.004, 44600.00
1058.108, 45848.00
1059.212, 47418.00
1060.315, 48656.00
1061.418, 50147.00
1062.522, 50192.00
1063.625, 49904.00
1064.728, 48288.00
1065.830, 46462.00
1066.933, 43840.00
1068.035, 41188.00
1069.137, 39012.00
1070.239, 36907.00
1071.341, 34990.00
1072.443, 33742.00
1073.545, 32568.00
1074.646, 31923.00
1075.747, 31175.00
1076.848, 30839.00
1077.949, 30036.00
1079.050, 29736.00
1080.150, 29804.00
1081.251, 29138.00
1082.351, 29066.00
1083.451, 28881.00
1084.551, 28859.00
1085.651, 28785.00
1086.750, 28716.00
1087.850, 28646.00
1088.949, 28608.00
1090.048, 28618.51
1091.147, 28517.00
1092.246, 28712.00
1093.345, 28661.00
1094.443, 28762.89
1095.541, 28661.00
1096.639, 28791.00
1097.737, 28813.00
1098.835, 28797.00
1099.933, 28974.00
1101.030, 29414.00
1102.128, 29118.00
1103.225, 29593.00
1104.322, 29607.00
1105.419, 30049.00
1106.515, 30147.00
1107.612, 30398.00
1108.708, 30738.00
1109.804, 30653.00
1110.900, 31029.00
1111.996, 31126.00
1113.092, 31246.00
1114.187, 31540.00
1115.283, 31763.00
1116.378, 31650.00
1117.473, 31957.00
1118.568, 32061.00
1119.662, 32090.00
1120.757, 32232.00
1121.851, 32247.00
1122.946, 32245.00
1124.040, 32114.00
1125.134, 32217.00
1126.227, 32093.66
1127.321, 31890.00
1128.414, 31964.00
1129.508, 31804.00
1130.601, 31792.00
1131.693, 31770.00
1132.786, 31598.00
1133.879, 31098.00
1134.971, 30780.00
1136.064, 30406.00
1137.156, 30297.00
1138.248, 30066.00
1139.339, 29763.00
1140.431, 29630.00
1141.522, 29282.00
1142.614, 29449.00
1143.705, 29195.00
1144.796, 28813.00
1145.887, 28975.00
1146.977, 28749.00
1148.068, 28836.00
1149.158, 28609.00
1150.248, 28576.00
1151.338, 28595.00
1152.428, 28801.00
1153.518, 28632.00
1154.607, 28661.00
1155.696, 28316.00
1156.785, 28709.00
1157.874, 28610.00
1158.963, 28408.00
1160.052, 28492.00
1161.141, 28596.00
1162.229, 28660.00
1163.317, 28649.00
1164.405, 28671.00
1165.493, 28743.00
1166.581, 28717.00
1167.668, 28769.00
1168.756, 28646.00
1169.843, 28833.00
1170.930, 28913.00
1172.017, 28765.00
1173.103, 28993.00
1174.190, 28853.00
1175.276, 28923.00
1176.363, 29004.00
1177.449, 28803.00
1178.535, 28992.00
1179.620, 29066.00
1180.706, 28829.00
1181.791, 28997.00
1182.877, 29071.00
1183.962, 29084.00
1185.047, 29137.00
1186.131, 29226.00
1187.216, 29246.42
1188.300, 29312.78
1189.385, 29363.00
1190.469, 29371.00
1191.553, 29492.00
1192.637, 29437.00
1193.720, 29453.00
1194.804, 29727.00
1195.887, 29763.00
1196.970, 29724.00
1198.053, 29530.00
1199.136, 29778.00
1200.219, 29615.00
1201.301, 29653.00
1202.383, 29828.00
1203.465, 29919.00
1204.547, 29734.00
1205.629, 29678.00
1206.711, 29786.00
1207.792, 29555.00
1208.874, 29465.00
1209.955, 29746.00
1211.036, 29564.00
1212.117, 29605.00
1213.198, 29762.00
1214.278, 29636.00
1215.359, 29621.00
1216.439, 29816.00
1217.519, 29400.00
1218.599, 29598.00
1219.678, 29481.00
1220.758, 29417.00
1221.837, 29279.00
1222.917, 29426.00
1223.996, 29143.00
1225.075, 29215.00
1226.153, 29292.00
1227.232, 29626.00
1228.310, 29256.00
1229.389, 29460.00
1230.467, 29386.00
1231.545, 29224.00
1232.622, 29341.00
1233.700, 29291.00
1234.777, 29387.00
1235.855, 29432.00
1236.932, 29330.00
1238.009, 29482.00
1239.086, 29418.00
1240.162, 29545.00
1241.239, 29484.00
1242.315, 29700.00
1243.391, 29440.00
1244.467, 29624.00
1245.543, 29491.00
1246.619, 29865.00
1247.694, 30003.00
1248.769, 29761.85
1249.844, 29531.00
1250.919, 29530.00
1251.994, 29589.00
1253.069, 30018.00
1254.144, 29632.00
1255.218, 29848.00
1256.292, 29662.00
1257.366, 29884.00
1258.440, 29898.00
1259.514, 29847.00
1260.587, 29856.00
1261.661, 29639.00
1262.734, 29958.00
1263.807, 29756.00
1264.880, 29918.00
1265.952, 29792.00
1267.025, 29764.00
1268.097, 29991.00
1269.170, 29916.00
1270.242, 29866.00
