##NAMES=Muscovite
##RRUFFID=R050188
##IDEAL CHEMISTRY=KAl_2_(Si_3_Al)O_10_(OH)_2_
##LOCALITY=Sapinero, near Blue Mesa Reservoir, Gunnison County, Colorado, USA
##OWNER=RRUFF
##SOURCE=Dave Bunk Minerals
##DESCRIPTION=Black pseudohexagonal crystal, polytype 2M1, associated with quartz
##STATUS=The identification of this mineral has been confirmed by X-ray diffraction and chemical analysis
##URL=rruff.info/R050188
##MEASURED CHEMISTRY=(K_0.91_Na_0.09_)(Al_0.86_Fe^3+^_0.06_Fe^2+^_0.04_Mg_0.03_Ti_0.01_)_2_(Si_0.78_Al_0.22_)_4_O_10_(OH)_2_
##PIN_ID=L00075
##ORIENTATION=Laser parallel to (-1 0 -1). Fiducial mark perpendicular to laser is parallel to b [0 1 0]
135.777, 0.000
137.164, 39.440
138.550, 6.290
139.937, 52.319
141.323, 74.631
142.709, 31.697
144.094, 24.911
145.480, 39.902
146.865, 12.628
148.250, 52.244
149.635, 32.346
151.019, 7.539
152.403, 24.699
153.788, 21.723
155.171, 24.475
156.555, 11.027
157.939, 10.163
159.322, 45.872
160.705, 87.108
162.088, 103.845
163.470, 203.038
164.853, 313.649
166.235, 297.642
167.617, 388.990
168.998, 597.667
170.380, 705.652
171.761, 859.926
173.142, 1060.471
174.523, 1380.269
175.904, 1761.305
177.284, 2131.564
178.664, 2486.025
180.044, 3054.671
181.424, 3763.482
182.803, 4231.447
184.183, 4885.575
185.562, 5524.058
186.940, 6110.708
188.319, 6707.481
189.698, 6946.366
191.076, 7251.363
192.454, 7330.468
193.831, 7198.682
195.209, 7059.996
196.586, 6593.414
197.963, 6239.929
199.340, 5689.542
200.717, 5148.255
202.093, 4626.060
203.470, 4139.961
204.846, 3741.951
206.221, 3412.198
207.597, 3159.408
208.972, 2926.420
210.347, 2720.987
211.722, 2563.447
213.097, 2417.531
214.472, 2324.024
215.846, 2241.571
217.220, 2175.169
218.594, 2107.801
219.967, 1936.421
221.341, 1823.031
222.714, 1650.636
224.087, 1638.232
225.460, 1651.826
226.832, 1617.429
228.204, 1588.042
229.577, 1563.668
230.948, 1644.320
232.320, 1737.200
233.692, 1894.425
235.063, 1960.458
236.434, 2215.400
237.805, 2451.777
239.175, 2767.688
240.545, 3253.670
241.916, 3626.756
243.286, 4224.943
244.655, 4824.170
246.025, 5854.421
247.394, 6764.715
248.763, 8075.071
250.132, 9741.482
251.501, 11510.917
252.869, 13600.412
254.237, 15936.953
255.605, 17964.512
256.973, 20119.131
258.340, 21614.799
259.708, 22648.525
261.075, 22469.281
262.442, 22003.113
263.808, 20422.020
265.175, 18559.957
266.541, 16332.926
267.907, 13893.952
269.273, 11867.993
270.639, 9673.080
272.004, 8159.214
273.369, 6691.353
274.734, 5625.488
276.099, 4664.615
277.463, 4009.735
278.828, 3410.845
280.192, 2803.948
281.556, 2483.040
282.919, 2175.121
284.283, 1898.192
285.646, 1609.252
287.009, 1383.300
288.372, 1319.336
289.734, 1122.361
291.097, 971.373
292.459, 979.373
293.821, 840.359
295.183, 770.333
296.544, 696.293
297.905, 640.240
299.266, 522.173
300.627, 531.687
301.988, 440.148
303.348, 380.547
304.709, 414.101
306.069, 419.594
307.428, 338.180
308.788, 307.876
310.147, 293.583
311.507, 217.353
312.865, 216.216
314.224, 199.149
315.583, 174.145
316.941, 139.200
318.299, 124.309
319.657, 104.863
321.015, 94.156
322.372, 26.552
323.729, 20.885
325.086, 22.655
326.443, 38.817
327.800, 23.279
329.156, 79.657
330.512, 51.627
331.868, 59.190
333.224, 2.233
334.579, 10.266
335.935, 7.462
337.290, 7.436
338.645, 18.592
339.999, 16.779
341.354, 37.593
342.708, 53.670
344.062, 61.222
345.416, 91.127
346.769, 125.558
348.123, 148.622
349.476, 201.507
350.829, 242.175
352.182, 273.288
353.534, 287.079
354.887, 405.315
356.239, 339.034
357.591, 472.753
358.942, 500.167
360.294, 548.377
361.645, 587.831
362.996, 636.233
364.347, 688.160
365.698, 733.878
367.048, 804.099
368.398, 841.279
369.748, 886.668
371.098, 954.780
372.448, 985.759
373.797, 1024.895
375.146, 996.327
376.495, 1110.921
377.844, 1051.225
379.192, 1165.668
380.540, 1147.817
381.889, 1103.567
383.236, 1129.506
384.584, 1137.211
385.932, 1116.926
387.279, 1144.939
388.626, 1243.110
389.973, 1183.698
391.319, 1353.447
392.666, 1299.033
394.012, 1382.505
395.358, 1477.062
396.704, 1545.048
398.049, 1689.588
399.394, 1815.537
400.740, 1960.824
402.084, 2094.573
403.429, 2200.262
404.774, 2300.054
406.118, 2359.934
407.462, 2362.088
408.806, 2433.879
410.150, 2444.701
411.493, 2563.338
412.836, 2541.850
414.179, 2369.445
415.522, 2404.052
416.865, 2201.528
418.207, 2059.044
419.549, 2041.531
420.891, 1844.091
422.233, 1760.515
423.575, 1570.924
424.916, 1508.319
426.257, 1435.700
427.598, 1331.066
428.939, 1247.417
430.279, 1112.753
431.619, 1042.073
432.959, 983.377
434.299, 932.665
435.639, 853.937
436.978, 770.192
438.318, 744.431
439.657, 669.654
440.996, 601.860
442.334, 515.050
443.673, 405.223
445.011, 456.379
446.349, 415.519
447.687, 357.642
449.024, 294.748
450.361, 280.696
451.699, 225.911
453.036, 253.967
454.372, 230.006
455.709, 227.408
457.045, 180.035
458.381, 165.024
459.717, 164.996
461.053, 100.951
462.388, 114.896
463.724, 129.832
465.059, 129.759
466.394, 104.675
467.728, 80.581
469.063, 76.477
470.397, 98.361
471.731, 126.234
473.065, 84.100
474.398, 125.954
475.732, 87.795
477.065, 116.624
478.398, 88.438
479.731, 75.240
481.063, 68.030
482.396, 54.805
483.728, 80.564
485.060, 25.308
486.391, 53.032
487.723, 15.034
489.054, 17.720
490.385, 18.195
491.716, 10.274
493.047, 3.055
494.377, 18.503
495.708, 30.073
497.038, 3.577
498.368, 14.875
499.697, 7.018
501.027, 2.378
502.356, 17.255
503.685, 9.078
505.014, 47.610
506.342, 19.346
507.671, 47.123
508.999, 4.049
510.327, 9.192
511.655, 31.308
512.982, 77.403
514.310, 25.995
515.637, 102.531
516.964, 39.434
518.291, 2.453
519.617, 29.495
520.944, 18.579
522.270, 35.303
523.596, 31.167
524.921, 12.008
526.247, 14.179
527.572, 2.594
528.897, 0.666
530.222, 4.041
531.547, 50.717
532.871, 36.371
534.196, 0.996
535.520, 35.398
536.844, 1.148
538.167, 21.661
539.491, 12.851
540.814, 5.404
542.137, 8.993
543.460, 13.378
544.783, 53.278
546.105, 43.004
547.427, 44.736
548.749, 35.533
550.071, 11.617
551.393, 15.738
552.714, 2.168
554.035, 15.891
555.356, 27.077
556.677, 4.093
557.998, 4.856
559.318, 21.773
560.638, 8.334
561.958, 39.479
563.278, 9.500
564.597, 5.084
565.917, 23.816
567.236, 43.524
568.555, 39.211
569.874, 64.878
571.192, 94.526
572.511, 68.156
573.829, 61.766
575.147, 89.358
576.464, 75.933
577.782, 79.488
579.099, 58.026
580.416, 119.545
581.733, 160.047
583.050, 111.531
584.366, 200.998
585.683, 165.448
586.999, 156.881
588.315, 191.296
589.630, 220.695
590.946, 261.076
592.261, 298.441
593.576, 238.789
594.891, 283.121
596.206, 376.436
597.520, 307.734
598.834, 386.016
600.148, 413.282
601.462, 423.532
602.776, 414.766
604.089, 417.983
605.402, 448.185
606.715, 459.493
608.028, 489.060
609.341, 508.696
610.653, 556.835
611.965, 575.959
613.277, 619.068
614.589, 638.162
615.901, 700.240
617.212, 739.304
618.523, 891.353
619.834, 863.386
621.145, 993.406
622.456, 1008.411
623.766, 1094.402
625.076, 1120.379
626.386, 1207.344
627.696, 1120.279
629.006, 1185.220
630.315, 1061.148
631.624, 1133.069
632.933, 1207.976
634.242, 1171.870
635.551, 1119.750
636.859, 1142.996
638.167, 1150.862
639.475, 1115.173
640.783, 1230.856
642.090, 1220.630
643.398, 1264.991
644.705, 1242.619
646.012, 1247.699
647.318, 1271.830
648.625, 1247.011
649.931, 1215.800
651.237, 1220.083
652.543, 1166.367
653.849, 1221.901
655.155, 1216.069
656.460, 1183.557
657.765, 1147.683
659.070, 1118.161
660.375, 1149.694
661.679, 1127.258
662.984, 1168.457
664.288, 1183.469
665.592, 1172.749
666.895, 1252.174
668.199, 1297.816
669.502, 1301.011
670.805, 1457.528
672.108, 1452.599
673.411, 1568.184
674.713, 1731.765
676.016, 1806.648
677.318, 1946.733
678.620, 2071.569
679.921, 2294.396
681.223, 2486.474
682.524, 2708.031
683.825, 3065.081
685.126, 3459.165
686.427, 3792.033
687.727, 4267.174
689.028, 4688.439
690.328, 5324.541
691.628, 6009.379
692.927, 6645.006
694.227, 7136.917
695.526, 8292.834
696.825, 8972.846
698.124, 9511.321
699.423, 10052.562
700.721, 10183.032
702.020, 10087.484
703.318, 9603.630
704.616, 8807.607
705.913, 8024.164
707.211, 7412.552
708.508, 6401.096
709.805, 5484.746
711.102, 4852.297
712.399, 4060.387
713.695, 3596.922
714.992, 3051.005
716.288, 2804.757
717.584, 2426.039
718.879, 2112.371
720.175, 2117.593
721.470, 1818.719
722.765, 1723.562
724.060, 1633.758
725.355, 1471.914
726.649, 1469.246
727.944, 1566.695
729.238, 1385.050
730.532, 1558.384
731.825, 1520.839
733.119, 1611.243
734.412, 1640.667
735.705, 1728.008
736.998, 1770.476
738.291, 1923.946
739.584, 2018.420
740.876, 2175.897
742.168, 2106.379
743.460, 2141.864
744.752, 2290.354
746.043, 2387.848
747.334, 2328.346
748.626, 2254.849
749.916, 2236.356
751.207, 2195.869
752.498, 2156.387
753.788, 1964.910
755.078, 1939.438
756.368, 1799.971
757.658, 1664.511
758.947, 1616.056
760.237, 1368.607
761.526, 1339.164
762.815, 1121.727
764.104, 1018.297
765.392, 918.874
766.680, 777.457
767.969, 709.047
769.257, 586.644
770.544, 519.334
771.832, 522.860
773.119, 407.479
774.406, 369.105
775.693, 344.739
776.980, 297.472
778.267, 288.121
779.553, 244.779
780.839, 255.166
782.125, 232.798
783.411, 203.558
784.697, 166.248
785.982, 176.628
787.267, 162.336
788.552, 172.052
789.837, 166.770
791.122, 169.816
792.406, 163.907
793.690, 165.659
794.974, 170.426
796.258, 185.198
797.542, 121.978
798.825, 137.192
800.108, 104.995
801.391, 146.811
802.674, 115.639
803.957, 54.480
805.239, 98.340
806.522, 28.217
807.804, 92.115
809.085, 57.038
810.367, 3.022
811.649, 10.062
812.930, 4.914
814.211, 42.094
815.492, 29.092
816.772, 57.082
818.053, 17.941
819.333, 35.014
820.613, 26.052
821.893, 47.135
823.173, 52.233
824.452, 76.345
825.732, 20.469
827.011, 35.606
828.290, 15.755
829.568, 12.933
830.847, 12.130
832.125, 3.341
833.403, 25.424
834.681, 5.819
835.959, 43.075
837.236, 30.349
838.514, 20.645
839.791, 35.960
841.068, 7.296
842.345, 23.653
843.621, 99.024
844.898, 2.590
846.174, 48.816
847.450, 11.252
848.726, 8.292
850.001, 26.182
851.277, 23.679
852.552, 119.201
853.827, 27.746
855.102, 92.314
856.376, 162.918
857.651, 148.551
858.925, 172.216
860.199, 145.912
861.473, 215.627
862.746, 241.367
864.020, 169.133
865.293, 180.920
866.566, 143.739
867.839, 145.582
869.112, 160.444
870.384, 122.323
871.656, 124.226
872.928, 174.160
874.200, 126.125
875.472, 125.116
876.744, 91.128
878.015, 92.162
879.286, 107.211
880.557, 144.277
881.828, 67.373
883.098, 59.483
884.369, 60.620
885.639, 94.773
886.909, 61.948
888.178, 89.136
889.448, 100.338
890.717, 83.556
891.987, 90.794
893.256, 22.047
894.524, 76.325
895.793, 65.627
897.061, 22.942
898.330, 75.281
899.598, 54.636
900.865, 36.006
902.133, 80.389
903.401, 58.793
904.668, 62.215
905.935, 30.649
907.202, 42.098
908.468, 77.571
909.735, 18.061
911.001, 50.572
912.267, 26.099
913.533, 10.650
914.799, 45.221
916.064, 48.816
917.330, 22.425
918.595, 29.047
919.860, 36.683
921.124, 30.333
922.389, 33.203
923.653, 34.402
924.918, 23.359
926.182, 29.061
927.445, 14.777
928.709, 4.494
929.972, 7.247
931.236, 49.999
932.499, 25.236
933.761, 31.466
935.024, 3.692
936.286, 39.093
937.549, 49.109
938.811, 27.685
940.073, 7.492
941.334, 6.690
942.596, 6.861
943.857, 13.629
945.118, 5.825
946.379, 0.684
947.640, 12.554
948.900, 45.436
950.161, 15.671
951.421, 48.230
952.681, 76.143
953.940, 43.066
955.200, 50.001
956.459, 63.948
957.719, 80.905
958.978, 77.873
960.236, 43.852
961.495, 69.842
962.753, 5.790
964.012, 50.591
965.270, 107.613
966.527, 82.333
967.785, 102.560
969.043, 97.678
970.300, 122.741
971.557, 130.951
972.814, 137.389
974.071, 155.956
975.327, 150.059
976.583, 158.171
977.840, 159.293
979.095, 174.425
980.351, 227.567
981.607, 193.717
982.862, 180.877
984.117, 296.046
985.372, 178.556
986.627, 264.743
987.882, 338.939
989.136, 305.143
990.390, 361.356
991.644, 353.579
992.898, 315.571
994.152, 408.809
995.405, 426.180
996.659, 477.593
997.912, 529.855
999.165, 602.125
1000.417, 666.838
1001.670, 857.124
1002.922, 837.135
1004.174, 846.453
1005.426, 704.116
1006.678, 726.465
1007.930, 727.287
1009.181, 711.614
1010.432, 741.947
1011.683, 749.778
1012.934, 809.586
1014.185, 881.032
1015.435, 909.180
1016.685, 948.400
1017.935, 963.197
1019.185, 988.569
1020.435, 991.005
1021.684, 998.456
1022.934, 1109.855
1024.183, 1023.940
1025.432, 1113.108
1026.680, 1067.236
1027.929, 1101.506
1029.177, 1119.912
1030.425, 1209.870
1031.673, 1107.213
1032.921, 1037.807
1034.169, 1118.192
1035.416, 1185.113
1036.663, 1175.355
1037.911, 1263.780
1039.157, 1315.335
1040.404, 1396.088
1041.650, 1545.122
1042.897, 1596.020
1044.143, 1747.177
1045.389, 1876.851
1046.634, 1912.392
1047.880, 2068.263
1049.125, 2290.161
1050.371, 2420.138
1051.615, 2496.578
1052.860, 2697.638
1054.105, 2777.103
1055.349, 2840.544
1056.593, 2960.039
1057.837, 3101.178
1059.081, 3174.721
1060.325, 3198.615
1061.568, 3243.923
1062.812, 3250.896
1064.055, 3182.843
1065.298, 3202.708
1066.540, 3120.579
1067.783, 3079.022
1069.025, 3027.744
1070.267, 2928.267
1071.509, 2873.695
1072.751, 2868.186
1073.993, 2813.762
1075.234, 2833.513
1076.475, 2737.201
1077.716, 2700.619
1078.957, 2643.947
1080.198, 2568.359
1081.438, 2487.769
1082.679, 2377.472
1083.919, 2332.917
1085.159, 2215.242
1086.398, 2080.640
1087.638, 1969.354
1088.877, 1919.747
1090.116, 1803.136
1091.355, 1748.373
1092.594, 1612.601
1093.833, 1495.633
1095.071, 1438.010
1096.309, 1300.377
1097.547, 1206.747
1098.785, 1103.114
1100.023, 1010.055
1101.260, 986.415
1102.498, 888.770
1103.735, 857.121
1104.972, 778.469
1106.208, 745.812
1107.445, 672.152
1108.681, 734.487
1109.918, 576.818
1111.154, 625.145
1112.389, 476.467
1113.625, 457.786
1114.860, 569.100
1116.096, 444.416
1117.331, 449.730
1118.566, 383.048
1119.800, 406.361
1121.035, 428.674
1122.269, 434.981
1123.503, 473.284
1124.737, 369.581
1125.971, 335.873
1127.205, 289.159
1128.438, 294.439
1129.671, 229.714
1130.904, 249.983
1132.137, 293.247
1133.370, 179.504
1134.602, 124.759
1135.834, 141.007
1137.066, 138.250
1138.298, 50.486
1139.530, 96.716
1140.762, 3.060
1141.993, 104.149
1143.224, 10.353
1144.455, 8.548
1145.686, 23.735
1146.917, 44.915
1148.147, 1.088
1149.377, 60.249
1150.607, 0.596
1151.837, 19.544
1153.067, 10.323
1154.296, 18.791
1155.526, 44.103
1156.755, 43.965
1157.984, 35.027
1159.213, 5.081
1160.441, 10.877
1161.670, 4.855
1162.898, 0.149
1164.126, 0.862
1165.354, 8.111
1166.581, 37.073
1167.809, 23.027
1169.036, 22.972
1170.263, 32.910
1171.490, 13.161
1172.717, 14.255
1173.943, 2.628
1175.170, 15.503
1176.396, 72.341
1177.622, 7.177
1178.848, 48.000
1180.073, 20.781
1181.299, 32.448
1182.524, 9.290
1183.749, 13.985
1184.974, 70.716
1186.199, 25.409
1187.423, 16.093
1188.648, 10.235
1189.872, 11.416
1191.096, 27.947
1192.320, 20.174
1193.543, 29.238
1194.767, 23.193
1195.990, 12.346
1197.213, 9.874
1198.436, 61.389
1199.659, 10.105
1200.881, 0.621
1202.104, 68.846
1203.326, 38.305
1204.548, 27.245
1205.770, 1.827
1206.991, 7.426
1208.213, 1.954
1209.434, 24.683
1210.655, 8.349
1211.876, 23.037
1213.096, 14.246
1214.317, 51.518
1215.537, 20.784
1216.757, 35.041
1217.977, 56.288
1219.197, 39.528
1220.417, 29.760
1221.636, 18.983
1222.855, 22.196
1224.074, 78.398
1225.293, 54.593
1226.512, 61.782
1227.731, 73.963
1228.949, 52.138
1230.167, 64.308
1231.385, 107.479
1232.603, 57.644
1233.820, 95.801
1235.038, 132.959
1236.255, 185.111
1237.472, 104.256
1238.689, 165.395
1239.906, 147.527
1241.122, 179.653
1242.338, 154.770
1243.555, 115.879
1244.771, 147.979
1245.986, 89.071
1247.202, 185.156
1248.417, 193.233
1249.633, 152.302
1250.848, 214.361
1252.063, 222.413
1253.277, 142.455
1254.492, 207.489
1255.706, 205.514
1256.920, 173.530
1258.134, 207.538
1259.348, 237.537
1260.562, 236.526
1261.775, 241.508
1262.988, 212.480
1264.201, 273.443
1265.414, 321.398
1266.627, 259.343
1267.839, 333.279
1269.052, 259.207
1270.264, 316.125
1271.476, 298.035
1272.688, 325.936
1273.899, 340.828
1275.111, 303.711
1276.322, 304.586
1277.533, 341.453
1278.744, 336.311
1279.955, 337.591
1281.165, 347.001
1282.376, 332.834
1283.586, 318.659
1284.796, 334.476
1286.006, 371.285
1287.215, 363.325
1288.425, 365.119
1289.634, 361.781
1290.843, 359.362
1292.052, 461.135
1293.261, 431.901
1294.469, 521.075
1295.678, 578.827
1296.886, 616.854
1298.094, 566.578
1299.302, 623.957
1300.509, 641.651
1301.717, 680.873
1302.924, 714.592
1304.131, 696.305
1305.338, 757.522
1306.545, 668.763
1307.752, 721.365
1308.958, 696.267
1310.164, 647.090
1311.370, 651.351
1312.576, 592.030
1313.782, 582.644
1314.987, 517.245
1316.193, 569.896
1317.398, 489.862
1318.603, 480.746
1319.807, 424.668
1321.012, 446.449
1322.216, 393.095
1323.421, 344.187
1324.625, 347.895
1325.829, 288.352
1327.032, 286.018
1328.236, 265.148
1329.439, 216.957
1330.642, 176.583
1331.845, 202.081
1333.048, 172.381
1334.251, 149.400
1335.453, 126.556
1336.656, 109.388
1337.858, 98.835
1339.060, 90.351
1340.261, 105.538
1341.463, 111.700
1342.664, 144.783
1343.866, 98.405
1345.067, 87.410
1346.267, 134.011
1347.468, 93.637
1348.669, 175.212
1349.869, 126.145
1351.069, 55.677
1352.269, 72.860
1353.469, 81.633
1354.668, 107.742
1355.868, 117.883
1357.067, 113.109
1358.266, 101.334
1359.465, 97.645
1360.664, 74.029
1361.862, 79.660
1363.061, 63.348
1364.259, 117.981
1365.457, 115.535
1366.655, 134.921
1367.852, 100.380
1369.050, 159.119
1370.247, 136.865
1371.444, 108.669
1372.641, 140.488
1373.838, 141.227
1375.035, 98.719
1376.231, 81.501
1377.427, 115.296
1378.623, 117.099
1379.819, 101.912
1381.015, 94.920
1382.211, 90.123
1383.406, 87.177
1384.601, 83.606
1385.796, 58.091
1386.991, 66.565
1388.185, 28.027
1389.380, 78.478
1390.574, 108.917
1391.768, 99.345
1392.962, 54.762
1394.156, 34.168
1395.350, 80.562
1396.543, 66.946
1397.736, 73.318
1398.929, 49.679
1400.122, 56.029
1401.315, 77.368
1402.507, 78.696
1403.700, 73.012
1404.892, 44.318
1406.084, 64.613
1407.276, 155.897
1408.467, 124.179
1409.659, 118.454
1410.850, 189.719
1412.041, 80.981
1413.232, 191.241
1414.423, 113.507
1415.614, 180.801
1416.804, 163.089
1417.994, 195.395
1419.184, 252.713
1420.374, 265.034
1421.564, 209.348
1422.753, 273.664
1423.943, 265.009
1425.132, 309.375
1426.321, 285.764
1427.510, 343.192
1428.698, 391.652
1429.887, 449.120
1431.075, 464.600
1432.263, 604.110
1433.451, 757.665
1434.639, 829.255
1435.827, 903.854
1437.014, 1040.483
1438.201, 1167.117
1439.388, 1164.798
1440.575, 1251.515
1441.762, 1275.288
1442.949, 1363.113
1444.135, 1257.938
1445.321, 1286.769
1446.507, 1228.604
1447.693, 1256.450
1448.879, 1180.299
1450.064, 1198.148
1451.250, 1170.992
1452.435, 1101.830
1453.620, 1137.665
1454.805, 1143.496
1455.989, 1164.333
1457.174, 1031.181
1458.358, 1078.042
1459.542, 1032.917
1460.726, 974.808
1461.910, 991.716
1463.093, 887.644
1464.277, 825.592
1465.460, 746.564
1466.643, 689.989
1467.826, 633.954
1469.009, 596.644
1470.191, 553.732
1471.373, 513.854
1472.556, 519.012
1473.738, 465.170
1474.919, 412.438
1476.101, 380.711
1477.283, 319.023
1478.464, 256.376
1479.645, 276.769
1480.826, 235.203
1482.007, 279.677
1483.187, 239.192
1484.368, 191.748
1485.548, 196.342
1486.728, 165.976
1487.908, 154.075
1489.088, 156.095
1490.268, 136.152
1491.447, 140.984
1492.626, 135.878
1493.805, 89.839
1494.984, 56.871
1496.163, 63.979
1497.341, 84.167
1498.520, 38.440
1499.698, 68.802
1500.876, 16.742
1502.054, 34.814
1503.232, 3.475
1504.409, 29.248
1505.586, 41.142
1506.763, 61.167
1507.940, 71.083
1509.117, 73.665
1510.294, 79.166
1511.470, 40.856
1512.647, 23.754
1513.823, 12.433
1514.999, 71.483
1516.174, 5.889
1517.350, 95.780
1518.526, 72.401
1519.701, 85.953
1520.876, 59.532
1522.051, 2.045
1523.226, 69.525
1524.400, 27.305
1525.574, 0.000
##END=



