##NAMES=Natrolite
##RRUFFID=R060561
##IDEAL CHEMISTRY=Na_2_(Si_3_Al_2_)O_10_&#183;2H_2_O
##LOCALITY=California, USA
##OWNER=RRUFF
##SOURCE=Gemological Institute of America
##DESCRIPTION=White fragment
##STATUS=The identification of this mineral has been confirmed by X-ray diffraction and chemical analysis
##URL=rruff.info/R060561
##MEASURED CHEMISTRY=Na_2.00_(Si_3.00_Al_2.00_)O_10_Â·2H_2_O
##PIN_ID=L00681
##ORIENTATION=Laser parallel to a* (1 0 0). Fiducial mark perpendicular to laser is parallel to -b [0 -1 0]
94.64800, 1195.000
95.88300, 1293.000
97.11800, 1282.000
98.35200, 1451.000
99.58700, 1561.000
100.8210, 1616.000
102.0550, 1833.943
103.2890, 2054.000
104.5220, 2249.000
105.7560, 2597.000
106.9890, 2886.000
108.2230, 3315.000
109.4560, 3782.000
110.6890, 4322.000
111.9210, 4941.000
113.1540, 5613.000
114.3870, 6273.000
115.6190, 6915.000
116.8510, 7303.000
118.0830, 7913.000
119.3150, 8826.000
120.5470, 9896.000
121.7780, 10846.00
123.0100, 11615.00
124.2410, 12088.00
125.4720, 12049.00
126.7030, 11805.00
127.9340, 11760.00
129.1640, 11804.00
130.3950, 12214.00
131.6250, 12823.00
132.8550, 13366.00
134.0850, 14100.00
135.3150, 14828.01
136.5450, 15493.64
137.7750, 16443.00
139.0040, 17135.00
140.2330, 17965.00
141.4620, 19233.00
142.6910, 20278.00
143.9200, 21484.00
145.1490, 22422.00
146.3770, 22737.00
147.6060, 22487.00
148.8340, 21771.00
150.0620, 21233.00
151.2900, 20680.00
152.5170, 20578.00
153.7450, 20668.00
154.9720, 21095.00
156.2000, 21979.46
157.4270, 23343.00
158.6540, 24652.00
159.8810, 26343.00
161.1070, 28419.00
162.3340, 30478.00
163.5600, 32504.00
164.7860, 33294.00
166.0120, 32939.00
167.2380, 31398.00
168.4640, 29395.00
169.6890, 26728.00
170.9150, 24893.00
172.1400, 23490.00
173.3650, 22300.00
174.5900, 21382.00
175.8150, 20590.00
177.0400, 20049.00
178.2640, 19395.00
179.4880, 19003.00
180.7130, 18806.00
181.9370, 18612.00
183.1600, 18689.00
184.3840, 18906.00
185.6080, 19125.00
186.8310, 19040.00
188.0540, 19006.00
189.2770, 18772.00
190.5000, 18660.00
191.7230, 18407.00
192.9460, 18259.00
194.1680, 18201.00
195.3910, 18403.00
196.6130, 18714.00
197.8350, 19124.00
199.0570, 19367.00
200.2780, 19880.00
201.5000, 20643.00
202.7210, 21149.00
203.9420, 21628.00
205.1640, 22107.00
206.3840, 22995.00
207.6050, 23557.00
208.8260, 23970.00
210.0460, 23721.00
211.2670, 23129.00
212.4870, 22148.00
213.7070, 21120.00
214.9270, 20195.00
216.1460, 19601.00
217.3660, 19008.00
218.5850, 18555.00
219.8050, 18199.00
221.0240, 17881.00
222.2430, 17561.00
223.4610, 17236.00
224.6800, 17202.00
225.8980, 16892.00
227.1170, 16889.00
228.3350, 16752.00
229.5530, 16617.00
230.7710, 16960.00
231.9880, 17081.00
233.2060, 17269.00
234.4230, 17392.00
235.6400, 17713.00
236.8570, 17865.00
238.0740, 18282.00
239.2910, 18766.00
240.5080, 19509.00
241.7240, 19621.00
242.9400, 19658.00
244.1570, 19493.00
245.3730, 18779.00
246.5880, 17963.00
247.8040, 17476.00
249.0190, 17216.00
250.2350, 17015.00
251.4500, 16768.00
252.6650, 16695.00
253.8800, 16543.00
255.0950, 16754.00
256.3090, 16815.00
257.5240, 16711.00
258.7380, 16893.00
259.9520, 16941.00
261.1660, 17141.00
262.3800, 17338.00
263.5930, 17301.00
264.8070, 17671.00
266.0200, 17735.00
267.2330, 17921.00
268.4460, 18083.00
269.6590, 18436.00
270.8720, 18478.00
272.0850, 18740.00
273.2970, 18777.00
274.5090, 18744.00
275.7210, 18590.00
276.9330, 18276.00
278.1450, 18191.00
279.3570, 17850.00
280.5680, 17744.00
281.7790, 17562.00
282.9910, 17375.00
284.2020, 17584.00
285.4120, 17399.00
286.6230, 17457.00
287.8340, 17601.00
289.0440, 17436.00
290.2540, 17876.00
291.4640, 17813.00
292.6740, 17682.00
293.8840, 18005.00
295.0940, 18198.00
296.3030, 18352.00
297.5120, 18887.00
298.7210, 18921.00
299.9300, 19529.00
301.1390, 19813.00
302.3480, 20373.00
303.5560, 20901.00
304.7650, 21546.00
305.9730, 22198.00
307.1810, 22370.00
308.3890, 22350.00
309.5970, 21457.00
310.8040, 20599.00
312.0120, 19617.00
313.2190, 18922.00
314.4260, 18535.00
315.6330, 18288.00
316.8400, 17948.00
318.0460, 18086.00
319.2530, 17921.00
320.4590, 18033.00
321.6650, 18056.00
322.8710, 17999.00
324.0770, 17968.00
325.2830, 18174.00
326.4880, 18101.00
327.6940, 18388.00
328.8990, 18465.00
330.1040, 18324.00
331.3090, 18729.00
332.5140, 18492.00
333.7180, 18564.00
334.9230, 18373.00
336.1270, 18630.00
337.3310, 18289.00
338.5350, 18263.00
339.7390, 18407.00
340.9430, 18246.00
342.1460, 18435.00
343.3500, 18277.00
344.5530, 18667.00
345.7560, 18618.00
346.9590, 18836.00
348.1620, 19010.00
349.3640, 18886.00
350.5670, 19118.00
351.7690, 19284.00
352.9710, 19487.00
354.1730, 19672.39
355.3750, 19946.00
356.5760, 20089.00
357.7780, 20275.00
358.9790, 20607.00
360.1800, 20796.00
361.3810, 20841.00
362.5820, 20574.00
363.7830, 20557.00
364.9830, 20174.00
366.1840, 19775.00
367.3840, 19582.00
368.5840, 19333.00
369.7840, 19226.00
370.9840, 19080.53
372.1830, 18960.86
373.3830, 18896.00
374.5820, 18782.00
375.7810, 18715.00
376.9800, 18622.00
378.1790, 18751.00
379.3780, 18801.00
380.5760, 18921.00
381.7750, 18716.00
382.9730, 18748.00
384.1710, 18831.00
385.3690, 18696.00
386.5660, 18889.00
387.7640, 18863.00
388.9610, 18785.00
390.1590, 18861.00
391.3560, 18861.00
392.5530, 18993.00
393.7500, 18905.00
394.9460, 19065.00
396.1430, 18994.00
397.3390, 19285.00
398.5350, 19131.00
399.7310, 19270.00
400.9270, 19533.00
402.1230, 19474.00
403.3180, 19540.00
404.5140, 19628.00
405.7090, 19628.00
406.9040, 20057.00
408.0990, 19923.00
409.2930, 20057.00
410.4880, 20311.00
411.6820, 20312.00
412.8770, 20530.00
414.0710, 20424.00
415.2650, 20781.00
416.4590, 20871.00
417.6520, 20765.00
418.8460, 21090.00
420.0390, 21351.00
421.2320, 21870.00
422.4250, 22259.60
423.6180, 22582.00
424.8110, 23294.00
426.0030, 24101.00
427.1960, 24805.00
428.3880, 26127.00
429.5800, 27124.00
430.7720, 28550.00
431.9640, 29762.00
433.1550, 31137.00
434.3470, 32312.00
435.5380, 33387.00
436.7290, 34416.00
437.9200, 34734.00
439.1110, 35313.00
440.3020, 35242.00
441.4920, 35378.00
442.6820, 35642.00
443.8730, 36439.00
445.0630, 37164.00
446.2530, 37742.00
447.4420, 37396.00
448.6320, 36995.00
449.8210, 35195.00
451.0100, 32589.00
452.2000, 30348.00
453.3880, 28118.00
454.5770, 26132.00
455.7660, 24770.00
456.9540, 23568.00
458.1430, 23157.00
459.3310, 22588.00
460.5190, 22433.00
461.7070, 22057.00
462.8940, 21917.00
464.0820, 21571.00
465.2690, 21719.00
466.4560, 21574.00
467.6430, 21688.00
468.8300, 21558.00
470.0170, 21618.00
471.2040, 21711.00
472.3900, 21674.00
473.5760, 21864.00
474.7620, 21692.00
475.9480, 21749.00
477.1340, 22030.00
478.3200, 22199.00
479.5050, 22016.00
480.6900, 22357.00
481.8750, 22290.00
483.0600, 22653.00
484.2450, 22972.00
485.4300, 23156.00
486.6140, 23369.00
487.7990, 23789.00
488.9830, 24073.00
490.1670, 24057.00
491.3510, 24363.00
492.5350, 24724.00
493.7180, 24770.00
494.9020, 24814.00
496.0850, 24733.00
497.2680, 24747.00
498.4510, 24618.00
499.6340, 24504.00
500.8160, 24545.00
501.9990, 24431.00
503.1810, 24436.00
504.3630, 24398.00
505.5450, 24387.00
506.7270, 24329.00
507.9090, 24423.00
509.0900, 24568.00
510.2720, 24712.00
511.4530, 24937.21
512.6340, 25120.00
513.8150, 25425.00
514.9950, 25782.00
516.1760, 26000.00
517.3560, 26739.00
518.5370, 27127.00
519.7170, 27841.00
520.8970, 28695.00
522.0770, 30137.00
523.2560, 31493.00
524.4360, 33304.30
525.6150, 35529.00
526.7940, 37570.00
527.9730, 40036.00
529.1520, 42680.00
530.3310, 46026.00
531.5090, 48915.00
532.6870, 51417.00
533.8660, 52440.00
535.0440, 51535.00
536.2210, 48452.00
537.3990, 44408.00
538.5770, 40424.00
539.7540, 36647.00
540.9310, 33561.00
542.1080, 31482.00
543.2850, 29559.00
544.4620, 28234.00
545.6390, 27164.00
546.8150, 26609.00
547.9920, 25798.00
549.1680, 25488.00
550.3440, 25097.00
551.5190, 24722.00
552.6950, 24585.00
553.8710, 24498.00
555.0460, 24200.00
556.2210, 24105.00
557.3960, 23992.00
558.5710, 23968.00
559.7460, 23550.00
560.9200, 23777.00
562.0950, 23828.00
563.2690, 23495.00
564.4430, 23739.00
565.6170, 23455.00
566.7910, 23588.00
567.9640, 23517.00
569.1380, 23499.00
570.3110, 23395.00
571.4840, 23571.00
572.6570, 23663.00
573.8300, 23744.00
575.0030, 23689.91
576.1750, 23715.46
577.3470, 23495.00
578.5200, 23612.00
579.6920, 23564.00
580.8630, 23440.00
582.0350, 23662.00
583.2070, 23663.00
584.3780, 23800.00
585.5490, 23783.00
586.7200, 23742.00
587.8910, 23987.00
589.0620, 23823.00
590.2330, 23973.00
591.4030, 23898.00
592.5730, 23918.00
593.7430, 24175.00
594.9130, 24090.00
596.0830, 24229.00
597.2530, 24158.00
598.4220, 24360.00
599.5920, 24416.00
600.7610, 24421.00
601.9300, 24246.00
603.0990, 24152.00
604.2670, 24348.00
605.4360, 23959.00
606.6040, 24165.00
607.7720, 24231.00
608.9400, 24094.00
610.1080, 23998.00
611.2760, 24244.00
612.4440, 24123.00
613.6110, 24031.00
614.7780, 24251.00
615.9450, 24031.00
617.1120, 24112.00
618.2790, 24045.00
619.4460, 24165.00
620.6120, 24282.00
621.7780, 24230.00
622.9450, 24168.00
624.1110, 24123.00
625.2760, 24127.73
626.4420, 24118.78
627.6080, 24190.00
628.7730, 24190.00
629.9380, 24284.00
631.1030, 24394.00
632.2680, 24266.00
633.4330, 24549.00
634.5970, 24461.00
635.7620, 24524.00
636.9260, 24619.00
638.0900, 24646.00
639.2540, 24660.00
640.4180, 24584.00
641.5810, 24423.00
642.7450, 24493.00
643.9080, 24545.00
645.0710, 24507.00
646.2340, 24586.00
647.3970, 24619.00
648.5590, 24693.00
649.7220, 24808.00
650.8840, 24861.00
652.0460, 24891.00
653.2080, 24738.00
654.3700, 24718.00
655.5320, 25021.00
656.6930, 24758.00
657.8550, 25083.00
659.0160, 25126.00
660.1770, 25064.00
661.3380, 25045.00
662.4990, 25054.31
663.6590, 25110.00
664.8200, 25074.00
665.9800, 25154.00
667.1400, 25216.00
668.3000, 25407.00
669.4600, 25154.00
670.6190, 25482.00
671.7790, 25236.00
672.9380, 25266.00
674.0970, 25523.00
675.2560, 25508.00
676.4150, 25750.00
677.5740, 25970.00
678.7320, 25789.00
679.8900, 25840.00
681.0490, 25883.00
682.2070, 25822.00
683.3640, 26020.00
684.5220, 26173.00
685.6800, 26137.00
686.8370, 26099.00
687.9940, 26333.00
689.1510, 26406.00
690.3080, 26680.00
691.4650, 26745.00
692.6220, 26863.00
693.7780, 27325.00
694.9340, 27145.00
696.0900, 27613.00
697.2460, 27592.00
698.4020, 27796.00
699.5580, 27828.00
700.7130, 27952.00
701.8680, 28334.00
703.0240, 28421.00
704.1790, 28618.00
705.3330, 28526.00
706.4880, 28733.00
707.6430, 28373.00
708.7970, 28388.00
709.9510, 28209.00
711.1050, 27997.00
712.2590, 28055.00
713.4130, 27926.00
714.5660, 27989.00
715.7200, 27732.00
716.8730, 27634.00
718.0260, 27875.00
719.1790, 27728.00
720.3320, 27912.00
721.4840, 28148.00
722.6370, 28202.00
723.7890, 28286.00
724.9410, 28498.00
726.0930, 28520.00
727.2450, 28451.00
728.3960, 28511.00
729.5480, 28188.00
730.6990, 27960.00
731.8500, 28103.00
733.0010, 27638.00
734.1520, 27402.00
735.3030, 27239.00
736.4530, 27364.00
737.6040, 27274.00
738.7540, 27126.00
739.9040, 27165.00
741.0540, 27080.00
742.2030, 26942.00
743.3530, 27008.00
744.5020, 26982.00
745.6520, 26954.00
746.8010, 27075.00
747.9490, 26791.00
749.0980, 26900.00
750.2470, 27031.00
751.3950, 26943.55
752.5440, 27268.00
753.6920, 26938.00
754.8400, 27209.00
755.9870, 27100.00
757.1350, 27041.00
758.2820, 27242.00
759.4300, 27274.00
760.5770, 27208.00
761.7240, 27110.00
762.8710, 27156.00
764.0170, 27246.00
765.1640, 27164.00
766.3100, 27231.00
767.4560, 27390.00
768.6020, 27503.00
769.7480, 27421.00
770.8940, 27287.00
772.0400, 27267.00
773.1850, 27504.00
774.3300, 27675.00
775.4750, 27483.00
776.6200, 27513.00
777.7650, 27558.00
778.9090, 27647.00
780.0540, 27703.00
781.1980, 27590.00
782.3420, 27592.00
783.4860, 27603.00
784.6300, 27665.00
785.7740, 27679.30
786.9170, 27676.00
788.0600, 27740.00
789.2030, 27770.00
790.3460, 27773.00
791.4890, 27864.00
792.6320, 27988.00
793.7740, 27925.00
794.9170, 28039.00
796.0590, 28187.00
797.2010, 28113.00
798.3430, 28140.00
799.4850, 28018.00
800.6260, 27903.00
801.7670, 28192.00
802.9090, 28119.00
804.0500, 28453.00
805.1910, 28342.00
806.3310, 28399.00
807.4720, 28245.00
808.6120, 28308.00
809.7530, 28449.00
810.8930, 28293.00
812.0330, 28446.00
813.1720, 28545.00
814.3120, 28444.00
815.4510, 28587.00
816.5910, 28655.00
817.7300, 28372.00
818.8690, 28776.00
820.0080, 28632.00
821.1460, 28603.00
822.2850, 28791.00
823.4230, 28920.00
824.5610, 28724.00
825.6990, 28967.00
826.8370, 28833.00
827.9750, 29051.00
829.1120, 28913.00
830.2500, 29032.00
831.3870, 29223.00
832.5240, 29034.00
833.6610, 29129.00
834.7980, 29461.00
835.9340, 29233.00
837.0700, 29132.00
838.2070, 29038.00
839.3430, 29160.00
840.4790, 29371.00
841.6140, 29229.00
842.7500, 29212.00
843.8850, 29556.00
845.0210, 29316.00
846.1560, 29407.00
847.2910, 29427.00
848.4260, 29329.00
849.5600, 29306.00
850.6950, 29472.00
851.8290, 29616.00
852.9630, 29654.00
854.0970, 29626.00
855.2310, 29676.00
856.3650, 29694.00
857.4980, 29720.00
858.6310, 29696.98
859.7650, 29726.44
860.8980, 29747.00
862.0310, 29689.00
863.1630, 29973.00
864.2960, 29835.00
865.4280, 29837.00
866.5600, 30036.00
867.6920, 29910.00
868.8240, 29852.00
869.9560, 30054.00
871.0880, 30098.00
872.2190, 30055.00
873.3500, 30041.00
874.4810, 30077.55
875.6120, 30132.00
876.7430, 30092.00
877.8740, 30231.00
879.0040, 30157.00
880.1340, 30304.00
881.2650, 30471.00
882.3950, 30198.00
883.5240, 30309.00
884.6540, 30390.00
885.7830, 30599.00
886.9130, 30273.00
888.0420, 30406.00
889.1710, 30601.00
890.3000, 30387.00
891.4280, 30588.00
892.5570, 30447.00
893.6850, 30689.00
894.8130, 30584.00
895.9420, 30628.00
897.0690, 30420.00
898.1970, 30678.00
899.3250, 30508.00
900.4520, 30601.00
901.5790, 30698.00
902.7060, 30839.00
903.8330, 31002.00
904.9600, 30953.00
906.0870, 30814.00
907.2130, 30877.00
908.3390, 30979.00
909.4650, 31098.00
910.5910, 30849.00
911.7170, 31231.00
912.8430, 30906.00
913.9680, 31003.00
915.0930, 31004.00
916.2180, 31132.00
917.3430, 31112.26
918.4680, 31357.00
919.5930, 31156.00
920.7170, 31148.00
921.8420, 31295.00
922.9660, 31384.00
924.0900, 31466.00
925.2140, 31490.00
926.3370, 31379.00
927.4610, 31491.29
928.5840, 31370.00
929.7070, 31538.00
930.8310, 31636.00
931.9530, 31531.00
933.0760, 31742.00
934.1990, 31377.00
935.3210, 31662.00
936.4430, 32031.00
937.5650, 31972.00
938.6870, 31801.00
939.8090, 32081.00
940.9310, 32042.00
942.0520, 31893.00
943.1730, 32010.00
944.2940, 32126.00
945.4150, 32339.00
946.5360, 32264.00
947.6570, 32226.00
948.7770, 32452.00
949.8970, 32416.13
951.0180, 32313.00
952.1370, 32558.00
953.2570, 32669.00
954.3770, 32728.00
955.4960, 32805.00
956.6160, 33033.00
957.7350, 33268.00
958.8540, 33460.00
959.9730, 33728.00
961.0910, 33932.00
962.2100, 34255.00
963.3280, 34699.00
964.4460, 35223.00
965.5640, 35475.00
966.6820, 35743.00
967.8000, 36049.00
968.9180, 36081.00
970.0350, 35987.00
971.1520, 35451.00
972.2690, 35289.00
973.3860, 34817.00
974.5030, 34309.00
975.6190, 34059.00
976.7360, 33811.43
977.8520, 33903.00
978.9680, 33695.00
980.0840, 33528.00
981.2000, 33779.00
982.3160, 33808.00
983.4310, 33659.00
984.5460, 33997.00
985.6610, 34075.00
986.7760, 34268.00
987.8910, 34281.00
989.0060, 34232.00
990.1200, 34351.00
991.2350, 34428.07
992.3490, 34629.00
993.4630, 34671.00
994.5760, 34824.00
995.6900, 34891.00
996.8040, 34984.79
997.9170, 34990.00
999.0300, 35090.00
1000.143, 34932.00
1001.256, 34797.00
1002.369, 34911.00
1003.481, 34667.00
1004.594, 34534.00
1005.706, 34639.00
1006.818, 34842.00
1007.930, 34812.14
1009.042, 34941.00
1010.153, 34984.00
1011.264, 35116.00
1012.376, 35281.13
1013.487, 35064.00
1014.598, 35448.00
1015.708, 35402.00
1016.819, 35656.00
1017.929, 36135.00
1019.040, 36408.00
1020.150, 37313.00
1021.260, 37993.00
1022.370, 38786.00
1023.479, 39787.00
1024.589, 40562.00
1025.698, 41408.00
1026.807, 41680.00
1027.916, 41040.00
1029.025, 40207.00
1030.133, 39373.00
1031.242, 38454.00
1032.350, 37547.00
1033.458, 37134.00
1034.566, 36975.00
1035.674, 36800.00
1036.782, 36416.00
1037.890, 36311.00
1038.997, 36194.00
1040.104, 36181.00
1041.211, 36490.00
1042.318, 36568.00
1043.425, 36574.00
1044.531, 36597.00
1045.638, 36808.00
1046.744, 36984.00
1047.850, 37227.00
1048.956, 37222.00
1050.061, 37478.00
1051.167, 37361.00
1052.272, 37504.00
1053.378, 37377.00
1054.483, 37019.00
1055.588, 36809.00
1056.692, 36757.00
1057.797, 36887.00
1058.901, 36707.00
1060.006, 36799.00
1061.110, 36803.00
1062.214, 36679.00
1063.318, 36584.00
1064.421, 37030.00
1065.525, 37200.00
1066.628, 36916.00
1067.731, 37368.00
1068.834, 37384.00
1069.937, 37633.00
1071.040, 37679.00
1072.142, 37483.00
1073.244, 37634.00
1074.347, 37349.00
1075.449, 37580.00
1076.550, 37360.00
1077.652, 37245.00
1078.754, 37189.00
1079.855, 37138.75
1080.956, 37139.67
1082.057, 37238.00
1083.158, 37291.00
1084.259, 37493.00
1085.359, 37779.00
1086.460, 37908.00
1087.560, 37859.00
1088.660, 38165.00
1089.760, 38140.00
1090.860, 38267.00
1091.959, 38065.00
1093.059, 38223.00
1094.158, 38018.00
1095.257, 38053.00
1096.356, 37740.00
1097.455, 37405.00
1098.553, 37309.00
1099.652, 37459.00
1100.750, 37286.00
1101.848, 37291.00
1102.946, 37119.00
1104.044, 37144.00
1105.141, 37191.00
1106.239, 37113.00
1107.336, 37158.90
1108.433, 37077.00
1109.530, 37192.00
1110.627, 37044.00
1111.724, 37089.00
1112.820, 36943.00
1113.917, 37266.00
1115.013, 37254.00
1116.109, 37292.00
1117.205, 37361.00
1118.300, 37371.00
1119.396, 37464.00
1120.491, 37378.00
1121.586, 37600.00
1122.681, 37427.00
1123.776, 37411.00
1124.871, 37521.00
1125.965, 37330.00
1127.060, 37635.00
1128.154, 37531.00
1129.248, 37587.00
1130.342, 37384.00
1131.436, 37334.00
1132.529, 37394.45
1133.623, 37776.00
1134.716, 37443.00
1135.809, 37723.00
1136.902, 37595.00
1137.995, 37707.00
1139.087, 37581.00
1140.180, 37630.00
1141.272, 37593.00
1142.364, 37677.00
1143.456, 37668.00
1144.548, 37726.00
1145.639, 37829.00
1146.731, 37916.00
1147.822, 37945.00
1148.913, 37916.00
1150.004, 37786.00
1151.095, 37933.00
1152.186, 37919.00
1153.276, 38051.00
1154.366, 37909.00
1155.457, 38280.00
1156.546, 38318.00
1157.636, 38056.00
1158.726, 37859.00
1159.815, 38061.00
1160.905, 38187.00
1161.994, 38184.00
1163.083, 38444.00
1164.172, 38142.00
1165.261, 38262.00
1166.349, 38468.00
1167.437, 38615.00
1168.526, 38244.00
1169.614, 38325.00
1170.702, 38201.00
1171.789, 38107.00
1172.877, 38496.00
1173.964, 38553.00
1175.051, 38429.00
1176.138, 38378.00
1177.225, 38447.56
1178.312, 38533.00
1179.399, 38598.00
1180.485, 38716.00
1181.571, 38858.00
1182.657, 38878.00
1183.743, 38854.00
1184.829, 38747.00
1185.915, 38834.00
1187.000, 38802.14
1188.085, 38826.00
1189.171, 38872.00
1190.255, 39081.00
1191.340, 39188.00
1192.425, 39068.00
1193.509, 39024.00
1194.594, 39113.00
1195.678, 39152.00
1196.762, 39046.00
1197.846, 39216.00
1198.929, 39323.00
1200.013, 39230.00
1201.096, 39480.00
1202.179, 39312.00
1203.262, 39461.00
1204.345, 39607.00
1205.428, 39169.00
1206.510, 39565.00
1207.593, 39643.00
1208.675, 39378.00
1209.757, 39638.00
1210.839, 39501.00
1211.920, 39812.00
1213.002, 39432.00
1214.083, 39818.00
1215.164, 39614.00
1216.245, 40071.00
1217.326, 39793.00
1218.407, 39758.00
1219.488, 40137.00
1220.568, 39875.00
1221.648, 39701.00
1222.728, 39954.00
1223.808, 39936.00
1224.888, 40141.00
1225.967, 40022.00
1227.047, 40172.00
1228.126, 40260.00
1229.205, 40217.00
1230.284, 40000.00
1231.363, 40352.00
1232.441, 40443.00
1233.520, 40449.00
1234.598, 40090.00
1235.676, 40213.00
1236.754, 40524.00
1237.832, 40334.00
1238.910, 40520.00
1239.987, 40617.00
1241.064, 40587.00
1242.141, 40672.71
1243.218, 40598.00
1244.295, 40675.00
1245.372, 40643.00
1246.448, 40613.00
1247.525, 40569.00
1248.601, 40849.00
1249.677, 40795.00
1250.753, 40883.00
1251.828, 41030.00
1252.904, 40953.00
1253.979, 40896.00
1255.054, 40755.00
1256.129, 40765.00
1257.204, 40802.54
1258.279, 41062.00
1259.353, 40974.00
1260.428, 41028.00
1261.502, 41101.00
1262.576, 41028.00
1263.650, 40994.00
1264.724, 41435.00
1265.797, 41245.00
1266.871, 41410.00
1267.944, 41281.00
1269.017, 41656.00
1270.090, 41363.00
1271.162, 41436.00
1272.235, 41458.00
1273.307, 41752.00
1274.380, 41721.11
1275.452, 41719.00
1276.524, 41845.00
