##NAMES=Natrolite
##RRUFFID=R060561
##IDEAL CHEMISTRY=Na_2_(Si_3_Al_2_)O_10_&#183;2H_2_O
##LOCALITY=California, USA
##OWNER=RRUFF
##SOURCE=Gemological Institute of America
##DESCRIPTION=White fragment
##STATUS=The identification of this mineral has been confirmed by X-ray diffraction and chemical analysis
##URL=rruff.info/R060561
##MEASURED CHEMISTRY=Na_2.00_(Si_3.00_Al_2.00_)O_10_Â·2H_2_O
##PIN_ID=L00681
##ORIENTATION=Laser parallel to a* (1 0 0). Fiducial mark perpendicular to laser is parallel to -b [0 -1 0]
94.64800, 900.0000
95.88300, 959.0000
97.11800, 1014.000
98.35200, 1092.000
99.58700, 1241.000
100.8210, 1383.000
102.0550, 1517.000
103.2890, 1802.000
104.5220, 2105.000
105.7560, 3220.000
106.9890, 3064.000
108.2230, 3326.000
109.4560, 3802.000
110.6890, 4634.000
111.9210, 5533.000
113.1540, 6535.000
114.3870, 7593.000
115.6190, 8338.000
116.8510, 8582.000
118.0830, 9073.000
119.3150, 10474.00
120.5470, 12047.00
121.7780, 13939.00
123.0100, 15238.00
124.2410, 15104.00
125.4720, 14010.00
126.7030, 12702.00
127.9340, 11924.00
129.1640, 11746.00
130.3950, 11717.00
131.6250, 11873.00
132.8550, 12690.00
134.0850, 13833.00
135.3150, 14941.00
136.5450, 16134.00
137.7750, 16900.00
139.0040, 17382.00
140.2330, 18331.00
141.4620, 19616.00
142.6910, 21150.00
143.9200, 22691.00
145.1490, 23728.00
146.3770, 24326.00
147.6060, 23866.00
148.8340, 22604.00
150.0620, 21580.00
151.2900, 20488.00
152.5170, 20286.00
153.7450, 20892.00
154.9720, 22030.00
156.2000, 23465.00
157.4270, 24703.00
158.6540, 26792.00
159.8810, 29260.00
161.1070, 32271.00
162.3340, 35420.00
163.5600, 38493.00
164.7860, 40098.00
166.0120, 39701.00
167.2380, 37700.00
168.4640, 34323.00
169.6890, 30762.00
170.9150, 28021.00
172.1400, 26158.00
173.3650, 24831.00
174.5900, 23767.00
175.8150, 22969.00
177.0400, 21437.00
178.2640, 20316.00
179.4880, 19510.00
180.7130, 19100.00
181.9370, 18872.00
183.1600, 19005.00
184.3840, 19381.00
185.6080, 19961.00
186.8310, 19894.00
188.0540, 19854.00
189.2770, 19179.00
190.5000, 18214.00
191.7230, 17559.00
192.9460, 16609.00
194.1680, 16169.00
195.3910, 16125.00
196.6130, 16461.00
197.8350, 16855.00
199.0570, 17275.00
200.2780, 17995.00
201.5000, 18752.00
202.7210, 19292.00
203.9420, 19843.00
205.1640, 20478.00
206.3840, 21157.00
207.6050, 22053.00
208.8260, 22373.00
210.0460, 22103.00
211.2670, 21197.00
212.4870, 20065.00
213.7070, 18941.00
214.9270, 17892.00
216.1460, 16865.00
217.3660, 16288.00
218.5850, 15667.00
219.8050, 15201.00
221.0240, 14557.00
222.2430, 14263.00
223.4610, 13793.00
224.6800, 13383.00
225.8980, 13104.00
227.1170, 12674.00
228.3350, 12638.00
229.5530, 12240.00
230.7710, 12618.00
231.9880, 12800.00
233.2060, 13143.00
234.4230, 13349.00
235.6400, 13613.00
236.8570, 13859.00
238.0740, 14312.00
239.2910, 14782.00
240.5080, 15494.00
241.7240, 16008.00
242.9400, 16226.00
244.1570, 15528.00
245.3730, 14770.00
246.5880, 13857.00
247.8040, 12928.00
249.0190, 12603.00
250.2350, 12258.00
251.4500, 11888.00
252.6650, 11840.00
253.8800, 11942.00
255.0950, 11864.00
256.3090, 11821.00
257.5240, 11867.00
258.7380, 12093.00
259.9520, 12140.00
261.1660, 12521.00
262.3800, 12675.00
263.5930, 12850.00
264.8070, 13099.00
266.0200, 13178.00
267.2330, 13634.00
268.4460, 13935.00
269.6590, 14118.00
270.8720, 14330.00
272.0850, 14522.00
273.2970, 14448.00
274.5090, 14309.00
275.7210, 14249.00
276.9330, 13936.00
278.1450, 13626.00
279.3570, 13413.00
280.5680, 13027.00
281.7790, 12732.00
282.9910, 12505.00
284.2020, 12634.00
285.4120, 12506.00
286.6230, 12606.00
287.8340, 12679.00
289.0440, 12859.00
290.2540, 12995.00
291.4640, 12886.00
292.6740, 12862.00
293.8840, 13078.00
295.0940, 13424.00
296.3030, 13664.00
297.5120, 14323.00
298.7210, 14803.12
299.9300, 15255.65
301.1390, 15741.77
302.3480, 16265.30
303.5560, 16612.00
304.7650, 17562.00
305.9730, 18231.00
307.1810, 18600.00
308.3890, 18118.00
309.5970, 16850.00
310.8040, 15899.00
312.0120, 14640.00
313.2190, 13892.00
314.4260, 13264.00
315.6330, 13003.00
316.8400, 12693.00
318.0460, 12730.00
319.2530, 12706.00
320.4590, 12765.00
321.6650, 12935.00
322.8710, 13016.00
324.0770, 13213.00
325.2830, 13325.00
326.4880, 13323.00
327.6940, 13488.00
328.8990, 13666.00
330.1040, 13766.00
331.3090, 14259.00
332.5140, 14145.00
333.7180, 14019.00
334.9230, 13845.00
336.1270, 13544.00
337.3310, 13386.00
338.5350, 13358.00
339.7390, 13264.00
340.9430, 13172.00
342.1460, 13185.00
343.3500, 13075.00
344.5530, 13078.00
345.7560, 13349.00
346.9590, 13497.00
348.1620, 13583.00
349.3640, 13739.00
350.5670, 14153.00
351.7690, 14428.00
352.9710, 14653.00
354.1730, 14945.00
355.3750, 15055.00
356.5760, 15562.00
357.7780, 15856.00
358.9790, 15879.00
360.1800, 16148.00
361.3810, 16067.00
362.5820, 15755.00
363.7830, 15517.00
364.9830, 14975.00
366.1840, 14574.00
367.3840, 14077.00
368.5840, 13938.00
369.7840, 13554.00
370.9840, 13269.00
372.1830, 13126.00
373.3830, 13153.00
374.5820, 12921.00
375.7810, 12996.00
376.9800, 13061.00
378.1790, 12872.00
379.3780, 12739.00
380.5760, 12951.00
381.7750, 12922.00
382.9730, 12849.00
384.1710, 12941.00
385.3690, 12887.00
386.5660, 12837.00
387.7640, 12949.00
388.9610, 13039.00
390.1590, 12958.00
391.3560, 13037.00
392.5530, 13070.00
393.7500, 13002.00
394.9460, 13086.00
396.1430, 13134.00
397.3390, 13255.00
398.5350, 13402.00
399.7310, 13444.00
400.9270, 13478.00
402.1230, 13664.00
403.3180, 13754.00
404.5140, 13968.00
405.7090, 14081.00
406.9040, 14095.00
408.0990, 14430.00
409.2930, 14622.00
410.4880, 14861.00
411.6820, 15083.00
412.8770, 15296.00
414.0710, 15235.00
415.2650, 15237.00
416.4590, 15461.00
417.6520, 15425.00
418.8460, 15694.00
420.0390, 16163.00
421.2320, 16597.00
422.4250, 17137.00
423.6180, 17871.00
424.8110, 18659.00
426.0030, 19979.00
427.1960, 21299.00
428.3880, 22639.00
429.5800, 23977.00
430.7720, 25699.00
431.9640, 27568.00
433.1550, 29377.00
434.3470, 30943.00
435.5380, 32411.00
436.7290, 33525.00
437.9200, 34031.00
439.1110, 34362.00
440.3020, 34752.00
441.4920, 35150.00
442.6820, 35348.00
443.8730, 36037.00
445.0630, 36766.00
446.2530, 37417.00
447.4420, 37424.00
448.6320, 36263.00
449.8210, 33830.00
451.0100, 30719.00
452.2000, 27412.00
453.3880, 24377.00
454.5770, 21980.00
455.7660, 20059.00
456.9540, 18576.00
458.1430, 17580.00
459.3310, 16964.00
460.5190, 16679.00
461.7070, 16044.00
462.8940, 15891.00
464.0820, 15732.00
465.2690, 15726.00
466.4560, 15418.00
467.6430, 15441.00
468.8300, 15519.00
470.0170, 15516.00
471.2040, 15580.00
472.3900, 15505.00
473.5760, 15709.00
474.7620, 15705.00
475.9480, 16003.00
477.1340, 16012.00
478.3200, 16265.00
479.5050, 16270.00
480.6900, 16779.00
481.8750, 16943.00
483.0600, 17298.00
484.2450, 17743.00
485.4300, 18201.00
486.6140, 18717.00
487.7990, 19080.00
488.9830, 19552.00
490.1670, 19893.00
491.3510, 20441.00
492.5350, 20658.00
493.7180, 20997.00
494.9020, 21463.00
496.0850, 21031.00
497.2680, 20727.00
498.4510, 20306.00
499.6340, 20350.00
500.8160, 19957.00
501.9990, 19883.00
503.1810, 19806.00
504.3630, 19521.00
505.5450, 19310.00
506.7270, 19370.00
507.9090, 19507.00
509.0900, 19715.00
510.2720, 20038.00
511.4530, 20083.00
512.6340, 20409.00
513.8150, 20748.00
514.9950, 21189.00
516.1760, 21790.00
517.3560, 22495.00
518.5370, 23206.00
519.7170, 24234.00
520.8970, 25566.00
522.0770, 27112.00
523.2560, 29379.00
524.4360, 31993.00
525.6150, 35461.00
526.7940, 38797.00
527.9730, 42254.00
529.1520, 46173.00
530.3310, 50275.00
531.5090, 54752.00
532.6870, 57937.00
533.8660, 59686.00
535.0440, 57927.00
536.2210, 53909.00
537.3990, 48104.00
538.5770, 41403.00
539.7540, 36198.00
540.9310, 31682.00
542.1080, 28042.00
543.2850, 25837.00
544.4620, 23987.00
545.6390, 22463.00
546.8150, 21521.00
547.9920, 20683.00
549.1680, 19972.00
550.3440, 19266.00
551.5190, 18860.00
552.6950, 18700.00
553.8710, 18165.00
555.0460, 17927.00
556.2210, 17687.00
557.3960, 17286.00
558.5710, 17259.00
559.7460, 17360.00
560.9200, 17073.00
562.0950, 16909.00
563.2690, 17030.00
564.4430, 16697.00
565.6170, 16698.00
566.7910, 16744.00
567.9640, 16737.00
569.1380, 16665.00
570.3110, 16526.00
571.4840, 16679.00
572.6570, 16755.00
573.8300, 16683.00
575.0030, 16577.00
576.1750, 16516.00
577.3470, 16707.00
578.5200, 16646.00
579.6920, 16567.00
580.8630, 16656.00
582.0350, 16735.00
583.2070, 16612.71
584.3780, 16732.51
585.5490, 16811.30
586.7200, 16851.20
587.8910, 16739.59
589.0620, 16820.68
590.2330, 16822.75
591.4030, 16820.33
592.5730, 16924.86
593.7430, 16828.68
594.9130, 16928.93
596.0830, 16948.98
597.2530, 17003.87
598.4220, 16979.25
599.5920, 16977.52
600.7610, 17052.74
601.9300, 17083.37
603.0990, 17044.63
604.2670, 17198.00
605.4360, 16902.00
606.6040, 16893.00
607.7720, 16813.00
608.9400, 16726.00
610.1080, 16644.00
611.2760, 16654.00
612.4440, 16818.00
613.6110, 16593.00
614.7780, 16715.00
615.9450, 16651.00
617.1120, 16628.00
618.2790, 16644.00
619.4460, 16388.00
620.6120, 16609.00
621.7780, 16558.00
622.9450, 16692.00
624.1110, 16762.00
625.2760, 16651.00
626.4420, 16739.00
627.6080, 16622.00
628.7730, 16680.00
629.9380, 16646.00
631.1030, 16768.00
632.2680, 16774.00
633.4330, 16708.00
634.5970, 16739.00
635.7620, 16806.00
636.9260, 16753.00
638.0900, 16883.00
639.2540, 16882.00
640.4180, 16607.00
641.5810, 16821.00
642.7450, 16876.00
643.9080, 16671.00
645.0710, 16904.00
646.2340, 16807.00
647.3970, 16898.00
648.5590, 16870.00
649.7220, 16833.00
650.8840, 16942.00
652.0460, 16966.00
653.2080, 17037.00
654.3700, 16934.00
655.5320, 17052.00
656.6930, 16917.00
657.8550, 17129.00
659.0160, 17027.00
660.1770, 17280.00
661.3380, 17294.00
662.4990, 17222.00
663.6590, 17341.00
664.8200, 17232.00
665.9800, 17389.00
667.1400, 17327.00
668.3000, 17285.00
669.4600, 17392.00
670.6190, 17401.00
671.7790, 17513.00
672.9380, 17295.00
674.0970, 17550.00
675.2560, 17539.00
676.4150, 17664.00
677.5740, 17669.00
678.7320, 17686.00
679.8900, 17646.00
681.0490, 17934.00
682.2070, 18001.00
683.3640, 17969.00
684.5220, 17996.00
685.6800, 18167.00
686.8370, 18371.00
687.9940, 18532.00
689.1510, 18776.00
690.3080, 18800.00
691.4650, 19191.00
692.6220, 19160.00
693.7780, 19532.00
694.9340, 19730.00
696.0900, 19985.00
697.2460, 20150.00
698.4020, 20561.00
699.5580, 20760.00
700.7130, 20907.00
701.8680, 21292.00
703.0240, 21260.00
704.1790, 21408.00
705.3330, 21482.00
706.4880, 21309.00
707.6430, 21106.00
708.7970, 21165.00
709.9510, 20944.00
711.1050, 20689.00
712.2590, 20357.00
713.4130, 20401.00
714.5660, 20300.00
715.7200, 19995.00
716.8730, 20377.00
718.0260, 20174.00
719.1790, 20221.00
720.3320, 20271.00
721.4840, 20732.00
722.6370, 20764.00
723.7890, 20801.00
724.9410, 20805.00
726.0930, 20950.00
727.2450, 20752.00
728.3960, 20658.00
729.5480, 20440.00
730.6990, 20483.00
731.8500, 20008.00
733.0010, 19817.00
734.1520, 19485.00
735.3030, 19393.00
736.4530, 19166.00
737.6040, 18793.00
738.7540, 18626.00
739.9040, 18568.00
741.0540, 18516.00
742.2030, 18391.00
743.3530, 18391.00
744.5020, 18238.00
745.6520, 18197.00
746.8010, 18183.00
747.9490, 18081.00
749.0980, 18215.00
750.2470, 18088.00
751.3950, 18205.00
752.5440, 18173.00
753.6920, 17947.22
754.8400, 18119.25
755.9870, 18219.74
757.1350, 18252.56
758.2820, 18014.96
759.4300, 18126.54
760.5770, 18098.18
761.7240, 18064.09
762.8710, 18224.81
764.0170, 18026.53
765.1640, 18184.16
766.3100, 18199.71
767.4560, 18280.29
768.6020, 18369.00
769.7480, 18349.00
770.8940, 18165.00
772.0400, 18348.00
773.1850, 18243.00
774.3300, 18340.00
775.4750, 18352.00
776.6200, 18217.00
777.7650, 18287.00
778.9090, 18289.00
780.0540, 18480.00
781.1980, 18436.00
782.3420, 18357.00
783.4860, 18532.00
784.6300, 18488.00
785.7740, 18622.00
786.9170, 18586.00
788.0600, 18555.00
789.2030, 18599.00
790.3460, 18506.00
791.4890, 18701.00
792.6320, 18676.00
793.7740, 18538.00
794.9170, 18741.00
796.0590, 18521.00
797.2010, 18770.00
798.3430, 18707.00
799.4850, 18762.00
800.6260, 18766.00
801.7670, 18825.00
802.9090, 18800.00
804.0500, 18931.00
805.1910, 18752.00
806.3310, 18944.00
807.4720, 18931.00
808.6120, 18828.00
809.7530, 18989.00
810.8930, 18827.00
812.0330, 19009.00
813.1720, 19010.00
814.3120, 19096.00
815.4510, 19172.00
816.5910, 19103.00
817.7300, 19101.00
818.8690, 19273.00
820.0080, 19085.00
821.1460, 19186.00
822.2850, 19204.00
823.4230, 19201.00
824.5610, 19276.00
825.6990, 19314.00
826.8370, 19275.00
827.9750, 19522.00
829.1120, 19223.00
830.2500, 19262.00
831.3870, 19462.00
832.5240, 19241.00
833.6610, 19430.00
834.7980, 19537.00
835.9340, 19510.00
837.0700, 19471.00
838.2070, 19461.00
839.3430, 19798.00
840.4790, 19459.00
841.6140, 19510.00
842.7500, 19630.00
843.8850, 19620.00
845.0210, 19421.00
846.1560, 19717.00
847.2910, 19630.00
848.4260, 19748.00
849.5600, 19803.00
850.6950, 19618.00
851.8290, 19590.00
852.9630, 19877.00
854.0970, 19875.00
855.2310, 19690.00
856.3650, 19950.00
857.4980, 19836.00
858.6310, 19887.00
859.7650, 19887.00
860.8980, 19714.00
862.0310, 20065.00
863.1630, 19846.00
864.2960, 19925.00
865.4280, 20195.00
866.5600, 20148.00
867.6920, 19997.00
868.8240, 20037.00
869.9560, 20038.00
871.0880, 20084.00
872.2190, 19931.00
873.3500, 20263.00
874.4810, 20351.00
875.6120, 20174.00
876.7430, 20088.00
877.8740, 20315.00
879.0040, 20307.00
880.1340, 19965.00
881.2650, 20219.00
882.3950, 20039.00
883.5240, 20181.00
884.6540, 20256.00
885.7830, 20259.00
886.9130, 20371.00
888.0420, 20145.00
889.1710, 20317.00
890.3000, 20156.00
891.4280, 20373.00
892.5570, 20286.00
893.6850, 20411.00
894.8130, 20537.00
895.9420, 20459.00
897.0690, 20310.00
898.1970, 20448.00
899.3250, 20438.00
900.4520, 20520.00
901.5790, 20411.00
902.7060, 20564.00
903.8330, 20648.00
904.9600, 20570.00
906.0870, 20475.00
907.2130, 20706.00
908.3390, 20538.00
909.4650, 20477.00
910.5910, 20684.00
911.7170, 20696.00
912.8430, 20785.00
913.9680, 20538.00
915.0930, 20725.00
916.2180, 20824.00
917.3430, 20611.00
918.4680, 20740.00
919.5930, 20922.00
920.7170, 20955.00
921.8420, 20761.00
922.9660, 21118.00
924.0900, 20879.00
925.2140, 21109.00
926.3370, 20940.00
927.4610, 20879.00
928.5840, 20949.00
929.7070, 21049.00
930.8310, 21027.00
931.9530, 20810.00
933.0760, 21104.00
934.1990, 21164.00
935.3210, 21223.00
936.4430, 21378.00
937.5650, 21228.00
938.6870, 21167.00
939.8090, 21265.00
940.9310, 21486.00
942.0520, 21245.00
943.1730, 21581.00
944.2940, 21412.00
945.4150, 21735.00
946.5360, 21701.00
947.6570, 21743.00
948.7770, 21706.00
949.8970, 21632.00
951.0180, 21862.00
952.1370, 21992.00
953.2570, 22120.00
954.3770, 22292.00
955.4960, 22414.00
956.6160, 22675.00
957.7350, 22867.00
958.8540, 23208.00
959.9730, 23667.00
961.0910, 24940.00
962.2100, 24553.00
963.3280, 24848.00
964.4460, 25470.00
965.5640, 26047.00
966.6820, 26367.00
967.8000, 26797.00
968.9180, 26841.00
970.0350, 26838.00
971.1520, 27047.00
972.2690, 25407.00
973.3860, 24859.00
974.5030, 24240.00
975.6190, 23928.00
976.7360, 23491.00
977.8520, 23325.00
978.9680, 23155.00
980.0840, 23119.00
981.2000, 22914.00
982.3160, 23111.00
983.4310, 23220.00
984.5460, 23171.00
985.6610, 23314.00
986.7760, 23466.00
987.8910, 23708.00
989.0060, 23928.00
990.1200, 23963.00
991.2350, 24099.00
992.3490, 24147.00
993.4630, 24300.00
994.5760, 24346.00
995.6900, 24453.00
996.8040, 24604.00
997.9170, 24452.00
999.0300, 24485.00
1000.143, 24256.00
1001.256, 24365.00
1002.369, 23916.00
1003.481, 23919.00
1004.594, 23819.00
1005.706, 24104.00
1006.818, 23958.00
1007.930, 24143.00
1009.042, 24360.00
1010.153, 24142.00
1011.264, 24243.00
1012.376, 24479.00
1013.487, 24526.00
1014.598, 24765.00
1015.708, 25031.00
1016.819, 25640.00
1017.929, 26172.00
1019.040, 27040.00
1020.150, 27943.00
1021.260, 29590.00
1022.370, 30789.00
1023.479, 32405.00
1024.589, 33672.00
1025.698, 34653.00
1026.807, 35001.00
1027.916, 34332.00
1029.025, 32566.00
1030.133, 30979.00
1031.242, 29594.00
1032.350, 28163.00
1033.458, 27542.00
1034.566, 26468.00
1035.674, 26132.00
1036.782, 26065.00
1037.890, 25723.00
1038.997, 25804.00
1040.104, 25501.00
1041.211, 25698.00
1042.318, 25754.00
1043.425, 25904.00
1044.531, 26202.00
1045.638, 26029.00
1046.744, 26375.00
1047.850, 26627.00
1048.956, 26943.00
1050.061, 26776.00
1051.167, 27153.00
1052.272, 27342.00
1053.378, 26978.00
1054.483, 26621.00
1055.588, 26414.00
1056.692, 26403.00
1057.797, 26001.00
1058.901, 25940.00
1060.006, 25793.00
1061.110, 25797.00
1062.214, 25671.00
1063.318, 25751.00
1064.421, 25869.00
1065.525, 26054.00
1066.628, 26220.00
1067.731, 26260.00
1068.834, 26746.00
1069.937, 26929.00
1071.040, 26838.00
1072.142, 26868.00
1073.244, 26899.00
1074.347, 26665.00
1075.449, 26592.00
1076.550, 26571.00
1077.652, 26474.00
1078.754, 26323.00
1079.855, 26421.00
1080.956, 26449.00
1082.057, 26580.00
1083.158, 26727.00
1084.259, 26662.00
1085.359, 26970.00
1086.460, 27353.00
1087.560, 27553.00
1088.660, 27631.00
1089.760, 27801.00
1090.860, 27981.00
1091.959, 27967.00
1093.059, 27791.00
1094.158, 27777.00
1095.257, 27236.00
1096.356, 26796.00
1097.455, 26180.00
1098.553, 25863.00
1099.652, 25550.00
1100.750, 25491.00
1101.848, 25318.00
1102.946, 25250.00
1104.044, 25233.00
1105.141, 24972.00
1106.239, 24894.00
1107.336, 24841.00
1108.433, 24945.00
1109.530, 24639.00
1110.627, 24853.00
1111.724, 24978.00
1112.820, 24987.00
1113.917, 24781.00
1115.013, 24787.00
1116.109, 24862.00
1117.205, 24803.00
1118.300, 24885.00
1119.396, 25081.00
1120.491, 25036.00
1121.586, 24992.00
1122.681, 25090.00
1123.776, 24817.00
1124.871, 24868.00
1125.965, 25000.00
1127.060, 25113.00
1128.154, 25038.00
1129.248, 24845.00
1130.342, 24896.00
1131.436, 24806.00
1132.529, 24895.00
1133.623, 24804.00
1134.716, 24697.00
1135.809, 24783.00
1136.902, 24714.00
1137.995, 24783.00
1139.087, 25055.00
1140.180, 24623.00
1141.272, 24904.00
1142.364, 24877.00
1143.456, 24726.00
1144.548, 24945.00
1145.639, 24814.00
1146.731, 24922.00
1147.822, 24912.00
1148.913, 24677.00
1150.004, 24735.00
1151.095, 24761.00
1152.186, 24777.00
1153.276, 24925.00
1154.366, 24880.00
1155.457, 24858.00
1156.546, 25137.00
1157.636, 24871.00
1158.726, 25104.00
1159.815, 25002.00
1160.905, 24981.00
1161.994, 25101.00
1163.083, 24926.00
1164.172, 24851.00
1165.261, 25033.00
1166.349, 25193.00
1167.437, 25166.00
1168.526, 25127.00
1169.614, 25221.00
1170.702, 25125.00
1171.789, 25123.00
1172.877, 24946.00
1173.964, 25123.00
1175.051, 25278.00
1176.138, 25181.00
1177.225, 25262.00
1178.312, 25120.00
1179.399, 25267.00
1180.485, 25456.00
1181.571, 25305.00
1182.657, 25245.00
1183.743, 25482.00
1184.829, 25267.00
1185.915, 25361.00
1187.000, 25483.00
1188.085, 25401.00
1189.171, 25384.00
1190.255, 25423.00
1191.340, 25479.00
1192.425, 25503.00
1193.509, 25570.00
1194.594, 25421.00
1195.678, 25319.00
1196.762, 25741.00
1197.846, 25630.00
1198.929, 25555.00
1200.013, 25770.00
1201.096, 25757.00
1202.179, 25656.00
1203.262, 25965.00
1204.345, 25736.00
1205.428, 25738.00
1206.510, 25931.00
1207.593, 25641.00
1208.675, 26064.00
1209.757, 25766.00
1210.839, 25726.00
1211.920, 25868.00
1213.002, 25815.00
1214.083, 25975.00
1215.164, 25810.00
1216.245, 26018.00
1217.326, 25918.00
1218.407, 25975.00
1219.488, 25882.00
1220.568, 26080.00
1221.648, 26097.00
1222.728, 25969.00
1223.808, 25997.00
1224.888, 26138.00
1225.967, 25887.00
1227.047, 25950.00
1228.126, 26028.00
1229.205, 26253.00
1230.284, 26322.00
1231.363, 26147.00
1232.441, 26146.00
1233.520, 26225.00
1234.598, 26417.00
1235.676, 26186.00
1236.754, 26209.00
1237.832, 26358.00
1238.910, 26070.00
1239.987, 26238.00
1241.064, 26337.00
1242.141, 26228.00
1243.218, 26458.00
1244.295, 26465.00
1245.372, 26505.00
1246.448, 26280.00
1247.525, 26125.00
1248.601, 26678.00
1249.677, 26452.00
1250.753, 26457.00
1251.828, 26361.00
1252.904, 26594.00
1253.979, 26396.42
1255.054, 26535.21
1256.129, 26614.39
1257.204, 26637.17
1258.279, 26434.61
1259.353, 26523.03
1260.428, 26494.84
1261.502, 26461.87
1262.576, 26591.24
1263.650, 26662.00
1264.724, 26811.00
1265.797, 26505.00
1266.871, 26784.00
1267.944, 26850.00
1269.017, 26688.00
1270.090, 26744.00
1271.162, 26769.00
1272.235, 26920.00
1273.307, 26739.00
1274.380, 26793.00
1275.452, 26981.00
1276.524, 26918.00
