##NAMES=Natrolite
##RRUFFID=R060561
##IDEAL CHEMISTRY=Na_2_(Si_3_Al_2_)O_10_&#183;2H_2_O
##LOCALITY=California, USA
##OWNER=RRUFF
##SOURCE=Gemological Institute of America
##DESCRIPTION=White fragment
##STATUS=The identification of this mineral has been confirmed by X-ray diffraction and chemical analysis
##URL=rruff.info/R060561
##MEASURED CHEMISTRY=Na_2.00_(Si_3.00_Al_2.00_)O_10_Â·2H_2_O
##PIN_ID=L00568
##ORIENTATION=Laser parallel to b* (0 1 0). Fiducial mark perpendicular to laser is parallel to c [0 0 1]
105.7560, 10717.00
106.9890, 21058.00
108.2230, 30740.00
109.4560, 22018.00
110.6890, 13487.00
111.9210, 12975.00
113.1540, 14893.00
114.3870, 16177.00
115.6190, 15943.00
116.8510, 15015.00
118.0830, 15778.00
119.3150, 18234.00
120.5470, 22569.00
121.7780, 28059.00
123.0100, 30173.00
124.2410, 27007.00
125.4720, 22064.00
126.7030, 18804.00
127.9340, 17000.00
129.1640, 16448.00
130.3950, 16682.00
131.6250, 17182.00
132.8550, 17997.00
134.0850, 18757.00
135.3150, 19513.00
136.5450, 20606.00
137.7750, 21367.00
139.0040, 22186.00
140.2330, 23471.00
141.4620, 24449.00
142.6910, 24792.00
143.9200, 24420.00
145.1490, 23820.00
146.3770, 22225.00
147.6060, 20711.00
148.8340, 19492.00
150.0620, 19005.00
151.2900, 19112.00
152.5170, 19502.00
153.7450, 20189.00
154.9720, 21125.00
156.2000, 21892.00
157.4270, 22720.00
158.6540, 24056.00
159.8810, 25541.00
161.1070, 26754.00
162.3340, 27724.00
163.5600, 28054.00
164.7860, 26812.00
166.0120, 25768.00
167.2380, 23753.00
168.4640, 22152.00
169.6890, 20583.00
170.9150, 19680.00
172.1400, 18842.00
173.3650, 18248.00
174.5900, 18008.00
175.8150, 18085.00
177.0400, 17712.00
178.2640, 17540.00
179.4880, 17565.00
180.7130, 17494.00
181.9370, 17981.00
183.1600, 18398.00
184.3840, 18847.00
185.6080, 18796.00
186.8310, 18294.00
188.0540, 17857.00
189.2770, 17448.00
190.5000, 17477.00
191.7230, 17380.00
192.9460, 17602.00
194.1680, 17885.00
195.3910, 18444.00
196.6130, 19413.00
197.8350, 19835.00
199.0570, 20224.00
200.2780, 20627.00
201.5000, 21117.00
202.7210, 21567.00
203.9420, 21975.00
205.1640, 22340.00
206.3840, 23165.00
207.6050, 23496.00
208.8260, 23449.00
210.0460, 22727.00
211.2670, 22059.00
212.4870, 21211.00
213.7070, 20501.00
214.9270, 19828.00
216.1460, 19657.00
217.3660, 19605.00
218.5850, 19385.00
219.8050, 18816.00
221.0240, 18264.00
222.2430, 17492.00
223.4610, 17161.00
224.6800, 16597.00
225.8980, 16408.00
227.1170, 16212.00
228.3350, 16091.00
229.5530, 16246.00
230.7710, 16705.00
231.9880, 17036.00
233.2060, 17403.00
234.4230, 17644.00
235.6400, 17931.00
236.8570, 18108.00
238.0740, 18703.00
239.2910, 19379.00
240.5080, 20135.00
241.7240, 20096.00
242.9400, 20034.00
244.1570, 19182.00
245.3730, 18275.00
246.5880, 17193.00
247.8040, 16509.00
249.0190, 15911.00
250.2350, 15761.00
251.4500, 15651.00
252.6650, 15381.00
253.8800, 15241.00
255.0950, 15399.00
256.3090, 15350.00
257.5240, 15388.00
258.7380, 15552.00
259.9520, 15738.00
261.1660, 15938.00
262.3800, 16281.00
263.5930, 16199.00
264.8070, 16617.00
266.0200, 16750.00
267.2330, 16821.00
268.4460, 17090.00
269.6590, 17357.00
270.8720, 17437.00
272.0850, 17553.00
273.2970, 17571.00
274.5090, 17209.00
275.7210, 17163.00
276.9330, 17040.00
278.1450, 16602.00
279.3570, 16447.00
280.5680, 16457.00
281.7790, 16469.00
282.9910, 16496.00
284.2020, 16427.00
285.4120, 16493.00
286.6230, 16552.00
287.8340, 16731.00
289.0440, 16641.00
290.2540, 17021.00
291.4640, 16834.00
292.6740, 16747.00
293.8840, 17285.00
295.0940, 17489.00
296.3030, 17563.00
297.5120, 18428.00
298.7210, 19065.00
299.9300, 19610.00
301.1390, 19894.00
302.3480, 20508.00
303.5560, 21034.00
304.7650, 22093.00
305.9730, 22623.00
307.1810, 23147.00
308.3890, 22687.00
309.5970, 21366.00
310.8040, 20586.00
312.0120, 19115.00
313.2190, 18372.00
314.4260, 17466.00
315.6330, 17225.00
316.8400, 16804.00
318.0460, 16910.00
319.2530, 17024.00
320.4590, 17185.00
321.6650, 17553.00
322.8710, 17976.00
324.0770, 18383.00
325.2830, 18569.00
326.4880, 18818.00
327.6940, 18887.00
328.8990, 19217.00
330.1040, 19625.00
331.3090, 19843.00
332.5140, 19918.00
333.7180, 19637.00
334.9230, 19016.00
336.1270, 18595.00
337.3310, 18181.00
338.5350, 17759.00
339.7390, 17455.00
340.9430, 17634.00
342.1460, 17339.00
343.3500, 17431.00
344.5530, 17389.00
345.7560, 17553.00
346.9590, 17489.00
348.1620, 17518.00
349.3640, 17734.00
350.5670, 17850.00
351.7690, 17874.00
352.9710, 18204.00
354.1730, 18535.00
355.3750, 18603.00
356.5760, 19027.00
357.7780, 19034.00
358.9790, 19260.00
360.1800, 19155.00
361.3810, 18924.00
362.5820, 19166.00
363.7830, 18714.00
364.9830, 18098.00
366.1840, 17768.00
367.3840, 17637.00
368.5840, 17145.00
369.7840, 16989.00
370.9840, 16778.00
372.1830, 16832.00
373.3830, 16670.00
374.5820, 16599.00
375.7810, 16763.00
376.9800, 16527.00
378.1790, 16515.00
379.3780, 16612.00
380.5760, 16607.00
381.7750, 16366.00
382.9730, 16707.00
384.1710, 16593.42
385.3690, 16728.32
386.5660, 16819.82
387.7640, 16870.29
388.9610, 16756.74
390.1590, 16854.98
391.3560, 16868.33
392.5530, 16878.20
393.7500, 17006.22
394.9460, 16916.50
396.1430, 17042.64
397.3390, 17138.00
398.5350, 17371.00
399.7310, 17406.00
400.9270, 17613.00
402.1230, 17811.00
403.3180, 17788.00
404.5140, 18276.00
405.7090, 18362.00
406.9040, 18684.00
408.0990, 19208.00
409.2930, 19099.00
410.4880, 19533.00
411.6820, 19621.00
412.8770, 20046.00
414.0710, 20075.00
415.2650, 20240.00
416.4590, 20016.00
417.6520, 20043.00
418.8460, 19863.00
420.0390, 19972.00
421.2320, 19884.00
422.4250, 19901.00
423.6180, 20216.00
424.8110, 20241.00
426.0030, 20867.00
427.1960, 21491.00
428.3880, 22439.00
429.5800, 23624.00
430.7720, 25370.00
431.9640, 27710.00
433.1550, 29913.00
434.3470, 32668.00
435.5380, 34990.00
436.7290, 37724.00
437.9200, 40050.00
439.1110, 43463.00
440.3020, 46259.00
441.4920, 48811.00
442.6820, 49063.00
443.8730, 47436.00
445.0630, 43056.00
446.2530, 38279.00
447.4420, 33608.00
448.6320, 29552.00
449.8210, 26942.00
451.0100, 24765.00
452.2000, 23018.00
453.3880, 21985.00
454.5770, 21184.00
455.7660, 20684.00
456.9540, 20439.00
458.1430, 20018.00
459.3310, 19635.00
460.5190, 19433.00
461.7070, 19594.00
462.8940, 19168.00
464.0820, 19207.00
465.2690, 19088.00
466.4560, 19019.00
467.6430, 19092.00
468.8300, 18932.00
470.0170, 19144.00
471.2040, 19151.42
472.3900, 19259.03
473.5760, 19338.75
474.7620, 19392.08
475.9480, 19339.98
477.1340, 19329.00
478.3200, 19334.00
479.5050, 19494.00
480.6900, 19587.00
481.8750, 19691.00
483.0600, 19644.00
484.2450, 19745.00
485.4300, 19732.00
486.6140, 20101.00
487.7990, 20053.00
488.9830, 20351.00
490.1670, 20255.00
491.3510, 20587.00
492.5350, 20746.00
493.7180, 20831.00
494.9020, 20961.00
496.0850, 21186.00
497.2680, 21508.00
498.4510, 21941.00
499.6340, 22114.00
500.8160, 22358.00
501.9990, 23019.00
503.1810, 23226.00
504.3630, 23584.00
505.5450, 24047.00
506.7270, 24501.00
507.9090, 25194.00
509.0900, 25714.00
510.2720, 25742.00
511.4530, 26671.00
512.6340, 27150.00
513.8150, 27588.00
514.9950, 28220.00
516.1760, 28601.00
517.3560, 29026.00
518.5370, 29776.00
519.7170, 30433.00
520.8970, 31462.00
522.0770, 33161.00
523.2560, 35057.00
524.4360, 37414.00
525.6150, 40576.00
526.7940, 43048.00
527.9730, 46198.00
529.1520, 48836.00
530.3310, 52446.00
531.5090, 55241.00
532.6870, 57297.00
533.8660, 58729.00
535.0440, 57137.00
536.2210, 53325.00
537.3990, 47922.00
538.5770, 43194.00
539.7540, 38264.00
540.9310, 34189.00
542.1080, 31247.00
543.2850, 28777.00
544.4620, 27038.00
545.6390, 25783.00
546.8150, 25035.00
547.9920, 24046.00
549.1680, 23498.00
550.3440, 22908.00
551.5190, 22504.00
552.6950, 22318.00
553.8710, 21930.00
555.0460, 21901.00
556.2210, 21619.00
557.3960, 21426.00
558.5710, 21399.00
559.7460, 21295.00
560.9200, 21231.00
562.0950, 21046.00
563.2690, 20859.00
564.4430, 21191.00
565.6170, 20991.00
566.7910, 20960.00
567.9640, 21133.00
569.1380, 20841.00
570.3110, 21086.00
571.4840, 21134.00
572.6570, 20896.00
573.8300, 21136.00
575.0030, 20868.00
576.1750, 20845.00
577.3470, 20953.00
578.5200, 20607.00
579.6920, 20783.00
580.8630, 20833.00
582.0350, 20644.00
583.2070, 20819.00
584.3780, 20667.00
585.5490, 20742.00
586.7200, 20899.00
587.8910, 20789.00
589.0620, 21108.00
590.2330, 20987.00
591.4030, 21262.00
592.5730, 21243.00
593.7430, 21595.00
594.9130, 21538.00
596.0830, 21465.00
597.2530, 21621.00
598.4220, 21457.00
599.5920, 21764.00
600.7610, 21515.00
601.9300, 21536.00
603.0990, 21345.00
604.2670, 21188.00
605.4360, 20956.00
606.6040, 21166.00
607.7720, 21014.00
608.9400, 21162.00
610.1080, 20972.00
611.2760, 20984.00
612.4440, 21094.00
613.6110, 20950.00
614.7780, 21091.00
615.9450, 21110.00
617.1120, 21107.00
618.2790, 21042.00
619.4460, 21203.00
620.6120, 21167.00
621.7780, 20959.00
622.9450, 21370.00
624.1110, 21098.00
625.2760, 21288.00
626.4420, 21263.00
627.6080, 21013.70
628.7730, 21083.26
629.9380, 21124.93
631.1030, 21140.22
632.2680, 21050.07
633.4330, 21096.07
634.5970, 21087.50
635.7620, 21076.70
636.9260, 21141.84
638.0900, 21067.03
639.2540, 21130.97
640.4180, 21139.53
641.5810, 21173.43
642.7450, 21152.44
643.9080, 21148.40
645.0710, 21199.27
646.2340, 21529.00
647.3970, 21308.00
648.5590, 21452.00
649.7220, 21414.00
650.8840, 21393.00
652.0460, 21468.00
653.2080, 21502.00
654.3700, 21371.00
655.5320, 21250.00
656.6930, 21602.00
657.8550, 21383.00
659.0160, 21499.00
660.1770, 21397.00
661.3380, 21631.00
662.4990, 21573.00
663.6590, 21360.00
664.8200, 21483.00
665.9800, 21403.00
667.1400, 21569.00
668.3000, 21734.00
669.4600, 21528.00
670.6190, 21654.00
671.7790, 21799.00
672.9380, 21753.00
674.0970, 21768.00
675.2560, 22016.00
676.4150, 22030.00
677.5740, 22318.00
678.7320, 22007.00
679.8900, 22224.00
681.0490, 22368.00
682.2070, 22279.00
683.3640, 22448.00
684.5220, 22459.00
685.6800, 22604.00
686.8370, 22724.00
687.9940, 22800.00
689.1510, 23058.00
690.3080, 23285.00
691.4650, 23345.00
692.6220, 23426.00
693.7780, 23757.00
694.9340, 24044.00
696.0900, 24345.00
697.2460, 24445.00
698.4020, 24594.00
699.5580, 24701.00
700.7130, 25015.00
701.8680, 25298.00
703.0240, 24814.00
704.1790, 25177.00
705.3330, 25008.00
706.4880, 24791.00
707.6430, 24916.00
708.7970, 24376.00
709.9510, 24103.00
711.1050, 24031.00
712.2590, 23856.00
713.4130, 23809.00
714.5660, 23639.00
715.7200, 23602.00
716.8730, 23698.00
718.0260, 23614.00
719.1790, 23336.00
720.3320, 23772.00
721.4840, 23688.00
722.6370, 23633.00
723.7890, 23677.00
724.9410, 23786.00
726.0930, 23743.00
727.2450, 23675.00
728.3960, 23782.00
729.5480, 23515.00
730.6990, 23678.00
731.8500, 23067.00
733.0010, 23092.00
734.1520, 22984.00
735.3030, 22656.00
736.4530, 22533.00
737.6040, 22639.00
738.7540, 22652.00
739.9040, 22531.00
741.0540, 22445.00
742.2030, 22306.00
743.3530, 22572.00
744.5020, 22423.00
745.6520, 22370.00
746.8010, 22557.00
747.9490, 22441.00
749.0980, 22211.00
750.2470, 22315.00
751.3950, 22487.00
752.5440, 22367.00
753.6920, 22402.00
754.8400, 22338.00
755.9870, 22446.00
757.1350, 22455.00
758.2820, 22458.00
759.4300, 22526.00
760.5770, 22514.00
761.7240, 22520.00
762.8710, 22525.00
764.0170, 22617.00
765.1640, 22781.00
766.3100, 22545.00
767.4560, 22667.00
768.6020, 22489.00
769.7480, 22774.00
770.8940, 22682.00
772.0400, 22687.00
773.1850, 22807.00
774.3300, 22709.00
775.4750, 22922.00
776.6200, 22851.00
777.7650, 22637.00
778.9090, 22676.00
780.0540, 22831.00
781.1980, 22879.00
782.3420, 22861.00
783.4860, 22905.00
784.6300, 22714.00
785.7740, 23169.00
786.9170, 22842.00
788.0600, 23034.00
789.2030, 22848.00
790.3460, 23044.00
791.4890, 23074.00
792.6320, 23042.00
793.7740, 23119.00
794.9170, 23113.00
796.0590, 23275.00
797.2010, 23108.00
798.3430, 23284.00
799.4850, 23349.00
800.6260, 23214.00
801.7670, 23372.00
802.9090, 23291.00
804.0500, 23517.00
805.1910, 23505.00
806.3310, 23238.00
807.4720, 23418.00
808.6120, 23528.00
809.7530, 23565.00
810.8930, 23618.00
812.0330, 23467.00
813.1720, 23530.00
814.3120, 23580.00
815.4510, 23638.00
816.5910, 23557.00
817.7300, 23733.00
818.8690, 23713.00
820.0080, 23470.00
821.1460, 23764.00
822.2850, 23676.00
823.4230, 23718.00
824.5610, 23828.00
825.6990, 23898.00
826.8370, 23782.00
827.9750, 24068.00
829.1120, 23945.00
830.2500, 24091.00
831.3870, 23863.00
832.5240, 24085.00
833.6610, 24193.00
834.7980, 24121.00
835.9340, 24264.00
837.0700, 23923.00
838.2070, 24305.00
839.3430, 24246.00
840.4790, 24356.00
841.6140, 24161.00
842.7500, 23990.00
843.8850, 24433.00
845.0210, 24417.00
846.1560, 24335.00
847.2910, 24402.00
848.4260, 24403.00
849.5600, 24303.00
850.6950, 24325.00
851.8290, 24488.00
852.9630, 24371.00
854.0970, 24736.00
855.2310, 24458.00
856.3650, 24594.00
857.4980, 24761.00
858.6310, 24776.00
859.7650, 24862.00
860.8980, 24865.00
862.0310, 24825.00
863.1630, 24913.00
864.2960, 24773.00
865.4280, 24593.00
866.5600, 24947.00
867.6920, 24994.00
868.8240, 24662.00
869.9560, 24919.00
871.0880, 24893.00
872.2190, 24819.00
873.3500, 25032.00
874.4810, 24936.00
875.6120, 24967.00
876.7430, 24861.00
877.8740, 24976.00
879.0040, 24790.00
880.1340, 24987.00
881.2650, 25016.00
882.3950, 24897.00
883.5240, 25220.00
884.6540, 24994.00
885.7830, 25023.00
886.9130, 25187.00
888.0420, 25190.00
889.1710, 25053.00
890.3000, 25039.00
891.4280, 25371.00
892.5570, 24959.00
893.6850, 25055.00
894.8130, 25002.00
895.9420, 25273.00
897.0690, 25395.00
898.1970, 25323.00
899.3250, 25308.00
900.4520, 25230.00
901.5790, 25268.00
902.7060, 25256.00
903.8330, 25256.00
904.9600, 25352.00
906.0870, 25488.00
907.2130, 25477.00
908.3390, 25395.00
909.4650, 25571.00
910.5910, 25521.00
911.7170, 25399.00
912.8430, 25467.00
913.9680, 25468.00
915.0930, 25733.00
916.2180, 25753.00
917.3430, 25880.00
918.4680, 25902.00
919.5930, 25695.00
920.7170, 25564.00
921.8420, 25781.00
922.9660, 25685.00
924.0900, 25778.00
925.2140, 25972.00
926.3370, 25784.00
927.4610, 25762.00
928.5840, 25972.00
929.7070, 25963.00
930.8310, 25862.00
931.9530, 26019.00
933.0760, 26301.00
934.1990, 25969.00
935.3210, 26119.00
936.4430, 26197.00
937.5650, 26149.00
938.6870, 26514.00
939.8090, 26223.00
940.9310, 26312.00
942.0520, 26227.00
943.1730, 26455.00
944.2940, 26370.00
945.4150, 26577.00
946.5360, 26288.00
947.6570, 26480.00
948.7770, 26844.00
949.8970, 26656.00
951.0180, 27061.00
952.1370, 27213.00
953.2570, 27012.00
954.3770, 27552.00
955.4960, 27769.00
956.6160, 28118.00
957.7350, 28407.00
958.8540, 28943.00
959.9730, 30399.00
961.0910, 29898.00
962.2100, 30468.00
963.3280, 30589.00
964.4460, 31380.00
965.5640, 31316.00
966.6820, 30971.00
967.8000, 30777.00
968.9180, 30372.00
970.0350, 29847.00
971.1520, 29320.00
972.2690, 28790.00
973.3860, 28704.00
974.5030, 28339.00
975.6190, 28538.00
976.7360, 28105.00
977.8520, 28104.00
978.9680, 28182.00
980.0840, 28032.00
981.2000, 27996.00
982.3160, 27814.00
983.4310, 27631.00
984.5460, 28303.00
985.6610, 27662.00
986.7760, 27913.00
987.8910, 27930.00
989.0060, 27859.00
990.1200, 28098.00
991.2350, 28175.00
992.3490, 27839.00
993.4630, 28373.00
994.5760, 28491.00
995.6900, 28687.00
996.8040, 28647.00
997.9170, 28783.00
999.0300, 29209.00
1000.143, 28899.00
1001.256, 29030.00
1002.369, 28852.00
1003.481, 28867.00
1004.594, 28823.00
1005.706, 28418.00
1006.818, 28839.00
1007.930, 28519.00
1009.042, 28606.00
1010.153, 28353.00
1011.264, 28349.00
1012.376, 28418.00
1013.487, 28436.00
1014.598, 28606.00
1015.708, 28247.00
1016.819, 28486.00
1017.929, 28329.00
1019.040, 28591.00
1020.150, 28578.00
1021.260, 28552.00
1022.370, 28896.00
1023.479, 28901.00
1024.589, 29102.00
1025.698, 29074.00
1026.807, 29319.00
1027.916, 29457.00
1029.025, 29695.00
1030.133, 29951.00
1031.242, 30559.00
1032.350, 31001.00
1033.458, 31837.00
1034.566, 32373.00
1035.674, 33176.00
1036.782, 34231.00
1037.890, 34741.00
1038.997, 35117.00
1040.104, 35360.00
1041.211, 35193.00
1042.318, 34314.00
1043.425, 33249.00
1044.531, 32035.00
1045.638, 31675.00
1046.744, 31197.00
1047.850, 30386.00
1048.956, 30413.00
1050.061, 30122.00
1051.167, 29952.00
1052.272, 30110.00
1053.378, 29855.00
1054.483, 29672.00
1055.588, 29674.00
1056.692, 29632.00
1057.797, 29427.00
1058.901, 29824.00
1060.006, 29600.00
1061.110, 29589.00
1062.214, 29546.00
1063.318, 29767.00
1064.421, 29713.00
1065.525, 29619.00
1066.628, 29938.00
1067.731, 30052.00
1068.834, 29926.00
1069.937, 30066.00
1071.040, 30250.00
1072.142, 30304.00
1073.244, 30342.00
1074.347, 30297.00
1075.449, 30679.00
1076.550, 30628.00
1077.652, 30911.00
1078.754, 31150.00
1079.855, 31284.00
1080.956, 31437.00
1082.057, 31986.00
1083.158, 31577.00
1084.259, 31375.00
1085.359, 31469.00
1086.460, 31132.00
1087.560, 30952.00
1088.660, 31313.00
1089.760, 30788.00
1090.860, 30668.00
1091.959, 30726.00
1093.059, 30666.00
1094.158, 30486.00
1095.257, 30520.00
1096.356, 30340.00
1097.455, 30294.00
1098.553, 30587.00
1099.652, 30052.00
1100.750, 30152.00
1101.848, 30483.00
1102.946, 30312.00
1104.044, 30307.00
1105.141, 30387.00
1106.239, 30452.00
1107.336, 30212.00
1108.433, 30333.00
1109.530, 30227.00
1110.627, 30211.00
1111.724, 30611.00
1112.820, 30004.00
1113.917, 30304.00
1115.013, 30423.00
1116.109, 30417.00
1117.205, 30363.00
1118.300, 30492.00
1119.396, 30334.00
1120.491, 30533.00
1121.586, 30669.00
1122.681, 30550.00
1123.776, 30483.00
1124.871, 30818.00
1125.965, 30451.00
1127.060, 30881.00
1128.154, 30631.00
1129.248, 30387.00
1130.342, 30724.00
1131.436, 30500.00
1132.529, 30517.00
1133.623, 30504.00
1134.716, 30802.00
1135.809, 30667.00
1136.902, 30544.00
1137.995, 30676.00
1139.087, 30550.00
1140.180, 31056.00
1141.272, 30492.00
1142.364, 30774.00
1143.456, 30534.00
1144.548, 30649.00
1145.639, 30518.00
1146.731, 30701.00
1147.822, 30914.00
1148.913, 30716.00
1150.004, 30925.00
1151.095, 30800.00
1152.186, 30737.00
1153.276, 30865.00
1154.366, 30984.00
1155.457, 30843.00
1156.546, 31033.00
1157.636, 31011.00
1158.726, 30912.00
1159.815, 31023.00
1160.905, 30974.00
1161.994, 30817.00
1163.083, 30915.00
1164.172, 31046.00
1165.261, 31139.00
1166.349, 31159.00
1167.437, 31141.00
1168.526, 31203.00
1169.614, 31268.00
1170.702, 31197.00
1171.789, 31346.00
1172.877, 31152.00
1173.964, 31282.00
1175.051, 31157.00
1176.138, 31271.00
1177.225, 31379.00
1178.312, 31133.00
1179.399, 31446.00
1180.485, 31507.00
1181.571, 31117.00
1182.657, 31525.00
1183.743, 31437.00
1184.829, 31280.00
1185.915, 31377.00
1187.000, 31736.00
1188.085, 31706.00
1189.171, 31687.00
1190.255, 31601.00
1191.340, 31584.00
1192.425, 31716.00
1193.509, 31757.00
1194.594, 31589.00
1195.678, 31703.00
1196.762, 31738.00
1197.846, 31474.00
1198.929, 31524.00
1200.013, 32002.00
1201.096, 31746.00
1202.179, 31816.00
1203.262, 31803.00
1204.345, 31677.00
1205.428, 31937.00
1206.510, 32175.00
1207.593, 31939.00
1208.675, 32020.00
1209.757, 32064.00
1210.839, 31947.00
1211.920, 32046.00
1213.002, 32099.00
1214.083, 32038.00
1215.164, 32126.00
1216.245, 32171.00
1217.326, 32068.00
1218.407, 32264.00
1219.488, 32264.00
1220.568, 32048.00
1221.648, 32511.00
1222.728, 32026.00
1223.808, 32210.00
1224.888, 32525.00
1225.967, 32174.00
1227.047, 32419.00
1228.126, 32649.00
1229.205, 32563.00
1230.284, 32359.00
1231.363, 32490.00
1232.441, 32672.00
1233.520, 32384.00
1234.598, 32548.00
1235.676, 32509.00
1236.754, 32452.00
1237.832, 32624.00
1238.910, 32562.00
1239.987, 32652.00
1241.064, 32622.00
1242.141, 32610.00
1243.218, 32892.00
1244.295, 32529.00
1245.372, 32641.00
1246.448, 32839.00
1247.525, 32859.00
1248.601, 32928.00
1249.677, 32705.00
1250.753, 32992.00
1251.828, 33083.00
1252.904, 32606.00
1253.979, 32833.00
1255.054, 32973.00
1256.129, 32959.00
1257.204, 32939.00
1258.279, 33296.00
1259.353, 33049.00
1260.428, 32983.00
1261.502, 33318.00
1262.576, 32880.00
1263.650, 33042.00
1264.724, 33203.00
1265.797, 33133.00
1266.871, 33389.00
1267.944, 33262.00
1269.017, 33233.00
1270.090, 33130.00
1271.162, 33450.00
1272.235, 33423.00
1273.307, 33104.00
1274.380, 33519.00
1275.452, 33462.00
1276.524, 33350.00
1277.595, 33628.00
1278.667, 33406.00
1279.738, 33378.00
1280.810, 33670.00
1281.881, 33226.00
1282.952, 33544.00
1284.022, 33375.00
1285.093, 33618.00
1286.164, 33181.63
