##NAMES=Natrolite
##RRUFFID=R060561
##IDEAL CHEMISTRY=Na_2_(Si_3_Al_2_)O_10_&#183;2H_2_O
##LOCALITY=California, USA
##OWNER=RRUFF
##SOURCE=Gemological Institute of America
##DESCRIPTION=White fragment
##STATUS=The identification of this mineral has been confirmed by X-ray diffraction and chemical analysis
##URL=rruff.info/R060561
##MEASURED CHEMISTRY=Na_2.00_(Si_3.00_Al_2.00_)O_10_Â·2H_2_O
##PIN_ID=L00669
##ORIENTATION=Laser parallel to c* (0 0 1). Fiducial mark perpendicular to laser is parallel to a [1 0 0]
92.17800, 746.0000
93.41300, 785.0000
94.64800, 819.0000
95.88300, 885.0000
97.11800, 962.0000
98.35200, 1035.000
99.58700, 1187.000
100.8210, 1372.000
102.0550, 1622.000
103.2890, 1900.000
104.5220, 2252.000
105.7560, 3198.000
106.9890, 3178.000
108.2230, 3622.000
109.4560, 4247.000
110.6890, 5074.000
111.9210, 5899.000
113.1540, 6780.000
114.3870, 7601.000
115.6190, 8258.000
116.8510, 8961.000
118.0830, 9127.000
119.3150, 10522.00
120.5470, 11953.00
121.7780, 13622.00
123.0100, 14386.00
124.2410, 13688.00
125.4720, 12295.00
126.7030, 11430.00
127.9340, 11115.00
129.1640, 11197.00
130.3950, 11833.00
131.6250, 13020.00
132.8550, 16485.00
134.0850, 14271.00
135.3150, 15605.00
136.5450, 16669.00
137.7750, 17994.00
139.0040, 19727.00
140.2330, 21915.00
141.4620, 24287.00
142.6910, 27197.00
143.9200, 29852.00
145.1490, 32275.00
146.3770, 32922.00
147.6060, 31662.00
148.8340, 29999.00
150.0620, 27300.00
151.2900, 24878.00
152.5170, 23038.00
153.7450, 22035.00
154.9720, 21602.00
156.2000, 22155.00
157.4270, 22994.00
158.6540, 24317.00
159.8810, 26694.00
161.1070, 29451.00
162.3340, 32147.00
163.5600, 34903.00
164.7860, 36297.00
166.0120, 36017.00
167.2380, 34321.00
168.4640, 31827.00
169.6890, 29236.00
170.9150, 27082.00
172.1400, 25565.00
173.3650, 24540.00
174.5900, 23566.00
175.8150, 22718.00
177.0400, 21552.00
178.2640, 20419.00
179.4880, 19825.00
180.7130, 19125.00
181.9370, 18985.00
183.1600, 19073.00
184.3840, 19480.00
185.6080, 20295.00
186.8310, 20458.00
188.0540, 20616.00
189.2770, 20403.00
190.5000, 20027.00
191.7230, 19479.00
192.9460, 19161.00
194.1680, 18917.00
195.3910, 18904.00
196.6130, 19353.00
197.8350, 20327.00
199.0570, 21040.00
200.2780, 22074.00
201.5000, 23650.00
202.7210, 24683.00
203.9420, 25857.00
205.1640, 26867.00
206.3840, 28953.00
207.6050, 30807.00
208.8260, 31296.00
210.0460, 30792.00
211.2670, 29411.00
212.4870, 27328.00
213.7070, 24899.00
214.9270, 22793.00
216.1460, 20790.00
217.3660, 19317.00
218.5850, 17955.00
219.8050, 16870.00
221.0240, 16430.00
222.2430, 15519.00
223.4610, 15365.00
224.6800, 14714.00
225.8980, 14786.00
227.1170, 14407.00
228.3350, 14231.00
229.5530, 14588.00
230.7710, 14743.00
231.9880, 15166.00
233.2060, 15620.00
234.4230, 16361.00
235.6400, 16697.00
236.8570, 17590.00
238.0740, 18419.00
239.2910, 19800.00
240.5080, 21311.00
241.7240, 22468.00
242.9400, 22976.00
244.1570, 22106.00
245.3730, 20375.00
246.5880, 18450.00
247.8040, 16939.00
249.0190, 15920.00
250.2350, 14928.00
251.4500, 14427.00
252.6650, 14043.00
253.8800, 14176.00
255.0950, 13895.00
256.3090, 13762.00
257.5240, 13914.00
258.7380, 14173.00
259.9520, 14308.00
261.1660, 14611.00
262.3800, 14770.00
263.5930, 15340.00
264.8070, 15553.03
266.0200, 16097.98
267.2330, 16580.44
268.4460, 16858.00
269.6590, 17667.00
270.8720, 17892.00
272.0850, 17755.00
273.2970, 17862.00
274.5090, 17267.00
275.7210, 16576.00
276.9330, 16050.00
278.1450, 15418.00
279.3570, 15128.00
280.5680, 14483.00
281.7790, 14396.00
282.9910, 14250.00
284.2020, 14275.00
285.4120, 14192.00
286.6230, 14322.00
287.8340, 14326.00
289.0440, 14462.00
290.2540, 14645.00
291.4640, 14755.00
292.6740, 14849.00
293.8840, 15116.00
295.0940, 15579.00
296.3030, 16143.00
297.5120, 16801.00
298.7210, 17680.00
299.9300, 18842.00
301.1390, 19594.00
302.3480, 20958.00
303.5560, 22510.00
304.7650, 24717.00
305.9730, 26259.00
307.1810, 26747.00
308.3890, 26107.00
309.5970, 24184.00
310.8040, 21713.00
312.0120, 19576.00
313.2190, 17678.00
314.4260, 16137.09
315.6330, 15445.11
316.8400, 14924.71
318.0460, 14579.45
319.2530, 14231.56
320.4590, 14422.75
321.6650, 14557.00
322.8710, 14676.00
324.0770, 14653.00
325.2830, 14629.00
326.4880, 14785.00
327.6940, 14942.00
328.8990, 15121.00
330.1040, 15301.00
331.3090, 15573.00
332.5140, 15542.00
333.7180, 15646.00
334.9230, 15372.00
336.1270, 15033.00
337.3310, 15076.00
338.5350, 14823.00
339.7390, 14741.00
340.9430, 14775.00
342.1460, 14569.00
343.3500, 14540.00
344.5530, 14673.00
345.7560, 14909.00
346.9590, 14851.00
348.1620, 15068.00
349.3640, 15392.00
350.5670, 15416.00
351.7690, 15701.00
352.9710, 16045.00
354.1730, 16367.00
355.3750, 16573.00
356.5760, 16904.00
357.7780, 17157.00
358.9790, 17344.00
360.1800, 17677.00
361.3810, 17656.00
362.5820, 17489.00
363.7830, 16796.00
364.9830, 16557.00
366.1840, 16054.00
367.3840, 15884.00
368.5840, 15461.00
369.7840, 15308.00
370.9840, 15006.00
372.1830, 14923.00
373.3830, 15508.00
374.5820, 14940.00
375.7810, 14727.00
376.9800, 14688.00
378.1790, 14603.00
379.3780, 14740.00
380.5760, 14546.00
381.7750, 14782.00
382.9730, 14663.00
384.1710, 15099.00
385.3690, 14756.00
386.5660, 14674.00
387.7640, 14807.00
388.9610, 14809.00
390.1590, 14767.00
391.3560, 14875.00
392.5530, 14911.00
393.7500, 14825.00
394.9460, 15059.00
396.1430, 15120.00
397.3390, 15218.00
398.5350, 15079.00
399.7310, 15386.00
400.9270, 15314.00
402.1230, 15590.00
403.3180, 15713.00
404.5140, 15846.00
405.7090, 16001.00
406.9040, 16316.00
408.0990, 16404.00
409.2930, 16517.00
410.4880, 16768.00
411.6820, 17150.00
412.8770, 17247.00
414.0710, 17418.00
415.2650, 17572.00
416.4590, 17794.00
417.6520, 17823.00
418.8460, 18800.00
420.0390, 19024.00
421.2320, 19741.00
422.4250, 20791.00
423.6180, 21815.00
424.8110, 23313.00
426.0030, 24880.00
427.1960, 27028.00
428.3880, 29540.00
429.5800, 31974.00
430.7720, 35182.00
431.9640, 38278.00
433.1550, 41563.00
434.3470, 44468.00
435.5380, 46343.00
436.7290, 47073.00
437.9200, 46655.00
439.1110, 45675.00
440.3020, 44597.00
441.4920, 43532.00
442.6820, 43188.00
443.8730, 43010.00
445.0630, 43159.00
446.2530, 43256.00
447.4420, 43303.00
448.6320, 42279.00
449.8210, 39900.00
451.0100, 36437.00
452.2000, 32860.00
453.3880, 28989.00
454.5770, 26078.00
455.7660, 23525.00
456.9540, 21817.00
458.1430, 20430.00
459.3310, 19584.00
460.5190, 18844.00
461.7070, 18197.00
462.8940, 17866.00
464.0820, 17661.00
465.2690, 17416.00
466.4560, 17424.00
467.6430, 17109.00
468.8300, 17145.00
470.0170, 16969.00
471.2040, 16993.00
472.3900, 16981.00
473.5760, 17023.00
474.7620, 17323.00
475.9480, 17327.00
477.1340, 17148.00
478.3200, 17380.00
479.5050, 17281.00
480.6900, 17492.00
481.8750, 17784.00
483.0600, 17939.00
484.2450, 17958.00
485.4300, 18313.00
486.6140, 18723.00
487.7990, 18764.00
488.9830, 19020.00
490.1670, 19319.00
491.3510, 19689.00
492.5350, 19986.00
493.7180, 20370.00
494.9020, 20453.00
496.0850, 20457.00
497.2680, 20414.00
498.4510, 20027.00
499.6340, 20280.00
500.8160, 20138.00
501.9990, 20270.00
503.1810, 20229.00
504.3630, 20331.00
505.5450, 20370.00
506.7270, 20416.00
507.9090, 20863.00
509.0900, 21117.00
510.2720, 21584.00
511.4530, 21668.00
512.6340, 22124.00
513.8150, 22752.00
514.9950, 23331.00
516.1760, 23695.00
517.3560, 24389.00
518.5370, 25075.00
519.7170, 25939.00
520.8970, 27165.00
522.0770, 28187.00
523.2560, 29747.00
524.4360, 31975.00
525.6150, 34350.00
526.7940, 36745.00
527.9730, 40323.00
529.1520, 43750.00
530.3310, 47712.00
531.5090, 51775.00
532.6870, 55145.00
533.8660, 56197.00
535.0440, 54860.00
536.2210, 51016.00
537.3990, 45749.00
538.5770, 40197.00
539.7540, 35721.00
540.9310, 32034.00
542.1080, 28759.00
543.2850, 26718.00
544.4620, 26026.00
545.6390, 23815.00
546.8150, 22966.00
547.9920, 21889.00
549.1680, 21594.00
550.3440, 21102.00
551.5190, 20484.00
552.6950, 20449.00
553.8710, 19873.00
555.0460, 19594.00
556.2210, 19588.00
557.3960, 19603.00
558.5710, 19222.00
559.7460, 19153.00
560.9200, 19057.00
562.0950, 18905.00
563.2690, 18760.00
564.4430, 18809.00
565.6170, 18713.00
566.7910, 18772.00
567.9640, 18641.00
569.1380, 18668.00
570.3110, 18652.00
571.4840, 18708.00
572.6570, 18802.00
573.8300, 18753.00
575.0030, 18643.00
576.1750, 18595.00
577.3470, 18687.00
578.5200, 18777.00
579.6920, 18639.00
580.8630, 18742.00
582.0350, 19083.00
583.2070, 18838.00
584.3780, 18839.00
585.5490, 18832.00
586.7200, 18915.00
587.8910, 18867.00
589.0620, 18898.00
590.2330, 18916.00
591.4030, 19229.00
592.5730, 19194.00
593.7430, 19298.00
594.9130, 19472.00
596.0830, 19566.00
597.2530, 19674.00
598.4220, 19819.00
599.5920, 19925.00
600.7610, 20162.00
601.9300, 19911.00
603.0990, 19861.00
604.2670, 19628.00
605.4360, 19635.00
606.6040, 19422.00
607.7720, 19291.76
608.9400, 19183.06
610.1080, 19070.77
611.2760, 18956.19
612.4440, 18768.49
613.6110, 18724.31
614.7780, 18652.57
615.9450, 18600.19
617.1120, 18637.27
618.2790, 18570.21
619.4460, 18648.93
620.6120, 18669.01
621.7780, 18736.34
622.9450, 18778.68
624.1110, 18797.34
625.2760, 18721.46
626.4420, 18767.67
627.6080, 18764.95
628.7730, 18760.21
629.9380, 18823.59
631.1030, 18761.46
632.2680, 18823.75
633.4330, 18836.38
634.5970, 18871.73
635.7620, 18857.87
636.9260, 18859.20
638.0900, 18909.76
639.2540, 18933.07
640.4180, 18913.53
641.5810, 18950.31
642.7450, 18886.46
643.9080, 18910.91
645.0710, 18973.48
646.2340, 18956.40
647.3970, 18901.00
648.5590, 18927.00
649.7220, 19020.00
650.8840, 19083.00
652.0460, 18970.00
653.2080, 18868.00
654.3700, 19120.00
655.5320, 19186.00
656.6930, 19216.00
657.8550, 19223.00
659.0160, 19298.00
660.1770, 19494.00
661.3380, 20073.00
662.4990, 19807.00
663.6590, 19412.00
664.8200, 19629.00
665.9800, 19747.00
667.1400, 19549.00
668.3000, 19601.00
669.4600, 19602.00
670.6190, 19831.00
671.7790, 19918.00
672.9380, 19908.00
674.0970, 19890.00
675.2560, 19919.00
676.4150, 20031.00
677.5740, 20004.00
678.7320, 20067.00
679.8900, 20085.00
681.0490, 20322.00
682.2070, 20349.00
683.3640, 20595.00
684.5220, 20505.00
685.6800, 20699.00
686.8370, 20777.00
687.9940, 21039.00
689.1510, 21210.00
690.3080, 21564.00
691.4650, 21706.00
692.6220, 21975.00
693.7780, 21921.00
694.9340, 22614.00
696.0900, 22886.00
697.2460, 23348.00
698.4020, 23775.00
699.5580, 24105.00
700.7130, 24281.02
701.8680, 25080.40
703.0240, 25520.08
704.1790, 25600.67
705.3330, 26034.00
706.4880, 25649.00
707.6430, 25528.00
708.7970, 25149.00
709.9510, 24664.00
711.1050, 24135.00
712.2590, 23625.00
713.4130, 23236.00
714.5660, 22903.00
715.7200, 22791.00
716.8730, 22632.00
718.0260, 22540.00
719.1790, 22728.00
720.3320, 22441.00
721.4840, 22713.00
722.6370, 22740.00
723.7890, 22899.00
724.9410, 22943.00
726.0930, 22852.00
727.2450, 23029.00
728.3960, 22914.00
729.5480, 22672.00
730.6990, 22746.00
731.8500, 22550.00
733.0010, 21887.00
734.1520, 21516.00
735.3030, 21105.00
736.4530, 21167.00
737.6040, 20992.00
738.7540, 20779.00
739.9040, 20653.00
741.0540, 20556.39
742.2030, 20581.91
743.3530, 20584.32
744.5020, 20565.02
745.6520, 20453.09
746.8010, 20465.18
747.9490, 20430.29
749.0980, 20395.30
750.2470, 20430.34
751.3950, 20341.82
752.5440, 20379.63
753.6920, 20369.71
754.8400, 20384.44
755.9870, 20351.87
757.1350, 20336.42
758.2820, 20372.13
759.4300, 20382.50
760.5770, 20351.94
761.7240, 20379.64
762.8710, 20308.60
764.0170, 20327.80
765.1640, 20387.02
766.3100, 20368.52
767.4560, 20406.69
768.6020, 20425.92
769.7480, 20352.29
770.8940, 20445.40
772.0400, 20469.14
773.1850, 20421.59
774.3300, 20514.77
775.4750, 20481.13
776.6200, 20495.35
777.7650, 20603.00
778.9090, 20584.00
780.0540, 20630.00
781.1980, 20791.00
782.3420, 20771.00
783.4860, 20889.00
784.6300, 20803.00
785.7740, 20666.00
786.9170, 20875.00
788.0600, 20896.00
789.2030, 20661.00
790.3460, 20788.00
791.4890, 20939.00
792.6320, 20854.00
793.7740, 21188.00
794.9170, 21033.00
796.0590, 21018.00
797.2010, 21059.00
798.3430, 20998.00
799.4850, 21124.00
800.6260, 21136.00
801.7670, 21302.00
802.9090, 21340.00
804.0500, 21247.00
805.1910, 21250.00
806.3310, 21301.00
807.4720, 21349.00
808.6120, 21179.00
809.7530, 21378.00
810.8930, 21395.00
812.0330, 21434.00
813.1720, 21542.00
814.3120, 21524.00
815.4510, 21397.00
816.5910, 21534.00
817.7300, 21523.00
818.8690, 21647.00
820.0080, 21452.00
821.1460, 21531.00
822.2850, 21656.00
823.4230, 21676.00
824.5610, 21679.00
825.6990, 21757.00
826.8370, 21713.00
827.9750, 21758.00
829.1120, 21677.00
830.2500, 21711.00
831.3870, 21864.00
832.5240, 21998.00
833.6610, 21879.00
834.7980, 21865.00
835.9340, 21847.00
837.0700, 21854.00
838.2070, 21921.00
839.3430, 21984.00
840.4790, 22005.00
841.6140, 22010.00
842.7500, 22002.00
843.8850, 21964.00
845.0210, 22121.00
846.1560, 22067.00
847.2910, 22085.00
848.4260, 22239.00
849.5600, 22106.00
850.6950, 22106.00
851.8290, 22274.00
852.9630, 22213.00
854.0970, 22255.00
855.2310, 22237.00
856.3650, 22306.00
857.4980, 22817.00
858.6310, 22408.00
859.7650, 22427.00
860.8980, 22605.00
862.0310, 22465.00
863.1630, 22517.00
864.2960, 22544.00
865.4280, 22397.00
866.5600, 22522.00
867.6920, 22678.00
868.8240, 22565.00
869.9560, 22663.00
871.0880, 22575.00
872.2190, 22566.00
873.3500, 22356.00
874.4810, 22492.00
875.6120, 22811.00
876.7430, 22850.00
877.8740, 22804.00
879.0040, 22769.00
880.1340, 22762.00
881.2650, 22801.00
882.3950, 22690.00
883.5240, 22571.00
884.6540, 22830.00
885.7830, 22943.00
886.9130, 22640.00
888.0420, 22544.00
889.1710, 22727.00
890.3000, 22994.00
891.4280, 22840.00
892.5570, 22948.00
893.6850, 22963.00
894.8130, 22760.00
895.9420, 22825.00
897.0690, 22882.00
898.1970, 23028.00
899.3250, 23061.00
900.4520, 22911.00
901.5790, 23094.00
902.7060, 22901.00
903.8330, 23080.00
904.9600, 23046.00
906.0870, 23319.00
907.2130, 23292.00
908.3390, 23156.00
909.4650, 23182.00
910.5910, 23409.00
911.7170, 23217.00
912.8430, 23435.00
913.9680, 23155.00
915.0930, 23397.00
916.2180, 23302.00
917.3430, 23493.00
918.4680, 23298.00
919.5930, 23440.00
920.7170, 23270.00
921.8420, 23448.00
922.9660, 23266.00
924.0900, 23321.00
925.2140, 23625.00
926.3370, 23596.00
927.4610, 23675.00
928.5840, 23660.00
929.7070, 23283.00
930.8310, 23710.00
931.9530, 23841.00
933.0760, 23707.00
934.1990, 23675.00
935.3210, 23916.00
936.4430, 23875.00
937.5650, 23834.00
938.6870, 23787.00
939.8090, 24054.00
940.9310, 23965.00
942.0520, 23892.00
943.1730, 24279.00
944.2940, 24169.00
945.4150, 24118.00
946.5360, 24329.00
947.6570, 23974.00
948.7770, 24466.00
949.8970, 24264.50
951.0180, 24333.69
952.1370, 24433.57
953.2570, 24565.57
954.3770, 24658.79
955.4960, 24929.60
956.6160, 25207.45
957.7350, 25538.69
958.8540, 25993.71
959.9730, 26378.89
961.0910, 27378.00
962.2100, 28107.00
963.3280, 29063.00
964.4460, 29847.00
965.5640, 31062.00
966.6820, 31791.00
967.8000, 32509.00
968.9180, 32632.00
970.0350, 32155.00
971.1520, 30969.00
972.2690, 30246.00
973.3860, 28850.00
974.5030, 27936.00
975.6190, 27081.00
976.7360, 26550.00
977.8520, 26147.00
978.9680, 25642.00
980.0840, 25848.00
981.2000, 25749.33
982.3160, 25644.94
983.4310, 25581.53
984.5460, 25560.29
985.6610, 25510.32
986.7760, 25648.24
987.8910, 25803.05
989.0060, 26021.67
990.1200, 26373.93
991.2350, 26666.73
992.3490, 26957.00
993.4630, 27434.00
994.5760, 27516.00
995.6900, 27892.00
996.8040, 28078.00
997.9170, 27969.00
999.0300, 27813.00
1000.143, 27497.00
1001.256, 27956.00
1002.369, 26742.00
1003.481, 26377.00
1004.594, 26204.23
1005.706, 26111.72
1006.818, 26040.93
1007.930, 25993.20
1009.042, 25897.65
1010.153, 25970.85
1011.264, 26041.76
1012.376, 26157.44
1013.487, 26387.77
1014.598, 26539.24
1015.708, 26861.50
1016.819, 27180.95
1017.929, 27569.44
1019.040, 27847.00
1020.150, 28564.00
1021.260, 29520.00
1022.370, 30828.00
1023.479, 31562.00
1024.589, 32843.00
1025.698, 33596.00
1026.807, 33651.00
1027.916, 33003.00
1029.025, 32149.00
1030.133, 31001.00
1031.242, 29602.00
1032.350, 28902.00
1033.458, 28456.00
1034.566, 28084.00
1035.674, 27621.00
1036.782, 27745.00
1037.890, 27654.00
1038.997, 27559.00
1040.104, 27491.00
1041.211, 27703.00
1042.318, 27760.00
1043.425, 28090.00
1044.531, 28130.00
1045.638, 28295.00
1046.744, 28665.00
1047.850, 28771.00
1048.956, 29188.00
1050.061, 29076.00
1051.167, 29013.00
1052.272, 29035.00
1053.378, 28824.00
1054.483, 28982.00
1055.588, 28704.00
1056.692, 28898.00
1057.797, 28902.00
1058.901, 28703.00
1060.006, 28843.00
1061.110, 28908.00
1062.214, 28852.00
1063.318, 28904.00
1064.421, 29066.00
1065.525, 29599.00
1066.628, 29658.00
1067.731, 29671.00
1068.834, 30041.00
1069.937, 30525.00
1071.040, 30334.00
1072.142, 30326.00
1073.244, 30336.00
1074.347, 30297.00
1075.449, 30738.00
1076.550, 29528.00
1077.652, 29501.00
1078.754, 29174.00
1079.855, 29139.00
1080.956, 29339.00
1082.057, 29127.00
1083.158, 29374.00
1084.259, 29481.00
1085.359, 29277.00
1086.460, 29830.00
1087.560, 30118.00
1088.660, 30321.00
1089.760, 30620.00
1090.860, 30876.00
1091.959, 30947.00
1093.059, 30705.00
1094.158, 30608.00
1095.257, 30081.00
1096.356, 29855.00
1097.455, 29520.00
1098.553, 28936.00
1099.652, 28708.00
1100.750, 28642.00
1101.848, 28417.00
1102.946, 28016.00
1104.044, 28273.00
1105.141, 27862.00
1106.239, 28100.00
1107.336, 27956.00
1108.433, 27866.00
1109.530, 28197.00
1110.627, 28042.00
1111.724, 28060.00
1112.820, 27844.00
1113.917, 27902.00
1115.013, 28080.00
1116.109, 28073.00
1117.205, 27965.00
1118.300, 28385.00
1119.396, 28261.00
1120.491, 28060.00
1121.586, 27995.00
1122.681, 28240.00
1123.776, 28059.00
1124.871, 27903.00
1125.965, 27979.00
1127.060, 28206.00
1128.154, 28081.00
1129.248, 28187.00
1130.342, 28153.00
1131.436, 28047.00
1132.529, 28139.00
1133.623, 28027.00
1134.716, 27910.00
1135.809, 28198.00
1136.902, 27897.00
1137.995, 27975.00
1139.087, 28034.00
1140.180, 28096.00
1141.272, 28068.00
1142.364, 28047.00
1143.456, 28203.00
1144.548, 28134.00
1145.639, 28208.00
1146.731, 28039.00
1147.822, 28155.00
1148.913, 28338.00
1150.004, 28127.00
1151.095, 28148.00
1152.186, 28394.00
1153.276, 28268.00
1154.366, 28434.00
1155.457, 28427.00
1156.546, 28327.00
1157.636, 28417.00
1158.726, 28260.00
1159.815, 28486.00
1160.905, 28538.00
1161.994, 28473.00
1163.083, 28381.00
1164.172, 28431.00
1165.261, 28429.00
1166.349, 28351.00
1167.437, 28467.00
1168.526, 28339.00
1169.614, 28664.00
1170.702, 28628.00
1171.789, 28690.00
1172.877, 28637.00
1173.964, 28450.00
1175.051, 28843.00
1176.138, 28589.00
1177.225, 28736.00
1178.312, 28656.00
1179.399, 28742.00
1180.485, 28838.00
1181.571, 28784.00
1182.657, 28964.00
1183.743, 28712.00
1184.829, 29228.00
1185.915, 28944.00
1187.000, 28816.00
1188.085, 28969.00
1189.171, 28978.00
1190.255, 28977.00
1191.340, 28895.00
1192.425, 28962.00
1193.509, 29076.00
1194.594, 29222.00
1195.678, 29192.00
1196.762, 29164.00
1197.846, 29255.00
1198.929, 29217.00
1200.013, 29143.00
1201.096, 29252.00
1202.179, 29300.00
1203.262, 29155.00
1204.345, 29113.00
1205.428, 29370.00
1206.510, 29393.00
1207.593, 29261.00
1208.675, 29483.00
1209.757, 29649.00
1210.839, 29458.00
1211.920, 29472.00
1213.002, 29667.00
1214.083, 29445.00
1215.164, 29654.00
1216.245, 29522.00
1217.326, 29405.00
1218.407, 29740.00
1219.488, 29678.00
1220.568, 29544.00
1221.648, 29557.00
1222.728, 29720.00
1223.808, 29837.00
1224.888, 29944.00
1225.967, 29609.00
1227.047, 29739.00
1228.126, 29554.00
1229.205, 29783.00
1230.284, 29833.00
1231.363, 29816.00
1232.441, 29874.00
1233.520, 29977.00
1234.598, 29747.00
1235.676, 29989.00
1236.754, 29940.00
1237.832, 30079.00
1238.910, 30011.00
1239.987, 29989.00
1241.064, 30056.00
1242.141, 30050.00
1243.218, 30153.00
1244.295, 30351.00
1245.372, 30078.00
1246.448, 30318.00
1247.525, 30246.00
1248.601, 30282.00
1249.677, 30279.00
1250.753, 30326.00
1251.828, 30135.00
1252.904, 30284.00
1253.979, 30430.00
1255.054, 30181.00
1256.129, 30437.00
1257.204, 30444.00
1258.279, 30582.00
1259.353, 30239.00
1260.428, 30198.00
1261.502, 30725.00
1262.576, 30392.00
1263.650, 30584.00
1264.724, 30493.00
1265.797, 30746.00
1266.871, 30548.00
1267.944, 30857.00
1269.017, 30742.00
1270.090, 30642.00
1271.162, 30715.00
1272.235, 30806.00
1273.307, 30830.00
1274.380, 30972.00
