##NAMES=Natrolite
##RRUFFID=R060561
##IDEAL CHEMISTRY=Na_2_(Si_3_Al_2_)O_10_&#183;2H_2_O
##LOCALITY=California, USA
##OWNER=RRUFF
##SOURCE=Gemological Institute of America
##DESCRIPTION=White fragment
##STATUS=The identification of this mineral has been confirmed by X-ray diffraction and chemical analysis
##URL=rruff.info/R060561
##MEASURED CHEMISTRY=Na_2.00_(Si_3.00_Al_2.00_)O_10_Â·2H_2_O
##PIN_ID=L00669
##ORIENTATION=Laser parallel to c* (0 0 1). Fiducial mark perpendicular to laser is parallel to a [1 0 0]
79.81900, 1125.000
81.05500, 1065.000
82.29200, 1039.000
83.52800, 1046.000
84.76400, 1009.000
86.00000, 1002.000
87.23600, 997.0000
88.47200, 1025.000
89.70800, 975.0000
90.94300, 977.0000
92.17800, 980.0000
93.41300, 1031.000
94.64800, 1024.000
95.88300, 1082.000
97.11800, 1126.000
98.35200, 1148.000
99.58700, 1295.000
100.8210, 1364.000
102.0550, 1516.000
103.2890, 1683.000
104.5220, 1949.000
105.7560, 2205.000
106.9890, 2465.000
108.2230, 2860.000
109.4560, 3266.000
110.6890, 3763.000
111.9210, 4456.000
113.1540, 5150.000
114.3870, 5752.000
115.6190, 6495.000
116.8510, 6811.000
118.0830, 7318.000
119.3150, 8215.000
120.5470, 9715.000
121.7780, 11292.00
123.0100, 12368.00
124.2410, 12530.00
125.4720, 12089.00
126.7030, 11431.00
127.9340, 10940.00
129.1640, 11009.00
130.3950, 11330.00
131.6250, 11700.00
132.8550, 12255.00
134.0850, 12701.00
135.3150, 13557.00
136.5450, 13879.00
137.7750, 14187.00
139.0040, 14547.00
140.2330, 15370.00
141.4620, 16473.00
142.6910, 17372.00
143.9200, 18592.00
145.1490, 20009.00
146.3770, 20187.00
147.6060, 20085.00
148.8340, 19335.00
150.0620, 18514.00
151.2900, 18135.00
152.5170, 17859.00
153.7450, 18110.00
154.9720, 18864.00
156.2000, 19886.56
157.4270, 21539.00
158.6540, 23401.00
159.8810, 25881.00
161.1070, 28901.00
162.3340, 32232.00
163.5600, 35303.00
164.7860, 36986.00
166.0120, 36274.00
167.2380, 34237.00
168.4640, 31315.00
169.6890, 28457.00
170.9150, 26165.00
172.1400, 24546.00
173.3650, 23283.00
174.5900, 22521.00
175.8150, 21633.00
177.0400, 20688.00
178.2640, 19830.00
179.4880, 19355.00
180.7130, 18757.00
181.9370, 18665.00
183.1600, 18835.00
184.3840, 19218.00
185.6080, 19335.00
186.8310, 19765.00
188.0540, 19897.00
189.2770, 19650.00
190.5000, 19174.00
191.7230, 18697.00
192.9460, 18280.00
194.1680, 18070.00
195.3910, 18008.63
196.6130, 18018.79
197.8350, 18244.00
199.0570, 18526.00
200.2780, 18821.00
201.5000, 19478.00
202.7210, 19813.00
203.9420, 19847.00
205.1640, 20087.00
206.3840, 20796.00
207.6050, 21422.00
208.8260, 21906.00
210.0460, 21981.00
211.2670, 21381.00
212.4870, 20448.00
213.7070, 19628.00
214.9270, 19002.00
216.1460, 18345.00
217.3660, 17745.00
218.5850, 17272.00
219.8050, 17056.00
221.0240, 16547.00
222.2430, 16344.00
223.4610, 16025.00
224.6800, 15667.00
225.8980, 15482.00
227.1170, 15305.00
228.3350, 15122.00
229.5530, 15222.00
230.7710, 15139.00
231.9880, 15236.00
233.2060, 15200.00
234.4230, 15315.35
235.6400, 15504.00
236.8570, 15609.00
238.0740, 15827.00
239.2910, 16060.00
240.5080, 16576.00
241.7240, 16768.00
242.9400, 17092.00
244.1570, 16781.00
245.3730, 16533.00
246.5880, 16203.00
247.8040, 15707.00
249.0190, 15485.00
250.2350, 15321.00
251.4500, 14975.00
252.6650, 15001.00
253.8800, 14782.00
255.0950, 15005.00
256.3090, 14934.00
257.5240, 14940.00
258.7380, 15013.00
259.9520, 15080.00
261.1660, 15342.00
262.3800, 15433.00
263.5930, 15506.00
264.8070, 15785.00
266.0200, 15791.00
267.2330, 15871.00
268.4460, 16103.00
269.6590, 16162.00
270.8720, 16437.00
272.0850, 16351.00
273.2970, 16624.00
274.5090, 16897.00
275.7210, 16721.00
276.9330, 16586.00
278.1450, 16325.00
279.3570, 16208.00
280.5680, 16023.00
281.7790, 15745.00
282.9910, 15833.00
284.2020, 15531.00
285.4120, 15715.00
286.6230, 15705.00
287.8340, 15761.00
289.0440, 15743.00
290.2540, 15807.00
291.4640, 15986.00
292.6740, 15977.00
293.8840, 16113.00
295.0940, 16172.00
296.3030, 16292.88
297.5120, 16495.00
298.7210, 16622.00
299.9300, 16834.00
301.1390, 17115.00
302.3480, 17456.00
303.5560, 18030.00
304.7650, 18794.00
305.9730, 18935.18
307.1810, 19520.00
308.3890, 19253.00
309.5970, 18306.00
310.8040, 18042.00
312.0120, 17345.00
313.2190, 16763.00
314.4260, 16372.00
315.6330, 16258.00
316.8400, 16046.00
318.0460, 16223.00
319.2530, 16047.00
320.4590, 16102.61
321.6650, 16198.21
322.8710, 16187.00
324.0770, 16385.00
325.2830, 16453.00
326.4880, 16524.00
327.6940, 16654.30
328.8990, 16757.56
330.1040, 16954.00
331.3090, 17043.00
332.5140, 17027.70
333.7180, 17050.04
334.9230, 16876.00
336.1270, 16934.00
337.3310, 16760.00
338.5350, 16703.00
339.7390, 16517.00
340.9430, 16463.00
342.1460, 16382.00
343.3500, 16478.00
344.5530, 16610.00
345.7560, 16651.00
346.9590, 16706.00
348.1620, 16928.00
349.3640, 16917.00
350.5670, 17140.00
351.7690, 17213.00
352.9710, 17415.00
354.1730, 17653.00
355.3750, 17951.00
356.5760, 18255.00
357.7780, 18492.00
358.9790, 18812.00
360.1800, 18878.00
361.3810, 18829.00
362.5820, 18650.00
363.7830, 18672.00
364.9830, 18240.00
366.1840, 17817.00
367.3840, 17570.00
368.5840, 17440.00
369.7840, 17361.00
370.9840, 17162.85
372.1830, 16992.02
373.3830, 16915.00
374.5820, 16671.00
375.7810, 16646.00
376.9800, 16711.00
378.1790, 16587.00
379.3780, 16574.00
380.5760, 16550.00
381.7750, 16770.00
382.9730, 16622.00
384.1710, 16669.00
385.3690, 16602.00
386.5660, 16602.00
387.7640, 16699.00
388.9610, 16688.00
390.1590, 16729.64
391.3560, 16798.00
392.5530, 16814.00
393.7500, 16887.00
394.9460, 16998.00
396.1430, 16878.00
397.3390, 17010.00
398.5350, 17051.00
399.7310, 17040.00
400.9270, 17098.00
402.1230, 17310.00
403.3180, 17230.00
404.5140, 17294.00
405.7090, 17591.00
406.9040, 17772.00
408.0990, 17823.00
409.2930, 17960.00
410.4880, 18210.00
411.6820, 18222.00
412.8770, 18278.00
414.0710, 18233.00
415.2650, 18431.00
416.4590, 18457.00
417.6520, 18544.00
418.8460, 18577.00
420.0390, 18953.00
421.2320, 19105.00
422.4250, 19219.00
423.6180, 19619.00
424.8110, 20131.00
426.0030, 20607.00
427.1960, 21235.00
428.3880, 22063.00
429.5800, 22869.00
430.7720, 23681.00
431.9640, 24781.00
433.1550, 26013.00
434.3470, 27132.00
435.5380, 27862.00
436.7290, 28587.00
437.9200, 28991.00
439.1110, 29535.00
440.3020, 29833.00
441.4920, 30658.00
442.6820, 31470.00
443.8730, 32244.00
445.0630, 33207.00
446.2530, 33956.00
447.4420, 34478.00
448.6320, 34344.00
449.8210, 33201.00
451.0100, 30685.00
452.2000, 28603.00
453.3880, 26096.00
454.5770, 24234.00
455.7660, 22683.00
456.9540, 21724.00
458.1430, 20809.00
459.3310, 20139.00
460.5190, 19967.00
461.7070, 19514.00
462.8940, 19521.00
464.0820, 19573.00
465.2690, 19520.00
466.4560, 19008.00
467.6430, 19034.00
468.8300, 19093.00
470.0170, 19056.00
471.2040, 19138.00
472.3900, 19237.00
473.5760, 19207.47
474.7620, 19308.00
475.9480, 19298.00
477.1340, 19405.00
478.3200, 19643.00
479.5050, 19629.00
480.6900, 19782.00
481.8750, 20105.00
483.0600, 20411.00
484.2450, 20500.00
485.4300, 20849.00
486.6140, 21182.00
487.7990, 21440.00
488.9830, 21929.00
490.1670, 22407.00
491.3510, 22690.00
492.5350, 22958.00
493.7180, 23202.00
494.9020, 23221.00
496.0850, 23311.45
497.2680, 23169.00
498.4510, 23158.00
499.6340, 23134.00
500.8160, 22815.00
501.9990, 22893.00
503.1810, 22642.00
504.3630, 22471.00
505.5450, 22810.00
506.7270, 22552.36
507.9090, 22630.00
509.0900, 22458.00
510.2720, 22646.00
511.4530, 22645.00
512.6340, 22871.00
513.8150, 23133.00
514.9950, 23486.00
516.1760, 23496.00
517.3560, 23792.00
518.5370, 24247.00
519.7170, 24653.00
520.8970, 25495.00
522.0770, 26453.00
523.2560, 27523.00
524.4360, 29133.00
525.6150, 30774.00
526.7940, 33269.00
527.9730, 35724.00
529.1520, 39151.00
530.3310, 43159.00
531.5090, 47498.00
532.6870, 51001.00
533.8660, 52642.00
535.0440, 51719.00
536.2210, 48336.00
537.3990, 43615.00
538.5770, 38821.00
539.7540, 34786.00
540.9310, 31423.00
542.1080, 29018.00
543.2850, 27053.00
544.4620, 25743.00
545.6390, 24637.00
546.8150, 23909.00
547.9920, 23258.00
549.1680, 22879.00
550.3440, 22540.00
551.5190, 22263.00
552.6950, 22019.00
553.8710, 21787.00
555.0460, 21499.00
556.2210, 21274.00
557.3960, 21130.11
558.5710, 21123.00
559.7460, 20935.00
560.9200, 20994.00
562.0950, 21012.00
563.2690, 20922.00
564.4430, 20873.00
565.6170, 20872.00
566.7910, 20835.00
567.9640, 20831.00
569.1380, 20704.00
570.3110, 20789.00
571.4840, 20705.00
572.6570, 20805.00
573.8300, 20724.00
575.0030, 20822.00
576.1750, 20789.00
577.3470, 20870.00
578.5200, 20651.00
579.6920, 20798.00
580.8630, 20724.00
582.0350, 20694.00
583.2070, 20719.00
584.3780, 20845.00
585.5490, 20752.00
586.7200, 20794.42
587.8910, 20757.00
589.0620, 20767.00
590.2330, 20715.00
591.4030, 20706.00
592.5730, 20841.00
593.7430, 20773.00
594.9130, 20910.00
596.0830, 20769.00
597.2530, 20935.00
598.4220, 20834.00
599.5920, 20791.00
600.7610, 20965.00
601.9300, 21039.00
603.0990, 20939.00
604.2670, 20933.00
605.4360, 21045.00
606.6040, 20885.00
607.7720, 20786.00
608.9400, 20957.00
610.1080, 20768.00
611.2760, 20763.00
612.4440, 20835.00
613.6110, 20877.00
614.7780, 20939.00
615.9450, 20887.00
617.1120, 20891.00
618.2790, 21000.00
619.4460, 20926.00
620.6120, 20985.00
621.7780, 21004.00
622.9450, 21031.16
624.1110, 21065.43
625.2760, 21121.00
626.4420, 21153.00
627.6080, 21163.00
628.7730, 21282.00
629.9380, 21234.00
631.1030, 21246.00
632.2680, 21233.22
633.4330, 21382.00
634.5970, 21213.00
635.7620, 21189.00
636.9260, 21316.00
638.0900, 21006.00
639.2540, 21311.00
640.4180, 21353.00
641.5810, 21375.00
642.7450, 21338.00
643.9080, 21310.00
645.0710, 21544.00
646.2340, 21332.00
647.3970, 21507.00
648.5590, 21387.00
649.7220, 21348.00
650.8840, 21446.00
652.0460, 21348.00
653.2080, 21324.00
654.3700, 21660.00
655.5320, 21487.00
656.6930, 21674.00
657.8550, 21603.00
659.0160, 21826.00
660.1770, 21757.00
661.3380, 21605.00
662.4990, 21744.00
663.6590, 21751.00
664.8200, 21825.00
665.9800, 21606.00
667.1400, 21649.00
668.3000, 21932.00
669.4600, 21801.00
670.6190, 21970.00
671.7790, 21902.00
672.9380, 21969.96
674.0970, 22149.00
675.2560, 22232.00
676.4150, 22239.90
677.5740, 22212.00
678.7320, 22159.00
679.8900, 22256.00
681.0490, 22104.00
682.2070, 22146.00
683.3640, 22429.00
684.5220, 22408.00
685.6800, 22509.00
686.8370, 22545.00
687.9940, 22698.00
689.1510, 22693.00
690.3080, 22791.00
691.4650, 22901.00
692.6220, 22953.00
693.7780, 23205.00
694.9340, 23428.00
696.0900, 23548.00
697.2460, 23876.00
698.4020, 23817.00
699.5580, 24091.00
700.7130, 24154.00
701.8680, 24574.00
703.0240, 24412.00
704.1790, 24593.00
705.3330, 24854.00
706.4880, 24786.00
707.6430, 24739.00
708.7970, 24494.00
709.9510, 24306.00
711.1050, 24346.00
712.2590, 24205.00
713.4130, 23907.00
714.5660, 24171.00
715.7200, 24240.00
716.8730, 24010.00
718.0260, 24259.00
719.1790, 23982.00
720.3320, 24580.00
721.4840, 24318.00
722.6370, 24491.00
723.7890, 24738.00
724.9410, 24815.00
726.0930, 24865.00
727.2450, 25031.00
728.3960, 24959.00
729.5480, 24822.00
730.6990, 24693.00
731.8500, 24309.00
733.0010, 24194.00
734.1520, 24029.00
735.3030, 23829.00
736.4530, 23703.00
737.6040, 23456.00
738.7540, 23403.00
739.9040, 23388.00
741.0540, 23286.00
742.2030, 23340.00
743.3530, 23274.00
744.5020, 23167.00
745.6520, 22987.00
746.8010, 23164.00
747.9490, 23111.00
749.0980, 23318.00
750.2470, 23194.00
751.3950, 23138.00
752.5440, 23342.00
753.6920, 23143.00
754.8400, 23401.00
755.9870, 23396.00
757.1350, 23252.00
758.2820, 23381.00
759.4300, 23357.00
760.5770, 23395.00
761.7240, 23252.00
762.8710, 23254.00
764.0170, 23424.00
765.1640, 23357.00
766.3100, 23516.00
767.4560, 23499.00
768.6020, 23451.00
769.7480, 23379.00
770.8940, 23441.00
772.0400, 23377.00
773.1850, 23568.00
774.3300, 23490.00
775.4750, 23567.00
776.6200, 23451.00
777.7650, 23791.00
778.9090, 23905.00
780.0540, 23752.00
781.1980, 23518.00
782.3420, 23846.00
783.4860, 23704.00
784.6300, 23803.00
785.7740, 23679.00
786.9170, 23869.00
788.0600, 23889.00
789.2030, 23822.00
790.3460, 23955.00
791.4890, 24154.00
792.6320, 23926.00
793.7740, 23781.00
794.9170, 24009.00
796.0590, 24093.00
797.2010, 24189.00
798.3430, 24137.00
799.4850, 24099.00
800.6260, 24268.00
801.7670, 24138.00
802.9090, 24233.00
804.0500, 24312.00
805.1910, 24334.00
806.3310, 24240.00
807.4720, 24338.00
808.6120, 24249.00
809.7530, 24429.00
810.8930, 24430.00
812.0330, 24463.00
813.1720, 24504.00
814.3120, 24578.00
815.4510, 24571.00
816.5910, 24547.00
817.7300, 24539.00
818.8690, 24611.00
820.0080, 24538.00
821.1460, 24654.00
822.2850, 24712.00
823.4230, 24740.00
824.5610, 24794.02
825.6990, 24837.62
826.8370, 24811.00
827.9750, 24858.00
829.1120, 24806.00
830.2500, 24658.00
831.3870, 24680.00
832.5240, 24687.00
833.6610, 24777.00
834.7980, 24830.02
835.9340, 25034.00
837.0700, 24970.00
838.2070, 25024.00
839.3430, 25029.00
840.4790, 24986.00
841.6140, 25169.00
842.7500, 25162.00
843.8850, 25096.00
845.0210, 25354.00
846.1560, 25210.00
847.2910, 25263.00
848.4260, 25475.00
849.5600, 25288.00
850.6950, 25305.00
851.8290, 25440.00
852.9630, 25504.00
854.0970, 25366.00
855.2310, 25377.00
856.3650, 25584.00
857.4980, 25673.00
858.6310, 25390.00
859.7650, 25798.00
860.8980, 25436.00
862.0310, 25638.00
863.1630, 25530.00
864.2960, 25616.00
865.4280, 25682.00
866.5600, 25504.00
867.6920, 26030.00
868.8240, 25840.68
869.9560, 25754.00
871.0880, 25914.00
872.2190, 25746.00
873.3500, 25976.00
874.4810, 25749.00
875.6120, 26000.00
876.7430, 25837.00
877.8740, 26107.00
879.0040, 25917.00
880.1340, 26045.00
881.2650, 26058.00
882.3950, 25938.00
883.5240, 25979.00
884.6540, 26022.00
885.7830, 26060.00
886.9130, 26079.00
888.0420, 26143.00
889.1710, 26193.00
890.3000, 26162.00
891.4280, 26374.00
892.5570, 26274.00
893.6850, 26425.00
894.8130, 26468.00
895.9420, 26432.00
897.0690, 26348.00
898.1970, 26317.00
899.3250, 26258.00
900.4520, 26316.00
901.5790, 26549.00
902.7060, 26473.00
903.8330, 26365.00
904.9600, 26674.00
906.0870, 26594.00
907.2130, 26530.00
908.3390, 26726.00
909.4650, 26745.00
910.5910, 26666.00
911.7170, 26795.00
912.8430, 26530.00
913.9680, 26750.00
915.0930, 26938.00
916.2180, 27052.00
917.3430, 26911.00
918.4680, 26995.00
919.5930, 26914.00
920.7170, 26897.00
921.8420, 27023.00
922.9660, 26947.00
924.0900, 26891.00
925.2140, 27066.00
926.3370, 26937.00
927.4610, 27140.00
928.5840, 27146.00
929.7070, 27014.00
930.8310, 27279.00
931.9530, 27070.00
933.0760, 27201.00
934.1990, 27531.00
935.3210, 27376.00
936.4430, 27409.00
937.5650, 27567.00
938.6870, 27540.00
939.8090, 27564.29
940.9310, 27544.00
942.0520, 27521.00
943.1730, 27563.00
944.2940, 27537.00
945.4150, 27615.14
946.5360, 27650.94
947.6570, 27735.00
948.7770, 27811.00
949.8970, 27788.00
951.0180, 27949.00
952.1370, 27778.00
953.2570, 27800.00
954.3770, 28070.00
955.4960, 28006.00
956.6160, 28284.00
957.7350, 28276.00
958.8540, 28588.00
959.9730, 28856.00
961.0910, 28920.00
962.2100, 29497.00
963.3280, 29441.00
964.4460, 29704.00
965.5640, 30713.00
966.6820, 31043.00
967.8000, 30835.00
968.9180, 31056.00
970.0350, 30601.00
971.1520, 30539.00
972.2690, 30324.00
973.3860, 29975.00
974.5030, 29403.00
975.6190, 29213.00
976.7360, 29046.00
977.8520, 29096.00
978.9680, 28755.00
980.0840, 29068.00
981.2000, 29049.00
982.3160, 29144.00
983.4310, 28991.00
984.5460, 29256.00
985.6610, 29283.00
986.7760, 29379.00
987.8910, 29287.00
989.0060, 29409.00
990.1200, 29564.00
991.2350, 29757.00
992.3490, 29853.00
993.4630, 30033.00
994.5760, 30068.66
995.6900, 30106.85
996.8040, 30086.00
997.9170, 30053.00
999.0300, 29979.00
1000.143, 29853.00
1001.256, 29874.26
1002.369, 29803.00
1003.481, 29934.00
1004.594, 29840.00
1005.706, 29988.00
1006.818, 30289.00
1007.930, 30099.00
1009.042, 30153.00
1010.153, 30313.00
1011.264, 30282.57
1012.376, 30435.00
1013.487, 30455.00
1014.598, 30651.00
1015.708, 30776.00
1016.819, 31272.00
1017.929, 31635.00
1019.040, 32141.00
1020.150, 33480.00
1021.260, 34094.00
1022.370, 35721.00
1023.479, 37122.00
1024.589, 38678.00
1025.698, 39591.00
1026.807, 40019.00
1027.916, 39090.00
1029.025, 37796.00
1030.133, 36087.00
1031.242, 34751.00
1032.350, 33682.00
1033.458, 33053.00
1034.566, 32489.00
1035.674, 32286.00
1036.782, 32053.00
1037.890, 31992.00
1038.997, 31873.00
1040.104, 31949.00
1041.211, 32130.00
1042.318, 31987.00
1043.425, 32126.00
1044.531, 32586.00
1045.638, 32591.00
1046.744, 32904.00
1047.850, 33252.00
1048.956, 33207.00
1050.061, 33226.00
1051.167, 32942.00
1052.272, 32997.00
1053.378, 32840.00
1054.483, 32717.00
1055.588, 32750.00
1056.692, 32022.00
1057.797, 32181.00
1058.901, 32108.00
1060.006, 32226.00
1061.110, 32321.00
1062.214, 32370.00
1063.318, 32549.00
1064.421, 32724.00
1065.525, 32759.00
1066.628, 32899.00
1067.731, 32992.00
1068.834, 33273.00
1069.937, 33448.00
1071.040, 33171.00
1072.142, 33470.00
1073.244, 33505.00
1074.347, 33218.00
1075.449, 33188.00
1076.550, 33028.00
1077.652, 32959.00
1078.754, 32764.00
1079.855, 32723.00
1080.956, 32794.00
1082.057, 32883.00
1083.158, 32851.00
1084.259, 32820.00
1085.359, 33059.00
1086.460, 33498.00
1087.560, 33411.00
1088.660, 33544.00
1089.760, 33919.00
1090.860, 33800.00
1091.959, 33871.00
1093.059, 34002.00
1094.158, 33815.00
1095.257, 33446.00
1096.356, 33269.00
1097.455, 33196.00
1098.553, 32989.00
1099.652, 32693.00
1100.750, 32426.00
1101.848, 32219.00
1102.946, 32254.00
1104.044, 32123.00
1105.141, 32265.00
1106.239, 32434.00
1107.336, 32238.00
1108.433, 32218.00
1109.530, 32216.00
1110.627, 32346.00
1111.724, 32214.00
1112.820, 32331.00
1113.917, 32173.00
1115.013, 32339.00
1116.109, 32026.00
1117.205, 32188.00
1118.300, 32054.00
1119.396, 32362.00
1120.491, 32443.00
1121.586, 32502.00
1122.681, 32372.00
1123.776, 32316.00
1124.871, 32528.00
1125.965, 32292.00
1127.060, 32376.00
1128.154, 32658.00
1129.248, 32436.00
1130.342, 32594.00
1131.436, 32395.00
1132.529, 32698.00
1133.623, 32615.00
1134.716, 32497.00
1135.809, 32681.00
1136.902, 32646.00
1137.995, 32706.00
1139.087, 32505.00
1140.180, 32628.00
1141.272, 32635.00
1142.364, 32833.00
1143.456, 32940.00
1144.548, 32941.00
1145.639, 32805.00
1146.731, 32792.00
1147.822, 32953.00
1148.913, 33025.00
1150.004, 33080.00
1151.095, 32755.00
1152.186, 33266.00
1153.276, 32899.00
1154.366, 33095.00
1155.457, 32831.00
1156.546, 33115.00
1157.636, 33118.00
1158.726, 33290.00
1159.815, 33430.00
1160.905, 33402.89
1161.994, 33362.00
1163.083, 33329.00
1164.172, 33377.00
1165.261, 33220.00
1166.349, 33527.00
1167.437, 33210.00
1168.526, 33358.00
1169.614, 33650.00
1170.702, 33386.00
1171.789, 33549.00
1172.877, 33578.00
1173.964, 33526.00
1175.051, 33551.00
1176.138, 33654.00
1177.225, 33790.00
1178.312, 33803.80
1179.399, 33846.76
1180.485, 33859.00
1181.571, 33813.00
1182.657, 33777.00
1183.743, 33698.00
1184.829, 34000.00
1185.915, 34026.00
1187.000, 33838.00
1188.085, 34120.00
1189.171, 33879.00
1190.255, 34183.00
1191.340, 34270.00
1192.425, 34059.00
1193.509, 33969.00
1194.594, 34144.00
1195.678, 34260.00
1196.762, 34356.00
1197.846, 34164.00
1198.929, 34294.00
1200.013, 34217.00
1201.096, 34305.00
1202.179, 34387.00
1203.262, 34498.00
1204.345, 34465.00
1205.428, 34561.00
1206.510, 34505.00
1207.593, 34545.00
1208.675, 34637.00
1209.757, 34674.00
1210.839, 34607.00
1211.920, 34646.00
1213.002, 34566.00
1214.083, 34743.00
1215.164, 34658.00
1216.245, 34942.00
1217.326, 34632.00
1218.407, 35056.00
1219.488, 35147.00
1220.568, 34831.00
1221.648, 35004.00
1222.728, 34934.00
1223.808, 35024.00
1224.888, 35075.00
1225.967, 35031.00
1227.047, 35119.17
1228.126, 35241.00
1229.205, 35212.00
1230.284, 35202.00
1231.363, 35251.00
1232.441, 35458.00
1233.520, 35333.00
1234.598, 35343.00
1235.676, 35251.00
1236.754, 35440.00
1237.832, 35582.00
1238.910, 35382.00
1239.987, 35518.00
1241.064, 35517.00
1242.141, 35604.00
1243.218, 35506.00
1244.295, 35681.00
1245.372, 35682.00
1246.448, 35840.00
1247.525, 35595.00
1248.601, 35749.00
1249.677, 35798.00
1250.753, 36120.00
1251.828, 35943.00
1252.904, 35890.00
1253.979, 35865.00
1255.054, 35840.00
1256.129, 36041.00
1257.204, 36134.00
1258.279, 36097.00
1259.353, 36167.00
1260.428, 36268.00
1261.502, 36380.00
1262.576, 36097.00
1263.650, 36403.00
