##NAMES=Natrolite
##RRUFFID=R060561
##IDEAL CHEMISTRY=Na_2_(Si_3_Al_2_)O_10_&#183;2H_2_O
##LOCALITY=California, USA
##OWNER=RRUFF
##SOURCE=Gemological Institute of America
##DESCRIPTION=White fragment
##STATUS=The identification of this mineral has been confirmed by X-ray diffraction and chemical analysis
##URL=rruff.info/R060561
##MEASURED CHEMISTRY=Na_2.00_(Si_3.00_Al_2.00_)O_10_Â·2H_2_O
##PIN_ID=L00669
##ORIENTATION=Laser parallel to c* (0 0 1). Fiducial mark perpendicular to laser is parallel to a [1 0 0]
99.58700, 1194.000
100.8210, 1304.000
102.0550, 1422.000
103.2890, 1641.000
104.5220, 1902.000
105.7560, 2241.000
106.9890, 2597.000
108.2230, 3087.000
109.4560, 3512.000
110.6890, 4122.000
111.9210, 4927.000
113.1540, 5617.000
114.3870, 6345.000
115.6190, 7151.000
116.8510, 7635.000
118.0830, 8351.000
119.3150, 9429.000
120.5470, 10619.00
121.7780, 12136.00
123.0100, 13114.00
124.2410, 13632.00
125.4720, 13580.00
126.7030, 13276.00
127.9340, 13204.00
129.1640, 13499.00
130.3950, 13927.00
131.6250, 14390.00
132.8550, 14949.00
134.0850, 15613.00
135.3150, 16621.00
136.5450, 17566.00
137.7750, 18216.00
139.0040, 18863.00
140.2330, 19901.00
141.4620, 21190.00
142.6910, 22581.00
143.9200, 24305.00
145.1490, 25916.00
146.3770, 26576.00
147.6060, 26727.00
148.8340, 26044.00
150.0620, 25054.00
151.2900, 23982.00
152.5170, 24013.00
153.7450, 24316.00
154.9720, 25069.00
156.2000, 26652.00
157.4270, 28171.00
158.6540, 29988.00
159.8810, 32685.00
161.1070, 35842.00
162.3340, 39172.00
163.5600, 42624.00
164.7860, 44581.00
166.0120, 44964.00
167.2380, 42767.00
168.4640, 39291.00
169.6890, 36604.00
170.9150, 32545.00
172.1400, 30164.00
173.3650, 28795.00
174.5900, 27382.00
175.8150, 26154.00
177.0400, 25028.00
178.2640, 24161.00
179.4880, 23272.00
180.7130, 22706.00
181.9370, 22489.00
183.1600, 22488.00
184.3840, 22801.00
185.6080, 23095.00
186.8310, 23173.00
188.0540, 23138.26
189.2770, 23243.00
190.5000, 22719.00
191.7230, 22415.00
192.9460, 21992.00
194.1680, 21684.00
195.3910, 21628.00
196.6130, 21885.00
197.8350, 22379.00
199.0570, 22940.00
200.2780, 23424.00
201.5000, 23995.00
202.7210, 24823.00
203.9420, 25443.00
205.1640, 25991.00
206.3840, 27360.00
207.6050, 28348.00
208.8260, 29059.00
210.0460, 29167.00
211.2670, 28683.00
212.4870, 27104.00
213.7070, 25518.00
214.9270, 24381.00
216.1460, 23185.00
217.3660, 22182.00
218.5850, 21503.00
219.8050, 20937.00
221.0240, 20636.00
222.2430, 20206.00
223.4610, 20071.00
224.6800, 19635.00
225.8980, 19275.00
227.1170, 19169.00
228.3350, 19200.00
229.5530, 19170.00
230.7710, 19153.00
231.9880, 19329.00
233.2060, 19532.00
234.4230, 19958.00
235.6400, 20135.00
236.8570, 20566.00
238.0740, 20761.00
239.2910, 21408.00
240.5080, 22028.00
241.7240, 22627.00
242.9400, 22505.50
244.1570, 22244.58
245.3730, 21881.00
246.5880, 21038.00
247.8040, 20331.00
249.0190, 19894.00
250.2350, 19485.00
251.4500, 19299.00
252.6650, 19146.00
253.8800, 19158.00
255.0950, 18986.00
256.3090, 19257.00
257.5240, 19259.00
258.7380, 19285.00
259.9520, 19207.00
261.1660, 19663.00
262.3800, 19768.00
263.5930, 19690.00
264.8070, 20012.00
266.0200, 20113.00
267.2330, 20416.00
268.4460, 20721.00
269.6590, 20983.00
270.8720, 21092.00
272.0850, 21288.00
273.2970, 21367.00
274.5090, 21250.00
275.7210, 20896.00
276.9330, 20796.00
278.1450, 20523.00
279.3570, 20222.00
280.5680, 20126.00
281.7790, 19932.00
282.9910, 19915.00
284.2020, 19746.00
285.4120, 19815.00
286.6230, 19996.00
287.8340, 19864.00
289.0440, 20021.00
290.2540, 20066.00
291.4640, 20123.00
292.6740, 20346.00
293.8840, 20458.00
295.0940, 20537.00
296.3030, 20796.00
297.5120, 21339.00
298.7210, 21457.00
299.9300, 21984.00
301.1390, 22269.00
302.3480, 22786.00
303.5560, 23636.00
304.7650, 24388.00
305.9730, 25566.00
307.1810, 25970.00
308.3890, 25972.00
309.5970, 24676.00
310.8040, 23664.00
312.0120, 22357.00
313.2190, 21716.00
314.4260, 20930.00
315.6330, 20903.00
316.8400, 20253.00
318.0460, 20385.00
319.2530, 20270.00
320.4590, 20340.00
321.6650, 20437.00
322.8710, 20422.00
324.0770, 20496.00
325.2830, 20401.00
326.4880, 20775.00
327.6940, 20680.00
328.8990, 20642.00
330.1040, 20993.00
331.3090, 21091.00
332.5140, 21179.00
333.7180, 21066.00
334.9230, 21037.00
336.1270, 21020.00
337.3310, 20774.00
338.5350, 20777.00
339.7390, 20698.00
340.9430, 20776.00
342.1460, 20902.00
343.3500, 20666.00
344.5530, 21024.00
345.7560, 20976.00
346.9590, 21065.00
348.1620, 21257.00
349.3640, 21499.00
350.5670, 21740.00
351.7690, 21874.00
352.9710, 22099.00
354.1730, 22208.00
355.3750, 22744.00
356.5760, 22798.00
357.7780, 23297.00
358.9790, 23391.00
360.1800, 23936.00
361.3810, 23545.00
362.5820, 23553.00
363.7830, 23264.00
364.9830, 22847.00
366.1840, 22379.00
367.3840, 22099.00
368.5840, 21983.00
369.7840, 21800.00
370.9840, 21586.00
372.1830, 21486.00
373.3830, 21375.51
374.5820, 21298.00
375.7810, 21249.00
376.9800, 21190.00
378.1790, 21137.00
379.3780, 20969.00
380.5760, 21202.00
381.7750, 21369.00
382.9730, 21000.00
384.1710, 21221.00
385.3690, 21336.00
386.5660, 21509.00
387.7640, 21330.00
388.9610, 21345.00
390.1590, 21370.00
391.3560, 21365.00
392.5530, 21499.00
393.7500, 21500.00
394.9460, 21522.00
396.1430, 21651.00
397.3390, 21596.00
398.5350, 21797.00
399.7310, 21568.00
400.9270, 21820.00
402.1230, 22053.00
403.3180, 21954.00
404.5140, 22314.00
405.7090, 22387.00
406.9040, 22541.00
408.0990, 22478.00
409.2930, 23014.00
410.4880, 22791.00
411.6820, 23011.00
412.8770, 22870.00
414.0710, 23179.00
415.2650, 23326.00
416.4590, 23278.00
417.6520, 23523.00
418.8460, 23739.00
420.0390, 24192.00
421.2320, 24234.00
422.4250, 24421.00
423.6180, 25228.00
424.8110, 25961.00
426.0030, 26751.00
427.1960, 27735.00
428.3880, 29018.00
429.5800, 30383.00
430.7720, 31719.00
431.9640, 33530.00
433.1550, 35321.00
434.3470, 37255.00
435.5380, 38839.00
436.7290, 40117.00
437.9200, 40402.00
439.1110, 40338.00
440.3020, 40307.00
441.4920, 40708.00
442.6820, 40860.00
443.8730, 41267.00
445.0630, 42131.00
446.2530, 43200.00
447.4420, 44124.00
448.6320, 44041.00
449.8210, 43344.00
451.0100, 40135.00
452.2000, 37265.00
453.3880, 34458.00
454.5770, 31547.00
455.7660, 29620.00
456.9540, 27896.00
458.1430, 26692.00
459.3310, 25935.00
460.5190, 25602.00
461.7070, 24912.00
462.8940, 24647.00
464.0820, 24569.00
465.2690, 24208.00
466.4560, 24062.00
467.6430, 23922.00
468.8300, 23983.00
470.0170, 24196.00
471.2040, 23989.00
472.3900, 23842.00
473.5760, 24239.00
474.7620, 24247.00
475.9480, 24384.00
477.1340, 24537.00
478.3200, 24646.04
479.5050, 24646.00
480.6900, 24951.00
481.8750, 25140.00
483.0600, 25287.00
484.2450, 25680.00
485.4300, 25811.00
486.6140, 26140.00
487.7990, 26514.00
488.9830, 26841.00
490.1670, 27232.00
491.3510, 27972.00
492.5350, 28025.00
493.7180, 28293.00
494.9020, 28726.00
496.0850, 28704.00
497.2680, 28661.00
498.4510, 28840.00
499.6340, 28715.00
500.8160, 28126.00
501.9990, 28343.00
503.1810, 28071.00
504.3630, 28157.00
505.5450, 27770.00
506.7270, 27945.00
507.9090, 27673.00
509.0900, 27790.00
510.2720, 27754.00
511.4530, 28086.00
512.6340, 28259.00
513.8150, 28600.00
514.9950, 28828.00
516.1760, 29289.00
517.3560, 29736.00
518.5370, 30277.00
519.7170, 31018.00
520.8970, 32091.00
522.0770, 33123.00
523.2560, 34654.00
524.4360, 36678.00
525.6150, 39375.00
526.7940, 41935.00
527.9730, 45057.00
529.1520, 48411.00
530.3310, 52382.00
531.5090, 56678.00
532.6870, 59909.00
533.8660, 62186.00
535.0440, 61252.00
536.2210, 57574.00
537.3990, 52408.00
538.5770, 46761.00
539.7540, 42346.00
540.9310, 38440.00
542.1080, 35717.00
543.2850, 33296.00
544.4620, 31794.00
545.6390, 30830.00
546.8150, 29731.00
547.9920, 28988.00
549.1680, 28454.00
550.3440, 28003.00
551.5190, 27650.00
552.6950, 27363.00
553.8710, 27117.00
555.0460, 26886.00
556.2210, 26714.12
557.3960, 26696.00
558.5710, 26458.00
559.7460, 26420.00
560.9200, 26366.00
562.0950, 26078.00
563.2690, 26112.00
564.4430, 26109.00
565.6170, 25875.00
566.7910, 25906.00
567.9640, 26104.00
569.1380, 26035.00
570.3110, 25950.00
571.4840, 25933.00
572.6570, 25915.61
573.8300, 25981.00
575.0030, 25978.00
576.1750, 26005.00
577.3470, 26124.00
578.5200, 26134.09
579.6920, 26143.00
580.8630, 26249.00
582.0350, 25972.00
583.2070, 26025.00
584.3780, 26083.00
585.5490, 26193.00
586.7200, 26331.00
587.8910, 26180.00
589.0620, 26011.00
590.2330, 26224.00
591.4030, 25933.00
592.5730, 26290.00
593.7430, 26267.00
594.9130, 26556.00
596.0830, 26265.00
597.2530, 26543.00
598.4220, 26342.00
599.5920, 26710.00
600.7610, 26571.00
601.9300, 26630.00
603.0990, 26680.00
604.2670, 26481.00
605.4360, 26501.00
606.6040, 26482.00
607.7720, 26561.00
608.9400, 26489.32
610.1080, 26089.00
611.2760, 26375.00
612.4440, 26250.00
613.6110, 26178.00
614.7780, 26275.00
615.9450, 26344.00
617.1120, 26177.00
618.2790, 26362.00
619.4460, 26295.00
620.6120, 26523.00
621.7780, 26120.00
622.9450, 26312.00
624.1110, 26284.00
625.2760, 26570.00
626.4420, 26347.00
627.6080, 26407.00
628.7730, 26417.00
629.9380, 26540.00
631.1030, 26708.00
632.2680, 26577.00
633.4330, 26701.00
634.5970, 26578.00
635.7620, 26561.00
636.9260, 26743.00
638.0900, 26671.00
639.2540, 26595.00
640.4180, 26633.00
641.5810, 26811.00
642.7450, 26845.00
643.9080, 26830.00
645.0710, 26751.00
646.2340, 26755.00
647.3970, 26849.00
648.5590, 26857.00
649.7220, 26925.00
650.8840, 26875.00
652.0460, 26958.00
653.2080, 27007.00
654.3700, 27214.00
655.5320, 27110.00
656.6930, 27214.00
657.8550, 27133.00
659.0160, 27065.00
660.1770, 27288.00
661.3380, 27043.00
662.4990, 27252.00
663.6590, 27162.00
664.8200, 27542.00
665.9800, 27342.00
667.1400, 27368.00
668.3000, 27578.00
669.4600, 27540.00
670.6190, 27489.00
671.7790, 27509.00
672.9380, 27600.00
674.0970, 27521.00
675.2560, 27583.34
676.4150, 27735.00
677.5740, 27573.00
678.7320, 27803.00
679.8900, 27710.00
681.0490, 28032.00
682.2070, 27875.00
683.3640, 28219.00
684.5220, 28153.00
685.6800, 28124.00
686.8370, 28268.00
687.9940, 28606.00
689.1510, 28637.00
690.3080, 28635.00
691.4650, 29115.00
692.6220, 29134.00
693.7780, 29435.00
694.9340, 29455.00
696.0900, 29642.00
697.2460, 30081.00
698.4020, 30384.00
699.5580, 30497.00
700.7130, 30562.00
701.8680, 30714.00
703.0240, 31221.00
704.1790, 31202.00
705.3330, 31087.00
706.4880, 31457.00
707.6430, 31188.00
708.7970, 31295.00
709.9510, 30784.00
711.1050, 30821.00
712.2590, 30695.00
713.4130, 30438.00
714.5660, 30647.00
715.7200, 30094.00
716.8730, 30257.00
718.0260, 30354.00
719.1790, 30271.00
720.3320, 30498.00
721.4840, 30691.00
722.6370, 30644.00
723.7890, 30798.00
724.9410, 31072.00
726.0930, 31107.00
727.2450, 31289.00
728.3960, 31381.00
729.5480, 31051.00
730.6990, 30700.00
731.8500, 30527.00
733.0010, 30386.00
734.1520, 30124.00
735.3030, 29793.00
736.4530, 29660.00
737.6040, 29394.00
738.7540, 29300.00
739.9040, 29142.00
741.0540, 29089.00
742.2030, 29023.70
743.3530, 28925.00
744.5020, 28987.00
745.6520, 29065.00
746.8010, 29132.00
747.9490, 29024.00
749.0980, 28920.00
750.2470, 28972.00
751.3950, 28923.70
752.5440, 29053.00
753.6920, 28933.00
754.8400, 29102.00
755.9870, 29063.00
757.1350, 29441.00
758.2820, 29277.82
759.4300, 29255.92
760.5770, 29174.00
761.7240, 29081.00
762.8710, 29209.00
764.0170, 29342.00
765.1640, 29322.00
766.3100, 29272.00
767.4560, 29216.00
768.6020, 29051.00
769.7480, 29339.00
770.8940, 29295.00
772.0400, 29362.00
773.1850, 29575.00
774.3300, 29245.00
775.4750, 29403.00
776.6200, 29464.00
777.7650, 29492.00
778.9090, 29203.00
780.0540, 29709.00
781.1980, 29539.00
782.3420, 29530.00
783.4860, 29779.00
784.6300, 29753.00
785.7740, 29765.00
786.9170, 29797.00
788.0600, 29790.95
789.2030, 29800.00
790.3460, 29822.00
791.4890, 29837.00
792.6320, 29869.00
793.7740, 29952.00
794.9170, 30123.00
796.0590, 30013.00
797.2010, 30157.00
798.3430, 29871.00
799.4850, 30247.00
800.6260, 30049.00
801.7670, 30165.00
802.9090, 30210.00
804.0500, 30083.00
805.1910, 30241.00
806.3310, 30222.00
807.4720, 30177.00
808.6120, 30288.00
809.7530, 30420.00
810.8930, 30372.00
812.0330, 30299.00
813.1720, 30288.00
814.3120, 30087.00
815.4510, 30542.00
816.5910, 30383.00
817.7300, 30689.00
818.8690, 30402.00
820.0080, 30806.00
821.1460, 30519.00
822.2850, 30699.00
823.4230, 30805.00
824.5610, 30668.00
825.6990, 30712.00
826.8370, 30853.00
827.9750, 30704.00
829.1120, 30931.00
830.2500, 30962.00
831.3870, 31093.00
832.5240, 31028.00
833.6610, 30958.00
834.7980, 30880.00
835.9340, 31137.00
837.0700, 31064.00
838.2070, 31083.00
839.3430, 31247.00
840.4790, 31169.00
841.6140, 31167.00
842.7500, 31170.00
843.8850, 31110.00
845.0210, 31220.00
846.1560, 31227.28
847.2910, 31365.00
848.4260, 31347.00
849.5600, 31404.00
850.6950, 31473.00
851.8290, 31517.00
852.9630, 31421.00
854.0970, 31720.00
855.2310, 31532.00
856.3650, 31651.00
857.4980, 31599.00
858.6310, 31597.00
859.7650, 31733.00
860.8980, 31650.00
862.0310, 31757.00
863.1630, 31779.00
864.2960, 31685.00
865.4280, 31785.00
866.5600, 31722.00
867.6920, 31843.00
868.8240, 31721.00
869.9560, 31760.00
871.0880, 32010.00
872.2190, 31961.00
873.3500, 32181.00
874.4810, 32193.85
875.6120, 32175.00
876.7430, 32215.00
877.8740, 32096.00
879.0040, 32052.00
880.1340, 32333.00
881.2650, 32193.00
882.3950, 32232.00
883.5240, 32256.00
884.6540, 32237.00
885.7830, 32312.00
886.9130, 32159.00
888.0420, 32418.00
889.1710, 32538.00
890.3000, 32204.00
891.4280, 32471.00
892.5570, 32381.00
893.6850, 32427.00
894.8130, 32476.00
895.9420, 32857.00
897.0690, 32287.00
898.1970, 32632.00
899.3250, 32616.00
900.4520, 32437.00
901.5790, 32579.00
902.7060, 32617.00
903.8330, 32585.00
904.9600, 32622.00
906.0870, 32703.00
907.2130, 32821.00
908.3390, 32844.21
909.4650, 32828.00
910.5910, 32929.00
911.7170, 32886.00
912.8430, 32913.00
913.9680, 32943.00
915.0930, 33017.00
916.2180, 33149.00
917.3430, 33421.00
918.4680, 32942.00
919.5930, 33328.00
920.7170, 33057.00
921.8420, 33150.00
922.9660, 33175.00
924.0900, 33179.00
925.2140, 33158.00
926.3370, 33270.00
927.4610, 33168.00
928.5840, 33462.00
929.7070, 33352.00
930.8310, 33543.00
931.9530, 33374.00
933.0760, 33614.00
934.1990, 33592.00
935.3210, 33379.00
936.4430, 33621.00
937.5650, 33608.00
938.6870, 33786.00
939.8090, 33705.00
940.9310, 34022.00
942.0520, 33760.00
943.1730, 33899.00
944.2940, 33771.00
945.4150, 33728.00
946.5360, 33902.00
947.6570, 33986.00
948.7770, 34051.00
949.8970, 34290.00
951.0180, 34348.00
952.1370, 34488.00
953.2570, 34574.48
954.3770, 34932.00
955.4960, 34589.00
956.6160, 35006.00
957.7350, 34817.00
958.8540, 35206.00
959.9730, 35421.00
961.0910, 35781.00
962.2100, 36185.00
963.3280, 36433.00
964.4460, 37123.00
965.5640, 37729.00
966.6820, 38419.00
967.8000, 38746.00
968.9180, 38601.00
970.0350, 38540.00
971.1520, 38140.00
972.2690, 37631.00
973.3860, 36852.00
974.5030, 36384.00
975.6190, 35757.00
976.7360, 35689.00
977.8520, 35610.00
978.9680, 35442.00
980.0840, 35417.00
981.2000, 35194.00
982.3160, 35287.00
983.4310, 35420.00
984.5460, 35304.00
985.6610, 35679.00
986.7760, 35555.00
987.8910, 35833.00
989.0060, 35790.00
990.1200, 36146.00
991.2350, 36242.00
992.3490, 36624.00
993.4630, 36453.00
994.5760, 36755.00
995.6900, 37119.00
996.8040, 36863.00
997.9170, 36829.00
999.0300, 37111.00
1000.143, 36829.00
1001.256, 36670.00
1002.369, 36581.00
1003.481, 36543.00
1004.594, 36268.00
1005.706, 36323.00
1006.818, 36373.00
1007.930, 36622.00
1009.042, 36523.00
1010.153, 36517.00
1011.264, 36737.00
1012.376, 37006.00
1013.487, 37071.00
1014.598, 37140.00
1015.708, 37237.00
1016.819, 37745.00
1017.929, 38326.00
1019.040, 39284.00
1020.150, 40253.00
1021.260, 41768.00
1022.370, 43358.00
1023.479, 44610.00
1024.589, 46196.00
1025.698, 47872.00
1026.807, 47979.00
1027.916, 47539.00
1029.025, 45779.00
1030.133, 43941.00
1031.242, 42238.00
1032.350, 41145.00
1033.458, 39759.00
1034.566, 39400.00
1035.674, 38851.00
1036.782, 38704.00
1037.890, 38301.00
1038.997, 38173.00
1040.104, 38153.00
1041.211, 38397.00
1042.318, 38081.00
1043.425, 38410.00
1044.531, 38647.00
1045.638, 38826.00
1046.744, 39115.00
1047.850, 39287.00
1048.956, 39431.88
1050.061, 39552.00
1051.167, 39663.00
1052.272, 39778.00
1053.378, 39874.00
1054.483, 39487.00
1055.588, 39238.00
1056.692, 39266.00
1057.797, 39369.00
1058.901, 39438.00
1060.006, 39237.00
1061.110, 39644.00
1062.214, 39648.00
1063.318, 40044.00
1064.421, 40288.00
1065.525, 40121.00
1066.628, 40567.00
1067.731, 40838.00
1068.834, 40862.00
1069.937, 40843.00
1071.040, 40697.00
1072.142, 40914.00
1073.244, 40539.00
1074.347, 40436.00
1075.449, 40470.00
1076.550, 39946.00
1077.652, 40114.00
1078.754, 40054.00
1079.855, 39689.00
1080.956, 39560.00
1082.057, 39535.00
1083.158, 39730.00
1084.259, 40066.00
1085.359, 40141.62
1086.460, 40416.00
1087.560, 40491.00
1088.660, 40712.00
1089.760, 40841.00
1090.860, 40952.00
1091.959, 40892.00
1093.059, 40773.00
1094.158, 40629.00
1095.257, 40461.00
1096.356, 40221.00
1097.455, 39718.00
1098.553, 39439.00
1099.652, 39346.00
1100.750, 39157.00
1101.848, 39178.00
1102.946, 39206.00
1104.044, 39128.00
1105.141, 39234.00
1106.239, 38886.00
1107.336, 39061.00
1108.433, 38946.00
1109.530, 38894.00
1110.627, 38976.00
1111.724, 39064.00
1112.820, 39539.00
1113.917, 39369.00
1115.013, 39541.27
1116.109, 39699.65
1117.205, 39611.00
1118.300, 39645.00
1119.396, 39726.00
1120.491, 39641.29
1121.586, 39580.39
1122.681, 39464.00
1123.776, 39373.00
1124.871, 39078.00
1125.965, 39049.00
1127.060, 39432.00
1128.154, 39289.00
1129.248, 39174.00
1130.342, 39351.00
1131.436, 39227.00
1132.529, 39294.00
1133.623, 39193.00
1134.716, 39292.00
1135.809, 39362.00
1136.902, 39184.00
1137.995, 39144.00
1139.087, 39398.00
1140.180, 39281.00
1141.272, 39438.00
1142.364, 39418.00
1143.456, 39354.00
1144.548, 39399.00
1145.639, 39368.00
1146.731, 39612.00
1147.822, 39495.00
1148.913, 39832.00
1150.004, 39695.00
1151.095, 39704.00
1152.186, 39853.00
1153.276, 39884.00
1154.366, 39965.00
1155.457, 39893.00
1156.546, 39973.00
1157.636, 40612.00
1158.726, 40449.00
1159.815, 40638.00
1160.905, 40046.00
1161.994, 40165.00
1163.083, 40135.00
1164.172, 40315.00
1165.261, 40254.00
1166.349, 40123.00
1167.437, 40194.00
1168.526, 40138.00
1169.614, 40418.00
1170.702, 40415.00
1171.789, 40503.00
1172.877, 40526.00
1173.964, 40533.00
1175.051, 40535.00
1176.138, 40387.00
1177.225, 40526.00
1178.312, 40389.00
1179.399, 40489.00
1180.485, 40727.00
1181.571, 40562.00
1182.657, 40493.00
1183.743, 40820.00
1184.829, 40742.00
1185.915, 40595.00
1187.000, 40739.00
1188.085, 40898.00
1189.171, 40920.00
1190.255, 41160.00
1191.340, 41299.00
1192.425, 40900.00
1193.509, 41270.00
1194.594, 40852.00
1195.678, 41171.00
1196.762, 41144.00
1197.846, 40990.00
1198.929, 41262.00
1200.013, 41391.00
1201.096, 41169.00
1202.179, 41331.00
1203.262, 41301.00
1204.345, 41216.00
1205.428, 41276.00
1206.510, 41431.00
1207.593, 41521.00
1208.675, 41861.00
1209.757, 41402.00
1210.839, 41437.00
1211.920, 41794.00
1213.002, 41588.00
1214.083, 41747.00
1215.164, 41478.00
1216.245, 42044.00
1217.326, 41700.00
1218.407, 41823.00
1219.488, 41922.00
1220.568, 41883.00
1221.648, 42131.00
1222.728, 41970.00
1223.808, 41959.00
1224.888, 42166.00
1225.967, 41995.00
1227.047, 42055.00
1228.126, 41986.00
1229.205, 42099.00
1230.284, 42166.00
1231.363, 42414.00
1232.441, 42401.00
1233.520, 42446.62
1234.598, 42297.00
1235.676, 42380.00
1236.754, 42488.00
1237.832, 42392.00
1238.910, 42365.00
1239.987, 42634.00
1241.064, 42732.00
1242.141, 42707.00
1243.218, 42797.11
1244.295, 42660.00
1245.372, 42801.00
1246.448, 42769.00
1247.525, 42835.00
1248.601, 42686.00
1249.677, 42492.00
1250.753, 42938.00
1251.828, 42948.00
1252.904, 42750.00
1253.979, 42971.00
1255.054, 42717.00
1256.129, 42773.00
1257.204, 42900.00
1258.279, 42893.00
1259.353, 43161.00
1260.428, 42924.00
1261.502, 43092.00
1262.576, 43250.00
1263.650, 43214.00
1264.724, 43369.00
1265.797, 43042.00
1266.871, 43356.00
1267.944, 43282.00
1269.017, 43426.00
1270.090, 43506.00
1271.162, 43557.00
1272.235, 43681.00
1273.307, 43615.00
1274.380, 43694.44
1275.452, 43682.00
1276.524, 43726.00
1277.595, 43800.00
1278.667, 43768.00
1279.738, 43725.00
1280.810, 43868.00
