##NAMES=Natrolite
##RRUFFID=R060561
##IDEAL CHEMISTRY=Na_2_(Si_3_Al_2_)O_10_&#183;2H_2_O
##LOCALITY=California, USA
##OWNER=RRUFF
##SOURCE=Gemological Institute of America
##DESCRIPTION=White fragment
##STATUS=The identification of this mineral has been confirmed by X-ray diffraction and chemical analysis
##URL=rruff.info/R060561
##MEASURED CHEMISTRY=Na_2.00_(Si_3.00_Al_2.00_)O_10_Â·2H_2_O
##PIN_ID=L00669
##ORIENTATION=Laser parallel to c* (0 0 1). Fiducial mark perpendicular to laser is parallel to a [1 0 0]
82.29200, 593.0000
83.52800, 578.0000
84.76400, 584.0000
86.00000, 576.0000
87.23600, 573.0000
88.47200, 599.0000
89.70800, 606.0000
90.94300, 600.0000
92.17800, 613.0000
93.41300, 634.0000
94.64800, 661.9122
95.88300, 689.0000
97.11800, 747.0000
98.35200, 806.0000
99.58700, 865.0000
100.8210, 990.0000
102.0550, 1130.000
103.2890, 1209.000
104.5220, 1433.000
105.7560, 1649.000
106.9890, 1925.000
108.2230, 2184.000
109.4560, 2561.000
110.6890, 3065.000
111.9210, 3612.000
113.1540, 4152.000
114.3870, 4793.000
115.6190, 5266.000
116.8510, 5800.000
118.0830, 6489.000
119.3150, 7641.000
120.5470, 9076.000
121.7780, 10611.00
123.0100, 11502.00
124.2410, 11551.00
125.4720, 10789.00
126.7030, 10116.00
127.9340, 9427.000
129.1640, 9232.000
130.3950, 9319.000
131.6250, 9547.000
132.8550, 10090.00
134.0850, 10611.00
135.3150, 11275.00
136.5450, 11558.00
137.7750, 11840.00
139.0040, 12062.00
140.2330, 12710.00
141.4620, 13602.00
142.6910, 14728.00
143.9200, 15951.00
145.1490, 16722.00
146.3770, 17150.00
147.6060, 17093.00
148.8340, 16852.00
150.0620, 16705.00
151.2900, 17165.00
152.5170, 18236.00
153.7450, 20167.00
154.9720, 22669.00
156.2000, 25359.00
157.4270, 27952.00
158.6540, 30690.00
159.8810, 34043.00
161.1070, 37285.00
162.3340, 40531.00
163.5600, 42953.00
164.7860, 43893.00
166.0120, 42111.00
167.2380, 38493.00
168.4640, 34562.00
169.6890, 30099.00
170.9150, 26551.00
172.1400, 23721.00
173.3650, 21846.00
174.5900, 20345.00
175.8150, 18910.00
177.0400, 17870.00
178.2640, 16920.00
179.4880, 16394.00
180.7130, 15760.00
181.9370, 15512.00
183.1600, 15506.00
184.3840, 15570.00
185.6080, 15656.00
186.8310, 15603.00
188.0540, 15664.00
189.2770, 15136.00
190.5000, 14700.00
191.7230, 14316.00
192.9460, 14094.00
194.1680, 13872.00
195.3910, 13900.23
196.6130, 14038.00
197.8350, 14248.00
199.0570, 14685.00
200.2780, 15143.00
201.5000, 15786.00
202.7210, 16232.00
203.9420, 16534.00
205.1640, 16879.00
206.3840, 17454.00
207.6050, 18130.00
208.8260, 18244.00
210.0460, 17939.00
211.2670, 17378.00
212.4870, 16491.00
213.7070, 15639.00
214.9270, 14930.00
216.1460, 14174.00
217.3660, 13845.00
218.5850, 13418.00
219.8050, 13217.00
221.0240, 12933.00
222.2430, 12564.00
223.4610, 12267.00
224.6800, 11927.00
225.8980, 11794.00
227.1170, 11569.43
228.3350, 11301.00
229.5530, 11306.00
230.7710, 11233.00
231.9880, 11176.00
233.2060, 11281.00
234.4230, 11352.00
235.6400, 11546.00
236.8570, 11503.00
238.0740, 11591.00
239.2910, 11921.00
240.5080, 11995.00
241.7240, 12364.00
242.9400, 12215.00
244.1570, 12208.00
245.3730, 11960.00
246.5880, 11805.00
247.8040, 11463.00
249.0190, 11343.00
250.2350, 11205.00
251.4500, 11068.00
252.6650, 11009.00
253.8800, 11011.00
255.0950, 11051.00
256.3090, 11094.34
257.5240, 11099.00
258.7380, 11266.74
259.9520, 11373.00
261.1660, 11475.00
262.3800, 11564.00
263.5930, 11617.00
264.8070, 11673.93
266.0200, 11819.70
267.2330, 11765.00
268.4460, 12112.00
269.6590, 12228.00
270.8720, 12368.00
272.0850, 12413.00
273.2970, 12693.00
274.5090, 12742.00
275.7210, 12598.00
276.9330, 12721.00
278.1450, 12495.00
279.3570, 12297.00
280.5680, 12107.00
281.7790, 11977.00
282.9910, 11879.50
284.2020, 11866.00
285.4120, 11808.00
286.6230, 11782.00
287.8340, 11857.00
289.0440, 11904.00
290.2540, 11997.00
291.4640, 11966.00
292.6740, 11983.00
293.8840, 12152.00
295.0940, 12203.00
296.3030, 12097.00
297.5120, 12229.00
298.7210, 12430.00
299.9300, 12540.00
301.1390, 12781.00
302.3480, 12873.00
303.5560, 13437.00
304.7650, 13657.00
305.9730, 14002.00
307.1810, 14174.00
308.3890, 13909.00
309.5970, 13401.00
310.8040, 13017.00
312.0120, 12640.00
313.2190, 12386.00
314.4260, 12063.00
315.6330, 12078.00
316.8400, 12100.00
318.0460, 12090.00
319.2530, 11976.00
320.4590, 12100.00
321.6650, 12143.00
322.8710, 12436.00
324.0770, 12367.54
325.2830, 12486.00
326.4880, 12370.00
327.6940, 12453.00
328.8990, 12541.00
330.1040, 12588.00
331.3090, 12717.00
332.5140, 12792.00
333.7180, 12720.00
334.9230, 12627.00
336.1270, 12522.00
337.3310, 12459.18
338.5350, 12427.00
339.7390, 12339.00
340.9430, 12444.00
342.1460, 12443.00
343.3500, 12527.00
344.5530, 12516.00
345.7560, 12619.00
346.9590, 12832.00
348.1620, 12890.00
349.3640, 13252.00
350.5670, 13327.00
351.7690, 13673.00
352.9710, 13916.00
354.1730, 14275.00
355.3750, 14640.00
356.5760, 14872.00
357.7780, 15008.00
358.9790, 15159.32
360.1800, 15513.00
361.3810, 15179.00
362.5820, 15126.00
363.7830, 14906.00
364.9830, 14398.00
366.1840, 13985.00
367.3840, 13642.00
368.5840, 13246.00
369.7840, 12861.00
370.9840, 13011.00
372.1830, 12867.00
373.3830, 12640.00
374.5820, 12682.00
375.7810, 12440.00
376.9800, 12613.00
378.1790, 12521.00
379.3780, 12445.00
380.5760, 12570.00
381.7750, 12457.00
382.9730, 12451.00
384.1710, 12556.00
385.3690, 12575.00
386.5660, 12508.00
387.7640, 12585.00
388.9610, 12628.00
390.1590, 12521.00
391.3560, 12492.00
392.5530, 12706.00
393.7500, 12827.00
394.9460, 12838.00
396.1430, 12729.00
397.3390, 12821.00
398.5350, 12722.00
399.7310, 12964.00
400.9270, 12898.00
402.1230, 12905.00
403.3180, 13101.00
404.5140, 13289.00
405.7090, 13085.00
406.9040, 13386.00
408.0990, 13416.00
409.2930, 13684.00
410.4880, 13575.00
411.6820, 13665.00
412.8770, 13742.00
414.0710, 13811.00
415.2650, 13947.00
416.4590, 13979.00
417.6520, 13891.00
418.8460, 13999.00
420.0390, 14086.00
421.2320, 14269.00
422.4250, 14499.00
423.6180, 14861.00
424.8110, 15132.00
426.0030, 15585.00
427.1960, 16307.00
428.3880, 16780.00
429.5800, 17726.00
430.7720, 18687.00
431.9640, 19842.00
433.1550, 20997.00
434.3470, 22173.00
435.5380, 23349.00
436.7290, 24278.00
437.9200, 25391.00
439.1110, 26641.00
440.3020, 28019.00
441.4920, 29532.00
442.6820, 30972.00
443.8730, 32415.00
445.0630, 33497.00
446.2530, 34678.00
447.4420, 34520.00
448.6320, 33498.00
449.8210, 31806.00
451.0100, 29173.00
452.2000, 26301.00
453.3880, 23165.00
454.5770, 20885.00
455.7660, 19229.00
456.9540, 17867.00
458.1430, 16870.00
459.3310, 16214.00
460.5190, 15788.00
461.7070, 15504.00
462.8940, 15159.00
464.0820, 14834.00
465.2690, 14792.00
466.4560, 14887.00
467.6430, 14902.00
468.8300, 14721.00
470.0170, 14836.00
471.2040, 14726.00
472.3900, 14867.00
473.5760, 14918.00
474.7620, 15074.00
475.9480, 15036.00
477.1340, 15468.00
478.3200, 15487.00
479.5050, 15711.00
480.6900, 16094.00
481.8750, 16405.00
483.0600, 16613.00
484.2450, 16988.00
485.4300, 17417.00
486.6140, 18054.00
487.7990, 18390.00
488.9830, 19010.00
490.1670, 19740.00
491.3510, 20318.00
492.5350, 20670.00
493.7180, 21007.00
494.9020, 21105.00
496.0850, 21110.00
497.2680, 21052.00
498.4510, 20848.00
499.6340, 20435.00
500.8160, 19962.00
501.9990, 19649.00
503.1810, 19259.00
504.3630, 19109.00
505.5450, 18888.00
506.7270, 18870.00
507.9090, 18561.00
509.0900, 18476.00
510.2720, 18510.00
511.4530, 18669.00
512.6340, 18872.00
513.8150, 19107.00
514.9950, 19353.00
516.1760, 19877.00
517.3560, 20143.00
518.5370, 20951.00
519.7170, 21977.00
520.8970, 23016.00
522.0770, 24878.00
523.2560, 27196.00
524.4360, 30202.00
525.6150, 33430.00
526.7940, 37038.00
527.9730, 41203.00
529.1520, 45296.00
530.3310, 49512.00
531.5090, 53657.00
532.6870, 56737.00
533.8660, 57405.00
535.0440, 54696.00
536.2210, 50310.00
537.3990, 44238.00
538.5770, 38650.00
539.7540, 33442.00
540.9310, 29394.00
542.1080, 26302.00
543.2850, 24016.00
544.4620, 22377.00
545.6390, 21088.00
546.8150, 19907.00
547.9920, 19164.34
549.1680, 18929.00
550.3440, 18189.00
551.5190, 17822.00
552.6950, 17472.00
553.8710, 17261.00
555.0460, 16918.00
556.2210, 16703.00
557.3960, 16615.00
558.5710, 16370.00
559.7460, 16279.55
560.9200, 16138.00
562.0950, 16097.00
563.2690, 15967.00
564.4430, 15939.00
565.6170, 15856.96
566.7910, 15722.00
567.9640, 15729.00
569.1380, 15688.00
570.3110, 15643.00
571.4840, 15625.00
572.6570, 15588.00
573.8300, 15734.00
575.0030, 15524.00
576.1750, 15606.00
577.3470, 15469.00
578.5200, 15468.00
579.6920, 15522.00
580.8630, 15558.00
582.0350, 15452.00
583.2070, 15576.00
584.3780, 15640.00
585.5490, 15641.00
586.7200, 15494.00
587.8910, 15599.00
589.0620, 15389.00
590.2330, 15533.00
591.4030, 15424.00
592.5730, 15519.00
593.7430, 15579.00
594.9130, 15448.00
596.0830, 15421.00
597.2530, 15500.00
598.4220, 15439.00
599.5920, 15629.00
600.7610, 15393.00
601.9300, 15675.00
603.0990, 15462.00
604.2670, 15701.00
605.4360, 15730.00
606.6040, 15682.00
607.7720, 15591.00
608.9400, 15625.00
610.1080, 15557.00
611.2760, 15478.00
612.4440, 15517.00
613.6110, 15465.00
614.7780, 15459.00
615.9450, 15515.53
617.1120, 15439.00
618.2790, 15598.00
619.4460, 15585.00
620.6120, 15553.00
621.7780, 15646.00
622.9450, 15680.00
624.1110, 15704.80
625.2760, 15734.85
626.4420, 15756.00
627.6080, 15721.00
628.7730, 15696.00
629.9380, 15629.00
631.1030, 15662.00
632.2680, 15700.00
633.4330, 15729.00
634.5970, 15684.00
635.7620, 15829.00
636.9260, 15706.00
638.0900, 15888.00
639.2540, 15843.00
640.4180, 15703.00
641.5810, 15710.00
642.7450, 15868.00
643.9080, 15747.00
645.0710, 15854.00
646.2340, 15705.00
647.3970, 15730.00
648.5590, 15706.00
649.7220, 15845.00
650.8840, 15807.00
652.0460, 16034.00
653.2080, 15865.00
654.3700, 16107.00
655.5320, 15872.00
656.6930, 15895.00
657.8550, 16024.00
659.0160, 16032.00
660.1770, 16066.01
661.3380, 16024.00
662.4990, 16038.00
663.6590, 16095.00
664.8200, 15971.00
665.9800, 16018.00
667.1400, 16089.00
668.3000, 16021.00
669.4600, 16061.00
670.6190, 16194.00
671.7790, 16143.00
672.9380, 16361.00
674.0970, 16178.00
675.2560, 16253.00
676.4150, 16258.00
677.5740, 16368.00
678.7320, 16522.00
679.8900, 16614.00
681.0490, 16392.00
682.2070, 16671.00
683.3640, 16649.00
684.5220, 16550.00
685.6800, 16811.00
686.8370, 16871.00
687.9940, 16852.00
689.1510, 16914.00
690.3080, 17171.00
691.4650, 17225.00
692.6220, 17569.00
693.7780, 17368.00
694.9340, 17511.00
696.0900, 17784.00
697.2460, 17804.00
698.4020, 18020.00
699.5580, 18271.00
700.7130, 18307.00
701.8680, 18477.00
703.0240, 18535.00
704.1790, 18635.00
705.3330, 18657.56
706.4880, 18717.00
707.6430, 18603.00
708.7970, 18507.00
709.9510, 18371.00
711.1050, 18412.00
712.2590, 18482.00
713.4130, 18355.00
714.5660, 18536.00
715.7200, 18399.00
716.8730, 18633.00
718.0260, 18969.00
719.1790, 18870.00
720.3320, 19137.00
721.4840, 19357.00
722.6370, 19408.00
723.7890, 19809.00
724.9410, 19724.00
726.0930, 19854.00
727.2450, 19900.00
728.3960, 19871.00
729.5480, 19513.00
730.6990, 18998.00
731.8500, 18828.00
733.0010, 18737.00
734.1520, 18241.00
735.3030, 18015.00
736.4530, 17949.00
737.6040, 17704.00
738.7540, 17398.00
739.9040, 17424.00
741.0540, 17329.00
742.2030, 17200.00
743.3530, 17270.00
744.5020, 17022.00
745.6520, 17193.00
746.8010, 17019.00
747.9490, 17045.00
749.0980, 17068.00
750.2470, 16983.00
751.3950, 17105.00
752.5440, 17019.00
753.6920, 17112.00
754.8400, 17096.00
755.9870, 17048.00
757.1350, 17024.00
758.2820, 16967.00
759.4300, 16906.00
760.5770, 17151.00
761.7240, 17131.00
762.8710, 17194.00
764.0170, 17052.00
765.1640, 16936.00
766.3100, 17163.00
767.4560, 17026.34
768.6020, 17213.00
769.7480, 17060.00
770.8940, 17096.00
772.0400, 17204.00
773.1850, 17306.00
774.3300, 17096.00
775.4750, 17045.00
776.6200, 17132.00
777.7650, 17323.00
778.9090, 17315.00
780.0540, 17307.00
781.1980, 17068.00
782.3420, 17323.00
783.4860, 17079.00
784.6300, 17296.00
785.7740, 17508.00
786.9170, 17301.00
788.0600, 17458.00
789.2030, 17528.00
790.3460, 17439.00
791.4890, 17552.00
792.6320, 17453.00
793.7740, 17542.00
794.9170, 17498.00
796.0590, 17461.00
797.2010, 17421.00
798.3430, 17571.00
799.4850, 17535.46
800.6260, 17674.00
801.7670, 17644.00
802.9090, 17636.00
804.0500, 17772.00
805.1910, 17674.73
806.3310, 17764.00
807.4720, 17682.00
808.6120, 17699.00
809.7530, 17929.00
810.8930, 17892.00
812.0330, 18044.00
813.1720, 17971.00
814.3120, 17943.85
815.4510, 17978.00
816.5910, 17858.00
817.7300, 17926.00
818.8690, 18011.00
820.0080, 18000.00
821.1460, 18086.00
822.2850, 18033.00
823.4230, 18100.69
824.5610, 18075.07
825.6990, 18123.00
826.8370, 18042.00
827.9750, 17892.00
829.1120, 17896.00
830.2500, 18262.00
831.3870, 18244.00
832.5240, 18071.00
833.6610, 18356.00
834.7980, 18139.00
835.9340, 18241.00
837.0700, 18207.00
838.2070, 18191.00
839.3430, 18413.00
840.4790, 18295.00
841.6140, 18326.00
842.7500, 18374.00
843.8850, 18328.00
845.0210, 18231.00
846.1560, 18406.00
847.2910, 18480.00
848.4260, 18794.00
849.5600, 18954.00
850.6950, 18449.00
851.8290, 18324.00
852.9630, 18474.00
854.0970, 18351.00
855.2310, 18409.00
856.3650, 18531.00
857.4980, 18368.00
858.6310, 18629.00
859.7650, 18461.00
860.8980, 18683.00
862.0310, 18634.00
863.1630, 18461.00
864.2960, 18619.00
865.4280, 18674.00
866.5600, 18625.00
867.6920, 18634.00
868.8240, 18668.00
869.9560, 18605.00
871.0880, 18785.00
872.2190, 18868.00
873.3500, 18847.00
874.4810, 18871.00
875.6120, 18877.00
876.7430, 18791.00
877.8740, 18886.00
879.0040, 18868.00
880.1340, 18704.00
881.2650, 18785.00
882.3950, 18732.00
883.5240, 18731.00
884.6540, 18724.00
885.7830, 18951.00
886.9130, 18896.00
888.0420, 18927.00
889.1710, 19044.00
890.3000, 18966.00
891.4280, 19054.62
892.5570, 18916.00
893.6850, 19167.00
894.8130, 19117.76
895.9420, 19229.00
897.0690, 19105.00
898.1970, 19162.00
899.3250, 19115.00
900.4520, 19111.00
901.5790, 19042.00
902.7060, 19021.00
903.8330, 19039.00
904.9600, 19012.30
906.0870, 19148.00
907.2130, 19066.00
908.3390, 19106.00
909.4650, 19238.00
910.5910, 19154.99
911.7170, 19269.00
912.8430, 19134.00
913.9680, 19267.00
915.0930, 19327.00
916.2180, 19237.00
917.3430, 19391.00
918.4680, 19520.00
919.5930, 19456.00
920.7170, 19389.00
921.8420, 19340.00
922.9660, 19472.00
924.0900, 19331.00
925.2140, 19583.00
926.3370, 19628.00
927.4610, 19445.00
928.5840, 19505.00
929.7070, 19669.00
930.8310, 19715.00
931.9530, 19689.00
933.0760, 19616.00
934.1990, 19682.00
935.3210, 19741.00
936.4430, 19757.00
937.5650, 19883.00
938.6870, 19736.00
939.8090, 19808.00
940.9310, 19781.00
942.0520, 19858.00
943.1730, 19931.00
944.2940, 19809.00
945.4150, 19911.00
946.5360, 20002.00
947.6570, 19790.00
948.7770, 19999.00
949.8970, 19845.00
951.0180, 20123.00
952.1370, 20120.00
953.2570, 20234.00
954.3770, 20214.00
955.4960, 20368.00
956.6160, 20325.00
957.7350, 20542.00
958.8540, 20641.00
959.9730, 20873.00
961.0910, 21120.00
962.2100, 21433.00
963.3280, 21560.00
964.4460, 22010.00
965.5640, 22244.00
966.6820, 22461.00
967.8000, 22527.00
968.9180, 22476.00
970.0350, 22284.00
971.1520, 22316.00
972.2690, 22203.00
973.3860, 21983.00
974.5030, 21364.00
975.6190, 21252.00
976.7360, 20877.00
977.8520, 21116.00
978.9680, 20970.00
980.0840, 21066.00
981.2000, 20854.00
982.3160, 20821.00
983.4310, 20947.00
984.5460, 21078.00
985.6610, 20979.00
986.7760, 21282.00
987.8910, 21495.00
989.0060, 21487.00
990.1200, 21898.00
991.2350, 21815.00
992.3490, 21735.00
993.4630, 22032.00
994.5760, 21701.00
995.6900, 21782.00
996.8040, 21726.00
997.9170, 21757.00
999.0300, 21791.00
1000.143, 21611.00
1001.256, 21788.00
1002.369, 21584.00
1003.481, 21830.00
1004.594, 21801.00
1005.706, 21928.00
1006.818, 22129.00
1007.930, 22037.00
1009.042, 22525.00
1010.153, 22427.00
1011.264, 22538.00
1012.376, 22841.00
1013.487, 23048.00
1014.598, 23293.00
1015.708, 23507.00
1016.819, 24400.00
1017.929, 25052.00
1019.040, 26601.00
1020.150, 28350.00
1021.260, 30507.00
1022.370, 32874.00
1023.479, 35146.00
1024.589, 36732.00
1025.698, 37380.00
1026.807, 36956.00
1027.916, 35368.00
1029.025, 32853.00
1030.133, 30490.00
1031.242, 28900.00
1032.350, 27025.00
1033.458, 25618.00
1034.566, 24947.00
1035.674, 24438.00
1036.782, 23907.00
1037.890, 23915.00
1038.997, 23706.00
1040.104, 23855.00
1041.211, 23702.00
1042.318, 23783.00
1043.425, 24042.00
1044.531, 24323.00
1045.638, 24620.00
1046.744, 25011.00
1047.850, 25286.00
1048.956, 25777.00
1050.061, 25773.00
1051.167, 25753.00
1052.272, 25431.00
1053.378, 25340.00
1054.483, 24903.00
1055.588, 24622.00
1056.692, 24321.00
1057.797, 24176.00
1058.901, 24334.00
1060.006, 24344.00
1061.110, 24550.00
1062.214, 24480.00
1063.318, 24615.00
1064.421, 24734.00
1065.525, 24682.00
1066.628, 24882.00
1067.731, 25014.00
1068.834, 25206.00
1069.937, 25307.00
1071.040, 25326.00
1072.142, 25265.00
1073.244, 25058.00
1074.347, 24742.00
1075.449, 24563.00
1076.550, 24389.00
1077.652, 24164.00
1078.754, 24044.00
1079.855, 23912.00
1080.956, 23951.00
1082.057, 23946.00
1083.158, 23960.81
1084.259, 24020.62
1085.359, 24108.00
1086.460, 24160.00
1087.560, 24324.00
1088.660, 24441.00
1089.760, 24734.00
1090.860, 24537.00
1091.959, 24586.00
1093.059, 24453.00
1094.158, 24275.00
1095.257, 24116.00
1096.356, 23682.00
1097.455, 23639.00
1098.553, 23430.00
1099.652, 23280.00
1100.750, 23188.00
1101.848, 23066.00
1102.946, 22908.00
1104.044, 22865.43
1105.141, 22899.00
1106.239, 22842.00
1107.336, 22653.00
1108.433, 22819.00
1109.530, 22684.00
1110.627, 22793.00
1111.724, 22657.00
1112.820, 22616.00
1113.917, 22715.00
1115.013, 22940.00
1116.109, 22988.00
1117.205, 22844.00
1118.300, 22805.00
1119.396, 22908.00
1120.491, 22845.00
1121.586, 22840.00
1122.681, 22770.00
1123.776, 22782.00
1124.871, 22951.00
1125.965, 22913.00
1127.060, 22942.00
1128.154, 22950.29
1129.248, 22951.07
1130.342, 22893.00
1131.436, 22930.00
1132.529, 22913.00
1133.623, 22910.84
1134.716, 22933.92
1135.809, 22930.00
1136.902, 22924.00
1137.995, 22954.00
1139.087, 22862.00
1140.180, 22920.00
1141.272, 23112.00
1142.364, 22936.00
1143.456, 23042.00
1144.548, 22889.00
1145.639, 23139.00
1146.731, 23017.00
1147.822, 23087.00
1148.913, 22991.00
1150.004, 23098.00
1151.095, 23069.00
1152.186, 22933.00
1153.276, 23044.00
1154.366, 23092.00
1155.457, 23148.00
1156.546, 23328.00
1157.636, 23207.00
1158.726, 23295.00
1159.815, 23163.00
1160.905, 23229.00
1161.994, 23122.00
1163.083, 23195.00
1164.172, 23382.00
1165.261, 23278.00
1166.349, 23366.00
1167.437, 23380.00
1168.526, 23355.00
1169.614, 23292.00
1170.702, 23333.00
1171.789, 23383.00
1172.877, 23344.00
1173.964, 23360.00
1175.051, 23468.00
1176.138, 23561.00
1177.225, 23629.00
1178.312, 23406.00
1179.399, 23469.00
1180.485, 23689.00
1181.571, 23576.00
1182.657, 23718.00
1183.743, 23470.00
1184.829, 23568.00
1185.915, 23630.00
1187.000, 23561.00
1188.085, 23767.00
1189.171, 23693.00
1190.255, 23723.00
1191.340, 23779.92
1192.425, 23785.00
1193.509, 23810.94
1194.594, 23700.00
1195.678, 23814.00
1196.762, 23797.00
1197.846, 23752.00
1198.929, 24062.00
1200.013, 23929.00
1201.096, 24017.00
1202.179, 23815.00
1203.262, 23742.00
1204.345, 23931.00
1205.428, 24147.00
1206.510, 24015.00
1207.593, 24133.00
1208.675, 24141.00
1209.757, 24136.00
1210.839, 24127.00
1211.920, 24090.32
1213.002, 24092.00
1214.083, 24054.00
1215.164, 24041.00
1216.245, 24147.00
1217.326, 24285.00
1218.407, 24185.00
1219.488, 24289.00
1220.568, 24099.00
1221.648, 24143.00
1222.728, 24338.00
1223.808, 24327.00
1224.888, 24426.00
1225.967, 24370.00
1227.047, 24439.00
1228.126, 24244.00
1229.205, 24365.00
1230.284, 24321.00
1231.363, 24361.00
1232.441, 24660.00
1233.520, 24513.00
1234.598, 24657.00
1235.676, 24410.00
1236.754, 24496.00
1237.832, 24245.00
1238.910, 24498.00
1239.987, 24383.00
1241.064, 24608.00
1242.141, 24573.00
1243.218, 24435.00
1244.295, 24683.00
1245.372, 24699.00
1246.448, 24797.00
1247.525, 24658.00
1248.601, 24789.00
1249.677, 24856.00
1250.753, 24689.00
1251.828, 24779.00
1252.904, 24830.00
1253.979, 24737.00
1255.054, 24830.00
1256.129, 24597.00
1257.204, 24923.00
1258.279, 24898.00
1259.353, 25021.00
1260.428, 24777.00
1261.502, 24768.00
1262.576, 24838.00
1263.650, 24902.00
1264.724, 24956.00
1265.797, 25010.00
