##NAMES=Nepheline
##RRUFFID=R060581
##IDEAL CHEMISTRY=Na_3_K(Al_4_Si_4_O_16_)
##LOCALITY=Capo di Bova, Via Appia Antica, Rome, Italy
##OWNER=RRUFF
##SOURCE=Michael Scott
##DESCRIPTION=Colorless hexagonal prisms
##STATUS=The identification of this mineral is confirmed by single-crystal X-ray diffraction and chemical analysis.
##URL=rruff.info/R060581
##MEASURED CHEMISTRY=(Na_0.66_K_0.27_Ca_0.04_)_Î£=0.97_Al_0.98_Si_1.01_O_4_
##PIN_ID=M01217
##ORIENTATION=Laser parallel to a* (1 0 0). Fiducial mark perpendicular to laser is parallel to c [0 0 1]
122.8560, 33292.00
124.0900, 33621.00
125.3240, 33703.00
126.5580, 34186.00
127.7920, 34291.00
129.0260, 34730.00
130.2590, 35383.00
131.4920, 35750.00
132.7250, 36219.00
133.9580, 36540.00
135.1910, 37517.00
136.4230, 38001.00
137.6560, 38762.00
138.8880, 39952.00
140.1200, 40548.00
141.3520, 41838.00
142.5830, 42576.00
143.8150, 43635.00
145.0460, 45125.00
146.2770, 46618.00
147.5080, 47728.00
148.7390, 49401.00
149.9700, 50792.00
151.2000, 52626.00
152.4310, 53852.00
153.6610, 55712.00
154.8910, 56862.00
156.1210, 58417.00
157.3500, 59699.00
158.5800, 61041.00
159.8090, 62276.00
161.0380, 62760.00
162.2670, 63651.00
163.4960, 64181.00
164.7240, 64757.00
165.9530, 65236.00
167.1810, 65496.00
168.4090, 65338.00
169.6370, 65474.00
170.8650, 65845.00
172.0920, 65746.00
173.3200, 65828.00
174.5470, 65947.00
175.7740, 65788.00
177.0010, 65832.00
178.2280, 66054.00
179.4540, 66382.00
180.6810, 66903.00
181.9070, 67492.96
183.1330, 68470.00
184.3590, 69061.00
185.5850, 70244.00
186.8100, 71298.00
188.0350, 73155.00
189.2610, 74522.00
190.4860, 75913.00
191.7110, 78412.00
192.9350, 80525.00
194.1600, 81949.00
195.3840, 84463.00
196.6080, 86702.00
197.8320, 88377.00
199.0560, 89895.00
200.2800, 91583.00
201.5030, 92807.00
202.7270, 92734.00
203.9500, 93154.00
205.1730, 92315.00
206.3950, 91229.00
207.6180, 90089.00
208.8410, 87460.00
210.0630, 85273.00
211.2850, 82429.00
212.5070, 78953.00
213.7290, 76557.00
214.9500, 73286.00
216.1720, 70391.00
217.3930, 67879.00
218.6140, 65779.00
219.8350, 63587.00
221.0560, 61769.00
222.2770, 60067.00
223.4970, 59002.00
224.7170, 57838.00
225.9370, 56867.00
227.1570, 56027.00
228.3770, 55396.00
229.5970, 54466.89
230.8160, 53856.00
232.0350, 52848.00
233.2540, 52041.00
234.4730, 51275.00
235.6920, 50439.00
236.9110, 49686.00
238.1290, 48774.00
239.3470, 48047.00
240.5650, 47381.00
241.7830, 46517.00
243.0010, 46026.00
244.2180, 45142.00
245.4360, 44972.00
246.6530, 44466.00
247.8700, 44197.00
249.0870, 44259.00
250.3040, 44109.00
251.5200, 43986.00
252.7370, 44040.00
253.9530, 44161.00
255.1690, 44496.00
256.3850, 44859.00
257.6000, 45227.74
258.8160, 45665.00
260.0310, 46183.00
261.2460, 46594.00
262.4610, 47166.00
263.6760, 47594.00
264.8910, 47508.00
266.1050, 47896.00
267.3200, 47562.00
268.5340, 47185.00
269.7480, 46620.00
270.9620, 46035.00
272.1750, 45334.00
273.3890, 44825.00
274.6020, 44187.00
275.8150, 43593.00
277.0280, 43247.00
278.2410, 42633.00
279.4540, 42177.00
280.6660, 42263.00
281.8790, 41711.00
283.0910, 41734.00
284.3030, 41195.00
285.5140, 40952.00
286.7260, 40952.00
287.9380, 40922.00
289.1490, 41070.00
290.3600, 40798.00
291.5710, 40778.00
292.7820, 40756.00
293.9920, 40706.00
295.2030, 40954.00
296.4130, 41044.00
297.6230, 40853.00
298.8330, 41139.00
300.0430, 41355.00
301.2520, 41314.00
302.4620, 41445.00
303.6710, 41669.00
304.8800, 41696.00
306.0890, 41856.39
307.2980, 41907.00
308.5070, 42030.00
309.7150, 42170.00
310.9230, 42158.00
312.1310, 42441.00
313.3390, 42537.00
314.5470, 43008.00
315.7550, 43026.00
316.9620, 43250.00
318.1690, 43443.00
319.3760, 43620.00
320.5830, 44095.00
321.7900, 44196.00
322.9960, 44335.00
324.2030, 44317.00
325.4090, 44873.00
326.6150, 45210.00
327.8210, 45312.00
329.0270, 45677.00
330.2320, 46085.45
331.4380, 46543.72
332.6430, 47043.00
333.8480, 47812.00
335.0530, 48370.00
336.2580, 49261.00
337.4620, 49864.00
338.6670, 50641.00
339.8710, 51550.00
341.0750, 52657.00
342.2790, 54162.00
343.4820, 55381.00
344.6860, 56877.00
345.8890, 58358.00
347.0920, 60204.00
348.2960, 60935.00
349.4980, 62337.00
350.7010, 63161.00
351.9040, 63168.00
353.1060, 63362.00
354.3080, 63128.00
355.5100, 63042.00
356.7120, 61941.00
357.9140, 61876.00
359.1150, 61618.00
360.3170, 61263.00
361.5180, 61106.00
362.7190, 61200.00
363.9200, 61671.00
365.1200, 62272.00
366.3210, 63139.54
367.5210, 64248.82
368.7210, 65482.00
369.9210, 67171.00
371.1210, 68734.00
372.3210, 70839.00
373.5200, 73058.00
374.7200, 75170.00
375.9190, 77309.00
377.1180, 80136.00
378.3170, 83384.00
379.5150, 86821.00
380.7140, 90043.00
381.9120, 93288.00
383.1110, 97475.00
384.3090, 101611.0
385.5060, 104844.0
386.7040, 109534.0
387.9020, 113816.0
389.0990, 118153.0
390.2960, 121803.0
391.4930, 125796.0
392.6900, 128898.0
393.8860, 131723.0
395.0830, 134020.8
396.2790, 135889.0
397.4750, 137143.0
398.6710, 138123.0
399.8670, 138607.0
401.0630, 139383.0
402.2580, 139386.0
403.4540, 139285.9
404.6490, 140061.0
405.8440, 140320.9
407.0390, 140071.2
408.2330, 139020.2
409.4280, 138060.5
410.6220, 136488.4
411.8160, 134496.8
413.0100, 132374.8
414.2040, 129323.8
415.3980, 126374.8
416.5910, 122812.8
417.7850, 118176.0
418.9780, 113382.0
420.1710, 108605.0
421.3640, 103258.0
422.5560, 99079.00
423.7490, 95095.00
424.9410, 90706.00
426.1330, 87952.00
427.3250, 85189.00
428.5170, 82198.00
429.7090, 78941.00
430.9000, 76785.00
432.0910, 74749.00
433.2820, 73298.00
434.4730, 71857.00
435.6640, 70383.00
436.8550, 68923.00
438.0450, 68282.00
439.2360, 67089.00
440.4260, 66118.00
441.6160, 65737.00
442.8060, 65168.00
443.9950, 64973.00
445.1850, 64159.00
446.3740, 63878.96
447.5630, 63972.00
448.7520, 63065.00
449.9410, 62926.00
451.1300, 62490.00
452.3180, 62700.00
453.5060, 62988.00
454.6950, 63368.00
455.8830, 63617.00
457.0700, 64721.00
458.2580, 65413.00
459.4450, 66725.00
460.6330, 67928.00
461.8200, 69422.00
463.0070, 70318.00
464.1940, 70782.00
465.3800, 70706.85
466.5670, 70376.00
467.7530, 69042.00
468.9390, 67181.00
470.1250, 65060.00
471.3110, 63613.00
472.4970, 62242.00
473.6820, 60729.00
474.8680, 60029.00
476.0530, 59157.00
477.2380, 58728.00
478.4230, 58175.00
479.6070, 57757.00
480.7920, 57656.00
481.9760, 57442.00
483.1600, 57571.00
484.3440, 57309.00
485.5280, 57322.00
486.7120, 57249.00
487.8950, 57171.00
489.0780, 57133.00
490.2620, 57195.18
491.4450, 57625.00
492.6270, 57366.00
493.8100, 57559.00
494.9920, 57620.00
496.1750, 57606.00
497.3570, 57787.00
498.5390, 57877.00
499.7210, 57965.00
500.9020, 57931.28
502.0840, 57871.00
503.2650, 57816.00
504.4460, 57914.00
505.6270, 57969.00
506.8080, 58245.00
507.9890, 57855.00
509.1690, 58004.00
510.3500, 57781.00
511.5300, 57835.00
512.7100, 57748.00
513.8900, 57806.00
515.0690, 57845.00
516.2490, 57991.00
517.4280, 57946.04
518.6070, 57938.00
519.7860, 57898.00
520.9650, 57928.00
522.1440, 57901.00
523.3220, 57819.00
524.5010, 57968.00
525.6790, 58040.00
526.8570, 57919.00
528.0350, 58209.00
529.2130, 58149.00
530.3900, 58232.00
531.5670, 58309.00
532.7450, 58240.00
533.9220, 58099.00
535.0980, 58370.00
536.2750, 58454.00
537.4520, 58298.00
538.6280, 58066.00
539.8040, 58087.00
540.9800, 58317.00
542.1560, 58111.00
543.3320, 58311.00
544.5070, 58648.00
545.6830, 58228.00
546.8580, 58371.00
548.0330, 58542.00
549.2080, 58239.00
550.3830, 58393.00
551.5570, 58291.00
552.7310, 58502.00
553.9060, 58519.00
555.0800, 58945.00
556.2540, 58954.00
557.4270, 58961.00
558.6010, 59080.00
559.7740, 58867.00
560.9470, 59336.00
562.1210, 59728.00
563.2930, 59684.00
564.4660, 59506.00
565.6390, 59342.00
566.8110, 59609.79
567.9830, 59816.62
569.1550, 60211.51
570.3270, 60495.35
571.4990, 60673.70
572.6710, 60454.17
573.8420, 60730.28
575.0130, 60796.71
576.1840, 60847.01
577.3550, 61170.43
578.5260, 60968.23
579.6970, 61271.48
580.8670, 61361.91
582.0370, 61538.27
583.2070, 61503.72
584.3770, 61524.05
585.5470, 61739.67
586.7170, 61834.96
587.8860, 61745.64
589.0550, 61832.00
590.2240, 61755.00
591.3930, 62081.00
592.5620, 62007.00
593.7310, 62065.00
594.8990, 62144.00
596.0670, 62215.00
597.2350, 62827.00
598.4030, 62691.00
599.5710, 62831.00
600.7390, 62737.00
601.9060, 62801.00
603.0740, 62579.00
604.2410, 62983.00
605.4080, 62929.00
606.5740, 63070.00
607.7410, 63395.00
608.9080, 63424.00
610.0740, 63558.00
611.2400, 63453.00
612.4060, 63509.00
613.5720, 63922.00
614.7370, 63871.00
615.9030, 63944.00
617.0680, 64306.00
618.2330, 64196.00
619.3980, 63819.00
620.5630, 64481.00
621.7280, 64411.00
622.8920, 64831.00
624.0570, 64726.00
625.2210, 64404.00
626.3850, 65096.00
627.5490, 64976.00
628.7120, 64748.00
629.8760, 65174.00
631.0390, 65489.00
632.2020, 65292.00
633.3650, 65352.00
634.5280, 65602.00
635.6910, 65498.00
636.8530, 65701.00
638.0160, 65764.61
639.1780, 65992.00
640.3400, 65890.00
641.5020, 65960.00
642.6640, 65945.74
643.8250, 65978.96
644.9870, 66130.00
646.1480, 66146.00
647.3090, 66393.00
648.4700, 66616.00
649.6300, 66691.00
650.7910, 66878.00
651.9510, 66796.00
653.1120, 67012.00
654.2720, 67147.00
655.4320, 67287.00
656.5910, 66919.00
657.7510, 67473.00
658.9100, 67503.00
660.0690, 67542.00
661.2290, 68191.00
662.3880, 67753.00
663.5460, 67993.00
664.7050, 68465.00
665.8630, 68898.00
667.0220, 68835.00
668.1800, 69362.00
669.3380, 69933.00
670.4950, 69990.00
671.6530, 70610.00
672.8100, 70708.00
673.9680, 70931.00
675.1250, 71442.00
676.2820, 71780.00
677.4390, 71797.00
678.5950, 72013.00
679.7520, 72087.00
680.9080, 72075.00
682.0640, 72166.34
683.2200, 72166.00
684.3760, 72155.00
685.5320, 72159.00
686.6870, 72066.48
687.8420, 72015.00
688.9980, 71729.00
690.1530, 71652.00
691.3070, 71550.00
692.4620, 71355.00
693.6170, 71440.00
694.7710, 71409.00
695.9250, 71322.00
697.0790, 71448.00
698.2330, 71395.00
699.3870, 71445.07
700.5400, 71548.00
701.6940, 71502.00
702.8470, 71602.00
704.0000, 71563.20
705.1530, 71626.56
706.3050, 71618.00
707.4580, 71764.00
708.6100, 71750.00
709.7630, 71867.00
710.9150, 71823.00
712.0660, 71828.00
713.2180, 71840.00
714.3700, 71860.00
715.5210, 71934.00
716.6720, 72274.00
717.8240, 71768.00
718.9740, 71843.00
720.1250, 72381.00
721.2760, 72046.00
722.4260, 72004.00
723.5770, 72454.00
724.7270, 72168.00
725.8770, 72470.00
727.0260, 72623.00
728.1760, 73024.00
729.3250, 73127.78
730.4750, 72800.00
731.6240, 73353.00
732.7730, 73213.00
733.9220, 73186.00
735.0700, 73609.00
736.2190, 73253.00
737.3670, 73671.00
738.5150, 73449.00
739.6630, 73898.00
740.8110, 74068.00
741.9590, 74207.00
743.1060, 74170.00
744.2540, 74399.00
745.4010, 74492.91
746.5480, 74598.91
747.6950, 74770.00
748.8410, 74822.00
749.9880, 74902.00
751.1340, 74934.00
752.2800, 75083.00
753.4260, 75235.00
754.5720, 75247.00
755.7180, 75334.00
756.8640, 75525.00
758.0090, 75330.00
759.1540, 75661.00
760.2990, 75559.00
761.4440, 75767.00
762.5890, 75651.00
763.7340, 75779.00
764.8780, 76164.00
766.0220, 76329.00
767.1660, 76003.00
768.3100, 76264.00
769.4540, 75930.00
770.5980, 76244.00
771.7410, 76479.00
772.8840, 76648.00
774.0280, 76777.00
775.1700, 76760.00
776.3130, 76698.00
777.4560, 76938.00
778.5980, 77003.00
779.7410, 76689.00
780.8830, 76922.00
782.0250, 76829.00
783.1670, 76838.00
784.3080, 77070.39
785.4500, 77369.00
786.5910, 77367.00
787.7320, 77790.00
788.8730, 77724.00
790.0140, 77801.00
791.1550, 77864.00
792.2950, 77941.45
793.4360, 77753.00
794.5760, 78215.00
795.7160, 78365.00
796.8560, 78576.00
797.9960, 78312.00
799.1350, 78559.00
800.2750, 78888.00
801.4140, 78501.00
802.5530, 78680.00
803.6920, 78625.00
804.8310, 78737.77
805.9690, 78876.00
807.1080, 79115.00
808.2460, 79369.00
809.3840, 79485.00
810.5220, 79629.91
811.6600, 79404.00
812.7970, 79899.00
813.9350, 79742.00
815.0720, 80068.00
816.2090, 80448.00
817.3460, 80296.00
818.4830, 80426.00
819.6200, 80432.00
820.7560, 80622.00
821.8930, 80760.00
823.0290, 80784.00
824.1650, 80840.00
825.3010, 80870.00
826.4360, 81014.00
827.5720, 80844.00
828.7070, 81248.00
829.8420, 81677.00
830.9770, 81559.00
832.1120, 81399.00
833.2470, 81637.00
834.3820, 81735.00
835.5160, 81594.00
836.6500, 81661.00
837.7840, 81820.14
838.9180, 81852.00
840.0520, 82142.00
841.1860, 82238.00
842.3190, 82247.00
843.4520, 82577.00
844.5850, 82435.00
845.7180, 82666.00
846.8510, 82547.00
847.9840, 82716.00
849.1160, 82812.00
850.2490, 82902.00
851.3810, 83016.00
852.5130, 83407.00
853.6450, 83324.00
854.7760, 83519.00
855.9080, 83203.00
857.0390, 83808.00
858.1700, 84159.00
859.3010, 83868.00
860.4320, 83796.00
861.5630, 84170.00
862.6930, 83900.00
863.8240, 84740.00
864.9540, 84481.00
866.0840, 84629.00
867.2140, 84668.00
868.3440, 84390.00
869.4730, 84648.00
870.6030, 85121.00
871.7320, 85054.00
872.8610, 85385.00
873.9900, 85034.00
875.1190, 85190.00
876.2470, 85288.00
877.3760, 85403.00
878.5040, 85898.00
879.6320, 85492.00
880.7600, 85740.00
881.8880, 86213.00
883.0150, 86561.00
884.1430, 86383.00
885.2700, 86008.00
886.3970, 86355.00
887.5240, 86770.00
888.6510, 86823.00
889.7780, 87336.00
890.9040, 87204.00
892.0310, 87508.00
893.1570, 87672.00
894.2830, 87483.00
895.4090, 87950.00
896.5350, 88506.00
897.6600, 88576.00
898.7860, 88960.00
899.9110, 88925.00
901.0360, 89038.00
902.1610, 89587.00
903.2860, 89918.00
904.4100, 90022.00
905.5350, 90959.00
906.6590, 90826.00
907.7830, 91167.00
908.9070, 91591.00
910.0310, 92125.00
911.1540, 91732.00
912.2780, 92205.00
913.4010, 92327.00
914.5240, 92304.00
915.6470, 92363.00
916.7700, 92405.00
917.8930, 92374.00
919.0150, 92209.00
920.1380, 92437.00
921.2600, 92562.00
922.3820, 92064.00
923.5040, 92186.00
924.6260, 92136.00
925.7470, 92689.00
926.8690, 92341.00
927.9900, 92178.00
929.1110, 91949.00
930.2320, 92052.33
931.3530, 92107.00
932.4730, 92384.00
933.5940, 92588.00
934.7140, 92720.00
935.8340, 93176.00
936.9540, 93020.00
938.0740, 93321.00
939.1930, 93628.00
940.3130, 93200.00
941.4320, 93043.00
942.5510, 93335.00
943.6700, 93496.00
944.7890, 93256.00
945.9080, 94158.00
947.0260, 94129.00
948.1450, 94438.00
949.2630, 95098.00
950.3810, 94962.00
951.4990, 96245.00
952.6170, 96649.00
953.7340, 97160.00
954.8520, 98328.00
955.9690, 98513.00
957.0860, 99567.00
958.2030, 100844.0
959.3200, 101811.0
960.4360, 102636.0
961.5530, 103729.0
962.6690, 104360.0
963.7850, 105000.0
964.9010, 106035.0
966.0170, 107032.0
967.1330, 107698.0
968.2480, 108271.1
969.3630, 108426.0
970.4790, 109027.0
971.5940, 109322.0
972.7080, 109665.0
973.8230, 110108.0
974.9380, 110460.0
976.0520, 111116.0
977.1660, 111522.0
978.2800, 111964.0
979.3940, 112206.0
980.5080, 112729.0
981.6220, 112793.0
982.7350, 113250.0
983.8480, 113148.0
984.9610, 113756.0
986.0740, 113934.0
987.1870, 114175.0
988.3000, 114990.0
989.4120, 114856.0
990.5250, 115580.0
991.6370, 115879.0
992.7490, 116145.0
993.8610, 116721.0
994.9720, 116963.0
996.0840, 117271.0
997.1950, 116990.0
998.3060, 116632.0
999.4170, 114952.0
1000.528, 114212.0
1001.639, 112809.0
1002.750, 111833.0
1003.860, 110412.0
1004.970, 108414.0
1006.080, 107015.0
1007.190, 106034.0
1008.300, 105084.0
1009.410, 104461.0
1010.519, 103774.0
1011.628, 102813.0
1012.738, 102377.0
1013.846, 101690.0
1014.955, 101503.0
1016.064, 100859.0
1017.172, 100741.0
1018.281, 100262.0
1019.389, 99700.00
1020.497, 99577.00
1021.605, 99587.00
1022.713, 99507.00
1023.820, 99373.16
1024.928, 99042.00
1026.035, 99028.00
1027.142, 98875.00
1028.249, 98566.00
1029.356, 98672.00
1030.462, 98914.00
1031.569, 99169.00
1032.675, 98757.00
1033.781, 98957.00
1034.887, 98440.00
1035.993, 98780.00
1037.098, 99224.00
1038.204, 98942.00
1039.309, 99176.00
1040.415, 99070.00
1041.520, 98998.00
1042.624, 98546.00
1043.729, 98295.00
1044.834, 98214.00
1045.938, 98182.00
1047.042, 97885.00
1048.146, 97869.38
1049.250, 97489.00
1050.354, 97700.00
1051.458, 97505.00
1052.561, 97457.00
1053.664, 97763.00
1054.767, 97586.00
1055.870, 97570.00
1056.973, 97609.00
1058.076, 97531.00
1059.178, 97277.00
1060.281, 97894.00
1061.383, 97577.00
1062.485, 97900.00
1063.587, 97213.00
1064.688, 97729.00
1065.790, 97377.00
1066.891, 97739.00
1067.993, 97444.00
1069.094, 97934.00
1070.195, 98150.00
1071.295, 98026.00
1072.396, 98136.00
1073.496, 98106.00
1074.597, 97901.00
1075.697, 98123.00
1076.797, 98488.00
1077.897, 98207.00
1078.996, 98326.00
1080.096, 98915.00
1081.195, 98601.00
1082.294, 98810.00
1083.393, 99073.00
1084.492, 99169.00
1085.591, 99037.00
1086.689, 98917.00
1087.788, 98707.00
1088.886, 98999.00
1089.984, 98551.00
1091.082, 98928.00
1092.180, 98787.00
1093.277, 99230.00
1094.375, 98926.00
1095.472, 98781.00
1096.569, 98721.00
1097.666, 98641.00
1098.763, 99427.00
1099.860, 99080.00
1100.956, 99165.00
1102.053, 99841.00
1103.149, 98766.00
1104.245, 99129.00
1105.341, 99245.00
1106.436, 99362.00
1107.532, 99262.00
1108.627, 99384.00
1109.723, 99502.00
1110.818, 98922.00
1111.913, 99370.00
1113.007, 99264.00
1114.102, 99084.00
1115.197, 99450.00
1116.291, 98635.00
1117.385, 99125.00
1118.479, 99393.00
1119.573, 98868.00
1120.666, 99353.00
1121.760, 99324.00
1122.853, 99179.00
1123.947, 99032.00
1125.040, 99407.00
1126.132, 98990.00
1127.225, 99316.00
1128.318, 98955.00
1129.410, 99650.00
1130.502, 99447.00
1131.595, 99693.00
1132.687, 99140.00
1133.778, 99761.00
1134.870, 99752.00
1135.961, 99291.00
1137.053, 99601.00
1138.144, 99542.00
1139.235, 99414.00
1140.326, 99947.00
1141.416, 99716.00
1142.507, 99842.00
1143.597, 99638.00
1144.688, 99692.00
1145.778, 99876.00
1146.868, 100300.0
1147.957, 100209.0
1149.047, 100659.0
1150.136, 100589.4
1151.226, 100645.0
1152.315, 100497.0
1153.404, 100356.0
1154.493, 100267.0
1155.581, 100028.0
1156.670, 100506.0
1157.758, 100243.0
1158.846, 100164.0
1159.934, 100881.0
1161.022, 100187.0
1162.110, 100619.0
1163.198, 100648.0
1164.285, 100752.0
1165.372, 100487.0
1166.459, 100730.0
1167.546, 100514.0
1168.633, 100315.0
1169.720, 100335.0
1170.806, 100584.0
1171.892, 101017.0
1172.979, 101075.0
1174.065, 100859.0
1175.150, 100756.0
1176.236, 100773.0
1177.322, 101095.0
1178.407, 100641.0
1179.492, 101289.0
1180.577, 101204.0
1181.662, 101075.0
1182.747, 101137.0
1183.832, 100966.0
1184.916, 100904.0
1186.000, 101134.0
1187.084, 101465.0
1188.168, 101002.0
1189.252, 101565.0
1190.336, 101136.0
1191.419, 101632.0
1192.503, 101707.0
1193.586, 101383.0
1194.669, 101460.0
1195.752, 101571.0
1196.835, 101243.0
1197.917, 101402.0
1199.000, 101516.0
1200.082, 101736.0
1201.164, 101915.0
1202.246, 101601.0
1203.328, 101654.0
1204.409, 102254.0
1205.491, 101888.0
1206.572, 101791.0
1207.653, 101422.0
1208.734, 101544.8
1209.815, 102397.0
1210.896, 101892.0
1211.976, 101870.0
1213.057, 102175.0
1214.137, 101892.0
1215.217, 102159.0
1216.297, 102175.0
1217.377, 102350.3
1218.456, 102373.5
1219.536, 102446.4
1220.615, 102293.0
1221.694, 102589.0
1222.773, 102404.0
1223.852, 102517.0
1224.931, 103139.0
1226.009, 102491.0
1227.088, 102980.0
1228.166, 103360.0
1229.244, 103074.0
1230.322, 103095.0
1231.400, 102955.0
1232.477, 102986.5
1233.555, 102882.0
1234.632, 103152.0
1235.709, 103204.0
1236.786, 103314.9
1237.863, 103047.0
1238.939, 103374.0
1240.016, 103216.0
1241.092, 103208.0
1242.168, 103517.0
1243.245, 103190.0
1244.320, 102820.0
1245.396, 103275.0
1246.472, 103171.0
1247.547, 102981.0
1248.622, 103155.0
1249.697, 103755.0
1250.772, 103507.0
1251.847, 103716.0
1252.922, 103275.0
1253.996, 103557.0
1255.071, 103361.0
1256.145, 103363.0
1257.219, 102958.0
1258.293, 103480.0
1259.366, 103763.0
1260.440, 103404.0
1261.513, 103539.0
1262.587, 103928.0
1263.660, 103634.0
1264.733, 103862.0
1265.805, 103599.0
1266.878, 103661.0
1267.951, 103697.0
1269.023, 103725.0
1270.095, 104133.0
1271.167, 104095.0
1272.239, 104244.0
1273.311, 103970.0
1274.382, 103876.0
1275.454, 104121.0
1276.525, 104527.0
1277.596, 104425.0
1278.667, 104372.0
1279.738, 104298.0
1280.808, 104218.3
1281.879, 104668.0
1282.949, 104197.0
1284.019, 104318.0
1285.089, 104597.0
1286.159, 104430.0
1287.229, 104003.0
1288.298, 104523.0
1289.368, 104235.0
1290.437, 104965.0
1291.506, 104526.0
1292.575, 104460.0
1293.644, 104629.0
1294.712, 104819.0
1295.781, 104366.0
1296.849, 104297.0
1297.917, 104210.0
