##NAMES=Nepheline
##RRUFFID=R060581
##IDEAL CHEMISTRY=Na_3_K(Al_4_Si_4_O_16_)
##LOCALITY=Capo di Bova, Via Appia Antica, Rome, Italy
##OWNER=RRUFF
##SOURCE=Michael Scott
##DESCRIPTION=Colorless hexagonal prisms
##STATUS=The identification of this mineral is confirmed by single-crystal X-ray diffraction and chemical analysis.
##URL=rruff.info/R060581
##MEASURED CHEMISTRY=(Na_0.66_K_0.27_Ca_0.04_)_Î£=0.97_Al_0.98_Si_1.01_O_4_
##PIN_ID=M01217
##ORIENTATION=Laser parallel to a* (1 0 0). Fiducial mark perpendicular to laser is parallel to c [0 0 1]
62.16800, 4150.000
63.41100, 4557.000
64.65300, 5206.000
65.89600, 5833.000
67.13800, 6669.000
68.38000, 7508.000
69.62200, 8653.000
70.86300, 9644.000
72.10500, 11189.00
73.34600, 12323.00
74.58700, 13661.00
75.82800, 15012.00
77.06900, 16258.00
78.30900, 17563.51
79.55000, 18736.00
80.79000, 20041.00
82.03000, 21137.00
83.27000, 22248.00
84.51000, 23095.00
85.74900, 23969.00
86.98900, 24645.00
88.22800, 25139.00
89.46700, 25938.00
90.70600, 26344.00
91.94400, 26876.00
93.18300, 27179.00
94.42100, 27403.00
95.65900, 27684.00
96.89700, 27842.00
98.13500, 28195.77
99.37300, 28327.00
100.6100, 28904.00
101.8480, 29185.00
103.0850, 29610.00
104.3220, 30073.00
105.5590, 30815.00
106.7950, 31536.00
108.0320, 31713.67
109.2680, 31810.00
110.5040, 32178.00
111.7400, 32673.00
112.9760, 33105.00
114.2120, 33767.00
115.4470, 33975.00
116.6820, 34555.00
117.9170, 34766.00
119.1520, 35661.00
120.3870, 35813.00
121.6220, 36059.00
122.8560, 36725.00
124.0900, 37474.00
125.3240, 38100.00
126.5580, 38557.00
127.7920, 38946.00
129.0260, 39505.00
130.2590, 39815.00
131.4920, 39825.00
132.7250, 39987.00
133.9580, 39772.00
135.1910, 39830.13
136.4230, 39448.00
137.6560, 39651.00
138.8880, 39576.00
140.1200, 39288.00
141.3520, 39416.00
142.5830, 39603.00
143.8150, 39815.00
145.0460, 40276.00
146.2770, 40613.00
147.5080, 41130.00
148.7390, 41381.00
149.9700, 41742.00
151.2000, 42174.00
152.4310, 42362.00
153.6610, 43151.00
154.8910, 43589.00
156.1210, 44372.00
157.3500, 44533.00
158.5800, 44862.00
159.8090, 45305.00
161.0380, 45641.00
162.2670, 45868.00
163.4960, 46136.25
164.7240, 46294.00
165.9530, 46541.00
167.1810, 46637.00
168.4090, 46912.00
169.6370, 47010.00
170.8650, 46979.00
172.0920, 46900.00
173.3200, 47299.00
174.5470, 47082.00
175.7740, 47430.00
177.0010, 47667.00
178.2280, 47514.00
179.4540, 47530.00
180.6810, 48268.00
181.9070, 48406.00
183.1330, 48850.00
184.3590, 49380.00
185.5850, 49765.00
186.8100, 50452.00
188.0350, 51023.00
189.2610, 51846.00
190.4860, 52974.00
191.7110, 53775.00
192.9350, 54933.00
194.1600, 55689.00
195.3840, 56811.00
196.6080, 57700.98
197.8320, 58773.00
199.0560, 59313.00
200.2800, 60227.00
201.5030, 60595.00
202.7270, 60707.00
203.9500, 60906.00
205.1730, 60453.00
206.3950, 59686.00
207.6180, 59465.00
208.8410, 57787.00
210.0630, 56942.00
211.2850, 55781.00
212.5070, 54469.00
213.7290, 53511.00
214.9500, 52166.00
216.1720, 51001.00
217.3930, 49919.00
218.6140, 49135.00
219.8350, 48554.00
221.0560, 47935.00
222.2770, 47437.91
223.4970, 47037.00
224.7170, 46660.00
225.9370, 46168.00
227.1570, 45962.00
228.3770, 45587.00
229.5970, 45532.00
230.8160, 45252.00
232.0350, 44392.00
233.2540, 44233.00
234.4730, 43381.00
235.6920, 43222.00
236.9110, 42758.00
238.1290, 42219.00
239.3470, 42027.00
240.5650, 41428.00
241.7830, 41031.00
243.0010, 40891.00
244.2180, 40462.00
245.4360, 40050.00
246.6530, 39994.00
247.8700, 39923.00
249.0870, 39650.00
250.3040, 39815.00
251.5200, 39649.00
252.7370, 39741.00
253.9530, 40104.00
255.1690, 40289.00
256.3850, 40583.00
257.6000, 40884.08
258.8160, 41253.00
260.0310, 41452.00
261.2460, 41891.00
262.4610, 42132.00
263.6760, 42509.00
264.8910, 42598.00
266.1050, 42814.00
267.3200, 42628.84
268.5340, 42093.00
269.7480, 42057.00
270.9620, 41469.00
272.1750, 41083.00
273.3890, 40464.00
274.6020, 40442.00
275.8150, 39835.00
277.0280, 39500.00
278.2410, 39184.00
279.4540, 38854.00
280.6660, 38694.00
281.8790, 38456.00
283.0910, 38471.00
284.3030, 38068.00
285.5140, 38047.00
286.7260, 38265.00
287.9380, 38421.00
289.1490, 38320.00
290.3600, 38220.00
291.5710, 38507.00
292.7820, 38739.00
293.9920, 38495.00
295.2030, 38247.00
296.4130, 38379.00
297.6230, 38470.00
298.8330, 38556.00
300.0430, 38469.00
301.2520, 38541.00
302.4620, 38726.00
303.6710, 38629.00
304.8800, 38889.00
306.0890, 38794.00
307.2980, 39309.00
308.5070, 39161.00
309.7150, 39549.00
310.9230, 39565.00
312.1310, 39874.00
313.3390, 39995.00
314.5470, 40190.00
315.7550, 40236.00
316.9620, 40667.00
318.1690, 40697.00
319.3760, 40981.00
320.5830, 41141.50
321.7900, 41273.00
322.9960, 41441.00
324.2030, 41367.00
325.4090, 41552.00
326.6150, 41800.88
327.8210, 41894.00
329.0270, 42462.00
330.2320, 42657.00
331.4380, 43088.00
332.6430, 43027.00
333.8480, 43410.00
335.0530, 44007.00
336.2580, 44067.00
337.4620, 45040.00
338.6670, 45665.00
339.8710, 46161.00
341.0750, 47003.00
342.2790, 47773.00
343.4820, 48695.00
344.6860, 49774.00
345.8890, 50673.95
347.0920, 52041.00
348.2960, 52786.00
349.4980, 53727.00
350.7010, 54992.00
351.9040, 55461.00
353.1060, 55084.00
354.3080, 53726.00
355.5100, 53584.00
356.7120, 52974.00
357.9140, 52897.00
359.1150, 52548.00
360.3170, 52130.00
361.5180, 52486.00
362.7190, 52123.00
363.9200, 52504.00
365.1200, 52911.00
366.3210, 53304.00
367.5210, 54211.00
368.7210, 55233.00
369.9210, 56042.00
371.1210, 56864.00
372.3210, 58332.00
373.5200, 59864.00
374.7200, 61165.00
375.9190, 63163.00
377.1180, 64947.00
378.3170, 67027.00
379.5150, 69040.00
380.7140, 71087.00
381.9120, 73912.00
383.1110, 75861.00
384.3090, 78631.00
385.5060, 80992.00
386.7040, 84210.00
387.9020, 86470.00
389.0990, 88929.00
390.2960, 92015.00
391.4930, 93519.00
392.6900, 95878.00
393.8860, 97298.00
395.0830, 98646.00
396.2790, 99237.00
397.4750, 99744.12
398.6710, 99446.00
399.8670, 99635.00
401.0630, 99091.00
402.2580, 98335.00
403.4540, 98278.00
404.6490, 97681.00
405.8440, 97379.00
407.0390, 96503.00
408.2330, 96280.00
409.4280, 95477.00
410.6220, 94296.00
411.8160, 92663.00
413.0100, 91111.00
414.2040, 89275.00
415.3980, 87579.00
416.5910, 85380.00
417.7850, 82556.00
418.9780, 79747.00
420.1710, 77435.00
421.3640, 75076.00
422.5560, 72725.00
423.7490, 70483.00
424.9410, 68625.00
426.1330, 66953.00
427.3250, 65265.00
428.5170, 63762.00
429.7090, 62190.00
430.9000, 61303.00
432.0910, 60301.00
433.2820, 59283.00
434.4730, 58737.00
435.6640, 58239.00
436.8550, 57663.00
438.0450, 57640.00
439.2360, 57112.00
440.4260, 57162.00
441.6160, 56636.00
442.8060, 56681.00
443.9950, 56652.00
445.1850, 56602.00
446.3740, 56675.00
447.5630, 57040.00
448.7520, 57270.00
449.9410, 57735.00
451.1300, 58244.00
452.3180, 58603.00
453.5060, 59495.00
454.6950, 60159.00
455.8830, 61094.00
457.0700, 62170.00
458.2580, 63310.00
459.4450, 64263.00
460.6330, 66115.00
461.8200, 66863.00
463.0070, 68875.00
464.1940, 68714.63
465.3800, 68767.00
466.5670, 67610.00
467.7530, 65880.00
468.9390, 63583.00
470.1250, 61419.00
471.3110, 59216.00
472.4970, 57402.00
473.6820, 56112.00
474.8680, 55238.00
476.0530, 54121.00
477.2380, 53715.00
478.4230, 52985.00
479.6070, 52528.00
480.7920, 52513.00
481.9760, 52162.00
483.1600, 52177.00
484.3440, 52275.00
485.5280, 51856.00
486.7120, 51856.00
487.8950, 51723.00
489.0780, 51528.00
490.2620, 51852.00
491.4450, 51926.00
492.6270, 51634.00
493.8100, 51983.00
494.9920, 51846.00
496.1750, 52236.00
497.3570, 52098.00
498.5390, 52105.00
499.7210, 52252.00
500.9020, 51929.00
502.0840, 51995.00
503.2650, 52106.00
504.4460, 52064.00
505.6270, 52109.00
506.8080, 52269.00
507.9890, 51951.00
509.1690, 52360.00
510.3500, 52340.00
511.5300, 52191.00
512.7100, 52132.00
513.8900, 52288.00
515.0690, 52413.00
516.2490, 52221.00
517.4280, 52261.00
518.6070, 52120.00
519.7860, 52165.00
520.9650, 52317.00
522.1440, 52323.00
523.3220, 52555.00
524.5010, 52469.00
525.6790, 52613.19
526.8570, 52460.00
528.0350, 52754.00
529.2130, 52664.00
530.3900, 52632.00
531.5670, 52817.00
532.7450, 52399.00
533.9220, 52627.00
535.0980, 52878.00
536.2750, 52795.00
537.4520, 52646.00
538.6280, 52652.00
539.8040, 52848.00
540.9800, 52904.00
542.1560, 52745.00
543.3320, 52995.00
544.5070, 52976.00
545.6830, 52922.00
546.8580, 52977.00
548.0330, 53404.00
549.2080, 53085.00
550.3830, 53356.00
551.5570, 53141.00
552.7310, 53211.00
553.9060, 53300.00
555.0800, 53671.00
556.2540, 53759.00
557.4270, 53576.00
558.6010, 53900.00
559.7740, 53779.00
560.9470, 53830.00
562.1210, 54194.00
563.2930, 54177.00
564.4660, 54212.00
565.6390, 54500.00
566.8110, 54978.85
567.9830, 54792.43
569.1550, 55090.96
570.3270, 54752.00
571.4990, 55254.00
572.6710, 55589.00
573.8420, 55641.00
575.0130, 55747.00
576.1840, 56058.00
577.3550, 56039.00
578.5260, 55753.00
579.6970, 56137.00
580.8670, 55878.00
582.0370, 56187.00
583.2070, 56164.00
584.3770, 56070.00
585.5470, 56071.00
586.7170, 55911.00
587.8860, 56293.00
589.0550, 55910.00
590.2240, 56269.00
591.3930, 56217.00
592.5620, 56515.00
593.7310, 56569.00
594.8990, 56675.00
596.0670, 56867.00
597.2350, 56933.00
598.4030, 56958.00
599.5710, 57122.00
600.7390, 57108.00
601.9060, 57104.00
603.0740, 57091.00
604.2410, 57529.00
605.4080, 57619.00
606.5740, 57642.00
607.7410, 57861.00
608.9080, 57991.00
610.0740, 57886.00
611.2400, 58262.00
612.4060, 58178.00
613.5720, 58337.00
614.7370, 58270.00
615.9030, 58132.00
617.0680, 58326.00
618.2330, 58238.00
619.3980, 58232.00
620.5630, 58735.00
621.7280, 58709.00
622.8920, 58751.00
624.0570, 58829.00
625.2210, 59062.00
626.3850, 59065.00
627.5490, 58956.00
628.7120, 59352.00
629.8760, 59171.00
631.0390, 58901.00
632.2020, 59338.00
633.3650, 59425.00
634.5280, 59394.00
635.6910, 59816.00
636.8530, 59362.00
638.0160, 59807.00
639.1780, 60033.00
640.3400, 59809.00
641.5020, 59732.00
642.6640, 60174.00
643.8250, 60216.00
644.9870, 60056.00
646.1480, 60173.00
647.3090, 60351.00
648.4700, 60152.00
649.6300, 60060.00
650.7910, 60439.00
651.9510, 60804.00
653.1120, 60789.00
654.2720, 61104.00
655.4320, 60959.00
656.5910, 61128.00
657.7510, 61317.00
658.9100, 61296.00
660.0690, 61295.00
661.2290, 61214.00
662.3880, 61572.00
663.5460, 61691.00
664.7050, 61891.00
665.8630, 61657.00
667.0220, 61709.00
668.1800, 62072.00
669.3380, 62609.00
670.4950, 62494.00
671.6530, 62939.00
672.8100, 62681.00
673.9680, 63079.00
675.1250, 63572.00
676.2820, 63751.00
677.4390, 63812.00
678.5950, 63897.00
679.7520, 63976.00
680.9080, 64168.00
682.0640, 64234.00
683.2200, 64353.00
684.3760, 63933.00
685.5320, 64463.00
686.6870, 64575.00
687.8420, 64267.00
688.9980, 64640.00
690.1530, 64547.00
691.3070, 64856.00
692.4620, 64896.00
693.6170, 64517.00
694.7710, 65100.00
695.9250, 64715.00
697.0790, 64756.00
698.2330, 64564.00
699.3870, 64839.00
700.5400, 65291.00
701.6940, 65136.00
702.8470, 65102.00
704.0000, 65426.00
705.1530, 65023.00
706.3050, 65282.00
707.4580, 65643.00
708.6100, 65747.00
709.7630, 65576.00
710.9150, 65816.00
712.0660, 65760.00
713.2180, 65867.00
714.3700, 65860.00
715.5210, 65737.00
716.6720, 65852.00
717.8240, 65651.00
718.9740, 65716.00
720.1250, 65592.00
721.2760, 65969.00
722.4260, 65943.00
723.5770, 65668.00
724.7270, 66019.00
725.8770, 65839.00
727.0260, 66440.00
728.1760, 66081.00
729.3250, 66539.00
730.4750, 66205.00
731.6240, 66538.00
732.7730, 66778.00
733.9220, 66465.00
735.0700, 66607.00
736.2190, 66449.00
737.3670, 66944.00
738.5150, 67004.00
739.6630, 67053.00
740.8110, 67136.00
741.9590, 67053.00
743.1060, 67543.00
744.2540, 67830.00
745.4010, 67748.00
746.5480, 67598.00
747.6950, 67786.00
748.8410, 68204.00
749.9880, 68089.00
751.1340, 68219.00
752.2800, 68450.00
753.4260, 68157.00
754.5720, 68650.00
755.7180, 68554.00
756.8640, 68495.00
758.0090, 68429.00
759.1540, 68402.00
760.2990, 68446.95
761.4440, 69004.00
762.5890, 68615.00
763.7340, 68979.00
764.8780, 69143.00
766.0220, 68923.00
767.1660, 69338.00
768.3100, 69348.00
769.4540, 69392.00
770.5980, 69127.00
771.7410, 69171.00
772.8840, 69634.00
774.0280, 69902.00
775.1700, 69379.00
776.3130, 69842.00
777.4560, 69748.00
778.5980, 69670.00
779.7410, 69765.00
780.8830, 70138.00
782.0250, 70150.00
783.1670, 70048.00
784.3080, 70183.00
785.4500, 70173.00
786.5910, 70405.00
787.7320, 70444.00
788.8730, 70620.00
790.0140, 70732.00
791.1550, 70358.00
792.2950, 71053.00
793.4360, 70786.00
794.5760, 70738.00
795.7160, 71132.00
796.8560, 70985.00
797.9960, 71021.00
799.1350, 71265.00
800.2750, 71432.00
801.4140, 71367.00
802.5530, 71556.08
803.6920, 71767.00
804.8310, 71725.00
805.9690, 72020.00
807.1080, 72140.00
808.2460, 71721.00
809.3840, 72064.00
810.5220, 72416.00
811.6600, 72231.00
812.7970, 72495.00
813.9350, 72541.00
815.0720, 72770.00
816.2090, 73030.00
817.3460, 72876.00
818.4830, 73176.00
819.6200, 73152.00
820.7560, 73329.00
821.8930, 73404.62
823.0290, 73411.77
824.1650, 73516.00
825.3010, 73450.00
826.4360, 73500.00
827.5720, 73539.00
828.7070, 73626.20
829.8420, 73698.00
830.9770, 73869.00
832.1120, 74027.00
833.2470, 74129.00
834.3820, 74487.00
835.5160, 73954.00
836.6500, 74400.00
837.7840, 74360.00
838.9180, 74683.00
840.0520, 74896.00
841.1860, 74668.00
842.3190, 74987.00
843.4520, 75010.00
844.5850, 75149.00
845.7180, 75311.83
846.8510, 75430.00
847.9840, 75497.00
849.1160, 75473.00
850.2490, 75415.00
851.3810, 75537.00
852.5130, 75849.00
853.6450, 75856.00
854.7760, 76051.00
855.9080, 75819.00
857.0390, 75640.00
858.1700, 76183.00
859.3010, 76467.00
860.4320, 76454.00
861.5630, 76426.00
862.6930, 76425.00
863.8240, 76479.01
864.9540, 77161.00
866.0840, 76693.00
867.2140, 76905.00
868.3440, 77185.00
869.4730, 76986.00
870.6030, 77364.00
871.7320, 77761.00
872.8610, 77379.00
873.9900, 77971.00
875.1190, 77752.00
876.2470, 77860.00
877.3760, 78154.00
878.5040, 78094.00
879.6320, 78467.00
880.7600, 78385.00
881.8880, 78492.00
883.0150, 78359.00
884.1430, 78558.00
885.2700, 78381.00
886.3970, 78574.00
887.5240, 79112.00
888.6510, 79190.00
889.7780, 79163.00
890.9040, 78996.00
892.0310, 79691.00
893.1570, 79515.00
894.2830, 79520.00
895.4090, 80035.00
896.5350, 80239.00
897.6600, 80965.00
898.7860, 80584.00
899.9110, 80930.00
901.0360, 81069.00
902.1610, 81007.00
903.2860, 81362.00
904.4100, 81851.00
905.5350, 82186.00
906.6590, 82275.00
907.7830, 82416.00
908.9070, 82629.00
910.0310, 82721.52
911.1540, 82982.62
912.2780, 83082.00
913.4010, 83465.00
914.5240, 83880.00
915.6470, 84112.00
916.7700, 83738.00
917.8930, 84012.00
919.0150, 84128.00
920.1380, 84281.00
921.2600, 84506.00
922.3820, 84724.00
923.5040, 84823.00
924.6260, 84632.00
925.7470, 84912.00
926.8690, 84267.00
927.9900, 84520.00
929.1110, 84550.00
930.2320, 84544.00
931.3530, 84749.00
932.4730, 84702.00
933.5940, 84767.34
934.7140, 84873.00
935.8340, 84856.46
936.9540, 85076.81
938.0740, 85222.48
939.1930, 85299.32
940.3130, 84994.92
941.4320, 85264.25
942.5510, 85353.38
943.6700, 85469.16
944.7890, 85920.79
945.9080, 85854.53
947.0260, 86372.13
948.1450, 86706.49
949.2630, 87004.00
950.3810, 87245.00
951.4990, 87717.00
952.6170, 88369.00
953.7340, 88780.00
954.8520, 89740.00
955.9690, 89689.00
957.0860, 91101.00
958.2030, 91614.00
959.3200, 92428.00
960.4360, 93602.00
961.5530, 94198.00
962.6690, 95514.00
963.7850, 96355.00
964.9010, 96877.00
966.0170, 97371.00
967.1330, 97901.12
968.2480, 97688.00
969.3630, 98561.00
970.4790, 98634.00
971.5940, 98573.00
972.7080, 98927.00
973.8230, 98993.00
974.9380, 99240.00
976.0520, 99518.00
977.1660, 99496.00
978.2800, 100289.0
979.3940, 100984.0
980.5080, 101309.0
981.6220, 101670.0
982.7350, 101463.0
983.8480, 102292.0
984.9610, 102214.0
986.0740, 103271.0
987.1870, 103170.0
988.3000, 103698.0
989.4120, 103496.0
990.5250, 104165.0
991.6370, 104098.0
992.7490, 103971.0
993.8610, 103932.0
994.9720, 104143.0
996.0840, 103700.0
997.1950, 103241.0
998.3060, 102517.0
999.4170, 102155.0
1000.528, 101550.0
1001.639, 100438.0
1002.750, 99106.00
1003.860, 98442.00
1004.970, 97298.00
1006.080, 96110.00
1007.190, 95225.00
1008.300, 94985.00
1009.410, 94164.00
1010.519, 93741.00
1011.628, 93428.00
1012.738, 92781.00
1013.846, 92457.00
1014.955, 92599.00
1016.064, 91935.00
1017.172, 91722.00
1018.281, 91614.00
1019.389, 91058.00
1020.497, 91211.00
1021.605, 91226.00
1022.713, 91070.00
1023.820, 90686.00
1024.928, 90780.00
1026.035, 90599.00
1027.142, 90551.00
1028.249, 90701.00
1029.356, 90630.89
1030.462, 90778.00
1031.569, 90745.00
1032.675, 90646.00
1033.781, 90743.70
1034.887, 90790.00
1035.993, 90438.00
1037.098, 90520.00
1038.204, 90164.00
1039.309, 90143.00
1040.415, 90329.00
1041.520, 90444.00
1042.624, 90288.00
1043.729, 90285.00
1044.834, 89978.00
1045.938, 89923.62
1047.042, 89979.00
1048.146, 89739.00
1049.250, 90159.00
1050.354, 90241.00
1051.458, 90209.00
1052.561, 90135.00
1053.664, 90166.98
1054.767, 90348.00
1055.870, 90178.00
1056.973, 90300.00
1058.076, 90398.00
1059.178, 90034.00
1060.281, 90423.00
1061.383, 90680.00
1062.485, 90510.00
1063.587, 90380.00
1064.688, 90621.00
1065.790, 90983.00
1066.891, 90979.00
1067.993, 91117.40
1069.094, 91167.00
1070.195, 91201.00
1071.295, 91187.00
1072.396, 91341.00
1073.496, 91309.00
1074.597, 91497.00
1075.697, 91674.00
1076.797, 91670.00
1077.897, 91895.00
1078.996, 91996.00
1080.096, 91981.00
1081.195, 92290.00
1082.294, 92139.00
1083.393, 92631.00
1084.492, 92673.00
1085.591, 92467.00
1086.689, 92572.00
1087.788, 92612.00
1088.886, 92482.00
1089.984, 92289.00
1091.082, 92507.00
1092.180, 92665.00
1093.277, 92769.00
1094.375, 92588.00
1095.472, 92599.00
1096.569, 92631.00
1097.666, 92396.00
1098.763, 92435.00
1099.860, 92515.00
1100.956, 92380.00
1102.053, 92393.04
1103.149, 92388.34
1104.245, 92667.72
1105.341, 92836.84
1106.436, 92901.61
1107.532, 92549.55
1108.627, 92735.73
1109.723, 92706.23
1110.818, 92667.86
1111.913, 92929.80
1113.007, 92638.33
1114.102, 92895.51
1115.197, 92933.68
1116.291, 93072.07
1117.385, 92993.41
1118.479, 92981.78
1119.573, 93187.27
1120.666, 93272.52
1121.760, 93168.88
1122.853, 93207.00
1123.947, 93013.30
1125.040, 93102.00
1126.132, 93008.00
1127.225, 92723.00
1128.318, 92912.00
1129.410, 92746.00
1130.502, 92806.00
1131.595, 93062.00
1132.687, 93373.00
1133.778, 93101.00
1134.870, 92906.00
1135.961, 93104.00
1137.053, 92927.00
1138.144, 93367.00
1139.235, 92946.00
1140.326, 93156.00
1141.416, 93669.00
1142.507, 93188.00
1143.597, 93919.00
1144.688, 93444.00
1145.778, 93628.00
1146.868, 93607.00
1147.957, 93500.00
1149.047, 93697.00
1150.136, 93733.00
1151.226, 93649.00
1152.315, 93809.00
1153.404, 93925.00
1154.493, 93869.38
1155.581, 93818.00
1156.670, 93813.00
1157.758, 94039.00
1158.846, 93987.00
1159.934, 94104.00
1161.022, 93960.00
1162.110, 94111.00
1163.198, 94362.00
1164.285, 94293.00
1165.372, 94481.00
1166.459, 94537.00
1167.546, 94746.00
1168.633, 94734.87
1169.720, 94728.00
1170.806, 94705.00
1171.892, 94912.00
1172.979, 94881.00
1174.065, 94863.00
1175.150, 95085.00
1176.236, 94664.00
1177.322, 95076.00
1178.407, 94649.00
1179.492, 95092.00
1180.577, 94857.00
1181.662, 94888.00
1182.747, 95366.00
1183.832, 95590.00
1184.916, 95000.00
1186.000, 95222.00
1187.084, 95893.00
1188.168, 95408.00
1189.252, 95408.00
1190.336, 95739.00
1191.419, 95402.00
1192.503, 95713.00
1193.586, 95594.00
1194.669, 95699.00
1195.752, 95491.00
1196.835, 95693.00
1197.917, 95742.00
1199.000, 96040.00
1200.082, 96012.00
1201.164, 95765.00
1202.246, 96438.00
1203.328, 96317.00
1204.409, 96179.00
1205.491, 95717.00
1206.572, 96409.00
1207.653, 96287.00
1208.734, 96469.00
1209.815, 96449.00
1210.896, 96375.00
1211.976, 96450.00
1213.057, 96303.00
1214.137, 96705.00
1215.217, 97104.00
1216.297, 96286.00
1217.377, 97088.00
1218.456, 96929.00
1219.536, 96924.00
1220.615, 97184.00
1221.694, 96935.00
1222.773, 96770.00
1223.852, 96865.00
1224.931, 96883.00
1226.009, 97225.00
1227.088, 97291.00
1228.166, 97359.00
1229.244, 97720.00
1230.322, 97642.00
1231.400, 97425.00
1232.477, 97249.00
1233.555, 98018.00
1234.632, 97691.00
1235.709, 97672.00
1236.786, 97857.00
1237.863, 97746.00
1238.939, 98027.00
1240.016, 98128.00
1241.092, 98278.00
1242.168, 97850.00
1243.245, 98001.00
1244.320, 97767.00
1245.396, 97887.00
