##NAMES=Nepheline
##RRUFFID=R060581
##IDEAL CHEMISTRY=Na_3_K(Al_4_Si_4_O_16_)
##LOCALITY=Capo di Bova, Via Appia Antica, Rome, Italy
##OWNER=RRUFF
##SOURCE=Michael Scott
##DESCRIPTION=Colorless hexagonal prisms
##STATUS=The identification of this mineral is confirmed by single-crystal X-ray diffraction and chemical analysis.
##URL=rruff.info/R060581
##MEASURED CHEMISTRY=(Na_0.66_K_0.27_Ca_0.04_)_Î£=0.97_Al_0.98_Si_1.01_O_4_
##PIN_ID=M01217
##ORIENTATION=Laser parallel to a* (1 0 0). Fiducial mark perpendicular to laser is parallel to c [0 0 1]
62.16800, 4004.000
63.41100, 4521.000
64.65300, 5215.000
65.89600, 5921.000
67.13800, 6610.000
68.38000, 7620.000
69.62200, 8719.000
70.86300, 9866.000
72.10500, 11272.00
73.34600, 12382.00
74.58700, 13823.00
75.82800, 15192.00
77.06900, 16322.00
78.30900, 17272.00
79.55000, 18149.00
80.79000, 19231.00
82.03000, 20203.00
83.27000, 21216.00
84.51000, 22103.00
85.74900, 23031.00
86.98900, 23682.00
88.22800, 24210.00
89.46700, 25106.00
90.70600, 25659.00
91.94400, 26483.00
93.18300, 26902.00
94.42100, 27267.00
95.65900, 27828.00
96.89700, 28353.00
98.13500, 28748.00
99.37300, 29591.00
100.6100, 30178.00
101.8480, 31207.00
103.0850, 31807.00
104.3220, 32988.00
105.5590, 34126.00
106.7950, 35055.00
108.0320, 36137.07
109.2680, 37013.00
110.5040, 38065.00
111.7400, 39143.00
112.9760, 40032.00
114.2120, 41076.00
115.4470, 41625.00
116.6820, 42446.00
117.9170, 43252.00
119.1520, 43176.00
120.3870, 43102.00
121.6220, 43361.00
122.8560, 43322.00
124.0900, 43227.00
125.3240, 43102.00
126.5580, 43511.00
127.7920, 43508.00
129.0260, 43288.00
130.2590, 43644.00
131.4920, 43683.00
132.7250, 43515.00
133.9580, 43930.00
135.1910, 43762.00
136.4230, 43413.00
137.6560, 43290.00
138.8880, 43621.00
140.1200, 43162.00
141.3520, 43313.00
142.5830, 43240.00
143.8150, 42922.00
145.0460, 42906.00
146.2770, 42932.00
147.5080, 42865.00
148.7390, 43130.00
149.9700, 42954.00
151.2000, 42680.00
152.4310, 42806.00
153.6610, 42939.00
154.8910, 42967.00
156.1210, 42866.00
157.3500, 43010.79
158.5800, 43120.42
159.8090, 43240.00
161.0380, 43527.00
162.2670, 43821.00
163.4960, 44115.00
164.7240, 44508.00
165.9530, 44286.00
167.1810, 44775.00
168.4090, 45112.00
169.6370, 45387.00
170.8650, 45817.00
172.0920, 46030.00
173.3200, 46186.00
174.5470, 46589.00
175.7740, 46793.00
177.0010, 47190.00
178.2280, 47698.00
179.4540, 47787.00
180.6810, 48345.00
181.9070, 48512.00
183.1330, 49050.00
184.3590, 50034.00
185.5850, 50554.00
186.8100, 51166.00
188.0350, 52463.00
189.2610, 53077.00
190.4860, 53984.00
191.7110, 55244.00
192.9350, 56126.00
194.1600, 57328.00
195.3840, 58466.00
196.6080, 59668.00
197.8320, 61050.00
199.0560, 61568.00
200.2800, 62125.00
201.5030, 62729.00
202.7270, 62807.00
203.9500, 62793.50
205.1730, 62664.00
206.3950, 62014.00
207.6180, 61163.00
208.8410, 60214.00
210.0630, 59307.00
211.2850, 58056.00
212.5070, 56939.00
213.7290, 56036.00
214.9500, 55375.00
216.1720, 54511.00
217.3930, 54462.00
218.6140, 54394.00
219.8350, 53858.00
221.0560, 54134.00
222.2770, 54023.00
223.4970, 54113.00
224.7170, 54346.00
225.9370, 54743.00
227.1570, 54452.00
228.3770, 54036.00
229.5970, 53760.00
230.8160, 53145.00
232.0350, 52381.00
233.2540, 51415.00
234.4730, 49751.00
235.6920, 49183.00
236.9110, 48208.00
238.1290, 46630.00
239.3470, 45726.00
240.5650, 44992.00
241.7830, 43929.00
243.0010, 43174.00
244.2180, 42394.00
245.4360, 41826.00
246.6530, 41690.00
247.8700, 41278.00
249.0870, 41211.00
250.3040, 40979.00
251.5200, 40977.00
252.7370, 41573.00
253.9530, 42283.00
255.1690, 42642.00
256.3850, 43477.00
257.6000, 43724.00
258.8160, 44798.00
260.0310, 45888.00
261.2460, 46962.00
262.4610, 47545.00
263.6760, 48226.00
264.8910, 48186.00
266.1050, 48395.00
267.3200, 48051.00
268.5340, 47157.00
269.7480, 46466.00
270.9620, 45554.00
272.1750, 44675.00
273.3890, 43448.00
274.6020, 42224.00
275.8150, 41195.00
277.0280, 40192.00
278.2410, 39363.00
279.4540, 38781.00
280.6660, 38293.00
281.8790, 37704.00
283.0910, 37365.00
284.3030, 37010.00
285.5140, 36937.00
286.7260, 36493.00
287.9380, 36507.00
289.1490, 36547.00
290.3600, 36381.00
291.5710, 36459.00
292.7820, 36165.00
293.9920, 36377.00
295.2030, 36067.00
296.4130, 36078.00
297.6230, 36114.00
298.8330, 36422.00
300.0430, 35970.00
301.2520, 35856.00
302.4620, 36026.00
303.6710, 35852.00
304.8800, 35958.00
306.0890, 35721.00
307.2980, 36050.00
308.5070, 36176.00
309.7150, 36717.00
310.9230, 36887.00
312.1310, 36310.00
313.3390, 36729.00
314.5470, 36868.00
315.7550, 37050.00
316.9620, 37200.00
318.1690, 37365.00
319.3760, 37673.00
320.5830, 37795.00
321.7900, 38399.00
322.9960, 38672.00
324.2030, 38890.00
325.4090, 39348.00
326.6150, 40023.00
327.8210, 40157.00
329.0270, 40713.00
330.2320, 40937.00
331.4380, 41760.00
332.6430, 41862.00
333.8480, 42220.00
335.0530, 43063.00
336.2580, 43643.00
337.4620, 44495.00
338.6670, 45592.00
339.8710, 46700.00
341.0750, 48200.00
342.2790, 49446.00
343.4820, 51512.00
344.6860, 52693.00
345.8890, 54621.00
347.0920, 56410.00
348.2960, 58179.00
349.4980, 59590.00
350.7010, 60775.00
351.9040, 61104.00
353.1060, 61047.00
354.3080, 61406.00
355.5100, 60573.00
356.7120, 59938.00
357.9140, 59819.00
359.1150, 59218.00
360.3170, 59117.00
361.5180, 58914.00
362.7190, 58945.00
363.9200, 59799.00
365.1200, 60266.00
366.3210, 61237.00
367.5210, 62863.00
368.7210, 64727.00
369.9210, 66701.00
371.1210, 68995.00
372.3210, 71691.00
373.5200, 74577.00
374.7200, 77460.00
375.9190, 80956.00
377.1180, 84358.00
378.3170, 88801.00
379.5150, 92578.00
380.7140, 97508.00
381.9120, 102321.0
383.1110, 107232.0
384.3090, 112437.0
385.5060, 117518.0
386.7040, 123481.0
387.9020, 128615.0
389.0990, 133177.0
390.2960, 138664.0
391.4930, 142577.0
392.6900, 146023.0
393.8860, 148217.0
395.0830, 149472.0
396.2790, 149869.0
397.4750, 148990.0
398.6710, 147379.0
399.8670, 144791.0
401.0630, 141887.0
402.2580, 138497.0
403.4540, 135038.0
404.6490, 131935.0
405.8440, 128429.0
407.0390, 124812.0
408.2330, 121598.0
409.4280, 118842.0
410.6220, 115042.0
411.8160, 111282.0
413.0100, 107899.0
414.2040, 103875.0
415.3980, 99697.00
416.5910, 95935.00
417.7850, 92159.00
418.9780, 88052.00
420.1710, 84253.00
421.3640, 81396.00
422.5560, 78008.00
423.7490, 75429.00
424.9410, 72962.00
426.1330, 70085.00
427.3250, 68129.00
428.5170, 66062.00
429.7090, 64465.00
430.9000, 63137.00
432.0910, 62006.00
433.2820, 61181.00
434.4730, 60619.00
435.6640, 60198.00
436.8550, 59682.70
438.0450, 59324.00
439.2360, 59058.00
440.4260, 59015.00
441.6160, 58975.00
442.8060, 59206.00
443.9950, 59754.00
445.1850, 60033.00
446.3740, 60737.00
447.5630, 61727.00
448.7520, 62487.00
449.9410, 63802.00
451.1300, 65045.00
452.3180, 67118.00
453.5060, 69232.00
454.6950, 71711.00
455.8830, 74809.00
457.0700, 78205.00
458.2580, 81646.00
459.4450, 85691.00
460.6330, 90379.00
461.8200, 94690.00
463.0070, 98034.00
464.1940, 100673.0
465.3800, 100405.0
466.5670, 97588.00
467.7530, 92275.00
468.9390, 85920.00
470.1250, 79426.00
471.3110, 73140.00
472.4970, 67340.00
473.6820, 63124.00
474.8680, 59991.00
476.0530, 57225.00
477.2380, 55298.00
478.4230, 53221.00
479.6070, 52077.00
480.7920, 51215.00
481.9760, 49921.00
483.1600, 49246.00
484.3440, 48784.00
485.5280, 48431.00
486.7120, 48020.00
487.8950, 47554.00
489.0780, 47585.00
490.2620, 47156.00
491.4450, 47452.00
492.6270, 47202.00
493.8100, 47100.00
494.9920, 46800.00
496.1750, 46753.00
497.3570, 46543.00
498.5390, 46633.00
499.7210, 46621.00
500.9020, 46191.00
502.0840, 46387.00
503.2650, 46016.00
504.4460, 45760.00
505.6270, 45896.00
506.8080, 45930.00
507.9890, 45571.00
509.1690, 45596.00
510.3500, 45260.00
511.5300, 45247.00
512.7100, 44904.00
513.8900, 45199.00
515.0690, 44961.00
516.2490, 44838.00
517.4280, 45069.00
518.6070, 44711.00
519.7860, 44358.00
520.9650, 44476.00
522.1440, 44473.00
523.3220, 44581.00
524.5010, 44469.00
525.6790, 44448.00
526.8570, 44523.00
528.0350, 44617.00
529.2130, 44509.00
530.3900, 44355.00
531.5670, 44237.00
532.7450, 44243.00
533.9220, 44157.98
535.0980, 44115.10
536.2750, 44096.00
537.4520, 44079.00
538.6280, 44014.00
539.8040, 44094.00
540.9800, 43905.00
542.1560, 43651.00
543.3320, 43940.00
544.5070, 43778.00
545.6830, 44179.00
546.8580, 43812.00
548.0330, 43956.00
549.2080, 44285.00
550.3830, 43923.00
551.5570, 43949.00
552.7310, 43926.00
553.9060, 43904.00
555.0800, 43858.00
556.2540, 44180.00
557.4270, 44163.00
558.6010, 44270.00
559.7740, 44113.00
560.9470, 44225.00
562.1210, 44374.00
563.2930, 44680.00
564.4660, 44727.00
565.6390, 44968.00
566.8110, 45070.00
567.9830, 45485.00
569.1550, 45796.00
570.3270, 46300.00
571.4990, 46540.00
572.6710, 47156.00
573.8420, 47350.00
575.0130, 47867.00
576.1840, 47598.00
577.3550, 47903.00
578.5260, 47818.00
579.6970, 47898.00
580.8670, 47381.00
582.0370, 47313.00
583.2070, 47159.00
584.3770, 46773.00
585.5470, 46785.00
586.7170, 46725.00
587.8860, 46585.00
589.0550, 46450.00
590.2240, 46335.00
591.3930, 46337.77
592.5620, 46293.00
593.7310, 46364.00
594.8990, 46390.28
596.0670, 46622.00
597.2350, 46603.00
598.4030, 46831.00
599.5710, 47140.00
600.7390, 47126.00
601.9060, 47198.00
603.0740, 47362.00
604.2410, 47442.00
605.4080, 47511.00
606.5740, 47779.00
607.7410, 48006.00
608.9080, 48327.00
610.0740, 48452.00
611.2400, 48506.00
612.4060, 48503.99
613.5720, 48189.00
614.7370, 48263.00
615.9030, 47962.00
617.0680, 47779.00
618.2330, 47919.00
619.3980, 47872.00
620.5630, 47987.00
621.7280, 47750.00
622.8920, 47856.00
624.0570, 48209.00
625.2210, 47956.00
626.3850, 47866.00
627.5490, 48075.00
628.7120, 47925.00
629.8760, 48062.00
631.0390, 47877.00
632.2020, 47895.00
633.3650, 48210.00
634.5280, 48058.00
635.6910, 48132.00
636.8530, 47987.00
638.0160, 48197.00
639.1780, 48093.00
640.3400, 48284.00
641.5020, 48213.00
642.6640, 48361.00
643.8250, 48308.00
644.9870, 48371.00
646.1480, 48522.00
647.3090, 48496.00
648.4700, 48462.00
649.6300, 48602.00
650.7910, 48842.00
651.9510, 48924.00
653.1120, 48892.00
654.2720, 48862.00
655.4320, 48865.81
656.5910, 48846.12
657.7510, 48822.00
658.9100, 48864.00
660.0690, 48878.00
661.2290, 48949.11
662.3880, 49058.83
663.5460, 49039.00
664.7050, 49293.00
665.8630, 49282.00
667.0220, 49316.00
668.1800, 49396.32
669.3380, 49717.00
670.4950, 49443.00
671.6530, 49763.00
672.8100, 49825.00
673.9680, 49814.00
675.1250, 50268.00
676.2820, 50367.00
677.4390, 50314.00
678.5950, 50722.00
679.7520, 50830.00
680.9080, 50839.00
682.0640, 51103.00
683.2200, 50871.00
684.3760, 51001.00
685.5320, 51013.00
686.6870, 51458.00
687.8420, 51641.00
688.9980, 51733.00
690.1530, 51456.00
691.3070, 51961.00
692.4620, 51697.00
693.6170, 51634.00
694.7710, 51814.00
695.9250, 51770.00
697.0790, 51853.00
698.2330, 51941.00
699.3870, 51911.00
700.5400, 52042.00
701.6940, 51919.00
702.8470, 52008.00
704.0000, 52240.00
705.1530, 52202.00
706.3050, 52192.00
707.4580, 52821.00
708.6100, 52415.00
709.7630, 52755.00
710.9150, 52941.00
712.0660, 52998.00
713.2180, 53084.00
714.3700, 53146.00
715.5210, 53160.00
716.6720, 53375.00
717.8240, 53302.00
718.9740, 53448.00
720.1250, 53481.00
721.2760, 53414.00
722.4260, 53373.27
723.5770, 53310.00
724.7270, 53168.00
725.8770, 53116.00
727.0260, 53114.00
728.1760, 53041.35
729.3250, 53134.00
730.4750, 53118.00
731.6240, 53139.00
732.7730, 53128.92
733.9220, 53299.00
735.0700, 53160.00
736.2190, 53265.00
737.3670, 53495.00
738.5150, 53269.00
739.6630, 53497.00
740.8110, 53548.00
741.9590, 53915.00
743.1060, 53968.00
744.2540, 53994.00
745.4010, 54145.00
746.5480, 54132.00
747.6950, 54392.00
748.8410, 54415.46
749.9880, 54527.00
751.1340, 54534.00
752.2800, 54392.00
753.4260, 54368.00
754.5720, 54369.68
755.7180, 54475.00
756.8640, 54415.00
758.0090, 54308.00
759.1540, 54358.00
760.2990, 54628.00
761.4440, 54445.00
762.5890, 54657.00
763.7340, 54816.00
764.8780, 54860.00
766.0220, 54696.00
767.1660, 54825.00
768.3100, 54783.00
769.4540, 54909.00
770.5980, 54916.84
771.7410, 54866.00
772.8840, 54950.00
774.0280, 54901.00
775.1700, 54900.00
776.3130, 55237.00
777.4560, 55135.00
778.5980, 55064.00
779.7410, 55412.00
780.8830, 55267.00
782.0250, 55240.00
783.1670, 55106.00
784.3080, 55257.15
785.4500, 55335.00
786.5910, 55602.00
787.7320, 55728.00
788.8730, 55892.00
790.0140, 55987.00
791.1550, 55881.00
792.2950, 55650.00
793.4360, 55879.00
794.5760, 56019.00
795.7160, 56417.00
796.8560, 56044.00
797.9960, 56203.00
799.1350, 56377.00
800.2750, 56595.00
801.4140, 56646.70
802.5530, 56777.18
803.6920, 56710.00
804.8310, 56687.23
805.9690, 56978.65
807.1080, 57159.91
808.2460, 57236.97
809.3840, 56891.91
810.5220, 57096.52
811.6600, 57083.65
812.7970, 57063.74
813.9350, 57351.44
815.0720, 57078.03
816.2090, 57364.83
817.3460, 57430.80
818.4830, 57600.75
819.6200, 57551.86
820.7560, 57573.13
821.8930, 57817.35
823.0290, 57941.20
824.1650, 57874.81
825.3010, 58063.17
826.4360, 57801.88
827.5720, 57938.91
828.7070, 58248.83
829.8420, 58203.45
830.9770, 58405.74
832.1120, 58516.45
833.2470, 58203.92
834.3820, 58632.90
835.5160, 58743.97
836.6500, 58528.66
837.7840, 58938.18
838.9180, 58772.11
840.0520, 58814.18
841.1860, 59013.39
842.3190, 59052.77
843.4520, 59349.13
844.5850, 59401.81
845.7180, 59434.53
846.8510, 59565.01
847.9840, 59426.05
849.1160, 59792.54
850.2490, 59887.00
851.3810, 59779.00
852.5130, 59972.17
853.6450, 59677.00
854.7760, 60078.00
855.9080, 59987.00
857.0390, 60052.00
858.1700, 60326.00
859.3010, 60421.00
860.4320, 60377.00
861.5630, 60572.60
862.6930, 60580.00
863.8240, 60697.00
864.9540, 60841.00
866.0840, 60757.00
867.2140, 60939.00
868.3440, 61201.00
869.4730, 61091.00
870.6030, 61227.00
871.7320, 61236.00
872.8610, 61323.00
873.9900, 61519.00
875.1190, 61404.00
876.2470, 61212.71
877.3760, 61567.40
878.5040, 61809.81
879.6320, 61946.06
880.7600, 61658.18
881.8880, 61917.97
883.0150, 61958.20
884.1430, 61989.50
885.2700, 62326.29
886.3970, 62100.01
887.5240, 62431.95
888.6510, 62541.06
889.7780, 62752.16
890.9040, 62742.32
892.0310, 62800.79
893.1570, 63172.00
894.2830, 63385.00
895.4090, 63631.00
896.5350, 63802.31
897.6600, 63891.00
898.7860, 64041.00
899.9110, 64225.00
901.0360, 64322.75
902.1610, 64590.00
903.2860, 64519.00
904.4100, 64845.00
905.5350, 65146.00
906.6590, 65149.00
907.7830, 65688.00
908.9070, 66006.00
910.0310, 65998.00
911.1540, 66104.00
912.2780, 65946.00
913.4010, 66516.00
914.5240, 66395.00
915.6470, 66549.00
916.7700, 67202.00
917.8930, 67163.00
919.0150, 66973.00
920.1380, 67743.00
921.2600, 67911.00
922.3820, 67598.00
923.5040, 67663.00
924.6260, 67786.00
925.7470, 68085.00
926.8690, 67816.00
927.9900, 68338.00
929.1110, 67804.00
930.2320, 68238.00
931.3530, 68073.00
932.4730, 67996.00
933.5940, 67759.00
934.7140, 67776.00
935.8340, 67787.00
936.9540, 67889.00
938.0740, 67754.00
939.1930, 67812.00
940.3130, 67701.00
941.4320, 67878.00
942.5510, 68206.00
943.6700, 68052.00
944.7890, 67919.00
945.9080, 67838.00
947.0260, 68346.00
948.1450, 68671.00
949.2630, 68766.00
950.3810, 69021.00
951.4990, 69652.00
952.6170, 70119.00
953.7340, 69843.00
954.8520, 70499.00
955.9690, 71219.00
957.0860, 72119.00
958.2030, 72445.00
959.3200, 72772.00
960.4360, 73392.00
961.5530, 73961.00
962.6690, 74900.00
963.7850, 75227.00
964.9010, 75412.00
966.0170, 76656.00
967.1330, 76985.00
968.2480, 77371.00
969.3630, 78881.00
970.4790, 79050.00
971.5940, 80141.00
972.7080, 80667.00
973.8230, 81839.00
974.9380, 82525.00
976.0520, 83690.00
977.1660, 84669.00
978.2800, 86043.00
979.3940, 87610.00
980.5080, 88751.00
981.6220, 90159.00
982.7350, 91423.00
983.8480, 92650.00
984.9610, 93999.00
986.0740, 94949.30
987.1870, 95932.05
988.3000, 96784.00
989.4120, 97453.00
990.5250, 98215.00
991.6370, 98674.00
992.7490, 98313.00
993.8610, 98126.00
994.9720, 97511.00
996.0840, 96606.00
997.1950, 95927.00
998.3060, 94445.00
999.4170, 92996.00
1000.528, 91258.00
1001.639, 89447.00
1002.750, 87665.00
1003.860, 86102.00
1004.970, 84418.00
1006.080, 82897.00
1007.190, 82099.00
1008.300, 80348.00
1009.410, 79770.00
1010.519, 78966.00
1011.628, 77902.00
1012.738, 77933.00
1013.846, 77192.00
1014.955, 76811.00
1016.064, 75898.00
1017.172, 75700.00
1018.281, 75300.00
1019.389, 75063.00
1020.497, 74802.84
1021.605, 74411.00
1022.713, 74300.00
1023.820, 74120.00
1024.928, 73866.00
1026.035, 73508.00
1027.142, 73420.00
1028.249, 73286.00
1029.356, 73096.00
1030.462, 73170.00
1031.569, 73019.05
1032.675, 72980.00
1033.781, 72814.00
1034.887, 73090.00
1035.993, 72864.00
1037.098, 72827.00
1038.204, 72527.00
1039.309, 72376.00
1040.415, 72618.00
1041.520, 72362.00
1042.624, 72647.00
1043.729, 72240.00
1044.834, 72240.00
1045.938, 72406.00
1047.042, 72433.00
1048.146, 72409.23
1049.250, 72490.56
1050.354, 72264.00
1051.458, 72348.00
1052.561, 72163.00
1053.664, 72127.25
1054.767, 72350.00
1055.870, 72164.00
1056.973, 72118.00
1058.076, 72416.00
1059.178, 72508.00
1060.281, 72594.00
1061.383, 72765.49
1062.485, 72815.00
1063.587, 73027.00
1064.688, 72976.00
1065.790, 73179.00
1066.891, 73082.00
1067.993, 73248.00
1069.094, 73187.00
1070.195, 73715.00
1071.295, 74199.00
1072.396, 74149.00
1073.496, 73968.00
1074.597, 74248.00
1075.697, 74936.00
1076.797, 74891.00
1077.897, 75147.00
1078.996, 75360.00
1080.096, 75477.00
1081.195, 75795.00
1082.294, 76001.00
1083.393, 75915.29
1084.492, 75870.00
1085.591, 75712.00
1086.689, 75774.00
1087.788, 75728.00
1088.886, 75565.32
1089.984, 75575.00
1091.082, 75338.00
1092.180, 75358.00
1093.277, 75448.00
1094.375, 75181.00
1095.472, 75208.00
1096.569, 75118.00
1097.666, 74669.00
1098.763, 74727.00
1099.860, 74598.00
1100.956, 74205.00
1102.053, 74654.00
1103.149, 74273.00
1104.245, 74076.00
1105.341, 74003.00
1106.436, 73904.00
1107.532, 74065.00
1108.627, 73708.00
1109.723, 74296.00
1110.818, 73968.00
1111.913, 73917.00
1113.007, 73763.00
1114.102, 73816.00
1115.197, 73686.28
1116.291, 73586.00
1117.385, 73600.00
1118.479, 73737.00
1119.573, 73889.00
1120.666, 73667.00
1121.760, 73610.00
1122.853, 73327.00
1123.947, 73335.00
1125.040, 73719.00
1126.132, 73814.00
1127.225, 73006.00
1128.318, 73398.00
1129.410, 73863.00
1130.502, 73101.00
1131.595, 73276.00
1132.687, 73462.00
1133.778, 73307.00
1134.870, 73642.00
1135.961, 73653.00
1137.053, 73568.00
1138.144, 73478.00
1139.235, 73682.00
1140.326, 73674.00
1141.416, 73638.00
1142.507, 73753.00
1143.597, 73685.83
1144.688, 73719.00
1145.778, 73617.00
1146.868, 73921.00
1147.957, 73872.00
1149.047, 73951.00
1150.136, 73856.00
1151.226, 74136.00
1152.315, 74212.00
1153.404, 74217.00
1154.493, 74278.00
1155.581, 74394.00
1156.670, 74335.00
1157.758, 74135.00
1158.846, 74040.00
1159.934, 74267.00
1161.022, 74263.00
1162.110, 74358.00
1163.198, 74580.00
1164.285, 74476.00
1165.372, 74898.00
1166.459, 74611.00
1167.546, 74721.00
1168.633, 74285.00
1169.720, 74447.00
1170.806, 74565.00
1171.892, 74465.00
1172.979, 74785.00
1174.065, 74641.00
1175.150, 74672.00
1176.236, 75196.00
1177.322, 74967.00
1178.407, 75067.00
1179.492, 75080.00
1180.577, 74964.00
1181.662, 74893.00
1182.747, 75261.00
1183.832, 75147.00
1184.916, 75146.00
1186.000, 75071.00
1187.084, 75092.00
1188.168, 75581.00
1189.252, 75348.00
1190.336, 75410.00
1191.419, 75212.00
1192.503, 75328.00
1193.586, 75486.00
1194.669, 75154.00
1195.752, 75687.00
1196.835, 75482.00
1197.917, 75379.00
1199.000, 75823.00
1200.082, 75664.00
1201.164, 75963.00
1202.246, 75417.00
1203.328, 75734.00
1204.409, 76330.00
1205.491, 75916.00
1206.572, 76499.00
1207.653, 75904.00
1208.734, 76229.00
1209.815, 75995.00
1210.896, 76041.00
1211.976, 75928.00
1213.057, 75986.00
1214.137, 75983.09
1215.217, 76345.00
1216.297, 76157.00
1217.377, 76250.00
1218.456, 76624.00
1219.536, 76513.00
1220.615, 77009.00
1221.694, 76557.00
1222.773, 76629.00
1223.852, 76608.00
1224.931, 76889.00
1226.009, 77012.00
1227.088, 76733.00
1228.166, 76915.00
1229.244, 77027.00
1230.322, 77094.00
1231.400, 77195.00
1232.477, 76827.00
1233.555, 77144.00
1234.632, 77394.00
1235.709, 76992.00
1236.786, 77088.00
1237.863, 77321.00
1238.939, 77366.00
1240.016, 77558.00
1241.092, 77152.00
1242.168, 77213.00
1243.245, 77467.00
1244.320, 77457.00
1245.396, 77588.00
