##NAMES=Nepheline
##RRUFFID=R060581
##IDEAL CHEMISTRY=Na_3_K(Al_4_Si_4_O_16_)
##LOCALITY=Capo di Bova, Via Appia Antica, Rome, Italy
##OWNER=RRUFF
##SOURCE=Michael Scott
##DESCRIPTION=Colorless hexagonal prisms
##STATUS=The identification of this mineral is confirmed by single-crystal X-ray diffraction and chemical analysis.
##URL=rruff.info/R060581
##MEASURED CHEMISTRY=(Na_0.66_K_0.27_Ca_0.04_)_Î£=0.97_Al_0.98_Si_1.01_O_4_
##PIN_ID=M01217
##ORIENTATION=Laser parallel to a* (1 0 0). Fiducial mark perpendicular to laser is parallel to c [0 0 1]
117.9170, 52150.00
119.1520, 52379.00
120.3870, 52705.00
121.6220, 52993.00
122.8560, 53418.00
124.0900, 53745.73
125.3240, 54423.00
126.5580, 54544.00
127.7920, 55088.00
129.0260, 55623.00
130.2590, 55570.00
131.4920, 56072.00
132.7250, 56159.00
133.9580, 56248.00
135.1910, 56227.00
136.4230, 56419.00
137.6560, 56490.00
138.8880, 56725.00
140.1200, 57490.00
141.3520, 57483.00
142.5830, 57960.00
143.8150, 58171.00
145.0460, 58363.00
146.2770, 58942.00
147.5080, 59817.00
148.7390, 60305.00
149.9700, 60929.00
151.2000, 61225.00
152.4310, 62119.00
153.6610, 62236.00
154.8910, 63223.00
156.1210, 63875.00
157.3500, 64119.00
158.5800, 64979.00
159.8090, 65474.00
161.0380, 65900.00
162.2670, 66128.00
163.4960, 66687.00
164.7240, 67270.00
165.9530, 67337.00
167.1810, 67482.00
168.4090, 67836.00
169.6370, 67940.00
170.8650, 68016.00
172.0920, 68331.00
173.3200, 68439.00
174.5470, 68573.00
175.7740, 68598.00
177.0010, 69084.00
178.2280, 69342.00
179.4540, 69411.00
180.6810, 69950.00
181.9070, 70322.00
183.1330, 71019.00
184.3590, 71696.00
185.5850, 72678.00
186.8100, 73235.00
188.0350, 73925.00
189.2610, 74724.00
190.4860, 76222.00
191.7110, 77440.00
192.9350, 78911.00
194.1600, 80307.00
195.3840, 81706.00
196.6080, 82742.00
197.8320, 83969.00
199.0560, 84883.00
200.2800, 85823.00
201.5030, 86257.70
202.7270, 86740.00
203.9500, 86594.00
205.1730, 86270.00
206.3950, 85911.00
207.6180, 84943.50
208.8410, 83538.00
210.0630, 82500.00
211.2850, 80850.00
212.5070, 79153.00
213.7290, 77713.00
214.9500, 76465.00
216.1720, 75263.00
217.3930, 73863.00
218.6140, 72988.00
219.8350, 72062.68
221.0560, 71389.00
222.2770, 70715.00
223.4970, 70341.00
224.7170, 69968.00
225.9370, 69413.00
227.1570, 69407.00
228.3770, 69135.00
229.5970, 68535.00
230.8160, 67858.00
232.0350, 67378.00
233.2540, 66853.00
234.4730, 66053.00
235.6920, 65422.00
236.9110, 64706.00
238.1290, 63930.00
239.3470, 63403.00
240.5650, 62726.00
241.7830, 62115.39
243.0010, 61603.00
244.2180, 61059.00
245.4360, 60889.00
246.6530, 60677.00
247.8700, 60735.00
249.0870, 60289.00
250.3040, 60306.00
251.5200, 60428.00
252.7370, 60456.00
253.9530, 60773.00
255.1690, 61242.00
256.3850, 61804.00
257.6000, 62295.00
258.8160, 62622.00
260.0310, 63246.00
261.2460, 64058.00
262.4610, 64307.00
263.6760, 64772.00
264.8910, 65150.00
266.1050, 64843.00
267.3200, 64499.00
268.5340, 64440.00
269.7480, 64020.00
270.9620, 63650.00
272.1750, 63013.00
273.3890, 62450.00
274.6020, 61473.00
275.8150, 61126.00
277.0280, 60554.00
278.2410, 60242.00
279.4540, 59518.00
280.6660, 59179.00
281.8790, 59065.00
283.0910, 59148.00
284.3030, 58539.00
285.5140, 58552.00
286.7260, 58770.00
287.9380, 58642.00
289.1490, 58519.00
290.3600, 58646.00
291.5710, 58739.00
292.7820, 58805.00
293.9920, 58811.16
295.2030, 58886.00
296.4130, 58760.00
297.6230, 58808.00
298.8330, 58791.00
300.0430, 58693.00
301.2520, 58926.00
302.4620, 59016.00
303.6710, 59281.00
304.8800, 58992.00
306.0890, 59516.00
307.2980, 59591.00
308.5070, 59434.00
309.7150, 59670.00
310.9230, 59808.00
312.1310, 60499.00
313.3390, 60339.00
314.5470, 60657.00
315.7550, 60879.00
316.9620, 61096.00
318.1690, 61265.00
319.3760, 61522.31
320.5830, 61717.15
321.7900, 61994.00
322.9960, 62235.00
324.2030, 62440.00
325.4090, 62887.00
326.6150, 63150.27
327.8210, 63501.75
329.0270, 63781.00
330.2320, 64217.00
331.4380, 64399.00
332.6430, 64766.00
333.8480, 65123.00
335.0530, 65786.53
336.2580, 66618.00
337.4620, 67423.00
338.6670, 68397.77
339.8710, 69406.20
341.0750, 70576.00
342.2790, 71612.00
343.4820, 72915.00
344.6860, 74099.00
345.8890, 75663.00
347.0920, 77523.00
348.2960, 78308.00
349.4980, 79205.00
350.7010, 79692.00
351.9040, 80409.00
353.1060, 80260.00
354.3080, 80368.00
355.5100, 79675.00
356.7120, 79343.00
357.9140, 78763.00
359.1150, 78308.00
360.3170, 78072.00
361.5180, 77983.94
362.7190, 78298.00
363.9200, 78532.00
365.1200, 79215.00
366.3210, 80366.00
367.5210, 81378.00
368.7210, 82458.00
369.9210, 83852.00
371.1210, 85387.56
372.3210, 87386.00
373.5200, 89115.00
374.7200, 91472.00
375.9190, 93952.00
377.1180, 96309.00
378.3170, 99717.00
379.5150, 102316.0
380.7140, 105525.0
381.9120, 108898.0
383.1110, 112158.0
384.3090, 116572.0
385.5060, 119326.0
386.7040, 123385.0
387.9020, 127663.0
389.0990, 130995.0
390.2960, 134869.0
391.4930, 138011.0
392.6900, 140568.0
393.8860, 142403.0
395.0830, 144277.0
396.2790, 144688.0
397.4750, 144864.0
398.6710, 144783.0
399.8670, 144405.0
401.0630, 144062.2
402.2580, 141923.0
403.4540, 142637.0
404.6490, 140715.0
405.8440, 139284.0
407.0390, 138366.0
408.2330, 137651.0
409.4280, 136834.0
410.6220, 134770.0
411.8160, 132266.0
413.0100, 129334.0
414.2040, 126444.0
415.3980, 123411.0
416.5910, 120161.0
417.7850, 116932.0
418.9780, 113412.0
420.1710, 110232.0
421.3640, 106525.0
422.5560, 104081.0
423.7490, 101116.0
424.9410, 98419.00
426.1330, 96251.00
427.3250, 94214.00
428.5170, 92330.38
429.7090, 90718.66
430.9000, 89295.00
432.0910, 88056.00
433.2820, 87020.68
434.4730, 86265.00
435.6640, 85707.00
436.8550, 84921.00
438.0450, 84838.00
439.2360, 83976.00
440.4260, 83578.00
441.6160, 83768.00
442.8060, 83605.00
443.9950, 83804.00
445.1850, 83588.00
446.3740, 84019.00
447.5630, 83971.00
448.7520, 84399.00
449.9410, 85019.00
451.1300, 85981.00
452.3180, 86287.00
453.5060, 87531.00
454.6950, 88864.00
455.8830, 90139.00
457.0700, 92085.00
458.2580, 93820.00
459.4450, 95887.00
460.6330, 98177.00
461.8200, 100129.0
463.0070, 102056.0
464.1940, 103427.0
465.3800, 103165.0
466.5670, 101653.0
467.7530, 99038.00
468.9390, 96041.00
470.1250, 92846.00
471.3110, 89707.00
472.4970, 86677.00
473.6820, 84460.00
474.8680, 83016.00
476.0530, 81473.00
477.2380, 80504.00
478.4230, 79361.00
479.6070, 78451.00
480.7920, 78337.00
481.9760, 78326.00
483.1600, 77432.00
484.3440, 77706.00
485.5280, 77206.00
486.7120, 77042.00
487.8950, 77580.00
489.0780, 77175.00
490.2620, 77526.00
491.4450, 77469.00
492.6270, 77313.00
493.8100, 77261.00
494.9920, 77465.00
496.1750, 77578.00
497.3570, 77462.00
498.5390, 77874.00
499.7210, 77606.00
500.9020, 77560.00
502.0840, 77646.00
503.2650, 77563.00
504.4460, 77681.00
505.6270, 77692.00
506.8080, 77558.00
507.9890, 77501.00
509.1690, 77472.84
510.3500, 77380.80
511.5300, 77486.00
512.7100, 77253.00
513.8900, 77419.00
515.0690, 77358.00
516.2490, 77772.00
517.4280, 77498.00
518.6070, 77542.00
519.7860, 77756.00
520.9650, 77703.00
522.1440, 77907.00
523.3220, 77565.00
524.5010, 77750.00
525.6790, 77940.00
526.8570, 77821.00
528.0350, 77989.00
529.2130, 77847.00
530.3900, 78179.00
531.5670, 78440.00
532.7450, 78217.00
533.9220, 78237.00
535.0980, 78374.00
536.2750, 78330.00
537.4520, 78408.59
538.6280, 78407.00
539.8040, 78477.00
540.9800, 78420.00
542.1560, 78407.00
543.3320, 78495.00
544.5070, 78483.26
545.6830, 78845.00
546.8580, 78627.00
548.0330, 78546.00
549.2080, 78742.00
550.3830, 79207.00
551.5570, 79247.00
552.7310, 78923.00
553.9060, 79331.00
555.0800, 79294.00
556.2540, 79643.00
557.4270, 79887.00
558.6010, 79606.00
559.7740, 79760.00
560.9470, 79671.00
562.1210, 79958.00
563.2930, 80175.00
564.4660, 80706.00
565.6390, 80533.00
566.8110, 80769.00
567.9830, 81314.00
569.1550, 81236.00
570.3270, 81564.00
571.4990, 81911.00
572.6710, 82082.00
573.8420, 82391.92
575.0130, 82595.36
576.1840, 82785.00
577.3550, 82964.00
578.5260, 82941.00
579.6970, 83038.00
580.8670, 82833.00
582.0370, 82926.82
583.2070, 82866.00
584.3770, 82902.00
585.5470, 82918.00
586.7170, 82759.00
587.8860, 83040.00
589.0550, 83271.00
590.2240, 83043.00
591.3930, 83325.00
592.5620, 83445.00
593.7310, 83740.00
594.8990, 83728.00
596.0670, 83636.00
597.2350, 83830.00
598.4030, 83992.00
599.5710, 84323.00
600.7390, 84283.00
601.9060, 84411.00
603.0740, 84382.00
604.2410, 84736.00
605.4080, 84991.00
606.5740, 84705.00
607.7410, 85532.00
608.9080, 85403.00
610.0740, 85590.00
611.2400, 85480.00
612.4060, 85512.00
613.5720, 85604.00
614.7370, 85959.00
615.9030, 85815.00
617.0680, 85678.00
618.2330, 86229.00
619.3980, 86363.00
620.5630, 86139.00
621.7280, 86077.00
622.8920, 86185.00
624.0570, 86226.00
625.2210, 86592.00
626.3850, 86920.00
627.5490, 86372.00
628.7120, 86534.00
629.8760, 86944.00
631.0390, 87493.00
632.2020, 86755.00
633.3650, 87474.00
634.5280, 87135.00
635.6910, 87516.00
636.8530, 87156.00
638.0160, 87871.00
639.1780, 87514.00
640.3400, 87831.00
641.5020, 87822.00
642.6640, 88455.00
643.8250, 88101.00
644.9870, 88198.00
646.1480, 88430.00
647.3090, 88306.00
648.4700, 88391.00
649.6300, 88666.00
650.7910, 88928.00
651.9510, 88680.00
653.1120, 89054.00
654.2720, 88910.00
655.4320, 89567.00
656.5910, 88960.00
657.7510, 89551.00
658.9100, 89527.00
660.0690, 89564.00
661.2290, 89560.00
662.3880, 89915.00
663.5460, 90019.00
664.7050, 90220.00
665.8630, 90608.00
667.0220, 90819.00
668.1800, 90988.41
669.3380, 91366.00
670.4950, 91347.00
671.6530, 91420.00
672.8100, 91768.00
673.9680, 92059.00
675.1250, 92515.00
676.2820, 92568.00
677.4390, 92916.76
678.5950, 93096.00
679.7520, 93252.00
680.9080, 93340.00
682.0640, 93180.00
683.2200, 93381.00
684.3760, 93340.00
685.5320, 93349.00
686.6870, 93713.00
687.8420, 93828.00
688.9980, 93678.00
690.1530, 93904.00
691.3070, 94163.00
692.4620, 94216.00
693.6170, 94261.72
694.7710, 94323.16
695.9250, 94148.00
697.0790, 94343.00
698.2330, 94262.00
699.3870, 94346.00
700.5400, 94522.00
701.6940, 94605.00
702.8470, 94639.00
704.0000, 94814.00
705.1530, 94781.00
706.3050, 94764.00
707.4580, 94939.00
708.6100, 95300.00
709.7630, 95060.00
710.9150, 95573.00
712.0660, 95098.00
713.2180, 95411.00
714.3700, 95625.00
715.5210, 95761.00
716.6720, 95536.00
717.8240, 95813.00
718.9740, 95887.00
720.1250, 95593.00
721.2760, 96261.00
722.4260, 95383.00
723.5770, 96134.00
724.7270, 95880.00
725.8770, 96286.00
727.0260, 96568.00
728.1760, 96016.00
729.3250, 96267.00
730.4750, 96254.00
731.6240, 96999.00
732.7730, 96909.00
733.9220, 96839.00
735.0700, 97076.00
736.2190, 97167.00
737.3670, 97682.00
738.5150, 97136.00
739.6630, 97479.00
740.8110, 97668.00
741.9590, 98237.00
743.1060, 98340.00
744.2540, 98752.00
745.4010, 98452.00
746.5480, 98864.00
747.6950, 98951.00
748.8410, 99025.00
749.9880, 99222.00
751.1340, 98992.00
752.2800, 99478.00
753.4260, 99266.00
754.5720, 99560.00
755.7180, 99345.00
756.8640, 99669.00
758.0090, 99839.00
759.1540, 99902.00
760.2990, 100017.0
761.4440, 100015.0
762.5890, 100302.0
763.7340, 100275.0
764.8780, 100583.0
766.0220, 100626.0
767.1660, 100283.0
768.3100, 100773.0
769.4540, 100764.0
770.5980, 100428.0
771.7410, 101094.0
772.8840, 100653.0
774.0280, 100962.0
775.1700, 100957.0
776.3130, 101343.0
777.4560, 101499.0
778.5980, 101245.0
779.7410, 101258.0
780.8830, 101742.0
782.0250, 102012.0
783.1670, 102017.0
784.3080, 102037.0
785.4500, 102225.2
786.5910, 102174.0
787.7320, 102535.0
788.8730, 102816.0
790.0140, 103096.0
791.1550, 102644.0
792.2950, 103070.0
793.4360, 102742.0
794.5760, 102956.0
795.7160, 103381.0
796.8560, 103292.0
797.9960, 102970.0
799.1350, 103353.0
800.2750, 103755.0
801.4140, 103609.0
802.5530, 103939.0
803.6920, 104030.0
804.8310, 104074.0
805.9690, 104005.0
807.1080, 104335.0
808.2460, 103946.0
809.3840, 104618.0
810.5220, 104446.0
811.6600, 104553.0
812.7970, 104954.0
813.9350, 104914.0
815.0720, 105149.0
816.2090, 105785.0
817.3460, 105410.0
818.4830, 105987.0
819.6200, 106120.0
820.7560, 105895.0
821.8930, 106135.0
823.0290, 106520.0
824.1650, 106620.0
825.3010, 106471.0
826.4360, 106565.0
827.5720, 106820.0
828.7070, 106950.0
829.8420, 107126.0
830.9770, 107216.0
832.1120, 106993.0
833.2470, 107420.0
834.3820, 108103.0
835.5160, 107990.0
836.6500, 108132.0
837.7840, 108345.1
838.9180, 108501.0
840.0520, 108487.0
841.1860, 108368.0
842.3190, 108368.0
843.4520, 108761.0
844.5850, 108956.0
845.7180, 108756.0
846.8510, 109420.0
847.9840, 109120.0
849.1160, 109127.0
850.2490, 109997.0
851.3810, 109295.0
852.5130, 109450.0
853.6450, 109632.0
854.7760, 110004.0
855.9080, 110018.0
857.0390, 110179.0
858.1700, 110464.0
859.3010, 110451.0
860.4320, 110656.0
861.5630, 110676.0
862.6930, 110671.0
863.8240, 110766.0
864.9540, 111144.0
866.0840, 111559.0
867.2140, 111676.0
868.3440, 112019.0
869.4730, 112173.7
870.6030, 112035.0
871.7320, 112399.0
872.8610, 112158.0
873.9900, 112105.0
875.1190, 112586.0
876.2470, 112494.0
877.3760, 112751.0
878.5040, 113158.0
879.6320, 113085.0
880.7600, 112903.0
881.8880, 113385.0
883.0150, 113455.0
884.1430, 113669.0
885.2700, 113824.0
886.3970, 113579.0
887.5240, 113765.0
888.6510, 114507.0
889.7780, 114524.0
890.9040, 114442.0
892.0310, 114933.0
893.1570, 114821.0
894.2830, 115088.0
895.4090, 114822.0
896.5350, 115371.0
897.6600, 115884.0
898.7860, 115803.0
899.9110, 116281.1
901.0360, 116672.0
902.1610, 116860.0
903.2860, 117246.2
904.4100, 117264.0
905.5350, 117860.0
906.6590, 117877.0
907.7830, 118270.0
908.9070, 118933.0
910.0310, 118885.0
911.1540, 119172.0
912.2780, 119312.0
913.4010, 119729.0
914.5240, 119255.0
915.6470, 119503.0
916.7700, 120296.0
917.8930, 119896.0
919.0150, 120235.0
920.1380, 120859.0
921.2600, 120649.0
922.3820, 120687.0
923.5040, 120648.0
924.6260, 120918.0
925.7470, 121036.0
926.8690, 120884.0
927.9900, 121006.0
929.1110, 120717.0
930.2320, 120953.0
931.3530, 121255.0
932.4730, 120762.0
933.5940, 121454.0
934.7140, 121232.0
935.8340, 121302.0
936.9540, 121642.0
938.0740, 121591.0
939.1930, 121997.0
940.3130, 121472.0
941.4320, 121798.0
942.5510, 122045.0
943.6700, 122336.0
944.7890, 121920.0
945.9080, 123115.0
947.0260, 123064.0
948.1450, 123013.0
949.2630, 123956.0
950.3810, 124123.0
951.4990, 124627.0
952.6170, 125063.0
953.7340, 125256.0
954.8520, 126690.0
955.9690, 126479.0
957.0860, 127691.0
958.2030, 128960.0
959.3200, 129724.0
960.4360, 130176.0
961.5530, 130711.0
962.6690, 131973.0
963.7850, 132178.0
964.9010, 133619.0
966.0170, 133770.0
967.1330, 134672.0
968.2480, 135188.0
969.3630, 135523.0
970.4790, 136160.0
971.5940, 136560.0
972.7080, 137119.0
973.8230, 137474.0
974.9380, 137658.0
976.0520, 138370.0
977.1660, 138987.0
978.2800, 139966.0
979.3940, 140580.0
980.5080, 141171.0
981.6220, 142170.0
982.7350, 142547.0
983.8480, 143617.0
984.9610, 143445.0
986.0740, 144223.0
987.1870, 144676.0
988.3000, 145722.0
989.4120, 145871.0
990.5250, 146495.0
991.6370, 146655.0
992.7490, 146828.0
993.8610, 147082.0
994.9720, 146843.0
996.0840, 146292.0
997.1950, 145939.4
998.3060, 145045.5
999.4170, 144432.0
1000.528, 143047.0
1001.639, 141773.0
1002.750, 140613.0
1003.860, 139225.0
1004.970, 138416.0
1006.080, 137129.0
1007.190, 136009.0
1008.300, 135777.0
1009.410, 134475.0
1010.519, 134106.0
1011.628, 133507.0
1012.738, 133578.0
1013.846, 133022.0
1014.955, 132321.0
1016.064, 132160.0
1017.172, 131950.0
1018.281, 131588.0
1019.389, 130896.0
1020.497, 131230.0
1021.605, 130830.0
1022.713, 130415.0
1023.820, 130682.0
1024.928, 130834.0
1026.035, 130412.0
1027.142, 130711.0
1028.249, 130520.0
1029.356, 130072.0
1030.462, 130432.0
1031.569, 130404.0
1032.675, 130768.0
1033.781, 130728.0
1034.887, 130244.0
1035.993, 131077.0
1037.098, 130542.0
1038.204, 129838.0
1039.309, 130586.0
1040.415, 130302.0
1041.520, 130377.0
1042.624, 130216.0
1043.729, 130472.0
1044.834, 130143.0
1045.938, 130021.0
1047.042, 130355.0
1048.146, 130467.0
1049.250, 130562.0
1050.354, 130407.0
1051.458, 130316.0
1052.561, 130834.0
1053.664, 130468.0
1054.767, 130628.0
1055.870, 130207.0
1056.973, 131069.0
1058.076, 130771.0
1059.178, 130988.0
1060.281, 131286.0
1061.383, 131327.0
1062.485, 131496.0
1063.587, 131484.0
1064.688, 131554.0
1065.790, 131997.0
1066.891, 131425.0
1067.993, 131932.0
1069.094, 131963.0
1070.195, 132787.0
1071.295, 132343.0
1072.396, 132787.0
1073.496, 132897.0
1074.597, 132288.0
1075.697, 133404.0
1076.797, 133072.0
1077.897, 133541.0
1078.996, 133406.0
1080.096, 134141.0
1081.195, 133951.0
1082.294, 134234.0
1083.393, 134393.0
1084.492, 134430.0
1085.591, 134399.0
1086.689, 134156.0
1087.788, 133783.0
1088.886, 134007.5
1089.984, 134554.0
1091.082, 134447.0
1092.180, 134207.0
1093.277, 134627.0
1094.375, 134122.0
1095.472, 134010.0
1096.569, 134471.0
1097.666, 134474.0
1098.763, 134371.0
1099.860, 134775.0
1100.956, 134828.0
1102.053, 134681.0
1103.149, 134886.0
1104.245, 135345.0
1105.341, 134684.0
1106.436, 135056.0
1107.532, 135370.0
1108.627, 134672.0
1109.723, 135108.0
1110.818, 135082.0
1111.913, 135232.0
1113.007, 134670.0
1114.102, 135083.0
1115.197, 135396.0
1116.291, 135439.0
1117.385, 135895.0
1118.479, 135937.3
1119.573, 136026.4
1120.666, 135974.0
1121.760, 135936.0
1122.853, 135571.0
1123.947, 135655.9
1125.040, 135577.0
1126.132, 135707.0
1127.225, 135775.0
1128.318, 135984.0
1129.410, 135797.0
1130.502, 136030.0
1131.595, 136122.0
1132.687, 135987.0
1133.778, 136091.0
1134.870, 136119.8
1135.961, 136426.0
1137.053, 136158.0
1138.144, 136352.0
1139.235, 136197.0
1140.326, 136302.0
1141.416, 136459.0
1142.507, 136413.0
1143.597, 136620.0
1144.688, 136124.0
1145.778, 136733.0
1146.868, 136585.0
1147.957, 137091.0
1149.047, 136815.0
1150.136, 137064.0
1151.226, 137655.0
1152.315, 137279.0
1153.404, 137488.0
1154.493, 138059.0
1155.581, 137443.0
1156.670, 137505.0
1157.758, 137197.0
1158.846, 137564.0
1159.934, 138115.0
1161.022, 137611.0
1162.110, 138267.0
1163.198, 138177.0
1164.285, 138077.0
1165.372, 138362.0
1166.459, 138334.0
1167.546, 138255.0
1168.633, 138113.0
1169.720, 138689.0
1170.806, 138798.0
1171.892, 138797.0
1172.979, 139022.0
1174.065, 139022.0
1175.150, 139191.7
1176.236, 139073.0
1177.322, 139361.0
1178.407, 139741.0
1179.492, 139544.0
1180.577, 139622.0
1181.662, 139802.0
1182.747, 139513.0
1183.832, 139486.0
1184.916, 139697.0
1186.000, 139879.0
1187.084, 139710.0
1188.168, 140192.0
1189.252, 139464.0
1190.336, 140677.0
1191.419, 140255.0
1192.503, 140186.0
1193.586, 140782.0
1194.669, 140847.0
1195.752, 140180.0
1196.835, 140449.0
1197.917, 140350.0
1199.000, 141219.0
1200.082, 140907.0
1201.164, 141150.0
1202.246, 140908.0
1203.328, 141027.0
1204.409, 140921.0
1205.491, 141098.9
1206.572, 141204.0
1207.653, 141392.0
1208.734, 141694.0
1209.815, 141522.0
1210.896, 141667.0
1211.976, 142046.0
1213.057, 141776.0
1214.137, 141835.0
1215.217, 142195.0
1216.297, 142207.0
1217.377, 142223.0
1218.456, 141990.0
1219.536, 142319.0
1220.615, 142465.0
1221.694, 142550.0
1222.773, 142910.0
1223.852, 142952.8
1224.931, 143093.0
1226.009, 143180.0
1227.088, 143046.0
1228.166, 143115.0
1229.244, 143264.7
1230.322, 142917.0
1231.400, 143523.0
1232.477, 143997.0
1233.555, 143902.0
1234.632, 143730.0
1235.709, 143408.0
1236.786, 143492.0
1237.863, 143418.0
1238.939, 144485.0
1240.016, 143780.0
1241.092, 145154.0
1242.168, 144348.0
1243.245, 144268.0
1244.320, 144652.0
1245.396, 144237.0
1246.472, 144512.0
1247.547, 144515.0
1248.622, 144071.0
1249.697, 144345.0
1250.772, 144230.0
1251.847, 145123.0
1252.922, 144486.0
1253.996, 144737.0
1255.071, 144725.0
1256.145, 144312.0
1257.219, 145158.0
1258.293, 144916.0
1259.366, 145453.0
1260.440, 145042.0
1261.513, 145402.0
1262.587, 145509.0
1263.660, 145391.0
1264.733, 145820.0
1265.805, 145457.0
1266.878, 145725.0
1267.951, 145452.0
1269.023, 146115.0
1270.095, 146168.0
1271.167, 146083.0
1272.239, 146766.0
1273.311, 145829.0
1274.382, 146199.0
1275.454, 146456.0
1276.525, 146571.0
1277.596, 146594.0
1278.667, 146781.8
1279.738, 146789.0
1280.808, 147012.0
1281.879, 146718.0
1282.949, 146796.0
1284.019, 147130.0
1285.089, 147062.0
1286.159, 146722.0
1287.229, 147003.0
1288.298, 147549.0
1289.368, 147260.0
1290.437, 147530.0
1291.506, 147014.0
1292.575, 147367.0
1293.644, 148249.0
