##NAMES=Nepheline
##RRUFFID=R060581
##IDEAL CHEMISTRY=Na_3_K(Al_4_Si_4_O_16_)
##LOCALITY=Capo di Bova, Via Appia Antica, Rome, Italy
##OWNER=RRUFF
##SOURCE=Michael Scott
##DESCRIPTION=Colorless hexagonal prisms
##STATUS=The identification of this mineral is confirmed by single-crystal X-ray diffraction and chemical analysis.
##URL=rruff.info/R060581
##MEASURED CHEMISTRY=(Na_0.66_K_0.27_Ca_0.04_)_Î£=0.97_Al_0.98_Si_1.01_O_4_
##PIN_ID=M01882
##ORIENTATION=Laser parallel to c* (0 0 1). Fiducial mark perpendicular to laser is parallel to b [0 1 0]
121.6220, 36637.00
122.8560, 36582.00
124.0900, 36360.00
125.3240, 36443.00
126.5580, 36420.00
127.7920, 36529.00
129.0260, 36324.00
130.2590, 36497.00
131.4920, 36442.00
132.7250, 36586.00
133.9580, 36573.00
135.1910, 36585.00
136.4230, 36430.00
137.6560, 36542.00
138.8880, 36376.00
140.1200, 36573.00
141.3520, 36453.00
142.5830, 36281.00
143.8150, 36292.00
145.0460, 36023.00
146.2770, 36039.90
147.5080, 36163.00
148.7390, 35968.00
149.9700, 36074.00
151.2000, 36002.00
152.4310, 36187.00
153.6610, 36425.00
154.8910, 36041.00
156.1210, 36602.00
157.3500, 36822.00
158.5800, 36653.00
159.8090, 36369.00
161.0380, 36674.00
162.2670, 37002.00
163.4960, 37141.00
164.7240, 37001.00
165.9530, 37387.00
167.1810, 37209.00
168.4090, 37714.00
169.6370, 38195.00
170.8650, 38141.00
172.0920, 38404.00
173.3200, 38483.00
174.5470, 38837.00
175.7740, 39071.00
177.0010, 39654.00
178.2280, 39815.00
179.4540, 40272.00
180.6810, 40621.00
181.9070, 40887.00
183.1330, 41472.00
184.3590, 41953.73
185.5850, 42305.00
186.8100, 43176.00
188.0350, 43737.00
189.2610, 44395.00
190.4860, 45167.00
191.7110, 45859.00
192.9350, 47050.00
194.1600, 47587.00
195.3840, 48665.00
196.6080, 49105.00
197.8320, 49631.00
199.0560, 50419.00
200.2800, 50698.00
201.5030, 51233.00
202.7270, 50635.00
203.9500, 50859.00
205.1730, 50316.00
206.3950, 50344.00
207.6180, 49580.00
208.8410, 48620.00
210.0630, 47947.00
211.2850, 47169.00
212.5070, 46547.00
213.7290, 46273.00
214.9500, 45866.00
216.1720, 45441.00
217.3930, 45207.00
218.6140, 44842.00
219.8350, 44456.00
221.0560, 44684.00
222.2770, 44969.00
223.4970, 44976.00
224.7170, 45027.66
225.9370, 44749.00
227.1570, 44695.00
228.3770, 44483.00
229.5970, 43856.00
230.8160, 43661.00
232.0350, 43084.00
233.2540, 42272.00
234.4730, 41725.00
235.6920, 40764.00
236.9110, 39923.00
238.1290, 38955.00
239.3470, 38477.00
240.5650, 37741.00
241.7830, 37562.00
243.0010, 36678.00
244.2180, 36395.00
245.4360, 36054.00
246.6530, 35618.00
247.8700, 35550.00
249.0870, 35547.00
250.3040, 35666.00
251.5200, 35816.00
252.7370, 36118.48
253.9530, 36425.00
255.1690, 36909.00
256.3850, 37515.00
257.6000, 38004.00
258.8160, 38544.00
260.0310, 39430.00
261.2460, 39856.00
262.4610, 40208.00
263.6760, 40551.00
264.8910, 40521.00
266.1050, 40570.00
267.3200, 39823.00
268.5340, 39329.00
269.7480, 38834.00
270.9620, 38177.00
272.1750, 37266.00
273.3890, 36740.00
274.6020, 35877.00
275.8150, 35090.00
277.0280, 34753.00
278.2410, 34066.00
279.4540, 33476.00
280.6660, 33431.00
281.8790, 32949.00
283.0910, 32311.00
284.3030, 32434.00
285.5140, 32296.00
286.7260, 32140.00
287.9380, 32108.00
289.1490, 31942.00
290.3600, 32052.00
291.5710, 32014.00
292.7820, 32149.00
293.9920, 32003.00
295.2030, 31807.00
296.4130, 31890.00
297.6230, 31874.00
298.8330, 31880.00
300.0430, 31842.00
301.2520, 31672.00
302.4620, 32043.00
303.6710, 31611.00
304.8800, 31559.00
306.0890, 31921.00
307.2980, 31977.00
308.5070, 32067.00
309.7150, 32174.00
310.9230, 32219.00
312.1310, 32389.00
313.3390, 32397.00
314.5470, 32419.00
315.7550, 32754.00
316.9620, 32904.00
318.1690, 32958.00
319.3760, 33332.00
320.5830, 33617.00
321.7900, 33717.00
322.9960, 34067.00
324.2030, 34333.00
325.4090, 34573.08
326.6150, 35196.00
327.8210, 35115.00
329.0270, 35477.00
330.2320, 35723.00
331.4380, 36295.00
332.6430, 36506.00
333.8480, 37167.00
335.0530, 37570.00
336.2580, 37868.00
337.4620, 38466.00
338.6670, 39187.00
339.8710, 40080.86
341.0750, 41272.00
342.2790, 42384.00
343.4820, 43572.00
344.6860, 45053.00
345.8890, 46157.00
347.0920, 47374.00
348.2960, 48567.00
349.4980, 49408.00
350.7010, 50567.00
351.9040, 50850.00
353.1060, 50889.00
354.3080, 51122.00
355.5100, 50641.00
356.7120, 50559.00
357.9140, 50476.00
359.1150, 50405.00
360.3170, 49909.00
361.5180, 50392.00
362.7190, 50534.00
363.9200, 51071.55
365.1200, 51738.00
366.3210, 52718.00
367.5210, 54010.00
368.7210, 55216.00
369.9210, 56692.00
371.1210, 58642.00
372.3210, 60930.00
373.5200, 63155.00
374.7200, 65417.00
375.9190, 67942.00
377.1180, 70624.00
378.3170, 73862.00
379.5150, 76780.00
380.7140, 80423.00
381.9120, 84129.00
383.1110, 87317.00
384.3090, 90734.00
385.5060, 94096.00
386.7040, 97624.00
387.9020, 100798.0
389.0990, 103346.0
390.2960, 105355.0
391.4930, 107088.0
392.6900, 108000.0
393.8860, 108393.0
395.0830, 107621.0
396.2790, 106279.0
397.4750, 104448.0
398.6710, 102801.0
399.8670, 100514.0
401.0630, 97988.00
402.2580, 95828.00
403.4540, 93664.00
404.6490, 91529.00
405.8440, 89625.00
407.0390, 88289.00
408.2330, 87004.00
409.4280, 85929.00
410.6220, 85186.00
411.8160, 84723.00
413.0100, 84277.00
414.2040, 84331.00
415.3980, 83986.00
416.5910, 84249.00
417.7850, 83785.00
418.9780, 82961.00
420.1710, 82642.00
421.3640, 81615.00
422.5560, 80902.00
423.7490, 78714.00
424.9410, 76996.00
426.1330, 75067.00
427.3250, 72434.00
428.5170, 70599.00
429.7090, 67892.00
430.9000, 65867.00
432.0910, 64233.00
433.2820, 62471.00
434.4730, 60370.00
435.6640, 59037.00
436.8550, 57773.00
438.0450, 56825.00
439.2360, 55721.00
440.4260, 55088.00
441.6160, 54395.00
442.8060, 53467.00
443.9950, 53078.00
445.1850, 52632.00
446.3740, 52138.00
447.5630, 52011.00
448.7520, 51803.00
449.9410, 51304.00
451.1300, 51149.00
452.3180, 51546.00
453.5060, 51699.00
454.6950, 52453.00
455.8830, 53343.00
457.0700, 54322.00
458.2580, 55619.00
459.4450, 56525.00
460.6330, 57022.00
461.8200, 57003.00
463.0070, 55849.00
464.1940, 54858.00
465.3800, 53132.00
466.5670, 51089.00
467.7530, 49143.00
468.9390, 47624.00
470.1250, 45763.00
471.3110, 44639.00
472.4970, 43883.00
473.6820, 42745.00
474.8680, 42565.00
476.0530, 41633.00
477.2380, 41460.00
478.4230, 41592.00
479.6070, 41623.00
480.7920, 41448.00
481.9760, 41694.00
483.1600, 42203.00
484.3440, 42366.00
485.5280, 43096.00
486.7120, 43812.00
487.8950, 45135.00
489.0780, 46134.00
490.2620, 47655.00
491.4450, 49030.00
492.6270, 50477.00
493.8100, 51454.00
494.9920, 52006.00
496.1750, 52240.00
497.3570, 51217.00
498.5390, 50073.00
499.7210, 48555.00
500.9020, 47199.00
502.0840, 45926.00
503.2650, 44680.00
504.4460, 43611.00
505.6270, 42915.00
506.8080, 42397.00
507.9890, 41979.00
509.1690, 41480.00
510.3500, 41169.00
511.5300, 41055.00
512.7100, 40653.00
513.8900, 40586.00
515.0690, 40421.00
516.2490, 40111.00
517.4280, 39997.00
518.6070, 39950.00
519.7860, 39838.00
520.9650, 39922.00
522.1440, 40005.00
523.3220, 39713.00
524.5010, 39973.00
525.6790, 39577.00
526.8570, 39724.00
528.0350, 39741.00
529.2130, 39828.00
530.3900, 39809.73
531.5670, 39797.91
532.7450, 39655.00
533.9220, 39707.00
535.0980, 39478.00
536.2750, 39393.00
537.4520, 39381.00
538.6280, 39321.00
539.8040, 39235.00
540.9800, 39420.00
542.1560, 39255.60
543.3320, 39334.00
544.5070, 39111.00
545.6830, 39168.00
546.8580, 39152.00
548.0330, 39174.00
549.2080, 39269.00
550.3830, 39340.00
551.5570, 39077.00
552.7310, 38961.00
553.9060, 39015.00
555.0800, 39365.00
556.2540, 39244.00
557.4270, 39337.00
558.6010, 39389.00
559.7740, 39596.00
560.9470, 39510.00
562.1210, 39703.00
563.2930, 39829.00
564.4660, 39792.00
565.6390, 40014.00
566.8110, 40368.00
567.9830, 40485.00
569.1550, 40909.00
570.3270, 41006.00
571.4990, 41365.00
572.6710, 41947.00
573.8420, 42245.00
575.0130, 42285.00
576.1840, 42994.00
577.3550, 43106.00
578.5260, 42834.00
579.6970, 42901.00
580.8670, 42623.00
582.0370, 42635.00
583.2070, 41997.00
584.3770, 42136.00
585.5470, 41487.00
586.7170, 41739.00
587.8860, 41398.00
589.0550, 41307.00
590.2240, 41302.00
591.3930, 41278.00
592.5620, 41587.00
593.7310, 41563.00
594.8990, 41628.00
596.0670, 41487.00
597.2350, 41472.00
598.4030, 41462.00
599.5710, 41638.00
600.7390, 41898.00
601.9060, 41614.00
603.0740, 41610.00
604.2410, 42312.00
605.4080, 42261.00
606.5740, 42335.00
607.7410, 42312.00
608.9080, 42475.00
610.0740, 42721.00
611.2400, 42420.00
612.4060, 42391.00
613.5720, 42261.00
614.7370, 42393.00
615.9030, 42147.00
617.0680, 42303.00
618.2330, 42183.00
619.3980, 42330.00
620.5630, 42274.00
621.7280, 41990.00
622.8920, 42054.00
624.0570, 42355.00
625.2210, 42509.00
626.3850, 42330.00
627.5490, 42534.00
628.7120, 42199.00
629.8760, 42437.00
631.0390, 42172.00
632.2020, 42416.00
633.3650, 42423.00
634.5280, 42315.00
635.6910, 42650.00
636.8530, 42681.00
638.0160, 42439.00
639.1780, 42223.00
640.3400, 42506.00
641.5020, 42715.00
642.6640, 42636.00
643.8250, 42625.00
644.9870, 42658.00
646.1480, 42687.00
647.3090, 42812.00
648.4700, 42887.81
649.6300, 43177.00
650.7910, 43099.00
651.9510, 43117.00
653.1120, 43170.00
654.2720, 43084.00
655.4320, 43092.90
656.5910, 42946.00
657.7510, 43047.00
658.9100, 43037.00
660.0690, 43074.00
661.2290, 43171.00
662.3880, 43014.00
663.5460, 42973.00
664.7050, 43086.08
665.8630, 43092.54
667.0220, 43315.00
668.1800, 43330.00
669.3380, 43475.00
670.4950, 43642.00
671.6530, 43746.00
672.8100, 43595.00
673.9680, 43754.00
675.1250, 43568.00
676.2820, 43786.00
677.4390, 44011.00
678.5950, 44124.00
679.7520, 44257.69
680.9080, 44287.12
682.0640, 44388.00
683.2200, 44334.00
684.3760, 44311.00
685.5320, 44480.00
686.6870, 44165.00
687.8420, 44529.00
688.9980, 44414.00
690.1530, 44760.00
691.3070, 45126.00
692.4620, 44648.00
693.6170, 44935.00
694.7710, 44935.00
695.9250, 45095.00
697.0790, 45292.00
698.2330, 44956.00
699.3870, 45201.00
700.5400, 45244.00
701.6940, 45296.00
702.8470, 45292.00
704.0000, 45308.31
705.1530, 45432.00
706.3050, 45424.00
707.4580, 45562.00
708.6100, 45905.00
709.7630, 45878.00
710.9150, 45869.00
712.0660, 45758.00
713.2180, 46021.00
714.3700, 46271.00
715.5210, 46083.00
716.6720, 45823.00
717.8240, 45644.00
718.9740, 45784.00
720.1250, 45762.00
721.2760, 45441.00
722.4260, 45713.00
723.5770, 45681.00
724.7270, 45523.00
725.8770, 45909.00
727.0260, 45844.00
728.1760, 46073.00
729.3250, 46029.00
730.4750, 45943.00
731.6240, 45963.00
732.7730, 46315.00
733.9220, 45953.00
735.0700, 46393.00
736.2190, 46186.00
737.3670, 46363.00
738.5150, 46240.00
739.6630, 46452.00
740.8110, 46917.00
741.9590, 46713.00
743.1060, 46480.00
744.2540, 47087.00
745.4010, 47144.00
746.5480, 47156.00
747.6950, 46962.00
748.8410, 47248.00
749.9880, 47228.00
751.1340, 47287.00
752.2800, 47319.00
753.4260, 47203.00
754.5720, 47219.00
755.7180, 47083.00
756.8640, 47294.00
758.0090, 47220.00
759.1540, 47081.00
760.2990, 47329.00
761.4440, 47238.00
762.5890, 47175.00
763.7340, 47427.00
764.8780, 47243.00
766.0220, 47471.00
767.1660, 47419.00
768.3100, 47552.00
769.4540, 47430.00
770.5980, 47498.00
771.7410, 47575.00
772.8840, 47398.00
774.0280, 47698.00
775.1700, 47350.00
776.3130, 47618.00
777.4560, 47795.00
778.5980, 47617.00
779.7410, 47605.00
780.8830, 47868.00
782.0250, 47906.00
783.1670, 47780.00
784.3080, 47981.00
785.4500, 47626.00
786.5910, 48022.00
787.7320, 48208.00
788.8730, 48029.00
790.0140, 47898.00
791.1550, 48145.00
792.2950, 48136.00
793.4360, 48446.00
794.5760, 48259.00
795.7160, 48509.00
796.8560, 48734.00
797.9960, 48417.00
799.1350, 48312.00
800.2750, 48727.00
801.4140, 48594.00
802.5530, 48628.00
803.6920, 48699.00
804.8310, 48813.00
805.9690, 48868.00
807.1080, 48952.34
808.2460, 48960.00
809.3840, 49113.00
810.5220, 49088.00
811.6600, 49191.00
812.7970, 48952.00
813.9350, 49454.00
815.0720, 49636.00
816.2090, 49559.00
817.3460, 49499.00
818.4830, 49451.00
819.6200, 49419.00
820.7560, 49631.00
821.8930, 49870.00
823.0290, 49737.00
824.1650, 49874.00
825.3010, 49839.00
826.4360, 49779.00
827.5720, 50075.00
828.7070, 50058.00
829.8420, 49962.00
830.9770, 50097.00
832.1120, 50219.00
833.2470, 49951.00
834.3820, 50358.00
835.5160, 50097.00
836.6500, 50426.00
837.7840, 50505.00
838.9180, 50463.00
840.0520, 50635.00
841.1860, 50656.00
842.3190, 50731.43
843.4520, 50973.00
844.5850, 50922.00
845.7180, 50771.00
846.8510, 50918.00
847.9840, 50698.00
849.1160, 50934.00
850.2490, 51069.00
851.3810, 51188.00
852.5130, 51278.62
853.6450, 50971.00
854.7760, 51309.00
855.9080, 51311.00
857.0390, 51193.00
858.1700, 51593.00
859.3010, 51827.00
860.4320, 51724.00
861.5630, 51917.00
862.6930, 51767.00
863.8240, 51848.00
864.9540, 51864.00
866.0840, 51825.00
867.2140, 51968.00
868.3440, 52153.00
869.4730, 52170.00
870.6030, 52207.00
871.7320, 52074.00
872.8610, 51986.00
873.9900, 52253.00
875.1190, 52280.00
876.2470, 52455.00
877.3760, 52505.00
878.5040, 52684.00
879.6320, 52562.00
880.7600, 52615.00
881.8880, 53157.00
883.0150, 53006.00
884.1430, 53152.00
885.2700, 52561.00
886.3970, 53105.00
887.5240, 52941.00
888.6510, 52896.00
889.7780, 53395.00
890.9040, 53131.00
892.0310, 53324.00
893.1570, 53535.00
894.2830, 53561.00
895.4090, 53562.00
896.5350, 53886.00
897.6600, 54146.00
898.7860, 54104.00
899.9110, 54168.00
901.0360, 54189.00
902.1610, 54614.00
903.2860, 54505.00
904.4100, 54962.00
905.5350, 55052.00
906.6590, 55134.00
907.7830, 55169.00
908.9070, 55240.00
910.0310, 55506.00
911.1540, 55597.00
912.2780, 55602.00
913.4010, 55565.00
914.5240, 55743.74
915.6470, 56288.00
916.7700, 56159.00
917.8930, 56086.00
919.0150, 56493.00
920.1380, 56420.00
921.2600, 56888.00
922.3820, 57180.00
923.5040, 57101.00
924.6260, 56990.00
925.7470, 56919.00
926.8690, 56955.79
927.9900, 56770.00
929.1110, 57062.00
930.2320, 57216.00
931.3530, 57249.00
932.4730, 56854.00
933.5940, 57018.00
934.7140, 56889.00
935.8340, 56782.00
936.9540, 56753.00
938.0740, 56716.00
939.1930, 56745.00
940.3130, 56586.00
941.4320, 56744.00
942.5510, 56770.00
943.6700, 56940.00
944.7890, 56861.00
945.9080, 56990.67
947.0260, 57303.00
948.1450, 57203.00
949.2630, 57434.00
950.3810, 57663.00
951.4990, 58016.00
952.6170, 58267.00
953.7340, 58644.00
954.8520, 58888.00
955.9690, 58865.00
957.0860, 59345.00
958.2030, 59458.00
959.3200, 59987.00
960.4360, 60330.00
961.5530, 60704.00
962.6690, 61137.00
963.7850, 61478.00
964.9010, 62035.00
966.0170, 62607.00
967.1330, 63128.00
968.2480, 63513.00
969.3630, 63998.00
970.4790, 64463.37
971.5940, 64811.00
972.7080, 65420.00
973.8230, 66163.00
974.9380, 66712.00
976.0520, 67506.00
977.1660, 68808.00
978.2800, 70049.00
979.3940, 70479.00
980.5080, 71513.00
981.6220, 72418.00
982.7350, 73298.00
983.8480, 74108.00
984.9610, 74906.91
986.0740, 75581.90
987.1870, 76274.52
988.3000, 76799.99
989.4120, 77161.94
990.5250, 77159.51
991.6370, 77407.93
992.7490, 77421.45
993.8610, 77333.41
994.9720, 76629.00
996.0840, 76468.00
997.1950, 75571.00
998.3060, 75169.00
999.4170, 74071.00
1000.528, 72648.00
1001.639, 71705.00
1002.750, 70682.00
1003.860, 69849.00
1004.970, 68202.00
1006.080, 67465.00
1007.190, 66804.00
1008.300, 65725.00
1009.410, 65296.00
1010.519, 64794.00
1011.628, 64251.00
1012.738, 64017.00
1013.846, 63470.00
1014.955, 62787.00
1016.064, 62933.00
1017.172, 62606.00
1018.281, 62523.00
1019.389, 61994.00
1020.497, 62185.00
1021.605, 62006.00
1022.713, 62108.00
1023.820, 61906.00
1024.928, 61647.00
1026.035, 61522.00
1027.142, 61238.00
1028.249, 61519.00
1029.356, 61435.00
1030.462, 61451.00
1031.569, 61800.00
1032.675, 61802.00
1033.781, 61565.00
1034.887, 60929.00
1035.993, 61137.00
1037.098, 60802.00
1038.204, 60617.00
1039.309, 60687.00
1040.415, 60251.00
1041.520, 60651.00
1042.624, 60594.00
1043.729, 60102.00
1044.834, 60062.00
1045.938, 59526.00
1047.042, 60130.00
1048.146, 59622.00
1049.250, 60131.00
1050.354, 60597.00
1051.458, 59880.00
1052.561, 60420.00
1053.664, 60229.00
1054.767, 60087.00
1055.870, 60351.00
1056.973, 60328.00
1058.076, 60272.00
1059.178, 60151.00
1060.281, 60633.00
1061.383, 60883.00
1062.485, 60744.00
1063.587, 61034.00
1064.688, 60767.00
1065.790, 60971.00
1066.891, 60964.00
1067.993, 61204.00
1069.094, 61139.16
1070.195, 61451.00
1071.295, 61340.00
1072.396, 61156.00
1073.496, 61894.00
1074.597, 61804.00
1075.697, 62044.00
1076.797, 61941.00
1077.897, 62288.00
1078.996, 62316.00
1080.096, 62930.00
1081.195, 62861.00
1082.294, 62703.00
1083.393, 62836.00
1084.492, 62715.00
1085.591, 62853.00
1086.689, 62770.00
1087.788, 62527.00
1088.886, 62504.00
1089.984, 62556.00
1091.082, 62533.00
1092.180, 62729.00
1093.277, 62459.00
1094.375, 62439.00
1095.472, 62194.00
1096.569, 62315.00
1097.666, 62136.00
1098.763, 61796.00
1099.860, 61807.00
1100.956, 61984.00
1102.053, 61825.00
1103.149, 61560.00
1104.245, 61510.00
1105.341, 61379.00
1106.436, 61750.00
1107.532, 61415.00
1108.627, 61354.00
1109.723, 61265.00
1110.818, 61023.00
1111.913, 61210.00
1113.007, 60882.00
1114.102, 60927.00
1115.197, 60877.00
1116.291, 61065.00
1117.385, 60796.00
1118.479, 60532.00
1119.573, 60890.00
1120.666, 61045.00
1121.760, 60720.00
1122.853, 60684.00
1123.947, 60712.00
1125.040, 60485.00
1126.132, 60782.00
1127.225, 60705.00
1128.318, 61243.00
1129.410, 60521.00
1130.502, 60878.00
1131.595, 60595.00
1132.687, 60349.00
1133.778, 60411.00
1134.870, 60633.00
1135.961, 60631.00
1137.053, 60655.00
1138.144, 60655.00
1139.235, 60422.00
1140.326, 60576.00
1141.416, 60570.00
1142.507, 60359.00
1143.597, 60503.00
1144.688, 60644.00
1145.778, 60527.00
1146.868, 60930.00
1147.957, 60610.00
1149.047, 60699.00
1150.136, 60458.00
1151.226, 60747.00
1152.315, 60630.00
1153.404, 60672.00
1154.493, 60843.00
1155.581, 60816.00
1156.670, 61106.00
1157.758, 60979.00
1158.846, 60542.00
1159.934, 60873.00
1161.022, 60729.00
1162.110, 61134.00
1163.198, 60812.00
1164.285, 61011.00
1165.372, 60955.00
1166.459, 60867.00
1167.546, 60796.00
1168.633, 60780.00
1169.720, 60868.00
1170.806, 60916.66
1171.892, 61005.40
1172.979, 61124.00
1174.065, 61146.00
1175.150, 61199.00
1176.236, 61099.00
1177.322, 61444.00
1178.407, 61210.00
1179.492, 61360.00
1180.577, 61599.00
1181.662, 61425.00
1182.747, 61604.00
1183.832, 61694.00
1184.916, 61434.00
1186.000, 61547.00
1187.084, 61509.00
1188.168, 61458.32
1189.252, 61592.00
1190.336, 61522.00
1191.419, 61642.00
1192.503, 61833.00
1193.586, 61589.00
1194.669, 61444.00
1195.752, 61944.00
1196.835, 61959.00
1197.917, 61741.00
1199.000, 61707.00
1200.082, 61665.70
1201.164, 61766.00
1202.246, 61652.00
1203.328, 61969.00
1204.409, 62084.00
1205.491, 61812.00
1206.572, 62013.00
1207.653, 61899.00
1208.734, 61931.00
1209.815, 62011.00
1210.896, 61854.00
1211.976, 62063.00
1213.057, 62177.00
1214.137, 62285.00
1215.217, 62270.00
1216.297, 62292.00
1217.377, 62519.00
1218.456, 62312.00
1219.536, 62330.00
1220.615, 62332.00
1221.694, 62489.00
1222.773, 62335.00
1223.852, 62388.00
1224.931, 62422.00
1226.009, 62485.21
1227.088, 62669.00
1228.166, 62673.00
1229.244, 62714.00
1230.322, 62661.00
1231.400, 62660.00
1232.477, 62683.68
1233.555, 62672.63
1234.632, 62744.00
1235.709, 62742.00
1236.786, 62808.00
1237.863, 62935.00
1238.939, 63026.00
1240.016, 63031.00
1241.092, 62803.00
1242.168, 62719.00
1243.245, 62745.00
1244.320, 62980.00
1245.396, 63059.00
1246.472, 63132.00
1247.547, 62905.00
1248.622, 63188.00
1249.697, 63097.00
1250.772, 62948.00
1251.847, 63533.00
1252.922, 63140.00
1253.996, 63097.00
1255.071, 63003.00
1256.145, 63345.00
1257.219, 63232.00
1258.293, 62997.00
1259.366, 63454.00
1260.440, 63237.00
1261.513, 63180.00
1262.587, 62880.00
1263.660, 63093.00
1264.733, 63554.00
1265.805, 63339.00
1266.878, 63563.00
1267.951, 63293.00
1269.023, 63514.00
1270.095, 63507.85
1271.167, 63432.00
1272.239, 63552.00
1273.311, 63633.00
1274.382, 63563.00
1275.454, 63780.00
1276.525, 63606.00
1277.596, 63720.00
1278.667, 63354.00
1279.738, 63749.00
1280.808, 64073.00
1281.879, 63742.00
1282.949, 63973.00
1284.019, 63732.00
1285.089, 63725.00
1286.159, 63835.00
1287.229, 63366.00
1288.298, 63904.00
1289.368, 63914.00
1290.437, 63694.00
1291.506, 64071.00
1292.575, 63979.00
1293.644, 64120.00
1294.712, 63775.00
1295.781, 63890.00
1296.849, 64078.00
