##NAMES=Olivenite
##RRUFFID=R040181
##IDEAL CHEMISTRY=Cu^2+^_2_As^5+^O_4_(OH)
##LOCALITY=Majuba Hill, Pershing County, Nevada, USA
##OWNER=RRUFF
##SOURCE=University of Arizona Mineral Museum
##DESCRIPTION=Greenish blue prismatic, untwinned. Structure for this sample reported in Li et al (2008).
##STATUS=The identification of this mineral has been confirmed by X-ray diffraction and chemical analysis
##URL=rruff.info/R040181
##MEASURED CHEMISTRY=(Cu_0.98_[box]_0.02_)_2_(As_0.90_P_0.10_O_4_)(OH)_0.92_
##PIN_ID=S00027
##ORIENTATION=Laser parallel to -c* (0 0 -1). Fiducial mark perpendicular to laser is parallel to a [1 0 0]
69.80600, 577.0000
71.04900, 556.0000
72.29100, 608.0000
73.53400, 624.0000
74.77600, 635.0000
76.01800, 706.0000
77.26000, 927.0000
78.50200, 1109.000
79.74300, 1344.000
80.98500, 1571.000
82.22600, 1956.000
83.46700, 2393.000
84.70800, 2953.000
85.94900, 3481.000
87.18900, 4131.000
88.42900, 4682.000
89.67000, 5319.000
90.91000, 5744.000
92.14900, 6011.000
93.38900, 6370.000
94.62900, 6438.000
95.86800, 6503.000
97.10700, 6589.000
98.34600, 7074.000
99.58500, 7433.000
100.8230, 7976.000
102.0620, 8854.000
103.3000, 9508.000
104.5380, 10440.00
105.7760, 11052.00
107.0140, 11828.00
108.2510, 12104.00
109.4890, 12462.00
110.7260, 12195.00
111.9630, 12243.00
113.2000, 11741.00
114.4360, 11358.00
115.6730, 11128.00
116.9090, 10667.00
118.1450, 10327.00
119.3810, 9764.000
120.6170, 9333.000
121.8530, 9193.000
123.0880, 8865.000
124.3230, 8657.000
125.5590, 8494.000
126.7930, 8632.000
128.0280, 8716.000
129.2630, 8954.000
130.4970, 9198.000
131.7310, 9318.000
132.9650, 9219.000
134.1990, 9368.000
135.4330, 9051.000
136.6670, 8689.000
137.9000, 8523.000
139.1330, 8066.000
140.3660, 7881.000
141.5990, 7930.000
142.8320, 7869.000
144.0640, 8111.000
145.2960, 8688.000
146.5290, 9496.000
147.7610, 10376.00
148.9920, 11646.32
150.2240, 13061.00
151.4550, 14710.00
152.6870, 16458.00
153.9180, 18442.00
155.1490, 19939.00
156.3800, 21257.00
157.6100, 21975.00
158.8400, 22180.62
160.0710, 21922.00
161.3010, 21237.00
162.5310, 19914.00
163.7600, 18257.00
164.9900, 16219.00
166.2190, 14967.00
167.4480, 13540.00
168.6770, 12901.00
169.9060, 12552.00
171.1350, 12452.00
172.3630, 12590.00
173.5920, 12963.00
174.8200, 13470.00
176.0480, 14108.00
177.2760, 14330.00
178.5030, 14830.00
179.7310, 15192.00
180.9580, 15811.00
182.1850, 15901.00
183.4120, 16023.00
184.6390, 15993.00
185.8650, 15719.00
187.0920, 15056.00
188.3180, 14534.00
189.5440, 13641.00
190.7700, 12938.00
191.9960, 12136.00
193.2210, 11430.00
194.4470, 10890.00
195.6720, 10613.00
196.8970, 10469.00
198.1220, 10693.00
199.3460, 11103.00
200.5710, 11511.00
201.7950, 12499.00
203.0190, 13420.00
204.2430, 14573.00
205.4670, 15918.00
206.6910, 17837.00
207.9140, 19616.00
209.1370, 21959.00
210.3610, 24454.00
211.5840, 27600.00
212.8060, 30399.00
214.0290, 33537.00
215.2510, 36429.00
216.4740, 38933.00
217.6960, 41251.00
218.9180, 42866.00
220.1390, 43475.00
221.3610, 42810.00
222.5820, 41844.00
223.8030, 39584.00
225.0240, 36696.00
226.2450, 33274.00
227.4660, 29853.00
228.6870, 26623.00
229.9070, 23567.00
231.1270, 21032.00
232.3470, 18923.00
233.5670, 17035.00
234.7870, 15607.00
236.0060, 14347.00
237.2250, 13267.00
238.4440, 12391.00
239.6630, 11652.00
240.8820, 10930.00
242.1010, 10333.00
243.3190, 9794.000
244.5380, 9511.000
245.7560, 9178.000
246.9740, 8923.000
248.1910, 8625.000
249.4090, 8418.000
250.6260, 8290.000
251.8440, 8213.021
253.0610, 8215.812
254.2780, 8266.000
255.4940, 8419.000
256.7110, 8576.000
257.9270, 8844.000
259.1430, 9145.000
260.3600, 9286.000
261.5750, 9790.000
262.7910, 10298.00
264.0070, 11020.00
265.2220, 11879.00
266.4370, 12882.00
267.6520, 14378.00
268.8670, 15917.00
270.0820, 18077.00
271.2960, 21039.00
272.5100, 24741.00
273.7250, 28971.00
274.9390, 34306.00
276.1520, 40406.00
277.3660, 46743.00
278.5790, 53383.00
279.7930, 60461.00
281.0060, 66452.00
282.2190, 71768.00
283.4320, 74588.00
284.6440, 76142.00
285.8570, 74639.00
287.0690, 71524.00
288.2810, 65722.00
289.4930, 59582.00
290.7050, 52811.00
291.9160, 45980.00
293.1270, 40674.00
294.3390, 36164.00
295.5500, 32861.00
296.7610, 30206.00
297.9710, 28555.00
299.1820, 27418.00
300.3920, 27171.00
301.6020, 27584.00
302.8120, 28008.00
304.0220, 28979.00
305.2320, 30036.00
306.4410, 31412.00
307.6510, 32318.00
308.8600, 33340.00
310.0690, 34029.00
311.2780, 33738.00
312.4860, 33621.00
313.6950, 32750.00
314.9030, 31103.00
316.1110, 29563.00
317.3190, 27692.00
318.5270, 25847.00
319.7350, 23860.00
320.9420, 22261.00
322.1490, 20615.00
323.3570, 19709.00
324.5630, 18457.00
325.7700, 17631.00
326.9770, 17040.00
328.1830, 16306.00
329.3900, 16008.00
330.5960, 15572.00
331.8020, 15329.00
333.0070, 15025.00
334.2130, 14712.00
335.4180, 14426.00
336.6230, 14216.00
337.8290, 13996.92
339.0330, 13801.42
340.2380, 13656.00
341.4430, 13524.00
342.6470, 13370.00
343.8510, 13374.00
345.0550, 13275.00
346.2590, 13173.00
347.4630, 13141.89
348.6660, 12937.00
349.8700, 12593.04
351.0730, 12089.00
352.2760, 11760.00
353.4790, 11105.00
354.6810, 10702.00
355.8840, 10081.00
357.0860, 9780.000
358.2880, 9331.000
359.4900, 8993.000
360.6920, 8704.000
361.8940, 8558.000
363.0950, 8322.000
364.2960, 8176.000
365.4980, 8081.000
366.6990, 7966.000
367.8990, 7781.000
369.1000, 7645.000
370.3000, 7412.000
371.5010, 7467.000
372.7010, 7154.000
373.9010, 7045.000
375.1010, 6800.000
376.3000, 6729.000
377.5000, 6724.000
378.6990, 6602.000
379.8980, 6581.719
381.0970, 6512.000
382.2960, 6463.000
383.4940, 6375.000
384.6920, 6244.000
385.8910, 6147.000
387.0890, 5944.000
388.2870, 5762.000
389.4840, 5440.000
390.6820, 5216.000
391.8790, 5055.000
393.0770, 4914.000
394.2740, 4791.400
395.4700, 4631.000
396.6670, 4589.000
397.8640, 4559.000
399.0600, 4412.000
400.2560, 4318.000
401.4520, 4358.000
402.6480, 4263.000
403.8440, 4201.000
405.0390, 4218.000
406.2350, 4218.000
407.4300, 4132.000
408.6250, 4227.000
409.8200, 4201.000
411.0140, 4175.000
412.2090, 4214.000
413.4030, 4133.000
414.5970, 4177.000
415.7910, 4188.000
416.9850, 4149.000
418.1790, 4228.000
419.3720, 4268.000
420.5660, 4125.000
421.7590, 4183.000
422.9520, 4133.000
424.1440, 4208.000
425.3370, 4115.000
426.5300, 4053.000
427.7220, 4065.000
428.9140, 4072.000
430.1060, 4057.000
431.2980, 4014.000
432.4890, 4104.000
433.6810, 4208.000
434.8720, 4175.000
436.0630, 4130.000
437.2540, 4253.000
438.4450, 4204.000
439.6350, 4302.000
440.8260, 4293.000
442.0160, 4381.000
443.2060, 4437.000
444.3960, 4455.000
445.5860, 4469.000
446.7750, 4509.000
447.9650, 4506.000
449.1540, 4773.000
450.3430, 4709.000
451.5320, 4856.000
452.7210, 4855.000
453.9090, 4879.000
455.0980, 4876.000
456.2860, 4971.000
457.4740, 5052.000
458.6620, 5162.000
459.8500, 5164.000
461.0370, 5285.000
462.2250, 5331.000
463.4120, 5528.000
464.5990, 5561.000
465.7860, 5844.000
466.9720, 5845.000
468.1590, 5884.000
469.3450, 6145.000
470.5320, 6395.000
471.7180, 6605.000
472.9030, 6743.000
474.0890, 7084.000
475.2750, 7410.000
476.4600, 7637.000
477.6450, 8090.169
478.8300, 8495.370
480.0150, 9019.000
481.2000, 9554.000
482.3840, 10185.00
483.5690, 10945.00
484.7530, 11879.00
485.9370, 12599.00
487.1210, 13731.00
488.3040, 14884.00
489.4880, 16278.00
490.6710, 17617.00
491.8540, 19022.00
493.0370, 20576.00
494.2200, 22038.00
495.4030, 23463.00
496.5850, 24529.00
497.7680, 25440.00
498.9500, 26310.00
500.1320, 26217.00
501.3140, 26083.00
502.4950, 25453.00
503.6770, 24143.00
504.8580, 22898.00
506.0390, 21556.00
507.2200, 20022.00
508.4010, 18566.00
509.5820, 17078.00
510.7620, 15985.00
511.9420, 15140.00
513.1230, 14055.00
514.3030, 13442.00
515.4820, 12665.00
516.6620, 12203.00
517.8420, 11793.00
519.0210, 11391.00
520.2000, 11191.00
521.3790, 10854.00
522.5580, 10629.00
523.7360, 10395.00
524.9150, 10123.44
526.0930, 9972.000
527.2710, 9650.000
528.4490, 9417.000
529.6270, 9210.000
530.8050, 8908.206
531.9820, 8711.000
533.1590, 8346.000
534.3360, 8116.000
535.5130, 7796.000
536.6900, 7550.000
537.8670, 7335.000
539.0430, 7230.000
540.2200, 7066.000
541.3960, 6859.000
542.5720, 6714.000
543.7470, 6738.000
544.9230, 6685.000
546.0980, 6652.000
547.2740, 6538.000
548.4490, 6527.000
549.6240, 6512.000
550.7990, 6433.000
551.9730, 6523.000
553.1480, 6582.000
554.3220, 6638.000
555.4960, 6647.660
556.6700, 6650.277
557.8440, 6604.000
559.0170, 6548.000
560.1910, 6463.000
561.3640, 6352.369
562.5370, 6255.000
563.7100, 6039.000
564.8830, 5842.000
566.0550, 5572.000
567.2280, 5375.000
568.4000, 5245.000
569.5720, 5142.000
570.7440, 4912.000
571.9160, 4748.000
573.0870, 4673.000
574.2590, 4483.000
575.4300, 4397.000
576.6010, 4418.000
577.7720, 4209.000
578.9430, 4137.000
580.1140, 4099.000
581.2840, 3972.000
582.4540, 3938.000
583.6240, 3888.000
584.7940, 3807.000
585.9640, 3798.000
587.1340, 3757.000
588.3030, 3784.000
589.4720, 3765.000
590.6410, 3747.000
591.8100, 3687.000
592.9790, 3688.000
594.1480, 3692.000
595.3160, 3630.000
596.4840, 3662.000
597.6520, 3633.000
598.8200, 3557.000
599.9880, 3689.000
601.1560, 3662.000
602.3230, 3692.000
603.4900, 3607.000
604.6570, 3594.000
605.8240, 3574.000
606.9910, 3611.000
608.1580, 3600.000
609.3240, 3618.000
610.4900, 3611.202
611.6570, 3600.328
612.8230, 3579.000
613.9880, 3599.000
615.1540, 3566.000
616.3190, 3621.000
617.4850, 3622.000
618.6500, 3654.000
619.8150, 3656.000
620.9790, 3614.000
622.1440, 3635.000
623.3080, 3662.000
624.4730, 3641.000
625.6370, 3669.000
626.8010, 3599.000
627.9640, 3684.000
629.1280, 3654.000
630.2910, 3624.000
631.4550, 3689.000
632.6180, 3672.000
633.7810, 3638.000
634.9440, 3737.000
636.1060, 3731.000
637.2690, 3730.000
638.4310, 3671.000
639.5930, 3663.000
640.7550, 3603.000
641.9170, 3643.000
643.0780, 3742.000
644.2400, 3649.000
645.4010, 3763.000
646.5620, 3753.000
647.7230, 3681.000
648.8840, 3710.000
650.0450, 3706.784
651.2050, 3778.000
652.3650, 3767.000
653.5250, 3825.000
654.6850, 3892.000
655.8450, 3824.000
657.0050, 3902.000
658.1640, 3974.000
659.3230, 4003.000
660.4830, 3921.000
661.6420, 4042.000
662.8000, 3913.000
663.9590, 3955.000
665.1170, 3933.000
666.2760, 4025.000
667.4340, 3954.000
668.5920, 4022.000
669.7500, 4038.000
670.9070, 4095.000
672.0650, 4058.000
673.2220, 4094.000
674.3790, 4052.000
675.5360, 4121.000
676.6930, 4046.000
677.8500, 4051.000
679.0060, 4053.000
680.1620, 4094.000
681.3190, 4116.000
682.4750, 4061.000
683.6300, 4080.870
684.7860, 4062.000
685.9420, 4059.000
687.0970, 4086.000
688.2520, 4097.000
689.4070, 4083.000
690.5620, 4077.000
691.7170, 4105.000
692.8710, 4092.876
694.0250, 4126.000
695.1800, 4110.000
696.3340, 4146.000
697.4870, 4184.000
698.6410, 4256.000
699.7950, 4184.000
700.9480, 4261.000
702.1010, 4281.000
703.2540, 4198.000
704.4070, 4279.000
705.5600, 4298.000
706.7120, 4310.000
707.8640, 4381.400
709.0170, 4408.172
710.1690, 4479.000
711.3210, 4484.000
712.4720, 4503.000
713.6240, 4494.000
714.7750, 4540.000
715.9260, 4586.571
717.0770, 4647.000
718.2280, 4708.000
719.3790, 4694.395
720.5290, 4731.761
721.6800, 4738.000
722.8300, 4694.000
723.9800, 4761.000
725.1300, 4765.654
726.2800, 4853.000
727.4290, 4846.000
728.5790, 4849.000
729.7280, 4908.000
730.8770, 4868.000
732.0260, 4912.164
733.1750, 4957.000
734.3230, 4957.000
735.4720, 4907.000
736.6200, 4915.000
737.7680, 4964.000
738.9160, 5093.000
740.0640, 5089.000
741.2110, 5051.000
742.3590, 4998.000
743.5060, 5100.000
744.6530, 5191.000
745.8000, 5160.000
746.9470, 5192.000
748.0930, 5137.000
749.2400, 5280.000
750.3860, 5276.000
751.5320, 5249.000
752.6780, 5449.000
753.8240, 5398.000
754.9690, 5479.000
756.1150, 5410.000
757.2600, 5519.000
758.4050, 5602.000
759.5500, 5587.000
760.6950, 5576.000
761.8400, 5519.000
762.9840, 5689.000
764.1280, 5763.000
765.2730, 5795.000
766.4170, 5887.000
767.5600, 6024.000
768.7040, 6012.000
769.8470, 6033.000
770.9910, 6153.000
772.1340, 6152.000
773.2770, 6350.000
774.4200, 6452.000
775.5620, 6570.000
776.7050, 6692.713
777.8470, 6627.000
778.9890, 6899.000
780.1310, 6989.000
781.2730, 7108.000
782.4150, 7397.000
783.5570, 7555.000
784.6980, 7651.000
785.8390, 7954.000
786.9800, 8203.000
788.1210, 8504.000
789.2620, 8824.093
790.4020, 9194.000
791.5430, 9509.000
792.6830, 9776.000
793.8230, 10165.00
794.9630, 10401.00
796.1020, 10669.00
797.2420, 11061.00
798.3810, 11265.00
799.5210, 11505.00
800.6600, 11667.00
801.7990, 11872.00
802.9370, 12039.00
804.0760, 12217.00
805.2140, 12513.00
806.3530, 12700.00
807.4910, 12697.00
808.6290, 12771.00
809.7660, 13150.00
810.9040, 13479.00
812.0420, 13659.00
813.1790, 13817.00
814.3160, 14200.00
815.4530, 14560.00
816.5900, 14716.00
817.7260, 15378.00
818.8630, 15817.00
819.9990, 16372.00
821.1350, 17199.00
822.2710, 17868.00
823.4070, 19016.00
824.5430, 20256.00
825.6780, 21523.00
826.8130, 23456.00
827.9490, 25437.00
829.0840, 27916.00
830.2180, 30947.00
831.3530, 34056.00
832.4880, 38055.00
833.6220, 42680.00
834.7560, 47833.00
835.8900, 54046.00
837.0240, 60119.00
838.1580, 67549.00
839.2910, 75254.00
840.4250, 83228.00
841.5580, 91453.00
842.6910, 100521.0
843.8240, 110581.0
844.9560, 122328.0
846.0890, 136324.0
847.2210, 153268.0
848.3540, 172852.0
849.4860, 194831.0
850.6180, 218991.0
851.7490, 241352.0
852.8810, 261426.0
854.0120, 275278.0
855.1440, 280368.0
856.2750, 275717.0
857.4060, 259326.0
858.5360, 234133.0
859.6670, 202906.0
860.7980, 169814.0
861.9280, 140809.0
863.0580, 115009.0
864.1880, 94647.00
865.3180, 78230.00
866.4470, 65759.00
867.5770, 56077.00
868.7060, 48431.00
869.8350, 42261.00
870.9640, 37341.00
872.0930, 33639.00
873.2220, 30155.00
874.3500, 27498.00
875.4790, 25241.00
876.6070, 23311.00
877.7350, 21634.00
878.8630, 20022.00
879.9900, 18765.38
881.1180, 17559.17
882.2450, 16690.00
883.3730, 15656.00
884.5000, 14869.00
885.6260, 14150.00
886.7530, 13648.00
887.8800, 12858.00
889.0060, 12413.00
890.1320, 11877.00
891.2580, 11378.00
892.3840, 10972.00
893.5100, 10556.00
894.6360, 10173.00
895.7610, 9845.000
896.8860, 9475.000
898.0120, 9218.000
899.1360, 8944.000
900.2610, 8652.894
901.3860, 8379.000
902.5100, 8129.000
903.6350, 7912.000
904.7590, 7663.000
905.8830, 7549.000
907.0070, 7400.000
908.1300, 7212.000
909.2540, 7009.000
910.3770, 6788.000
911.5000, 6875.000
912.6230, 6693.000
913.7460, 6720.000
914.8690, 6596.000
915.9910, 6566.000
917.1140, 6570.000
918.2360, 6445.000
919.3580, 6555.000
920.4800, 6492.000
921.6020, 6396.000
922.7230, 6437.000
923.8440, 6447.000
924.9660, 6418.000
926.0870, 6478.000
927.2080, 6362.000
928.3280, 6256.000
929.4490, 6315.000
930.5700, 6262.000
931.6900, 6381.000
932.8100, 6181.000
933.9300, 6154.000
935.0500, 6023.000
936.1690, 6049.000
937.2890, 6032.000
938.4080, 6107.000
939.5270, 6052.000
940.6460, 6090.000
941.7650, 6029.000
942.8840, 6133.000
944.0020, 6290.000
945.1200, 6410.000
946.2390, 6411.000
947.3570, 6430.000
948.4750, 6489.000
949.5920, 6617.689
950.7100, 6759.839
951.8270, 6978.000
952.9440, 7165.000
954.0610, 7419.000
955.1780, 7673.000
956.2950, 7798.000
957.4120, 7773.000
958.5280, 7790.000
959.6440, 7705.000
960.7600, 7565.000
961.8760, 7177.000
962.9920, 6928.000
964.1080, 6594.000
965.2230, 6326.000
966.3380, 5968.000
967.4540, 5601.000
968.5690, 5368.000
969.6830, 5166.000
970.7980, 5034.000
971.9120, 4903.000
973.0270, 4766.000
974.1410, 4658.000
975.2550, 4697.000
976.3690, 4569.000
977.4820, 4468.000
978.5960, 4483.000
979.7090, 4345.000
980.8230, 4257.000
981.9360, 4281.000
983.0490, 4170.000
984.1610, 4125.000
985.2740, 4146.000
986.3860, 4136.000
987.4980, 4194.000
988.6110, 4037.000
989.7220, 4049.000
990.8340, 4088.000
991.9460, 4079.000
993.0570, 4136.000
994.1690, 4157.933
995.2800, 4132.000
996.3910, 4216.000
997.5010, 4184.000
998.6120, 4185.000
999.7230, 4186.000
1000.833, 4155.000
1001.943, 4200.000
1003.053, 4252.000
1004.163, 4317.000
1005.273, 4276.000
1006.382, 4320.000
1007.492, 4278.000
1008.601, 4380.000
1009.710, 4181.000
1010.819, 4283.000
1011.927, 4194.000
1013.036, 4276.000
1014.144, 4266.000
1015.253, 4268.000
1016.361, 4224.000
1017.469, 4324.000
1018.576, 4116.000
1019.684, 4238.000
1020.791, 4265.000
1021.899, 4152.000
1023.006, 4175.000
1024.113, 4225.000
1025.220, 4174.000
1026.326, 4166.000
1027.433, 4264.000
1028.539, 4090.000
1029.645, 4212.000
1030.751, 4096.000
1031.857, 4075.000
1032.963, 4077.000
1034.068, 4040.000
1035.174, 4132.000
1036.279, 4037.000
1037.384, 4093.000
1038.489, 4001.000
1039.594, 3936.000
1040.698, 3943.000
1041.803, 3976.000
1042.907, 3903.000
1044.011, 3965.000
1045.115, 3905.000
1046.219, 3848.000
1047.323, 3896.000
1048.426, 3867.000
1049.529, 3919.000
1050.632, 3919.258
1051.735, 3822.000
1052.838, 3920.000
1053.941, 3910.000
1055.043, 3875.000
1056.146, 3795.000
1057.248, 3883.000
1058.350, 3858.000
1059.452, 3814.000
1060.554, 3835.000
1061.655, 3809.000
1062.757, 3790.000
1063.858, 3829.000
1064.959, 3792.000
1066.060, 3793.000
1067.161, 3787.000
1068.261, 3785.000
1069.362, 3799.731
1070.462, 3789.641
1071.562, 3781.599
1072.662, 3783.000
1073.762, 3746.000
1074.862, 3741.000
1075.961, 3710.000
1077.061, 3638.000
1078.160, 3748.000
1079.259, 3696.000
1080.358, 3622.000
1081.456, 3677.000
1082.555, 3640.000
1083.653, 3584.000
1084.751, 3519.000
1085.850, 3637.000
1086.947, 3567.000
1088.045, 3587.000
1089.143, 3499.000
1090.240, 3543.000
1091.338, 3507.000
1092.435, 3512.000
1093.532, 3553.000
1094.628, 3518.000
1095.725, 3539.000
1096.822, 3421.000
1097.918, 3526.000
1099.014, 3458.000
1100.110, 3583.000
1101.206, 3450.000
1102.302, 3531.000
1103.397, 3483.000
1104.493, 3536.000
1105.588, 3424.000
1106.683, 3598.000
1107.778, 3499.000
1108.873, 3534.000
1109.967, 3431.000
1111.062, 3505.000
1112.156, 3487.000
1113.250, 3512.000
1114.344, 3536.000
1115.438, 3448.000
1116.531, 3472.000
1117.625, 3473.000
1118.718, 3531.000
1119.811, 3464.000
1120.904, 3459.000
1121.997, 3520.000
1123.090, 3466.000
1124.183, 3503.000
1125.275, 3485.000
1126.367, 3526.000
1127.459, 3468.000
1128.551, 3540.000
1129.643, 3480.000
1130.735, 3502.000
1131.826, 3446.000
1132.917, 3467.000
1134.008, 3491.000
1135.099, 3395.000
1136.190, 3458.000
1137.281, 3443.000
1138.371, 3378.000
1139.462, 3462.000
1140.552, 3372.000
1141.642, 3404.000
1142.732, 3344.000
1143.821, 3387.000
1144.911, 3350.000
1146.000, 3322.000
1147.090, 3245.000
1148.179, 3210.000
1149.268, 3191.486
1150.356, 3180.492
1151.445, 3167.000
1152.533, 3199.000
1153.622, 3189.000
1154.710, 3184.000
1155.798, 3144.000
1156.886, 3047.000
1157.973, 3066.000
1159.061, 3010.000
1160.148, 3073.000
1161.235, 3003.000
1162.322, 2961.000
1163.409, 2972.000
1164.496, 2953.000
1165.583, 3056.000
1166.669, 2858.000
1167.755, 2990.000
1168.841, 2859.000
1169.927, 3024.000
1171.013, 2899.000
1172.099, 2916.000
1173.184, 2901.000
1174.269, 2909.000
1175.355, 2830.000
1176.440, 2959.000
1177.524, 2807.000
1178.609, 2937.000
1179.694, 2878.000
1180.778, 2854.000
1181.862, 2833.000
1182.946, 2900.000
1184.030, 2860.000
1185.114, 2890.000
1186.197, 2910.000
1187.281, 2888.773
1188.364, 2877.000
1189.447, 2884.000
1190.530, 2888.000
1191.613, 2911.000
1192.696, 2785.000
1193.778, 2946.000
1194.860, 2875.000
1195.943, 2909.000
1197.025, 2785.000
1198.107, 2929.000
1199.188, 2936.000
1200.270, 2888.000
1201.351, 2927.000
1202.432, 2854.000
1203.514, 2876.000
1204.594, 2874.000
1205.675, 2852.682
1206.756, 2876.000
1207.836, 2851.000
1208.917, 2850.000
1209.997, 2863.000
1211.077, 2830.000
1212.157, 2900.000
1213.236, 2910.000
1214.316, 2799.000
1215.395, 2759.000
1216.474, 2868.000
1217.553, 2875.000
1218.632, 2871.000
1219.711, 2799.000
1220.790, 2912.000
1221.868, 2850.000
1222.946, 2831.000
1224.024, 2871.000
1225.102, 2873.000
1226.180, 2922.000
1227.258, 2849.000
1228.335, 2840.000
1229.413, 2832.000
1230.490, 2924.000
1231.567, 2802.352
1232.644, 2841.065
1233.720, 2863.755
1234.797, 2871.288
1235.873, 2818.256
1236.950, 2843.430
1238.026, 2837.262
1239.102, 2829.809
1240.177, 2865.987
1241.253, 2821.763
1242.328, 2857.249
1243.404, 2860.917
1244.479, 2879.147
1245.554, 2865.841
1246.629, 2862.276
1247.703, 2890.254
