##NAMES=Olivenite
##RRUFFID=R040181
##IDEAL CHEMISTRY=Cu^2+^_2_As^5+^O_4_(OH)
##LOCALITY=Majuba Hill, Pershing County, Nevada, USA
##OWNER=RRUFF
##SOURCE=University of Arizona Mineral Museum
##DESCRIPTION=Greenish blue prismatic, untwinned. Structure for this sample reported in Li et al (2008).
##STATUS=The identification of this mineral has been confirmed by X-ray diffraction and chemical analysis
##URL=rruff.info/R040181
##MEASURED CHEMISTRY=(Cu_0.98_[box]_0.02_)_2_(As_0.90_P_0.10_O_4_)(OH)_0.92_
##PIN_ID=S00027
##ORIENTATION=Laser parallel to -c* (0 0 -1). Fiducial mark perpendicular to laser is parallel to a [1 0 0]
63.58900, 316.0000
64.83300, 358.0000
66.07600, 304.0000
67.32000, 391.0000
68.56300, 440.0000
69.80600, 437.0000
71.04900, 400.0000
72.29100, 491.0000
73.53400, 492.0000
74.77600, 521.0000
76.01800, 587.0000
77.26000, 808.0000
78.50200, 913.0000
79.74300, 1118.000
80.98500, 1280.000
82.22600, 1651.000
83.46700, 2009.000
84.70800, 2367.000
85.94900, 2822.000
87.18900, 3302.000
88.42900, 3709.000
89.67000, 4193.000
90.91000, 4572.000
92.14900, 4759.000
93.38900, 4882.000
94.62900, 4957.000
95.86800, 4941.000
97.10700, 5002.000
98.34600, 5148.000
99.58500, 5338.147
100.8230, 5631.000
102.0620, 5964.000
103.3000, 6416.000
104.5380, 6956.000
105.7760, 7412.000
107.0140, 7712.000
108.2510, 7951.000
109.4890, 8289.000
110.7260, 8506.000
111.9630, 8625.000
113.2000, 8680.000
114.4360, 8700.000
115.6730, 8658.000
116.9090, 8660.000
118.1450, 8470.000
119.3810, 8419.000
120.6170, 8314.000
121.8530, 8024.000
123.0880, 7827.000
124.3230, 7422.000
125.5590, 7180.000
126.7930, 7093.000
128.0280, 6877.000
129.2630, 7041.000
130.4970, 7005.000
131.7310, 6960.000
132.9650, 6950.000
134.1990, 7020.000
135.4330, 6862.000
136.6670, 6744.000
137.9000, 6848.000
139.1330, 6687.000
140.3660, 6868.000
141.5990, 7185.000
142.8320, 7534.000
144.0640, 8124.000
145.2960, 8644.000
146.5290, 9679.000
147.7610, 10754.00
148.9920, 12168.00
150.2240, 13430.00
151.4550, 14859.00
152.6870, 16314.00
153.9180, 17737.00
155.1490, 18831.00
156.3800, 19786.00
157.6100, 20380.00
158.8400, 20542.00
160.0710, 20071.00
161.3010, 19341.00
162.5310, 18467.00
163.7600, 17024.00
164.9900, 15630.00
166.2190, 14666.00
167.4480, 13944.00
168.6770, 13603.00
169.9060, 13847.00
171.1350, 14064.00
172.3630, 14240.00
173.5920, 14707.00
174.8200, 14872.00
176.0480, 15008.00
177.2760, 14976.00
178.5030, 14549.00
179.7310, 13995.00
180.9580, 13300.00
182.1850, 12486.00
183.4120, 11900.00
184.6390, 11224.00
185.8650, 10782.00
187.0920, 10248.00
188.3180, 9637.000
189.5440, 9168.000
190.7700, 8862.000
191.9960, 8374.000
193.2210, 8035.000
194.4470, 7921.000
195.6720, 7837.000
196.8970, 7881.000
198.1220, 8135.000
199.3460, 8424.000
200.5710, 8973.000
201.7950, 9560.000
203.0190, 10351.00
204.2430, 11303.00
205.4670, 12458.00
206.6910, 13765.87
207.9140, 15247.00
209.1370, 16889.00
210.3610, 18648.00
211.5840, 20575.00
212.8060, 22717.00
214.0290, 24818.00
215.2510, 26513.00
216.4740, 27851.00
217.6960, 28986.00
218.9180, 29835.00
220.1390, 30284.00
221.3610, 29777.53
222.5820, 28500.00
223.8030, 27499.00
225.0240, 25718.00
226.2450, 23573.00
227.4660, 21834.00
228.6870, 19978.00
229.9070, 18420.00
231.1270, 16944.00
232.3470, 15583.00
233.5670, 14727.00
234.7870, 13896.00
236.0060, 12768.00
237.2250, 11940.00
238.4440, 11372.00
239.6630, 10578.00
240.8820, 9794.000
242.1010, 9077.000
243.3190, 8461.000
244.5380, 7730.000
245.7560, 7395.000
246.9740, 6923.000
248.1910, 6464.000
249.4090, 6230.000
250.6260, 6099.000
251.8440, 6006.000
253.0610, 5899.000
254.2780, 5942.000
255.4940, 5886.000
256.7110, 5937.943
257.9270, 5915.000
259.1430, 6099.000
260.3600, 6262.000
261.5750, 6411.000
262.7910, 6555.000
264.0070, 6994.000
265.2220, 7407.000
266.4370, 7855.000
267.6520, 8614.000
268.8670, 9361.000
270.0820, 10398.00
271.2960, 11953.00
272.5100, 13617.00
273.7250, 15683.00
274.9390, 18216.00
276.1520, 20893.00
277.3660, 23781.00
278.5790, 26745.00
279.7930, 29756.00
281.0060, 32620.00
282.2190, 34725.00
283.4320, 36438.00
284.6440, 36930.00
285.8570, 36496.00
287.0690, 35090.00
288.2810, 32837.00
289.4930, 29962.00
290.7050, 27061.00
291.9160, 24009.00
293.1270, 21678.00
294.3390, 19666.00
295.5500, 18030.00
296.7610, 16838.00
297.9710, 16084.00
299.1820, 15821.00
300.3920, 15635.00
301.6020, 15757.00
302.8120, 16027.00
304.0220, 16459.00
305.2320, 16911.00
306.4410, 17329.00
307.6510, 17498.00
308.8600, 17692.00
310.0690, 17850.00
311.2780, 17711.00
312.4860, 17407.00
313.6950, 16825.00
314.9030, 16344.00
316.1110, 15490.00
317.3190, 14424.00
318.5270, 13353.00
319.7350, 12776.00
320.9420, 11731.00
322.1490, 11083.00
323.3570, 10593.00
324.5630, 10066.00
325.7700, 9749.000
326.9770, 9432.000
328.1830, 9204.000
329.3900, 9095.000
330.5960, 8972.000
331.8020, 8948.000
333.0070, 8868.136
334.2130, 8685.000
335.4180, 8738.000
336.6230, 8672.000
337.8290, 8508.000
339.0330, 8517.000
340.2380, 8618.000
341.4430, 8597.000
342.6470, 8599.000
343.8510, 8520.000
345.0550, 8539.000
346.2590, 8463.000
347.4630, 8387.000
348.6660, 8235.000
349.8700, 8060.000
351.0730, 7798.000
352.2760, 7448.000
353.4790, 7185.000
354.6810, 6845.000
355.8840, 6589.626
357.0860, 6460.000
358.2880, 6066.000
359.4900, 5939.000
360.6920, 5654.000
361.8940, 5581.000
363.0950, 5540.000
364.2960, 5385.000
365.4980, 5339.000
366.6990, 5218.000
367.8990, 5109.000
369.1000, 5001.000
370.3000, 4943.000
371.5010, 4957.000
372.7010, 4740.000
373.9010, 4787.000
375.1010, 4642.000
376.3000, 4461.000
377.5000, 4569.000
378.6990, 4372.000
379.8980, 4458.000
381.0970, 4351.000
382.2960, 4336.000
383.4940, 4272.000
384.6920, 4194.000
385.8910, 4150.000
387.0890, 4088.000
388.2870, 3922.000
389.4840, 3819.000
390.6820, 3689.000
391.8790, 3652.000
393.0770, 3513.000
394.2740, 3512.000
395.4700, 3463.000
396.6670, 3456.000
397.8640, 3408.000
399.0600, 3489.000
400.2560, 3427.000
401.4520, 3449.000
402.6480, 3490.000
403.8440, 3400.000
405.0390, 3549.000
406.2350, 3574.000
407.4300, 3578.000
408.6250, 3739.000
409.8200, 3735.000
411.0140, 3866.000
412.2090, 4018.000
413.4030, 3977.000
414.5970, 4179.000
415.7910, 4349.000
416.9850, 4372.000
418.1790, 4538.000
419.3720, 4591.000
420.5660, 4524.000
421.7590, 4564.000
422.9520, 4602.000
424.1440, 4612.000
425.3370, 4539.000
426.5300, 4351.000
427.7220, 4359.000
428.9140, 4239.000
430.1060, 4244.000
431.2980, 4050.000
432.4890, 4128.000
433.6810, 3963.000
434.8720, 4000.000
436.0630, 4053.000
437.2540, 3989.000
438.4450, 3985.890
439.6350, 4001.005
440.8260, 3892.000
442.0160, 4006.000
443.2060, 3978.000
444.3960, 3951.000
445.5860, 3940.000
446.7750, 3930.000
447.9650, 3961.000
449.1540, 4058.000
450.3430, 4048.000
451.5320, 4087.000
452.7210, 4090.000
453.9090, 4022.000
455.0980, 4002.000
456.2860, 4069.000
457.4740, 3997.000
458.6620, 4042.000
459.8500, 4045.000
461.0370, 4110.000
462.2250, 4118.000
463.4120, 4130.000
464.5990, 4039.000
465.7860, 4092.000
466.9720, 4124.000
468.1590, 4158.000
469.3450, 4190.000
470.5320, 4252.000
471.7180, 4488.000
472.9030, 4484.000
474.0890, 4622.000
475.2750, 4781.000
476.4600, 4870.000
477.6450, 4981.000
478.8300, 5275.000
480.0150, 5374.000
481.2000, 5691.000
482.3840, 5888.000
483.5690, 6282.000
484.7530, 6576.000
485.9370, 7077.000
487.1210, 7572.000
488.3040, 7999.000
489.4880, 8572.000
490.6710, 9236.000
491.8540, 9824.000
493.0370, 10333.00
494.2200, 10985.00
495.4030, 11527.00
496.5850, 12203.00
497.7680, 12673.00
498.9500, 12926.00
500.1320, 13080.00
501.3140, 13091.00
502.4950, 13086.00
503.6770, 12673.00
504.8580, 12379.00
506.0390, 11989.00
507.2200, 11601.00
508.4010, 11195.00
509.5820, 10985.00
510.7620, 10698.00
511.9420, 10617.00
513.1230, 10740.00
514.3030, 10876.00
515.4820, 10947.00
516.6620, 11276.20
517.8420, 11783.00
519.0210, 11970.00
520.2000, 12512.00
521.3790, 12932.00
522.5580, 13283.00
523.7360, 13524.69
524.9150, 13738.49
526.0930, 13751.00
527.2710, 13823.00
528.4490, 13759.00
529.6270, 13396.00
530.8050, 12840.00
531.9820, 12133.00
533.1590, 11781.00
534.3360, 11215.00
535.5130, 10555.00
536.6900, 9828.000
537.8670, 9215.000
539.0430, 8976.000
540.2200, 8493.000
541.3960, 8114.000
542.5720, 7811.000
543.7470, 7665.000
544.9230, 7369.000
546.0980, 7310.000
547.2740, 7132.000
548.4490, 7037.000
549.6240, 6806.000
550.7990, 6785.000
551.9730, 6730.000
553.1480, 6527.000
554.3220, 6446.000
555.4960, 6235.000
556.6700, 6138.000
557.8440, 5890.000
559.0170, 5701.000
560.1910, 5576.000
561.3640, 5398.000
562.5370, 5201.000
563.7100, 5071.000
564.8830, 4829.000
566.0550, 4578.000
567.2280, 4535.000
568.4000, 4351.000
569.5720, 4093.000
570.7440, 3952.000
571.9160, 3789.000
573.0870, 3771.000
574.2590, 3672.000
575.4300, 3453.000
576.6010, 3472.000
577.7720, 3372.000
578.9430, 3301.000
580.1140, 3170.000
581.2840, 3126.000
582.4540, 3068.000
583.6240, 3006.000
584.7940, 2987.000
585.9640, 2920.000
587.1340, 2949.000
588.3030, 2907.000
589.4720, 2884.000
590.6410, 2797.000
591.8100, 2893.000
592.9790, 2801.000
594.1480, 2727.000
595.3160, 2798.000
596.4840, 2766.000
597.6520, 2732.000
598.8200, 2665.000
599.9880, 2750.000
601.1560, 2666.000
602.3230, 2679.000
603.4900, 2708.000
604.6570, 2637.000
605.8240, 2666.000
606.9910, 2659.000
608.1580, 2673.000
609.3240, 2617.000
610.4900, 2775.000
611.6570, 2614.000
612.8230, 2671.000
613.9880, 2585.000
615.1540, 2662.000
616.3190, 2703.000
617.4850, 2657.000
618.6500, 2777.000
619.8150, 2694.000
620.9790, 2641.000
622.1440, 2632.000
623.3080, 2595.719
624.4730, 2703.000
625.6370, 2615.000
626.8010, 2682.000
627.9640, 2773.000
629.1280, 2775.000
630.2910, 2691.000
631.4550, 2666.000
632.6180, 2707.000
633.7810, 2787.000
634.9440, 2729.000
636.1060, 2798.000
637.2690, 2692.000
638.4310, 2619.000
639.5930, 2711.000
640.7550, 2687.000
641.9170, 2615.000
643.0780, 2712.000
644.2400, 2677.000
645.4010, 2658.000
646.5620, 2673.000
647.7230, 2625.000
648.8840, 2648.000
650.0450, 2633.000
651.2050, 2708.000
652.3650, 2707.000
653.5250, 2745.000
654.6850, 2762.000
655.8450, 2736.000
657.0050, 2789.000
658.1640, 2757.000
659.3230, 2787.000
660.4830, 2801.000
661.6420, 2832.000
662.8000, 2747.000
663.9590, 2856.000
665.1170, 2777.176
666.2760, 2871.000
667.4340, 2737.000
668.5920, 2772.000
669.7500, 2865.000
670.9070, 2869.000
672.0650, 2849.000
673.2220, 2829.000
674.3790, 2880.000
675.5360, 2824.000
676.6930, 2855.000
677.8500, 2903.000
679.0060, 2845.000
680.1620, 2844.000
681.3190, 2856.000
682.4750, 2825.927
683.6300, 2882.000
684.7860, 2815.000
685.9420, 2844.000
687.0970, 2861.000
688.2520, 2827.000
689.4070, 2829.000
690.5620, 2852.000
691.7170, 2931.000
692.8710, 2912.000
694.0250, 2913.000
695.1800, 2842.000
696.3340, 2866.000
697.4870, 2894.000
698.6410, 2996.000
699.7950, 2922.000
700.9480, 2900.000
702.1010, 2977.000
703.2540, 2915.000
704.4070, 2990.000
705.5600, 3005.000
706.7120, 2997.000
707.8640, 3002.000
709.0170, 3137.000
710.1690, 3177.000
711.3210, 3197.000
712.4720, 3299.000
713.6240, 3243.000
714.7750, 3353.000
715.9260, 3248.000
717.0770, 3364.000
718.2280, 3374.000
719.3790, 3374.000
720.5290, 3351.000
721.6800, 3442.000
722.8300, 3502.000
723.9800, 3443.000
725.1300, 3380.000
726.2800, 3437.000
727.4290, 3392.000
728.5790, 3470.000
729.7280, 3449.000
730.8770, 3431.000
732.0260, 3439.978
733.1750, 3389.000
734.3230, 3385.000
735.4720, 3370.000
736.6200, 3307.000
737.7680, 3469.000
738.9160, 3433.000
740.0640, 3306.000
741.2110, 3446.000
742.3590, 3393.000
743.5060, 3364.000
744.6530, 3387.000
745.8000, 3451.000
746.9470, 3405.000
748.0930, 3463.000
749.2400, 3483.000
750.3860, 3444.000
751.5320, 3439.000
752.6780, 3448.000
753.8240, 3491.000
754.9690, 3539.000
756.1150, 3430.000
757.2600, 3595.000
758.4050, 3634.000
759.5500, 3554.000
760.6950, 3603.000
761.8400, 3581.000
762.9840, 3518.000
764.1280, 3575.000
765.2730, 3587.000
766.4170, 3722.000
767.5600, 3752.000
768.7040, 3800.000
769.8470, 3864.000
770.9910, 3910.000
772.1340, 3920.000
773.2770, 3887.000
774.4200, 3991.000
775.5620, 4122.000
776.7050, 4067.000
777.8470, 4242.000
778.9890, 4251.000
780.1310, 4320.000
781.2730, 4500.000
782.4150, 4487.000
783.5570, 4615.000
784.6980, 4758.000
785.8390, 4763.000
786.9800, 5030.000
788.1210, 5175.000
789.2620, 5395.000
790.4020, 5525.000
791.5430, 5709.000
792.6830, 5821.000
793.8230, 6078.000
794.9630, 6205.000
796.1020, 6409.000
797.2420, 6580.000
798.3810, 6636.000
799.5210, 6815.000
800.6600, 6793.000
801.7990, 6934.000
802.9370, 7140.000
804.0760, 7191.000
805.2140, 7200.000
806.3530, 7396.000
807.4910, 7456.000
808.6290, 7559.000
809.7660, 7774.000
810.9040, 7921.000
812.0420, 8100.000
813.1790, 8199.000
814.3160, 8400.000
815.4530, 8682.000
816.5900, 8698.000
817.7260, 9146.000
818.8630, 9366.000
819.9990, 9772.000
821.1350, 10079.00
822.2710, 10611.00
823.4070, 11089.00
824.5430, 11504.00
825.6780, 12409.00
826.8130, 13238.00
827.9490, 14261.00
829.0840, 15561.00
830.2180, 17004.00
831.3530, 18553.00
832.4880, 20814.00
833.6220, 22941.00
834.7560, 25300.00
835.8900, 28653.00
837.0240, 31722.00
838.1580, 35358.00
839.2910, 39042.00
840.4250, 43067.00
841.5580, 47433.00
842.6910, 52303.00
843.8240, 57778.00
844.9560, 64478.00
846.0890, 72116.00
847.2210, 81960.00
848.3540, 93110.00
849.4860, 106328.0
850.6180, 120014.0
851.7490, 134015.0
852.8810, 146065.0
854.0120, 155218.0
855.1440, 158826.0
856.2750, 157232.0
857.4060, 149395.0
858.5360, 136215.0
859.6670, 119333.0
860.7980, 101816.0
861.9280, 85155.00
863.0580, 70509.00
864.1880, 58976.00
865.3180, 49737.00
866.4470, 42141.00
867.5770, 35879.00
868.7060, 31184.00
869.8350, 27474.00
870.9640, 24315.00
872.0930, 22522.00
873.2220, 19867.00
874.3500, 17766.00
875.4790, 16383.00
876.6070, 15003.00
877.7350, 14071.00
878.8630, 13096.00
879.9900, 12264.00
881.1180, 11595.00
882.2450, 10968.00
883.3730, 10495.00
884.5000, 9917.000
885.6260, 9390.000
886.7530, 9083.000
887.8800, 8681.000
889.0060, 8319.000
890.1320, 8096.000
891.2580, 7787.000
892.3840, 7620.000
893.5100, 7360.000
894.6360, 7021.000
895.7610, 6883.000
896.8860, 6668.000
898.0120, 6501.000
899.1360, 6303.000
900.2610, 5900.000
901.3860, 5813.000
902.5100, 5719.000
903.6350, 5368.000
904.7590, 5320.000
905.8830, 5071.000
907.0070, 5019.000
908.1300, 4896.000
909.2540, 4800.000
910.3770, 4724.969
911.5000, 4646.000
912.6230, 4520.000
913.7460, 4550.000
914.8690, 4372.000
915.9910, 4326.000
917.1140, 4483.000
918.2360, 4327.000
919.3580, 4294.000
920.4800, 4420.000
921.6020, 4284.000
922.7230, 4307.000
923.8440, 4273.000
924.9660, 4354.000
926.0870, 4277.000
927.2080, 4201.000
928.3280, 4251.000
929.4490, 4297.000
930.5700, 4082.000
931.6900, 4188.000
932.8100, 4181.000
933.9300, 4186.000
935.0500, 4147.000
936.1690, 4152.899
937.2890, 4101.000
938.4080, 4133.000
939.5270, 4159.000
940.6460, 4136.000
941.7650, 4168.000
942.8840, 4270.000
944.0020, 4280.000
945.1200, 4311.000
946.2390, 4331.000
947.3570, 4366.000
948.4750, 4416.000
949.5920, 4524.000
950.7100, 4685.000
951.8270, 4757.000
952.9440, 4899.000
954.0610, 5051.000
955.1780, 4989.000
956.2950, 5128.000
957.4120, 5216.000
958.5280, 5169.000
959.6440, 5133.000
960.7600, 5136.000
961.8760, 4959.000
962.9920, 4804.000
964.1080, 4661.000
965.2230, 4513.000
966.3380, 4307.000
967.4540, 4084.000
968.5690, 3980.000
969.6830, 3881.000
970.7980, 3825.000
971.9120, 3750.063
973.0270, 3668.097
974.1410, 3631.000
975.2550, 3528.000
976.3690, 3442.000
977.4820, 3405.000
978.5960, 3345.794
979.7090, 3323.000
980.8230, 3302.000
981.9360, 3253.000
983.0490, 3273.000
984.1610, 3172.000
985.2740, 3232.000
986.3860, 3169.000
987.4980, 3130.000
988.6110, 3113.000
989.7220, 3102.000
990.8340, 3086.000
991.9460, 3000.000
993.0570, 3018.000
994.1690, 2961.000
995.2800, 3093.000
996.3910, 3113.000
997.5010, 3184.000
998.6120, 3042.000
999.7230, 3171.000
1000.833, 3091.000
1001.943, 3103.000
1003.053, 3120.000
1004.163, 3126.000
1005.273, 3073.000
1006.382, 3046.000
1007.492, 3038.000
1008.601, 3105.000
1009.710, 3034.000
1010.819, 3021.000
1011.927, 3033.000
1013.036, 3142.000
1014.144, 3082.000
1015.253, 2996.000
1016.361, 3055.000
1017.469, 3194.000
1018.576, 3000.000
1019.684, 3057.000
1020.791, 3157.000
1021.899, 2984.000
1023.006, 3099.000
1024.113, 3003.000
1025.220, 2952.000
1026.326, 3082.000
1027.433, 3089.000
1028.539, 3073.000
1029.645, 3033.000
1030.751, 2950.000
1031.857, 3068.000
1032.963, 3136.000
1034.068, 2991.000
1035.174, 2965.000
1036.279, 3069.000
1037.384, 2986.713
1038.489, 2997.198
1039.594, 3018.000
1040.698, 2902.000
1041.803, 2982.000
1042.907, 2855.000
1044.011, 2972.000
1045.115, 2922.000
1046.219, 2948.000
1047.323, 2938.926
1048.426, 2913.672
1049.529, 2885.000
1050.632, 2875.000
1051.735, 2869.000
1052.838, 2851.000
1053.941, 2841.000
1055.043, 2815.000
1056.146, 2871.000
1057.248, 2802.000
1058.350, 2866.000
1059.452, 2855.000
1060.554, 2755.000
1061.655, 2847.000
1062.757, 2823.000
1063.858, 2794.000
1064.959, 2794.000
1066.060, 2849.000
1067.161, 2758.000
1068.261, 2852.000
1069.362, 2822.000
1070.462, 2733.000
1071.562, 2881.000
1072.662, 2850.000
1073.762, 2822.000
1074.862, 2804.000
1075.961, 2797.000
1077.061, 2761.000
1078.160, 2773.935
1079.259, 2797.000
1080.358, 2785.000
1081.456, 2802.000
1082.555, 2796.000
1083.653, 2777.000
1084.751, 2788.009
1085.850, 2770.000
1086.947, 2770.000
1088.045, 2753.000
1089.143, 2715.306
1090.240, 2745.900
1091.338, 2760.469
1092.435, 2759.883
1093.532, 2698.735
1094.628, 2715.796
1095.725, 2701.512
1096.822, 2685.941
1097.918, 2714.011
1099.014, 2661.676
1100.110, 2689.053
1101.206, 2684.610
1102.302, 2694.731
1103.397, 2673.322
1104.493, 2661.647
1105.588, 2681.524
1106.683, 2683.934
1107.778, 2658.895
1108.873, 2669.946
1109.967, 2586.000
1111.062, 2596.000
1112.156, 2542.000
1113.250, 2642.000
1114.344, 2603.000
1115.438, 2600.000
1116.531, 2568.000
1117.625, 2612.000
1118.718, 2648.000
1119.811, 2609.000
1120.904, 2623.000
1121.997, 2583.000
1123.090, 2593.000
1124.183, 2590.000
1125.275, 2591.000
1126.367, 2584.619
1127.459, 2574.012
1128.551, 2572.000
1129.643, 2550.000
1130.735, 2557.000
1131.826, 2553.000
1132.917, 2530.804
1134.008, 2559.682
1135.099, 2572.541
1136.190, 2570.240
1137.281, 2507.375
1138.371, 2522.723
1139.462, 2506.721
1140.552, 2489.443
1141.642, 2515.798
1142.732, 2461.749
1143.821, 2487.418
1144.911, 2481.262
1146.000, 2489.676
1147.090, 2466.547
1148.179, 2453.166
1149.268, 2471.330
1150.356, 2472.034
1151.445, 2423.000
1152.533, 2432.000
1153.622, 2409.000
1154.710, 2421.000
1155.798, 2309.000
1156.886, 2415.000
1157.973, 2312.000
1159.061, 2295.000
1160.148, 2342.000
1161.235, 2303.000
1162.322, 2307.259
1163.409, 2286.000
1164.496, 2252.000
1165.583, 2289.000
1166.669, 2197.000
1167.755, 2292.000
1168.841, 2215.000
1169.927, 2296.000
1171.013, 2203.000
1172.099, 2217.000
1173.184, 2116.000
1174.269, 2217.000
1175.355, 2199.000
1176.440, 2214.000
1177.524, 2147.000
1178.609, 2249.000
1179.694, 2295.000
1180.778, 2192.000
1181.862, 2208.000
1182.946, 2226.000
1184.030, 2153.000
1185.114, 2162.000
1186.197, 2224.000
1187.281, 2191.000
1188.364, 2211.000
1189.447, 2251.000
1190.530, 2231.260
1191.613, 2242.542
1192.696, 2243.000
1193.778, 2211.000
1194.860, 2238.000
1195.943, 2191.000
1197.025, 2215.000
1198.107, 2274.000
1199.188, 2258.000
1200.270, 2290.000
1201.351, 2230.000
1202.432, 2196.000
1203.514, 2168.000
1204.594, 2162.301
1205.675, 2249.000
1206.756, 2189.000
1207.836, 2222.000
1208.917, 2257.000
1209.997, 2228.000
1211.077, 2202.000
1212.157, 2187.000
1213.236, 2211.000
1214.316, 2212.000
1215.395, 2215.658
1216.474, 2221.574
1217.553, 2225.000
1218.632, 2221.000
1219.711, 2221.000
1220.790, 2220.112
1221.868, 2240.000
1222.946, 2225.000
1224.024, 2245.000
1225.102, 2232.000
1226.180, 2241.000
1227.258, 2261.000
1228.335, 2252.000
1229.413, 2273.000
1230.490, 2279.000
1231.567, 2249.000
1232.644, 2241.731
1233.720, 2279.000
1234.797, 2191.000
1235.873, 2190.000
1236.950, 2175.000
1238.026, 2198.000
1239.102, 2145.000
1240.177, 2181.000
1241.253, 2180.897
1242.328, 2168.458
