##NAMES=Orthoclase
##RRUFFID=R040055
##IDEAL CHEMISTRY=KAlSi_3_O_8_
##LOCALITY=Madagascar
##OWNER=RRUFF
##SOURCE=Bob Downs
##DESCRIPTION=Pale yellow fragments
##STATUS=The identification of this mineral has been confirmed by X-ray diffraction and chemical analysis
##URL=rruff.info/R040055
##MEASURED CHEMISTRY=K_0.96_(Al_0.96_Si_0.03_Fe_0.02_)Si_3.00_O_8_; = light material. (K_0.90_Na_0.02_)(Al_0.91_Si_0.08_Fe_0.02_)Si_3.00_O_8_ = dark
##PIN_ID=M00468
##ORIENTATION=Laser parallel to (1 0 1). Fiducial mark perpendicular to laser is parallel to b [0 1 0]
51.562, 3937.000
52.970, 3954.000
54.377, 3850.000
55.785, 3946.000
57.192, 3915.000
58.599, 3934.000
60.005, 3942.000
61.412, 3935.000
62.818, 3951.507
64.224, 3950.566
65.629, 3962.000
67.035, 3948.000
68.440, 3938.000
69.845, 3915.000
71.250, 3951.000
72.654, 4001.000
74.059, 4097.000
75.463, 4071.843
76.866, 4037.316
78.270, 4032.000
79.673, 3920.000
81.076, 3862.000
82.479, 3899.000
83.882, 3896.000
85.284, 3918.000
86.686, 4010.000
88.088, 4225.000
89.489, 4419.000
90.891, 4631.000
92.292, 4892.000
93.693, 5056.000
95.093, 5284.000
96.494, 5372.000
97.894, 5663.000
99.294, 5562.000
100.694, 5593.000
102.093, 5730.000
103.492, 5603.000
104.891, 5905.000
106.290, 5930.000
107.689, 6265.000
109.087, 6374.000
110.485, 6891.000
111.883, 7411.000
113.280, 8188.000
114.678, 9850.000
116.075, 11000.000
117.472, 10930.000
118.868, 10190.000
120.264, 9901.000
121.661, 9256.000
123.057, 8315.000
124.452, 7763.000
125.848, 6841.000
127.243, 6582.000
128.638, 5987.000
130.032, 5852.000
131.427, 5596.000
132.821, 5202.000
134.215, 5123.000
135.609, 4971.000
137.002, 4967.000
138.396, 4745.000
139.789, 4770.000
141.182, 4674.000
142.574, 4714.000
143.966, 4882.000
145.359, 4864.000
146.750, 5265.000
148.142, 5474.000
149.534, 6054.000
150.925, 6436.000
152.316, 6545.000
153.706, 6573.000
155.097, 6078.000
156.487, 6004.000
157.877, 5519.000
159.267, 5372.000
160.656, 5222.000
162.045, 4902.000
163.434, 4848.000
164.823, 4477.000
166.212, 4566.000
167.600, 4351.000
168.988, 4364.000
170.376, 4328.000
171.764, 4211.000
173.151, 4285.000
174.538, 4078.000
175.925, 4130.000
177.312, 4059.000
178.698, 4010.000
180.085, 3963.000
181.471, 3862.000
182.856, 3946.000
184.242, 3806.000
185.627, 3913.000
187.012, 3848.000
188.397, 3847.000
189.781, 3855.000
191.166, 3799.000
192.550, 3875.000
193.934, 3740.000
195.317, 3878.000
196.701, 3776.000
198.084, 3782.000
199.467, 3742.000
200.850, 3662.000
202.232, 3767.000
203.614, 3640.000
204.996, 3665.000
206.378, 3635.000
207.760, 3671.000
209.141, 3701.000
210.522, 3695.300
211.903, 3748.000
213.283, 3698.000
214.664, 3749.000
216.044, 3722.000
217.424, 3727.000
218.803, 3846.000
220.183, 3731.000
221.562, 3814.000
222.941, 3749.000
224.320, 3827.000
225.698, 3830.000
227.076, 3774.000
228.454, 3893.000
229.832, 3755.000
231.210, 3939.000
232.587, 3874.000
233.964, 3883.000
235.341, 3957.000
236.718, 3897.000
238.094, 4069.000
239.470, 3910.000
240.846, 4164.000
242.222, 4144.000
243.597, 4173.000
244.973, 4355.000
246.348, 4396.000
247.722, 4649.000
249.097, 4606.000
250.471, 4919.000
251.845, 5077.000
253.219, 5143.000
254.593, 5504.000
255.966, 5591.000
257.339, 6058.000
258.712, 6174.000
260.085, 6562.000
261.457, 6861.000
262.830, 6872.000
264.202, 7313.000
265.573, 7159.000
266.945, 7475.000
268.316, 7460.000
269.687, 7490.000
271.058, 7981.000
272.429, 7773.000
273.799, 8384.000
275.169, 8530.000
276.539, 9229.000
277.909, 9686.000
279.278, 9929.000
280.647, 10530.000
282.016, 10040.000
283.385, 10140.000
284.754, 9380.000
286.122, 8777.000
287.490, 8260.000
288.858, 7292.000
290.225, 7056.000
291.593, 6218.000
292.960, 5955.000
294.327, 5478.000
295.694, 5140.000
297.060, 4913.000
298.426, 4562.000
299.792, 4568.000
301.158, 4300.000
302.524, 4179.802
303.889, 4113.000
305.254, 3886.000
306.619, 3960.000
307.983, 3708.000
309.348, 3820.000
310.712, 3661.000
312.076, 3641.000
313.440, 3660.000
314.803, 3563.000
316.166, 3572.000
317.529, 3483.000
318.892, 3531.000
320.255, 3553.000
321.617, 3454.000
322.979, 3487.000
324.341, 3434.000
325.702, 3443.000
327.064, 3401.000
328.425, 3423.000
329.786, 3446.000
331.147, 3414.000
332.507, 3504.000
333.867, 3459.000
335.227, 3430.000
336.587, 3418.000
337.947, 3465.000
339.306, 3477.000
340.665, 3479.000
342.024, 3520.000
343.383, 3442.000
344.741, 3453.000
346.100, 3490.000
347.458, 3418.000
348.815, 3643.000
350.173, 3475.000
351.530, 3642.000
352.887, 3650.000
354.244, 3675.000
355.601, 3842.000
356.957, 3776.000
358.313, 3902.000
359.669, 3966.000
361.025, 3966.000
362.380, 4064.000
363.735, 4009.000
365.091, 4122.000
366.445, 3988.000
367.800, 4001.000
369.154, 3947.000
370.508, 3863.000
371.862, 3883.000
373.216, 3801.000
374.569, 3772.000
375.922, 3743.000
377.275, 3694.000
378.628, 3786.000
379.981, 3777.000
381.333, 3773.000
382.685, 3757.000
384.037, 3869.000
385.389, 3837.000
386.740, 3824.000
388.091, 3967.000
389.442, 3880.000
390.793, 4032.000
392.143, 4081.000
393.494, 4191.000
394.844, 4361.000
396.193, 4363.000
397.543, 4677.000
398.892, 4714.000
400.241, 5011.000
401.590, 5111.000
402.939, 5164.000
404.287, 5324.000
405.636, 5051.000
406.984, 5050.000
408.331, 4684.000
409.679, 4428.000
411.026, 4295.000
412.373, 4069.000
413.720, 3951.000
415.067, 3909.000
416.413, 3842.000
417.760, 3716.000
419.106, 3634.000
420.451, 3691.000
421.797, 3658.000
423.142, 3776.000
424.487, 3750.000
425.832, 3753.000
427.177, 3841.000
428.521, 3843.000
429.865, 4023.000
431.209, 4039.000
432.553, 4217.000
433.896, 4398.000
435.240, 4488.000
436.583, 4858.000
437.926, 4933.000
439.268, 5404.000
440.611, 5918.000
441.953, 6187.000
443.295, 7085.000
444.636, 7506.000
445.978, 8567.000
447.319, 9205.000
448.660, 10060.000
450.001, 11230.000
451.342, 11100.000
452.682, 12030.000
454.022, 11680.000
455.362, 11490.000
456.702, 11390.000
458.041, 10210.000
459.380, 10450.000
460.719, 9643.000
462.058, 9376.000
463.397, 9282.000
464.735, 8966.000
466.073, 9409.000
467.411, 9302.000
468.749, 10120.000
470.086, 10560.000
471.424, 11120.000
472.761, 12340.000
474.097, 11990.000
475.434, 12610.000
476.770, 11580.000
478.106, 10960.000
479.442, 10440.000
480.778, 9182.000
482.114, 9109.000
483.449, 8417.000
484.784, 8351.000
486.119, 8134.000
487.453, 7772.000
488.787, 7936.000
490.122, 7666.000
491.456, 7692.000
492.789, 7797.000
494.123, 7932.000
495.456, 8512.000
496.789, 8594.000
498.122, 9674.000
499.454, 10460.000
500.787, 11650.000
502.119, 13840.000
503.451, 15550.000
504.782, 19640.000
506.114, 22880.000
507.445, 28380.000
508.776, 35520.000
510.107, 39800.000
511.437, 47130.000
512.768, 46230.000
514.098, 45400.000
515.428, 40380.000
516.758, 32620.000
518.087, 28380.000
519.416, 22090.000
520.745, 18600.000
522.074, 15760.000
523.403, 13190.000
524.731, 12020.000
526.059, 10250.000
527.387, 9383.000
528.715, 8636.000
530.042, 7902.000
531.370, 7563.000
532.697, 6958.000
534.023, 6865.000
535.350, 6394.000
536.676, 6129.000
538.003, 6055.000
539.329, 5625.000
540.654, 5666.000
541.980, 5421.000
543.305, 5274.000
544.630, 5237.000
545.955, 4902.000
547.280, 5025.000
548.604, 4763.000
549.928, 4780.000
551.252, 4751.000
552.576, 4590.000
553.899, 4662.000
555.223, 4466.000
556.546, 4450.000
557.869, 4467.000
559.191, 4388.000
560.514, 4485.000
561.836, 4334.000
563.158, 4420.000
564.480, 4339.000
565.801, 4336.000
567.123, 4300.000
568.444, 4219.000
569.765, 4290.000
571.085, 4250.000
572.406, 4181.000
573.726, 4275.000
575.046, 4193.000
576.366, 4254.000
577.685, 4200.000
579.005, 4201.000
580.324, 4214.000
581.643, 4121.000
582.962, 4248.000
584.280, 4164.000
585.598, 4106.000
586.916, 4223.000
588.234, 4106.000
589.552, 4191.000
590.869, 4098.000
592.186, 4109.000
593.503, 4183.000
594.820, 4102.000
596.137, 4138.000
597.453, 4081.000
598.769, 4125.000
600.085, 4099.000
601.401, 3987.000
602.716, 4089.000
604.031, 4002.000
605.346, 4056.000
606.661, 4100.000
607.976, 3933.000
609.290, 4000.000
610.604, 3929.000
611.918, 3985.000
613.232, 3968.000
614.545, 3961.000
615.858, 4002.000
617.171, 3919.000
618.484, 3941.000
619.797, 3941.000
621.109, 3907.000
622.421, 4043.000
623.733, 3942.000
625.045, 4048.000
626.357, 3964.000
627.668, 3957.000
628.979, 3996.000
630.290, 3885.000
631.601, 3927.000
632.911, 3894.000
634.221, 3844.000
635.531, 3883.000
636.841, 3817.000
638.151, 3908.000
639.460, 3860.000
640.769, 3876.000
642.078, 3937.000
643.387, 3811.000
644.695, 3942.000
646.004, 3999.000
647.312, 3960.000
648.620, 4043.000
649.927, 3936.000
651.235, 4014.000
652.542, 3993.000
653.849, 3926.000
655.156, 4063.000
656.462, 3912.000
657.769, 4019.000
659.075, 3888.000
660.381, 3950.000
661.686, 3938.000
662.992, 3837.000
664.297, 3882.000
665.602, 3805.000
666.907, 3824.000
668.212, 3866.000
669.516, 3728.000
670.820, 3798.000
672.124, 3806.000
673.428, 3658.000
674.732, 3720.000
676.035, 3682.000
677.338, 3740.000
678.641, 3692.000
679.944, 3724.000
681.246, 3726.000
682.548, 3722.997
683.850, 3724.299
685.152, 3738.000
686.454, 3701.000
687.755, 3702.000
689.056, 3687.000
690.357, 3740.000
691.658, 3701.000
692.959, 3670.000
694.259, 3745.000
695.559, 3734.000
696.859, 3777.000
698.159, 3790.000
699.458, 3761.000
700.758, 3853.000
702.057, 3832.000
703.355, 3942.000
704.654, 3936.000
705.952, 3981.000
707.251, 4103.000
708.549, 4010.000
709.846, 4167.000
711.144, 4149.000
712.441, 4199.000
713.738, 4280.000
715.035, 4263.000
716.332, 4394.000
717.629, 4276.000
718.925, 4381.000
720.221, 4477.000
721.517, 4380.000
722.812, 4552.000
724.108, 4537.000
725.403, 4524.000
726.698, 4689.000
727.993, 4634.000
729.287, 4776.000
730.582, 4930.000
731.876, 4986.000
733.170, 5166.000
734.464, 5202.000
735.757, 5488.000
737.050, 5650.000
738.343, 5710.000
739.636, 6110.000
740.929, 5975.000
742.221, 6227.000
743.514, 6285.000
744.806, 6225.000
746.098, 6530.000
747.389, 6256.000
748.681, 6401.000
749.972, 6462.000
751.263, 6266.000
752.554, 6439.000
753.844, 6249.000
755.134, 6306.000
756.425, 6378.000
757.714, 6199.000
759.004, 6361.000
760.294, 6088.000
761.583, 6240.000
762.872, 6201.000
764.161, 6096.000
765.449, 6162.000
766.738, 5953.000
768.026, 6037.000
769.314, 6003.000
770.602, 5811.000
771.890, 6011.000
773.177, 5843.000
774.464, 5764.000
775.751, 5878.000
777.038, 5681.000
778.324, 5775.000
779.611, 5677.000
780.897, 5638.000
782.183, 5802.000
783.468, 5612.000
784.754, 5786.000
786.039, 5798.000
787.324, 5817.000
788.609, 6092.000
789.894, 6330.000
791.178, 6442.000
792.462, 6380.000
793.746, 6543.000
795.030, 6805.000
796.314, 6628.000
797.597, 6888.000
798.880, 6867.000
800.163, 6717.000
801.446, 7057.000
802.729, 6898.000
804.011, 7099.000
805.293, 7118.000
806.575, 7168.000
807.857, 7427.000
809.138, 7272.000
810.419, 7319.000
811.701, 7160.000
812.981, 6692.000
814.262, 6599.000
815.543, 6007.000
816.823, 5713.000
818.103, 5436.000
819.383, 4925.000
820.662, 4902.000
821.942, 4531.000
823.221, 4451.000
824.500, 4393.000
825.779, 4225.000
827.057, 4236.000
828.336, 4166.000
829.614, 4126.000
830.892, 4198.000
832.169, 4066.000
833.447, 4037.000
834.724, 4084.000
836.001, 4038.000
837.278, 4066.000
838.555, 3972.000
839.831, 3976.000
841.108, 4014.000
842.384, 3940.000
843.660, 4076.000
844.935, 4010.000
846.211, 4042.000
847.486, 4037.000
848.761, 3924.000
850.036, 3992.000
851.310, 3990.000
852.585, 3983.000
853.859, 4002.000
855.133, 3989.000
856.407, 4082.000
857.680, 4064.000
858.954, 3974.000
860.227, 4060.000
861.500, 4036.000
862.773, 4087.000
864.045, 4009.000
865.317, 4004.000
866.590, 4003.000
867.861, 3930.000
869.133, 3974.000
870.405, 3978.000
871.676, 3937.000
872.947, 3981.000
874.218, 3966.000
875.489, 4054.000
876.759, 4017.000
878.029, 3859.000
879.299, 4013.000
880.569, 3921.000
881.839, 3970.000
883.108, 3942.000
884.378, 3984.000
885.647, 3962.000
886.915, 3961.000
888.184, 4024.000
889.452, 4018.000
890.721, 3996.000
891.989, 3999.000
893.256, 4001.000
894.524, 4006.000
895.791, 4007.000
897.058, 3994.000
898.325, 3970.000
899.592, 4080.000
900.859, 3987.000
902.125, 4048.000
903.391, 4017.000
904.657, 4052.000
905.923, 4123.000
907.188, 4030.000
908.454, 3980.000
909.719, 4006.000
910.984, 4039.000
912.248, 4062.000
913.513, 4064.203
914.777, 4046.000
916.041, 4052.000
917.305, 4074.000
918.569, 4057.000
919.832, 4122.000
921.096, 4035.000
922.359, 4126.000
923.621, 4071.000
924.884, 4154.000
926.147, 4143.000
927.409, 4156.000
928.671, 4175.000
929.933, 4148.000
931.194, 4233.000
932.456, 4219.000
933.717, 4249.000
934.978, 4235.000
936.239, 4273.000
937.499, 4244.000
938.760, 4276.064
940.020, 4343.000
941.280, 4328.000
942.540, 4387.000
943.799, 4425.000
945.059, 4493.000
946.318, 4552.000
947.577, 4592.000
948.835, 4601.000
950.094, 4775.000
951.352, 4772.000
952.611, 4842.000
953.868, 4950.000
955.126, 4908.000
956.384, 4973.000
957.641, 5062.000
958.898, 5017.000
960.155, 5032.000
961.412, 5004.000
962.668, 5019.000
963.925, 5086.000
965.181, 4970.000
966.437, 5087.000
967.692, 5102.000
968.948, 5006.000
970.203, 5069.000
971.458, 5114.000
972.713, 5069.000
973.968, 5171.000
975.222, 5122.000
976.477, 5080.000
977.731, 5245.000
978.985, 5054.000
980.238, 5183.000
981.492, 5258.000
982.745, 5230.000
983.998, 5323.000
985.251, 5370.000
986.504, 5476.000
987.756, 5556.000
989.008, 5496.000
990.260, 5568.000
991.512, 5513.000
992.764, 5604.000
994.015, 5624.000
995.267, 5579.000
996.518, 5731.000
997.768, 5609.000
999.019, 5733.000
1000.270, 5647.000
1001.520, 5577.000
1002.770, 5749.000
1004.020, 5558.000
1005.269, 5465.000
1006.519, 5586.000
1007.768, 5415.000
1009.017, 5417.000
1010.266, 5359.000
1011.514, 5367.000
1012.763, 5357.000
1014.011, 5263.000
1015.259, 5328.000
1016.507, 5345.000
1017.754, 5229.000
1019.002, 5295.000
1020.249, 5282.000
1021.496, 5213.000
1022.743, 5162.000
1023.989, 5207.000
1025.236, 5215.000
1026.482, 5190.000
1027.728, 5248.000
1028.974, 5325.000
1030.219, 5071.000
1031.465, 5253.000
1032.710, 5210.000
1033.955, 5144.000
1035.200, 5223.000
1036.444, 5212.000
1037.689, 5167.000
1038.933, 5264.000
1040.177, 5210.000
1041.421, 5263.000
1042.664, 5274.000
1043.908, 5205.000
1045.151, 5235.000
1046.394, 5222.000
1047.637, 5255.000
1048.879, 5330.000
1050.122, 5273.000
1051.364, 5353.000
1052.606, 5339.000
1053.848, 5277.000
1055.089, 5386.000
1056.331, 5268.000
1057.572, 5248.000
1058.813, 5216.000
1060.054, 5164.000
1061.294, 5194.000
1062.535, 5090.000
1063.775, 5118.000
1065.015, 5054.000
1066.255, 5039.000
1067.494, 5148.000
1068.734, 5042.000
1069.973, 5049.000
1071.212, 5113.000
1072.451, 5104.000
1073.689, 5158.283
1074.928, 5189.000
1076.166, 5243.000
1077.404, 5325.000
1078.642, 5359.000
1079.879, 5344.000
1081.117, 5473.000
1082.354, 5423.000
1083.591, 5538.000
1084.828, 5548.000
1086.064, 5578.000
1087.301, 5640.000
1088.537, 5614.000
1089.773, 5713.000
1091.009, 5677.000
1092.244, 5655.000
1093.480, 5836.000
1094.715, 5825.000
1095.950, 5878.000
1097.185, 5905.000
1098.419, 5836.000
1099.654, 6027.000
1100.888, 6065.000
1102.122, 5832.000
1103.356, 6083.000
1104.590, 5955.000
1105.823, 5941.000
1107.056, 6188.000
1108.289, 5988.000
1109.522, 6079.000
1110.755, 5994.000
1111.987, 5961.000
1113.219, 6041.000
1114.452, 6019.000
1115.683, 5993.000
1116.915, 5909.000
1118.146, 5875.000
1119.378, 5956.000
1120.609, 5977.000
1121.840, 5930.000
1123.070, 6053.000
1124.301, 5921.000
1125.531, 6027.000
1126.761, 6014.000
1127.991, 5942.000
1129.221, 6011.000
1130.450, 5867.000
1131.679, 6025.000
1132.909, 6005.000
1134.137, 5796.000
1135.366, 5917.000
1136.595, 5904.000
1137.823, 5835.000
1139.051, 5771.000
1140.279, 5713.000
1141.507, 5767.000
1142.734, 5675.000
1143.961, 5632.000
1145.189, 5506.000
1146.416, 5594.000
1147.642, 5459.000
1148.869, 5559.000
1150.095, 5295.000
1151.321, 5341.000
1152.547, 5259.000
1153.773, 5170.000
1154.998, 5266.000
1156.224, 5160.000
1157.449, 5031.000
1158.674, 5103.000
1159.899, 5079.000
1161.123, 5045.000
1162.348, 4969.000
1163.572, 4874.000
1164.796, 4943.000
1166.020, 4910.000
1167.243, 4867.000
1168.467, 4890.000
1169.690, 4779.000
1170.913, 4830.000
1172.136, 4773.000
1173.358, 4695.000
1174.581, 4810.000
1175.803, 4766.000
1177.025, 4667.000
1178.247, 4738.000
1179.468, 4660.000
1180.690, 4704.000
1181.911, 4698.000
1183.132, 4633.000
1184.353, 4683.000
1185.574, 4648.000
1186.794, 4618.000
1188.014, 4630.000
1189.234, 4556.000
1190.454, 4604.000
1191.674, 4514.000
1192.893, 4510.000
1194.113, 4595.000
1195.332, 4447.000
1196.551, 4523.000
1197.769, 4465.000
1198.988, 4440.000
1200.206, 4488.000
1201.424, 4490.000
1202.642, 4479.000
1203.860, 4500.000
1205.078, 4423.000
1206.295, 4469.000
1207.512, 4565.000
1208.729, 4382.000
1209.946, 4462.000
1211.162, 4423.000
1212.379, 4424.000
1213.595, 4511.000
1214.811, 4466.000
1216.027, 4522.000
1217.242, 4531.000
1218.458, 4435.000
1219.673, 4557.000
1220.888, 4451.000
1222.103, 4419.000
1223.317, 4536.000
1224.532, 4512.000
1225.746, 4510.000
1226.960, 4526.000
1228.174, 4467.000
1229.388, 4463.000
1230.601, 4476.409
1231.814, 4474.037
1233.028, 4524.000
1234.240, 4519.000
1235.453, 4566.000
1236.666, 4590.000
1237.878, 4535.000
1239.090, 4600.000
1240.302, 4571.000
1241.514, 4585.000
1242.725, 4631.000
1243.937, 4608.679
1245.148, 4546.000
1246.359, 4606.000
1247.570, 4521.000
1248.780, 4510.000
1249.990, 4562.000
1251.201, 4521.000
1252.411, 4627.000
1253.620, 4528.000
1254.830, 4515.000
1256.039, 4567.000
1257.249, 4522.000
1258.458, 4515.000
1259.667, 4597.000
1260.875, 4434.000
1262.084, 4567.000
1263.292, 4538.000
1264.500, 4585.000
1265.708, 4571.000
1266.916, 4519.000
1268.123, 4660.000
1269.330, 4655.000
1270.538, 4561.000
1271.744, 4629.000
1272.951, 4564.000
1274.158, 4617.000
1275.364, 4684.000
1276.570, 4543.000
1277.776, 4567.000
1278.982, 4642.000
1280.188, 4528.000
1281.393, 4566.000
1282.598, 4670.000
1283.803, 4572.000
1285.008, 4566.000
1286.213, 4559.000
1287.417, 4527.000
1288.621, 4646.000
1289.825, 4522.000
1291.029, 4542.000
1292.233, 4652.000
1293.436, 4571.000
1294.640, 4695.000
1295.843, 4561.000
1297.046, 4495.000
1298.248, 4649.000
1299.451, 4519.000
1300.653, 4593.000
1301.855, 4569.000
1303.057, 4492.000
1304.259, 4676.000
1305.461, 4565.000
1306.662, 4531.000
1307.863, 4651.000
1309.064, 4581.000
1310.265, 4585.000
1311.466, 4679.000
1312.666, 4521.000
1313.866, 4634.000
1315.066, 4702.000
1316.266, 4570.000
1317.466, 4704.000
1318.665, 4598.000
1319.865, 4598.000
1321.064, 4695.000
1322.263, 4617.000
1323.461, 4666.000
1324.660, 4732.000
1325.858, 4554.000
1327.056, 4736.000
1328.254, 4615.000
1329.452, 4583.000
1330.650, 4745.000
1331.847, 4660.000
1333.044, 4675.000
1334.241, 4660.000
1335.438, 4609.000
1336.635, 4654.000
1337.831, 4643.000
1339.027, 4668.000
1340.223, 4790.000
1341.419, 4597.000
1342.615, 4687.000
1343.810, 4833.000
1345.006, 4600.000
1346.201, 4673.000
1347.396, 4704.000
1348.590, 4639.000
1349.785, 4767.000
1350.979, 4726.000
1352.174, 4603.000
1353.368, 4780.000
1354.561, 4660.000
1355.755, 4711.000
1356.948, 4774.000
1358.142, 4684.000
1359.335, 4687.000
1360.527, 4829.000
1361.720, 4721.000
1362.913, 4774.000
1364.105, 4733.000
1365.297, 4749.000
1366.489, 4835.000
1367.681, 4740.000
1368.872, 4827.000
1370.063, 4879.000
1371.255, 4636.000
1372.446, 4813.000
1373.636, 4842.000
1374.827, 4720.000
1376.017, 4907.000
1377.208, 4751.000
1378.398, 4788.000
1379.587, 4922.000
1380.777, 4726.000
1381.966, 4867.000
1383.156, 4862.000
1384.345, 4693.000
1385.534, 4869.000
1386.722, 4887.000
1387.911, 4752.000
1389.099, 4948.000
1390.287, 4854.000
1391.475, 4829.000
1392.663, 4970.000
1393.851, 4766.000
1395.038, 4843.000
1396.225, 4974.000
1397.412, 4785.000
1398.599, 4933.000
1399.786, 4898.000
1400.972, 4810.000
1402.159, 4993.000
1403.345, 4861.000
1404.531, 4833.000
1405.716, 5016.000
1406.902, 4783.000
1408.087, 4918.000
1409.272, 4989.000
1410.457, 4802.000
1411.642, 5011.000
1412.827, 4903.000
1414.011, 4895.000
1415.195, 4959.000
1416.379, 4867.000
1417.563, 4928.000
1418.747, 5036.000
