##NAMES=Osumilite
##RRUFFID=R060385
##IDEAL CHEMISTRY=KFe^2+^_2_(Al_5_Si_10_)O_30_
##LOCALITY=Funtanafigu Quarry, Monte Arci, near Oristano, Sardinia
##OWNER=RRUFF
##SOURCE=Michael Scott
##DESCRIPTION=Black tabular distorted hexagonal crystals associated with colorless tridymite
##STATUS=The identification of this mineral is confirmed by single-crystal X-ray diffraction and chemical analysis.
##URL=rruff.info/R060385
##MEASURED CHEMISTRY=(K_0.72_Na_0.15_Ca_0.01_)_Σ=0.88_(Fe^2+^_1.07_Mg_0.93_Mn_0.06_)_Σ=2.06_(Al_2.69_Fe^3+^_0.31_)_Σ=3_(Si_10.28_Al_1.72_)_Σ=12_O_30_
##PIN_ID=M01656
##ORIENTATION=Laser parallel to a* (1 0 0). Fiducial mark perpendicular to laser is parallel to c [0 0 1]
152.4050, 13449.00
153.6360, 13720.00
154.8660, 13763.00
156.0960, 13966.00
157.3260, 14022.00
158.5560, 14109.00
159.7850, 14464.00
161.0150, 14526.00
162.2440, 14553.00
163.4730, 14511.00
164.7020, 14276.00
165.9310, 14140.00
167.1590, 14153.00
168.3880, 14063.00
169.6160, 14220.00
170.8440, 14077.00
172.0720, 14134.00
173.3000, 14015.00
174.5280, 14274.00
175.7550, 14137.00
176.9820, 14202.00
178.2100, 14232.00
179.4370, 14157.00
180.6630, 14398.00
181.8900, 14287.00
183.1170, 14351.00
184.3430, 14540.00
185.5690, 14378.00
186.7950, 14546.00
188.0210, 14503.00
189.2470, 14604.00
190.4720, 14674.00
191.6970, 14680.47
192.9230, 14735.42
194.1480, 14716.00
195.3730, 14748.00
196.5970, 14709.00
197.8220, 14655.00
199.0460, 14715.00
200.2700, 14729.00
201.4940, 14717.26
202.7180, 14784.00
203.9420, 14699.00
205.1660, 14793.00
206.3890, 14752.00
207.6120, 14782.00
208.8350, 14798.00
210.0580, 14655.00
211.2810, 14765.00
212.5040, 14710.00
213.7260, 14609.00
214.9480, 14735.00
216.1700, 14900.00
217.3920, 14803.00
218.6140, 14819.00
219.8360, 14900.00
221.0570, 14869.00
222.2790, 14811.00
223.5000, 14947.00
224.7210, 14954.00
225.9410, 14981.00
227.1620, 14926.00
228.3820, 14900.00
229.6030, 14897.00
230.8230, 14992.00
232.0430, 15092.00
233.2630, 15049.00
234.4820, 15179.00
235.7020, 14980.00
236.9210, 15193.00
238.1400, 15028.00
239.3590, 15140.00
240.5780, 15173.00
241.7970, 15283.00
243.0150, 15168.00
244.2340, 15234.00
245.4520, 15190.00
246.6700, 15314.00
247.8880, 15354.00
249.1060, 15248.00
250.3230, 15319.00
251.5400, 15311.00
252.7580, 15374.00
253.9750, 15383.92
255.1920, 15456.00
256.4080, 15441.00
257.6250, 15562.00
258.8410, 15670.00
260.0580, 15417.00
261.2740, 15696.00
262.4900, 15608.00
263.7050, 15666.00
264.9210, 15833.00
266.1360, 15734.00
267.3520, 15923.00
268.5670, 16062.00
269.7820, 16007.00
270.9960, 16046.00
272.2110, 16292.00
273.4250, 16026.00
274.6400, 16408.00
275.8540, 16204.00
277.0680, 16324.00
278.2810, 16442.00
279.4950, 16321.00
280.7090, 16315.00
281.9220, 16229.00
283.1350, 16235.00
284.3480, 16177.00
285.5610, 16095.00
286.7730, 16077.42
287.9860, 16111.00
289.1980, 15999.00
290.4100, 15949.00
291.6220, 15924.00
292.8340, 15830.00
294.0460, 15939.00
295.2570, 15804.00
296.4690, 15891.00
297.6800, 16010.00
298.8910, 15918.00
300.1020, 15879.00
301.3120, 15834.00
302.5230, 15791.00
303.7330, 15899.00
304.9440, 15830.00
306.1540, 16011.00
307.3630, 15933.00
308.5730, 15969.00
309.7830, 15892.00
310.9920, 15896.00
312.2010, 15950.00
313.4100, 16072.00
314.6190, 15944.00
315.8280, 16013.00
317.0370, 15886.00
318.2450, 16074.00
319.4530, 16013.00
320.6610, 16121.00
321.8690, 16303.00
323.0770, 16137.00
324.2850, 16138.00
325.4920, 16116.00
326.6990, 16144.00
327.9060, 16204.00
329.1130, 16329.00
330.3200, 16196.00
331.5270, 16481.00
332.7330, 16290.00
333.9390, 16245.00
335.1450, 16326.00
336.3510, 16283.00
337.5570, 16468.00
338.7630, 16436.00
339.9680, 16444.00
341.1740, 16411.00
342.3790, 16526.00
343.5840, 16499.00
344.7890, 16403.00
345.9930, 16545.00
347.1980, 16376.00
348.4020, 16375.00
349.6060, 16428.00
350.8100, 16501.00
352.0140, 16502.85
353.2180, 16594.00
354.4210, 16583.00
355.6250, 16513.00
356.8280, 16628.00
358.0310, 16627.00
359.2340, 16554.00
360.4360, 16440.00
361.6390, 16656.00
362.8410, 16574.00
364.0430, 16693.00
365.2450, 16680.00
366.4470, 16855.00
367.6490, 16702.00
368.8510, 16889.00
370.0520, 16903.00
371.2530, 16890.00
372.4540, 16947.00
373.6550, 16979.72
374.8560, 17119.00
376.0560, 17089.00
377.2570, 17105.00
378.4570, 17153.00
379.6570, 17116.00
380.8570, 17125.72
382.0570, 17184.00
383.2560, 17101.00
384.4560, 17111.00
385.6550, 17116.00
386.8540, 17262.00
388.0530, 17313.00
389.2520, 17263.00
390.4510, 17155.00
391.6490, 17146.00
392.8470, 17204.00
394.0450, 17009.00
395.2430, 17284.00
396.4410, 17097.00
397.6390, 17209.00
398.8360, 17257.00
400.0340, 17418.00
401.2310, 17175.00
402.4280, 17324.00
403.6250, 17252.00
404.8210, 17144.00
406.0180, 17480.00
407.2140, 17471.00
408.4100, 17394.00
409.6060, 17443.00
410.8020, 17285.00
411.9980, 17485.00
413.1930, 17373.00
414.3890, 17557.00
415.5840, 17462.00
416.7790, 17314.00
417.9740, 17504.00
419.1680, 17672.00
420.3630, 17758.00
421.5570, 17815.00
422.7510, 17586.00
423.9450, 17839.00
425.1390, 17689.00
426.3330, 17701.00
427.5270, 17902.00
428.7200, 17785.00
429.9130, 17939.00
431.1060, 17954.00
432.2990, 17987.00
433.4920, 18113.00
434.6840, 17987.00
435.8770, 18262.00
437.0690, 18077.00
438.2610, 17980.00
439.4530, 18310.00
440.6450, 18258.00
441.8360, 18231.00
443.0280, 18479.00
444.2190, 18533.00
445.4100, 18593.00
446.6010, 18661.00
447.7920, 18864.00
448.9820, 18981.00
450.1730, 19208.00
451.3630, 19546.00
452.5530, 19555.00
453.7430, 19957.00
454.9330, 20160.00
456.1230, 20403.00
457.3120, 20898.00
458.5010, 21033.00
459.6910, 21479.00
460.8800, 22057.00
462.0680, 22381.00
463.2570, 23151.00
464.4460, 23676.00
465.6340, 24260.00
466.8220, 24932.00
468.0100, 25591.00
469.1980, 26202.00
470.3860, 26933.00
471.5730, 27637.00
472.7600, 28169.00
473.9480, 28252.00
475.1350, 28336.00
476.3210, 28370.00
477.5080, 27790.00
478.6950, 27461.00
479.8810, 26693.00
481.0670, 25721.00
482.2530, 24925.00
483.4390, 23913.00
484.6250, 23004.00
485.8100, 22332.00
486.9960, 21553.00
488.1810, 21174.00
489.3660, 20584.00
490.5510, 20171.00
491.7360, 19939.00
492.9200, 19656.00
494.1050, 19715.00
495.2890, 19415.00
496.4730, 19421.00
497.6570, 19259.00
498.8400, 19295.00
500.0240, 19304.00
501.2070, 19180.45
502.3910, 19241.00
503.5740, 19077.00
504.7570, 18853.00
505.9400, 18944.00
507.1220, 19153.00
508.3050, 18750.00
509.4870, 19132.00
510.6690, 19012.00
511.8510, 19061.00
513.0330, 19178.00
514.2140, 19010.00
515.3960, 18977.00
516.5770, 19063.00
517.7580, 19127.00
518.9390, 18919.00
520.1200, 19312.00
521.3010, 19340.00
522.4810, 19112.00
523.6610, 19335.00
524.8420, 19143.00
526.0220, 19294.00
527.2010, 19213.00
528.3810, 19411.00
529.5610, 19434.00
530.7400, 19451.00
531.9190, 19489.00
533.0980, 19622.00
534.2770, 19608.00
535.4560, 19711.00
536.6340, 19674.00
537.8120, 19977.00
538.9910, 20016.00
540.1690, 19978.00
541.3460, 20106.00
542.5240, 19997.00
543.7020, 20153.00
544.8790, 20298.00
546.0560, 20151.00
547.2330, 20273.00
548.4100, 20218.00
549.5870, 20198.00
550.7630, 20104.00
551.9400, 19958.00
553.1160, 19929.00
554.2920, 19810.00
555.4680, 19731.00
556.6440, 19773.00
557.8190, 19836.00
558.9950, 19664.00
560.1700, 19694.00
561.3450, 19738.00
562.5200, 19540.00
563.6950, 19633.00
564.8690, 19617.00
566.0440, 19452.00
567.2180, 19677.00
568.3920, 19726.00
569.5660, 19558.00
570.7400, 19611.00
571.9130, 19674.00
573.0870, 19630.00
574.2600, 19669.00
575.4330, 19441.00
576.6060, 19454.00
577.7790, 19488.00
578.9520, 19466.00
580.1240, 19638.00
581.2960, 19650.00
582.4690, 19440.00
583.6410, 19702.00
584.8120, 19473.00
585.9840, 19764.00
587.1560, 19608.00
588.3270, 19662.00
589.4980, 19609.00
590.6690, 19595.00
591.8400, 19571.00
593.0110, 19708.00
594.1810, 19592.00
595.3510, 19765.00
596.5220, 19540.00
597.6920, 19554.00
598.8610, 19646.00
600.0310, 19784.00
601.2010, 19628.00
602.3700, 19795.00
603.5390, 19774.00
604.7080, 19825.00
605.8770, 19905.83
607.0460, 19802.00
608.2140, 19917.00
609.3830, 19887.00
610.5510, 19880.40
611.7190, 19932.00
612.8870, 19874.00
614.0550, 19935.00
615.2220, 19935.00
616.3900, 19903.00
617.5570, 20150.00
618.7240, 20055.00
619.8910, 20297.00
621.0580, 20374.00
622.2240, 20175.00
623.3910, 20253.00
624.5570, 20354.00
625.7230, 20470.00
626.8890, 20518.00
628.0550, 20647.00
629.2200, 20570.00
630.3860, 20606.00
631.5510, 20617.00
632.7160, 20438.00
633.8810, 20519.00
635.0460, 20383.00
636.2100, 20594.00
637.3750, 20456.00
638.5390, 20410.00
639.7030, 20556.00
640.8670, 20323.00
642.0310, 20515.00
643.1950, 20422.00
644.3580, 20443.00
645.5210, 20440.00
646.6850, 20406.00
647.8480, 20360.00
649.0100, 20361.00
650.1730, 20307.00
651.3350, 20335.00
652.4980, 20468.00
653.6600, 20539.00
654.8220, 20399.00
655.9840, 20218.00
657.1450, 20289.00
658.3070, 20380.00
659.4680, 20463.00
660.6300, 20532.00
661.7910, 20290.00
662.9510, 20491.00
664.1120, 20251.00
665.2730, 20590.00
666.4330, 20475.07
667.5930, 20721.00
668.7530, 20353.00
669.9130, 20571.00
671.0730, 20406.00
672.2320, 20500.00
673.3920, 20461.00
674.5510, 20321.00
675.7100, 20451.00
676.8690, 20438.00
678.0280, 20421.00
679.1860, 20333.00
680.3450, 20427.00
681.5030, 20574.00
682.6610, 20455.00
683.8190, 20718.00
684.9770, 20535.00
686.1340, 20590.00
687.2920, 20614.00
688.4490, 20540.00
689.6060, 20516.00
690.7630, 20481.00
691.9200, 20495.00
693.0760, 20595.00
694.2330, 20573.00
695.3890, 20660.00
696.5450, 20662.00
697.7010, 20681.00
698.8570, 20698.00
700.0130, 20692.00
701.1680, 20823.00
702.3230, 20604.00
703.4780, 20604.00
704.6330, 20826.00
705.7880, 20708.00
706.9430, 20746.00
708.0970, 20804.00
709.2520, 21002.00
710.4060, 20756.00
711.5600, 20746.00
712.7140, 20951.00
713.8670, 20807.00
715.0210, 20799.00
716.1740, 20918.00
717.3270, 20830.00
718.4800, 21058.00
719.6330, 20900.00
720.7860, 21130.00
721.9380, 20916.00
723.0910, 21078.00
724.2430, 20935.00
725.3950, 20794.00
726.5470, 20799.00
727.6980, 20820.56
728.8500, 20776.00
730.0010, 20984.00
731.1530, 21093.00
732.3040, 21111.00
733.4550, 21210.00
734.6050, 21222.10
735.7560, 21276.52
736.9060, 21186.00
738.0560, 21309.00
739.2060, 21176.00
740.3560, 21060.00
741.5060, 21181.00
742.6560, 21265.00
743.8050, 21222.00
744.9540, 21201.00
746.1030, 21114.00
747.2520, 21247.00
748.4010, 21177.00
749.5500, 21208.47
750.6980, 21265.00
751.8460, 21285.00
752.9950, 21385.00
754.1420, 21522.00
755.2900, 21368.00
756.4380, 21678.00
757.5850, 21377.00
758.7330, 21305.00
759.8800, 21513.00
761.0270, 21424.00
762.1730, 21582.00
763.3200, 21499.00
764.4670, 21513.00
765.6130, 21670.00
766.7590, 21431.00
767.9050, 21507.00
769.0510, 21548.00
770.1960, 21756.00
771.3420, 21536.00
772.4870, 21426.00
773.6320, 21748.00
774.7770, 21677.00
775.9220, 21554.00
777.0670, 21532.00
778.2110, 21606.00
779.3560, 21579.94
780.5000, 21698.00
781.6440, 21667.00
782.7880, 21705.00
783.9320, 21752.00
785.0750, 21736.00
786.2180, 21778.00
787.3620, 21881.00
788.5050, 21921.00
789.6480, 21965.00
790.7900, 21982.01
791.9330, 22019.85
793.0750, 21970.00
794.2170, 22054.00
795.3590, 22053.00
796.5010, 22019.00
797.6430, 21922.00
798.7850, 21972.00
799.9260, 22032.00
801.0670, 22172.00
802.2080, 22112.00
803.3490, 21936.00
804.4900, 22124.00
805.6310, 22045.00
806.7710, 22103.00
807.9110, 22039.00
809.0510, 22070.00
810.1910, 22055.00
811.3310, 21979.00
812.4710, 21995.11
813.6100, 22063.50
814.7490, 22009.00
815.8880, 22274.00
817.0270, 22411.00
818.1660, 22540.00
819.3050, 22625.95
820.4430, 22711.00
821.5820, 22670.00
822.7200, 22700.00
823.8580, 22671.00
824.9950, 22748.00
826.1330, 22927.00
827.2710, 22754.00
828.4080, 22882.00
829.5450, 23015.00
830.6820, 22825.00
831.8190, 22636.00
832.9560, 22571.00
834.0920, 22610.00
835.2280, 22564.00
836.3650, 22653.00
837.5010, 22445.00
838.6360, 22303.00
839.7720, 22400.00
840.9080, 22528.00
842.0430, 22557.00
843.1780, 22592.00
844.3130, 22557.00
845.4480, 22444.00
846.5830, 22714.00
847.7170, 22620.00
848.8520, 22607.00
849.9860, 22327.00
851.1200, 22645.00
852.2540, 22563.00
853.3870, 22576.00
854.5210, 22683.00
855.6540, 22721.00
856.7880, 22793.00
857.9210, 22668.00
859.0540, 22708.00
860.1860, 22822.00
861.3190, 22717.00
862.4510, 22869.00
863.5840, 22846.00
864.7160, 22691.00
865.8480, 22883.00
866.9790, 22919.00
868.1110, 22800.00
869.2420, 22664.00
870.3740, 22942.00
871.5050, 22854.00
872.6360, 22882.00
873.7660, 22925.00
874.8970, 22993.00
876.0280, 23135.00
877.1580, 22932.00
878.2880, 23030.00
879.4180, 23067.00
880.5480, 22891.00
881.6770, 23221.00
882.8070, 23071.00
883.9360, 23045.00
885.0650, 23081.00
886.1940, 23174.00
887.3230, 23045.00
888.4520, 23054.00
889.5800, 23146.00
890.7090, 23092.00
891.8370, 23181.00
892.9650, 23273.00
894.0930, 23239.00
895.2200, 23239.00
896.3480, 23405.00
897.4750, 23280.00
898.6020, 23491.00
899.7290, 23337.00
900.8560, 23195.00
901.9830, 23520.00
903.1090, 23337.00
904.2360, 23464.00
905.3620, 23522.00
906.4880, 23572.00
907.6140, 23479.00
908.7400, 23423.00
909.8650, 23401.00
910.9900, 23539.00
912.1160, 23499.00
913.2410, 23535.00
914.3660, 23353.00
915.4900, 23608.00
916.6150, 23688.00
917.7390, 23522.00
918.8640, 23792.00
919.9880, 23805.00
921.1120, 23789.00
922.2350, 23763.00
923.3590, 23739.00
924.4820, 23745.65
925.6060, 23800.00
926.7290, 23746.00
927.8520, 23816.00
928.9740, 23787.00
930.0970, 23856.00
931.2190, 24039.00
932.3420, 23984.00
933.4640, 23989.00
934.5860, 24118.00
935.7080, 23961.00
936.8290, 24046.00
937.9510, 24088.00
939.0720, 24159.00
940.1930, 24034.00
941.3140, 24078.00
942.4350, 24096.00
943.5560, 24208.00
944.6760, 24036.00
945.7960, 24021.00
946.9170, 24253.00
948.0370, 24092.00
949.1560, 24312.00
950.2760, 24152.00
951.3960, 24188.00
952.5150, 24243.00
953.6340, 24209.25
954.7530, 24320.00
955.8720, 24267.00
956.9910, 24357.00
958.1090, 24387.00
959.2280, 24149.00
960.3460, 24512.00
961.4640, 24324.00
962.5820, 24476.00
963.6990, 24298.00
964.8170, 24497.00
965.9340, 24501.00
967.0510, 24590.00
968.1690, 24674.00
969.2850, 24746.00
970.4020, 24702.62
971.5190, 24455.00
972.6350, 24574.00
973.7510, 24423.00
974.8670, 24357.00
975.9830, 24702.00
977.0990, 24601.00
978.2150, 24453.00
979.3300, 24499.00
980.4450, 24703.00
981.5600, 24566.00
982.6750, 24772.00
983.7900, 24808.00
984.9050, 24924.00
986.0190, 24810.00
987.1340, 24965.00
988.2480, 24641.00
989.3620, 24802.00
990.4750, 25147.00
991.5890, 24879.00
992.7020, 24825.00
993.8160, 24796.00
994.9290, 24833.00
996.0420, 24788.00
997.1550, 24900.00
998.2670, 25052.00
999.3800, 25103.00
1000.492, 25097.00
1001.604, 25234.00
1002.716, 25333.00
1003.828, 25248.00
1004.940, 25086.00
1006.051, 24927.00
1007.163, 25304.00
1008.274, 25081.00
1009.385, 25138.00
1010.496, 25101.00
1011.606, 25172.00
1012.717, 25184.00
1013.827, 25174.00
1014.937, 25299.00
1016.047, 25295.00
1017.157, 25327.00
1018.267, 25122.00
1019.377, 25224.00
1020.486, 25160.00
1021.595, 25174.00
1022.704, 25384.00
1023.813, 25170.00
1024.922, 25526.00
1026.030, 25375.00
1027.139, 25442.00
1028.247, 25453.00
1029.355, 25298.00
1030.463, 25380.00
1031.571, 25205.00
1032.678, 25286.00
1033.786, 25552.00
1034.893, 25549.00
1036.000, 25450.00
1037.107, 25517.00
1038.214, 25361.00
1039.321, 25667.00
1040.427, 25441.00
1041.533, 25551.00
1042.639, 25600.00
1043.745, 25555.00
1044.851, 25833.00
1045.957, 25892.00
1047.062, 25819.00
1048.168, 25984.00
1049.273, 25925.00
1050.378, 25696.00
1051.482, 25824.00
1052.587, 26120.00
1053.692, 25896.00
1054.796, 25976.00
1055.900, 26125.00
1057.004, 25986.00
1058.108, 26077.00
1059.212, 26117.00
1060.315, 26163.00
1061.418, 26374.00
1062.522, 26318.00
1063.625, 26346.00
1064.728, 26167.00
1065.830, 26410.00
1066.933, 26343.00
1068.035, 26434.00
1069.137, 26069.00
1070.239, 26437.00
1071.341, 26239.00
1072.443, 26689.00
1073.545, 26466.00
1074.646, 26521.00
1075.747, 26549.00
1076.848, 26552.00
1077.949, 26566.47
1079.050, 26571.00
1080.150, 26602.00
1081.251, 26486.00
1082.351, 26594.00
1083.451, 26546.00
1084.551, 26320.00
1085.651, 26327.00
1086.750, 26241.63
1087.850, 26635.00
1088.949, 26224.00
1090.048, 26378.00
1091.147, 26522.00
1092.246, 26282.00
1093.345, 26461.00
1094.443, 26397.00
1095.541, 26577.00
1096.639, 26420.00
1097.737, 26438.00
1098.835, 26498.00
1099.933, 26239.00
1101.030, 26763.00
1102.128, 26760.00
1103.225, 26535.00
1104.322, 26678.00
1105.419, 26564.00
1106.515, 26623.00
1107.612, 26576.00
1108.708, 26624.00
1109.804, 26640.61
1110.900, 26621.00
1111.996, 26729.00
1113.092, 26794.00
1114.187, 26926.00
1115.283, 26906.00
1116.378, 26667.00
1117.473, 26923.00
1118.568, 26727.00
1119.662, 26963.00
1120.757, 26927.00
1121.851, 27040.00
1122.946, 26954.00
1124.040, 26963.00
1125.134, 26771.00
1126.227, 26892.00
1127.321, 26943.00
1128.414, 27076.00
1129.508, 27047.00
1130.601, 27019.00
1131.693, 26821.00
1132.786, 27142.00
1133.879, 27048.00
1134.971, 27330.00
1136.064, 26998.00
1137.156, 27090.00
1138.248, 27342.00
1139.339, 27259.00
1140.431, 27362.00
1141.522, 27261.00
1142.614, 27396.00
1143.705, 27390.00
1144.796, 27521.00
1145.887, 27356.00
1146.977, 27385.00
1148.068, 27559.00
1149.158, 27734.00
1150.248, 27518.00
1151.338, 27496.00
1152.428, 27595.00
1153.518, 27668.00
1154.607, 27593.00
1155.696, 27515.00
1156.785, 27484.00
1157.874, 27842.00
1158.963, 27462.00
1160.052, 27629.00
1161.141, 27784.00
1162.229, 27635.00
1163.317, 27608.00
1164.405, 27753.00
1165.493, 27628.00
1166.581, 27765.00
1167.668, 27725.27
1168.756, 27597.00
1169.843, 27724.00
1170.930, 27752.00
1172.017, 27847.00
1173.103, 27699.00
1174.190, 27822.00
1175.276, 27812.00
1176.363, 27851.00
1177.449, 27865.49
1178.535, 27656.00
1179.620, 27794.00
1180.706, 27750.00
1181.791, 27595.00
1182.877, 27918.00
1183.962, 27804.00
1185.047, 27740.00
1186.131, 27747.00
1187.216, 27758.58
1188.300, 27795.40
1189.385, 27855.00
1190.469, 27941.00
1191.553, 27923.00
1192.637, 28018.00
1193.720, 27833.00
1194.804, 27927.00
1195.887, 28095.00
1196.970, 27943.00
1198.053, 28027.00
1199.136, 27833.00
1200.219, 27928.00
1201.301, 28029.00
1202.383, 27844.00
1203.465, 28102.00
1204.547, 28057.00
1205.629, 28063.00
1206.711, 28060.00
1207.792, 28064.00
1208.874, 28118.00
1209.955, 28057.00
1211.036, 28309.00
1212.117, 28033.00
1213.198, 28193.00
1214.278, 28239.00
1215.359, 27954.00
1216.439, 28181.00
1217.519, 28219.00
1218.599, 28274.00
1219.678, 28139.00
1220.758, 28182.00
1221.837, 28137.00
1222.917, 28110.00
1223.996, 28166.61
1225.075, 28270.00
1226.153, 28269.00
1227.232, 28399.00
1228.310, 28476.00
1229.389, 28440.00
1230.467, 28369.00
1231.545, 28429.00
1232.622, 28176.00
1233.700, 28639.00
1234.777, 28754.00
1235.855, 28540.00
1236.932, 28463.00
1238.009, 28304.00
1239.086, 28438.00
1240.162, 28609.00
1241.239, 28694.00
1242.315, 28501.00
1243.391, 28596.00
1244.467, 28526.00
1245.543, 28569.00
1246.619, 28552.00
1247.694, 28699.00
1248.769, 28812.00
1249.844, 28524.00
1250.919, 28914.00
1251.994, 28642.00
1253.069, 28658.00
1254.144, 28525.00
1255.218, 28724.00
1256.292, 28780.00
1257.366, 28792.00
1258.440, 28879.00
1259.514, 28916.75
1260.587, 29004.00
1261.661, 29032.00
1262.734, 29016.00
1263.807, 29082.78
1264.880, 28808.00
1265.952, 29062.00
1267.025, 28904.00
1268.097, 28866.00
1269.170, 28979.00
1270.242, 29210.00
1271.314, 29035.00
1272.385, 29135.00
1273.457, 29176.00
1274.528, 29038.00
1275.600, 28983.00
1276.671, 29235.00
1277.742, 29195.00
1278.812, 29226.00
1279.883, 29106.00
1280.954, 29039.00
1282.024, 29096.25
1283.094, 29236.00
1284.164, 29234.00
1285.234, 29255.00
1286.303, 29406.75
1287.373, 29205.00
1288.442, 29389.00
1289.511, 29408.00
1290.580, 29096.00
1291.649, 29134.00
1292.718, 29410.00
1293.786, 29340.00
1294.855, 29601.00
1295.923, 29274.00
1296.991, 29232.00
1298.059, 29691.00
1299.126, 28958.00
1300.194, 29307.00
1301.261, 29582.00
1302.328, 29529.00
1303.395, 29666.33
1304.462, 29671.27
1305.529, 29587.00
1306.596, 29640.00
1307.662, 29549.00
1308.728, 29575.00
1309.794, 29536.00
1310.860, 29445.00
1311.926, 29496.00
1312.991, 29814.00
1314.057, 29683.00
1315.122, 29702.00
1316.187, 29882.00
1317.252, 29619.00
