##NAMES=Osumilite
##RRUFFID=R060385
##IDEAL CHEMISTRY=KFe^2+^_2_(Al_5_Si_10_)O_30_
##LOCALITY=Funtanafigu Quarry, Monte Arci, near Oristano, Sardinia
##OWNER=RRUFF
##SOURCE=Michael Scott
##DESCRIPTION=Black tabular distorted hexagonal crystals associated with colorless tridymite
##STATUS=The identification of this mineral is confirmed by single-crystal X-ray diffraction and chemical analysis.
##URL=rruff.info/R060385
##MEASURED CHEMISTRY=(K_0.72_Na_0.15_Ca_0.01_)_Σ=0.88_(Fe^2+^_1.07_Mg_0.93_Mn_0.06_)_Σ=2.06_(Al_2.69_Fe^3+^_0.31_)_Σ=3_(Si_10.28_Al_1.72_)_Σ=12_O_30_
##PIN_ID=M01656
##ORIENTATION=Laser parallel to a* (1 0 0). Fiducial mark perpendicular to laser is parallel to c [0 0 1]
131.4640, 5148.000
132.6970, 5205.000
133.9300, 5254.000
135.1630, 5331.000
136.3950, 5353.000
137.6280, 5451.000
138.8600, 5502.000
140.0920, 5626.000
141.3240, 5655.000
142.5560, 5601.000
143.7880, 5696.000
145.0190, 5838.000
146.2510, 5998.000
147.4820, 6202.000
148.7130, 6277.000
149.9440, 6604.000
151.1750, 7032.000
152.4050, 7270.000
153.6360, 7753.000
154.8660, 8139.000
156.0960, 8558.000
157.3260, 9265.000
158.5560, 9751.000
159.7850, 10006.00
161.0150, 10276.00
162.2440, 10038.00
163.4730, 9500.000
164.7020, 8733.000
165.9310, 8174.000
167.1590, 7766.000
168.3880, 7385.000
169.6160, 7127.958
170.8440, 6924.503
172.0720, 6829.000
173.3000, 6699.000
174.5280, 6674.000
175.7550, 6627.000
176.9820, 6599.654
178.2100, 6535.000
179.4370, 6560.000
180.6630, 6635.000
181.8900, 6540.000
183.1170, 6708.000
184.3430, 6591.000
185.5690, 6619.000
186.7950, 6701.000
188.0210, 6633.000
189.2470, 6710.000
190.4720, 6810.000
191.6970, 6764.000
192.9230, 6776.000
194.1480, 6769.000
195.3730, 6792.000
196.5970, 6790.000
197.8220, 6720.000
199.0460, 6810.000
200.2700, 6957.000
201.4940, 6996.000
202.7180, 6978.000
203.9420, 6760.000
205.1660, 6774.000
206.3890, 6766.000
207.6120, 6680.000
208.8350, 6766.000
210.0580, 6744.000
211.2810, 6680.000
212.5040, 6679.000
213.7260, 6655.371
214.9480, 6748.000
216.1700, 6654.000
217.3920, 6742.000
218.6140, 6786.000
219.8360, 6799.000
221.0570, 6820.788
222.2790, 6739.000
223.5000, 6777.000
224.7210, 6758.000
225.9410, 6672.000
227.1620, 6771.000
228.3820, 6851.000
229.6030, 6820.000
230.8230, 6758.000
232.0430, 6810.000
233.2630, 6842.000
234.4820, 6884.000
235.7020, 6891.194
236.9210, 6891.000
238.1400, 6869.000
239.3590, 6921.000
240.5780, 6862.000
241.7970, 6916.000
243.0150, 6895.000
244.2340, 6893.000
245.4520, 6904.000
246.6700, 6998.000
247.8880, 7137.000
249.1060, 7013.000
250.3230, 7186.000
251.5400, 7051.000
252.7580, 7033.000
253.9750, 7175.000
255.1920, 7155.000
256.4080, 7312.000
257.6250, 7326.000
258.8410, 7341.000
260.0580, 7368.000
261.2740, 7510.000
262.4900, 7578.000
263.7050, 7684.000
264.9210, 7671.000
266.1360, 7832.000
267.3520, 7941.000
268.5670, 7956.000
269.7820, 8164.000
270.9960, 8382.000
272.2110, 8400.000
273.4250, 8489.000
274.6400, 8512.000
275.8540, 8710.000
277.0680, 8865.000
278.2810, 8734.000
279.4950, 8859.000
280.7090, 8802.000
281.9220, 8677.000
283.1350, 8642.000
284.3480, 8425.000
285.5610, 8271.000
286.7730, 8263.000
287.9860, 8087.000
289.1980, 7986.000
290.4100, 7924.000
291.6220, 7746.000
292.8340, 7654.000
294.0460, 7587.000
295.2570, 7541.000
296.4690, 7482.000
297.6800, 7410.000
298.8910, 7430.000
300.1020, 7364.000
301.3120, 7361.000
302.5230, 7393.000
303.7330, 7441.000
304.9440, 7342.000
306.1540, 7422.000
307.3630, 7307.000
308.5730, 7359.000
309.7830, 7422.000
310.9920, 7274.000
312.2010, 7406.000
313.4100, 7555.000
314.6190, 7375.000
315.8280, 7392.000
317.0370, 7450.000
318.2450, 7477.000
319.4530, 7462.000
320.6610, 7471.000
321.8690, 7415.000
323.0770, 7518.000
324.2850, 7513.000
325.4920, 7530.000
326.6990, 7615.000
327.9060, 7593.000
329.1130, 7626.815
330.3200, 7654.000
331.5270, 7659.000
332.7330, 7699.979
333.9390, 7653.000
335.1450, 7756.000
336.3510, 7793.000
337.5570, 7803.000
338.7630, 7708.000
339.9680, 8063.000
341.1740, 7852.000
342.3790, 7916.000
343.5840, 7709.000
344.7890, 7818.000
345.9930, 7760.000
347.1980, 7711.000
348.4020, 7639.000
349.6060, 7620.000
350.8100, 7551.000
352.0140, 7435.000
353.2180, 7454.521
354.4210, 7546.000
355.6250, 7439.000
356.8280, 7468.000
358.0310, 7444.000
359.2340, 7446.000
360.4360, 7433.000
361.6390, 7437.854
362.8410, 7412.000
364.0430, 7458.000
365.2450, 7472.000
366.4470, 7490.000
367.6490, 7464.000
368.8510, 7630.000
370.0520, 7524.000
371.2530, 7575.000
372.4540, 7746.000
373.6550, 7676.000
374.8560, 7655.000
376.0560, 7680.000
377.2570, 7645.000
378.4570, 7687.449
379.6570, 7687.000
380.8570, 7732.000
382.0570, 7760.000
383.2560, 7715.000
384.4560, 7947.000
385.6550, 7813.000
386.8540, 7872.000
388.0530, 7730.000
389.2520, 7949.000
390.4510, 7783.000
391.6490, 7753.000
392.8470, 7886.000
394.0450, 7793.000
395.2430, 7766.000
396.4410, 7832.000
397.6390, 7813.000
398.8360, 7715.000
400.0340, 7875.000
401.2310, 7851.000
402.4280, 7730.000
403.6250, 7738.000
404.8210, 7767.000
406.0180, 7823.000
407.2140, 7914.000
408.4100, 7877.000
409.6060, 7893.000
410.8020, 7912.000
411.9980, 8056.000
413.1930, 8076.000
414.3890, 8089.000
415.5840, 8125.551
416.7790, 8094.000
417.9740, 8129.000
419.1680, 8151.000
420.3630, 8185.000
421.5570, 8224.880
422.7510, 8286.549
423.9450, 8346.000
425.1390, 8448.000
426.3330, 8521.900
427.5270, 8719.000
428.7200, 8706.000
429.9130, 8848.000
431.1060, 8950.000
432.2990, 8953.000
433.4920, 9056.000
434.6840, 9143.000
435.8770, 9232.000
437.0690, 9449.000
438.2610, 9467.000
439.4530, 9619.000
440.6450, 9878.000
441.8360, 10007.00
443.0280, 10316.00
444.2190, 10451.00
445.4100, 10775.00
446.6010, 11165.00
447.7920, 11470.00
448.9820, 11895.00
450.1730, 12641.00
451.3630, 13182.00
452.5530, 13922.00
453.7430, 14670.00
454.9330, 15559.00
456.1230, 16647.00
457.3120, 17735.00
458.5010, 19139.00
459.6910, 20621.00
460.8800, 22329.00
462.0680, 23957.00
463.2570, 26001.00
464.4460, 28194.00
465.6340, 30226.00
466.8220, 33165.00
468.0100, 35703.00
469.1980, 38285.00
470.3860, 40870.00
471.5730, 43180.00
472.7600, 45597.00
473.9480, 47081.00
475.1350, 47613.00
476.3210, 47595.00
477.5080, 46703.00
478.6950, 44365.00
479.8810, 41537.00
481.0670, 38046.00
482.2530, 34586.00
483.4390, 30655.00
484.6250, 27234.00
485.8100, 23905.00
486.9960, 21289.00
488.1810, 19123.00
489.3660, 17376.00
490.5510, 15538.00
491.7360, 14394.00
492.9200, 13391.00
494.1050, 12584.00
495.2890, 11847.05
496.4730, 11266.74
497.6570, 10793.00
498.8400, 10424.00
500.0240, 10158.00
501.2070, 9920.000
502.3910, 9843.000
503.5740, 9586.000
504.7570, 9531.000
505.9400, 9384.000
507.1220, 9285.000
508.3050, 9174.000
509.4870, 9046.000
510.6690, 9008.000
511.8510, 8936.000
513.0330, 8946.000
514.2140, 8973.000
515.3960, 9011.000
516.5770, 8842.000
517.7580, 8967.000
518.9390, 8933.000
520.1200, 8917.000
521.3010, 8989.000
522.4810, 8945.000
523.6610, 8841.000
524.8420, 9003.000
526.0220, 9090.000
527.2010, 9058.000
528.3810, 9251.000
529.5610, 9222.000
530.7400, 9320.000
531.9190, 9430.000
533.0980, 9404.000
534.2770, 9552.000
535.4560, 9598.000
536.6340, 9830.000
537.8120, 10047.00
538.9910, 10102.00
540.1690, 10378.00
541.3460, 10629.00
542.5240, 10594.00
543.7020, 10793.00
544.8790, 10887.00
546.0560, 10844.00
547.2330, 10999.00
548.4100, 10649.00
549.5870, 10768.00
550.7630, 10563.00
551.9400, 10253.00
553.1160, 10052.00
554.2920, 9647.000
555.4680, 9407.000
556.6440, 9272.000
557.8190, 9153.000
558.9950, 8943.000
560.1700, 8858.000
561.3450, 8756.000
562.5200, 8644.000
563.6950, 8676.000
564.8690, 8497.000
566.0440, 8521.000
567.2180, 8577.000
568.3920, 8355.000
569.5660, 8360.000
570.7400, 8360.000
571.9130, 8301.000
573.0870, 8314.409
574.2600, 8264.000
575.4330, 8303.000
576.6060, 8226.000
577.7790, 8226.000
578.9520, 8262.000
580.1240, 8260.000
581.2960, 8219.000
582.4690, 8129.000
583.6410, 8165.000
584.8120, 8187.000
585.9840, 8234.000
587.1560, 8167.000
588.3270, 8118.000
589.4980, 8286.000
590.6690, 8134.000
591.8400, 8179.000
593.0110, 8097.000
594.1810, 8063.000
595.3510, 8120.000
596.5220, 8107.000
597.6920, 8053.000
598.8610, 8229.000
600.0310, 8185.000
601.2010, 8192.000
602.3700, 8182.000
603.5390, 8161.125
604.7080, 8191.152
605.8770, 8180.000
607.0460, 8208.000
608.2140, 8320.000
609.3830, 8263.000
610.5510, 8322.000
611.7190, 8380.000
612.8870, 8343.000
614.0550, 8421.000
615.2220, 8497.000
616.3900, 8580.000
617.5570, 8601.103
618.7240, 8653.492
619.8910, 8639.000
621.0580, 8759.000
622.2240, 8799.000
623.3910, 8959.000
624.5570, 9041.000
625.7230, 9095.000
626.8890, 9157.000
628.0550, 9234.000
629.2200, 9261.000
630.3860, 9370.000
631.5510, 9364.000
632.7160, 9359.000
633.8810, 9337.000
635.0460, 9379.000
636.2100, 9245.000
637.3750, 9198.000
638.5390, 9243.000
639.7030, 9075.000
640.8670, 8981.000
642.0310, 8914.000
643.1950, 8888.000
644.3580, 8812.780
645.5210, 8701.000
646.6850, 8707.000
647.8480, 8659.000
649.0100, 8603.000
650.1730, 8596.000
651.3350, 8551.000
652.4980, 8603.000
653.6600, 8522.000
654.8220, 8394.000
655.9840, 8437.000
657.1450, 8362.000
658.3070, 8428.000
659.4680, 8396.000
660.6300, 8455.000
661.7910, 8411.013
662.9510, 8314.000
664.1120, 8331.000
665.2730, 8284.000
666.4330, 8263.000
667.5930, 8294.000
668.7530, 8185.000
669.9130, 8186.000
671.0730, 8259.000
672.2320, 8162.000
673.3920, 8194.000
674.5510, 8255.000
675.7100, 8129.000
676.8690, 8100.000
678.0280, 8220.000
679.1860, 8099.000
680.3450, 8089.000
681.5030, 8176.000
682.6610, 8113.000
683.8190, 8216.000
684.9770, 8127.000
686.1340, 8109.000
687.2920, 8103.000
688.4490, 8035.000
689.6060, 8072.000
690.7630, 7999.000
691.9200, 8001.000
693.0760, 8027.000
694.2330, 8039.000
695.3890, 8061.000
696.5450, 8077.288
697.7010, 8085.091
698.8570, 8107.000
700.0130, 8093.000
701.1680, 8101.000
702.3230, 8091.000
703.4780, 7924.000
704.6330, 8100.000
705.7880, 7941.000
706.9430, 8046.000
708.0970, 7939.000
709.2520, 7964.000
710.4060, 8038.000
711.5600, 7878.000
712.7140, 7971.000
713.8670, 7960.000
715.0210, 7932.000
716.1740, 7934.000
717.3270, 7781.000
718.4800, 7927.000
719.6330, 7914.000
720.7860, 7782.000
721.9380, 7890.000
723.0910, 7927.000
724.2430, 7786.000
725.3950, 7920.000
726.5470, 7853.000
727.6980, 7898.000
728.8500, 8061.000
730.0010, 7988.000
731.1530, 7864.000
732.3040, 7874.000
733.4550, 7919.000
734.6050, 7938.000
735.7560, 7933.514
736.9060, 7897.000
738.0560, 7933.000
739.2060, 7878.000
740.3560, 7910.000
741.5060, 7925.000
742.6560, 7911.000
743.8050, 7912.000
744.9540, 7890.000
746.1030, 7974.000
747.2520, 7953.000
748.4010, 7928.000
749.5500, 8006.000
750.6980, 7962.000
751.8460, 8012.000
752.9950, 7943.000
754.1420, 7911.000
755.2900, 7929.000
756.4380, 7915.000
757.5850, 7901.000
758.7330, 7939.000
759.8800, 7944.000
761.0270, 7945.000
762.1730, 7958.000
763.3200, 7889.000
764.4670, 7854.000
765.6130, 7993.000
766.7590, 7904.000
767.9050, 8049.000
769.0510, 7897.000
770.1960, 7921.000
771.3420, 7915.000
772.4870, 7955.000
773.6320, 8036.000
774.7770, 7953.000
775.9220, 8008.000
777.0670, 7867.000
778.2110, 8007.000
779.3560, 7926.000
780.5000, 8046.000
781.6440, 7927.000
782.7880, 8096.000
783.9320, 8037.000
785.0750, 8069.000
786.2180, 7954.000
787.3620, 8012.000
788.5050, 8077.000
789.6480, 8015.000
790.7900, 7963.000
791.9330, 8134.000
793.0750, 7995.000
794.2170, 7995.000
795.3590, 8014.000
796.5010, 7990.000
797.6430, 8021.000
798.7850, 8029.000
799.9260, 8044.968
801.0670, 8055.941
802.2080, 8106.000
803.3490, 8072.000
804.4900, 8126.000
805.6310, 8144.000
806.7710, 8154.653
807.9110, 8268.000
809.0510, 8240.000
810.1910, 8312.000
811.3310, 8451.000
812.4710, 8443.000
813.6100, 8558.000
814.7490, 8530.000
815.8880, 8725.000
817.0270, 8889.000
818.1660, 9002.000
819.3050, 9263.589
820.4430, 9441.000
821.5820, 9777.000
822.7200, 10046.00
823.8580, 10356.00
824.9950, 10625.00
826.1330, 10687.65
827.2710, 10837.00
828.4080, 10679.00
829.5450, 10420.00
830.6820, 10245.00
831.8190, 9715.000
832.9560, 9441.000
834.0920, 9037.000
835.2280, 8915.000
836.3650, 8799.000
837.5010, 8616.000
838.6360, 8527.000
839.7720, 8485.000
840.9080, 8395.000
842.0430, 8378.000
843.1780, 8434.000
844.3130, 8214.000
845.4480, 8197.000
846.5830, 8404.000
847.7170, 8294.000
848.8520, 8146.000
849.9860, 8321.000
851.1200, 8208.000
852.2540, 8242.000
853.3870, 8292.000
854.5210, 8265.000
855.6540, 8282.000
856.7880, 8189.000
857.9210, 8217.000
859.0540, 8199.706
860.1860, 8324.000
861.3190, 8200.000
862.4510, 8259.000
863.5840, 8263.000
864.7160, 8199.000
865.8480, 8233.000
866.9790, 8304.000
868.1110, 8268.000
869.2420, 8284.000
870.3740, 8345.000
871.5050, 8184.000
872.6360, 8271.000
873.7660, 8164.000
874.8970, 8177.000
876.0280, 8243.000
877.1580, 8120.000
878.2880, 8339.000
879.4180, 8392.000
880.5480, 8282.000
881.6770, 8333.000
882.8070, 8213.000
883.9360, 8335.000
885.0650, 8263.000
886.1940, 8276.000
887.3230, 8193.000
888.4520, 8229.000
889.5800, 8341.000
890.7090, 8294.000
891.8370, 8339.000
892.9650, 8328.571
894.0930, 8316.656
895.2200, 8277.000
896.3480, 8314.000
897.4750, 8289.000
898.6020, 8319.000
899.7290, 8277.000
900.8560, 8164.000
901.9830, 8391.000
903.1090, 8245.000
904.2360, 8342.000
905.3620, 8348.000
906.4880, 8304.000
907.6140, 8283.000
908.7400, 8369.000
909.8650, 8333.000
910.9900, 8176.000
912.1160, 8382.000
913.2410, 8269.000
914.3660, 8306.579
915.4900, 8459.000
916.6150, 8366.000
917.7390, 8354.000
918.8640, 8426.000
919.9880, 8561.000
921.1120, 8319.000
922.2350, 8344.000
923.3590, 8426.000
924.4820, 8346.000
925.6060, 8494.000
926.7290, 8295.000
927.8520, 8419.000
928.9740, 8395.000
930.0970, 8467.000
931.2190, 8470.000
932.3420, 8531.000
933.4640, 8465.000
934.5860, 8483.000
935.7080, 8385.000
936.8290, 8383.000
937.9510, 8434.000
939.0720, 8419.000
940.1930, 8435.924
941.3140, 8429.000
942.4350, 8438.000
943.5560, 8451.000
944.6760, 8432.000
945.7960, 8403.000
946.9170, 8393.893
948.0370, 8377.000
949.1560, 8381.000
950.2760, 8405.000
951.3960, 8470.000
952.5150, 8370.000
953.6340, 8478.000
954.7530, 8403.000
955.8720, 8414.000
956.9910, 8618.000
958.1090, 8442.000
959.2280, 8440.000
960.3460, 8397.000
961.4640, 8521.000
962.5820, 8475.000
963.6990, 8545.000
964.8170, 8394.000
965.9340, 8624.000
967.0510, 8556.000
968.1690, 8473.000
969.2850, 8555.000
970.4020, 8596.000
971.5190, 8477.000
972.6350, 8534.000
973.7510, 8531.000
974.8670, 8592.000
975.9830, 8582.000
977.0990, 8645.000
978.2150, 8529.000
979.3300, 8664.000
980.4450, 8609.000
981.5600, 8552.000
982.6750, 8705.000
983.7900, 8674.000
984.9050, 8662.000
986.0190, 8639.000
987.1340, 8682.000
988.2480, 8667.000
989.3620, 8760.000
990.4750, 8707.000
991.5890, 8759.000
992.7020, 8730.000
993.8160, 8779.000
994.9290, 8728.000
996.0420, 8827.000
997.1550, 8673.000
998.2670, 8711.000
999.3800, 8767.000
1000.492, 8693.000
1001.604, 8737.000
1002.716, 8771.000
1003.828, 8788.000
1004.940, 8783.000
1006.051, 8706.000
1007.163, 8748.000
1008.274, 8718.000
1009.385, 8753.000
1010.496, 8723.000
1011.606, 8786.000
1012.717, 8781.000
1013.827, 8765.000
1014.937, 8757.000
1016.047, 8796.000
1017.157, 8837.000
1018.267, 8656.000
1019.377, 8774.000
1020.486, 8730.000
1021.595, 8737.000
1022.704, 8924.000
1023.813, 8835.000
1024.922, 8878.000
1026.030, 8855.000
1027.139, 8894.000
1028.247, 8972.000
1029.355, 8886.000
1030.463, 8955.000
1031.571, 8959.000
1032.678, 8945.000
1033.786, 8991.940
1034.893, 8970.000
1036.000, 9036.000
1037.107, 9032.000
1038.214, 9043.000
1039.321, 9141.000
1040.427, 9031.000
1041.533, 9153.000
1042.639, 9192.000
1043.745, 9199.000
1044.851, 9294.000
1045.957, 9271.000
1047.062, 9363.000
1048.168, 9377.000
1049.273, 9477.000
1050.378, 9403.000
1051.482, 9571.000
1052.587, 9460.000
1053.692, 9668.000
1054.796, 9708.000
1055.900, 9672.000
1057.004, 9644.000
1058.108, 9764.000
1059.212, 9878.000
1060.315, 9960.000
1061.418, 9907.000
1062.522, 10054.00
1063.625, 10001.00
1064.728, 9982.000
1065.830, 10218.00
1066.933, 10284.00
1068.035, 10343.00
1069.137, 10309.00
1070.239, 10250.00
1071.341, 10311.00
1072.443, 10305.00
1073.545, 10269.00
1074.646, 10384.00
1075.747, 10352.00
1076.848, 10252.00
1077.949, 10148.00
1079.050, 10006.00
1080.150, 10026.00
1081.251, 9883.000
1082.351, 9681.000
1083.451, 9704.000
1084.551, 9577.000
1085.651, 9621.000
1086.750, 9439.000
1087.850, 9357.000
1088.949, 9257.000
1090.048, 9221.000
1091.147, 9071.000
1092.246, 9164.000
1093.345, 9156.000
1094.443, 9081.000
1095.541, 9003.000
1096.639, 9006.000
1097.737, 8850.000
1098.835, 8893.000
1099.933, 8966.000
1101.030, 9060.000
1102.128, 8925.000
1103.225, 9011.000
1104.322, 8994.000
1105.419, 9071.000
1106.515, 9008.000
1107.612, 9076.000
1108.708, 9117.000
1109.804, 9080.000
1110.900, 9142.000
1111.996, 9153.000
1113.092, 9047.000
1114.187, 9082.000
1115.283, 9147.000
1116.378, 9050.000
1117.473, 9129.000
1118.568, 9084.000
1119.662, 9144.000
1120.757, 9184.000
1121.851, 9311.000
1122.946, 9302.788
1124.040, 9312.000
1125.134, 9309.000
1126.227, 9304.000
1127.321, 9271.000
1128.414, 9284.497
1129.508, 9280.909
1130.601, 9301.000
1131.693, 9318.000
1132.786, 9342.000
1133.879, 9361.372
1134.971, 9371.771
1136.064, 9402.000
1137.156, 9387.000
1138.248, 9400.304
1139.339, 9401.022
1140.431, 9425.000
1141.522, 9432.000
1142.614, 9456.000
1143.705, 9491.000
1144.796, 9428.000
1145.887, 9532.000
1146.977, 9450.000
1148.068, 9434.000
1149.158, 9617.000
1150.248, 9549.000
1151.338, 9632.000
1152.428, 9527.000
1153.518, 9765.000
1154.607, 9596.000
1155.696, 9639.000
1156.785, 9603.000
1157.874, 9723.000
1158.963, 9810.000
1160.052, 9671.000
1161.141, 9547.000
1162.229, 9567.000
1163.317, 9599.000
1164.405, 9526.000
1165.493, 9450.000
1166.581, 9579.000
1167.668, 9529.000
1168.756, 9565.000
1169.843, 9500.000
1170.930, 9406.000
1172.017, 9437.000
1173.103, 9389.000
1174.190, 9254.000
1175.276, 9321.000
1176.363, 9253.000
1177.449, 9213.586
1178.535, 9226.000
1179.620, 9150.000
1180.706, 9066.000
1181.791, 9046.000
1182.877, 9129.000
1183.962, 9173.000
1185.047, 9187.000
1186.131, 9179.894
1187.216, 9162.000
1188.300, 9139.000
1189.385, 9098.114
1190.469, 9022.000
1191.553, 9022.000
1192.637, 9020.000
1193.720, 9034.000
1194.804, 9090.000
1195.887, 9125.000
1196.970, 8964.000
1198.053, 8931.000
1199.136, 8964.000
1200.219, 9062.000
1201.301, 9167.000
1202.383, 9013.000
1203.465, 9020.000
1204.547, 9007.000
1205.629, 8946.000
1206.711, 9002.000
1207.792, 9013.000
1208.874, 8957.000
1209.955, 8988.631
1211.036, 8948.250
1212.117, 8983.000
1213.198, 8884.000
1214.278, 8885.000
1215.359, 8839.000
1216.439, 8844.000
1217.519, 8973.000
1218.599, 8835.000
1219.678, 8898.000
1220.758, 8961.000
1221.837, 8894.000
1222.917, 8851.000
1223.996, 8863.000
1225.075, 8793.443
1226.153, 8792.000
1227.232, 8699.000
1228.310, 8721.000
1229.389, 8668.000
1230.467, 8730.000
1231.545, 8715.000
1232.622, 8713.000
1233.700, 8781.000
1234.777, 8738.000
1235.855, 8551.000
1236.932, 8763.000
1238.009, 8724.000
1239.086, 8607.000
1240.162, 8744.000
1241.239, 8731.000
1242.315, 8599.000
1243.391, 8876.000
1244.467, 8738.000
1245.543, 8726.000
1246.619, 8715.000
1247.694, 8820.000
1248.769, 8743.000
1249.844, 8760.000
1250.919, 8763.000
1251.994, 8731.440
1253.069, 8751.000
1254.144, 8719.000
1255.218, 8724.000
1256.292, 8742.000
1257.366, 8855.000
1258.440, 8761.000
1259.514, 8739.000
1260.587, 8776.000
1261.661, 8584.000
1262.734, 8851.000
1263.807, 8814.000
1264.880, 8707.000
1265.952, 8776.000
1267.025, 8767.000
1268.097, 8672.000
1269.170, 8740.000
1270.242, 8675.000
1271.314, 8781.000
1272.385, 8723.000
1273.457, 8617.000
1274.528, 8787.000
1275.600, 8804.000
1276.671, 8753.000
1277.742, 8741.000
1278.812, 8743.000
1279.883, 8752.000
1280.954, 8705.000
1282.024, 8724.000
1283.094, 8669.000
1284.164, 8776.000
1285.234, 8717.785
1286.303, 8817.000
1287.373, 8662.000
1288.442, 8762.000
1289.511, 8725.000
1290.580, 8645.000
1291.649, 8719.000
1292.718, 8815.000
1293.786, 8797.000
1294.855, 8745.000
1295.923, 8747.000
1296.991, 8708.000
1298.059, 8891.000
1299.126, 8773.000
