##NAMES=Osumilite
##RRUFFID=R060385
##IDEAL CHEMISTRY=KFe^2+^_2_(Al_5_Si_10_)O_30_
##LOCALITY=Funtanafigu Quarry, Monte Arci, near Oristano, Sardinia
##OWNER=RRUFF
##SOURCE=Michael Scott
##DESCRIPTION=Black tabular distorted hexagonal crystals associated with colorless tridymite
##STATUS=The identification of this mineral is confirmed by single-crystal X-ray diffraction and chemical analysis.
##URL=rruff.info/R060385
##MEASURED CHEMISTRY=(K_0.72_Na_0.15_Ca_0.01_)_Σ=0.88_(Fe^2+^_1.07_Mg_0.93_Mn_0.06_)_Σ=2.06_(Al_2.69_Fe^3+^_0.31_)_Σ=3_(Si_10.28_Al_1.72_)_Σ=12_O_30_
##PIN_ID=M01364
##ORIENTATION=Laser parallel to c* (0 0 1). Fiducial mark perpendicular to laser is parallel to a [1 0 0]
141.3240, 10355.00
142.5560, 10231.00
143.7880, 10294.00
145.0190, 10598.00
146.2510, 10789.00
147.4820, 11011.00
148.7130, 11191.00
149.9440, 11419.00
151.1750, 11729.52
152.4050, 12161.00
153.6360, 12427.00
154.8660, 12846.00
156.0960, 13279.00
157.3260, 13581.00
158.5560, 13823.00
159.7850, 13907.00
161.0150, 13898.00
162.2440, 13649.00
163.4730, 13481.00
164.7020, 13071.00
165.9310, 12656.00
167.1590, 12423.00
168.3880, 12135.00
169.6160, 12022.00
170.8440, 12041.00
172.0720, 11991.00
173.3000, 11937.00
174.5280, 11893.00
175.7550, 11801.00
176.9820, 11803.85
178.2100, 11957.00
179.4370, 11816.00
180.6630, 11878.00
181.8900, 11940.00
183.1170, 11695.00
184.3430, 11988.00
185.5690, 11795.00
186.7950, 11874.00
188.0210, 11882.00
189.2470, 11867.00
190.4720, 11868.00
191.6970, 11918.00
192.9230, 11995.00
194.1480, 11891.00
195.3730, 11887.00
196.5970, 11783.00
197.8220, 11949.00
199.0460, 11915.52
200.2700, 11896.00
201.4940, 11870.00
202.7180, 11666.00
203.9420, 11345.00
205.1660, 11039.00
206.3890, 10821.00
207.6120, 10730.00
208.8350, 10584.00
210.0580, 10593.00
211.2810, 10593.00
212.5040, 10495.00
213.7260, 10518.72
214.9480, 10573.00
216.1700, 10451.00
217.3920, 10452.00
218.6140, 10328.00
219.8360, 10233.00
221.0570, 10369.00
222.2790, 10166.00
223.5000, 10214.00
224.7210, 10066.00
225.9410, 10079.00
227.1620, 10104.00
228.3820, 10123.00
229.6030, 9859.000
230.8230, 9956.000
232.0430, 9878.000
233.2630, 9820.000
234.4820, 9967.000
235.7020, 9882.000
236.9210, 9775.000
238.1400, 9790.000
239.3590, 9817.000
240.5780, 9759.000
241.7970, 9850.000
243.0150, 9705.000
244.2340, 9709.687
245.4520, 9753.000
246.6700, 9665.000
247.8880, 9657.000
249.1060, 9730.000
250.3230, 9672.000
251.5400, 9785.000
252.7580, 9739.000
253.9750, 9854.000
255.1920, 9754.000
256.4080, 9813.000
257.6250, 9826.000
258.8410, 9861.000
260.0580, 9969.000
261.2740, 10070.00
262.4900, 10274.00
263.7050, 10488.00
264.9210, 10591.00
266.1360, 10782.00
267.3520, 11015.00
268.5670, 11425.00
269.7820, 11740.00
270.9960, 12025.00
272.2110, 12340.00
273.4250, 12753.00
274.6400, 12981.00
275.8540, 13070.00
277.0680, 13218.00
278.2810, 13193.00
279.4950, 13124.00
280.7090, 12973.00
281.9220, 12564.00
283.1350, 12209.00
284.3480, 11742.00
285.5610, 11267.00
286.7730, 10838.00
287.9860, 10350.00
289.1980, 9962.000
290.4100, 9497.000
291.6220, 9239.000
292.8340, 8876.000
294.0460, 8571.000
295.2570, 8378.000
296.4690, 8017.000
297.6800, 7903.000
298.8910, 7928.000
300.1020, 7702.000
301.3120, 7720.000
302.5230, 7571.000
303.7330, 7553.000
304.9440, 7522.000
306.1540, 7321.000
307.3630, 7347.000
308.5730, 7196.000
309.7830, 7274.000
310.9920, 7240.000
312.2010, 7257.000
313.4100, 6985.000
314.6190, 7051.000
315.8280, 6938.000
317.0370, 7025.000
318.2450, 7058.000
319.4530, 6977.000
320.6610, 7025.000
321.8690, 6950.000
323.0770, 6890.000
324.2850, 6850.000
325.4920, 6853.000
326.6990, 6794.000
327.9060, 6792.471
329.1130, 6754.000
330.3200, 6765.000
331.5270, 6810.000
332.7330, 6788.000
333.9390, 6699.000
335.1450, 6694.000
336.3510, 6737.000
337.5570, 6710.000
338.7630, 6750.000
339.9680, 6801.000
341.1740, 6777.000
342.3790, 6827.000
343.5840, 6823.000
344.7890, 6885.000
345.9930, 6817.000
347.1980, 6738.000
348.4020, 6772.000
349.6060, 6791.000
350.8100, 6877.000
352.0140, 6857.000
353.2180, 6948.000
354.4210, 6895.000
355.6250, 6978.000
356.8280, 7062.000
358.0310, 7112.621
359.2340, 7219.763
360.4360, 7309.000
361.6390, 7452.000
362.8410, 7580.000
364.0430, 7776.000
365.2450, 7945.000
366.4470, 8112.000
367.6490, 8259.000
368.8510, 8573.000
370.0520, 8690.000
371.2530, 8962.000
372.4540, 9071.000
373.6550, 9206.000
374.8560, 9335.000
376.0560, 9448.000
377.2570, 9491.000
378.4570, 9531.000
379.6570, 9523.509
380.8570, 9558.000
382.0570, 9424.000
383.2560, 9389.000
384.4560, 9290.575
385.6550, 9326.000
386.8540, 9197.000
388.0530, 9000.000
389.2520, 8982.000
390.4510, 8761.000
391.6490, 8723.000
392.8470, 8572.000
394.0450, 8441.000
395.2430, 8308.000
396.4410, 8308.000
397.6390, 8074.000
398.8360, 8106.000
400.0340, 8128.000
401.2310, 7990.000
402.4280, 8023.000
403.6250, 8103.000
404.8210, 7990.000
406.0180, 8034.000
407.2140, 8069.000
408.4100, 8107.000
409.6060, 8109.000
410.8020, 8171.000
411.9980, 8214.000
413.1930, 8028.000
414.3890, 8079.000
415.5840, 8074.000
416.7790, 8118.000
417.9740, 8066.000
419.1680, 8051.000
420.3630, 8077.000
421.5570, 8191.000
422.7510, 8313.000
423.9450, 8186.000
425.1390, 8223.000
426.3330, 8155.000
427.5270, 8287.000
428.7200, 8358.000
429.9130, 8431.000
431.1060, 8399.000
432.2990, 8350.000
433.4920, 8420.000
434.6840, 8512.000
435.8770, 8413.000
437.0690, 8622.000
438.2610, 8754.000
439.4530, 8698.000
440.6450, 8818.000
441.8360, 8880.000
443.0280, 9042.000
444.2190, 9206.000
445.4100, 9267.000
446.6010, 9507.000
447.7920, 9798.000
448.9820, 9887.000
450.1730, 10223.00
451.3630, 10430.00
452.5530, 10590.00
453.7430, 10856.00
454.9330, 11172.00
456.1230, 11655.00
457.3120, 12015.00
458.5010, 12417.00
459.6910, 12756.00
460.8800, 13258.00
462.0680, 14018.00
463.2570, 14625.00
464.4460, 15356.00
465.6340, 15924.00
466.8220, 16707.00
468.0100, 17553.00
469.1980, 18579.00
470.3860, 19219.00
471.5730, 20028.00
472.7600, 20907.00
473.9480, 21285.00
475.1350, 21646.00
476.3210, 21450.00
477.5080, 21271.00
478.6950, 20674.00
479.8810, 19647.00
481.0670, 18633.00
482.2530, 17362.00
483.4390, 16083.00
484.6250, 14807.00
485.8100, 13800.00
486.9960, 12859.00
488.1810, 12071.00
489.3660, 11293.00
490.5510, 10656.00
491.7360, 10153.00
492.9200, 9817.000
494.1050, 9532.000
495.2890, 9295.000
496.4730, 9014.000
497.6570, 8968.000
498.8400, 8724.000
500.0240, 8782.000
501.2070, 8585.000
502.3910, 8730.000
503.5740, 8673.000
504.7570, 8765.000
505.9400, 8818.000
507.1220, 8839.000
508.3050, 9051.000
509.4870, 9247.000
510.6690, 9381.000
511.8510, 9481.000
513.0330, 9653.000
514.2140, 9849.000
515.3960, 10058.00
516.5770, 10166.00
517.7580, 10436.00
518.9390, 10630.00
520.1200, 10724.00
521.3010, 11029.00
522.4810, 11178.00
523.6610, 11376.00
524.8420, 11416.00
526.0220, 11546.00
527.2010, 11779.00
528.3810, 11964.00
529.5610, 12164.00
530.7400, 12313.08
531.9190, 12466.50
533.0980, 12567.00
534.2770, 12720.00
535.4560, 12818.00
536.6340, 12912.00
537.8120, 13026.00
538.9910, 13306.00
540.1690, 13414.00
541.3460, 13631.00
542.5240, 13785.00
543.7020, 13887.00
544.8790, 13873.00
546.0560, 13767.00
547.2330, 13730.96
548.4100, 13755.00
549.5870, 13465.00
550.7630, 13340.00
551.9400, 13114.00
553.1160, 12643.00
554.2920, 12398.00
555.4680, 11937.00
556.6440, 11764.00
557.8190, 11626.00
558.9950, 11467.00
560.1700, 11165.00
561.3450, 11155.00
562.5200, 10899.00
563.6950, 10837.00
564.8690, 10725.00
566.0440, 10589.00
567.2180, 10478.34
568.3920, 10431.00
569.5660, 10243.00
570.7400, 10178.00
571.9130, 10145.00
573.0870, 9980.000
574.2600, 9961.000
575.4330, 9781.000
576.6060, 9750.000
577.7790, 9577.000
578.9520, 9394.000
580.1240, 9241.000
581.2960, 9164.000
582.4690, 9074.000
583.6410, 9043.000
584.8120, 8949.000
585.9840, 8969.000
587.1560, 8982.000
588.3270, 8948.000
589.4980, 8882.000
590.6690, 8874.043
591.8400, 8758.000
593.0110, 8804.000
594.1810, 8763.000
595.3510, 8715.000
596.5220, 8807.000
597.6920, 8759.000
598.8610, 8708.000
600.0310, 8868.000
601.2010, 8765.000
602.3700, 8807.000
603.5390, 8799.000
604.7080, 8911.000
605.8770, 8821.000
607.0460, 9003.000
608.2140, 9106.000
609.3830, 9077.000
610.5510, 9246.000
611.7190, 9239.000
612.8870, 9280.000
614.0550, 9474.000
615.2220, 9563.000
616.3900, 9636.000
617.5570, 9723.000
618.7240, 9888.000
619.8910, 9868.000
621.0580, 10027.00
622.2240, 10220.00
623.3910, 10259.00
624.5570, 10412.26
625.7230, 10513.00
626.8890, 10598.00
628.0550, 10650.00
629.2200, 10697.00
630.3860, 10701.00
631.5510, 10708.00
632.7160, 10723.00
633.8810, 10599.00
635.0460, 10574.20
636.2100, 10354.00
637.3750, 10365.00
638.5390, 10179.00
639.7030, 9954.000
640.8670, 9741.000
642.0310, 9594.000
643.1950, 9511.000
644.3580, 9453.000
645.5210, 9293.921
646.6850, 9126.000
647.8480, 9023.000
649.0100, 8862.000
650.1730, 8736.000
651.3350, 8721.000
652.4980, 8637.000
653.6600, 8564.827
654.8220, 8487.000
655.9840, 8427.000
657.1450, 8372.000
658.3070, 8300.000
659.4680, 8287.000
660.6300, 8192.000
661.7910, 8116.941
662.9510, 8013.000
664.1120, 7958.000
665.2730, 7912.000
666.4330, 7897.000
667.5930, 7831.877
668.7530, 7744.000
669.9130, 7707.000
671.0730, 7637.000
672.2320, 7533.000
673.3920, 7631.000
674.5510, 7559.000
675.7100, 7537.000
676.8690, 7441.000
678.0280, 7420.000
679.1860, 7360.000
680.3450, 7333.093
681.5030, 7484.000
682.6610, 7313.000
683.8190, 7366.000
684.9770, 7392.000
686.1340, 7306.000
687.2920, 7360.000
688.4490, 7466.000
689.6060, 7376.000
690.7630, 7381.000
691.9200, 7435.000
693.0760, 7344.000
694.2330, 7353.000
695.3890, 7302.000
696.5450, 7390.000
697.7010, 7368.000
698.8570, 7432.000
700.0130, 7405.055
701.1680, 7375.840
702.3230, 7356.000
703.4780, 7309.000
704.6330, 7317.000
705.7880, 7342.000
706.9430, 7303.000
708.0970, 7323.000
709.2520, 7194.000
710.4060, 7203.000
711.5600, 7139.000
712.7140, 7123.000
713.8670, 7365.000
715.0210, 7189.000
716.1740, 7098.000
717.3270, 7250.000
718.4800, 7105.000
719.6330, 7186.000
720.7860, 7111.000
721.9380, 7192.000
723.0910, 7256.000
724.2430, 7260.000
725.3950, 7300.000
726.5470, 7294.473
727.6980, 7311.000
728.8500, 7289.000
730.0010, 7276.000
731.1530, 7319.000
732.3040, 7218.000
733.4550, 7303.000
734.6050, 7386.000
735.7560, 7300.000
736.9060, 7400.000
738.0560, 7316.000
739.2060, 7362.000
740.3560, 7374.000
741.5060, 7472.000
742.6560, 7514.000
743.8050, 7438.000
744.9540, 7446.000
746.1030, 7509.000
747.2520, 7582.000
748.4010, 7554.008
749.5500, 7546.000
750.6980, 7510.000
751.8460, 7533.000
752.9950, 7495.000
754.1420, 7613.000
755.2900, 7558.000
756.4380, 7612.000
757.5850, 7653.000
758.7330, 7617.000
759.8800, 7642.000
761.0270, 7669.000
762.1730, 7644.000
763.3200, 7672.000
764.4670, 7754.000
765.6130, 7636.000
766.7590, 7636.000
767.9050, 7776.000
769.0510, 7675.000
770.1960, 7743.000
771.3420, 7742.000
772.4870, 7701.000
773.6320, 7864.000
774.7770, 7797.000
775.9220, 7835.000
777.0670, 7815.000
778.2110, 7863.000
779.3560, 7796.000
780.5000, 7834.000
781.6440, 7860.000
782.7880, 7835.000
783.9320, 7872.000
785.0750, 7817.000
786.2180, 7775.000
787.3620, 7811.000
788.5050, 7777.568
789.6480, 7752.000
790.7900, 7776.000
791.9330, 7810.000
793.0750, 7805.000
794.2170, 7718.000
795.3590, 7668.000
796.5010, 7673.000
797.6430, 7583.000
798.7850, 7716.000
799.9260, 7521.000
801.0670, 7463.000
802.2080, 7413.000
803.3490, 7500.000
804.4900, 7485.000
805.6310, 7421.000
806.7710, 7423.000
807.9110, 7322.000
809.0510, 7249.000
810.1910, 7278.000
811.3310, 7287.000
812.4710, 7134.000
813.6100, 7089.000
814.7490, 7093.000
815.8880, 7057.000
817.0270, 7004.000
818.1660, 7098.000
819.3050, 7046.000
820.4430, 6964.000
821.5820, 6952.000
822.7200, 7124.000
823.8580, 6923.000
824.9950, 6793.000
826.1330, 7022.000
827.2710, 6868.000
828.4080, 6847.000
829.5450, 6915.000
830.6820, 6794.000
831.8190, 6774.000
832.9560, 6749.000
834.0920, 6744.000
835.2280, 6703.564
836.3650, 6780.000
837.5010, 6623.000
838.6360, 6608.000
839.7720, 6554.000
840.9080, 6694.000
842.0430, 6528.000
843.1780, 6676.000
844.3130, 6594.000
845.4480, 6551.000
846.5830, 6602.000
847.7170, 6579.000
848.8520, 6631.000
849.9860, 6648.000
851.1200, 6582.000
852.2540, 6642.000
853.3870, 6511.000
854.5210, 6661.000
855.6540, 6604.000
856.7880, 6587.000
857.9210, 6648.000
859.0540, 6617.521
860.1860, 6643.000
861.3190, 6642.000
862.4510, 6643.000
863.5840, 6664.000
864.7160, 6662.000
865.8480, 6714.000
866.9790, 6724.000
868.1110, 6809.000
869.2420, 6682.000
870.3740, 6828.000
871.5050, 6746.000
872.6360, 6826.000
873.7660, 6745.000
874.8970, 6759.000
876.0280, 6895.000
877.1580, 6862.000
878.2880, 6779.000
879.4180, 6816.000
880.5480, 6826.000
881.6770, 6819.000
882.8070, 6823.000
883.9360, 6901.000
885.0650, 6895.000
886.1940, 6864.000
887.3230, 6980.000
888.4520, 6956.000
889.5800, 6939.000
890.7090, 6940.000
891.8370, 6944.000
892.9650, 6910.000
894.0930, 7058.000
895.2200, 7073.000
896.3480, 7122.000
897.4750, 7011.000
898.6020, 7158.000
899.7290, 7129.000
900.8560, 7187.000
901.9830, 7216.000
903.1090, 7246.000
904.2360, 7323.000
905.3620, 7334.000
906.4880, 7369.000
907.6140, 7341.000
908.7400, 7386.000
909.8650, 7345.000
910.9900, 7406.000
912.1160, 7417.000
913.2410, 7499.000
914.3660, 7558.000
915.4900, 7559.520
916.6150, 7599.006
917.7390, 7568.000
918.8640, 7603.000
919.9880, 7600.000
921.1120, 7575.000
922.2350, 7728.000
923.3590, 7671.000
924.4820, 7634.000
925.6060, 7830.000
926.7290, 7850.000
927.8520, 7790.000
928.9740, 7711.000
930.0970, 7800.000
931.2190, 7863.000
932.3420, 7848.000
933.4640, 7964.475
934.5860, 8084.000
935.7080, 8097.000
936.8290, 8053.000
937.9510, 8025.000
939.0720, 8039.000
940.1930, 8090.000
941.3140, 8249.000
942.4350, 8162.000
943.5560, 8248.000
944.6760, 8210.000
945.7960, 8284.000
946.9170, 8246.000
948.0370, 8321.000
949.1560, 8347.000
950.2760, 8375.000
951.3960, 8337.000
952.5150, 8440.000
953.6340, 8589.000
954.7530, 8487.000
955.8720, 8329.000
956.9910, 8506.000
958.1090, 8436.000
959.2280, 8551.000
960.3460, 8642.000
961.4640, 8711.000
962.5820, 8645.000
963.6990, 8546.000
964.8170, 8683.000
965.9340, 8705.000
967.0510, 8747.000
968.1690, 8763.000
969.2850, 8859.000
970.4020, 8886.000
971.5190, 8736.000
972.6350, 8921.000
973.7510, 8878.000
974.8670, 8848.000
975.9830, 8929.000
977.0990, 8956.000
978.2150, 9002.000
979.3300, 9129.000
980.4450, 9179.000
981.5600, 9102.000
982.6750, 9042.000
983.7900, 9144.000
984.9050, 9120.000
986.0190, 9100.000
987.1340, 9112.000
988.2480, 9088.244
989.3620, 9032.000
990.4750, 9061.000
991.5890, 9010.000
992.7020, 8982.000
993.8160, 8860.000
994.9290, 8820.697
996.0420, 8783.489
997.1550, 8675.000
998.2670, 8717.000
999.3800, 8632.000
1000.492, 8568.000
1001.604, 8640.000
1002.716, 8555.000
1003.828, 8382.000
1004.940, 8353.000
1006.051, 8326.000
1007.163, 8333.000
1008.274, 8340.000
1009.385, 8327.233
1010.496, 8279.000
1011.606, 8303.000
1012.717, 8230.000
1013.827, 8177.000
1014.937, 8253.000
1016.047, 8033.000
1017.157, 8329.000
1018.267, 8201.000
1019.377, 8171.000
1020.486, 8244.000
1021.595, 8180.000
1022.704, 8232.000
1023.813, 8145.000
1024.922, 8181.000
1026.030, 8153.000
1027.139, 8186.000
1028.247, 8162.000
1029.355, 8157.000
1030.463, 8165.000
1031.571, 8131.000
1032.678, 8182.000
1033.786, 8141.000
1034.893, 8168.000
1036.000, 8153.579
1037.107, 8146.000
1038.214, 8143.000
1039.321, 8198.000
1040.427, 8247.000
1041.533, 8303.000
1042.639, 8196.000
1043.745, 8302.000
1044.851, 8237.000
1045.957, 8134.000
1047.062, 8230.000
1048.168, 8265.000
1049.273, 8166.000
1050.378, 8407.000
1051.482, 8278.000
1052.587, 8416.000
1053.692, 8276.000
1054.796, 8436.000
1055.900, 8395.000
1057.004, 8527.000
1058.108, 8433.000
1059.212, 8456.000
1060.315, 8515.000
1061.418, 8499.000
1062.522, 8531.000
1063.625, 8651.000
1064.728, 8731.000
1065.830, 8750.000
1066.933, 8783.955
1068.035, 8741.000
1069.137, 8782.000
1070.239, 8666.000
1071.341, 8685.000
1072.443, 8791.000
1073.545, 8625.000
1074.646, 8859.000
1075.747, 8634.000
1076.848, 8736.000
1077.949, 8530.000
1079.050, 8559.000
1080.150, 8468.000
1081.251, 8334.000
1082.351, 8313.000
1083.451, 8315.000
1084.551, 8339.000
1085.651, 8260.000
1086.750, 8069.000
1087.850, 8203.000
1088.949, 8236.000
1090.048, 8000.000
1091.147, 8037.000
1092.246, 8078.000
1093.345, 7984.000
1094.443, 8013.000
1095.541, 7965.000
1096.639, 7897.000
1097.737, 7977.000
1098.835, 7939.768
1099.933, 7938.086
1101.030, 7985.000
1102.128, 7914.000
1103.225, 7963.000
1104.322, 7930.000
1105.419, 7918.000
1106.515, 8025.000
1107.612, 7916.000
1108.708, 8044.000
1109.804, 8095.000
1110.900, 8018.000
1111.996, 8151.000
1113.092, 8062.000
1114.187, 8164.000
1115.283, 8183.000
1116.378, 8196.000
1117.473, 8163.000
1118.568, 8105.000
1119.662, 8240.000
1120.757, 8138.000
1121.851, 8162.000
1122.946, 8306.000
1124.040, 8256.000
1125.134, 8189.000
1126.227, 8260.000
1127.321, 8317.000
1128.414, 8296.000
1129.508, 8264.000
1130.601, 8271.000
1131.693, 8313.000
1132.786, 8368.000
1133.879, 8409.000
1134.971, 8432.076
1136.064, 8450.000
1137.156, 8437.000
1138.248, 8383.000
1139.339, 8312.000
1140.431, 8373.000
1141.522, 8413.000
1142.614, 8406.100
1143.705, 8572.000
1144.796, 8421.000
1145.887, 8542.000
1146.977, 8501.000
1148.068, 8572.000
1149.158, 8421.000
1150.248, 8498.000
1151.338, 8623.000
1152.428, 8476.000
1153.518, 8510.000
1154.607, 8626.000
1155.696, 8651.000
1156.785, 8580.000
1157.874, 8509.000
1158.963, 8607.000
1160.052, 8612.000
1161.141, 8588.000
1162.229, 8580.000
1163.317, 8604.000
1164.405, 8658.000
1165.493, 8524.000
1166.581, 8567.000
1167.668, 8645.000
1168.756, 8692.000
1169.843, 8602.000
1170.930, 8540.000
1172.017, 8616.000
1173.103, 8466.000
1174.190, 8626.000
1175.276, 8492.000
1176.363, 8422.000
1177.449, 8401.000
1178.535, 8382.000
1179.620, 8373.000
1180.706, 8265.000
1181.791, 8375.000
1182.877, 8241.000
1183.962, 8211.000
1185.047, 8254.000
1186.131, 8274.000
1187.216, 8257.000
1188.300, 8250.815
1189.385, 8199.054
1190.469, 8164.000
1191.553, 8076.000
1192.637, 7974.000
1193.720, 7922.000
1194.804, 7843.000
1195.887, 7829.000
1196.970, 7837.000
1198.053, 7860.000
1199.136, 7820.000
1200.219, 7788.000
1201.301, 7773.000
1202.383, 7623.000
1203.465, 7710.000
1204.547, 7590.000
1205.629, 7610.000
1206.711, 7401.000
1207.792, 7514.000
1208.874, 7453.000
1209.955, 7218.000
1211.036, 7379.000
1212.117, 7305.000
1213.198, 7177.000
1214.278, 7307.000
1215.359, 7163.000
1216.439, 7248.000
1217.519, 7146.000
1218.599, 7125.000
1219.678, 7091.000
1220.758, 7107.000
1221.837, 7054.000
1222.917, 7076.000
1223.996, 7075.000
1225.075, 6923.000
1226.153, 6903.000
1227.232, 7131.000
1228.310, 6937.000
1229.389, 6946.000
1230.467, 6899.000
1231.545, 6840.000
1232.622, 6836.000
1233.700, 6958.000
1234.777, 6783.000
1235.855, 6872.000
1236.932, 6784.000
1238.009, 6794.000
1239.086, 6772.000
1240.162, 6869.000
1241.239, 6705.000
1242.315, 6855.000
1243.391, 6730.000
1244.467, 6733.000
1245.543, 6643.000
1246.619, 6715.000
1247.694, 6738.000
1248.769, 6683.000
1249.844, 6674.000
1250.919, 6666.000
1251.994, 6760.000
1253.069, 6703.000
1254.144, 6743.000
1255.218, 6681.000
1256.292, 6702.000
1257.366, 6742.000
1258.440, 6632.000
1259.514, 6614.000
1260.587, 6701.000
1261.661, 6667.000
1262.734, 6629.000
1263.807, 6662.000
1264.880, 6703.000
1265.952, 6607.000
1267.025, 6669.000
1268.097, 6666.000
1269.170, 6609.000
1270.242, 6660.000
1271.314, 6644.000
1272.385, 6707.000
1273.457, 6613.000
1274.528, 6587.000
1275.600, 6634.000
1276.671, 6607.000
1277.742, 6603.000
1278.812, 6637.000
1279.883, 6557.000
1280.954, 6607.000
1282.024, 6606.000
1283.094, 6570.000
1284.164, 6596.000
1285.234, 6575.000
1286.303, 6518.000
1287.373, 6637.000
1288.442, 6581.000
1289.511, 6589.000
1290.580, 6550.000
1291.649, 6611.000
1292.718, 6604.000
1293.786, 6612.000
1294.855, 6583.000
1295.923, 6585.000
1296.991, 6547.000
1298.059, 6622.000
1299.126, 6572.000
1300.194, 6481.000
1301.261, 6632.000
1302.328, 6469.000
1303.395, 6631.000
1304.462, 6589.000
1305.529, 6593.000
1306.596, 6619.000
1307.662, 6551.000
