##NAMES=Painite
##RRUFFID=R060957
##IDEAL CHEMISTRY=CaZr^4+^Al_9_O_15_(BO_3_)
##LOCALITY=Ohngaing Village, Mogok, Burma
##OWNER=RRUFF
##SOURCE=Marcus Origlieri
##DESCRIPTION=Single crystal, reddish-brown to orangish prism section, several prism forms, small transparent areas.
##STATUS=The identification of this mineral has been confirmed by X-ray diffraction.
##URL=rruff.info/R060957
##PIN_ID=M01225
##ORIENTATION=Laser parallel to -a* (-1 0 0). Fiducial mark perpendicular to laser is parallel to c [0 0 1]
171.6380, 20142.00
172.8670, 19883.00
174.0950, 20083.00
175.3240, 19961.00
176.5520, 20093.00
177.7810, 19987.00
179.0090, 20187.00
180.2370, 20198.00
181.4640, 20153.00
182.6920, 20166.00
183.9190, 20012.00
185.1460, 20271.00
186.3730, 20187.00
187.6000, 20381.00
188.8270, 20116.00
190.0530, 20387.00
191.2800, 20218.00
192.5060, 20251.00
193.7320, 20350.00
194.9580, 20237.00
196.1830, 20333.00
197.4090, 20355.00
198.6340, 20412.00
199.8590, 20546.00
201.0840, 20713.00
202.3090, 20912.00
203.5340, 20829.00
204.7580, 20991.00
205.9820, 21012.00
207.2060, 21228.00
208.4300, 21431.00
209.6540, 21822.41
210.8780, 22088.00
212.1010, 22834.00
213.3240, 23512.00
214.5470, 24172.00
215.7700, 25282.00
216.9930, 26436.00
218.2150, 27713.00
219.4380, 29167.00
220.6600, 30763.00
221.8820, 32065.00
223.1040, 32770.00
224.3260, 32886.00
225.5470, 32214.00
226.7680, 30819.00
227.9900, 28891.00
229.2110, 27151.00
230.4310, 25718.00
231.6520, 24391.00
232.8720, 23252.00
234.0930, 22424.00
235.3130, 22078.00
236.5330, 21574.00
237.7530, 21184.00
238.9720, 21181.00
240.1920, 20976.00
241.4110, 20694.00
242.6300, 20826.00
243.8490, 20552.00
245.0680, 20513.00
246.2860, 20548.00
247.5040, 20404.00
248.7230, 20295.00
249.9410, 20336.00
251.1590, 20444.00
252.3760, 20395.00
253.5940, 20367.00
254.8110, 20478.00
256.0280, 20378.00
257.2450, 20291.00
258.4620, 20404.00
259.6790, 20721.00
260.8950, 20720.00
262.1120, 20691.00
263.3280, 20524.00
264.5440, 20492.00
265.7600, 20422.00
266.9750, 20582.00
268.1910, 20684.00
269.4060, 20831.00
270.6210, 20962.42
271.8360, 20833.00
273.0510, 21170.00
274.2650, 21303.00
275.4800, 21284.00
276.6940, 21544.00
277.9080, 21831.00
279.1220, 21957.00
280.3360, 22393.00
281.5490, 22672.00
282.7630, 22922.00
283.9760, 22992.08
285.1890, 23049.00
286.4020, 22892.00
287.6150, 22590.00
288.8270, 22385.00
290.0400, 22106.00
291.2520, 21880.00
292.4640, 21610.00
293.6760, 21516.91
294.8870, 21389.08
296.0990, 21404.00
297.3100, 21289.00
298.5210, 21308.00
299.7320, 21303.00
300.9430, 21632.00
302.1540, 21535.00
303.3640, 21770.00
304.5750, 21923.00
305.7850, 22038.00
306.9950, 21982.00
308.2050, 21900.00
309.4140, 21805.00
310.6240, 21418.00
311.8330, 21427.00
313.0420, 21232.00
314.2510, 21076.00
315.4600, 21098.00
316.6680, 20872.00
317.8770, 20992.00
319.0850, 20831.00
320.2930, 20912.00
321.5010, 20777.00
322.7090, 20904.00
323.9160, 20873.00
325.1240, 20800.00
326.3310, 20919.00
327.5380, 20794.00
328.7450, 20891.00
329.9520, 20803.00
331.1580, 20819.00
332.3650, 20837.18
333.5710, 20872.74
334.7770, 20858.00
335.9830, 20999.00
337.1880, 21029.00
338.3940, 21044.00
339.5990, 21074.00
340.8040, 21134.85
342.0090, 21158.25
343.2140, 21200.60
344.4190, 21293.00
345.6230, 21274.00
346.8280, 21324.05
348.0320, 21363.00
349.2360, 21332.00
350.4400, 21344.00
351.6430, 21305.00
352.8470, 21471.00
354.0500, 21383.00
355.2530, 21524.00
356.4560, 21333.00
357.6590, 21365.00
358.8620, 21581.00
360.0640, 21593.00
361.2660, 21767.00
362.4680, 21807.00
363.6700, 21942.00
364.8720, 22113.00
366.0740, 22171.00
367.2750, 22596.00
368.4760, 22663.00
369.6770, 23201.00
370.8780, 23851.00
372.0790, 24863.00
373.2800, 25723.00
374.4800, 26893.00
375.6800, 28150.00
376.8800, 29653.00
378.0800, 31366.00
379.2800, 32758.00
380.4790, 33879.00
381.6790, 34081.00
382.8780, 33889.00
384.0770, 32496.00
385.2760, 30739.00
386.4750, 28813.00
387.6730, 27051.00
388.8720, 25566.00
390.0700, 24328.00
391.2680, 23715.00
392.4660, 23053.00
393.6630, 22699.00
394.8610, 22439.00
396.0580, 22318.00
397.2550, 22258.00
398.4520, 21987.00
399.6490, 21919.00
400.8460, 22001.00
402.0420, 21811.00
403.2390, 21904.00
404.4350, 21900.00
405.6310, 21914.00
406.8270, 21810.00
408.0220, 21555.00
409.2180, 21745.00
410.4130, 22126.00
411.6080, 21867.00
412.8030, 21748.00
413.9980, 21857.00
415.1920, 21671.00
416.3870, 21788.00
417.5810, 21945.00
418.7750, 21887.00
419.9690, 21703.00
421.1630, 21699.00
422.3570, 21847.00
423.5500, 21737.00
424.7430, 21780.00
425.9360, 21598.00
427.1290, 21776.00
428.3220, 22034.00
429.5150, 22017.00
430.7070, 22298.00
431.8990, 22254.00
433.0910, 22402.00
434.2830, 22638.00
435.4750, 23037.00
436.6670, 23120.00
437.8580, 23501.00
439.0490, 23753.00
440.2400, 24290.00
441.4310, 24798.00
442.6220, 25164.00
443.8130, 25806.00
445.0030, 26727.00
446.1930, 27529.00
447.3830, 27869.00
448.5730, 28005.00
449.7630, 27599.00
450.9520, 26701.00
452.1420, 25788.00
453.3310, 24809.00
454.5200, 24231.00
455.7090, 23926.00
456.8980, 23458.00
458.0860, 23367.00
459.2740, 23509.00
460.4630, 23461.00
461.6510, 23378.00
462.8380, 23497.00
464.0260, 23468.00
465.2140, 23700.00
466.4010, 23754.00
467.5880, 23975.00
468.7750, 24067.00
469.9620, 23882.00
471.1490, 23785.00
472.3350, 23713.00
473.5220, 23756.00
474.7080, 23685.00
475.8940, 23814.00
477.0800, 23968.00
478.2650, 24078.00
479.4510, 24379.00
480.6360, 24539.00
481.8210, 25125.00
483.0060, 25884.00
484.1910, 26159.00
485.3760, 26991.00
486.5600, 27945.00
487.7440, 28628.00
488.9290, 29286.00
490.1130, 29925.00
491.2960, 30058.70
492.4800, 30169.00
493.6630, 29913.00
494.8470, 29378.00
496.0300, 28721.00
497.2130, 27663.00
498.3960, 26911.00
499.5780, 26436.00
500.7610, 26221.00
501.9430, 25880.00
503.1250, 25535.00
504.3070, 25747.00
505.4890, 25762.00
506.6710, 26028.00
507.8520, 26140.00
509.0330, 26517.00
510.2140, 26777.00
511.3950, 27065.00
512.5760, 27688.00
513.7570, 28371.00
514.9370, 29056.00
516.1170, 29966.00
517.2980, 31414.00
518.4780, 33073.00
519.6570, 35210.00
520.8370, 37447.00
522.0160, 39773.00
523.1960, 42521.00
524.3750, 45417.00
525.5540, 47944.00
526.7320, 50233.00
527.9110, 51308.00
529.0890, 51400.00
530.2680, 50242.00
531.4460, 48253.00
532.6240, 45430.00
533.8010, 42318.00
534.9790, 39092.00
536.1560, 36422.00
537.3340, 34013.00
538.5110, 32016.00
539.6880, 30484.00
540.8650, 29427.00
542.0410, 28377.00
543.2180, 27297.00
544.3940, 26921.00
545.5700, 26242.00
546.7460, 25794.00
547.9220, 25557.00
549.0970, 25202.00
550.2730, 24953.00
551.4480, 24569.00
552.6230, 24510.00
553.7980, 24166.00
554.9730, 24116.00
556.1470, 23979.00
557.3210, 23806.00
558.4960, 23976.00
559.6700, 23689.00
560.8440, 23731.00
562.0170, 23574.00
563.1910, 23626.00
564.3640, 23610.00
565.5380, 23642.99
566.7110, 23934.00
567.8840, 23781.00
569.0560, 23928.00
570.2290, 23977.00
571.4010, 24401.00
572.5740, 24578.00
573.7460, 24594.00
574.9180, 24572.00
576.0890, 24740.00
577.2610, 24639.00
578.4320, 24757.00
579.6040, 24737.00
580.7750, 24877.00
581.9450, 25286.00
583.1160, 25350.00
584.2870, 25672.00
585.4570, 26048.00
586.6270, 26290.00
587.7980, 26969.00
588.9670, 27176.00
590.1370, 27797.00
591.3070, 27723.00
592.4760, 27555.00
593.6450, 27352.00
594.8140, 26558.00
595.9830, 26374.00
597.1520, 25792.00
598.3210, 25391.00
599.4890, 25147.00
600.6570, 25078.00
601.8250, 24841.00
602.9930, 24797.00
604.1610, 24449.00
605.3290, 24688.00
606.4960, 24680.00
607.6630, 24959.00
608.8300, 24889.00
609.9970, 25402.00
611.1640, 25583.00
612.3300, 26107.00
613.4970, 26504.00
614.6630, 27264.00
615.8290, 27816.00
616.9950, 28695.00
618.1610, 29549.00
619.3260, 30804.00
620.4920, 31585.00
621.6570, 32130.00
622.8220, 32775.00
623.9870, 32909.00
625.1520, 32789.00
626.3160, 32515.00
627.4810, 31616.00
628.6450, 30760.00
629.8090, 29454.00
630.9730, 28541.00
632.1370, 27535.00
633.3000, 26741.00
634.4640, 26182.00
635.6270, 25741.00
636.7900, 25102.00
637.9530, 24816.00
639.1160, 24745.00
640.2780, 24422.00
641.4410, 24153.00
642.6030, 24344.00
643.7650, 24096.00
644.9270, 23925.00
646.0890, 23928.00
647.2500, 23859.00
648.4120, 23657.00
649.5730, 23781.00
650.7340, 23515.00
651.8950, 23643.00
653.0560, 23667.00
654.2160, 23689.00
655.3770, 23576.00
656.5370, 23376.00
657.6970, 23476.00
658.8570, 23423.00
660.0170, 23654.00
661.1760, 23545.00
662.3360, 23549.00
663.4950, 23733.00
664.6540, 23674.00
665.8130, 23431.00
666.9720, 23488.00
668.1310, 23233.00
669.2890, 23325.00
670.4470, 23482.00
671.6050, 23611.00
672.7630, 23448.00
673.9210, 23527.00
675.0790, 23661.00
676.2360, 23554.00
677.3930, 23875.00
678.5510, 23770.00
679.7080, 23953.00
680.8640, 23984.00
682.0210, 24238.00
683.1770, 24328.00
684.3340, 24713.00
685.4900, 25028.00
686.6460, 25200.00
687.8020, 25869.00
688.9570, 26208.00
690.1130, 26756.00
691.2680, 27130.00
692.4230, 27297.00
693.5780, 27623.00
694.7330, 27658.00
695.8880, 27571.00
697.0420, 27043.00
698.1960, 26792.00
699.3510, 26346.00
700.5040, 26216.00
701.6580, 26007.00
702.8120, 25574.00
703.9650, 25447.00
705.1190, 25480.00
706.2720, 25192.00
707.4250, 25123.00
708.5780, 25074.00
709.7300, 24893.00
710.8830, 25008.00
712.0350, 24638.00
713.1870, 24578.00
714.3390, 24816.00
715.4910, 24643.00
716.6430, 24548.00
717.7940, 24740.00
718.9460, 24702.00
720.0970, 24764.00
721.2480, 24841.00
722.3990, 24896.00
723.5500, 24949.76
724.7000, 25020.00
725.8500, 24977.00
727.0010, 25111.00
728.1510, 24986.00
729.3010, 25125.00
730.4500, 25218.00
731.6000, 25279.00
732.7490, 25464.00
733.8980, 25389.00
735.0470, 25437.00
736.1960, 25498.00
737.3450, 25694.00
738.4940, 25808.00
739.6420, 25769.00
740.7900, 25679.00
741.9380, 25786.00
743.0860, 25816.00
744.2340, 25908.00
745.3810, 25905.00
746.5290, 25896.00
747.6760, 25692.00
748.8230, 25849.00
749.9700, 25650.00
751.1170, 25539.00
752.2630, 25768.00
753.4100, 25621.00
754.5560, 25482.00
755.7020, 25636.00
756.8480, 25632.00
757.9940, 25716.00
759.1390, 25561.00
760.2850, 25770.00
761.4300, 25731.00
762.5750, 25656.00
763.7200, 26038.00
764.8650, 26016.00
766.0100, 26056.00
767.1540, 26287.00
768.2980, 26461.00
769.4420, 26479.00
770.5860, 26608.00
771.7300, 26851.00
772.8740, 26798.00
774.0170, 27125.00
775.1610, 27136.00
776.3040, 27263.00
777.4470, 27421.00
778.5900, 27423.00
779.7320, 27463.00
780.8750, 27870.00
782.0170, 27830.00
783.1590, 27884.00
784.3010, 28295.00
785.4430, 28317.00
786.5850, 28400.00
787.7260, 28633.00
788.8680, 28619.00
790.0090, 28737.00
791.1500, 29015.00
792.2910, 28970.00
793.4310, 29030.00
794.5720, 28754.00
795.7120, 28779.00
796.8520, 28676.00
797.9920, 28651.00
799.1320, 28616.00
800.2720, 28202.00
801.4120, 28402.00
802.5510, 28100.00
803.6900, 28274.00
804.8290, 28140.00
805.9680, 27922.00
807.1070, 28023.00
808.2450, 28032.00
809.3840, 27870.00
810.5220, 27968.00
811.6600, 27817.00
812.7980, 27674.00
813.9360, 27566.00
815.0730, 27843.00
816.2110, 27401.00
817.3480, 27361.00
818.4850, 27023.00
819.6220, 26762.00
820.7590, 26422.00
821.8960, 26153.36
823.0320, 25908.00
824.1680, 25664.00
825.3040, 25423.00
826.4400, 25303.00
827.5760, 25174.00
828.7120, 24880.00
829.8470, 24960.00
830.9830, 25056.00
832.1180, 24886.00
833.2530, 24928.00
834.3880, 24967.00
835.5220, 25120.00
836.6570, 25220.00
837.7910, 25014.00
838.9250, 25288.00
840.0590, 25437.00
841.1930, 25128.00
842.3270, 25230.00
843.4600, 25176.00
844.5940, 25281.00
845.7270, 25200.00
846.8600, 25031.00
847.9930, 25083.00
849.1250, 24939.00
850.2580, 24936.00
851.3900, 24780.00
852.5230, 24619.00
853.6550, 24436.00
854.7870, 24321.65
855.9180, 24257.00
857.0500, 24087.00
858.1810, 23997.00
859.3130, 23886.00
860.4440, 23789.00
861.5750, 23587.00
862.7050, 23703.00
863.8360, 23711.00
864.9660, 23292.00
866.0970, 23204.00
867.2270, 23447.00
868.3570, 23357.00
869.4870, 23397.00
870.6160, 23061.00
871.7460, 23151.00
872.8750, 23114.00
874.0040, 23339.00
875.1330, 23159.00
876.2620, 23090.00
877.3910, 23011.00
878.5190, 23079.00
879.6470, 23040.00
880.7760, 23018.00
881.9040, 23145.00
883.0310, 23010.00
884.1590, 23134.00
885.2870, 23077.00
886.4140, 23113.00
887.5410, 23055.00
888.6680, 23075.00
889.7950, 22873.00
890.9220, 23136.00
892.0480, 22970.00
893.1750, 23179.00
894.3010, 23108.00
895.4270, 23050.00
896.5530, 22975.00
897.6790, 22904.00
898.8040, 22893.00
899.9300, 23039.00
901.0550, 22923.00
902.1800, 22974.00
903.3050, 22684.00
904.4300, 22852.00
905.5540, 22881.00
906.6790, 23012.00
907.8030, 22833.00
908.9270, 23005.00
910.0510, 22959.00
911.1750, 23044.00
912.2990, 22838.00
913.4220, 23195.00
914.5450, 22772.00
915.6690, 23059.00
916.7920, 22838.00
917.9140, 22799.00
919.0370, 23047.00
920.1600, 23056.00
921.2820, 22854.00
922.4040, 22714.00
923.5260, 22809.00
924.6480, 22970.00
925.7700, 22978.00
926.8910, 22913.00
928.0130, 22870.00
929.1340, 22977.00
930.2550, 22904.00
931.3760, 22619.00
932.4970, 22869.00
933.6170, 22796.00
934.7380, 22699.00
935.8580, 22890.00
936.9780, 22813.00
938.0980, 22772.00
939.2180, 22963.00
940.3370, 22801.00
941.4570, 22761.00
942.5760, 22918.00
943.6950, 22949.00
944.8140, 22934.00
945.9330, 22826.00
947.0520, 22826.92
948.1700, 22650.00
949.2890, 22783.00
950.4070, 22684.00
951.5250, 22764.00
952.6430, 22808.00
953.7600, 22841.00
954.8780, 22858.68
955.9950, 22919.00
957.1120, 22833.00
958.2290, 22802.00
959.3460, 22739.00
960.4630, 22758.48
961.5800, 22713.00
962.6960, 22835.00
963.8120, 22877.00
964.9280, 22941.31
966.0440, 23016.36
967.1600, 23094.00
968.2760, 23132.00
969.3910, 22755.00
970.5060, 22763.00
971.6210, 22929.00
972.7360, 23032.00
973.8510, 23095.00
974.9660, 23119.00
976.0800, 22924.00
977.1950, 23031.00
978.3090, 23033.00
979.4230, 23252.00
980.5370, 23334.00
981.6500, 23596.00
982.7640, 23796.00
983.8770, 24027.64
984.9900, 24227.00
986.1030, 24566.00
987.2160, 24906.00
988.3290, 25200.00
989.4420, 25216.00
990.5540, 25495.00
991.6660, 25171.00
992.7780, 24797.00
993.8900, 24372.00
995.0020, 24143.00
996.1140, 23794.00
997.2250, 23567.00
998.3360, 23441.00
999.4470, 23188.00
1000.558, 23065.00
1001.669, 23196.00
1002.780, 23128.00
1003.890, 23024.00
1005.001, 23012.00
1006.111, 22994.00
1007.221, 23041.00
1008.331, 22900.00
1009.440, 22984.00
1010.550, 22875.00
1011.659, 22785.00
1012.768, 22835.00
1013.877, 22834.00
1014.986, 22766.00
1016.095, 22814.00
1017.204, 22835.00
1018.312, 22813.00
1019.420, 22974.00
1020.528, 22905.00
1021.636, 22699.00
1022.744, 22891.00
1023.852, 22821.00
1024.959, 22769.00
1026.066, 22745.00
1027.173, 22925.00
1028.280, 23145.00
1029.387, 22816.00
1030.494, 23039.00
1031.600, 22944.00
1032.707, 23042.00
1033.813, 23023.00
1034.919, 23099.43
1036.025, 23190.16
1037.130, 23282.00
1038.236, 23383.00
1039.341, 23460.00
1040.446, 23535.00
1041.552, 23672.00
1042.656, 23684.00
1043.761, 23801.00
1044.866, 23710.00
1045.970, 24017.00
1047.074, 24134.00
1048.179, 23915.00
1049.282, 24064.00
1050.386, 23938.00
1051.490, 24039.00
1052.593, 24167.00
1053.697, 24308.00
1054.800, 24127.00
1055.903, 24041.00
1057.006, 24235.00
1058.108, 24190.00
1059.211, 24189.00
1060.313, 24243.00
1061.415, 23962.00
1062.517, 24106.00
1063.619, 24107.00
1064.721, 24429.00
1065.823, 24094.00
1066.924, 24346.00
1068.025, 24269.00
1069.126, 24301.00
1070.227, 24187.00
1071.328, 24320.00
1072.429, 24293.00
1073.529, 24108.00
1074.629, 24323.00
1075.729, 24198.00
1076.829, 24382.00
1077.929, 24389.00
1079.029, 24307.00
1080.128, 24301.00
1081.228, 24190.00
1082.327, 24331.00
1083.426, 24221.00
1084.525, 24232.00
1085.623, 24255.00
1086.722, 24258.00
1087.820, 24352.00
1088.919, 24133.00
1090.017, 24377.00
1091.115, 24154.00
1092.212, 24406.00
1093.310, 24434.00
1094.407, 24349.00
1095.505, 24376.00
1096.602, 24202.00
1097.699, 23994.00
1098.795, 24205.00
1099.892, 24328.00
1100.989, 24466.00
1102.085, 24338.00
1103.181, 24311.00
1104.277, 24397.00
1105.373, 24327.00
1106.469, 24490.00
1107.564, 24418.00
1108.660, 24256.00
1109.755, 24190.00
1110.850, 24297.00
1111.945, 24357.00
1113.040, 24352.00
1114.134, 24336.00
1115.229, 24192.00
1116.323, 24406.00
1117.417, 24337.00
1118.511, 24141.00
1119.605, 24328.00
1120.698, 24526.00
1121.792, 24284.00
1122.885, 24282.00
1123.978, 24355.00
1125.071, 24169.00
1126.164, 24339.00
1127.257, 24025.00
1128.349, 24442.00
1129.442, 24557.00
1130.534, 24339.00
1131.626, 24143.00
1132.718, 24331.00
1133.810, 24207.00
1134.901, 24300.00
1135.993, 24420.00
1137.084, 24198.00
1138.175, 24290.00
1139.266, 24427.00
1140.357, 24344.00
1141.448, 24269.00
1142.538, 24338.00
1143.628, 24326.00
1144.719, 24294.00
1145.809, 24289.00
1146.898, 24299.00
1147.988, 24332.00
1149.078, 24277.00
1150.167, 24083.00
1151.256, 24127.00
1152.345, 24078.00
1153.434, 24160.00
1154.523, 24057.00
1155.612, 24167.00
1156.700, 24147.00
1157.788, 24145.00
1158.877, 24197.00
1159.964, 24242.00
1161.052, 24172.00
1162.140, 24143.00
1163.227, 24148.00
1164.315, 24211.00
1165.402, 24142.00
1166.489, 23996.00
1167.576, 24196.00
1168.663, 24013.00
1169.749, 24076.00
1170.836, 24188.00
1171.922, 24125.00
1173.008, 24101.00
1174.094, 24232.00
1175.180, 24265.00
1176.265, 24259.00
1177.351, 24298.30
1178.436, 24266.67
1179.521, 24224.00
1180.606, 24233.00
1181.691, 24068.00
1182.776, 24101.00
1183.860, 24286.00
1184.944, 24142.00
1186.029, 24256.00
1187.113, 24205.00
1188.197, 24111.00
1189.280, 24241.00
1190.364, 23972.00
1191.447, 23977.00
1192.531, 23944.00
1193.614, 24018.00
1194.697, 23892.00
1195.779, 24134.00
1196.862, 24117.00
1197.945, 24291.00
1199.027, 24089.00
1200.109, 23928.00
1201.191, 23916.00
1202.273, 23917.00
1203.355, 24041.00
1204.436, 24131.00
1205.518, 24099.00
1206.599, 24016.00
1207.680, 24154.00
1208.761, 24171.00
1209.842, 23985.00
1210.922, 24059.00
1212.003, 23924.00
1213.083, 23918.49
1214.163, 23906.00
1215.243, 23903.00
1216.323, 24018.00
1217.402, 24014.00
1218.482, 23904.00
1219.561, 24017.00
1220.641, 23975.00
1221.720, 24184.00
1222.798, 24273.00
1223.877, 24072.00
1224.956, 23992.00
1226.034, 24046.00
1227.112, 24140.00
1228.191, 23973.00
1229.269, 24174.00
1230.346, 23939.00
1231.424, 24059.00
1232.501, 24224.00
1233.579, 23894.00
1234.656, 23831.00
1235.733, 24034.00
1236.810, 23929.00
1237.886, 24114.00
1238.963, 24021.00
1240.039, 23940.00
1241.116, 23990.00
1242.192, 23944.00
1243.268, 24038.00
1244.343, 23901.00
1245.419, 24001.00
1246.494, 23870.00
1247.570, 24106.00
1248.645, 23889.00
1249.720, 23913.00
1250.795, 23849.00
1251.869, 23875.00
1252.944, 23959.00
1254.018, 23882.00
1255.093, 23955.00
1256.167, 23783.00
1257.240, 23819.00
1258.314, 23945.00
1259.388, 24105.00
1260.461, 23918.00
1261.535, 24155.00
1262.608, 24055.00
1263.681, 23997.00
1264.753, 23980.00
1265.826, 24010.00
1266.899, 23790.00
1267.971, 23936.00
1269.043, 24047.00
1270.115, 23790.00
1271.187, 23894.00
1272.259, 24083.00
1273.330, 23879.00
1274.402, 24077.00
1275.473, 23897.00
1276.544, 24091.00
1277.615, 24051.00
1278.686, 24321.00
1279.756, 24156.00
1280.827, 23959.00
1281.897, 24164.00
1282.967, 24130.00
1284.037, 24146.00
1285.107, 24089.00
1286.177, 24110.00
1287.247, 24238.00
1288.316, 24110.00
1289.385, 24166.00
1290.454, 24111.00
1291.523, 24015.00
1292.592, 24064.00
1293.661, 24191.00
1294.729, 24219.00
1295.797, 24234.55
1296.866, 24202.67
1297.934, 24223.00
1299.001, 24027.00
1300.069, 24020.00
1301.137, 23892.00
1302.204, 23899.35
1303.271, 23912.38
1304.338, 23957.00
1305.405, 23997.00
1306.472, 24033.00
1307.539, 24082.00
1308.605, 24024.00
1309.671, 24124.00
1310.737, 24027.00
1311.803, 24135.00
1312.869, 23820.00
1313.935, 23986.00
1315.000, 23939.00
1316.066, 24056.00
1317.131, 24049.00
1318.196, 24025.00
1319.261, 24059.96
1320.326, 23879.00
1321.390, 24097.00
1322.455, 23992.00
1323.519, 24113.00
1324.583, 23882.00
1325.647, 23911.00
1326.711, 24023.00
1327.775, 23753.00
1328.838, 23977.00
1329.902, 23854.00
1330.965, 23955.00
1332.028, 23852.00
1333.091, 23863.00
1334.153, 23891.00
1335.216, 23835.00
1336.279, 23863.00
1337.341, 23956.00
1338.403, 23939.00
1339.465, 23836.00
1340.527, 24014.00
1341.588, 24042.00
1342.650, 23925.00
