##NAMES=Painite
##RRUFFID=R060957
##IDEAL CHEMISTRY=CaZr^4+^Al_9_O_15_(BO_3_)
##LOCALITY=Ohngaing Village, Mogok, Burma
##OWNER=RRUFF
##SOURCE=Marcus Origlieri
##DESCRIPTION=Single crystal, reddish-brown to orangish prism section, several prism forms, small transparent areas.
##STATUS=The identification of this mineral has been confirmed by X-ray diffraction.
##URL=rruff.info/R060957
##PIN_ID=M01433
##ORIENTATION=Laser parallel to c* (0 0 1). Fiducial mark perpendicular to laser is parallel to a [1 0 0]
163.0300, 33675.00
164.2600, 33581.00
165.4900, 33757.00
166.7200, 33786.00
167.9500, 34140.00
169.1790, 34091.00
170.4080, 34721.00
171.6380, 35094.00
172.8670, 35832.00
174.0950, 36641.00
175.3240, 37100.00
176.5520, 38241.00
177.7810, 40429.00
179.0090, 42843.00
180.2370, 46721.00
181.4640, 50757.00
182.6920, 52769.00
183.9190, 49739.00
185.1460, 44869.00
186.3730, 40795.00
187.6000, 37829.00
188.8270, 36203.00
190.0530, 35227.00
191.2800, 34490.00
192.5060, 34397.00
193.7320, 34100.00
194.9580, 34101.00
196.1830, 34051.00
197.4090, 33990.00
198.6340, 34016.00
199.8590, 34040.00
201.0840, 34043.00
202.3090, 34181.00
203.5340, 34156.00
204.7580, 34490.00
205.9820, 34753.00
207.2060, 35042.00
208.4300, 34908.00
209.6540, 35432.00
210.8780, 35410.00
212.1010, 35715.00
213.3240, 36131.00
214.5470, 36503.00
215.7700, 37550.00
216.9930, 38584.00
218.2150, 40289.00
219.4380, 41517.00
220.6600, 42789.00
221.8820, 42774.00
223.1040, 42211.00
224.3260, 40958.00
225.5470, 39456.00
226.7680, 38167.00
227.9900, 37024.00
229.2110, 35945.00
230.4310, 35376.00
231.6520, 34828.00
232.8720, 34909.00
234.0930, 34329.00
235.3130, 34180.00
236.5330, 34033.00
237.7530, 33894.00
238.9720, 33817.00
240.1920, 33632.00
241.4110, 33587.00
242.6300, 33844.00
243.8490, 33654.00
245.0680, 33645.20
246.2860, 33367.00
247.5040, 33426.00
248.7230, 33485.00
249.9410, 33379.00
251.1590, 33408.00
252.3760, 33429.52
253.5940, 33436.00
254.8110, 33535.00
256.0280, 33581.00
257.2450, 33721.00
258.4620, 33798.00
259.6790, 34258.00
260.8950, 34499.00
262.1120, 34250.00
263.3280, 34084.00
264.5440, 34346.00
265.7600, 34124.00
266.9750, 34244.00
268.1910, 34501.00
269.4060, 34368.00
270.6210, 34132.00
271.8360, 33942.00
273.0510, 34129.00
274.2650, 34051.00
275.4800, 34150.00
276.6940, 34255.00
277.9080, 34331.00
279.1220, 34476.00
280.3360, 34534.00
281.5490, 34727.00
282.7630, 35012.00
283.9760, 35283.00
285.1890, 35399.00
286.4020, 35488.90
287.6150, 35533.87
288.8270, 35441.00
290.0400, 35432.00
291.2520, 35283.00
292.4640, 35112.00
293.6760, 35112.00
294.8870, 35342.00
296.0990, 35307.00
297.3100, 35477.00
298.5210, 35600.00
299.7320, 35907.00
300.9430, 36013.00
302.1540, 36282.00
303.3640, 36890.00
304.5750, 37965.00
305.7850, 38770.00
306.9950, 39558.00
308.2050, 39670.52
309.4140, 40171.00
310.6240, 39371.00
311.8330, 38770.00
313.0420, 38240.00
314.2510, 37662.00
315.4600, 36775.00
316.6680, 36344.00
317.8770, 35860.00
319.0850, 35391.00
320.2930, 35120.00
321.5010, 34860.00
322.7090, 34800.00
323.9160, 34604.79
325.1240, 34510.00
326.3310, 34455.00
327.5380, 34351.00
328.7450, 34424.00
329.9520, 34526.00
331.1580, 34503.00
332.3650, 34490.00
333.5710, 34551.00
334.7770, 34556.00
335.9830, 34696.00
337.1880, 34915.00
338.3940, 34946.00
339.5990, 35059.00
340.8040, 35365.00
342.0090, 35784.00
343.2140, 36162.00
344.4190, 36404.00
345.6230, 36730.00
346.8280, 37267.00
348.0320, 38045.00
349.2360, 38701.00
350.4400, 39324.00
351.6430, 39505.00
352.8470, 40010.00
354.0500, 39650.00
355.2530, 39039.00
356.4560, 37984.00
357.6590, 37210.00
358.8620, 36739.00
360.0640, 35955.00
361.2660, 35843.00
362.4680, 35612.00
363.6700, 35511.00
364.8720, 35581.00
366.0740, 35457.00
367.2750, 35515.00
368.4760, 35816.00
369.6770, 35721.00
370.8780, 35973.00
372.0790, 36183.00
373.2800, 36636.00
374.4800, 37058.78
375.6800, 37447.00
376.8800, 38239.00
378.0800, 39047.00
379.2800, 39937.00
380.4790, 41146.00
381.6790, 41794.00
382.8780, 41378.00
384.0770, 40897.00
385.2760, 40001.00
386.4750, 39672.00
387.6730, 38891.00
388.8720, 39008.00
390.0700, 39074.00
391.2680, 39448.00
392.4660, 40094.00
393.6630, 41325.00
394.8610, 42867.00
396.0580, 44711.00
397.2550, 46873.00
398.4520, 48860.00
399.6490, 49985.00
400.8460, 49001.00
402.0420, 47249.00
403.2390, 44976.00
404.4350, 42515.00
405.6310, 40812.00
406.8270, 39409.00
408.0220, 38533.00
409.2180, 38358.00
410.4130, 38100.00
411.6080, 37710.00
412.8030, 37306.00
413.9980, 36775.00
415.1920, 36546.00
416.3870, 36201.61
417.5810, 35907.27
418.7750, 35719.00
419.9690, 35543.00
421.1630, 35437.40
422.3570, 35441.00
423.5500, 35386.00
424.7430, 35428.00
425.9360, 35537.00
427.1290, 35826.98
428.3220, 36164.00
429.5150, 36729.00
430.7070, 37445.00
431.8990, 38235.00
433.0910, 39072.00
434.2830, 40877.00
435.4750, 42690.00
436.6670, 43599.00
437.8580, 43664.00
439.0490, 42761.00
440.2400, 41411.00
441.4310, 39958.00
442.6220, 38701.00
443.8130, 38199.00
445.0030, 37908.00
446.1930, 38103.00
447.3830, 37787.00
448.5730, 38197.00
449.7630, 38464.00
450.9520, 37944.00
452.1420, 37931.00
453.3310, 37938.00
454.5200, 38111.00
455.7090, 38703.00
456.8980, 39038.00
458.0860, 39868.00
459.2740, 41029.00
460.4630, 42154.00
461.6510, 44109.00
462.8380, 46278.00
464.0260, 49187.00
465.2140, 52697.00
466.4010, 55829.00
467.5880, 58236.00
468.7750, 59227.00
469.9620, 57802.00
471.1490, 54451.00
472.3350, 51674.00
473.5220, 49114.00
474.7080, 47317.00
475.8940, 45866.00
477.0800, 44931.00
478.2650, 44012.00
479.4510, 43363.00
480.6360, 41872.00
481.8210, 41150.00
483.0060, 39931.00
484.1910, 39365.00
485.3760, 38812.00
486.5600, 38354.00
487.7440, 38160.00
488.9290, 38105.00
490.1130, 37928.00
491.2960, 38166.00
492.4800, 38335.00
493.6630, 38043.00
494.8470, 37787.00
496.0300, 37667.00
497.2130, 37247.00
498.3960, 37044.00
499.5780, 36854.00
500.7610, 36800.00
501.9430, 36686.00
503.1250, 36749.00
504.3070, 36814.00
505.4890, 37276.00
506.6710, 37334.00
507.8520, 38016.00
509.0330, 38170.00
510.2140, 38585.00
511.3950, 38694.00
512.5760, 39050.00
513.7570, 38584.00
514.9370, 38497.00
516.1170, 38135.00
517.2980, 38332.00
518.4780, 38383.00
519.6570, 38397.00
520.8370, 39217.00
522.0160, 39559.00
523.1960, 40681.00
524.3750, 40851.00
525.5540, 42326.00
526.7320, 43551.00
527.9110, 44593.00
529.0890, 45419.00
530.2680, 46017.00
531.4460, 46966.00
532.6240, 47401.00
533.8010, 48245.00
534.9790, 49461.00
536.1560, 50495.00
537.3340, 52376.00
538.5110, 53804.00
539.6880, 54236.00
540.8650, 53692.00
542.0410, 51461.00
543.2180, 48719.00
544.3940, 46392.00
545.5700, 43939.00
546.7460, 41840.00
547.9220, 40287.00
549.0970, 39289.00
550.2730, 38556.00
551.4480, 37755.00
552.6230, 37219.00
553.7980, 36758.00
554.9730, 36429.51
556.1470, 36337.00
557.3210, 36107.00
558.4960, 36214.00
559.6700, 36184.00
560.8440, 36482.00
562.0170, 36577.00
563.1910, 36735.00
564.3640, 37160.00
565.5380, 37913.00
566.7110, 38796.00
567.8840, 39459.00
569.0560, 40464.00
570.2290, 41616.00
571.4010, 42887.00
572.5740, 44138.00
573.7460, 44952.00
574.9180, 44972.00
576.0890, 44717.00
577.2610, 44061.00
578.4320, 43205.00
579.6040, 42373.00
580.7750, 42319.00
581.9450, 41913.00
583.1160, 42223.00
584.2870, 42867.00
585.4570, 43454.00
586.6270, 44332.00
587.7980, 45697.00
588.9670, 46836.00
590.1370, 48008.00
591.3070, 48053.00
592.4760, 47486.00
593.6450, 46603.00
594.8140, 44943.00
595.9830, 43316.00
597.1520, 41531.00
598.3210, 40532.00
599.4890, 39764.00
600.6570, 38408.00
601.8250, 37890.00
602.9930, 37357.00
604.1610, 36662.00
605.3290, 36545.33
606.4960, 36721.00
607.6630, 36436.00
608.8300, 36612.00
609.9970, 36901.00
611.1640, 37023.00
612.3300, 37581.00
613.4970, 38147.00
614.6630, 38787.00
615.8290, 39407.00
616.9950, 40374.00
618.1610, 41460.00
619.3260, 42266.00
620.4920, 42378.00
621.6570, 41969.00
622.8220, 41563.00
623.9870, 40561.00
625.1520, 39723.00
626.3160, 39221.00
627.4810, 38357.00
628.6450, 37694.00
629.8090, 37085.00
630.9730, 36661.00
632.1370, 36756.00
633.3000, 36522.00
634.4640, 36530.00
635.6270, 36217.00
636.7900, 36425.00
637.9530, 36424.00
639.1160, 36435.00
640.2780, 36920.00
641.4410, 37062.00
642.6030, 37691.00
643.7650, 37878.00
644.9270, 38853.00
646.0890, 39590.00
647.2500, 40362.00
648.4120, 41337.00
649.5730, 41875.00
650.7340, 42219.00
651.8950, 42809.00
653.0560, 42638.00
654.2160, 42612.00
655.3770, 41871.00
656.5370, 40983.00
657.6970, 39967.00
658.8570, 39061.00
660.0170, 38535.00
661.1760, 37785.00
662.3360, 36923.00
663.4950, 36284.00
664.6540, 35984.00
665.8130, 35523.00
666.9720, 35294.00
668.1310, 34885.00
669.2890, 34649.00
670.4470, 34482.00
671.6050, 34337.00
672.7630, 34104.00
673.9210, 33987.50
675.0790, 33983.00
676.2360, 33791.00
677.3930, 33730.00
678.5510, 33809.00
679.7080, 33812.00
680.8640, 33776.00
682.0210, 33789.00
683.1770, 33682.00
684.3340, 33693.00
685.4900, 34022.00
686.6460, 33887.00
687.8020, 33981.00
688.9570, 33870.00
690.1130, 34260.00
691.2680, 34007.00
692.4230, 34570.00
693.5780, 34572.00
694.7330, 34617.00
695.8880, 34743.00
697.0420, 35150.00
698.1960, 35548.00
699.3510, 35738.00
700.5040, 36067.00
701.6580, 36642.00
702.8120, 36990.00
703.9650, 37386.00
705.1190, 37660.00
706.2720, 38130.00
707.4250, 38436.00
708.5780, 38888.00
709.7300, 39650.00
710.8830, 40389.00
712.0350, 41140.00
713.1870, 42246.00
714.3390, 43546.00
715.4910, 45049.00
716.6430, 46466.00
717.7940, 47753.00
718.9460, 48276.00
720.0970, 48464.09
721.2480, 48520.00
722.3990, 47460.00
723.5500, 46398.00
724.7000, 44866.00
725.8500, 43713.00
727.0010, 42405.00
728.1510, 41394.00
729.3010, 40593.00
730.4500, 39932.00
731.6000, 39427.00
732.7490, 38882.00
733.8980, 38441.00
735.0470, 38077.00
736.1960, 38336.00
737.3450, 37477.00
738.4940, 38058.00
739.6420, 38113.00
740.7900, 37914.00
741.9380, 37906.00
743.0860, 38257.00
744.2340, 37983.00
745.3810, 37738.00
746.5290, 38215.00
747.6760, 37741.00
748.8230, 38222.00
749.9700, 38084.00
751.1170, 38229.00
752.2630, 38281.00
753.4100, 38405.00
754.5560, 38619.00
755.7020, 38831.00
756.8480, 38690.00
757.9940, 38886.00
759.1390, 39006.91
760.2850, 39158.00
761.4300, 39392.00
762.5750, 39682.00
763.7200, 40020.00
764.8650, 40321.59
766.0100, 40703.51
767.1540, 41045.00
768.2980, 41517.00
769.4420, 41985.00
770.5860, 42470.00
771.7300, 42930.00
772.8740, 43493.00
774.0170, 44038.71
775.1610, 44656.47
776.3040, 45323.00
777.4470, 46027.00
778.5900, 46918.00
779.7320, 47763.00
780.8750, 48694.00
782.0170, 50018.00
783.1590, 51491.00
784.3010, 53091.00
785.4430, 54508.00
786.5850, 56086.00
787.7260, 57894.00
788.8680, 59210.00
790.0090, 60569.00
791.1500, 61097.00
792.2910, 61377.00
793.4310, 61342.00
794.5720, 60980.00
795.7120, 60215.00
796.8520, 59453.00
797.9920, 58506.00
799.1320, 57415.00
800.2720, 56571.00
801.4120, 55663.00
802.5510, 54363.00
803.6900, 53345.00
804.8290, 52312.00
805.9680, 51390.74
807.1070, 50854.00
808.2450, 49800.00
809.3840, 49413.00
810.5220, 48762.00
811.6600, 47924.00
812.7980, 47053.00
813.9360, 46413.00
815.0730, 46300.00
816.2110, 45421.00
817.3480, 44744.00
818.4850, 43971.00
819.6220, 43365.00
820.7590, 42308.00
821.8960, 41503.00
823.0320, 40875.00
824.1680, 39969.00
825.3040, 39340.00
826.4400, 38902.00
827.5760, 38459.00
828.7120, 38030.00
829.8470, 37781.00
830.9830, 37439.00
832.1180, 37236.33
833.2530, 37138.00
834.3880, 36983.00
835.5220, 36894.00
836.6570, 36965.00
837.7910, 37362.00
838.9250, 37246.00
840.0590, 37272.00
841.1930, 37288.00
842.3270, 37291.00
843.4600, 37555.00
844.5940, 37272.00
845.7270, 37361.00
846.8600, 36933.00
847.9930, 37031.00
849.1250, 37277.00
850.2580, 36895.00
851.3900, 36860.00
852.5230, 36328.00
853.6550, 36167.00
854.7870, 36091.00
855.9180, 35863.00
857.0500, 35548.00
858.1810, 35133.00
859.3130, 34942.00
860.4440, 34555.00
861.5750, 34541.00
862.7050, 34320.00
863.8360, 34251.00
864.9660, 34076.00
866.0970, 34136.00
867.2270, 33973.00
868.3570, 33566.00
869.4870, 33623.00
870.6160, 33337.00
871.7460, 33220.00
872.8750, 33160.00
874.0040, 33059.00
875.1330, 32955.03
876.2620, 32966.00
877.3910, 32734.00
878.5190, 32725.00
879.6470, 32602.00
880.7760, 32764.00
881.9040, 32648.00
883.0310, 32745.00
884.1590, 32611.00
885.2870, 32692.00
886.4140, 32484.00
887.5410, 32260.00
888.6680, 32466.00
889.7950, 32327.00
890.9220, 32459.00
892.0480, 32315.00
893.1750, 32387.00
894.3010, 32135.00
895.4270, 32126.00
896.5530, 32188.00
897.6790, 32174.00
898.8040, 32105.00
899.9300, 32132.00
901.0550, 32302.00
902.1800, 32173.00
903.3050, 32211.00
904.4300, 32031.00
905.5540, 32219.00
906.6790, 31921.00
907.8030, 31881.00
908.9270, 31954.00
910.0510, 32077.00
911.1750, 32173.00
912.2990, 31864.00
913.4220, 32099.00
914.5450, 31658.00
915.6690, 31966.00
916.7920, 31872.00
917.9140, 31716.00
919.0370, 31589.00
920.1600, 31844.00
921.2820, 31626.00
922.4040, 31812.00
923.5260, 31693.00
924.6480, 31717.00
925.7700, 31399.00
926.8910, 31603.00
928.0130, 31629.00
929.1340, 31528.00
930.2550, 31705.00
931.3760, 31546.00
932.4970, 31586.42
933.6170, 31379.00
934.7380, 31516.00
935.8580, 31573.00
936.9780, 31429.00
938.0980, 31678.00
939.2180, 31497.00
940.3370, 31405.00
941.4570, 31293.00
942.5760, 31363.00
943.6950, 31318.02
944.8140, 31311.00
945.9330, 31372.00
947.0520, 31302.00
948.1700, 31333.00
949.2890, 31523.00
950.4070, 31461.00
951.5250, 31200.00
952.6430, 31459.00
953.7600, 31286.00
954.8780, 31415.00
955.9950, 31261.00
957.1120, 31298.00
958.2290, 31154.00
959.3460, 31354.00
960.4630, 31246.00
961.5800, 31405.00
962.6960, 31365.00
963.8120, 31580.00
964.9280, 31275.00
966.0440, 31548.00
967.1600, 31373.00
968.2760, 31548.00
969.3910, 31403.00
970.5060, 31848.00
971.6210, 31947.00
972.7360, 32138.00
973.8510, 32150.00
974.9660, 32337.31
976.0800, 32435.00
977.1950, 32741.00
978.3090, 32935.00
979.4230, 33357.00
980.5370, 34095.00
981.6500, 34901.00
982.7640, 36013.00
983.8770, 37851.00
984.9900, 39867.00
986.1030, 42424.00
987.2160, 44977.00
988.3290, 47878.00
989.4420, 50070.00
990.5540, 50500.00
991.6660, 48967.00
992.7780, 46003.00
993.8900, 42852.00
995.0020, 40151.00
996.1140, 37567.00
997.2250, 36098.00
998.3360, 34937.00
999.4470, 34162.00
1000.558, 33311.00
1001.669, 33068.00
1002.780, 32540.00
1003.890, 32245.00
1005.001, 31899.00
1006.111, 31796.00
1007.221, 31656.00
1008.331, 31656.00
1009.440, 31576.00
1010.550, 31420.00
1011.659, 31572.00
1012.768, 31316.00
1013.877, 31273.00
1014.986, 31009.00
1016.095, 31001.00
1017.204, 31030.00
1018.312, 30923.00
1019.420, 30904.00
1020.528, 31325.00
1021.636, 30919.00
1022.744, 31200.00
1023.852, 30842.00
1024.959, 31058.00
1026.066, 30876.00
1027.173, 30955.00
1028.280, 30986.00
1029.387, 30775.00
1030.494, 30875.00
1031.600, 30786.00
1032.707, 31006.00
1033.813, 31092.00
1034.919, 31131.00
1036.025, 31281.00
1037.130, 31341.00
1038.236, 31376.00
1039.341, 31473.00
1040.446, 31588.00
1041.552, 31591.00
1042.656, 31764.00
1043.761, 31749.00
1044.866, 32143.00
1045.970, 32206.00
1047.074, 31959.00
1048.179, 32125.00
1049.282, 32450.00
1050.386, 31928.00
1051.490, 32411.00
1052.593, 32391.00
1053.697, 32223.00
1054.800, 32240.00
1055.903, 32266.00
1057.006, 32183.00
1058.108, 32263.00
1059.211, 32586.00
1060.313, 32341.00
1061.415, 32607.00
1062.517, 32667.00
1063.619, 32526.00
1064.721, 32500.00
1065.823, 32535.00
1066.924, 32533.00
1068.025, 32429.00
1069.126, 32536.00
1070.227, 32598.00
1071.328, 32660.00
1072.429, 32552.00
1073.529, 32391.00
1074.629, 32517.00
1075.729, 32479.00
1076.829, 32506.00
1077.929, 32605.00
1079.029, 32574.00
1080.128, 32579.00
1081.228, 32580.00
1082.327, 32526.82
1083.426, 32478.00
1084.525, 32481.00
1085.623, 32406.00
1086.722, 32497.00
1087.820, 32535.00
1088.919, 32480.00
1090.017, 32589.00
1091.115, 32517.00
1092.212, 32420.00
1093.310, 32537.00
1094.407, 32374.00
1095.505, 32338.00
1096.602, 32650.00
1097.699, 32615.00
1098.795, 32338.00
1099.892, 32550.00
1100.989, 32445.00
1102.085, 32411.00
1103.181, 32651.00
1104.277, 32571.00
1105.373, 32508.00
1106.469, 32684.00
1107.564, 32549.00
1108.660, 32426.00
1109.755, 32352.00
1110.850, 32590.00
1111.945, 32312.00
1113.040, 32537.00
1114.134, 32500.00
1115.229, 32378.00
1116.323, 32471.00
1117.417, 32377.00
1118.511, 32517.00
1119.605, 32623.00
1120.698, 32310.00
1121.792, 32543.00
1122.885, 32196.00
1123.978, 32370.00
1125.071, 32383.00
1126.164, 32150.00
1127.257, 32383.00
1128.349, 32498.00
1129.442, 32099.00
1130.534, 32260.00
1131.626, 32230.00
1132.718, 32188.00
1133.810, 32485.00
1134.901, 32221.00
1135.993, 32170.00
1137.084, 32478.00
1138.175, 32302.00
1139.266, 32221.00
1140.357, 32240.00
1141.448, 32284.00
1142.538, 32401.00
1143.628, 32270.00
1144.719, 32087.00
1145.809, 32212.00
1146.898, 32240.00
1147.988, 32492.00
1149.078, 32144.00
1150.167, 32320.00
1151.256, 32216.00
1152.345, 32119.00
1153.434, 32236.00
1154.523, 32201.00
1155.612, 32139.00
1156.700, 31993.00
1157.788, 32081.00
1158.877, 32076.00
1159.964, 32199.00
1161.052, 32135.00
1162.140, 32363.00
1163.227, 32325.00
1164.315, 32308.01
1165.402, 32259.00
1166.489, 32195.00
1167.576, 32114.00
1168.663, 32023.00
1169.749, 32021.70
1170.836, 31997.00
1171.922, 32033.00
1173.008, 32148.00
1174.094, 32190.00
1175.180, 32037.00
1176.265, 32166.00
1177.351, 32046.00
1178.436, 32107.00
1179.521, 32127.00
1180.606, 31866.00
1181.691, 32192.00
1182.776, 32016.00
1183.860, 32066.00
1184.944, 31857.00
1186.029, 31860.16
1187.113, 31867.00
1188.197, 31831.00
1189.280, 31872.00
1190.364, 31900.00
1191.447, 32071.00
1192.531, 31760.00
1193.614, 31979.00
1194.697, 31757.00
1195.779, 32101.00
1196.862, 32063.00
1197.945, 31838.00
1199.027, 31919.00
1200.109, 31876.00
1201.191, 31982.00
1202.273, 31859.00
1203.355, 31957.00
1204.436, 31831.00
1205.518, 31768.00
1206.599, 31905.00
1207.680, 31783.00
1208.761, 31818.00
1209.842, 31943.00
1210.922, 32077.00
1212.003, 32057.00
1213.083, 31794.00
1214.163, 31770.00
1215.243, 31704.00
1216.323, 31820.00
1217.402, 31738.00
1218.482, 31746.00
1219.561, 31812.00
1220.641, 31766.74
1221.720, 31657.00
1222.798, 31788.00
1223.877, 31854.00
1224.956, 31918.00
1226.034, 31562.00
1227.112, 32055.00
1228.191, 31687.00
1229.269, 31826.00
1230.346, 31694.00
1231.424, 31732.00
1232.501, 31693.00
1233.579, 31563.00
1234.656, 31617.00
1235.733, 31810.00
1236.810, 31742.00
1237.886, 31690.00
1238.963, 31617.00
1240.039, 31768.00
1241.116, 31697.00
1242.192, 31621.00
1243.268, 31842.00
1244.343, 31699.00
1245.419, 31561.00
1246.494, 31522.00
1247.570, 31487.10
1248.645, 31813.00
1249.720, 31560.00
1250.795, 31706.00
1251.869, 31839.00
1252.944, 31635.00
1254.018, 31626.00
1255.093, 31686.00
1256.167, 31698.00
1257.240, 31228.00
1258.314, 31498.00
1259.388, 31427.00
1260.461, 31773.00
1261.535, 31545.00
1262.608, 31592.00
1263.681, 31748.00
1264.753, 31548.00
1265.826, 31681.00
1266.899, 31762.00
1267.971, 31598.00
1269.043, 31562.00
1270.115, 31784.00
1271.187, 31611.00
1272.259, 31811.00
1273.330, 31835.00
1274.402, 31745.00
1275.473, 31663.00
1276.544, 31967.00
1277.615, 31885.00
1278.686, 31865.00
1279.756, 31895.00
1280.827, 31876.00
1281.897, 31943.00
1282.967, 31993.00
1284.037, 32009.00
1285.107, 32057.90
1286.177, 32067.38
1287.247, 32104.00
1288.316, 32140.00
1289.385, 32131.50
1290.454, 32281.00
1291.523, 32214.00
1292.592, 32351.00
1293.661, 32532.00
1294.729, 32652.00
1295.797, 32605.00
1296.866, 32563.00
1297.934, 32807.00
1299.001, 32748.00
1300.069, 32995.00
1301.137, 32847.00
1302.204, 32999.00
1303.271, 32796.00
1304.338, 33164.00
1305.405, 33341.00
1306.472, 33191.00
1307.539, 33566.00
1308.605, 33870.00
1309.671, 33912.00
1310.737, 33987.00
1311.803, 34254.00
1312.869, 34538.00
1313.935, 35312.00
1315.000, 35597.00
1316.066, 35983.00
1317.131, 36058.05
1318.196, 36200.00
1319.261, 35792.00
1320.326, 35566.00
1321.390, 35181.00
1322.455, 34897.00
1323.519, 34689.00
1324.583, 34359.00
1325.647, 34085.00
1326.711, 34073.00
1327.775, 33855.00
1328.838, 33400.00
1329.902, 33575.00
1330.965, 33433.00
1332.028, 33248.00
1333.091, 32855.00
1334.153, 32864.00
1335.216, 32665.00
