##NAMES=Painite
##RRUFFID=R060957
##IDEAL CHEMISTRY=CaZr^4+^Al_9_O_15_(BO_3_)
##LOCALITY=Ohngaing Village, Mogok, Burma
##OWNER=RRUFF
##SOURCE=Marcus Origlieri
##DESCRIPTION=Single crystal, reddish-brown to orangish prism section, several prism forms, small transparent areas.
##STATUS=The identification of this mineral has been confirmed by X-ray diffraction.
##URL=rruff.info/R060957
##PIN_ID=M01433
##ORIENTATION=Laser parallel to c* (0 0 1). Fiducial mark perpendicular to laser is parallel to a [1 0 0]
163.0300, 30034.00
164.2600, 30467.00
165.4900, 30500.00
166.7200, 30638.00
167.9500, 30930.00
169.1790, 31202.67
170.4080, 31509.00
171.6380, 32146.00
172.8670, 32849.00
174.0950, 33733.00
175.3240, 34453.00
176.5520, 35860.00
177.7810, 38288.00
179.0090, 41845.00
180.2370, 46402.00
181.4640, 51134.00
182.6920, 52965.00
183.9190, 48467.00
185.1460, 41940.00
186.3730, 37320.00
187.6000, 34434.00
188.8270, 32748.00
190.0530, 31750.00
191.2800, 31020.00
192.5060, 30908.00
193.7320, 30551.00
194.9580, 30753.00
196.1830, 30341.00
197.4090, 30548.00
198.6340, 30345.00
199.8590, 30093.00
201.0840, 30598.00
202.3090, 30457.00
203.5340, 30594.00
204.7580, 30617.00
205.9820, 30820.00
207.2060, 30765.00
208.4300, 31043.00
209.6540, 31311.00
210.8780, 31865.00
212.1010, 32343.00
213.3240, 32818.00
214.5470, 33709.00
215.7700, 34822.00
216.9930, 36499.00
218.2150, 38110.00
219.4380, 39910.00
220.6600, 41445.00
221.8820, 41527.00
223.1040, 40205.00
224.3260, 38264.00
225.5470, 36733.00
226.7680, 34925.00
227.9900, 33667.00
229.2110, 32485.00
230.4310, 32285.00
231.6520, 31550.00
232.8720, 31002.00
234.0930, 31082.00
235.3130, 30609.00
236.5330, 30502.00
237.7530, 30206.00
238.9720, 30015.00
240.1920, 30150.00
241.4110, 30078.00
242.6300, 30038.00
243.8490, 29848.00
245.0680, 30129.00
246.2860, 30090.00
247.5040, 29804.00
248.7230, 29776.00
249.9410, 30036.00
251.1590, 29779.00
252.3760, 30075.00
253.5940, 30005.00
254.8110, 30042.00
256.0280, 30226.00
257.2450, 30147.00
258.4620, 30519.00
259.6790, 30721.00
260.8950, 31070.00
262.1120, 30863.00
263.3280, 30954.00
264.5440, 30860.00
265.7600, 30955.00
266.9750, 30827.00
268.1910, 30853.00
269.4060, 30830.64
270.6210, 30729.00
271.8360, 30702.00
273.0510, 30878.00
274.2650, 30668.00
275.4800, 30825.00
276.6940, 30546.00
277.9080, 30737.00
279.1220, 30769.00
280.3360, 30960.00
281.5490, 31102.33
282.7630, 31232.00
283.9760, 31411.00
285.1890, 31480.00
286.4020, 31593.00
287.6150, 31643.00
288.8270, 31475.00
290.0400, 31483.00
291.2520, 31519.00
292.4640, 31331.00
293.6760, 31349.00
294.8870, 31350.00
296.0990, 31301.00
297.3100, 31465.00
298.5210, 31709.00
299.7320, 32043.00
300.9430, 32284.00
302.1540, 32827.00
303.3640, 33310.00
304.5750, 34054.00
305.7850, 34673.00
306.9950, 35318.00
308.2050, 35858.00
309.4140, 35704.00
310.6240, 35295.00
311.8330, 35139.00
313.0420, 34421.00
314.2510, 34462.00
315.4600, 33294.00
316.6680, 33011.00
317.8770, 32183.00
319.0850, 31872.00
320.2930, 31345.00
321.5010, 31520.00
322.7090, 31061.00
323.9160, 30934.00
325.1240, 30957.00
326.3310, 30933.00
327.5380, 30733.00
328.7450, 31070.00
329.9520, 30888.00
331.1580, 31047.00
332.3650, 31098.00
333.5710, 31104.00
334.7770, 31204.00
335.9830, 31383.00
337.1880, 31479.00
338.3940, 31825.00
339.5990, 31808.00
340.8040, 32179.00
342.0090, 32478.00
343.2140, 32972.00
344.4190, 33163.00
345.6230, 33744.00
346.8280, 34337.00
348.0320, 35135.00
349.2360, 35984.00
350.4400, 36827.00
351.6430, 37103.00
352.8470, 37040.00
354.0500, 36928.00
355.2530, 36049.00
356.4560, 34888.00
357.6590, 34069.00
358.8620, 33080.00
360.0640, 32608.00
361.2660, 32357.00
362.4680, 32106.00
363.6700, 31939.00
364.8720, 31842.00
366.0740, 32034.00
367.2750, 32131.00
368.4760, 32142.00
369.6770, 32151.00
370.8780, 32541.00
372.0790, 32391.00
373.2800, 32953.00
374.4800, 32863.00
375.6800, 33347.00
376.8800, 33858.00
378.0800, 34476.00
379.2800, 35068.00
380.4790, 35600.00
381.6790, 35726.00
382.8780, 35577.00
384.0770, 35496.00
385.2760, 34889.00
386.4750, 34700.00
387.6730, 34672.00
388.8720, 34877.00
390.0700, 35526.00
391.2680, 36329.00
392.4660, 37524.38
393.6630, 39045.00
394.8610, 40775.00
396.0580, 43033.00
397.2550, 45392.00
398.4520, 47494.00
399.6490, 47845.00
400.8460, 46814.00
402.0420, 44061.00
403.2390, 41076.00
404.4350, 38614.00
405.6310, 36589.00
406.8270, 35025.00
408.0220, 34090.00
409.2180, 33529.00
410.4130, 32778.00
411.6080, 32468.00
412.8030, 32398.00
413.9980, 32192.00
415.1920, 31846.00
416.3870, 31562.00
417.5810, 31504.00
418.7750, 31607.00
419.9690, 31330.00
421.1630, 31284.00
422.3570, 31562.00
423.5500, 31227.00
424.7430, 31469.00
425.9360, 31581.00
427.1290, 31642.00
428.3220, 32008.00
429.5150, 32189.00
430.7070, 32575.00
431.8990, 33453.00
433.0910, 34377.00
434.2830, 35630.00
435.4750, 36689.00
436.6670, 36749.20
437.8580, 36745.59
439.0490, 36370.00
440.2400, 35572.00
441.4310, 34734.00
442.6220, 34063.00
443.8130, 33911.00
445.0030, 34069.00
446.1930, 34319.00
447.3830, 34541.00
448.5730, 34856.00
449.7630, 34741.00
450.9520, 34435.00
452.1420, 34187.00
453.3310, 34219.00
454.5200, 34266.00
455.7090, 34725.00
456.8980, 35060.00
458.0860, 35851.00
459.2740, 36892.00
460.4630, 38164.00
461.6510, 39536.00
462.8380, 41777.00
464.0260, 44426.00
465.2140, 46785.00
466.4010, 50346.00
467.5880, 52268.00
468.7750, 52945.00
469.9620, 51776.00
471.1490, 49407.00
472.3350, 47104.00
473.5220, 44710.00
474.7080, 43253.00
475.8940, 42571.00
477.0800, 41789.00
478.2650, 40781.00
479.4510, 40004.00
480.6360, 38676.00
481.8210, 37501.00
483.0060, 36320.00
484.1910, 35457.00
485.3760, 34829.00
486.5600, 34088.00
487.7440, 34000.00
488.9290, 33787.00
490.1130, 33717.00
491.2960, 33603.00
492.4800, 33436.00
493.6630, 33589.00
494.8470, 33208.00
496.0300, 32988.00
497.2130, 33013.00
498.3960, 32560.00
499.5780, 32270.00
500.7610, 32141.00
501.9430, 32153.00
503.1250, 32037.00
504.3070, 32182.00
505.4890, 32145.00
506.6710, 32107.00
507.8520, 32215.00
509.0330, 32486.00
510.2140, 32382.00
511.3950, 32740.00
512.5760, 32585.00
513.7570, 32715.00
514.9370, 32787.00
516.1170, 32893.00
517.2980, 33225.00
518.4780, 33548.00
519.6570, 33678.00
520.8370, 34148.00
522.0160, 34491.00
523.1960, 35589.00
524.3750, 35891.00
525.5540, 36961.00
526.7320, 37819.00
527.9110, 38711.00
529.0890, 39712.00
530.2680, 40541.00
531.4460, 41508.00
532.6240, 42394.00
533.8010, 44250.00
534.9790, 45979.00
536.1560, 48226.00
537.3340, 50534.00
538.5110, 52451.00
539.6880, 53115.00
540.8650, 52403.00
542.0410, 49971.00
543.2180, 47000.00
544.3940, 43494.00
545.5700, 41077.00
546.7460, 38556.00
547.9220, 37200.00
549.0970, 35835.00
550.2730, 34819.00
551.4480, 34151.00
552.6230, 33741.00
553.7980, 32975.00
554.9730, 33045.00
556.1470, 32616.00
557.3210, 32744.00
558.4960, 32684.00
559.6700, 32354.00
560.8440, 32641.00
562.0170, 32935.00
563.1910, 33014.00
564.3640, 33202.00
565.5380, 33584.00
566.7110, 34203.00
567.8840, 34680.00
569.0560, 35841.00
570.2290, 36306.00
571.4010, 37163.00
572.5740, 37603.00
573.7460, 38035.00
574.9180, 37604.00
576.0890, 37699.00
577.2610, 37069.00
578.4320, 36899.00
579.6040, 36970.00
580.7750, 37027.00
581.9450, 37514.00
583.1160, 37903.00
584.2870, 38464.00
585.4570, 39548.00
586.6270, 40870.00
587.7980, 42342.00
588.9670, 43121.00
590.1370, 44217.00
591.3070, 44414.00
592.4760, 43992.00
593.6450, 42945.00
594.8140, 41265.00
595.9830, 39665.00
597.1520, 38090.00
598.3210, 36668.00
599.4890, 35548.00
600.6570, 34630.00
601.8250, 34045.00
602.9930, 33364.00
604.1610, 33140.00
605.3290, 32655.00
606.4960, 32548.00
607.6630, 32542.00
608.8300, 32123.00
609.9970, 32127.00
611.1640, 32335.00
612.3300, 32217.00
613.4970, 32326.00
614.6630, 32892.00
615.8290, 32828.00
616.9950, 33043.00
618.1610, 33324.00
619.3260, 33550.00
620.4920, 33515.00
621.6570, 33590.00
622.8220, 33556.00
623.9870, 33489.00
625.1520, 33283.00
626.3160, 32895.00
627.4810, 32744.00
628.6450, 32636.00
629.8090, 32464.00
630.9730, 32290.00
632.1370, 32274.00
633.3000, 32353.00
634.4640, 32361.00
635.6270, 32478.00
636.7900, 32599.00
637.9530, 32929.00
639.1160, 33239.00
640.2780, 33754.00
641.4410, 34255.00
642.6030, 34642.00
643.7650, 35308.00
644.9270, 36236.00
646.0890, 36958.00
647.2500, 38038.00
648.4120, 38901.00
649.5730, 40083.00
650.7340, 40591.00
651.8950, 40992.00
653.0560, 40966.00
654.2160, 40591.00
655.3770, 39480.00
656.5370, 38699.00
657.6970, 37408.00
658.8570, 36458.00
660.0170, 35561.00
661.1760, 34734.00
662.3360, 33924.00
663.4950, 33589.00
664.6540, 32912.92
665.8130, 32235.00
666.9720, 32114.00
668.1310, 31642.00
669.2890, 31578.00
670.4470, 31185.00
671.6050, 31093.00
672.7630, 30763.00
673.9210, 30789.00
675.0790, 30379.00
676.2360, 30301.00
677.3930, 30553.00
678.5510, 30430.00
679.7080, 30582.00
680.8640, 30454.00
682.0210, 30606.00
683.1770, 30362.00
684.3340, 30458.00
685.4900, 30242.00
686.6460, 30453.00
687.8020, 30384.00
688.9570, 30414.00
690.1130, 30694.00
691.2680, 30626.00
692.4230, 30751.00
693.5780, 30797.00
694.7330, 30901.00
695.8880, 31134.00
697.0420, 31360.00
698.1960, 31417.00
699.3510, 31708.00
700.5040, 31998.00
701.6580, 32141.00
702.8120, 32358.00
703.9650, 32973.00
705.1190, 33280.00
706.2720, 33695.00
707.4250, 34275.00
708.5780, 35093.00
709.7300, 35835.00
710.8830, 37161.00
712.0350, 38055.00
713.1870, 39543.00
714.3390, 41134.00
715.4910, 43011.00
716.6430, 44672.00
717.7940, 46192.00
718.9460, 47325.00
720.0970, 47439.00
721.2480, 46394.00
722.3990, 45642.00
723.5500, 44005.00
724.7000, 42363.00
725.8500, 40631.00
727.0010, 39263.00
728.1510, 37867.00
729.3010, 36877.00
730.4500, 36430.00
731.6000, 35455.00
732.7490, 35098.00
733.8980, 34445.00
735.0470, 34179.00
736.1960, 34152.00
737.3450, 33930.00
738.4940, 33841.00
739.6420, 33944.00
740.7900, 33898.00
741.9380, 34016.00
743.0860, 33730.00
744.2340, 33770.00
745.3810, 33698.00
746.5290, 33661.46
747.6760, 33744.59
748.8230, 33723.00
749.9700, 33879.00
751.1170, 33963.00
752.2630, 33982.00
753.4100, 34181.00
754.5560, 34209.00
755.7020, 34279.00
756.8480, 34350.00
757.9940, 34402.00
759.1390, 34684.00
760.2850, 34910.00
761.4300, 34814.00
762.5750, 35183.00
763.7200, 35468.00
764.8650, 35519.00
766.0100, 35994.00
767.1540, 36164.00
768.2980, 36730.00
769.4420, 36828.00
770.5860, 37610.00
771.7300, 37696.00
772.8740, 38280.00
774.0170, 38259.00
775.1610, 39085.00
776.3040, 40068.00
777.4470, 40442.00
778.5900, 41178.00
779.7320, 42395.00
780.8750, 43419.00
782.0170, 44650.00
783.1590, 45614.00
784.3010, 47091.00
785.4430, 48793.00
786.5850, 50297.00
787.7260, 51282.00
788.8680, 52461.00
790.0090, 53438.00
791.1500, 54238.00
792.2910, 54211.00
793.4310, 54178.00
794.5720, 54159.00
795.7120, 52593.00
796.8520, 52417.00
797.9920, 51513.00
799.1320, 50614.00
800.2720, 49966.00
801.4120, 49529.00
802.5510, 48702.00
803.6900, 47725.00
804.8290, 47411.00
805.9680, 46329.00
807.1070, 45408.00
808.2450, 44787.00
809.3840, 43947.00
810.5220, 43293.00
811.6600, 42432.00
812.7980, 42001.00
813.9360, 41455.00
815.0730, 40483.00
816.2110, 40379.00
817.3480, 39509.00
818.4850, 38985.00
819.6220, 37900.00
820.7590, 37362.00
821.8960, 36707.00
823.0320, 35871.00
824.1680, 35578.00
825.3040, 34904.00
826.4400, 34556.00
827.5760, 34038.00
828.7120, 33720.00
829.8470, 33560.00
830.9830, 33436.00
832.1180, 33232.64
833.2530, 33063.00
834.3880, 32961.00
835.5220, 32886.00
836.6570, 32861.64
837.7910, 32932.00
838.9250, 32966.00
840.0590, 33061.00
841.1930, 33266.00
842.3270, 33042.00
843.4600, 33333.00
844.5940, 33253.00
845.7270, 33090.00
846.8600, 33288.00
847.9930, 32986.00
849.1250, 32796.00
850.2580, 32825.00
851.3900, 32743.00
852.5230, 32403.00
853.6550, 32279.00
854.7870, 32145.00
855.9180, 31722.00
857.0500, 31585.00
858.1810, 31273.00
859.3130, 31128.00
860.4440, 30911.14
861.5750, 30741.66
862.7050, 30566.00
863.8360, 30452.00
864.9660, 30410.00
866.0970, 30268.00
867.2270, 29928.00
868.3570, 29958.00
869.4870, 29706.00
870.6160, 29790.00
871.7460, 29741.00
872.8750, 29429.00
874.0040, 29293.00
875.1330, 29207.00
876.2620, 29108.00
877.3910, 29205.00
878.5190, 29123.00
879.6470, 29197.00
880.7760, 29029.00
881.9040, 29230.00
883.0310, 29093.00
884.1590, 28735.00
885.2870, 28692.00
886.4140, 28692.00
887.5410, 28832.00
888.6680, 28910.00
889.7950, 28817.00
890.9220, 28876.00
892.0480, 28925.00
893.1750, 28587.00
894.3010, 28768.00
895.4270, 28620.00
896.5530, 28559.00
897.6790, 28567.00
898.8040, 28393.00
899.9300, 28567.00
901.0550, 28499.00
902.1800, 28461.00
903.3050, 28489.00
904.4300, 28309.00
905.5540, 28505.00
906.6790, 28439.00
907.8030, 28367.00
908.9270, 28189.00
910.0510, 28181.00
911.1750, 28156.00
912.2990, 28435.00
913.4220, 28232.00
914.5450, 28300.00
915.6690, 28176.00
916.7920, 28448.00
917.9140, 28127.00
919.0370, 28085.00
920.1600, 27919.00
921.2820, 28200.00
922.4040, 27973.00
923.5260, 28133.00
924.6480, 27966.00
925.7700, 27892.00
926.8910, 27843.00
928.0130, 27942.00
929.1340, 27814.00
930.2550, 28037.00
931.3760, 27855.00
932.4970, 28004.00
933.6170, 28004.00
934.7380, 27735.00
935.8580, 28017.00
936.9780, 27936.00
938.0980, 27819.00
939.2180, 28092.00
940.3370, 28076.00
941.4570, 27892.00
942.5760, 27896.00
943.6950, 27830.00
944.8140, 27702.00
945.9330, 27685.00
947.0520, 27816.00
948.1700, 27672.00
949.2890, 27559.00
950.4070, 27774.00
951.5250, 27623.00
952.6430, 27606.00
953.7600, 27826.00
954.8780, 27712.00
955.9950, 27601.00
957.1120, 27582.00
958.2290, 27448.00
959.3460, 27720.00
960.4630, 27674.00
961.5800, 27508.00
962.6960, 27689.00
963.8120, 27654.00
964.9280, 27615.00
966.0440, 27956.00
967.1600, 27710.00
968.2760, 27988.00
969.3910, 28054.00
970.5060, 28132.00
971.6210, 28127.00
972.7360, 28253.00
973.8510, 28360.00
974.9660, 28523.00
976.0800, 28801.00
977.1950, 29082.00
978.3090, 29192.00
979.4230, 29643.00
980.5370, 30439.00
981.6500, 31417.00
982.7640, 32390.00
983.8770, 33894.00
984.9900, 35499.00
986.1030, 37898.00
987.2160, 40583.00
988.3290, 42907.00
989.4420, 44707.00
990.5540, 44722.00
991.6660, 42527.00
992.7780, 39934.00
993.8900, 37190.00
995.0020, 34778.00
996.1140, 32828.00
997.2250, 31734.00
998.3360, 30728.00
999.4470, 30030.00
1000.558, 29703.00
1001.669, 29357.00
1002.780, 28632.00
1003.890, 28469.00
1005.001, 28070.00
1006.111, 28023.00
1007.221, 27784.00
1008.331, 27788.00
1009.440, 27771.00
1010.550, 27778.00
1011.659, 27610.00
1012.768, 27789.00
1013.877, 27585.00
1014.986, 27456.00
1016.095, 27695.00
1017.204, 27440.00
1018.312, 27444.00
1019.420, 27277.00
1020.528, 27369.00
1021.636, 27379.00
1022.744, 27299.00
1023.852, 27291.00
1024.959, 27324.00
1026.066, 27239.00
1027.173, 27387.00
1028.280, 27324.00
1029.387, 27232.00
1030.494, 27284.00
1031.600, 27432.00
1032.707, 27549.00
1033.813, 27398.00
1034.919, 27664.00
1036.025, 27646.00
1037.130, 27674.00
1038.236, 27957.00
1039.341, 27754.00
1040.446, 27872.00
1041.552, 28112.00
1042.656, 28153.00
1043.761, 28062.00
1044.866, 28355.00
1045.970, 28284.00
1047.074, 28522.00
1048.179, 28520.00
1049.282, 28594.00
1050.386, 28679.00
1051.490, 28711.00
1052.593, 28734.00
1053.697, 28711.00
1054.800, 28897.00
1055.903, 28847.00
1057.006, 28678.00
1058.108, 28740.00
1059.211, 28572.00
1060.313, 28677.00
1061.415, 28606.00
1062.517, 28815.00
1063.619, 28699.00
1064.721, 28647.00
1065.823, 28817.00
1066.924, 28881.00
1068.025, 28576.00
1069.126, 28939.00
1070.227, 28780.00
1071.328, 29033.00
1072.429, 28957.00
1073.529, 28940.00
1074.629, 28814.00
1075.729, 28902.00
1076.829, 28918.00
1077.929, 28691.00
1079.029, 28976.00
1080.128, 28920.00
1081.228, 28765.00
1082.327, 28753.00
1083.426, 28706.22
1084.525, 28925.00
1085.623, 28752.00
1086.722, 28807.00
1087.820, 28990.00
1088.919, 28767.00
1090.017, 28982.00
1091.115, 28898.00
1092.212, 28936.00
1093.310, 28834.00
1094.407, 28732.00
1095.505, 28990.00
1096.602, 28918.00
1097.699, 28966.00
1098.795, 28743.00
1099.892, 28620.00
1100.989, 28954.00
1102.085, 28595.00
1103.181, 28837.00
1104.277, 28739.00
1105.373, 28806.00
1106.469, 28907.00
1107.564, 28967.00
1108.660, 28891.00
1109.755, 28876.00
1110.850, 28879.77
1111.945, 28835.71
1113.040, 28866.00
1114.134, 28802.00
1115.229, 28799.00
1116.323, 28799.00
1117.417, 28924.00
1118.511, 28887.00
1119.605, 28622.00
1120.698, 28876.00
1121.792, 28644.00
1122.885, 29026.00
1123.978, 28918.00
1125.071, 28861.00
1126.164, 28795.00
1127.257, 28792.00
1128.349, 28596.00
1129.442, 28609.00
1130.534, 28725.00
1131.626, 28759.00
1132.718, 28911.00
1133.810, 28728.00
1134.901, 28582.00
1135.993, 28624.00
1137.084, 28835.00
1138.175, 28668.00
1139.266, 28618.00
1140.357, 28620.00
1141.448, 28462.00
1142.538, 28589.00
1143.628, 28689.00
1144.719, 28752.00
1145.809, 28680.00
1146.898, 28608.00
1147.988, 28631.22
1149.078, 28677.00
1150.167, 28594.00
1151.256, 28427.00
1152.345, 28357.00
1153.434, 28530.00
1154.523, 28575.00
1155.612, 28764.00
1156.700, 28542.00
1157.788, 28385.00
1158.877, 28443.00
1159.964, 28581.00
1161.052, 28682.00
1162.140, 28625.00
1163.227, 28484.00
1164.315, 28409.00
1165.402, 28450.00
1166.489, 28423.00
1167.576, 28559.00
1168.663, 28396.00
1169.749, 28620.00
1170.836, 28570.00
1171.922, 28573.00
1173.008, 28717.00
1174.094, 28370.00
1175.180, 28468.00
1176.265, 28653.00
1177.351, 28549.00
1178.436, 28349.00
1179.521, 28543.00
1180.606, 28452.00
1181.691, 28461.00
1182.776, 28570.00
1183.860, 28332.00
1184.944, 28426.00
1186.029, 28418.00
1187.113, 28309.00
1188.197, 28133.00
1189.280, 28297.00
1190.364, 28418.00
1191.447, 28524.00
1192.531, 28334.00
1193.614, 28920.00
1194.697, 28313.00
1195.779, 28152.00
1196.862, 28483.00
1197.945, 28072.00
1199.027, 28369.00
1200.109, 28470.00
1201.191, 28183.00
1202.273, 28167.00
1203.355, 28331.00
1204.436, 28313.00
1205.518, 28413.00
1206.599, 28340.00
1207.680, 28300.00
1208.761, 28175.00
1209.842, 28307.00
1210.922, 28233.00
1212.003, 28316.00
1213.083, 28232.00
1214.163, 28215.46
1215.243, 28063.00
1216.323, 28082.00
1217.402, 28066.51
1218.482, 28078.00
1219.561, 28122.00
1220.641, 28084.00
1221.720, 28140.00
1222.798, 28388.00
1223.877, 28067.00
1224.956, 28124.00
1226.034, 28365.00
1227.112, 28184.00
1228.191, 28137.00
1229.269, 28095.00
1230.346, 28047.19
1231.424, 28069.00
1232.501, 28093.00
1233.579, 28152.00
1234.656, 28284.00
1235.733, 28068.00
1236.810, 28264.00
1237.886, 28140.00
1238.963, 28114.00
1240.039, 28067.00
1241.116, 28089.71
1242.192, 28373.00
1243.268, 28218.00
1244.343, 28242.00
1245.419, 28348.00
1246.494, 28231.65
1247.570, 28303.44
1248.645, 28108.00
1249.720, 28298.00
1250.795, 28180.00
1251.869, 28101.00
1252.944, 27991.00
1254.018, 28100.00
1255.093, 27952.00
1256.167, 28130.00
1257.240, 28174.00
1258.314, 28040.00
1259.388, 27919.00
1260.461, 28166.00
1261.535, 28092.00
1262.608, 28002.00
1263.681, 28330.00
1264.753, 28020.00
1265.826, 28065.00
1266.899, 28094.00
1267.971, 28197.00
1269.043, 28388.00
1270.115, 28176.00
1271.187, 28433.00
1272.259, 27981.00
1273.330, 28236.00
1274.402, 28193.00
1275.473, 28216.00
1276.544, 28406.00
1277.615, 28205.00
1278.686, 28376.00
1279.756, 28323.00
1280.827, 28383.00
1281.897, 28412.00
1282.967, 28617.00
1284.037, 28445.00
1285.107, 28680.00
1286.177, 28584.00
1287.247, 28598.00
1288.316, 28922.00
1289.385, 28732.00
1290.454, 28963.00
1291.523, 28981.00
1292.592, 29270.00
1293.661, 28992.00
1294.729, 29200.00
1295.797, 29309.00
1296.866, 29045.00
1297.934, 29177.00
1299.001, 29428.00
1300.069, 29635.00
1301.137, 29752.00
1302.204, 29625.00
1303.271, 29761.00
1304.338, 29685.00
1305.405, 29751.00
1306.472, 29942.00
1307.539, 30058.00
1308.605, 30416.00
1309.671, 30448.00
1310.737, 30800.00
1311.803, 30894.00
1312.869, 31605.00
1313.935, 31990.00
1315.000, 32469.00
1316.066, 33033.00
1317.131, 33308.00
1318.196, 33501.00
1319.261, 33060.00
1320.326, 32860.00
1321.390, 32128.00
1322.455, 31887.00
1323.519, 31593.00
1324.583, 31187.00
1325.647, 30859.00
1326.711, 30494.00
1327.775, 30346.33
1328.838, 30230.00
1329.902, 30130.00
1330.965, 30071.00
1332.028, 29986.00
1333.091, 29906.00
1334.153, 29473.00
1335.216, 29473.00
