##NAMES=Painite
##RRUFFID=R060957
##IDEAL CHEMISTRY=CaZr^4+^Al_9_O_15_(BO_3_)
##LOCALITY=Ohngaing Village, Mogok, Burma
##OWNER=RRUFF
##SOURCE=Marcus Origlieri
##DESCRIPTION=Single crystal, reddish-brown to orangish prism section, several prism forms, small transparent areas.
##STATUS=The identification of this mineral has been confirmed by X-ray diffraction.
##URL=rruff.info/R060957
##PIN_ID=M01225
##ORIENTATION=Laser parallel to -a* (-1 0 0). Fiducial mark perpendicular to laser is parallel to c [0 0 1]
163.0300, 15421.00
164.2600, 15552.00
165.4900, 15392.00
166.7200, 15603.00
167.9500, 15596.00
169.1790, 15623.00
170.4080, 15667.00
171.6380, 15783.00
172.8670, 16104.00
174.0950, 16049.00
175.3240, 16101.00
176.5520, 16323.00
177.7810, 16757.00
179.0090, 16972.00
180.2370, 17435.00
181.4640, 17531.00
182.6920, 17689.00
183.9190, 17472.00
185.1460, 17072.00
186.3730, 16782.00
187.6000, 16354.00
188.8270, 16037.00
190.0530, 15884.00
191.2800, 15816.00
192.5060, 15765.00
193.7320, 15845.00
194.9580, 15832.00
196.1830, 15871.00
197.4090, 16092.00
198.6340, 16133.00
199.8590, 16332.00
201.0840, 16431.00
202.3090, 16562.76
203.5340, 16750.00
204.7580, 16906.00
205.9820, 17025.00
207.2060, 17335.00
208.4300, 17371.00
209.6540, 17465.00
210.8780, 17431.00
212.1010, 17522.00
213.3240, 17534.00
214.5470, 17902.00
215.7700, 18244.00
216.9930, 18576.00
218.2150, 19043.00
219.4380, 19810.00
220.6600, 20472.00
221.8820, 20673.00
223.1040, 20849.00
224.3260, 20714.00
225.5470, 20389.00
226.7680, 19927.00
227.9900, 19169.00
229.2110, 18484.00
230.4310, 17844.00
231.6520, 17358.96
232.8720, 16891.00
234.0930, 16620.00
235.3130, 16397.00
236.5330, 16255.00
237.7530, 16164.00
238.9720, 16090.00
240.1920, 15904.00
241.4110, 15961.00
242.6300, 15674.00
243.8490, 15800.00
245.0680, 15877.00
246.2860, 15659.00
247.5040, 15760.00
248.7230, 15685.00
249.9410, 15886.00
251.1590, 15670.00
252.3760, 15768.00
253.5940, 15797.00
254.8110, 15770.00
256.0280, 15818.00
257.2450, 15762.00
258.4620, 15989.00
259.6790, 16107.00
260.8950, 16153.00
262.1120, 15965.00
263.3280, 15908.00
264.5440, 16049.00
265.7600, 16043.00
266.9750, 16103.00
268.1910, 16145.00
269.4060, 16014.00
270.6210, 16158.00
271.8360, 16098.00
273.0510, 16116.00
274.2650, 16326.00
275.4800, 16454.00
276.6940, 16348.00
277.9080, 16413.00
279.1220, 16604.00
280.3360, 16755.00
281.5490, 16741.00
282.7630, 16999.00
283.9760, 16884.00
285.1890, 17026.00
286.4020, 17053.00
287.6150, 16935.00
288.8270, 16914.00
290.0400, 16922.00
291.2520, 16715.00
292.4640, 16761.00
293.6760, 16850.00
294.8870, 16662.00
296.0990, 16771.00
297.3100, 16738.00
298.5210, 16671.00
299.7320, 16982.00
300.9430, 16982.00
302.1540, 16816.00
303.3640, 16997.00
304.5750, 17163.00
305.7850, 17401.00
306.9950, 17333.00
308.2050, 17353.00
309.4140, 17305.00
310.6240, 17159.00
311.8330, 16974.00
313.0420, 16879.00
314.2510, 16725.00
315.4600, 16637.00
316.6680, 16475.00
317.8770, 16544.00
319.0850, 16291.00
320.2930, 16354.00
321.5010, 16200.00
322.7090, 16205.00
323.9160, 16271.00
325.1240, 16381.00
326.3310, 16146.00
327.5380, 16110.00
328.7450, 16266.00
329.9520, 16314.00
331.1580, 16182.00
332.3650, 16173.00
333.5710, 16314.00
334.7770, 16329.00
335.9830, 16337.00
337.1880, 16303.00
338.3940, 16334.00
339.5990, 16363.00
340.8040, 16365.00
342.0090, 16494.00
343.2140, 16736.00
344.4190, 16769.00
345.6230, 16779.00
346.8280, 16728.00
348.0320, 16939.00
349.2360, 16939.00
350.4400, 17201.00
351.6430, 16952.00
352.8470, 17190.00
354.0500, 17008.00
355.2530, 17126.00
356.4560, 16964.00
357.6590, 16868.00
358.8620, 16880.00
360.0640, 16795.00
361.2660, 16650.00
362.4680, 16850.00
363.6700, 16751.00
364.8720, 16826.00
366.0740, 16892.00
367.2750, 17130.00
368.4760, 17149.00
369.6770, 17194.00
370.8780, 17470.00
372.0790, 17824.00
373.2800, 18254.00
374.4800, 18540.00
375.6800, 19030.00
376.8800, 19669.00
378.0800, 20147.00
379.2800, 20667.00
380.4790, 21177.00
381.6790, 21251.00
382.8780, 21023.00
384.0770, 20717.00
385.2760, 20205.00
386.4750, 19520.00
387.6730, 19138.00
388.8720, 18851.00
390.0700, 18346.00
391.2680, 18401.00
392.4660, 18363.00
393.6630, 18528.00
394.8610, 18864.00
396.0580, 19201.00
397.2550, 19609.00
398.4520, 19814.00
399.6490, 19904.00
400.8460, 20171.00
402.0420, 20343.00
403.2390, 20195.00
404.4350, 20088.00
405.6310, 19980.00
406.8270, 19920.00
408.0220, 19872.00
409.2180, 19770.00
410.4130, 19932.00
411.6080, 19445.00
412.8030, 19164.00
413.9980, 18828.00
415.1920, 25725.00
416.3870, 21589.00
417.5810, 22135.00
418.7750, 18011.00
419.9690, 17204.00
421.1630, 17537.00
422.3570, 17420.00
423.5500, 17748.00
424.7430, 17556.00
425.9360, 17885.00
427.1290, 18036.00
428.3220, 18706.00
429.5150, 19530.00
430.7070, 19990.00
431.8990, 20618.00
433.0910, 21524.00
434.2830, 22336.00
435.4750, 22965.00
436.6670, 23471.00
437.8580, 23045.00
439.0490, 22505.00
440.2400, 22010.00
441.4310, 21444.00
442.6220, 20669.00
443.8130, 20250.00
445.0030, 20223.00
446.1930, 20325.00
447.3830, 20181.00
448.5730, 19984.00
449.7630, 19814.00
450.9520, 19688.00
452.1420, 19588.00
453.3310, 19441.00
454.5200, 19329.00
455.7090, 19681.00
456.8980, 19989.00
458.0860, 20643.00
459.2740, 21418.00
460.4630, 22534.00
461.6510, 23516.00
462.8380, 24658.00
464.0260, 25866.00
465.2140, 27250.00
466.4010, 28250.00
467.5880, 28661.00
468.7750, 28263.00
469.9620, 27079.00
471.1490, 25432.00
472.3350, 23984.00
473.5220, 22502.00
474.7080, 21548.00
475.8940, 20672.00
477.0800, 19905.00
478.2650, 19797.00
479.4510, 19581.00
480.6360, 19382.00
481.8210, 19401.00
483.0060, 19341.00
484.1910, 19410.00
485.3760, 19481.00
486.5600, 19559.00
487.7440, 19964.00
488.9290, 19997.00
490.1130, 20232.00
491.2960, 20409.00
492.4800, 20380.00
493.6630, 20429.00
494.8470, 20227.00
496.0300, 20102.00
497.2130, 19715.00
498.3960, 19737.00
499.5780, 19640.00
500.7610, 19776.00
501.9430, 19925.00
503.1250, 20114.00
504.3070, 20357.00
505.4890, 20811.00
506.6710, 21152.00
507.8520, 21471.00
509.0330, 21713.00
510.2140, 21871.31
511.3950, 21951.09
512.5760, 21979.00
513.7570, 21904.00
514.9370, 21736.00
516.1170, 21586.00
517.2980, 21788.00
518.4780, 21822.00
519.6570, 22329.00
520.8370, 22707.00
522.0160, 23643.00
523.1960, 24487.00
524.3750, 25594.00
525.5540, 25983.00
526.7320, 26934.00
527.9110, 27358.00
529.0890, 27492.00
530.2680, 27230.00
531.4460, 26669.00
532.6240, 26020.00
533.8010, 25145.00
534.9790, 24328.00
536.1560, 23813.00
537.3340, 23001.00
538.5110, 22453.00
539.6880, 21947.00
540.8650, 21539.00
542.0410, 21085.00
543.2180, 20487.00
544.3940, 20084.00
545.5700, 19610.72
546.7460, 19024.00
547.9220, 18817.00
549.0970, 18416.00
550.2730, 18178.00
551.4480, 18100.00
552.6230, 18083.00
553.7980, 18080.00
554.9730, 18005.09
556.1470, 17945.00
557.3210, 17939.00
558.4960, 17949.00
559.6700, 18023.00
560.8440, 18344.00
562.0170, 18601.00
563.1910, 18748.00
564.3640, 19219.00
565.5380, 19779.00
566.7110, 20373.00
567.8840, 21283.00
569.0560, 21828.00
570.2290, 22731.00
571.4010, 23542.00
572.5740, 24211.00
573.7460, 24424.00
574.9180, 24491.00
576.0890, 24209.00
577.2610, 23464.00
578.4320, 22572.00
579.6040, 22008.00
580.7750, 21318.00
581.9450, 20738.00
583.1160, 20574.00
584.2870, 20460.00
585.4570, 20477.00
586.6270, 20480.00
587.7980, 20727.00
588.9670, 20594.00
590.1370, 20946.00
591.3070, 20815.00
592.4760, 20621.00
593.6450, 20181.00
594.8140, 19963.00
595.9830, 19844.00
597.1520, 19351.00
598.3210, 18979.00
599.4890, 18804.00
600.6570, 18437.00
601.8250, 18634.00
602.9930, 18382.00
604.1610, 18636.00
605.3290, 18464.00
606.4960, 18690.00
607.6630, 18995.00
608.8300, 19325.00
609.9970, 19905.00
611.1640, 20516.00
612.3300, 21243.00
613.4970, 22242.00
614.6630, 22960.00
615.8290, 24142.00
616.9950, 25155.00
618.1610, 25763.00
619.3260, 26290.00
620.4920, 26353.00
621.6570, 25945.00
622.8220, 25377.00
623.9870, 24369.00
625.1520, 23722.00
626.3160, 22676.00
627.4810, 21896.00
628.6450, 21167.00
629.8090, 20474.00
630.9730, 19793.00
632.1370, 19411.00
633.3000, 18957.00
634.4640, 18773.00
635.6270, 18360.00
636.7900, 18315.00
637.9530, 18219.00
639.1160, 18242.00
640.2780, 18243.00
641.4410, 18109.00
642.6030, 18104.00
643.7650, 18110.69
644.9270, 18185.00
646.0890, 18202.00
647.2500, 18176.00
648.4120, 18296.00
649.5730, 18346.00
650.7340, 18260.00
651.8950, 18111.00
653.0560, 18339.00
654.2160, 18237.00
655.3770, 18163.00
656.5370, 17901.00
657.6970, 17849.00
658.8570, 17577.00
660.0170, 17554.00
661.1760, 17580.00
662.3360, 17351.00
663.4950, 17225.00
664.6540, 17267.00
665.8130, 17281.00
666.9720, 17002.00
668.1310, 16994.00
669.2890, 16904.00
670.4470, 16910.00
671.6050, 17091.00
672.7630, 17046.00
673.9210, 16954.00
675.0790, 17077.00
676.2360, 16924.00
677.3930, 17084.00
678.5510, 16715.00
679.7080, 16875.00
680.8640, 16943.00
682.0210, 16947.00
683.1770, 17224.00
684.3340, 17316.00
685.4900, 17393.00
686.6460, 17656.00
687.8020, 17725.00
688.9570, 17936.00
690.1130, 18036.00
691.2680, 18295.00
692.4230, 18682.00
693.5780, 18660.00
694.7330, 18838.00
695.8880, 18929.00
697.0420, 18995.00
698.1960, 19244.00
699.3510, 19275.00
700.5040, 19158.00
701.6580, 19229.00
702.8120, 19556.00
703.9650, 19436.00
705.1190, 19496.00
706.2720, 19457.00
707.4250, 19443.00
708.5780, 19131.00
709.7300, 19201.00
710.8830, 19061.00
712.0350, 19200.00
713.1870, 19143.00
714.3390, 19367.00
715.4910, 19158.00
716.6430, 19440.00
717.7940, 19517.00
718.9460, 19521.00
720.0970, 19645.00
721.2480, 19339.00
722.3990, 19328.00
723.5500, 19040.00
724.7000, 19012.00
725.8500, 18772.00
727.0010, 18593.00
728.1510, 18448.00
729.3010, 18145.00
730.4500, 18281.00
731.6000, 18304.00
732.7490, 18333.00
733.8980, 18142.00
735.0470, 18055.00
736.1960, 18033.00
737.3450, 18025.00
738.4940, 18020.43
739.6420, 18039.96
740.7900, 18070.00
741.9380, 18118.00
743.0860, 18146.00
744.2340, 18228.00
745.3810, 18272.00
746.5290, 18351.00
747.6760, 18309.00
748.8230, 18268.00
749.9700, 18277.00
751.1170, 18603.00
752.2630, 18389.00
753.4100, 18292.00
754.5560, 18709.00
755.7020, 18409.00
756.8480, 18520.00
757.9940, 18570.00
759.1390, 18563.00
760.2850, 18766.00
761.4300, 18656.00
762.5750, 18796.00
763.7200, 19157.00
764.8650, 19181.00
766.0100, 19245.00
767.1540, 19518.00
768.2980, 19672.00
769.4420, 19905.00
770.5860, 20037.00
771.7300, 20193.32
772.8740, 20364.04
774.0170, 20440.00
775.1610, 20683.00
776.3040, 20763.00
777.4470, 20953.00
778.5900, 21181.00
779.7320, 21441.00
780.8750, 21667.00
782.0170, 22007.00
783.1590, 22109.00
784.3010, 22389.00
785.4430, 22782.00
786.5850, 23138.00
787.7260, 23513.00
788.8680, 23640.00
790.0090, 23678.00
791.1500, 23948.00
792.2910, 24176.00
793.4310, 23980.00
794.5720, 23930.00
795.7120, 23661.00
796.8520, 23293.00
797.9920, 23222.00
799.1320, 22745.00
800.2720, 22585.00
801.4120, 22363.00
802.5510, 22199.00
803.6900, 21806.00
804.8290, 21738.00
805.9680, 21628.00
807.1070, 21293.00
808.2450, 21235.00
809.3840, 20992.00
810.5220, 20841.00
811.6600, 20624.00
812.7980, 20560.00
813.9360, 20526.00
815.0730, 20242.00
816.2110, 20146.00
817.3480, 19849.00
818.4850, 19587.00
819.6220, 19528.00
820.7590, 19047.00
821.8960, 18960.00
823.0320, 18716.00
824.1680, 18597.00
825.3040, 18403.00
826.4400, 18181.00
827.5760, 18080.00
828.7120, 17899.00
829.8470, 17840.06
830.9830, 17957.00
832.1180, 17829.00
833.2530, 17805.00
834.3880, 17961.00
835.5220, 17868.00
836.6570, 17824.00
837.7910, 18092.00
838.9250, 17960.00
840.0590, 17834.00
841.1930, 17945.00
842.3270, 18078.00
843.4600, 17998.00
844.5940, 18101.00
845.7270, 17966.00
846.8600, 17990.00
847.9930, 18017.00
849.1250, 17758.00
850.2580, 17767.00
851.3900, 17746.00
852.5230, 17577.00
853.6550, 17616.00
854.7870, 17361.00
855.9180, 17164.00
857.0500, 17098.00
858.1810, 16988.00
859.3130, 16930.88
860.4440, 16893.53
861.5750, 16860.00
862.7050, 16899.00
863.8360, 16840.00
864.9660, 16951.00
866.0970, 16737.00
867.2270, 16758.00
868.3570, 16564.00
869.4870, 16626.00
870.6160, 16687.00
871.7460, 16625.00
872.8750, 16548.00
874.0040, 16580.00
875.1330, 16454.00
876.2620, 16625.00
877.3910, 16339.00
878.5190, 16462.00
879.6470, 16358.00
880.7760, 16378.00
881.9040, 16662.00
883.0310, 16422.00
884.1590, 16502.00
885.2870, 16367.00
886.4140, 16407.00
887.5410, 16299.00
888.6680, 16271.00
889.7950, 16212.00
890.9220, 16413.00
892.0480, 16410.00
893.1750, 16383.00
894.3010, 16444.80
895.4270, 16361.00
896.5530, 16405.00
897.6790, 16347.00
898.8040, 16267.00
899.9300, 16316.00
901.0550, 16278.00
902.1800, 16325.00
903.3050, 16333.00
904.4300, 16282.00
905.5540, 16373.00
906.6790, 16481.00
907.8030, 16370.00
908.9270, 16306.00
910.0510, 16256.00
911.1750, 16362.00
912.2990, 16266.00
913.4220, 16334.00
914.5450, 16262.00
915.6690, 16085.00
916.7920, 16172.00
917.9140, 16256.00
919.0370, 16149.00
920.1600, 16171.00
921.2820, 16193.00
922.4040, 16337.00
923.5260, 16064.00
924.6480, 16253.00
925.7700, 16047.00
926.8910, 16176.00
928.0130, 16237.00
929.1340, 16055.00
930.2550, 16220.00
931.3760, 16261.00
932.4970, 16175.00
933.6170, 16174.00
934.7380, 15991.00
935.8580, 16139.00
936.9780, 16045.00
938.0980, 16112.00
939.2180, 16183.00
940.3370, 15994.00
941.4570, 16145.00
942.5760, 16118.00
943.6950, 16193.00
944.8140, 16228.00
945.9330, 16020.00
947.0520, 16221.00
948.1700, 16053.00
949.2890, 16242.00
950.4070, 16133.00
951.5250, 16284.00
952.6430, 16221.00
953.7600, 16107.00
954.8780, 16149.00
955.9950, 15992.00
957.1120, 16047.00
958.2290, 16110.00
959.3460, 16086.00
960.4630, 16143.00
961.5800, 16009.00
962.6960, 16167.00
963.8120, 16093.00
964.9280, 16157.00
966.0440, 16217.00
967.1600, 16227.00
968.2760, 16259.75
969.3910, 16254.00
970.5060, 16292.00
971.6210, 16306.00
972.7360, 16351.00
973.8510, 16313.00
974.9660, 16486.00
976.0800, 16376.00
977.1950, 16602.00
978.3090, 16575.00
979.4230, 16806.00
980.5370, 17001.00
981.6500, 17175.00
982.7640, 17612.00
983.8770, 18067.00
984.9900, 18646.00
986.1030, 19241.00
987.2160, 20012.00
988.3290, 20305.00
989.4420, 20716.00
990.5540, 20806.00
991.6660, 20302.00
992.7780, 19577.00
993.8900, 19020.00
995.0020, 18453.00
996.1140, 17740.00
997.2250, 17340.00
998.3360, 17065.00
999.4470, 16793.00
1000.558, 16699.00
1001.669, 16546.00
1002.780, 16518.00
1003.890, 16306.00
1005.001, 16302.00
1006.111, 16311.00
1007.221, 16173.00
1008.331, 16286.00
1009.440, 16393.00
1010.550, 16369.00
1011.659, 16162.00
1012.768, 16181.00
1013.877, 16204.00
1014.986, 16238.00
1016.095, 16150.00
1017.204, 16126.00
1018.312, 16146.00
1019.420, 16089.17
1020.528, 16132.00
1021.636, 16024.00
1022.744, 16049.00
1023.852, 15981.00
1024.959, 15972.00
1026.066, 16062.00
1027.173, 16168.00
1028.280, 16093.00
1029.387, 16234.00
1030.494, 16088.00
1031.600, 16153.00
1032.707, 16368.00
1033.813, 16209.00
1034.919, 16185.00
1036.025, 16397.00
1037.130, 16475.00
1038.236, 16466.00
1039.341, 16378.00
1040.446, 16621.00
1041.552, 16697.00
1042.656, 16526.00
1043.761, 16790.00
1044.866, 16939.00
1045.970, 16760.00
1047.074, 16730.00
1048.179, 16813.00
1049.282, 16970.00
1050.386, 16858.00
1051.490, 16993.28
1052.593, 16984.63
1053.697, 17143.00
1054.800, 16981.00
1055.903, 17111.00
1057.006, 17085.00
1058.108, 16980.00
1059.211, 17124.00
1060.313, 17041.00
1061.415, 16938.00
1062.517, 16910.00
1063.619, 16924.00
1064.721, 16918.43
1065.823, 17041.00
1066.924, 17015.00
1068.025, 17016.00
1069.126, 17106.00
1070.227, 17093.00
1071.328, 17029.00
1072.429, 17124.00
1073.529, 17073.00
1074.629, 17209.00
1075.729, 17102.00
1076.829, 17109.00
1077.929, 17117.00
1079.029, 17263.00
1080.128, 17350.00
1081.228, 17152.00
1082.327, 17068.00
1083.426, 17114.00
1084.525, 17150.00
1085.623, 17187.00
1086.722, 17075.00
1087.820, 17039.00
1088.919, 17079.31
1090.017, 17250.00
1091.115, 17132.00
1092.212, 17203.00
1093.310, 17182.00
1094.407, 17273.00
1095.505, 17071.00
1096.602, 16959.00
1097.699, 17133.00
1098.795, 17270.00
1099.892, 17119.00
1100.989, 17134.00
1102.085, 17133.00
1103.181, 17227.00
1104.277, 17216.00
1105.373, 16976.00
1106.469, 17146.00
1107.564, 17145.00
1108.660, 16983.00
1109.755, 17206.00
1110.850, 17275.00
1111.945, 17194.00
1113.040, 17091.00
1114.134, 17171.00
1115.229, 17236.00
1116.323, 17133.00
1117.417, 17114.00
1118.511, 17243.00
1119.605, 17170.00
1120.698, 17152.00
1121.792, 17202.00
1122.885, 17136.00
1123.978, 17051.00
1125.071, 17036.00
1126.164, 17228.00
1127.257, 17237.00
1128.349, 17100.00
1129.442, 17273.00
1130.534, 17067.00
1131.626, 17192.00
1132.718, 17164.00
1133.810, 17113.00
1134.901, 16919.00
1135.993, 16979.47
1137.084, 16902.42
1138.175, 17100.00
1139.266, 16825.00
1140.357, 17059.00
1141.448, 16943.00
1142.538, 17239.00
1143.628, 17209.00
1144.719, 17156.00
1145.809, 16977.00
1146.898, 17085.00
1147.988, 16895.00
1149.078, 17063.00
1150.167, 17135.00
1151.256, 17177.00
1152.345, 17211.67
1153.434, 16966.00
1154.523, 17167.00
1155.612, 17126.00
1156.700, 17062.00
1157.788, 17277.00
1158.877, 17109.00
1159.964, 17089.00
1161.052, 17145.00
1162.140, 17091.00
1163.227, 17207.00
1164.315, 17069.00
1165.402, 17082.00
1166.489, 17101.00
1167.576, 16984.00
1168.663, 16978.00
1169.749, 16875.00
1170.836, 16999.00
1171.922, 17112.00
1173.008, 17171.00
1174.094, 17140.00
1175.180, 17073.00
1176.265, 17238.00
1177.351, 17088.00
1178.436, 17000.00
1179.521, 17102.00
1180.606, 17000.00
1181.691, 17153.00
1182.776, 17005.00
1183.860, 16949.00
1184.944, 17089.00
1186.029, 16873.00
1187.113, 16942.00
1188.197, 17013.00
1189.280, 17056.00
1190.364, 17074.95
1191.447, 16975.00
1192.531, 17051.00
1193.614, 16944.00
1194.697, 16860.00
1195.779, 17150.00
1196.862, 16971.00
1197.945, 16966.00
1199.027, 16888.00
1200.109, 17052.00
1201.191, 17177.00
1202.273, 17059.00
1203.355, 17074.00
1204.436, 17027.00
1205.518, 16997.00
1206.599, 16933.00
1207.680, 17138.00
1208.761, 16931.00
1209.842, 16905.00
1210.922, 17034.00
1212.003, 16867.00
1213.083, 16910.23
1214.163, 17098.00
1215.243, 16860.00
1216.323, 16983.00
1217.402, 16972.00
1218.482, 16951.00
1219.561, 17084.00
1220.641, 17073.00
1221.720, 17010.00
1222.798, 17011.00
1223.877, 16984.00
1224.956, 16892.00
1226.034, 16980.00
1227.112, 16937.00
1228.191, 17061.00
1229.269, 16842.00
1230.346, 17004.00
1231.424, 16789.00
1232.501, 17079.00
1233.579, 16944.00
1234.656, 17030.00
1235.733, 16956.00
1236.810, 16784.00
1237.886, 16919.00
1238.963, 16788.00
1240.039, 17070.00
1241.116, 17005.00
1242.192, 16981.00
1243.268, 16896.00
1244.343, 16702.00
1245.419, 17017.00
1246.494, 16818.00
1247.570, 17012.00
1248.645, 16932.00
1249.720, 16787.00
1250.795, 16915.00
1251.869, 16905.00
1252.944, 16938.00
1254.018, 16808.00
1255.093, 16803.00
1256.167, 16858.00
1257.240, 16750.00
1258.314, 17003.00
1259.388, 16974.00
1260.461, 16971.00
1261.535, 16990.00
1262.608, 16938.00
1263.681, 16908.00
1264.753, 16881.00
1265.826, 16972.00
1266.899, 16949.01
1267.971, 17081.00
1269.043, 16940.00
1270.115, 16948.00
1271.187, 16828.00
1272.259, 16872.00
1273.330, 17017.00
1274.402, 17050.00
1275.473, 17019.00
1276.544, 17038.00
1277.615, 16957.00
1278.686, 16901.00
1279.756, 16823.00
1280.827, 16861.00
1281.897, 17245.00
1282.967, 17060.00
1284.037, 17172.00
1285.107, 16904.00
1286.177, 17082.00
1287.247, 17194.00
1288.316, 17262.00
1289.385, 17047.00
1290.454, 17177.00
1291.523, 17112.00
1292.592, 17032.00
1293.661, 17177.00
1294.729, 17154.00
1295.797, 17346.00
1296.866, 17167.00
1297.934, 17203.00
1299.001, 17286.00
1300.069, 17477.00
1301.137, 17339.00
1302.204, 17345.00
1303.271, 17320.00
1304.338, 17303.00
1305.405, 17325.00
1306.472, 17283.00
1307.539, 17384.00
1308.605, 17297.00
1309.671, 17349.00
1310.737, 17279.00
1311.803, 17492.00
1312.869, 17495.00
1313.935, 17586.00
1315.000, 17606.00
1316.066, 17651.00
1317.131, 17659.00
1318.196, 17534.00
1319.261, 17529.00
1320.326, 17461.00
1321.390, 17574.00
1322.455, 17353.00
1323.519, 17441.00
1324.583, 17384.00
1325.647, 17330.00
1326.711, 17313.00
1327.775, 17162.00
1328.838, 17250.00
1329.902, 17294.00
1330.965, 17040.00
1332.028, 17260.00
1333.091, 17219.00
1334.153, 17063.00
1335.216, 17220.00
