##NAMES=Painite
##RRUFFID=R060957
##IDEAL CHEMISTRY=CaZr^4+^Al_9_O_15_(BO_3_)
##LOCALITY=Ohngaing Village, Mogok, Burma
##OWNER=RRUFF
##SOURCE=Marcus Origlieri
##DESCRIPTION=Single crystal, reddish-brown to orangish prism section, several prism forms, small transparent areas.
##STATUS=The identification of this mineral has been confirmed by X-ray diffraction.
##URL=rruff.info/R060957
##PIN_ID=M01433
##ORIENTATION=Laser parallel to c* (0 0 1). Fiducial mark perpendicular to laser is parallel to a [1 0 0]
163.0300, 25994.00
164.2600, 26230.00
165.4900, 26223.00
166.7200, 26348.00
167.9500, 26609.00
169.1790, 26932.42
170.4080, 27334.00
171.6380, 27940.00
172.8670, 28707.00
174.0950, 29499.00
175.3240, 30194.00
176.5520, 31232.00
177.7810, 33094.00
179.0090, 35805.00
180.2370, 39461.00
181.4640, 42862.00
182.6920, 43397.00
183.9190, 39482.00
185.1460, 35070.00
186.3730, 31907.00
187.6000, 30070.00
188.8270, 28514.00
190.0530, 27392.00
191.2800, 26908.00
192.5060, 26713.00
193.7320, 26479.00
194.9580, 26558.00
196.1830, 26436.00
197.4090, 26307.00
198.6340, 26527.00
199.8590, 26516.00
201.0840, 26458.00
202.3090, 26726.00
203.5340, 26919.00
204.7580, 26841.00
205.9820, 27251.00
207.2060, 27302.00
208.4300, 27655.00
209.6540, 27780.00
210.8780, 27853.00
212.1010, 28224.00
213.3240, 28885.00
214.5470, 29299.00
215.7700, 30040.00
216.9930, 31198.00
218.2150, 32418.00
219.4380, 33771.00
220.6600, 34492.00
221.8820, 34221.00
223.1040, 33108.00
224.3260, 31785.00
225.5470, 30484.00
226.7680, 29368.00
227.9900, 28414.00
229.2110, 28034.00
230.4310, 27483.00
231.6520, 27018.00
232.8720, 26745.00
234.0930, 26682.00
235.3130, 26291.00
236.5330, 26138.00
237.7530, 26346.00
238.9720, 26250.00
240.1920, 26086.00
241.4110, 26039.00
242.6300, 25895.00
243.8490, 25812.00
245.0680, 26044.00
246.2860, 26067.00
247.5040, 26033.00
248.7230, 25997.00
249.9410, 25951.00
251.1590, 25721.00
252.3760, 25866.00
253.5940, 26251.00
254.8110, 26151.00
256.0280, 26054.00
257.2450, 25998.00
258.4620, 26507.00
259.6790, 26644.00
260.8950, 27187.00
262.1120, 26598.00
263.3280, 26549.00
264.5440, 26692.00
265.7600, 26811.00
266.9750, 26679.00
268.1910, 26774.00
269.4060, 26773.00
270.6210, 26905.00
271.8360, 26426.00
273.0510, 26550.00
274.2650, 26570.00
275.4800, 26772.00
276.6940, 26735.00
277.9080, 26823.00
279.1220, 26906.00
280.3360, 27102.00
281.5490, 27126.00
282.7630, 27514.00
283.9760, 27479.00
285.1890, 27466.00
286.4020, 27842.00
287.6150, 27546.00
288.8270, 27524.00
290.0400, 27288.00
291.2520, 27267.07
292.4640, 27266.00
293.6760, 27257.00
294.8870, 27481.00
296.0990, 27511.00
297.3100, 27344.00
298.5210, 27729.00
299.7320, 28023.00
300.9430, 28256.00
302.1540, 28759.00
303.3640, 29189.00
304.5750, 29867.00
305.7850, 30481.00
306.9950, 30821.00
308.2050, 31060.00
309.4140, 30904.00
310.6240, 30521.00
311.8330, 30189.00
313.0420, 29641.00
314.2510, 29412.00
315.4600, 28934.00
316.6680, 28292.00
317.8770, 28037.00
319.0850, 27455.00
320.2930, 27530.00
321.5010, 27136.00
322.7090, 27000.00
323.9160, 26967.00
325.1240, 27129.00
326.3310, 26917.00
327.5380, 26821.00
328.7450, 26875.00
329.9520, 26883.00
331.1580, 26961.00
332.3650, 26929.00
333.5710, 27002.00
334.7770, 27213.00
335.9830, 27047.00
337.1880, 27357.00
338.3940, 27716.00
339.5990, 27776.00
340.8040, 28058.00
342.0090, 28421.00
343.2140, 28734.95
344.4190, 29272.00
345.6230, 29553.00
346.8280, 30194.00
348.0320, 30566.00
349.2360, 30876.00
350.4400, 31462.00
351.6430, 31947.00
352.8470, 31774.00
354.0500, 31529.00
355.2530, 30483.00
356.4560, 30125.00
357.6590, 29318.00
358.8620, 28912.00
360.0640, 28570.00
361.2660, 28094.00
362.4680, 27817.00
363.6700, 27855.00
364.8720, 27949.00
366.0740, 27817.00
367.2750, 27886.00
368.4760, 27966.00
369.6770, 28151.00
370.8780, 28341.99
372.0790, 28774.00
373.2800, 28915.00
374.4800, 29266.00
375.6800, 29728.00
376.8800, 30063.00
378.0800, 30846.00
379.2800, 31422.00
380.4790, 31729.00
381.6790, 32225.00
382.8780, 31593.00
384.0770, 31427.00
385.2760, 31138.00
386.4750, 31305.00
387.6730, 30843.00
388.8720, 30711.00
390.0700, 31283.00
391.2680, 32083.00
392.4660, 32789.00
393.6630, 33998.00
394.8610, 35255.00
396.0580, 37405.00
397.2550, 39637.00
398.4520, 40905.00
399.6490, 41283.00
400.8460, 40203.00
402.0420, 38005.00
403.2390, 36042.00
404.4350, 34061.00
405.6310, 32517.00
406.8270, 31435.00
408.0220, 30676.00
409.2180, 30460.00
410.4130, 30087.00
411.6080, 29759.00
412.8030, 29184.00
413.9980, 29070.00
415.1920, 28306.00
416.3870, 28174.00
417.5810, 27902.00
418.7750, 27827.00
419.9690, 27832.00
421.1630, 27695.00
422.3570, 27415.00
423.5500, 27800.00
424.7430, 27817.00
425.9360, 27798.00
427.1290, 28137.00
428.3220, 28622.00
429.5150, 29018.00
430.7070, 29795.00
431.8990, 30752.00
433.0910, 31773.00
434.2830, 33152.00
435.4750, 34433.00
436.6670, 34887.00
437.8580, 34701.00
439.0490, 33842.00
440.2400, 32344.00
441.4310, 31449.00
442.6220, 30600.00
443.8130, 30208.00
445.0030, 30028.00
446.1930, 30001.00
447.3830, 29809.00
448.5730, 29881.00
449.7630, 29927.00
450.9520, 29865.00
452.1420, 29897.00
453.3310, 30040.00
454.5200, 30465.00
455.7090, 30862.00
456.8980, 31347.00
458.0860, 32448.00
459.2740, 33505.00
460.4630, 35283.00
461.6510, 36789.00
462.8380, 38899.00
464.0260, 41172.00
465.2140, 44495.00
466.4010, 47367.00
467.5880, 49024.00
468.7750, 49561.00
469.9620, 47310.00
471.1490, 44687.00
472.3350, 42280.00
473.5220, 40290.00
474.7080, 38468.00
475.8940, 37330.00
477.0800, 36664.00
478.2650, 35677.00
479.4510, 34656.00
480.6360, 33853.00
481.8210, 32735.00
483.0060, 31916.00
484.1910, 31233.00
485.3760, 30618.00
486.5600, 30366.00
487.7440, 30300.00
488.9290, 29978.00
490.1130, 29939.00
491.2960, 29969.00
492.4800, 29909.00
493.6630, 29978.00
494.8470, 29654.00
496.0300, 29407.00
497.2130, 29374.00
498.3960, 29214.00
499.5780, 28922.00
500.7610, 28859.00
501.9430, 28814.00
503.1250, 29142.00
504.3070, 29037.00
505.4890, 29713.00
506.6710, 29458.00
507.8520, 29978.00
509.0330, 30268.00
510.2140, 30231.00
511.3950, 30582.00
512.5760, 30588.00
513.7570, 30357.00
514.9370, 30263.00
516.1170, 30105.00
517.2980, 30237.00
518.4780, 30355.00
519.6570, 30743.00
520.8370, 31183.00
522.0160, 31444.00
523.1960, 32238.00
524.3750, 33044.00
525.5540, 33597.00
526.7320, 34426.00
527.9110, 35183.00
529.0890, 36213.00
530.2680, 36973.00
531.4460, 37414.00
532.6240, 38427.00
533.8010, 39203.00
534.9790, 40837.00
536.1560, 41983.00
537.3340, 44014.00
538.5110, 45061.00
539.6880, 45361.00
540.8650, 44160.00
542.0410, 42406.00
543.2180, 39669.00
544.3940, 37648.00
545.5700, 35436.00
546.7460, 33600.00
547.9220, 32160.00
549.0970, 31111.00
550.2730, 30291.00
551.4480, 29753.00
552.6230, 29433.00
553.7980, 29251.00
554.9730, 28940.00
556.1470, 28843.00
557.3210, 28662.00
558.4960, 28599.00
559.6700, 28472.00
560.8440, 28737.00
562.0170, 28931.00
563.1910, 29476.00
564.3640, 29770.00
565.5380, 30200.00
566.7110, 30732.00
567.8840, 31710.00
569.0560, 32869.00
570.2290, 33722.00
571.4010, 34908.00
572.5740, 35564.00
573.7460, 35923.00
574.9180, 35949.00
576.0890, 35584.00
577.2610, 35166.00
578.4320, 34447.00
579.6040, 34000.00
580.7750, 33574.00
581.9450, 33647.00
583.1160, 33970.00
584.2870, 34517.00
585.4570, 35167.00
586.6270, 36255.00
587.7980, 37312.00
588.9670, 37812.00
590.1370, 38742.00
591.3070, 38603.00
592.4760, 37903.00
593.6450, 37079.00
594.8140, 35735.00
595.9830, 34537.00
597.1520, 33034.00
598.3210, 32161.00
599.4890, 31288.00
600.6570, 30341.00
601.8250, 29923.00
602.9930, 29652.00
604.1610, 29162.00
605.3290, 29180.00
606.4960, 28836.00
607.6630, 29107.00
608.8300, 29046.00
609.9970, 29069.00
611.1640, 29585.00
612.3300, 29731.00
613.4970, 30170.00
614.6630, 30803.00
615.8290, 31508.00
616.9950, 32207.00
618.1610, 33021.00
619.3260, 33203.00
620.4920, 33432.00
621.6570, 32838.00
622.8220, 32493.00
623.9870, 31610.00
625.1520, 31182.00
626.3160, 30425.00
627.4810, 29889.00
628.6450, 29641.00
629.8090, 29256.00
630.9730, 28802.00
632.1370, 28712.00
633.3000, 28594.00
634.4640, 28791.00
635.6270, 28815.00
636.7900, 28921.00
637.9530, 29001.00
639.1160, 29270.00
640.2780, 29607.00
641.4410, 29954.00
642.6030, 30436.56
643.7650, 31056.00
644.9270, 31616.00
646.0890, 32229.00
647.2500, 33093.00
648.4120, 33809.00
649.5730, 34347.00
650.7340, 34921.00
651.8950, 35128.00
653.0560, 35221.00
654.2160, 34757.00
655.3770, 34067.00
656.5370, 33225.00
657.6970, 32155.00
658.8570, 31438.00
660.0170, 30685.00
661.1760, 29742.00
662.3360, 29357.00
663.4950, 28713.00
664.6540, 28634.00
665.8130, 28130.00
666.9720, 27807.00
668.1310, 27667.00
669.2890, 27345.00
670.4470, 27098.00
671.6050, 26979.00
672.7630, 26873.00
673.9210, 26630.00
675.0790, 26541.00
676.2360, 26796.00
677.3930, 26462.00
678.5510, 26753.00
679.7080, 26512.00
680.8640, 26604.00
682.0210, 26678.00
683.1770, 26622.00
684.3340, 26722.47
685.4900, 26860.00
686.6460, 26794.00
687.8020, 26785.00
688.9570, 26756.00
690.1130, 27000.00
691.2680, 27005.00
692.4230, 27152.00
693.5780, 27276.00
694.7330, 27357.00
695.8880, 27598.00
697.0420, 27812.00
698.1960, 28114.00
699.3510, 28375.00
700.5040, 28609.00
701.6580, 28959.00
702.8120, 29249.08
703.9650, 29531.00
705.1190, 29945.00
706.2720, 30346.00
707.4250, 30772.00
708.5780, 31205.00
709.7300, 32075.00
710.8830, 32830.00
712.0350, 33660.00
713.1870, 34903.00
714.3390, 36022.00
715.4910, 37199.00
716.6430, 38454.00
717.7940, 39868.00
718.9460, 40099.00
720.0970, 40149.00
721.2480, 39697.00
722.3990, 38721.00
723.5500, 37487.00
724.7000, 36166.00
725.8500, 35153.00
727.0010, 33876.00
728.1510, 32771.00
729.3010, 32003.00
730.4500, 31481.00
731.6000, 31003.00
732.7490, 30492.00
733.8980, 30057.00
735.0470, 30061.00
736.1960, 29882.00
737.3450, 29584.00
738.4940, 29385.00
739.6420, 29501.00
740.7900, 29579.00
741.9380, 29621.00
743.0860, 29430.00
744.2340, 29625.00
745.3810, 29667.00
746.5290, 29397.00
747.6760, 29423.00
748.8230, 29550.00
749.9700, 29769.00
751.1170, 29789.00
752.2630, 29751.00
753.4100, 29865.00
754.5560, 29861.00
755.7020, 30202.00
756.8480, 30220.00
757.9940, 30417.00
759.1390, 30269.00
760.2850, 30061.00
761.4300, 30678.00
762.5750, 31051.00
763.7200, 30836.00
764.8650, 31288.00
766.0100, 31787.00
767.1540, 32029.00
768.2980, 32427.00
769.4420, 32627.00
770.5860, 32883.00
771.7300, 33300.00
772.8740, 33660.00
774.0170, 34220.00
775.1610, 34602.00
776.3040, 34956.00
777.4470, 35600.00
778.5900, 36198.00
779.7320, 36818.00
780.8750, 37824.00
782.0170, 38999.00
783.1590, 39828.00
784.3010, 41348.00
785.4430, 42257.00
786.5850, 43573.00
787.7260, 44520.00
788.8680, 45402.00
790.0090, 46173.00
791.1500, 46625.00
792.2910, 46804.00
793.4310, 46634.00
794.5720, 46344.00
795.7120, 45783.00
796.8520, 45221.00
797.9920, 44345.00
799.1320, 43863.00
800.2720, 43206.00
801.4120, 42709.00
802.5510, 42230.00
803.6900, 41378.00
804.8290, 40727.00
805.9680, 40045.00
807.1070, 39397.00
808.2450, 38771.71
809.3840, 38260.00
810.5220, 37521.00
811.6600, 37013.00
812.7980, 36356.00
813.9360, 36163.00
815.0730, 35334.00
816.2110, 35113.00
817.3480, 34292.00
818.4850, 33922.00
819.6220, 33169.00
820.7590, 32425.00
821.8960, 31805.00
823.0320, 31353.00
824.1680, 31010.00
825.3040, 30465.00
826.4400, 29968.00
827.5760, 29827.00
828.7120, 29499.00
829.8470, 29165.00
830.9830, 29268.00
832.1180, 28672.00
833.2530, 28757.00
834.3880, 28843.00
835.5220, 28539.00
836.6570, 28631.00
837.7910, 28747.00
838.9250, 28862.00
840.0590, 28937.00
841.1930, 28997.97
842.3270, 29040.59
843.4600, 28998.00
844.5940, 29037.00
845.7270, 28870.00
846.8600, 28759.00
847.9930, 28940.00
849.1250, 28797.00
850.2580, 28802.00
851.3900, 28465.00
852.5230, 28166.00
853.6550, 28153.00
854.7870, 27991.00
855.9180, 27379.00
857.0500, 27339.00
858.1810, 27107.00
859.3130, 27082.00
860.4440, 27004.00
861.5750, 26609.00
862.7050, 26820.00
863.8360, 26579.00
864.9660, 26247.00
866.0970, 26161.00
867.2270, 26274.00
868.3570, 25985.00
869.4870, 26129.00
870.6160, 25890.00
871.7460, 25770.00
872.8750, 25824.00
874.0040, 25722.00
875.1330, 25713.00
876.2620, 25471.00
877.3910, 25414.00
878.5190, 25165.00
879.6470, 25499.00
880.7760, 25421.00
881.9040, 25507.00
883.0310, 25453.00
884.1590, 25296.00
885.2870, 25211.00
886.4140, 25134.00
887.5410, 25024.00
888.6680, 25133.00
889.7950, 25096.00
890.9220, 25109.00
892.0480, 25023.00
893.1750, 25083.00
894.3010, 25141.00
895.4270, 25054.00
896.5530, 24976.00
897.6790, 25112.00
898.8040, 24782.00
899.9300, 25076.00
901.0550, 24741.00
902.1800, 25002.00
903.3050, 24775.00
904.4300, 24955.00
905.5540, 24861.00
906.6790, 24671.00
907.8030, 24983.00
908.9270, 24712.00
910.0510, 24812.00
911.1750, 24658.00
912.2990, 24699.00
913.4220, 24682.00
914.5450, 24644.00
915.6690, 24754.00
916.7920, 24489.00
917.9140, 24588.00
919.0370, 24480.00
920.1600, 24572.00
921.2820, 24534.00
922.4040, 24412.00
923.5260, 24679.00
924.6480, 24448.00
925.7700, 24556.00
926.8910, 24574.00
928.0130, 24304.00
929.1340, 24313.00
930.2550, 24418.00
931.3760, 24300.00
932.4970, 24326.00
933.6170, 24542.00
934.7380, 24391.00
935.8580, 24333.00
936.9780, 24345.00
938.0980, 24254.00
939.2180, 24301.00
940.3370, 24195.00
941.4570, 24315.00
942.5760, 24262.00
943.6950, 24238.00
944.8140, 24182.00
945.9330, 24278.00
947.0520, 24217.00
948.1700, 24225.00
949.2890, 24202.00
950.4070, 24151.00
951.5250, 24146.00
952.6430, 24175.00
953.7600, 24195.48
954.8780, 23962.00
955.9950, 24289.00
957.1120, 24318.00
958.2290, 24342.00
959.3460, 24088.00
960.4630, 24138.00
961.5800, 24270.00
962.6960, 24345.00
963.8120, 24207.00
964.9280, 24251.00
966.0440, 24368.00
967.1600, 24220.00
968.2760, 24363.00
969.3910, 24445.00
970.5060, 24484.00
971.6210, 24635.00
972.7360, 24717.00
973.8510, 24918.00
974.9660, 25010.00
976.0800, 25208.00
977.1950, 25462.00
978.3090, 25730.00
979.4230, 25962.00
980.5370, 26426.00
981.6500, 27327.00
982.7640, 28283.00
983.8770, 29722.00
984.9900, 31383.00
986.1030, 33331.00
987.2160, 35156.00
988.3290, 37225.00
989.4420, 38286.00
990.5540, 37929.00
991.6660, 36892.00
992.7780, 34193.00
993.8900, 31884.00
995.0020, 30062.00
996.1140, 28587.00
997.2250, 27673.00
998.3360, 26512.00
999.4470, 26230.00
1000.558, 25476.00
1001.669, 25219.00
1002.780, 25073.00
1003.890, 24970.00
1005.001, 24752.00
1006.111, 24496.00
1007.221, 24573.00
1008.331, 24439.00
1009.440, 24486.00
1010.550, 24470.00
1011.659, 24120.00
1012.768, 24185.00
1013.877, 24097.00
1014.986, 24060.00
1016.095, 24011.00
1017.204, 24084.00
1018.312, 24040.00
1019.420, 24059.00
1020.528, 24062.00
1021.636, 23920.00
1022.744, 24178.00
1023.852, 23840.00
1024.959, 23908.00
1026.066, 23861.00
1027.173, 24032.00
1028.280, 23945.00
1029.387, 24025.00
1030.494, 23852.00
1031.600, 24208.00
1032.707, 23972.00
1033.813, 24195.00
1034.919, 24132.00
1036.025, 23935.00
1037.130, 24290.00
1038.236, 24308.00
1039.341, 24380.00
1040.446, 24485.00
1041.552, 24609.00
1042.656, 24580.00
1043.761, 24548.00
1044.866, 24803.00
1045.970, 24954.00
1047.074, 24867.00
1048.179, 24964.00
1049.282, 25087.00
1050.386, 25009.00
1051.490, 25184.00
1052.593, 24995.00
1053.697, 25096.00
1054.800, 25163.00
1055.903, 25167.00
1057.006, 25092.00
1058.108, 25246.00
1059.211, 25189.00
1060.313, 25125.00
1061.415, 24934.00
1062.517, 25294.00
1063.619, 25089.00
1064.721, 25186.00
1065.823, 25178.00
1066.924, 25247.00
1068.025, 25348.00
1069.126, 25373.86
1070.227, 25389.00
1071.328, 25390.00
1072.429, 25346.00
1073.529, 25132.00
1074.629, 25156.00
1075.729, 25312.00
1076.829, 25120.00
1077.929, 25279.00
1079.029, 25325.00
1080.128, 25276.00
1081.228, 25315.00
1082.327, 25362.00
1083.426, 25315.00
1084.525, 25248.00
1085.623, 25119.00
1086.722, 25135.00
1087.820, 25411.00
1088.919, 25320.00
1090.017, 25369.00
1091.115, 25272.00
1092.212, 25459.00
1093.310, 25231.00
1094.407, 25356.00
1095.505, 25249.00
1096.602, 25121.00
1097.699, 25486.00
1098.795, 25263.00
1099.892, 25304.00
1100.989, 25290.00
1102.085, 25302.00
1103.181, 25318.00
1104.277, 25329.00
1105.373, 25308.00
1106.469, 25304.03
1107.564, 25287.95
1108.660, 25264.00
1109.755, 25254.00
1110.850, 25232.00
1111.945, 25227.00
1113.040, 25202.66
1114.134, 25164.00
1115.229, 25214.00
1116.323, 25244.00
1117.417, 25374.00
1118.511, 25401.00
1119.605, 25255.00
1120.698, 25506.00
1121.792, 25406.00
1122.885, 25220.00
1123.978, 25205.00
1125.071, 25163.00
1126.164, 25362.00
1127.257, 25220.00
1128.349, 25269.68
1129.442, 25269.00
1130.534, 25190.00
1131.626, 25210.00
1132.718, 25067.00
1133.810, 25088.00
1134.901, 25365.00
1135.993, 25227.00
1137.084, 25116.00
1138.175, 25469.00
1139.266, 25214.00
1140.357, 25068.00
1141.448, 25115.00
1142.538, 25237.00
1143.628, 25312.00
1144.719, 25057.00
1145.809, 25239.00
1146.898, 25164.00
1147.988, 25284.00
1149.078, 25252.00
1150.167, 25188.00
1151.256, 25204.67
1152.345, 25180.67
1153.434, 25153.00
1154.523, 25156.00
1155.612, 25193.00
1156.700, 25129.87
1157.788, 25086.00
1158.877, 24985.00
1159.964, 24939.00
1161.052, 24964.00
1162.140, 25230.00
1163.227, 25123.00
1164.315, 24942.00
1165.402, 25298.00
1166.489, 25126.00
1167.576, 25308.00
1168.663, 25111.00
1169.749, 24939.00
1170.836, 25167.00
1171.922, 24922.00
1173.008, 25122.00
1174.094, 24889.00
1175.180, 24989.00
1176.265, 24940.00
1177.351, 24959.00
1178.436, 25081.00
1179.521, 24999.00
1180.606, 24944.00
1181.691, 25069.00
1182.776, 25081.00
1183.860, 25096.00
1184.944, 25088.67
1186.029, 24978.00
1187.113, 24963.00
1188.197, 24911.00
1189.280, 24777.00
1190.364, 25062.00
1191.447, 24847.00
1192.531, 24988.00
1193.614, 25008.00
1194.697, 24942.00
1195.779, 25041.00
1196.862, 24999.00
1197.945, 24950.00
1199.027, 25012.00
1200.109, 24768.00
1201.191, 24984.00
1202.273, 24759.00
1203.355, 25097.00
1204.436, 24835.00
1205.518, 25133.00
1206.599, 24842.00
1207.680, 24899.00
1208.761, 24865.00
1209.842, 24801.00
1210.922, 25021.00
1212.003, 24737.00
1213.083, 24931.00
1214.163, 24785.00
1215.243, 24967.00
1216.323, 25005.00
1217.402, 24966.00
1218.482, 24771.00
1219.561, 24788.00
1220.641, 24815.00
1221.720, 24739.00
1222.798, 24779.00
1223.877, 25034.00
1224.956, 24753.00
1226.034, 24918.00
1227.112, 24755.00
1228.191, 24722.00
1229.269, 24831.00
1230.346, 24713.00
1231.424, 24669.00
1232.501, 24647.00
1233.579, 24951.00
1234.656, 24653.00
1235.733, 24882.00
1236.810, 24590.00
1237.886, 24845.00
1238.963, 24830.00
1240.039, 24829.00
1241.116, 24545.00
1242.192, 24862.00
1243.268, 24666.00
1244.343, 24539.00
1245.419, 24674.00
1246.494, 24593.00
1247.570, 24749.00
1248.645, 24677.00
1249.720, 24807.00
1250.795, 24906.00
1251.869, 24814.00
1252.944, 24628.00
1254.018, 24835.00
1255.093, 24666.00
1256.167, 24511.00
1257.240, 24559.00
1258.314, 24749.00
1259.388, 24798.00
1260.461, 24688.00
1261.535, 24912.00
1262.608, 24817.00
1263.681, 24673.00
1264.753, 24722.00
1265.826, 24785.00
1266.899, 24609.00
1267.971, 24896.00
1269.043, 24916.00
1270.115, 24873.00
1271.187, 24813.00
1272.259, 24779.00
1273.330, 24771.00
1274.402, 24804.00
1275.473, 24947.00
1276.544, 24891.00
1277.615, 24956.47
1278.686, 24860.00
1279.756, 25050.00
1280.827, 24986.00
1281.897, 25146.00
1282.967, 25088.00
1284.037, 25249.00
1285.107, 25130.00
1286.177, 25210.00
1287.247, 25423.00
1288.316, 25350.00
1289.385, 25350.00
1290.454, 25500.00
1291.523, 25322.00
1292.592, 25242.00
1293.661, 25567.00
1294.729, 25673.00
1295.797, 25634.00
1296.866, 25684.00
1297.934, 25785.00
1299.001, 25845.00
1300.069, 26132.00
1301.137, 26134.00
1302.204, 25915.00
1303.271, 26266.00
1304.338, 26231.00
1305.405, 26246.00
1306.472, 26563.00
1307.539, 26410.00
1308.605, 26688.00
1309.671, 26739.00
1310.737, 27219.00
1311.803, 27260.00
1312.869, 27429.00
1313.935, 27905.00
1315.000, 28735.00
1316.066, 28784.00
1317.131, 29001.00
1318.196, 28957.00
1319.261, 28857.00
1320.326, 28387.00
1321.390, 28074.00
1322.455, 27675.00
1323.519, 27547.00
1324.583, 27154.00
1325.647, 26970.00
1326.711, 27068.00
1327.775, 26640.00
1328.838, 26491.00
1329.902, 26291.00
1330.965, 26330.00
1332.028, 26064.00
1333.091, 25955.00
1334.153, 26076.00
1335.216, 25743.00
