##NAMES=Painite
##RRUFFID=R060957
##IDEAL CHEMISTRY=CaZr^4+^Al_9_O_15_(BO_3_)
##LOCALITY=Ohngaing Village, Mogok, Burma
##OWNER=RRUFF
##SOURCE=Marcus Origlieri
##DESCRIPTION=Single crystal, reddish-brown to orangish prism section, several prism forms, small transparent areas.
##STATUS=The identification of this mineral has been confirmed by X-ray diffraction.
##URL=rruff.info/R060957
##PIN_ID=M01225
##ORIENTATION=Laser parallel to -a* (-1 0 0). Fiducial mark perpendicular to laser is parallel to c [0 0 1]
163.0300, 10020.00
164.2600, 10231.00
165.4900, 10079.00
166.7200, 10231.00
167.9500, 10489.00
169.1790, 10752.00
170.4080, 11151.00
171.6380, 11646.00
172.8670, 12188.00
174.0950, 12387.00
175.3240, 12835.00
176.5520, 13503.00
177.7810, 14419.00
179.0090, 15613.00
180.2370, 16903.00
181.4640, 18119.00
182.6920, 18664.00
183.9190, 18441.00
185.1460, 16944.00
186.3730, 14907.00
187.6000, 13166.00
188.8270, 11827.00
190.0530, 11038.00
191.2800, 10656.00
192.5060, 10405.00
193.7320, 10310.00
194.9580, 10273.00
196.1830, 10068.00
197.4090, 10251.00
198.6340, 10219.00
199.8590, 10099.00
201.0840, 10196.00
202.3090, 10301.00
203.5340, 10415.00
204.7580, 10435.00
205.9820, 10563.00
207.2060, 10550.00
208.4300, 10600.00
209.6540, 10885.00
210.8780, 11278.00
212.1010, 11591.00
213.3240, 12034.00
214.5470, 12456.00
215.7700, 12903.00
216.9930, 13703.00
218.2150, 14231.00
219.4380, 15009.00
220.6600, 15519.00
221.8820, 15829.00
223.1040, 15703.00
224.3260, 15198.00
225.5470, 14432.00
226.7680, 13671.00
227.9900, 12827.00
229.2110, 12315.00
230.4310, 11812.00
231.6520, 11198.00
232.8720, 10926.00
234.0930, 10849.00
235.3130, 10645.00
236.5330, 10461.00
237.7530, 10518.00
238.9720, 10256.00
240.1920, 10255.00
241.4110, 10085.00
242.6300, 10065.00
243.8490, 10108.00
245.0680, 10037.00
246.2860, 10108.00
247.5040, 10113.00
248.7230, 10024.00
249.9410, 9979.000
251.1590, 10085.00
252.3760, 10163.00
253.5940, 10085.00
254.8110, 10109.00
256.0280, 10129.00
257.2450, 10195.00
258.4620, 10369.00
259.6790, 10442.00
260.8950, 10502.00
262.1120, 10522.00
263.3280, 10504.00
264.5440, 10485.00
265.7600, 10501.00
266.9750, 10525.00
268.1910, 10531.00
269.4060, 10382.00
270.6210, 10557.00
271.8360, 10556.00
273.0510, 10425.00
274.2650, 10557.00
275.4800, 10395.00
276.6940, 10611.00
277.9080, 10609.00
279.1220, 10615.00
280.3360, 10759.00
281.5490, 10947.00
282.7630, 10932.00
283.9760, 11007.00
285.1890, 11069.00
286.4020, 11263.00
287.6150, 11211.00
288.8270, 11157.00
290.0400, 11010.00
291.2520, 11122.00
292.4640, 11154.00
293.6760, 11094.00
294.8870, 11102.00
296.0990, 11263.00
297.3100, 11466.00
298.5210, 11555.00
299.7320, 11808.00
300.9430, 11992.00
302.1540, 12258.00
303.3640, 12574.00
304.5750, 12912.00
305.7850, 13484.00
306.9950, 13680.00
308.2050, 13915.00
309.4140, 13983.00
310.6240, 13861.00
311.8330, 13413.00
313.0420, 12889.00
314.2510, 12468.00
315.4600, 12088.00
316.6680, 11726.38
317.8770, 11581.00
319.0850, 11215.00
320.2930, 11032.00
321.5010, 10996.00
322.7090, 10776.00
323.9160, 10763.00
325.1240, 10682.00
326.3310, 10729.00
327.5380, 10648.00
328.7450, 10708.00
329.9520, 10718.00
331.1580, 10774.00
332.3650, 10766.00
333.5710, 10778.00
334.7770, 10860.00
335.9830, 10983.00
337.1880, 11194.00
338.3940, 11026.00
339.5990, 11022.00
340.8040, 11341.00
342.0090, 11452.00
343.2140, 11867.00
344.4190, 12087.00
345.6230, 12345.00
346.8280, 12550.00
348.0320, 12932.00
349.2360, 13127.00
350.4400, 13469.00
351.6430, 13523.00
352.8470, 13728.00
354.0500, 13562.00
355.2530, 13194.00
356.4560, 12902.00
357.6590, 12414.00
358.8620, 11972.00
360.0640, 11867.00
361.2660, 11685.00
362.4680, 11481.00
363.6700, 11588.00
364.8720, 11446.00
366.0740, 11448.00
367.2750, 11741.00
368.4760, 11695.00
369.6770, 11780.00
370.8780, 11908.00
372.0790, 12155.00
373.2800, 12338.00
374.4800, 12681.00
375.6800, 12944.00
376.8800, 13108.00
378.0800, 13377.00
379.2800, 13803.00
380.4790, 14123.00
381.6790, 14345.00
382.8780, 14286.00
384.0770, 13997.00
385.2760, 13912.00
386.4750, 13576.00
387.6730, 13522.00
388.8720, 13604.00
390.0700, 13774.00
391.2680, 14125.50
392.4660, 14561.00
393.6630, 15194.00
394.8610, 15809.00
396.0580, 16659.00
397.2550, 17557.00
398.4520, 18119.00
399.6490, 18481.00
400.8460, 18241.00
402.0420, 17108.00
403.2390, 16171.00
404.4350, 15041.00
405.6310, 13912.00
406.8270, 13146.00
408.0220, 12668.00
409.2180, 12186.00
410.4130, 11987.00
411.6080, 11862.00
412.8030, 11608.00
413.9980, 11536.00
415.1920, 11390.00
416.3870, 11357.00
417.5810, 11183.00
418.7750, 11243.00
419.9690, 11182.00
421.1630, 11099.00
422.3570, 11120.00
423.5500, 11172.00
424.7430, 11040.00
425.9360, 11306.00
427.1290, 11433.00
428.3220, 11630.00
429.5150, 11949.00
430.7070, 12173.00
431.8990, 12313.00
433.0910, 12966.00
434.2830, 13162.00
435.4750, 13747.00
436.6670, 13914.00
437.8580, 13952.00
439.0490, 14034.00
440.2400, 13475.00
441.4310, 13421.00
442.6220, 13075.00
443.8130, 12973.00
445.0030, 12967.00
446.1930, 13137.00
447.3830, 13224.00
448.5730, 13467.00
449.7630, 13434.00
450.9520, 13338.00
452.1420, 13090.00
453.3310, 13139.00
454.5200, 12950.00
455.7090, 13209.00
456.8980, 13608.00
458.0860, 13958.00
459.2740, 14635.00
460.4630, 15191.00
461.6510, 16136.00
462.8380, 16982.00
464.0260, 18022.00
465.2140, 19123.00
466.4010, 20164.00
467.5880, 21330.00
468.7750, 21563.00
469.9620, 20981.00
471.1490, 20365.00
472.3350, 19076.00
473.5220, 18381.00
474.7080, 17511.00
475.8940, 16899.00
477.0800, 16465.00
478.2650, 16043.00
479.4510, 15449.00
480.6360, 14875.00
481.8210, 14504.00
483.0060, 14044.00
484.1910, 13509.00
485.3760, 13087.00
486.5600, 13031.00
487.7440, 12716.00
488.9290, 12784.00
490.1130, 12644.00
491.2960, 12693.00
492.4800, 12787.00
493.6630, 12623.00
494.8470, 12608.00
496.0300, 12427.00
497.2130, 12260.00
498.3960, 12088.00
499.5780, 11949.00
500.7610, 11931.00
501.9430, 11796.00
503.1250, 11731.00
504.3070, 11750.00
505.4890, 11858.00
506.6710, 11852.00
507.8520, 11837.00
509.0330, 12044.00
510.2140, 12031.00
511.3950, 12142.00
512.5760, 12105.00
513.7570, 12168.00
514.9370, 12293.00
516.1170, 12410.00
517.2980, 12594.00
518.4780, 12701.00
519.6570, 12976.00
520.8370, 13300.00
522.0160, 13725.00
523.1960, 14086.00
524.3750, 14552.14
525.5540, 15048.00
526.7320, 15562.00
527.9110, 16210.00
529.0890, 16830.00
530.2680, 17316.00
531.4460, 17677.00
532.6240, 18193.00
533.8010, 18768.00
534.9790, 19568.00
536.1560, 20075.00
537.3340, 20795.00
538.5110, 21388.00
539.6880, 21487.00
540.8650, 21207.00
542.0410, 20094.00
543.2180, 18955.00
544.3940, 17907.00
545.5700, 16388.00
546.7460, 15439.00
547.9220, 14504.00
549.0970, 13647.00
550.2730, 13253.00
551.4480, 12856.00
552.6230, 12482.00
553.7980, 12510.00
554.9730, 12208.00
556.1470, 12109.00
557.3210, 12090.00
558.4960, 11973.00
559.6700, 11889.00
560.8440, 12044.00
562.0170, 12286.00
563.1910, 12321.00
564.3640, 12404.00
565.5380, 12865.00
566.7110, 13212.00
567.8840, 13506.00
569.0560, 13912.03
570.2290, 14038.00
571.4010, 14619.00
572.5740, 14748.00
573.7460, 15072.00
574.9180, 15078.00
576.0890, 15114.00
577.2610, 14801.00
578.4320, 14779.00
579.6040, 14844.00
580.7750, 14875.00
581.9450, 15066.00
583.1160, 15498.00
584.2870, 15809.00
585.4570, 16364.00
586.6270, 16865.00
587.7980, 17508.00
588.9670, 17990.00
590.1370, 18309.00
591.3070, 18392.00
592.4760, 18159.00
593.6450, 17691.00
594.8140, 16921.00
595.9830, 16086.00
597.1520, 15344.00
598.3210, 14491.00
599.4890, 13983.00
600.6570, 13356.00
601.8250, 13122.00
602.9930, 12651.00
604.1610, 12562.00
605.3290, 12374.00
606.4960, 12153.00
607.6630, 12154.00
608.8300, 12132.00
609.9970, 12194.00
611.1640, 12180.00
612.3300, 12280.89
613.4970, 12388.00
614.6630, 12514.00
615.8290, 12737.00
616.9950, 12910.00
618.1610, 13254.00
619.3260, 13160.00
620.4920, 13351.00
621.6570, 13321.00
622.8220, 13316.00
623.9870, 13127.00
625.1520, 13043.00
626.3160, 12801.00
627.4810, 12619.00
628.6450, 12525.00
629.8090, 12346.00
630.9730, 12210.00
632.1370, 12097.00
633.3000, 12031.06
634.4640, 12079.00
635.6270, 12057.00
636.7900, 12211.00
637.9530, 12442.00
639.1160, 12536.00
640.2780, 12633.00
641.4410, 12961.00
642.6030, 13140.00
643.7650, 13575.00
644.9270, 14000.00
646.0890, 14279.00
647.2500, 14779.00
648.4120, 15077.00
649.5730, 15509.00
650.7340, 15593.00
651.8950, 15830.00
653.0560, 15805.00
654.2160, 15638.00
655.3770, 15353.00
656.5370, 14764.00
657.6970, 14420.00
658.8570, 13718.00
660.0170, 13374.00
661.1760, 12893.00
662.3360, 12603.00
663.4950, 12361.00
664.6540, 11974.00
665.8130, 11857.00
666.9720, 11643.00
668.1310, 11412.00
669.2890, 11593.00
670.4470, 11220.00
671.6050, 11190.00
672.7630, 11171.00
673.9210, 11011.00
675.0790, 10888.00
676.2360, 10919.00
677.3930, 10698.00
678.5510, 10740.00
679.7080, 10811.00
680.8640, 10753.00
682.0210, 10843.00
683.1770, 10713.00
684.3340, 10913.00
685.4900, 10840.00
686.6460, 10788.00
687.8020, 10806.00
688.9570, 10886.00
690.1130, 11047.00
691.2680, 10999.00
692.4230, 11013.00
693.5780, 11176.00
694.7330, 11224.00
695.8880, 11343.00
697.0420, 11372.00
698.1960, 11609.00
699.3510, 11580.00
700.5040, 11681.00
701.6580, 11928.00
702.8120, 12078.00
703.9650, 12357.00
705.1190, 12562.00
706.2720, 12804.00
707.4250, 13003.00
708.5780, 13426.00
709.7300, 13869.00
710.8830, 14346.00
712.0350, 14940.00
713.1870, 15561.00
714.3390, 16372.00
715.4910, 16993.00
716.6430, 17658.00
717.7940, 18319.00
718.9460, 18635.00
720.0970, 18711.00
721.2480, 18615.00
722.3990, 18137.00
723.5500, 17495.00
724.7000, 17038.00
725.8500, 16315.00
727.0010, 15491.00
728.1510, 15037.00
729.3010, 14473.00
730.4500, 14210.00
731.6000, 13745.00
732.7490, 13545.00
733.8980, 13153.00
735.0470, 13082.00
736.1960, 13176.00
737.3450, 12946.00
738.4940, 12982.00
739.6420, 12958.00
740.7900, 12835.00
741.9380, 12969.00
743.0860, 12896.00
744.2340, 13090.00
745.3810, 13125.68
746.5290, 13037.00
747.6760, 13292.00
748.8230, 13254.00
749.9700, 13344.00
751.1170, 13514.00
752.2630, 13581.00
753.4100, 13645.00
754.5560, 13773.00
755.7020, 13784.00
756.8480, 13911.00
757.9940, 14040.65
759.1390, 14190.00
760.2850, 14357.00
761.4300, 14498.00
762.5750, 14696.51
763.7200, 14850.00
764.8650, 15206.00
766.0100, 15523.00
767.1540, 15778.00
768.2980, 16023.00
769.4420, 16217.00
770.5860, 16676.00
771.7300, 16848.00
772.8740, 17209.00
774.0170, 17629.00
775.1610, 17973.00
776.3040, 18818.00
777.4470, 19334.00
778.5900, 19960.00
779.7320, 20774.00
780.8750, 21872.00
782.0170, 22585.00
783.1590, 23833.00
784.3010, 24732.00
785.4430, 25802.00
786.5850, 27256.00
787.7260, 28071.00
788.8680, 28998.00
790.0090, 29760.00
791.1500, 30374.00
792.2910, 30135.00
793.4310, 29987.00
794.5720, 29937.00
795.7120, 29773.00
796.8520, 28355.00
797.9920, 27725.00
799.1320, 26984.00
800.2720, 26039.00
801.4120, 25275.00
802.5510, 24547.00
803.6900, 23990.00
804.8290, 23134.00
805.9680, 22623.00
807.1070, 22088.00
808.2450, 21430.00
809.3840, 20848.00
810.5220, 20317.00
811.6600, 19967.00
812.7980, 19588.00
813.9360, 19182.00
815.0730, 18621.00
816.2110, 18333.00
817.3480, 17917.00
818.4850, 17319.00
819.6220, 16748.00
820.7590, 16392.00
821.8960, 15823.00
823.0320, 15343.00
824.1680, 14702.00
825.3040, 14464.00
826.4400, 14029.00
827.5760, 13883.00
828.7120, 13658.00
829.8470, 13367.00
830.9830, 13307.00
832.1180, 13143.00
833.2530, 13052.00
834.3880, 13151.00
835.5220, 13028.00
836.6570, 13056.00
837.7910, 13129.00
838.9250, 13025.00
840.0590, 13093.00
841.1930, 13225.00
842.3270, 13185.00
843.4600, 13211.00
844.5940, 13245.00
845.7270, 13365.00
846.8600, 13226.00
847.9930, 13105.00
849.1250, 13181.00
850.2580, 13229.00
851.3900, 12945.00
852.5230, 12643.00
853.6550, 12507.00
854.7870, 12418.00
855.9180, 12244.00
857.0500, 11989.00
858.1810, 11912.00
859.3130, 11737.00
860.4440, 11513.00
861.5750, 11478.00
862.7050, 11331.00
863.8360, 11337.00
864.9660, 11073.00
866.0970, 11026.00
867.2270, 10938.00
868.3570, 10811.00
869.4870, 10761.80
870.6160, 10735.00
871.7460, 10615.00
872.8750, 10599.00
874.0040, 10526.00
875.1330, 10580.00
876.2620, 10484.00
877.3910, 10438.00
878.5190, 10383.00
879.6470, 10339.52
880.7760, 10373.00
881.9040, 10319.00
883.0310, 10319.00
884.1590, 10395.00
885.2870, 10285.00
886.4140, 10354.00
887.5410, 10224.00
888.6680, 10197.00
889.7950, 10151.00
890.9220, 10148.00
892.0480, 10180.00
893.1750, 10201.00
894.3010, 10225.00
895.4270, 10173.00
896.5530, 10202.00
897.6790, 10100.00
898.8040, 10036.00
899.9300, 10066.00
901.0550, 10071.00
902.1800, 10057.00
903.3050, 9969.000
904.4300, 9976.000
905.5540, 9967.707
906.6790, 10011.00
907.8030, 9997.000
908.9270, 9953.000
910.0510, 9973.000
911.1750, 9979.000
912.2990, 9925.000
913.4220, 9924.261
914.5450, 10047.00
915.6690, 9868.000
916.7920, 9943.000
917.9140, 9925.000
919.0370, 9739.000
920.1600, 9849.000
921.2820, 9905.000
922.4040, 9919.000
923.5260, 9832.000
924.6480, 9901.000
925.7700, 9867.000
926.8910, 9892.000
928.0130, 9817.000
929.1340, 9856.000
930.2550, 9742.000
931.3760, 9765.000
932.4970, 9766.000
933.6170, 9746.000
934.7380, 9743.955
935.8580, 9762.000
936.9780, 9731.000
938.0980, 9727.000
939.2180, 9769.000
940.3370, 9789.000
941.4570, 9732.000
942.5760, 9795.000
943.6950, 9816.000
944.8140, 9792.348
945.9330, 9744.000
947.0520, 9769.000
948.1700, 9749.000
949.2890, 9730.000
950.4070, 9753.000
951.5250, 9742.000
952.6430, 9745.000
953.7600, 9761.000
954.8780, 9816.000
955.9950, 9801.000
957.1120, 9729.000
958.2290, 9661.000
959.3460, 9772.000
960.4630, 9851.000
961.5800, 9850.000
962.6960, 9779.000
963.8120, 9882.000
964.9280, 9883.000
966.0440, 10010.00
967.1600, 10054.00
968.2760, 10106.00
969.3910, 10177.00
970.5060, 10175.00
971.6210, 10203.00
972.7360, 10232.00
973.8510, 10510.00
974.9660, 10631.00
976.0800, 10726.00
977.1950, 11024.00
978.3090, 11220.00
979.4230, 11637.00
980.5370, 12371.00
981.6500, 13114.00
982.7640, 14174.00
983.8770, 15372.00
984.9900, 16905.00
986.1030, 18426.00
987.2160, 20119.00
988.3290, 21419.00
989.4420, 22312.00
990.5540, 22339.00
991.6660, 21327.00
992.7780, 19600.00
993.8900, 17616.00
995.0020, 15897.00
996.1140, 14449.00
997.2250, 13245.00
998.3360, 12523.00
999.4470, 11873.00
1000.558, 11367.00
1001.669, 11269.00
1002.780, 10970.00
1003.890, 10688.00
1005.001, 10477.00
1006.111, 10481.00
1007.221, 10248.00
1008.331, 10303.00
1009.440, 10215.00
1010.550, 10134.00
1011.659, 10123.00
1012.768, 10005.00
1013.877, 9952.000
1014.986, 9970.000
1016.095, 9928.000
1017.204, 9925.000
1018.312, 9970.000
1019.420, 9904.000
1020.528, 9848.000
1021.636, 9783.000
1022.744, 9819.000
1023.852, 9763.000
1024.959, 9787.000
1026.066, 9829.000
1027.173, 9818.000
1028.280, 9681.000
1029.387, 9782.000
1030.494, 9754.000
1031.600, 9893.000
1032.707, 9815.000
1033.813, 9763.000
1034.919, 9835.000
1036.025, 9793.000
1037.130, 9804.000
1038.236, 9706.000
1039.341, 9939.000
1040.446, 9933.000
1041.552, 9867.000
1042.656, 10073.00
1043.761, 10153.00
1044.866, 10050.00
1045.970, 10072.00
1047.074, 10107.00
1048.179, 10243.00
1049.282, 10137.00
1050.386, 10166.00
1051.490, 10129.00
1052.593, 10112.00
1053.697, 10325.00
1054.800, 10139.00
1055.903, 10141.00
1057.006, 10286.00
1058.108, 10166.00
1059.211, 10346.00
1060.313, 10307.00
1061.415, 10244.00
1062.517, 10196.00
1063.619, 10195.00
1064.721, 10202.00
1065.823, 10354.00
1066.924, 10274.00
1068.025, 10330.00
1069.126, 10248.00
1070.227, 10206.00
1071.328, 10350.00
1072.429, 10305.00
1073.529, 10274.00
1074.629, 10198.00
1075.729, 10131.00
1076.829, 10132.00
1077.929, 10184.00
1079.029, 10209.00
1080.128, 10301.00
1081.228, 10168.00
1082.327, 10336.00
1083.426, 10290.00
1084.525, 10201.00
1085.623, 10242.00
1086.722, 10295.00
1087.820, 10302.00
1088.919, 10298.00
1090.017, 10385.00
1091.115, 10215.00
1092.212, 10210.00
1093.310, 10275.00
1094.407, 10226.00
1095.505, 10324.00
1096.602, 10257.00
1097.699, 10160.00
1098.795, 10206.00
1099.892, 10275.00
1100.989, 10343.00
1102.085, 10249.00
1103.181, 10128.00
1104.277, 10221.00
1105.373, 10251.00
1106.469, 10246.00
1107.564, 10226.00
1108.660, 10270.00
1109.755, 10220.00
1110.850, 10276.00
1111.945, 10095.00
1113.040, 10107.00
1114.134, 10252.00
1115.229, 10172.00
1116.323, 10309.00
1117.417, 10217.00
1118.511, 10194.00
1119.605, 10161.00
1120.698, 10187.00
1121.792, 10160.00
1122.885, 10161.42
1123.978, 10207.00
1125.071, 10170.00
1126.164, 10232.00
1127.257, 10267.00
1128.349, 10142.00
1129.442, 10191.00
1130.534, 10206.00
1131.626, 10177.00
1132.718, 10251.00
1133.810, 10146.00
1134.901, 10149.00
1135.993, 10096.00
1137.084, 10241.00
1138.175, 10254.00
1139.266, 10176.00
1140.357, 10262.00
1141.448, 10119.00
1142.538, 10060.00
1143.628, 10237.00
1144.719, 10157.00
1145.809, 10240.00
1146.898, 10153.00
1147.988, 10239.00
1149.078, 10004.00
1150.167, 10171.00
1151.256, 10057.00
1152.345, 10096.00
1153.434, 10201.00
1154.523, 10170.00
1155.612, 10085.00
1156.700, 10197.00
1157.788, 10206.00
1158.877, 10243.00
1159.964, 10253.81
1161.052, 10190.00
1162.140, 10205.00
1163.227, 10128.00
1164.315, 10049.00
1165.402, 10172.00
1166.489, 10125.00
1167.576, 10112.00
1168.663, 10155.00
1169.749, 10092.00
1170.836, 10118.76
1171.922, 10034.00
1173.008, 10135.00
1174.094, 10102.00
1175.180, 10124.00
1176.265, 10195.00
1177.351, 10213.00
1178.436, 10152.00
1179.521, 10057.00
1180.606, 10216.00
1181.691, 10133.00
1182.776, 10134.00
1183.860, 10271.00
1184.944, 10082.00
1186.029, 10210.00
1187.113, 10160.00
1188.197, 10014.00
1189.280, 10190.00
1190.364, 10006.00
1191.447, 10096.00
1192.531, 10114.00
1193.614, 9954.000
1194.697, 10037.00
1195.779, 10157.00
1196.862, 10191.00
1197.945, 10137.00
1199.027, 10182.84
1200.109, 10089.00
1201.191, 10158.00
1202.273, 10063.00
1203.355, 10050.00
1204.436, 10125.00
1205.518, 10012.00
1206.599, 10014.00
1207.680, 10076.00
1208.761, 10140.00
1209.842, 10137.57
1210.922, 10074.00
1212.003, 10144.00
1213.083, 10089.00
1214.163, 10057.00
1215.243, 10051.00
1216.323, 9972.000
1217.402, 10074.00
1218.482, 9953.000
1219.561, 10130.00
1220.641, 10142.00
1221.720, 10048.00
1222.798, 10254.00
1223.877, 10017.00
1224.956, 9998.000
1226.034, 10045.00
1227.112, 9946.000
1228.191, 10062.00
1229.269, 10024.00
1230.346, 10010.00
1231.424, 10029.00
1232.501, 10073.00
1233.579, 10002.00
1234.656, 9953.000
1235.733, 10007.00
1236.810, 9990.000
1237.886, 10007.64
1238.963, 10030.00
1240.039, 10017.00
1241.116, 10058.00
1242.192, 9994.000
1243.268, 10058.00
1244.343, 10025.00
1245.419, 10033.00
1246.494, 10134.00
1247.570, 10198.00
1248.645, 10109.00
1249.720, 10081.00
1250.795, 10096.00
1251.869, 10061.00
1252.944, 9945.000
1254.018, 10103.00
1255.093, 9986.000
1256.167, 9981.000
1257.240, 10095.00
1258.314, 9964.000
1259.388, 10151.00
1260.461, 10014.00
1261.535, 10207.00
1262.608, 9895.000
1263.681, 10025.00
1264.753, 10131.00
1265.826, 10045.00
1266.899, 10033.00
1267.971, 10140.00
1269.043, 9982.000
1270.115, 10062.00
1271.187, 10112.00
1272.259, 10014.00
1273.330, 10133.00
1274.402, 10130.71
1275.473, 10105.05
1276.544, 10200.00
1277.615, 10107.00
1278.686, 10104.00
1279.756, 10181.00
1280.827, 10196.00
1281.897, 10191.00
1282.967, 10363.00
1284.037, 10358.70
1285.107, 10261.00
1286.177, 10441.00
1287.247, 10396.00
1288.316, 10371.00
1289.385, 10572.00
1290.454, 10445.00
1291.523, 10491.00
1292.592, 10521.00
1293.661, 10688.00
1294.729, 10621.00
1295.797, 10721.00
1296.866, 10673.00
1297.934, 10658.00
1299.001, 10784.00
1300.069, 10853.00
1301.137, 10837.00
1302.204, 10883.00
1303.271, 10892.00
1304.338, 10988.00
1305.405, 10866.00
1306.472, 10909.00
1307.539, 10895.00
1308.605, 11133.00
1309.671, 11090.00
1310.737, 11253.00
1311.803, 11585.00
1312.869, 11670.00
1313.935, 11916.00
1315.000, 12031.00
1316.066, 12118.00
1317.131, 12212.00
1318.196, 12224.00
1319.261, 12049.00
1320.326, 11965.00
1321.390, 11758.00
1322.455, 11603.00
1323.519, 11532.00
1324.583, 11323.00
1325.647, 11203.00
1326.711, 11167.00
1327.775, 11207.00
1328.838, 11099.00
1329.902, 11018.00
1330.965, 10975.00
1332.028, 10894.00
1333.091, 10948.00
1334.153, 10740.00
1335.216, 10807.00
