##NAMES=Painite
##RRUFFID=R060957
##IDEAL CHEMISTRY=CaZr^4+^Al_9_O_15_(BO_3_)
##LOCALITY=Ohngaing Village, Mogok, Burma
##OWNER=RRUFF
##SOURCE=Marcus Origlieri
##DESCRIPTION=Single crystal, reddish-brown to orangish prism section, several prism forms, small transparent areas.
##STATUS=The identification of this mineral has been confirmed by X-ray diffraction.
##URL=rruff.info/R060957
##PIN_ID=M01225
##ORIENTATION=Laser parallel to -a* (-1 0 0). Fiducial mark perpendicular to laser is parallel to c [0 0 1]
163.0300, 15021.00
164.2600, 15022.00
165.4900, 15123.00
166.7200, 15054.00
167.9500, 15251.00
169.1790, 15164.00
170.4080, 15571.00
171.6380, 15588.00
172.8670, 15964.00
174.0950, 16132.00
175.3240, 16313.00
176.5520, 16331.00
177.7810, 16836.00
179.0090, 17156.00
180.2370, 17810.00
181.4640, 18269.00
182.6920, 18519.00
183.9190, 18307.00
185.1460, 17902.00
186.3730, 16966.00
187.6000, 16338.00
188.8270, 15928.00
190.0530, 15485.00
191.2800, 15384.00
192.5060, 15324.00
193.7320, 15394.00
194.9580, 15318.00
196.1830, 15302.00
197.4090, 15363.00
198.6340, 15392.73
199.8590, 15532.00
201.0840, 15655.00
202.3090, 15740.00
203.5340, 16073.00
204.7580, 16113.00
205.9820, 16263.00
207.2060, 16206.00
208.4300, 16529.00
209.6540, 16787.00
210.8780, 16828.00
212.1010, 17279.00
213.3240, 17448.00
214.5470, 17775.00
215.7700, 18410.00
216.9930, 19006.00
218.2150, 19846.00
219.4380, 20590.00
220.6600, 21497.00
221.8820, 21718.00
223.1040, 22028.00
224.3260, 21941.00
225.5470, 21213.00
226.7680, 20516.00
227.9900, 19588.00
229.2110, 18714.00
230.4310, 17787.00
231.6520, 17233.00
232.8720, 16603.00
234.0930, 16398.00
235.3130, 16041.00
236.5330, 15882.00
237.7530, 15574.00
238.9720, 15659.00
240.1920, 15518.00
241.4110, 15651.00
242.6300, 15309.00
243.8490, 15359.00
245.0680, 15234.00
246.2860, 15315.00
247.5040, 15232.00
248.7230, 15332.00
249.9410, 15196.00
251.1590, 15090.00
252.3760, 15223.00
253.5940, 15365.00
254.8110, 15362.00
256.0280, 15241.00
257.2450, 15337.00
258.4620, 15301.00
259.6790, 15495.00
260.8950, 15413.00
262.1120, 15512.00
263.3280, 15596.00
264.5440, 15400.00
265.7600, 15753.00
266.9750, 15657.00
268.1910, 15596.00
269.4060, 15714.00
270.6210, 15515.00
271.8360, 15817.00
273.0510, 15597.00
274.2650, 15812.00
275.4800, 16048.00
276.6940, 16066.00
277.9080, 16005.00
279.1220, 16133.00
280.3360, 16304.00
281.5490, 16428.00
282.7630, 16680.00
283.9760, 16663.00
285.1890, 16656.00
286.4020, 16607.00
287.6150, 16508.00
288.8270, 16549.00
290.0400, 16404.00
291.2520, 16226.00
292.4640, 16256.00
293.6760, 16229.00
294.8870, 16292.00
296.0990, 16135.00
297.3100, 16250.00
298.5210, 16411.00
299.7320, 16288.00
300.9430, 16494.00
302.1540, 16575.00
303.3640, 16895.00
304.5750, 16965.00
305.7850, 17207.00
306.9950, 17402.00
308.2050, 17525.00
309.4140, 17406.00
310.6240, 17344.00
311.8330, 16987.00
313.0420, 16844.00
314.2510, 16626.00
315.4600, 16357.00
316.6680, 16166.00
317.8770, 16103.00
319.0850, 15897.00
320.2930, 15950.00
321.5010, 15789.00
322.7090, 15851.00
323.9160, 15778.00
325.1240, 15703.00
326.3310, 15813.00
327.5380, 15785.00
328.7450, 15791.00
329.9520, 15699.00
331.1580, 15733.00
332.3650, 15884.00
333.5710, 15954.00
334.7770, 15605.00
335.9830, 15976.00
337.1880, 15830.00
338.3940, 15829.00
339.5990, 15943.00
340.8040, 16139.00
342.0090, 16274.00
343.2140, 16300.00
344.4190, 16405.00
345.6230, 16562.00
346.8280, 16759.00
348.0320, 16752.00
349.2360, 17034.00
350.4400, 17284.00
351.6430, 17163.00
352.8470, 17209.00
354.0500, 17225.00
355.2530, 17039.00
356.4560, 16953.00
357.6590, 16698.00
358.8620, 16535.00
360.0640, 16450.00
361.2660, 16503.00
362.4680, 16396.00
363.6700, 16476.00
364.8720, 16566.82
366.0740, 16493.00
367.2750, 16849.00
368.4760, 16931.00
369.6770, 17108.00
370.8780, 17370.00
372.0790, 17746.78
373.2800, 18405.00
374.4800, 18735.00
375.6800, 19521.00
376.8800, 20166.00
378.0800, 20869.00
379.2800, 21321.00
380.4790, 22036.00
381.6790, 22245.00
382.8780, 21977.00
384.0770, 21522.00
385.2760, 20662.00
386.4750, 19822.00
387.6730, 19212.00
388.8720, 18712.00
390.0700, 18439.00
391.2680, 18450.00
392.4660, 18402.00
393.6630, 18631.00
394.8610, 18784.00
396.0580, 18928.00
397.2550, 19368.00
398.4520, 19643.00
399.6490, 19813.00
400.8460, 19811.00
402.0420, 19698.00
403.2390, 19404.00
404.4350, 19039.00
405.6310, 18664.00
406.8270, 18435.00
408.0220, 18416.00
409.2180, 18155.00
410.4130, 18147.00
411.6080, 17744.00
412.8030, 17682.00
413.9980, 17607.00
415.1920, 17256.00
416.3870, 17048.00
417.5810, 16934.00
418.7750, 16859.00
419.9690, 16745.00
421.1630, 16712.65
422.3570, 16850.00
423.5500, 16654.00
424.7430, 16666.00
425.9360, 16636.00
427.1290, 17136.00
428.3220, 17288.00
429.5150, 17720.00
430.7070, 17985.00
431.8990, 18395.00
433.0910, 18968.00
434.2830, 19666.00
435.4750, 20212.00
436.6670, 20533.00
437.8580, 20532.00
439.0490, 20509.00
440.2400, 20154.00
441.4310, 19799.00
442.6220, 19786.00
443.8130, 19607.00
445.0030, 19739.00
446.1930, 19779.00
447.3830, 19928.00
448.5730, 19946.00
449.7630, 19672.00
450.9520, 19544.00
452.1420, 19047.00
453.3310, 18892.00
454.5200, 18735.00
455.7090, 18756.00
456.8980, 19001.00
458.0860, 19162.00
459.2740, 19714.00
460.4630, 20274.00
461.6510, 21046.00
462.8380, 21938.00
464.0260, 22726.00
465.2140, 23792.00
466.4010, 24516.00
467.5880, 25177.00
468.7750, 25261.00
469.9620, 24674.00
471.1490, 23763.00
472.3350, 22477.00
473.5220, 21672.00
474.7080, 20948.00
475.8940, 20256.00
477.0800, 19833.58
478.2650, 19718.00
479.4510, 19272.00
480.6360, 19390.00
481.8210, 19425.00
483.0060, 19200.00
484.1910, 19363.00
485.3760, 19333.00
486.5600, 19648.00
487.7440, 19911.00
488.9290, 20173.00
490.1130, 20370.00
491.2960, 20573.00
492.4800, 20389.00
493.6630, 20292.00
494.8470, 19886.00
496.0300, 19751.00
497.2130, 19453.00
498.3960, 19212.00
499.5780, 18960.00
500.7610, 18849.00
501.9430, 18769.00
503.1250, 18881.00
504.3070, 19167.00
505.4890, 19380.00
506.6710, 19449.00
507.8520, 19607.00
509.0330, 20135.00
510.2140, 20109.00
511.3950, 20442.00
512.5760, 20552.00
513.7570, 20688.00
514.9370, 20976.00
516.1170, 21054.00
517.2980, 21512.00
518.4780, 22173.00
519.6570, 22822.00
520.8370, 23641.00
522.0160, 24453.00
523.1960, 25807.00
524.3750, 26876.00
525.5540, 28137.00
526.7320, 28999.00
527.9110, 29496.00
529.0890, 29642.38
530.2680, 29867.00
531.4460, 28920.00
532.6240, 28057.00
533.8010, 27003.00
534.9790, 26268.00
536.1560, 25635.00
537.3340, 24941.00
538.5110, 24408.00
539.6880, 23781.00
540.8650, 23084.00
542.0410, 22505.00
543.2180, 21644.00
544.3940, 20818.00
545.5700, 20087.00
546.7460, 19609.00
547.9220, 19138.00
549.0970, 18741.00
550.2730, 18334.00
551.4480, 18163.00
552.6230, 18053.00
553.7980, 17849.00
554.9730, 17781.00
556.1470, 17562.00
557.3210, 17637.00
558.4960, 17626.00
559.6700, 17711.00
560.8440, 17714.00
562.0170, 17767.00
563.1910, 17867.00
564.3640, 18211.00
565.5380, 18514.00
566.7110, 18994.00
567.8840, 19358.00
569.0560, 19857.00
570.2290, 20403.00
571.4010, 21033.00
572.5740, 21440.00
573.7460, 21787.00
574.9180, 21679.00
576.0890, 21690.00
577.2610, 21375.00
578.4320, 20973.00
579.6040, 20695.00
580.7750, 20402.00
581.9450, 20365.00
583.1160, 20261.00
584.2870, 20336.00
585.4570, 20609.00
586.6270, 20877.00
587.7980, 21209.00
588.9670, 21528.00
590.1370, 21663.00
591.3070, 21448.00
592.4760, 21332.00
593.6450, 21220.00
594.8140, 20740.00
595.9830, 19899.00
597.1520, 19641.00
598.3210, 19132.00
599.4890, 18860.00
600.6570, 18357.00
601.8250, 18292.00
602.9930, 18438.00
604.1610, 18205.00
605.3290, 18168.00
606.4960, 18177.00
607.6630, 18490.00
608.8300, 18557.00
609.9970, 18777.00
611.1640, 19336.00
612.3300, 19766.00
613.4970, 20262.00
614.6630, 20983.00
615.8290, 21608.00
616.9950, 22334.00
618.1610, 23154.00
619.3260, 23667.00
620.4920, 23858.00
621.6570, 23822.00
622.8220, 23904.00
623.9870, 23286.00
625.1520, 22693.00
626.3160, 22252.00
627.4810, 21532.00
628.6450, 21101.00
629.8090, 20414.00
630.9730, 19570.00
632.1370, 19232.00
633.3000, 18824.00
634.4640, 18501.00
635.6270, 18466.96
636.7900, 18536.93
637.9530, 18478.03
639.1160, 18019.00
640.2780, 17916.00
641.4410, 18102.00
642.6030, 18202.00
643.7650, 18198.00
644.9270, 18232.00
646.0890, 18330.89
647.2500, 18551.00
648.4120, 18580.00
649.5730, 18566.00
650.7340, 18824.00
651.8950, 18886.00
653.0560, 18875.00
654.2160, 18596.00
655.3770, 18679.00
656.5370, 18251.00
657.6970, 18069.00
658.8570, 17928.00
660.0170, 17811.00
661.1760, 17533.00
662.3360, 17432.00
663.4950, 17386.00
664.6540, 17356.00
665.8130, 17186.00
666.9720, 17028.00
668.1310, 17028.00
669.2890, 17001.00
670.4470, 16812.00
671.6050, 16780.00
672.7630, 16761.00
673.9210, 16848.00
675.0790, 16732.00
676.2360, 16834.00
677.3930, 16807.00
678.5510, 16763.00
679.7080, 17033.00
680.8640, 17039.00
682.0210, 17036.00
683.1770, 17125.00
684.3340, 17196.00
685.4900, 17274.00
686.6460, 17324.00
687.8020, 17590.00
688.9570, 17954.00
690.1130, 18036.00
691.2680, 18214.00
692.4230, 18489.00
693.5780, 18600.00
694.7330, 18842.00
695.8880, 18869.97
697.0420, 18812.00
698.1960, 18836.00
699.3510, 18836.00
700.5040, 18697.00
701.6580, 18638.00
702.8120, 18768.00
703.9650, 18858.00
705.1190, 18831.00
706.2720, 18853.00
707.4250, 18956.00
708.5780, 18982.20
709.7300, 18968.00
710.8830, 19176.00
712.0350, 19260.00
713.1870, 19460.00
714.3390, 19645.00
715.4910, 20027.00
716.6430, 20221.00
717.7940, 20372.00
718.9460, 20447.00
720.0970, 20410.92
721.2480, 20345.80
722.3990, 20115.00
723.5500, 19964.00
724.7000, 19616.00
725.8500, 19230.00
727.0010, 19257.00
728.1510, 18877.00
729.3010, 18820.00
730.4500, 18578.00
731.6000, 18617.00
732.7490, 18609.00
733.8980, 18450.00
735.0470, 18492.00
736.1960, 18380.00
737.3450, 18518.00
738.4940, 18294.00
739.6420, 18535.00
740.7900, 18475.00
741.9380, 18637.00
743.0860, 18553.00
744.2340, 18397.00
745.3810, 18567.00
746.5290, 18759.00
747.6760, 18604.00
748.8230, 18493.00
749.9700, 18612.00
751.1170, 18559.30
752.2630, 18656.70
753.4100, 18693.00
754.5560, 18832.00
755.7020, 18959.00
756.8480, 18962.00
757.9940, 19062.00
759.1390, 18905.00
760.2850, 19130.00
761.4300, 19205.00
762.5750, 19187.00
763.7200, 19455.00
764.8650, 19507.00
766.0100, 19624.00
767.1540, 19987.00
768.2980, 20178.00
769.4420, 20133.00
770.5860, 20435.00
771.7300, 20844.00
772.8740, 20880.00
774.0170, 21155.00
775.1610, 21226.00
776.3040, 21575.00
777.4470, 21876.00
778.5900, 22173.00
779.7320, 22604.00
780.8750, 22931.00
782.0170, 23445.00
783.1590, 23940.00
784.3010, 24323.00
785.4430, 24934.00
786.5850, 25372.00
787.7260, 25862.00
788.8680, 26227.00
790.0090, 26463.00
791.1500, 26693.00
792.2910, 26773.00
793.4310, 26781.00
794.5720, 26372.00
795.7120, 26314.00
796.8520, 25803.00
797.9920, 25581.00
799.1320, 25201.00
800.2720, 24874.00
801.4120, 24475.00
802.5510, 24234.00
803.6900, 23945.00
804.8290, 23490.00
805.9680, 23358.00
807.1070, 22959.00
808.2450, 22619.00
809.3840, 22512.00
810.5220, 22222.00
811.6600, 22040.00
812.7980, 21963.00
813.9360, 21673.00
815.0730, 21431.00
816.2110, 21092.00
817.3480, 20918.00
818.4850, 20559.00
819.6220, 20286.00
820.7590, 19871.00
821.8960, 19634.00
823.0320, 19513.00
824.1680, 19130.00
825.3040, 18873.00
826.4400, 18647.00
827.5760, 18586.00
828.7120, 18413.00
829.8470, 18295.00
830.9830, 18079.00
832.1180, 18174.00
833.2530, 18082.00
834.3880, 18337.00
835.5220, 18301.00
836.6570, 18161.00
837.7910, 18107.00
838.9250, 18201.00
840.0590, 18423.00
841.1930, 18162.00
842.3270, 18334.00
843.4600, 18464.00
844.5940, 18335.00
845.7270, 18272.00
846.8600, 18309.00
847.9930, 18416.00
849.1250, 18327.00
850.2580, 18058.00
851.3900, 18100.00
852.5230, 17809.00
853.6550, 17811.00
854.7870, 17641.00
855.9180, 17443.00
857.0500, 17309.00
858.1810, 17197.00
859.3130, 17128.00
860.4440, 17165.00
861.5750, 17067.00
862.7050, 16727.00
863.8360, 16838.00
864.9660, 16746.00
866.0970, 16662.00
867.2270, 16731.00
868.3570, 16574.00
869.4870, 16619.00
870.6160, 16491.00
871.7460, 16219.00
872.8750, 16465.00
874.0040, 16535.00
875.1330, 16425.00
876.2620, 16323.00
877.3910, 16273.00
878.5190, 16205.63
879.6470, 16390.00
880.7760, 16183.00
881.9040, 16271.00
883.0310, 16398.00
884.1590, 16209.00
885.2870, 16211.00
886.4140, 16267.00
887.5410, 16250.00
888.6680, 16262.58
889.7950, 16264.18
890.9220, 16236.00
892.0480, 16246.00
893.1750, 16185.00
894.3010, 16173.00
895.4270, 16193.00
896.5530, 16183.00
897.6790, 16205.00
898.8040, 16085.00
899.9300, 15977.00
901.0550, 16182.00
902.1800, 16063.00
903.3050, 16074.00
904.4300, 16201.00
905.5540, 15981.00
906.6790, 16252.00
907.8030, 16172.00
908.9270, 16301.00
910.0510, 16069.00
911.1750, 16142.00
912.2990, 16105.00
913.4220, 16201.00
914.5450, 16172.00
915.6690, 16041.00
916.7920, 16123.00
917.9140, 15924.00
919.0370, 16136.00
920.1600, 15951.00
921.2820, 16058.00
922.4040, 16100.00
923.5260, 16005.00
924.6480, 16110.00
925.7700, 15944.00
926.8910, 15978.00
928.0130, 16034.00
929.1340, 16112.00
930.2550, 15999.00
931.3760, 15929.00
932.4970, 15882.00
933.6170, 15871.00
934.7380, 15941.00
935.8580, 16062.00
936.9780, 15966.00
938.0980, 15936.00
939.2180, 16075.00
940.3370, 15886.00
941.4570, 15996.00
942.5760, 16048.00
943.6950, 15954.00
944.8140, 15865.00
945.9330, 15979.00
947.0520, 15900.00
948.1700, 15904.00
949.2890, 15895.00
950.4070, 15892.46
951.5250, 15947.00
952.6430, 15918.00
953.7600, 15973.00
954.8780, 15960.00
955.9950, 15842.00
957.1120, 16035.00
958.2290, 15992.00
959.3460, 15824.00
960.4630, 15935.00
961.5800, 15914.00
962.6960, 15896.00
963.8120, 15884.00
964.9280, 15859.00
966.0440, 16016.00
967.1600, 16182.00
968.2760, 16012.00
969.3910, 16165.00
970.5060, 16012.00
971.6210, 16294.00
972.7360, 16210.00
973.8510, 16234.00
974.9660, 16385.00
976.0800, 16458.00
977.1950, 16618.00
978.3090, 16599.00
979.4230, 16863.00
980.5370, 17089.00
981.6500, 17408.00
982.7640, 18026.00
983.8770, 18774.00
984.9900, 19433.00
986.1030, 20220.00
987.2160, 21098.00
988.3290, 21567.00
989.4420, 22150.00
990.5540, 22195.00
991.6660, 21529.00
992.7780, 20752.00
993.8900, 19767.00
995.0020, 19017.00
996.1140, 18139.00
997.2250, 17571.00
998.3360, 17248.00
999.4470, 16918.00
1000.558, 16690.00
1001.669, 16575.00
1002.780, 16522.00
1003.890, 16516.00
1005.001, 16497.00
1006.111, 16224.00
1007.221, 16081.00
1008.331, 16219.00
1009.440, 16263.00
1010.550, 16188.00
1011.659, 16035.00
1012.768, 16066.00
1013.877, 15972.00
1014.986, 15993.00
1016.095, 15950.00
1017.204, 15956.90
1018.312, 15888.00
1019.420, 15971.00
1020.528, 15925.00
1021.636, 15872.00
1022.744, 16017.00
1023.852, 15898.00
1024.959, 15976.00
1026.066, 16000.00
1027.173, 16024.00
1028.280, 16089.50
1029.387, 16101.29
1030.494, 16194.00
1031.600, 16151.00
1032.707, 16193.00
1033.813, 16216.00
1034.919, 16073.00
1036.025, 16326.00
1037.130, 16169.00
1038.236, 16275.00
1039.341, 16456.00
1040.446, 16286.00
1041.552, 16347.00
1042.656, 16496.00
1043.761, 16595.00
1044.866, 16515.00
1045.970, 16618.00
1047.074, 16675.00
1048.179, 16787.00
1049.282, 16845.00
1050.386, 16778.00
1051.490, 16943.00
1052.593, 16967.00
1053.697, 16785.00
1054.800, 16827.00
1055.903, 16874.00
1057.006, 16853.00
1058.108, 16810.00
1059.211, 16867.00
1060.313, 16732.00
1061.415, 16802.66
1062.517, 17016.00
1063.619, 16836.00
1064.721, 16805.00
1065.823, 16739.00
1066.924, 16891.00
1068.025, 16981.00
1069.126, 16947.00
1070.227, 16966.00
1071.328, 16904.00
1072.429, 16898.00
1073.529, 16893.00
1074.629, 16916.00
1075.729, 16933.00
1076.829, 17013.00
1077.929, 16927.00
1079.029, 17022.00
1080.128, 16981.00
1081.228, 16970.00
1082.327, 17001.00
1083.426, 17176.00
1084.525, 16924.00
1085.623, 16982.00
1086.722, 16837.00
1087.820, 17043.00
1088.919, 16846.00
1090.017, 16989.00
1091.115, 17022.00
1092.212, 16889.00
1093.310, 16997.00
1094.407, 16913.00
1095.505, 16967.00
1096.602, 17052.00
1097.699, 16881.00
1098.795, 16912.00
1099.892, 16907.00
1100.989, 16997.00
1102.085, 17000.00
1103.181, 16969.00
1104.277, 16850.00
1105.373, 16882.00
1106.469, 16892.00
1107.564, 16954.00
1108.660, 16937.00
1109.755, 16889.00
1110.850, 17052.00
1111.945, 16993.00
1113.040, 16843.00
1114.134, 17062.00
1115.229, 17025.00
1116.323, 17122.00
1117.417, 16980.00
1118.511, 17066.00
1119.605, 16893.00
1120.698, 17101.00
1121.792, 16884.00
1122.885, 17030.00
1123.978, 17025.00
1125.071, 17089.00
1126.164, 16984.00
1127.257, 16955.00
1128.349, 16860.00
1129.442, 16862.67
1130.534, 16855.91
1131.626, 16868.00
1132.718, 16940.00
1133.810, 16927.00
1134.901, 16926.08
1135.993, 16902.00
1137.084, 16916.00
1138.175, 16871.00
1139.266, 16935.00
1140.357, 17026.00
1141.448, 16909.00
1142.538, 16835.00
1143.628, 16951.00
1144.719, 16909.00
1145.809, 17069.00
1146.898, 16901.00
1147.988, 16908.00
1149.078, 16824.00
1150.167, 16962.00
1151.256, 16810.00
1152.345, 16987.00
1153.434, 16780.00
1154.523, 16872.00
1155.612, 16921.00
1156.700, 16966.00
1157.788, 16807.00
1158.877, 16794.00
1159.964, 16854.00
1161.052, 16747.00
1162.140, 17050.00
1163.227, 16895.00
1164.315, 16923.00
1165.402, 16833.00
1166.489, 16734.00
1167.576, 16947.00
1168.663, 17063.00
1169.749, 16837.00
1170.836, 16787.00
1171.922, 16799.00
1173.008, 16787.00
1174.094, 16869.00
1175.180, 16711.00
1176.265, 16834.00
1177.351, 16785.00
1178.436, 16902.00
1179.521, 16909.00
1180.606, 16835.00
1181.691, 16962.00
1182.776, 16804.00
1183.860, 16726.00
1184.944, 16855.00
1186.029, 16755.00
1187.113, 16829.00
1188.197, 16903.00
1189.280, 16801.00
1190.364, 16686.00
1191.447, 16737.00
1192.531, 16698.00
1193.614, 16653.00
1194.697, 16776.00
1195.779, 16808.00
1196.862, 16692.00
1197.945, 16849.00
1199.027, 16933.00
1200.109, 16720.00
1201.191, 16700.00
1202.273, 16848.00
1203.355, 16771.00
1204.436, 16873.00
1205.518, 16819.00
1206.599, 16796.00
1207.680, 16622.00
1208.761, 16592.00
1209.842, 16668.00
1210.922, 16721.00
1212.003, 16808.00
1213.083, 16682.00
1214.163, 16756.00
1215.243, 16765.00
1216.323, 16680.00
1217.402, 16880.00
1218.482, 16742.00
1219.561, 16759.00
1220.641, 16667.00
1221.720, 16875.00
1222.798, 16813.00
1223.877, 16745.00
1224.956, 16736.00
1226.034, 16683.00
1227.112, 16879.00
1228.191, 16660.00
1229.269, 16812.00
1230.346, 16641.00
1231.424, 16627.00
1232.501, 16666.00
1233.579, 16777.00
1234.656, 16611.00
1235.733, 16656.00
1236.810, 16786.00
1237.886, 16636.00
1238.963, 16784.00
1240.039, 16820.00
1241.116, 16770.00
1242.192, 16669.00
1243.268, 16756.00
1244.343, 16727.00
1245.419, 16761.00
1246.494, 16818.00
1247.570, 16834.00
1248.645, 16695.00
1249.720, 16650.00
1250.795, 16765.00
1251.869, 16727.00
1252.944, 16832.00
1254.018, 16717.00
1255.093, 16588.00
1256.167, 16682.00
1257.240, 16675.00
1258.314, 16790.00
1259.388, 16748.00
1260.461, 16632.00
1261.535, 16750.00
1262.608, 16771.00
1263.681, 16771.00
1264.753, 16664.00
1265.826, 16737.00
1266.899, 16666.03
1267.971, 16768.00
1269.043, 16628.00
1270.115, 16718.00
1271.187, 16780.00
1272.259, 16764.00
1273.330, 16726.00
1274.402, 16680.00
1275.473, 16829.00
1276.544, 16820.00
1277.615, 16673.00
1278.686, 16826.00
1279.756, 16869.00
1280.827, 16772.00
1281.897, 16809.00
1282.967, 16906.00
1284.037, 16875.00
1285.107, 16834.00
1286.177, 16983.00
1287.247, 16893.00
1288.316, 17089.00
1289.385, 16993.00
1290.454, 16930.00
1291.523, 16945.00
1292.592, 17011.00
1293.661, 17037.00
1294.729, 17230.00
1295.797, 16945.00
1296.866, 17257.00
1297.934, 17040.00
1299.001, 17134.00
1300.069, 17088.00
1301.137, 17249.00
1302.204, 17082.00
1303.271, 17216.00
1304.338, 17151.00
1305.405, 17133.00
1306.472, 17190.00
1307.539, 17266.00
1308.605, 17297.00
1309.671, 17302.07
1310.737, 17313.00
1311.803, 17332.00
1312.869, 17437.00
1313.935, 17587.00
1315.000, 17691.00
1316.066, 17793.00
1317.131, 17671.00
1318.196, 17667.00
1319.261, 17610.00
1320.326, 17494.00
1321.390, 17539.00
1322.455, 17467.00
1323.519, 17512.00
1324.583, 17456.68
1325.647, 17387.00
1326.711, 17352.00
1327.775, 17221.00
1328.838, 17147.00
1329.902, 17105.00
1330.965, 17112.00
1332.028, 17061.00
1333.091, 17025.00
1334.153, 17069.00
1335.216, 16986.00
