##NAMES=Painite
##RRUFFID=R060957
##IDEAL CHEMISTRY=CaZr^4+^Al_9_O_15_(BO_3_)
##LOCALITY=Ohngaing Village, Mogok, Burma
##OWNER=RRUFF
##SOURCE=Marcus Origlieri
##DESCRIPTION=Single crystal, reddish-brown to orangish prism section, several prism forms, small transparent areas.
##STATUS=The identification of this mineral has been confirmed by X-ray diffraction.
##URL=rruff.info/R060957
##PIN_ID=M01433
##ORIENTATION=Laser parallel to c* (0 0 1). Fiducial mark perpendicular to laser is parallel to a [1 0 0]
163.0300, 31073.00
164.2600, 31200.00
165.4900, 31317.00
166.7200, 31525.29
167.9500, 31784.00
169.1790, 32148.00
170.4080, 32680.96
171.6380, 33247.41
172.8670, 34034.00
174.0950, 34755.00
175.3240, 35667.00
176.5520, 36714.00
177.7810, 38914.00
179.0090, 42190.00
180.2370, 46250.00
181.4640, 50827.00
182.6920, 53130.00
183.9190, 49514.00
185.1460, 43253.00
186.3730, 38672.00
187.6000, 35999.00
188.8270, 34070.00
190.0530, 33030.00
191.2800, 32231.00
192.5060, 31933.00
193.7320, 31627.00
194.9580, 31837.00
196.1830, 31513.00
197.4090, 31626.00
198.6340, 31499.00
199.8590, 31678.00
201.0840, 31828.00
202.3090, 31690.00
203.5340, 31860.00
204.7580, 31982.00
205.9820, 31921.00
207.2060, 32347.00
208.4300, 32591.00
209.6540, 32869.00
210.8780, 33108.00
212.1010, 33414.00
213.3240, 34187.00
214.5470, 34851.00
215.7700, 36048.00
216.9930, 37418.00
218.2150, 38966.00
219.4380, 40758.00
220.6600, 41773.00
221.8820, 42276.00
223.1040, 41091.00
224.3260, 39535.00
225.5470, 37742.00
226.7680, 36160.00
227.9900, 35121.00
229.2110, 33995.00
230.4310, 33163.00
231.6520, 32882.00
232.8720, 32377.00
234.0930, 32028.00
235.3130, 31826.00
236.5330, 31830.00
237.7530, 31482.00
238.9720, 31286.00
240.1920, 31347.00
241.4110, 31238.00
242.6300, 31060.00
243.8490, 31240.00
245.0680, 31066.00
246.2860, 31198.00
247.5040, 31130.00
248.7230, 31098.00
249.9410, 30921.00
251.1590, 31287.00
252.3760, 31024.00
253.5940, 30830.00
254.8110, 31209.00
256.0280, 31275.00
257.2450, 31153.00
258.4620, 31415.00
259.6790, 31832.00
260.8950, 32364.00
262.1120, 32046.00
263.3280, 31999.00
264.5440, 32128.00
265.7600, 32029.00
266.9750, 32194.00
268.1910, 32029.00
269.4060, 32023.00
270.6210, 31784.00
271.8360, 31835.00
273.0510, 31833.00
274.2650, 31768.00
275.4800, 31865.00
276.6940, 32089.00
277.9080, 31913.00
279.1220, 32056.00
280.3360, 32088.00
281.5490, 32036.00
282.7630, 32444.00
283.9760, 32598.00
285.1890, 32912.00
286.4020, 32924.00
287.6150, 33051.00
288.8270, 33044.00
290.0400, 32893.00
291.2520, 32766.00
292.4640, 32923.00
293.6760, 32954.00
294.8870, 33015.00
296.0990, 32806.00
297.3100, 33134.00
298.5210, 33068.00
299.7320, 33432.00
300.9430, 33893.00
302.1540, 34154.00
303.3640, 34609.00
304.5750, 35276.00
305.7850, 36334.00
306.9950, 37196.00
308.2050, 37385.00
309.4140, 37477.00
310.6240, 37129.00
311.8330, 36642.00
313.0420, 35775.00
314.2510, 35254.00
315.4600, 34829.00
316.6680, 34229.00
317.8770, 33702.00
319.0850, 33107.00
320.2930, 32730.00
321.5010, 32627.00
322.7090, 32417.00
323.9160, 32235.00
325.1240, 32156.00
326.3310, 32101.00
327.5380, 32279.00
328.7450, 32178.00
329.9520, 32127.00
331.1580, 32266.00
332.3650, 32246.00
333.5710, 32349.59
334.7770, 32479.00
335.9830, 32560.00
337.1880, 32628.00
338.3940, 32737.00
339.5990, 33027.00
340.8040, 33303.71
342.0090, 33691.00
343.2140, 34150.00
344.4190, 34506.00
345.6230, 35118.00
346.8280, 35585.00
348.0320, 36273.00
349.2360, 37079.00
350.4400, 37559.00
351.6430, 38112.00
352.8470, 38404.00
354.0500, 38028.00
355.2530, 37255.00
356.4560, 36513.00
357.6590, 35095.00
358.8620, 34681.00
360.0640, 34211.00
361.2660, 33637.00
362.4680, 33279.00
363.6700, 33365.00
364.8720, 33300.00
366.0740, 33366.00
367.2750, 33373.00
368.4760, 33482.58
369.6770, 33645.00
370.8780, 33784.00
372.0790, 33949.00
373.2800, 34161.00
374.4800, 34496.00
375.6800, 35383.00
376.8800, 35530.00
378.0800, 36429.00
379.2800, 37153.00
380.4790, 37469.00
381.6790, 37738.37
382.8780, 37942.00
384.0770, 37580.00
385.2760, 37134.00
386.4750, 36667.00
387.6730, 36320.00
388.8720, 36416.00
390.0700, 36981.00
391.2680, 37769.00
392.4660, 38424.00
393.6630, 39991.00
394.8610, 41673.00
396.0580, 43862.00
397.2550, 46439.00
398.4520, 48356.00
399.6490, 49085.00
400.8460, 48199.00
402.0420, 45659.00
403.2390, 42727.00
404.4350, 40354.00
405.6310, 38222.00
406.8270, 36882.00
408.0220, 35859.00
409.2180, 35452.00
410.4130, 35393.00
411.6080, 34619.00
412.8030, 34076.00
413.9980, 33921.00
415.1920, 33385.00
416.3870, 33262.00
417.5810, 33326.00
418.7750, 33076.00
419.9690, 32983.00
421.1630, 32863.00
422.3570, 32813.00
423.5500, 32923.00
424.7430, 32933.00
425.9360, 33094.00
427.1290, 33227.00
428.3220, 33670.00
429.5150, 33970.00
430.7070, 34668.29
431.8990, 35400.00
433.0910, 36489.00
434.2830, 37671.00
435.4750, 39169.00
436.6670, 40294.00
437.8580, 40169.00
439.0490, 39077.00
440.2400, 37909.00
441.4310, 36893.00
442.6220, 35973.00
443.8130, 35681.00
445.0030, 35646.00
446.1930, 35665.00
447.3830, 36023.00
448.5730, 36281.00
449.7630, 36150.00
450.9520, 35830.00
452.1420, 35786.00
453.3310, 35941.00
454.5200, 35706.00
455.7090, 36355.00
456.8980, 36855.00
458.0860, 37827.00
459.2740, 38612.00
460.4630, 40347.00
461.6510, 41708.00
462.8380, 43982.00
464.0260, 46301.00
465.2140, 49856.00
466.4010, 52714.00
467.5880, 55589.00
468.7750, 56381.00
469.9620, 54655.00
471.1490, 52152.00
472.3350, 49088.00
473.5220, 47089.00
474.7080, 45208.00
475.8940, 44332.00
477.0800, 43230.00
478.2650, 42582.00
479.4510, 41581.00
480.6360, 40357.00
481.8210, 39295.00
483.0060, 38210.00
484.1910, 37045.00
485.3760, 36542.00
486.5600, 35945.00
487.7440, 35778.00
488.9290, 35903.00
490.1130, 35429.00
491.2960, 35575.00
492.4800, 35346.00
493.6630, 35292.00
494.8470, 35205.00
496.0300, 34989.00
497.2130, 34638.00
498.3960, 34302.00
499.5780, 34030.00
500.7610, 33912.20
501.9430, 33944.00
503.1250, 33948.00
504.3070, 33995.00
505.4890, 34362.00
506.6710, 34344.00
507.8520, 34607.00
509.0330, 34731.00
510.2140, 34794.00
511.3950, 35058.00
512.5760, 35174.00
513.7570, 35139.00
514.9370, 35172.00
516.1170, 34941.00
517.2980, 35340.00
518.4780, 35499.00
519.6570, 35703.00
520.8370, 36319.00
522.0160, 36829.00
523.1960, 37424.00
524.3750, 38132.00
525.5540, 39239.00
526.7320, 40415.00
527.9110, 41215.00
529.0890, 42058.00
530.2680, 43039.00
531.4460, 43848.00
532.6240, 44976.00
533.8010, 46094.00
534.9790, 47905.00
536.1560, 49678.00
537.3340, 51666.00
538.5110, 53871.00
539.6880, 54104.00
540.8650, 53381.00
542.0410, 51159.00
543.2180, 48335.00
544.3940, 45682.00
545.5700, 42618.00
546.7460, 40193.00
547.9220, 38716.00
549.0970, 37355.00
550.2730, 36711.00
551.4480, 36396.00
552.6230, 35746.00
553.7980, 34895.00
554.9730, 34557.00
556.1470, 34382.00
557.3210, 34275.00
558.4960, 34098.00
559.6700, 34199.00
560.8440, 34210.00
562.0170, 34240.00
563.1910, 34606.91
564.3640, 35178.00
565.5380, 35533.00
566.7110, 36015.00
567.8840, 36803.00
569.0560, 37910.00
570.2290, 38679.00
571.4010, 39810.00
572.5740, 40112.00
573.7460, 41091.00
574.9180, 40926.00
576.0890, 40643.00
577.2610, 40089.00
578.4320, 39692.00
579.6040, 39295.00
580.7750, 39259.00
581.9450, 39321.00
583.1160, 39637.00
584.2870, 40642.00
585.4570, 41480.00
586.6270, 42586.00
587.7980, 43708.00
588.9670, 44967.00
590.1370, 45726.00
591.3070, 46167.00
592.4760, 45857.00
593.6450, 44505.00
594.8140, 43064.00
595.9830, 41530.00
597.1520, 39750.00
598.3210, 38335.00
599.4890, 37319.00
600.6570, 36527.00
601.8250, 35780.00
602.9930, 35299.00
604.1610, 34770.00
605.3290, 34516.00
606.4960, 34304.91
607.6630, 34133.48
608.8300, 34241.00
609.9970, 34043.00
611.1640, 34229.00
612.3300, 34239.00
613.4970, 34715.00
614.6630, 35151.00
615.8290, 35562.00
616.9950, 36078.00
618.1610, 36702.00
619.3260, 37058.00
620.4920, 37227.00
621.6570, 36978.00
622.8220, 36713.00
623.9870, 36220.00
625.1520, 35958.00
626.3160, 35641.00
627.4810, 34963.00
628.6450, 34704.00
629.8090, 34276.00
630.9730, 34234.00
632.1370, 34022.00
633.3000, 34238.00
634.4640, 33674.00
635.6270, 34125.00
636.7900, 33999.00
637.9530, 34284.00
639.1160, 34704.00
640.2780, 34923.00
641.4410, 35288.00
642.6030, 36012.00
643.7650, 36729.00
644.9270, 37606.00
646.0890, 38240.00
647.2500, 39407.00
648.4120, 39930.00
649.5730, 40805.00
650.7340, 41631.00
651.8950, 42089.00
653.0560, 41878.00
654.2160, 41355.00
655.3770, 41098.00
656.5370, 39793.00
657.6970, 38914.00
658.8570, 37808.00
660.0170, 36768.00
661.1760, 36081.00
662.3360, 35140.00
663.4950, 34696.00
664.6540, 34186.00
665.8130, 33812.00
666.9720, 33451.00
668.1310, 33172.00
669.2890, 32718.00
670.4470, 32472.00
671.6050, 32384.00
672.7630, 32121.00
673.9210, 32261.00
675.0790, 31935.00
676.2360, 31760.00
677.3930, 31778.00
678.5510, 31896.00
679.7080, 31590.00
680.8640, 31882.00
682.0210, 31769.00
683.1770, 31794.00
684.3340, 31866.00
685.4900, 31821.00
686.6460, 31779.00
687.8020, 31859.84
688.9570, 31837.00
690.1130, 32002.00
691.2680, 32093.00
692.4230, 32219.00
693.5780, 32290.00
694.7330, 32459.51
695.8880, 32876.00
697.0420, 32910.00
698.1960, 32952.00
699.3510, 33419.00
700.5040, 33803.00
701.6580, 34032.88
702.8120, 34333.00
703.9650, 34759.00
705.1190, 34978.00
706.2720, 35557.00
707.4250, 35993.00
708.5780, 36724.00
709.7300, 37396.00
710.8830, 38553.00
712.0350, 39657.00
713.1870, 40732.00
714.3390, 42142.00
715.4910, 43979.00
716.6430, 45502.00
717.7940, 47234.00
718.9460, 48093.00
720.0970, 48300.00
721.2480, 47946.00
722.3990, 46623.00
723.5500, 45181.00
724.7000, 43894.00
725.8500, 42528.00
727.0010, 40795.00
728.1510, 39684.00
729.3010, 38477.00
730.4500, 38063.00
731.6000, 37240.00
732.7490, 36418.00
733.8980, 36306.00
735.0470, 35894.00
736.1960, 35646.00
737.3450, 35862.00
738.4940, 35722.00
739.6420, 35822.00
740.7900, 35440.00
741.9380, 35473.00
743.0860, 35486.00
744.2340, 35672.00
745.3810, 35564.68
746.5290, 35473.00
747.6760, 35461.00
748.8230, 35570.00
749.9700, 35590.00
751.1170, 35623.00
752.2630, 35624.00
753.4100, 36159.00
754.5560, 36201.00
755.7020, 36285.00
756.8480, 36265.00
757.9940, 36432.11
759.1390, 36599.00
760.2850, 36823.00
761.4300, 36863.00
762.5750, 37230.00
763.7200, 37385.00
764.8650, 37701.07
766.0100, 37830.00
767.1540, 38468.00
768.2980, 38858.00
769.4420, 39431.00
770.5860, 39705.00
771.7300, 40128.00
772.8740, 40653.00
774.0170, 41014.00
775.1610, 41654.00
776.3040, 42223.00
777.4470, 43002.00
778.5900, 43776.00
779.7320, 44824.00
780.8750, 45759.00
782.0170, 47326.00
783.1590, 48649.00
784.3010, 49894.00
785.4430, 51648.00
786.5850, 53276.00
787.7260, 54701.00
788.8680, 55793.00
790.0090, 56903.00
791.1500, 57738.00
792.2910, 58178.00
793.4310, 58103.00
794.5720, 57618.00
795.7120, 56692.00
796.8520, 56012.00
797.9920, 55053.00
799.1320, 54156.00
800.2720, 52987.00
801.4120, 52514.00
802.5510, 51819.00
803.6900, 50750.00
804.8290, 50099.00
805.9680, 49215.00
807.1070, 48327.05
808.2450, 47321.00
809.3840, 46700.00
810.5220, 45846.00
811.6600, 45253.00
812.7980, 44407.00
813.9360, 43960.00
815.0730, 43421.00
816.2110, 42693.00
817.3480, 42256.00
818.4850, 41428.00
819.6220, 40513.00
820.7590, 39624.00
821.8960, 38804.00
823.0320, 38026.00
824.1680, 37391.70
825.3040, 36621.00
826.4400, 36328.00
827.5760, 35908.00
828.7120, 35562.00
829.8470, 35510.00
830.9830, 35133.00
832.1180, 35056.00
833.2530, 34495.00
834.3880, 34746.00
835.5220, 34302.00
836.6570, 34652.00
837.7910, 34539.00
838.9250, 34568.00
840.0590, 34757.00
841.1930, 35014.00
842.3270, 35126.00
843.4600, 35188.00
844.5940, 35168.23
845.7270, 35160.95
846.8600, 35086.37
847.9930, 35007.00
849.1250, 34825.00
850.2580, 34678.00
851.3900, 34430.00
852.5230, 34299.00
853.6550, 33654.00
854.7870, 33527.00
855.9180, 33241.00
857.0500, 33497.00
858.1810, 32934.00
859.3130, 32857.00
860.4440, 32584.00
861.5750, 32209.00
862.7050, 32104.00
863.8360, 32031.00
864.9660, 31958.00
866.0970, 31531.00
867.2270, 31799.00
868.3570, 31405.00
869.4870, 31346.00
870.6160, 31260.00
871.7460, 31074.00
872.8750, 30925.00
874.0040, 30873.89
875.1330, 30845.00
876.2620, 30778.00
877.3910, 30635.00
878.5190, 30604.00
879.6470, 30619.00
880.7760, 30484.00
881.9040, 30483.00
883.0310, 30275.00
884.1590, 30521.00
885.2870, 30410.00
886.4140, 30191.00
887.5410, 30367.00
888.6680, 30355.00
889.7950, 30274.00
890.9220, 30097.00
892.0480, 30063.00
893.1750, 30138.00
894.3010, 29970.00
895.4270, 30210.00
896.5530, 30152.00
897.6790, 29877.00
898.8040, 29942.00
899.9300, 29956.00
901.0550, 29942.00
902.1800, 30101.00
903.3050, 29865.00
904.4300, 29879.00
905.5540, 29783.00
906.6790, 29905.00
907.8030, 29827.00
908.9270, 29805.00
910.0510, 29864.00
911.1750, 29738.00
912.2990, 29821.00
913.4220, 29543.00
914.5450, 29597.00
915.6690, 29541.00
916.7920, 29616.00
917.9140, 29592.08
919.0370, 29559.46
920.1600, 29586.00
921.2820, 29503.00
922.4040, 29515.00
923.5260, 29538.00
924.6480, 29447.00
925.7700, 29383.00
926.8910, 29235.00
928.0130, 29406.00
929.1340, 29343.00
930.2550, 29432.00
931.3760, 29304.00
932.4970, 29213.00
933.6170, 29486.00
934.7380, 29338.00
935.8580, 29415.00
936.9780, 29386.00
938.0980, 29201.00
939.2180, 29300.00
940.3370, 29119.00
941.4570, 29477.00
942.5760, 29417.00
943.6950, 29326.00
944.8140, 29230.00
945.9330, 29167.00
947.0520, 29088.00
948.1700, 29356.00
949.2890, 29164.00
950.4070, 29121.00
951.5250, 29309.00
952.6430, 29134.00
953.7600, 29125.00
954.8780, 28971.00
955.9950, 29123.00
957.1120, 29199.00
958.2290, 29055.00
959.3460, 29145.00
960.4630, 29169.00
961.5800, 29090.00
962.6960, 29188.00
963.8120, 29201.74
964.9280, 29298.00
966.0440, 29323.00
967.1600, 29372.00
968.2760, 29449.00
969.3910, 29470.54
970.5060, 29569.87
971.6210, 29554.00
972.7360, 29787.00
973.8510, 29868.00
974.9660, 30051.00
976.0800, 30484.00
977.1950, 30555.00
978.3090, 30808.00
979.4230, 31464.00
980.5370, 32022.00
981.6500, 32973.00
982.7640, 34084.00
983.8770, 35708.00
984.9900, 37625.00
986.1030, 40050.00
987.2160, 43054.00
988.3290, 45429.00
989.4420, 47250.00
990.5540, 47287.00
991.6660, 45737.00
992.7780, 42883.00
993.8900, 39927.00
995.0020, 37209.00
996.1140, 35087.00
997.2250, 33640.00
998.3360, 32524.00
999.4470, 32050.00
1000.558, 31114.00
1001.669, 30860.00
1002.780, 30376.00
1003.890, 30441.00
1005.001, 29891.00
1006.111, 29805.00
1007.221, 29646.00
1008.331, 29470.00
1009.440, 29299.00
1010.550, 29283.00
1011.659, 29237.00
1012.768, 29203.00
1013.877, 29176.90
1014.986, 29135.00
1016.095, 29058.00
1017.204, 28985.00
1018.312, 28792.00
1019.420, 28791.00
1020.528, 28768.00
1021.636, 28951.00
1022.744, 28848.00
1023.852, 28704.00
1024.959, 28974.00
1026.066, 28768.00
1027.173, 28818.00
1028.280, 28689.00
1029.387, 28709.00
1030.494, 28862.00
1031.600, 28808.00
1032.707, 28762.00
1033.813, 28838.00
1034.919, 29066.00
1036.025, 29002.00
1037.130, 29316.00
1038.236, 29150.00
1039.341, 29490.00
1040.446, 29504.00
1041.552, 29381.00
1042.656, 29544.00
1043.761, 29520.00
1044.866, 29701.00
1045.970, 29948.00
1047.074, 29924.00
1048.179, 30138.00
1049.282, 29970.00
1050.386, 30004.00
1051.490, 30112.00
1052.593, 30135.00
1053.697, 30082.00
1054.800, 30242.00
1055.903, 30331.00
1057.006, 30318.00
1058.108, 30248.00
1059.211, 30326.00
1060.313, 30256.22
1061.415, 30186.00
1062.517, 30232.00
1063.619, 30334.00
1064.721, 30427.00
1065.823, 30365.00
1066.924, 30402.02
1068.025, 30382.09
1069.126, 30343.00
1070.227, 30332.00
1071.328, 30308.00
1072.429, 30303.00
1073.529, 30236.00
1074.629, 30183.00
1075.729, 30176.00
1076.829, 30229.00
1077.929, 30538.00
1079.029, 30141.00
1080.128, 30315.00
1081.228, 30426.00
1082.327, 30222.00
1083.426, 30351.00
1084.525, 30464.00
1085.623, 30283.00
1086.722, 30382.00
1087.820, 30312.00
1088.919, 30345.00
1090.017, 30338.00
1091.115, 30370.00
1092.212, 30484.00
1093.310, 30485.00
1094.407, 30465.00
1095.505, 30440.00
1096.602, 30396.56
1097.699, 30368.89
1098.795, 30311.00
1099.892, 30296.00
1100.989, 30310.00
1102.085, 30278.00
1103.181, 30243.00
1104.277, 30195.00
1105.373, 30225.00
1106.469, 30298.00
1107.564, 30136.00
1108.660, 30460.00
1109.755, 30282.00
1110.850, 30410.00
1111.945, 30390.00
1113.040, 30303.00
1114.134, 30468.00
1115.229, 30415.57
1116.323, 30399.00
1117.417, 30472.00
1118.511, 30387.00
1119.605, 30429.00
1120.698, 30307.00
1121.792, 30350.00
1122.885, 30228.00
1123.978, 30314.00
1125.071, 30433.00
1126.164, 30220.00
1127.257, 30277.00
1128.349, 30123.00
1129.442, 30327.00
1130.534, 30289.00
1131.626, 30092.00
1132.718, 30173.00
1133.810, 30125.00
1134.901, 30335.00
1135.993, 30146.00
1137.084, 30082.00
1138.175, 30202.00
1139.266, 30054.00
1140.357, 30066.00
1141.448, 30229.00
1142.538, 30074.00
1143.628, 30056.00
1144.719, 30188.00
1145.809, 30133.00
1146.898, 30145.00
1147.988, 30319.00
1149.078, 29997.00
1150.167, 30191.00
1151.256, 30175.00
1152.345, 30011.00
1153.434, 30124.72
1154.523, 29964.00
1155.612, 30068.00
1156.700, 30167.00
1157.788, 30002.00
1158.877, 29958.00
1159.964, 30117.00
1161.052, 30187.00
1162.140, 30045.00
1163.227, 30124.00
1164.315, 29875.00
1165.402, 30177.00
1166.489, 30091.00
1167.576, 30116.00
1168.663, 30211.68
1169.749, 30073.00
1170.836, 30240.00
1171.922, 30075.00
1173.008, 30003.00
1174.094, 30200.00
1175.180, 30064.00
1176.265, 30069.00
1177.351, 29771.00
1178.436, 29840.00
1179.521, 30085.00
1180.606, 29929.00
1181.691, 30030.00
1182.776, 30005.00
1183.860, 29981.88
1184.944, 30281.00
1186.029, 29912.00
1187.113, 30298.00
1188.197, 30145.00
1189.280, 29961.00
1190.364, 29729.00
1191.447, 29771.00
1192.531, 29742.00
1193.614, 29963.00
1194.697, 29968.00
1195.779, 29828.00
1196.862, 30127.00
1197.945, 30114.00
1199.027, 29680.00
1200.109, 29992.00
1201.191, 29830.00
1202.273, 29853.00
1203.355, 29653.00
1204.436, 29816.00
1205.518, 29788.00
1206.599, 29759.00
1207.680, 30104.00
1208.761, 29895.00
1209.842, 29895.00
1210.922, 29782.00
1212.003, 29577.00
1213.083, 29779.00
1214.163, 29827.00
1215.243, 29860.00
1216.323, 29694.00
1217.402, 29826.00
1218.482, 29789.00
1219.561, 29641.00
1220.641, 29808.00
1221.720, 29534.00
1222.798, 29799.00
1223.877, 29884.00
1224.956, 29612.00
1226.034, 29771.00
1227.112, 29848.00
1228.191, 29859.00
1229.269, 29677.00
1230.346, 29582.00
1231.424, 29578.00
1232.501, 29854.00
1233.579, 29724.00
1234.656, 29954.00
1235.733, 29752.00
1236.810, 29747.00
1237.886, 29705.00
1238.963, 29695.00
1240.039, 29660.88
1241.116, 29693.00
1242.192, 29615.00
1243.268, 29620.00
1244.343, 29646.00
1245.419, 29748.00
1246.494, 29803.00
1247.570, 29619.00
1248.645, 29867.00
1249.720, 29695.00
1250.795, 29720.00
1251.869, 29774.00
1252.944, 29615.00
1254.018, 29538.00
1255.093, 29864.00
1256.167, 29594.00
1257.240, 29597.00
1258.314, 29684.00
1259.388, 29564.00
1260.461, 29671.00
1261.535, 29672.00
1262.608, 29659.00
1263.681, 29765.00
1264.753, 29647.00
1265.826, 29567.00
1266.899, 29658.00
1267.971, 29492.00
1269.043, 29578.00
1270.115, 29759.00
1271.187, 29968.00
1272.259, 29869.00
1273.330, 30109.00
1274.402, 29812.00
1275.473, 29659.00
1276.544, 29779.00
1277.615, 29909.00
1278.686, 29819.00
1279.756, 29820.00
1280.827, 29816.00
1281.897, 30037.00
1282.967, 30203.00
1284.037, 30195.00
1285.107, 30065.00
1286.177, 30192.00
1287.247, 30226.00
1288.316, 30192.00
1289.385, 30362.00
1290.454, 30668.00
1291.523, 30524.00
1292.592, 30547.00
1293.661, 30826.00
1294.729, 30510.00
1295.797, 30501.00
1296.866, 30756.00
1297.934, 30985.00
1299.001, 31076.00
1300.069, 30926.00
1301.137, 31182.00
1302.204, 31307.00
1303.271, 31237.00
1304.338, 31378.00
1305.405, 31505.00
1306.472, 31577.00
1307.539, 31475.00
1308.605, 31774.00
1309.671, 32434.00
1310.737, 32036.00
1311.803, 32809.00
1312.869, 32926.00
1313.935, 33540.00
1315.000, 34141.00
1316.066, 34582.00
1317.131, 34759.00
1318.196, 34744.00
1319.261, 34583.00
1320.326, 34030.00
1321.390, 33560.00
1322.455, 33282.00
1323.519, 32865.00
1324.583, 32714.00
1325.647, 32455.00
1326.711, 32157.00
1327.775, 32005.00
1328.838, 31699.00
1329.902, 31419.00
1330.965, 31631.00
1332.028, 31591.00
1333.091, 31237.00
1334.153, 31134.00
1335.216, 30997.00
