##NAMES=Paravauxite
##RRUFFID=R040179
##IDEAL CHEMISTRY=Fe^2+^Al_2_(PO_4_)_2_(OH)_2_&#183;8H_2_O
##LOCALITY=Mina Siglo XX, Llallagua, Bolivia
##OWNER=RRUFF
##SOURCE=University of Arizona Mineral Museum
##DESCRIPTION=Colorless short prismatic crystals in subparallel groups
##STATUS=The identification of this mineral has been confirmed by X-ray diffraction and chemical analysis
##URL=rruff.info/R040179
##MEASURED CHEMISTRY=(Fe_0.93_Mg_0.03_Mn_0.02_)Al_1.94_(P_2.05_O_4_)_2_((OH)_0.99_F_0.01_)_2_Â·8H_2_O
##PIN_ID=M01446
##ORIENTATION=Laser parallel to (-1 0 -1). Fiducial mark perpendicular to laser is parallel to b [0 1 0]
62.17000, 1003.000
63.41600, 968.0000
64.66100, 995.0000
65.90700, 1021.000
67.15200, 1007.000
68.39700, 1061.000
69.64100, 1017.000
70.88600, 1112.000
72.13000, 1082.000
73.37400, 1178.000
74.61800, 1272.000
75.86200, 1429.000
77.10600, 1499.000
78.34900, 1726.000
79.59300, 1974.683
80.83600, 2199.000
82.07900, 2629.000
83.32100, 3027.000
84.56400, 3477.000
85.80600, 4235.000
87.04800, 4851.000
88.29000, 5839.000
89.53200, 6930.000
90.77400, 8222.000
92.01500, 9390.000
93.25700, 11098.00
94.49800, 12494.00
95.73900, 14309.00
96.98000, 16411.00
98.22000, 18325.00
99.46100, 20501.00
100.7010, 22705.00
101.9410, 24962.00
103.1810, 27361.00
104.4210, 29364.00
105.6600, 32089.00
106.9000, 34445.00
108.1390, 36395.00
109.3780, 38527.00
110.6170, 40278.00
111.8550, 42001.00
113.0940, 43593.00
114.3320, 44508.00
115.5700, 45523.00
116.8080, 45721.00
118.0460, 45600.00
119.2830, 45737.00
120.5210, 45948.00
121.7580, 46090.00
122.9950, 46206.00
124.2320, 46224.00
125.4690, 46471.00
126.7050, 47027.00
127.9410, 47158.00
129.1780, 47782.00
130.4140, 47626.00
131.6490, 47741.00
132.8850, 47587.00
134.1200, 47539.00
135.3560, 47020.00
136.5910, 46939.00
137.8260, 46515.00
139.0610, 45880.00
140.2950, 45372.00
141.5290, 45236.00
142.7640, 44591.00
143.9980, 44254.00
145.2320, 44089.00
146.4650, 44081.00
147.6990, 43832.00
148.9320, 43307.00
150.1650, 43238.00
151.3980, 42944.00
152.6310, 42804.00
153.8640, 42589.00
155.0960, 42396.00
156.3280, 42649.00
157.5600, 42708.00
158.7920, 42631.00
160.0240, 43004.00
161.2560, 43303.00
162.4870, 43320.00
163.7180, 43806.00
164.9490, 43754.00
166.1800, 44229.00
167.4110, 44488.00
168.6410, 44849.00
169.8720, 44955.00
171.1020, 45371.00
172.3320, 45263.00
173.5620, 45649.00
174.7910, 46139.00
176.0210, 46169.00
177.2500, 46391.00
178.4790, 47025.00
179.7080, 47110.00
180.9370, 47477.00
182.1650, 47757.00
183.3940, 47936.00
184.6220, 48211.00
185.8500, 48568.00
187.0780, 48783.78
188.3050, 49144.15
189.5330, 49340.00
190.7600, 49598.00
191.9870, 49907.00
193.2140, 49665.00
194.4410, 49976.00
195.6680, 49649.00
196.8940, 49895.00
198.1200, 49272.00
199.3470, 48923.00
200.5720, 48510.00
201.7980, 47894.00
203.0240, 47576.00
204.2490, 47051.00
205.4740, 46699.00
206.6990, 46499.00
207.9240, 46492.00
209.1490, 46344.00
210.3740, 46537.00
211.5980, 46402.00
212.8220, 46570.00
214.0460, 46461.00
215.2700, 46716.00
216.4930, 47222.00
217.7170, 47266.00
218.9400, 47981.00
220.1630, 48439.00
221.3860, 48976.00
222.6090, 49874.00
223.8320, 50713.00
225.0540, 51862.00
226.2760, 52830.00
227.4980, 53839.00
228.7200, 55719.00
229.9420, 57363.00
231.1630, 58436.28
232.3850, 59551.00
233.6060, 60334.00
234.8270, 61096.00
236.0480, 61045.00
237.2690, 60931.00
238.4890, 60266.00
239.7090, 59024.00
240.9290, 58081.00
242.1490, 56884.00
243.3690, 55866.63
244.5890, 55135.00
245.8080, 53889.00
247.0270, 53195.00
248.2470, 52372.00
249.4650, 51985.18
250.6840, 51498.94
251.9030, 51581.00
253.1210, 51134.00
254.3390, 50953.00
255.5570, 51394.00
256.7750, 50841.00
257.9930, 51027.00
259.2100, 51091.00
260.4280, 51655.00
261.6450, 51250.00
262.8620, 51581.00
264.0790, 51761.00
265.2950, 52046.00
266.5120, 52425.00
267.7280, 53220.00
268.9440, 53880.71
270.1600, 54554.00
271.3760, 55736.00
272.5920, 56611.00
273.8070, 57735.00
275.0220, 59255.00
276.2370, 60723.00
277.4520, 62056.00
278.6670, 63459.00
279.8820, 64764.00
281.0960, 65925.00
282.3100, 65891.00
283.5240, 65987.00
284.7380, 66277.00
285.9520, 65392.00
287.1650, 64683.00
288.3780, 63541.00
289.5920, 62626.00
290.8050, 62079.00
292.0170, 61730.00
293.2300, 61676.00
294.4430, 61422.00
295.6550, 60959.00
296.8670, 60704.00
298.0790, 60255.00
299.2910, 60040.00
300.5020, 59682.00
301.7140, 59031.00
302.9250, 58715.00
304.1360, 58140.00
305.3470, 58283.00
306.5580, 57228.00
307.7680, 57198.00
308.9780, 56733.00
310.1890, 56877.00
311.3990, 56575.00
312.6090, 56677.00
313.8180, 56329.00
315.0280, 56608.00
316.2370, 56203.00
317.4460, 56164.00
318.6550, 55978.00
319.8640, 55918.00
321.0730, 55659.00
322.2810, 55432.89
323.4890, 54985.00
324.6980, 54808.00
325.9060, 54384.00
327.1130, 53915.00
328.3210, 54292.00
329.5280, 53875.00
330.7360, 53772.00
331.9430, 53205.00
333.1500, 53602.00
334.3560, 53231.00
335.5630, 53175.00
336.7690, 53252.00
337.9760, 53188.00
339.1820, 53071.00
340.3870, 52979.00
341.5930, 53040.00
342.7990, 52774.00
344.0040, 53211.00
345.2090, 53229.00
346.4140, 53190.00
347.6190, 53696.00
348.8240, 53395.63
350.0280, 53213.00
351.2330, 53129.00
352.4370, 53543.00
353.6410, 53532.00
354.8440, 53763.00
356.0480, 54026.00
357.2520, 53854.00
358.4550, 53940.00
359.6580, 54260.00
360.8610, 54185.00
362.0640, 54400.00
363.2660, 54763.00
364.4690, 54890.00
365.6710, 55059.00
366.8730, 55483.00
368.0750, 55639.00
369.2770, 56131.00
370.4780, 56536.00
371.6800, 56532.00
372.8810, 57389.00
374.0820, 57305.00
375.2830, 57665.00
376.4830, 57892.00
377.6840, 58133.00
378.8840, 58164.00
380.0840, 58311.00
381.2840, 58542.00
382.4840, 58855.00
383.6840, 59038.25
384.8830, 59272.56
386.0830, 59595.00
387.2820, 59562.00
388.4810, 60001.00
389.6800, 59913.00
390.8780, 60535.00
392.0770, 61064.00
393.2750, 61719.00
394.4730, 62300.00
395.6710, 62584.00
396.8690, 63241.00
398.0660, 64068.00
399.2640, 64798.00
400.4610, 64893.00
401.6580, 65766.00
402.8550, 65930.00
404.0520, 65596.00
405.2490, 65234.00
406.4450, 64869.00
407.6410, 64392.00
408.8370, 63420.00
410.0330, 62788.00
411.2290, 61635.00
412.4240, 61572.00
413.6200, 60955.00
414.8150, 60755.00
416.0100, 60442.00
417.2050, 60355.00
418.4000, 60535.00
419.5940, 60324.00
420.7880, 60815.00
421.9830, 60846.00
423.1770, 61585.00
424.3700, 61584.00
425.5640, 61890.00
426.7580, 62056.00
427.9510, 62925.00
429.1440, 62921.00
430.3370, 63380.00
431.5300, 63392.00
432.7220, 63603.00
433.9150, 63781.00
435.1070, 63646.00
436.2990, 64056.00
437.4910, 63691.00
438.6830, 63614.00
439.8750, 63644.00
441.0660, 63774.00
442.2570, 63782.00
443.4480, 63804.00
444.6390, 64362.00
445.8300, 64585.00
447.0210, 64992.00
448.2110, 64998.00
449.4010, 65617.00
450.5910, 66368.00
451.7810, 66836.00
452.9710, 67686.00
454.1610, 68039.00
455.3500, 68643.00
456.5390, 69677.00
457.7280, 70538.00
458.9170, 71642.00
460.1060, 72876.00
461.2940, 73905.00
462.4830, 75072.00
463.6710, 76301.00
464.8590, 77896.00
466.0470, 78549.00
467.2350, 79808.00
468.4220, 81458.00
469.6090, 82547.00
470.7970, 83320.00
471.9840, 84138.00
473.1700, 84590.00
474.3570, 85368.00
475.5440, 84981.00
476.7300, 85313.00
477.9160, 84907.00
479.1020, 84066.00
480.2880, 83495.00
481.4740, 82385.00
482.6590, 81554.00
483.8440, 80432.00
485.0300, 79353.00
486.2140, 78121.00
487.3990, 77163.00
488.5840, 76044.00
489.7680, 74715.00
490.9530, 73743.00
492.1370, 73014.00
493.3210, 72216.00
494.5040, 70689.00
495.6880, 70469.00
496.8720, 69548.00
498.0550, 69031.00
499.2380, 68549.00
500.4210, 67684.58
501.6040, 67076.00
502.7860, 66241.00
503.9690, 66226.00
505.1510, 65734.00
506.3330, 65532.00
507.5150, 65240.00
508.6970, 65015.00
509.8780, 64657.00
511.0600, 64340.00
512.2410, 64641.00
513.4220, 64376.00
514.6030, 64402.00
515.7840, 64622.00
516.9640, 64631.00
518.1440, 64846.00
519.3250, 65005.00
520.5050, 65180.00
521.6850, 65176.00
522.8640, 65386.00
524.0440, 65625.00
525.2230, 65814.00
526.4020, 66231.00
527.5820, 66839.00
528.7600, 66810.00
529.9390, 67026.00
531.1180, 67652.00
532.2960, 67943.00
533.4740, 68285.00
534.6520, 68290.00
535.8300, 69244.00
537.0080, 69083.00
538.1850, 69541.00
539.3630, 69366.00
540.5400, 69605.00
541.7170, 69897.00
542.8940, 69741.00
544.0700, 70065.00
545.2470, 70199.00
546.4230, 70016.00
547.5990, 70079.00
548.7750, 70169.00
549.9510, 70270.00
551.1270, 70142.00
552.3020, 70772.00
553.4780, 70742.00
554.6530, 71064.00
555.8280, 71644.00
557.0030, 72136.00
558.1770, 72633.00
559.3520, 73424.00
560.5260, 74497.00
561.7000, 75430.00
562.8740, 76598.00
564.0480, 77974.00
565.2220, 79948.00
566.3950, 81409.00
567.5680, 83988.00
568.7420, 85672.00
569.9150, 88761.00
571.0870, 90940.00
572.2600, 93969.00
573.4320, 96614.00
574.6050, 99403.00
575.7770, 102331.0
576.9490, 104030.0
578.1210, 105959.0
579.2920, 107192.0
580.4640, 108351.0
581.6350, 108304.0
582.8060, 107882.0
583.9770, 107563.0
585.1480, 106759.0
586.3190, 105709.0
587.4890, 104327.0
588.6590, 102802.0
589.8290, 101568.0
590.9990, 100046.0
592.1690, 98331.00
593.3390, 96756.00
594.5080, 95517.00
595.6770, 94087.00
596.8470, 92146.00
598.0160, 91292.00
599.1840, 89360.00
600.3530, 87526.00
601.5210, 86447.00
602.6900, 84878.00
603.8580, 83660.00
605.0260, 82502.40
606.1930, 81217.00
607.3610, 80286.00
608.5280, 79296.00
609.6960, 78332.00
610.8630, 76971.00
612.0300, 76281.00
613.1970, 75288.00
614.3630, 74425.00
615.5300, 73774.00
616.6960, 73391.00
617.8620, 72760.00
619.0280, 72222.01
620.1940, 71880.00
621.3590, 71152.00
622.5250, 70958.00
623.6900, 70561.00
624.8550, 70328.00
626.0200, 70377.00
627.1850, 70248.00
628.3490, 70300.00
629.5140, 69664.00
630.6780, 70172.00
631.8420, 69910.00
633.0060, 70254.00
634.1700, 70305.00
635.3330, 70419.00
636.4970, 70296.00
637.6600, 70281.00
638.8230, 70886.00
639.9860, 70482.00
641.1490, 70723.00
642.3110, 71164.00
643.4740, 70910.00
644.6360, 70773.00
645.7980, 71085.00
646.9600, 71128.00
648.1220, 71055.00
649.2840, 70910.00
650.4450, 70827.00
651.6060, 70443.00
652.7670, 70692.00
653.9280, 70930.00
655.0890, 70500.00
656.2500, 70726.00
657.4100, 70458.00
658.5700, 70436.00
659.7300, 70095.00
660.8900, 70113.27
662.0500, 70074.00
663.2100, 69976.00
664.3690, 70075.00
665.5280, 70017.53
666.6880, 69898.00
667.8460, 70015.00
669.0050, 70052.00
670.1640, 70044.00
671.3220, 70013.00
672.4810, 70260.00
673.6390, 70150.00
674.7970, 70422.00
675.9540, 70132.00
677.1120, 70039.00
678.2690, 70241.00
679.4270, 70271.00
680.5840, 70395.00
681.7410, 70126.00
682.8980, 70625.00
684.0540, 70404.00
685.2110, 70656.00
686.3670, 70705.00
687.5230, 70761.00
688.6790, 70561.00
689.8350, 70875.00
690.9900, 70802.00
692.1460, 70842.00
693.3010, 71034.00
694.4560, 70604.00
695.6110, 70994.00
696.7660, 71233.00
697.9210, 70961.00
699.0750, 71255.00
700.2290, 71339.00
701.3840, 70977.00
702.5370, 71271.00
703.6910, 71649.00
704.8450, 71277.00
705.9980, 71810.00
707.1520, 71797.00
708.3050, 71337.00
709.4580, 72289.00
710.6110, 71853.00
711.7630, 72340.00
712.9160, 72154.00
714.0680, 72539.00
715.2200, 72413.00
716.3720, 72543.00
717.5240, 72683.00
718.6760, 72539.00
719.8270, 72740.00
720.9780, 73071.00
722.1300, 72755.00
723.2810, 72655.00
724.4310, 73046.00
725.5820, 72777.00
726.7330, 72710.00
727.8830, 72696.00
729.0330, 72627.91
730.1830, 72910.00
731.3330, 72683.00
732.4830, 72675.00
733.6320, 72738.00
734.7810, 73080.00
735.9310, 73312.00
737.0800, 73440.00
738.2290, 73248.00
739.3770, 73284.00
740.5260, 73659.00
741.6740, 73424.00
742.8220, 73504.00
743.9700, 73508.00
745.1180, 73820.00
746.2660, 73475.00
747.4130, 73975.00
748.5610, 73816.00
749.7080, 74149.00
750.8550, 74064.00
752.0020, 74158.00
753.1490, 74183.00
754.2950, 73830.00
755.4420, 74000.00
756.5880, 74198.00
757.7340, 74693.00
758.8800, 74402.00
760.0250, 74448.00
761.1710, 74304.00
762.3160, 74624.00
763.4620, 74683.00
764.6070, 74701.00
765.7520, 74928.00
766.8960, 75056.00
768.0410, 74889.00
769.1850, 75145.00
770.3300, 75068.00
771.4740, 74937.00
772.6180, 74936.00
773.7610, 75292.00
774.9050, 75379.00
776.0480, 75254.00
777.1920, 75687.00
778.3350, 75274.00
779.4780, 75795.00
780.6200, 75713.00
781.7630, 75624.00
782.9060, 75755.00
784.0480, 76012.00
785.1900, 75914.00
786.3320, 75803.00
787.4740, 76236.00
788.6150, 75943.00
789.7570, 75955.00
790.8980, 76441.00
792.0390, 76374.00
793.1800, 76316.00
794.3210, 76582.00
795.4620, 76777.00
796.6020, 76960.00
797.7420, 76618.00
798.8830, 76892.00
800.0230, 76780.00
801.1620, 76860.00
802.3020, 76988.00
803.4420, 77173.00
804.5810, 76861.00
805.7200, 77554.00
806.8590, 77266.00
807.9980, 77741.00
809.1370, 77778.00
810.2750, 78093.00
811.4140, 78027.00
812.5520, 77702.00
813.6900, 78413.00
814.8280, 77842.00
815.9650, 78187.00
817.1030, 78069.00
818.2400, 78305.00
819.3780, 78368.00
820.5150, 78412.00
821.6520, 78914.00
822.7880, 78530.00
823.9250, 78356.00
825.0610, 79122.00
826.1980, 78834.00
827.3340, 79001.00
828.4700, 78909.00
829.6050, 79131.00
830.7410, 79206.00
831.8760, 79370.00
833.0120, 79752.00
834.1470, 78952.00
835.2820, 79408.00
836.4160, 79272.00
837.5510, 79482.00
838.6860, 79964.00
839.8200, 79745.00
840.9540, 79671.00
842.0880, 79982.00
843.2220, 80496.00
844.3550, 80087.00
845.4890, 80475.00
846.6220, 80289.00
847.7550, 80432.00
848.8880, 80684.00
850.0210, 80463.00
851.1540, 80584.00
852.2860, 80482.20
853.4190, 80882.16
854.5510, 81134.10
855.6830, 81246.04
856.8150, 80798.65
857.9460, 81073.46
859.0780, 81058.88
860.2090, 81032.38
861.3410, 81408.90
862.4720, 81042.80
863.6020, 81412.82
864.7330, 81489.03
865.8640, 81699.74
866.9940, 81273.00
868.1240, 81033.00
869.2540, 81345.00
870.3840, 81619.00
871.5140, 81544.00
872.6440, 81719.66
873.7730, 81642.00
874.9020, 81708.00
876.0320, 81926.00
877.1600, 81820.00
878.2890, 81979.00
879.4180, 81933.00
880.5460, 81924.00
881.6750, 82026.00
882.8030, 82207.00
883.9310, 82440.00
885.0590, 82472.00
886.1860, 82450.20
887.3140, 82521.80
888.4410, 82600.00
889.5680, 82343.00
890.6950, 83202.00
891.8220, 82847.00
892.9490, 83246.00
894.0750, 82657.00
895.2020, 83566.00
896.3280, 83351.00
897.4540, 83106.00
898.5800, 83536.00
899.7050, 83371.00
900.8310, 83651.00
901.9560, 83258.00
903.0820, 83762.00
904.2070, 83584.00
905.3320, 84152.00
906.4560, 84125.00
907.5810, 84014.00
908.7050, 84083.00
909.8300, 84170.88
910.9540, 84792.00
912.0780, 84461.00
913.2010, 84748.00
914.3250, 84876.00
915.4480, 84570.00
916.5720, 85656.00
917.6950, 85228.99
918.8180, 85351.00
919.9410, 85305.00
921.0630, 85240.00
922.1860, 85749.00
923.3080, 85728.00
924.4300, 86251.00
925.5520, 86248.33
926.6740, 86231.00
927.7960, 86498.00
928.9170, 86673.00
930.0390, 86713.05
931.1600, 86677.00
932.2810, 86877.00
933.4020, 86981.00
934.5230, 87108.00
935.6430, 87293.73
936.7640, 87220.00
937.8840, 87720.00
939.0040, 87767.00
940.1240, 88143.00
941.2440, 87978.00
942.3630, 88808.00
943.4830, 88872.00
944.6020, 88483.00
945.7210, 89095.00
946.8400, 88912.52
947.9590, 89094.94
949.0770, 89106.00
950.1960, 89457.00
951.3140, 89722.00
952.4320, 89968.00
953.5500, 90375.00
954.6680, 90434.00
955.7860, 90892.00
956.9030, 91042.00
958.0210, 91430.00
959.1380, 91545.00
960.2550, 91937.00
961.3720, 92054.00
962.4890, 92950.00
963.6050, 93861.00
964.7220, 93659.00
965.8380, 94879.00
966.9540, 95294.00
968.0700, 96281.00
969.1860, 97358.00
970.3010, 98057.00
971.4170, 99489.00
972.5320, 101065.0
973.6470, 102592.0
974.7620, 104929.0
975.8770, 106953.0
976.9910, 109328.0
978.1060, 111713.0
979.2200, 114991.0
980.3340, 119340.0
981.4480, 124700.0
982.5620, 130723.0
983.6760, 137837.9
984.7890, 145775.0
985.9030, 154402.0
987.0160, 164214.0
988.1290, 174209.0
989.2420, 183177.0
990.3550, 190882.0
991.4670, 195253.0
992.5800, 197408.0
993.6920, 195462.0
994.8040, 192971.0
995.9160, 187341.0
997.0280, 181589.0
998.1390, 175253.0
999.2510, 168392.0
1000.362, 161279.0
1001.473, 154223.0
1002.584, 146655.0
1003.695, 138676.0
1004.805, 131471.0
1005.916, 125397.0
1007.026, 119755.0
1008.136, 115174.0
1009.246, 111429.0
1010.356, 108535.0
1011.466, 105733.0
1012.576, 103298.0
1013.685, 101751.0
1014.794, 100009.0
1015.903, 98959.00
1017.012, 98773.00
1018.121, 97463.48
1019.229, 96871.00
1020.338, 95861.00
1021.446, 95331.00
1022.554, 94512.00
1023.662, 94207.00
1024.770, 94187.00
1025.878, 93577.00
1026.985, 93739.00
1028.092, 92958.00
1029.200, 93400.00
1030.307, 92833.00
1031.413, 93007.00
1032.520, 92424.52
1033.627, 92793.73
1034.733, 93014.95
1035.839, 93096.17
1036.945, 92618.05
1038.051, 92862.21
1039.157, 92816.91
1040.262, 92759.72
1041.368, 93105.52
1042.473, 92775.00
1043.578, 92910.00
1044.683, 93614.00
1045.788, 93371.00
1046.893, 94000.00
1047.997, 94137.00
1049.101, 94482.00
1050.205, 95124.00
1051.309, 95300.00
1052.413, 95959.00
1053.517, 96717.00
1054.621, 97041.00
1055.724, 97555.00
1056.827, 97576.00
1057.930, 98103.00
1059.033, 97855.00
1060.136, 97759.00
1061.238, 97571.00
1062.341, 96883.00
1063.443, 96663.00
1064.545, 95691.00
1065.647, 95375.00
1066.749, 94910.00
1067.850, 94272.00
1068.952, 94026.95
1070.053, 93877.00
1071.154, 93440.00
1072.255, 93149.00
1073.356, 93019.00
1074.457, 93285.00
1075.557, 92903.00
1076.658, 92864.00
1077.758, 92550.00
1078.858, 92936.00
1079.958, 92742.00
1081.057, 93143.00
1082.157, 92822.00
1083.256, 92955.00
1084.356, 92633.17
1085.455, 93027.70
1086.554, 93274.27
1087.653, 93380.85
1088.751, 92928.04
1089.850, 93197.54
1090.948, 93177.54
1092.046, 93145.67
1093.144, 93516.78
1094.242, 93145.32
1095.340, 93510.04
1096.437, 93580.84
1097.534, 93786.13
1098.632, 93700.23
1099.729, 93704.24
1100.826, 93999.59
1101.922, 94133.56
1103.019, 93569.00
1104.115, 94005.00
1105.212, 93958.00
1106.308, 93547.00
1107.404, 94022.00
1108.499, 94144.00
1109.595, 94582.00
1110.691, 94167.00
1111.786, 93558.00
1112.881, 94287.00
1113.976, 94272.00
1115.071, 93647.00
1116.166, 94371.00
1117.260, 94249.00
1118.355, 94573.00
1119.449, 94249.00
1120.543, 94797.00
1121.637, 94761.00
1122.731, 94537.00
1123.824, 94749.00
1124.918, 94504.00
1126.011, 94913.00
1127.104, 94470.00
1128.197, 95320.00
1129.290, 94872.00
1130.382, 94812.00
1131.475, 95333.00
1132.567, 94983.00
1133.659, 95342.00
1134.751, 95067.00
1135.843, 95479.00
1136.935, 95900.00
1138.027, 95525.00
1139.118, 95767.00
1140.209, 95508.00
1141.300, 95526.00
1142.391, 95716.70
1143.482, 96158.00
1144.573, 96074.00
1145.663, 96336.00
1146.754, 96502.00
1147.844, 96898.00
1148.934, 96559.00
1150.024, 97445.00
1151.113, 97293.00
1152.203, 97095.00
1153.292, 97826.00
1154.381, 97642.00
1155.470, 98261.00
1156.559, 97904.00
1157.648, 98786.00
1158.737, 98627.00
1159.825, 98865.00
1160.913, 99254.00
1162.001, 99480.00
1163.089, 99853.00
1164.177, 100195.0
1165.265, 100125.0
1166.352, 100512.4
1167.440, 100557.1
1168.527, 100486.1
1169.614, 100149.5
1170.701, 100410.6
1171.788, 100481.5
1172.874, 100372.5
1173.961, 99544.23
1175.047, 99644.74
1176.133, 99373.09
1177.219, 99086.20
1178.305, 99317.39
1179.390, 98594.04
1180.476, 98817.04
1181.561, 98662.35
1182.646, 98210.86
1183.731, 98257.00
1184.816, 98137.00
1185.901, 98214.00
1186.985, 98494.00
1188.070, 97881.00
1189.154, 98370.00
1190.238, 98134.00
1191.322, 97913.00
1192.406, 98095.00
1193.489, 98076.00
1194.573, 97996.00
1195.656, 97664.00
1196.739, 97857.00
1197.822, 97796.00
1198.905, 98178.00
1199.988, 98438.00
1201.070, 98115.00
1202.153, 98245.00
1203.235, 98231.00
1204.317, 98135.00
1205.399, 98232.00
1206.481, 98205.00
1207.562, 98691.00
1208.644, 98731.00
1209.725, 98854.00
1210.806, 98577.00
1211.887, 98757.00
1212.968, 98975.00
1214.049, 98745.00
1215.129, 99419.00
1216.209, 98720.00
1217.290, 98892.00
1218.370, 99405.00
1219.450, 99010.00
1220.529, 99087.00
1221.609, 98644.00
1222.688, 99053.00
1223.768, 98870.83
1224.847, 99219.00
1225.926, 99057.00
1227.005, 99270.00
1228.083, 99811.00
1229.162, 99680.00
1230.240, 99454.00
1231.318, 99713.00
1232.396, 99430.00
1233.474, 99812.00
1234.552, 99286.00
1235.629, 99789.00
1236.707, 99684.58
1237.784, 99739.00
1238.861, 99836.00
1239.938, 99805.00
1241.015, 100084.0
1242.092, 100413.0
