##NAMES=Paravauxite
##RRUFFID=R040179
##IDEAL CHEMISTRY=Fe^2+^Al_2_(PO_4_)_2_(OH)_2_&#183;8H_2_O
##LOCALITY=Mina Siglo XX, Llallagua, Bolivia
##OWNER=RRUFF
##SOURCE=University of Arizona Mineral Museum
##DESCRIPTION=Colorless short prismatic crystals in subparallel groups
##STATUS=The identification of this mineral has been confirmed by X-ray diffraction and chemical analysis
##URL=rruff.info/R040179
##MEASURED CHEMISTRY=(Fe_0.93_Mg_0.03_Mn_0.02_)Al_1.94_(P_2.05_O_4_)_2_((OH)_0.99_F_0.01_)_2_Â·8H_2_O
##PIN_ID=M01446
##ORIENTATION=Laser parallel to (-1 0 -1). Fiducial mark perpendicular to laser is parallel to b [0 1 0]
62.17000, 909.0000
63.41600, 991.0000
64.66100, 946.0000
65.90700, 965.0000
67.15200, 991.0000
68.39700, 1033.000
69.64100, 973.0000
70.88600, 1050.000
72.13000, 1080.000
73.37400, 1094.000
74.61800, 1166.000
75.86200, 1284.982
77.10600, 1426.404
78.34900, 1632.000
79.59300, 1856.000
80.83600, 2143.422
82.07900, 2486.060
83.32100, 2947.000
84.56400, 3428.000
85.80600, 4023.000
87.04800, 4808.000
88.29000, 5715.000
89.53200, 6588.000
90.77400, 7788.000
92.01500, 9002.000
93.25700, 10400.00
94.49800, 11873.00
95.73900, 13534.00
96.98000, 15335.00
98.22000, 17299.00
99.46100, 18870.00
100.7010, 20645.00
101.9410, 22621.00
103.1810, 24326.00
104.4210, 26068.00
105.6600, 27951.00
106.9000, 29450.34
108.1390, 30942.00
109.3780, 32382.00
110.6170, 33720.86
111.8550, 35112.00
113.0940, 36197.00
114.3320, 37329.00
115.5700, 38297.00
116.8080, 38781.00
118.0460, 39466.00
119.2830, 39659.00
120.5210, 40611.00
121.7580, 40644.00
122.9950, 41214.00
124.2320, 41201.00
125.4690, 41532.00
126.7050, 41479.00
127.9410, 41730.00
129.1780, 41787.00
130.4140, 41865.00
131.6490, 41722.00
132.8850, 41921.00
134.1200, 41821.00
135.3560, 41648.00
136.5910, 41754.00
137.8260, 41519.00
139.0610, 41492.00
140.2950, 41512.00
141.5290, 41336.00
142.7640, 41141.00
143.9980, 41060.00
145.2320, 40586.00
146.4650, 40474.00
147.6990, 40369.00
148.9320, 40440.00
150.1650, 40041.00
151.3980, 39507.00
152.6310, 39526.00
153.8640, 39566.00
155.0960, 39699.00
156.3280, 39469.00
157.5600, 40069.00
158.7920, 40380.00
160.0240, 41489.00
161.2560, 41996.00
162.4870, 42563.00
163.7180, 43135.00
164.9490, 44002.00
166.1800, 44368.00
167.4110, 44435.00
168.6410, 44560.00
169.8720, 44238.00
171.1020, 43863.00
172.3320, 43520.00
173.5620, 43261.00
174.7910, 43018.00
176.0210, 43052.00
177.2500, 43008.00
178.4790, 42710.00
179.7080, 43004.00
180.9370, 42924.00
182.1650, 43310.00
183.3940, 43370.00
184.6220, 43659.00
185.8500, 43459.00
187.0780, 43886.00
188.3050, 43945.00
189.5330, 43964.00
190.7600, 44703.00
191.9870, 44431.00
193.2140, 44459.00
194.4410, 44715.00
195.6680, 44516.00
196.8940, 44328.00
198.1200, 44415.00
199.3470, 44409.00
200.5720, 44059.00
201.7980, 43258.00
203.0240, 42972.00
204.2490, 42256.00
205.4740, 41972.00
206.6990, 41680.00
207.9240, 41471.55
209.1490, 41523.00
210.3740, 41443.00
211.5980, 41607.00
212.8220, 41798.00
214.0460, 42017.00
215.2700, 42277.00
216.4930, 42094.00
217.7170, 42535.00
218.9400, 43045.00
220.1630, 43200.00
221.3860, 43878.00
222.6090, 44530.00
223.8320, 45482.00
225.0540, 46230.00
226.2760, 47565.00
227.4980, 48743.00
228.7200, 50333.00
229.9420, 51488.00
231.1630, 52900.00
232.3850, 54202.00
233.6060, 54922.00
234.8270, 55308.00
236.0480, 55711.00
237.2690, 55153.00
238.4890, 54391.00
239.7090, 53315.00
240.9290, 52121.00
242.1490, 50727.00
243.3690, 49736.00
244.5890, 48478.00
245.8080, 47479.00
247.0270, 46650.89
248.2470, 46075.00
249.4650, 45465.00
250.6840, 44938.00
251.9030, 44663.56
253.1210, 44415.44
254.3390, 44338.00
255.5570, 44297.00
256.7750, 44362.00
257.9930, 44455.00
259.2100, 44515.02
260.4280, 44647.00
261.6450, 44719.00
262.8620, 44935.00
264.0790, 45033.00
265.2950, 45600.00
266.5120, 45716.00
267.7280, 46173.00
268.9440, 47028.00
270.1600, 47738.00
271.3760, 48711.00
272.5920, 49912.00
273.8070, 51202.00
275.0220, 52463.00
276.2370, 54096.00
277.4520, 55309.00
278.6670, 57369.00
279.8820, 58370.00
281.0960, 59416.00
282.3100, 59717.00
283.5240, 59980.00
284.7380, 60216.00
285.9520, 59023.00
287.1650, 58328.00
288.3780, 57062.00
289.5920, 56224.00
290.8050, 55766.00
292.0170, 55299.00
293.2300, 55009.00
294.4430, 54982.00
295.6550, 54444.00
296.8670, 54097.00
298.0790, 53831.00
299.2910, 53332.00
300.5020, 52556.00
301.7140, 52202.00
302.9250, 51456.00
304.1360, 50852.00
305.3470, 50335.00
306.5580, 49481.00
307.7680, 49214.00
308.9780, 48667.00
310.1890, 48004.00
311.3990, 47864.00
312.6090, 47849.00
313.8180, 47609.00
315.0280, 47065.00
316.2370, 47097.00
317.4460, 46885.00
318.6550, 46710.00
319.8640, 46643.00
321.0730, 46454.00
322.2810, 46234.00
323.4890, 46137.52
324.6980, 45878.00
325.9060, 45937.00
327.1130, 45746.00
328.3210, 45798.00
329.5280, 45547.00
330.7360, 45578.00
331.9430, 45684.00
333.1500, 45558.50
334.3560, 45388.00
335.5630, 45506.00
336.7690, 45256.00
337.9760, 45199.00
339.1820, 45413.00
340.3870, 45178.00
341.5930, 45289.00
342.7990, 45091.00
344.0040, 45461.00
345.2090, 45347.00
346.4140, 45455.00
347.6190, 45634.00
348.8240, 45396.00
350.0280, 45255.00
351.2330, 45614.00
352.4370, 45569.00
353.6410, 45332.00
354.8440, 45701.00
356.0480, 45888.00
357.2520, 45931.00
358.4550, 46450.00
359.6580, 46073.00
360.8610, 46480.00
362.0640, 46649.00
363.2660, 46727.00
364.4690, 46728.00
365.6710, 47006.00
366.8730, 46882.00
368.0750, 47450.00
369.2770, 48121.00
370.4780, 48779.00
371.6800, 48270.00
372.8810, 48625.00
374.0820, 48778.00
375.2830, 49035.00
376.4830, 49177.00
377.6840, 49554.00
378.8840, 49560.00
380.0840, 49816.00
381.2840, 49944.00
382.4840, 49855.00
383.6840, 50123.00
384.8830, 50244.00
386.0830, 50158.00
387.2820, 50502.00
388.4810, 50457.00
389.6800, 50557.00
390.8780, 51245.00
392.0770, 51352.00
393.2750, 51758.00
394.4730, 51975.00
395.6710, 52449.00
396.8690, 52693.00
398.0660, 52937.00
399.2640, 53659.00
400.4610, 53922.00
401.6580, 54118.00
402.8550, 54314.00
404.0520, 54550.00
405.2490, 54452.00
406.4450, 54275.00
407.6410, 54369.00
408.8370, 53860.00
410.0330, 53543.00
411.2290, 53114.00
412.4240, 53054.00
413.6200, 52930.00
414.8150, 53170.00
416.0100, 52513.00
417.2050, 52672.00
418.4000, 53016.00
419.5940, 52955.00
420.7880, 53337.00
421.9830, 53735.00
423.1770, 54041.00
424.3700, 54386.00
425.5640, 55293.00
426.7580, 55255.00
427.9510, 56059.00
429.1440, 56296.00
430.3370, 56572.00
431.5300, 56861.00
432.7220, 57575.00
433.9150, 57297.00
435.1070, 56781.00
436.2990, 56658.00
437.4910, 55843.00
438.6830, 55519.00
439.8750, 55286.00
441.0660, 54873.00
442.2570, 54442.00
443.4480, 54310.00
444.6390, 53848.00
445.8300, 53774.00
447.0210, 54117.00
448.2110, 53830.00
449.4010, 53908.00
450.5910, 53908.00
451.7810, 54138.00
452.9710, 54254.00
454.1610, 54551.00
455.3500, 54850.00
456.5390, 55413.00
457.7280, 55285.00
458.9170, 55834.00
460.1060, 56475.00
461.2940, 56287.00
462.4830, 57566.00
463.6710, 57979.00
464.8590, 58079.00
466.0470, 58492.00
467.2350, 59107.00
468.4220, 59451.00
469.6090, 59977.36
470.7970, 60236.00
471.9840, 60817.00
473.1700, 61174.00
474.3570, 61316.00
475.5440, 61373.00
476.7300, 61224.00
477.9160, 61241.00
479.1020, 60992.00
480.2880, 60761.00
481.4740, 60285.00
482.6590, 60022.00
483.8440, 59766.00
485.0300, 58904.00
486.2140, 58920.00
487.3990, 58187.00
488.5840, 58083.00
489.7680, 57398.00
490.9530, 57295.00
492.1370, 56826.00
493.3210, 56740.00
494.5040, 56085.00
495.6880, 55613.00
496.8720, 55879.00
498.0550, 55630.00
499.2380, 55431.00
500.4210, 55045.00
501.6040, 54889.00
502.7860, 55294.00
503.9690, 54828.00
505.1510, 54808.00
506.3330, 54611.00
507.5150, 54519.00
508.6970, 54603.00
509.8780, 54326.00
511.0600, 54696.00
512.2410, 54662.00
513.4220, 54702.00
514.6030, 54818.00
515.7840, 54912.00
516.9640, 55255.00
518.1440, 55042.00
519.3250, 55563.00
520.5050, 55979.00
521.6850, 55953.00
522.8640, 56196.00
524.0440, 56629.00
525.2230, 56613.00
526.4020, 56933.00
527.5820, 57246.00
528.7600, 57708.00
529.9390, 58029.00
531.1180, 57982.00
532.2960, 58563.00
533.4740, 58856.00
534.6520, 59452.00
535.8300, 59664.00
537.0080, 59878.00
538.1850, 60341.00
539.3630, 60760.00
540.5400, 60937.00
541.7170, 61109.00
542.8940, 61628.00
544.0700, 61812.00
545.2470, 61654.00
546.4230, 62107.00
547.5990, 61947.00
548.7750, 62196.00
549.9510, 62290.00
551.1270, 62378.00
552.3020, 62443.00
553.4780, 62790.00
554.6530, 62894.00
555.8280, 62941.00
557.0030, 63710.00
558.1770, 63779.00
559.3520, 64400.00
560.5260, 64462.00
561.7000, 65411.00
562.8740, 65983.00
564.0480, 66696.00
565.2220, 67198.00
566.3950, 68259.00
567.5680, 68334.00
568.7420, 69216.00
569.9150, 70208.00
571.0870, 70328.00
572.2600, 70997.00
573.4320, 71270.00
574.6050, 71896.00
575.7770, 72233.00
576.9490, 72264.00
578.1210, 73189.00
579.2920, 72958.00
580.4640, 73195.00
581.6350, 73029.00
582.8060, 73079.00
583.9770, 72415.00
585.1480, 72400.00
586.3190, 72063.00
587.4890, 71474.00
588.6590, 71063.00
589.8290, 70211.00
590.9990, 70147.00
592.1690, 69276.00
593.3390, 68741.00
594.5080, 68335.00
595.6770, 67836.00
596.8470, 67155.00
598.0160, 66745.58
599.1840, 66206.00
600.3530, 65669.00
601.5210, 65145.00
602.6900, 64425.00
603.8580, 64221.00
605.0260, 63402.00
606.1930, 63135.00
607.3610, 62650.00
608.5280, 62292.00
609.6960, 61889.00
610.8630, 61428.00
612.0300, 61122.00
613.1970, 60565.00
614.3630, 60660.00
615.5300, 60141.00
616.6960, 59890.00
617.8620, 59832.00
619.0280, 59650.07
620.1940, 59497.00
621.3590, 59421.00
622.5250, 59294.78
623.6900, 59023.00
624.8550, 59213.00
626.0200, 59205.00
627.1850, 59358.00
628.3490, 59736.00
629.5140, 59656.00
630.6780, 59868.00
631.8420, 59674.00
633.0060, 59769.00
634.1700, 59774.00
635.3330, 60342.00
636.4970, 60339.00
637.6600, 60603.00
638.8230, 60588.00
639.9860, 60989.00
641.1490, 61389.00
642.3110, 61454.00
643.4740, 61670.00
644.6360, 61969.00
645.7980, 62099.00
646.9600, 61913.74
648.1220, 62101.00
649.2840, 61475.00
650.4450, 61321.00
651.6060, 61378.00
652.7670, 61306.00
653.9280, 61159.00
655.0890, 61113.00
656.2500, 61182.00
657.4100, 61019.19
658.5700, 60781.00
659.7300, 60822.00
660.8900, 60683.00
662.0500, 60593.00
663.2100, 60269.00
664.3690, 60585.00
665.5280, 60141.00
666.6880, 60399.00
667.8460, 60102.00
669.0050, 60341.00
670.1640, 60133.00
671.3220, 59950.00
672.4810, 60370.00
673.6390, 60393.00
674.7970, 60062.00
675.9540, 60231.00
677.1120, 60236.00
678.2690, 60116.00
679.4270, 60409.00
680.5840, 60368.00
681.7410, 60077.00
682.8980, 60539.00
684.0540, 60322.00
685.2110, 60407.00
686.3670, 60660.00
687.5230, 60651.00
688.6790, 60646.00
689.8350, 60605.00
690.9900, 60629.36
692.1460, 60737.00
693.3010, 60712.00
694.4560, 61021.00
695.6110, 61195.00
696.7660, 61096.00
697.9210, 61565.00
699.0750, 61407.00
700.2290, 61327.00
701.3840, 61510.00
702.5370, 61512.00
703.6910, 61641.00
704.8450, 61577.00
705.9980, 61689.00
707.1520, 61743.00
708.3050, 61678.00
709.4580, 61855.00
710.6110, 62042.00
711.7630, 62294.00
712.9160, 62350.00
714.0680, 62551.00
715.2200, 62297.00
716.3720, 62575.00
717.5240, 62565.00
718.6760, 62266.00
719.8270, 62651.00
720.9780, 62823.00
722.1300, 63112.00
723.2810, 62814.00
724.4310, 62776.00
725.5820, 63037.00
726.7330, 62872.00
727.8830, 63230.00
729.0330, 62833.00
730.1830, 63090.00
731.3330, 62999.00
732.4830, 63088.00
733.6320, 63526.00
734.7810, 63255.00
735.9310, 63402.00
737.0800, 62912.00
738.2290, 63600.00
739.3770, 63476.00
740.5260, 63366.00
741.6740, 63689.00
742.8220, 63701.00
743.9700, 63616.00
745.1180, 63451.00
746.2660, 64073.00
747.4130, 63952.00
748.5610, 63993.00
749.7080, 64092.59
750.8550, 63928.76
752.0020, 63944.00
753.1490, 63857.00
754.2950, 63720.00
755.4420, 64017.00
756.5880, 64457.00
757.7340, 64326.00
758.8800, 64583.00
760.0250, 64090.00
761.1710, 64652.00
762.3160, 64108.00
763.4620, 64506.00
764.6070, 64389.00
765.7520, 64455.09
766.8960, 64866.00
768.0410, 64774.00
769.1850, 64584.00
770.3300, 64766.00
771.4740, 64721.00
772.6180, 64899.00
773.7610, 64668.00
774.9050, 65103.00
776.0480, 65009.00
777.1920, 65261.00
778.3350, 65100.00
779.4780, 65247.00
780.6200, 65492.00
781.7630, 65135.00
782.9060, 65351.00
784.0480, 65726.00
785.1900, 65211.00
786.3320, 65555.00
787.4740, 65598.00
788.6150, 65921.00
789.7570, 65691.00
790.8980, 65866.00
792.0390, 65572.00
793.1800, 66061.00
794.3210, 66041.00
795.4620, 65918.00
796.6020, 65799.00
797.7420, 65863.53
798.8830, 66358.00
800.0230, 66047.00
801.1620, 66456.00
802.3020, 66733.00
803.4420, 66606.00
804.5810, 66703.00
805.7200, 66716.00
806.8590, 67192.00
807.9980, 67043.00
809.1370, 67113.00
810.2750, 67003.00
811.4140, 67005.76
812.5520, 66908.00
813.6900, 67089.00
814.8280, 67279.00
815.9650, 67512.00
817.1030, 67250.00
818.2400, 67675.00
819.3780, 68072.00
820.5150, 67634.00
821.6520, 67975.00
822.7880, 67965.00
823.9250, 68168.00
825.0610, 68195.00
826.1980, 68210.00
827.3340, 68414.00
828.4700, 68571.00
829.6050, 68388.00
830.7410, 68363.00
831.8760, 68908.00
833.0120, 68369.00
834.1470, 68892.00
835.2820, 68976.00
836.4160, 68963.00
837.5510, 69349.00
838.6860, 68990.00
839.8200, 69183.00
840.9540, 69420.00
842.0880, 69288.00
843.2220, 69379.00
844.3550, 70123.00
845.4890, 69733.00
846.6220, 69963.00
847.7550, 69773.00
848.8880, 69799.72
850.0210, 69876.56
851.1540, 69896.00
852.2860, 70014.00
853.4190, 70050.00
854.5510, 70194.00
855.6830, 70263.00
856.8150, 70415.00
857.9460, 70575.00
859.0780, 70563.00
860.2090, 70641.00
861.3410, 70934.00
862.4720, 70763.00
863.6020, 70875.00
864.7330, 70561.00
865.8640, 70792.00
866.9940, 70858.00
868.1240, 70824.00
869.2540, 70794.00
870.3840, 71026.00
871.5140, 70976.04
872.6440, 71182.00
873.7730, 71091.00
874.9020, 71145.84
876.0320, 71254.00
877.1600, 71051.00
878.2890, 71327.00
879.4180, 71282.00
880.5460, 71483.00
881.6750, 71912.00
882.8030, 71678.00
883.9310, 71930.00
885.0590, 71960.00
886.1860, 72027.00
887.3140, 72147.00
888.4410, 72222.00
889.5680, 72217.00
890.6950, 72224.00
891.8220, 72602.00
892.9490, 72960.00
894.0750, 72788.00
895.2020, 72781.00
896.3280, 73226.00
897.4540, 72972.00
898.5800, 73552.00
899.7050, 73294.00
900.8310, 73465.00
901.9560, 73338.00
903.0820, 73784.00
904.2070, 73712.00
905.3320, 73790.00
906.4560, 73937.00
907.5810, 73764.00
908.7050, 73926.00
909.8300, 73875.00
910.9540, 74200.00
912.0780, 74195.00
913.2010, 74466.00
914.3250, 74769.00
915.4480, 74681.00
916.5720, 75054.00
917.6950, 74822.00
918.8180, 74952.00
919.9410, 74983.00
921.0630, 75291.00
922.1860, 75094.00
923.3080, 75574.00
924.4300, 75849.00
925.5520, 75755.00
926.6740, 76036.00
927.7960, 75765.00
928.9170, 76612.00
930.0390, 76612.00
931.1600, 76269.00
932.2810, 76856.00
933.4020, 76668.00
934.5230, 76997.00
935.6430, 76705.00
936.7640, 77422.00
937.8840, 77286.00
939.0040, 77500.00
940.1240, 77755.00
941.2440, 77627.00
942.3630, 78159.00
943.4830, 78111.00
944.6020, 78061.00
945.7210, 78568.00
946.8400, 78297.00
947.9590, 79078.00
949.0770, 78714.00
950.1960, 78966.00
951.3140, 79395.00
952.4320, 79740.00
953.5500, 80016.00
954.6680, 79903.00
955.7860, 80402.00
956.9030, 80548.00
958.0210, 81072.00
959.1380, 81379.00
960.2550, 81675.00
961.3720, 82386.00
962.4890, 82393.00
963.6050, 82914.00
964.7220, 83681.00
965.8380, 84000.00
966.9540, 84435.00
968.0700, 85121.00
969.1860, 85799.42
970.3010, 86658.00
971.4170, 87751.00
972.5320, 88890.00
973.6470, 90469.00
974.7620, 91878.00
975.8770, 93537.00
976.9910, 95406.00
978.1060, 98125.00
979.2200, 101272.0
980.3340, 104790.0
981.4480, 109744.0
982.5620, 114344.0
983.6760, 120821.0
984.7890, 127722.0
985.9030, 135010.0
987.0160, 143875.0
988.1290, 151547.0
989.2420, 159087.0
990.3550, 165098.0
991.4670, 167574.0
992.5800, 167692.0
993.6920, 165461.0
994.8040, 161447.0
995.9160, 155773.0
997.0280, 149070.0
998.1390, 142857.0
999.2510, 136745.0
1000.362, 130355.0
1001.473, 124050.0
1002.584, 118675.0
1003.695, 112572.0
1004.805, 107512.0
1005.916, 103194.0
1007.026, 98862.00
1008.136, 95931.00
1009.246, 93045.00
1010.356, 90985.00
1011.466, 89187.00
1012.576, 87565.00
1013.685, 86540.00
1014.794, 85093.00
1015.903, 84702.00
1017.012, 83965.00
1018.121, 83721.00
1019.229, 83118.00
1020.338, 83138.00
1021.446, 82249.00
1022.554, 81542.00
1023.662, 81902.00
1024.770, 81373.00
1025.878, 81173.00
1026.985, 81594.00
1028.092, 80800.00
1029.200, 80862.00
1030.307, 80786.00
1031.413, 80878.00
1032.520, 80566.00
1033.627, 80369.00
1034.733, 80930.00
1035.839, 80589.00
1036.945, 80556.00
1038.051, 80501.00
1039.157, 80528.00
1040.262, 80889.00
1041.368, 80709.00
1042.473, 80642.00
1043.578, 80902.00
1044.683, 80800.00
1045.788, 81322.00
1046.893, 81268.00
1047.997, 81535.15
1049.101, 81978.00
1050.205, 82073.00
1051.309, 82782.00
1052.413, 83259.00
1053.517, 83906.00
1054.621, 84157.00
1055.724, 85050.00
1056.827, 84836.93
1057.930, 84886.00
1059.033, 84742.00
1060.136, 84113.00
1061.238, 84535.00
1062.341, 84063.00
1063.443, 84130.00
1064.545, 84274.00
1065.647, 83284.00
1066.749, 82608.00
1067.850, 82347.00
1068.952, 82825.00
1070.053, 82872.00
1071.154, 82134.00
1072.255, 81799.00
1073.356, 81686.00
1074.457, 81518.00
1075.557, 81392.16
1076.658, 81571.00
1077.758, 81373.00
1078.858, 81449.80
1079.958, 81728.00
1081.057, 81488.00
1082.157, 81611.00
1083.256, 81832.00
1084.356, 82330.00
1085.455, 82116.00
1086.554, 81924.00
1087.653, 82436.00
1088.751, 81948.00
1089.850, 82438.00
1090.948, 82280.00
1092.046, 82421.00
1093.144, 82421.00
1094.242, 82961.00
1095.340, 82471.00
1096.437, 81971.00
1097.534, 83059.00
1098.632, 82762.00
1099.729, 83155.00
1100.826, 83041.00
1101.922, 83472.00
1103.019, 82975.00
1104.115, 83216.00
1105.212, 83394.00
1106.308, 83853.00
1107.404, 83426.00
1108.499, 83340.00
1109.595, 83101.00
1110.691, 83509.00
1111.786, 83381.00
1112.881, 83534.00
1113.976, 83416.00
1115.071, 83336.00
1116.166, 83501.00
1117.260, 83341.00
1118.355, 83840.00
1119.449, 83502.00
1120.543, 83492.00
1121.637, 84095.00
1122.731, 83712.00
1123.824, 83840.00
1124.918, 83445.00
1126.011, 83569.62
1127.104, 83531.00
1128.197, 83763.00
1129.290, 84040.00
1130.382, 84133.00
1131.475, 84194.00
1132.567, 83997.00
1133.659, 84091.00
1134.751, 84093.00
1135.843, 84041.00
1136.935, 84395.00
1138.027, 84150.00
1139.118, 84451.00
1140.209, 84484.00
1141.300, 84689.00
1142.391, 84580.00
1143.482, 84732.00
1144.573, 84802.00
1145.663, 85011.00
1146.754, 84643.00
1147.844, 85008.00
1148.934, 84997.00
1150.024, 85535.00
1151.113, 85550.00
1152.203, 85602.00
1153.292, 85958.90
1154.381, 85782.00
1155.470, 86419.00
1156.559, 86039.00
1157.648, 86176.00
1158.737, 86316.00
1159.825, 86685.00
1160.913, 87049.00
1162.001, 86667.00
1163.089, 86991.00
1164.177, 87023.00
1165.265, 87183.00
1166.352, 86998.00
1167.440, 87128.00
1168.527, 87120.35
1169.614, 87157.00
1170.701, 87115.00
1171.788, 87219.00
1172.874, 87142.00
1173.961, 87344.00
1175.047, 87111.00
1176.133, 87667.00
1177.219, 86911.00
1178.305, 87436.00
1179.390, 87231.79
1180.476, 87060.00
1181.561, 87012.00
1182.646, 87026.00
1183.731, 86873.00
1184.816, 86934.00
1185.901, 87231.00
1186.985, 86894.00
1188.070, 86478.00
1189.154, 87038.00
1190.238, 87108.00
1191.322, 86946.00
1192.406, 87416.00
1193.489, 87298.00
1194.573, 87319.00
1195.656, 87147.00
1196.739, 87097.00
1197.822, 87336.00
1198.905, 87156.00
1199.988, 87520.00
1201.070, 87330.00
1202.153, 87283.00
1203.235, 87479.00
1204.317, 87612.00
1205.399, 87909.00
1206.481, 87891.00
1207.562, 88122.00
1208.644, 87656.00
1209.725, 87893.00
1210.806, 88210.00
1211.887, 87842.00
1212.968, 88275.00
1214.049, 87837.00
1215.129, 88360.00
1216.209, 88183.00
1217.290, 88326.00
1218.370, 88724.00
1219.450, 88205.00
1220.529, 88397.00
1221.609, 88510.00
1222.688, 88423.00
1223.768, 88549.00
1224.847, 88814.00
1225.926, 89019.00
1227.005, 88998.93
1228.083, 88975.00
1229.162, 88965.00
1230.240, 88870.00
1231.318, 88912.00
1232.396, 88764.00
1233.474, 88964.00
1234.552, 88927.00
1235.629, 89094.00
1236.707, 89161.94
1237.784, 89034.00
1238.861, 89300.00
1239.938, 89559.00
1241.015, 89606.00
1242.092, 89487.00
