##NAMES=Pectolite
##RRUFFID=R050396
##IDEAL CHEMISTRY=NaCa_2_Si_3_O_8_(OH)
##LOCALITY=Jeffrey Quarry, Asbestos, Quebec, Canada
##OWNER=RRUFF
##SOURCE=Marcus Origlieri
##DESCRIPTION=Colorless to gray columnar blocky crystals
##STATUS=The identification of this mineral has been confirmed by X-ray diffraction and chemical analysis
##URL=rruff.info/R050396
##MEASURED CHEMISTRY=Na_1.00_Ca_2.00_Si_3.00_O_8_(OH)
##PIN_ID=L01067
##ORIENTATION=Laser parallel to a* (1 0 0). Fiducial mark perpendicular to laser is parallel to -b [0 -1 0]
118.9350, 6791.000
120.1730, 6903.000
121.4100, 6720.000
122.6480, 6856.000
123.8850, 6876.000
125.1230, 6845.000
126.3600, 6967.000
127.5960, 6950.000
128.8330, 7100.000
130.0700, 7056.000
131.3060, 7178.000
132.5420, 7376.000
133.7780, 7536.000
135.0140, 7643.000
136.2500, 7778.789
137.4850, 7933.000
138.7200, 8010.000
139.9550, 8128.000
141.1900, 8310.000
142.4250, 8218.000
143.6600, 8378.000
144.8940, 8170.000
146.1280, 8243.000
147.3620, 8275.000
148.5960, 8225.000
149.8300, 8140.000
151.0630, 8093.000
152.2960, 7961.000
153.5300, 7871.298
154.7620, 7825.220
155.9950, 7764.110
157.2280, 7733.000
158.4600, 7727.000
159.6920, 7692.000
160.9250, 7710.000
162.1560, 7663.000
163.3880, 7659.000
164.6200, 7737.000
165.8510, 7700.000
167.0820, 7726.000
168.3130, 7713.000
169.5440, 7709.000
170.7750, 7739.000
172.0050, 7796.000
173.2350, 7884.000
174.4650, 7904.000
175.6950, 7886.000
176.9250, 7994.000
178.1550, 7998.000
179.3840, 8079.000
180.6130, 8103.000
181.8420, 8112.000
183.0710, 8232.000
184.3000, 8243.000
185.5280, 8366.000
186.7570, 8290.000
187.9850, 8259.000
189.2130, 8209.000
190.4400, 8202.754
191.6680, 8157.000
192.8960, 8240.000
194.1230, 8194.000
195.3500, 8267.278
196.5770, 8166.000
197.8030, 8288.000
199.0300, 8264.000
200.2560, 8244.000
201.4830, 8227.000
202.7090, 8236.000
203.9340, 8231.000
205.1600, 8227.000
206.3860, 8237.000
207.6110, 8296.000
208.8360, 8376.000
210.0610, 8379.000
211.2860, 8423.000
212.5100, 8386.000
213.7350, 8429.000
214.9590, 8542.000
216.1830, 8398.000
217.4070, 8547.000
218.6310, 8729.000
219.8540, 8705.000
221.0780, 8935.000
222.3010, 8755.000
223.5240, 8861.000
224.7470, 8863.000
225.9690, 8927.000
227.1920, 8997.000
228.4140, 8862.000
229.6360, 8837.000
230.8580, 8904.000
232.0800, 8779.000
233.3020, 8954.000
234.5230, 8990.000
235.7440, 8818.000
236.9650, 8950.000
238.1860, 8844.000
239.4070, 8817.000
240.6280, 8898.000
241.8480, 8698.000
243.0680, 8904.000
244.2880, 8866.000
245.5080, 8932.000
246.7280, 8954.000
247.9470, 8949.000
249.1660, 8974.200
250.3860, 8879.000
251.6040, 8968.000
252.8230, 8998.000
254.0420, 8980.000
255.2600, 9111.000
256.4790, 9221.000
257.6970, 9306.000
258.9150, 9196.000
260.1320, 9078.000
261.3500, 9255.000
262.5670, 9287.000
263.7840, 9309.000
265.0010, 9302.000
266.2180, 9405.000
267.4350, 9479.000
268.6510, 9583.000
269.8680, 9646.000
271.0840, 9719.000
272.3000, 9778.000
273.5160, 9787.000
274.7310, 9696.000
275.9470, 9876.000
277.1620, 9759.000
278.3770, 9814.000
279.5920, 9783.000
280.8070, 9713.000
282.0210, 9823.000
283.2360, 9671.000
284.4500, 9561.000
285.6640, 9516.000
286.8780, 9614.000
288.0920, 9519.000
289.3050, 9578.000
290.5180, 9680.000
291.7320, 9550.000
292.9450, 9655.000
294.1570, 9706.000
295.3700, 9749.000
296.5830, 9833.000
297.7950, 9850.000
299.0070, 9843.000
300.2190, 9811.000
301.4310, 9953.000
302.6420, 9834.000
303.8540, 9934.000
305.0650, 9789.000
306.2760, 9905.000
307.4870, 9952.000
308.6980, 10022.00
309.9080, 10108.12
311.1190, 10156.00
312.3290, 10237.00
313.5390, 10249.00
314.7490, 10256.00
315.9580, 10342.00
317.1680, 10281.00
318.3770, 10333.00
319.5860, 10337.55
320.7950, 10313.00
322.0040, 10353.00
323.2130, 10364.00
324.4210, 10381.00
325.6290, 10345.00
326.8380, 10443.00
328.0460, 10328.00
329.2530, 10290.00
330.4610, 10353.00
331.6680, 10257.00
332.8760, 10315.00
334.0830, 10256.00
335.2890, 10185.00
336.4960, 10321.00
337.7030, 10193.00
338.9090, 10177.00
340.1150, 10220.00
341.3210, 10302.00
342.5270, 10340.00
343.7330, 10379.00
344.9380, 10373.00
346.1440, 10319.00
347.3490, 10416.00
348.5540, 10341.00
349.7590, 10347.00
350.9630, 10397.00
352.1680, 10386.00
353.3720, 10422.00
354.5760, 10522.00
355.7800, 10518.00
356.9840, 10402.00
358.1870, 10536.00
359.3910, 10514.00
360.5940, 10504.00
361.7970, 10682.00
363.0000, 10604.00
364.2030, 10686.00
365.4050, 10581.00
366.6080, 10818.00
367.8100, 10661.00
369.0120, 10796.00
370.2140, 10867.00
371.4150, 11017.00
372.6170, 10909.00
373.8180, 10977.00
375.0190, 10852.00
376.2200, 11109.00
377.4210, 11111.00
378.6220, 11196.00
379.8220, 11011.00
381.0230, 11020.00
382.2230, 11005.00
383.4230, 10972.00
384.6220, 11077.00
385.8220, 11073.00
387.0220, 11168.00
388.2210, 10969.00
389.4200, 11147.00
390.6190, 11134.00
391.8180, 11108.00
393.0160, 11247.00
394.2150, 11276.00
395.4130, 11202.00
396.6110, 11244.00
397.8090, 11140.00
399.0060, 11365.00
400.2040, 11233.00
401.4010, 11301.00
402.5980, 11193.00
403.7950, 11145.00
404.9920, 11278.00
406.1890, 11410.00
407.3860, 11323.00
408.5820, 11322.00
409.7780, 11441.00
410.9740, 11576.00
412.1700, 11519.00
413.3650, 11631.00
414.5610, 11510.00
415.7560, 11491.00
416.9510, 11574.00
418.1460, 11569.00
419.3410, 11610.00
420.5360, 11679.00
421.7300, 11596.00
422.9240, 11653.00
424.1180, 11591.00
425.3120, 11699.00
426.5060, 11559.00
427.7000, 11714.00
428.8930, 11766.00
430.0860, 11751.00
431.2790, 11835.00
432.4720, 11817.56
433.6650, 11733.00
434.8580, 11832.00
436.0500, 11830.00
437.2420, 11883.00
438.4340, 11735.00
439.6260, 11805.00
440.8180, 11891.00
442.0090, 11853.00
443.2010, 12054.00
444.3920, 12063.00
445.5830, 11958.00
446.7740, 12073.00
447.9640, 12038.00
449.1550, 12111.00
450.3450, 12122.00
451.5350, 12002.00
452.7250, 12080.00
453.9150, 12050.00
455.1050, 12206.00
456.2940, 12234.00
457.4830, 12261.00
458.6720, 12215.00
459.8610, 12255.96
461.0500, 12329.00
462.2390, 12349.00
463.4270, 12402.00
464.6150, 12456.95
465.8040, 12438.00
466.9910, 12540.00
468.1790, 12553.00
469.3670, 12538.00
470.5540, 12411.00
471.7410, 12633.00
472.9280, 12528.00
474.1150, 12567.00
475.3020, 12588.00
476.4890, 12641.00
477.6750, 12743.00
478.8610, 12910.00
480.0470, 12694.00
481.2330, 12792.00
482.4190, 12977.00
483.6040, 12779.00
484.7900, 12886.00
485.9750, 12997.00
487.1600, 12952.00
488.3450, 12866.00
489.5290, 12912.00
490.7140, 13031.00
491.8980, 13020.00
493.0820, 13097.00
494.2660, 13164.00
495.4500, 13120.00
496.6340, 13122.00
497.8170, 13220.00
499.0010, 13236.00
500.1840, 13280.89
501.3670, 13272.00
502.5500, 13388.00
503.7320, 13270.00
504.9150, 13369.00
506.0970, 13348.00
507.2790, 13241.00
508.4610, 13387.00
509.6430, 13337.00
510.8250, 13417.00
512.0060, 13457.00
513.1870, 13408.00
514.3680, 13564.00
515.5490, 13418.00
516.7300, 13613.00
517.9110, 13629.00
519.0910, 13728.00
520.2710, 13693.00
521.4510, 13594.00
522.6310, 13588.00
523.8110, 13612.05
524.9910, 13884.00
526.1700, 13686.00
527.3490, 13862.00
528.5280, 13842.00
529.7070, 13652.00
530.8860, 13771.00
532.0650, 13677.00
533.2430, 13770.00
534.4210, 13826.00
535.5990, 13654.00
536.7770, 13790.00
537.9550, 13703.00
539.1320, 13755.00
540.3100, 13790.00
541.4870, 13860.00
542.6640, 13901.00
543.8410, 13951.00
545.0170, 14000.00
546.1940, 13953.00
547.3700, 13982.00
548.5470, 13976.00
549.7230, 13984.03
550.8980, 13971.00
552.0740, 14041.00
553.2500, 14066.00
554.4250, 14141.00
555.6000, 14072.00
556.7750, 14146.00
557.9500, 14172.00
559.1250, 14212.00
560.2990, 14142.00
561.4730, 14196.67
562.6480, 14203.33
563.8220, 14257.00
564.9950, 14282.00
566.1690, 14354.00
567.3430, 14455.00
568.5160, 14284.00
569.6890, 14349.00
570.8620, 14417.00
572.0350, 14386.00
573.2070, 14564.00
574.3800, 14494.00
575.5520, 14489.00
576.7240, 14575.00
577.8960, 14560.00
579.0680, 14579.00
580.2400, 14531.00
581.4110, 14820.00
582.5830, 14763.00
583.7540, 14796.00
584.9250, 14704.00
586.0950, 14639.00
587.2660, 14794.00
588.4370, 14848.00
589.6070, 14847.00
590.7770, 15076.00
591.9470, 14931.00
593.1170, 15032.00
594.2860, 14867.00
595.4560, 15060.00
596.6250, 15064.00
597.7940, 15191.00
598.9630, 14991.00
600.1320, 15138.00
601.3000, 15119.00
602.4690, 15241.00
603.6370, 15275.00
604.8050, 15245.00
605.9730, 15261.00
607.1410, 15257.00
608.3090, 15268.00
609.4760, 15357.00
610.6430, 15291.00
611.8100, 15468.00
612.9770, 15473.00
614.1440, 15385.00
615.3110, 15557.00
616.4770, 15593.00
617.6430, 15618.00
618.8090, 15582.00
619.9750, 15739.00
621.1410, 15722.00
622.3070, 15949.00
623.4720, 15855.00
624.6370, 15927.00
625.8020, 15781.00
626.9670, 16054.00
628.1320, 16010.00
629.2970, 16043.00
630.4610, 16208.00
631.6250, 16271.00
632.7890, 16343.82
633.9530, 16381.00
635.1170, 16497.00
636.2810, 16471.00
637.4440, 16579.00
638.6070, 16665.00
639.7700, 16704.00
640.9330, 16957.57
642.0960, 17375.00
643.2590, 17497.00
644.4210, 17891.00
645.5830, 18257.00
646.7450, 18527.00
647.9070, 19083.00
649.0690, 19479.00
650.2310, 19782.00
651.3920, 20038.00
652.5530, 20129.00
653.7140, 19790.00
654.8750, 19336.00
656.0360, 18777.00
657.1970, 18257.00
658.3570, 18038.00
659.5170, 17650.00
660.6770, 17537.00
661.8370, 17124.00
662.9970, 17134.00
664.1570, 17019.00
665.3160, 16970.00
666.4750, 17040.00
667.6340, 16879.00
668.7930, 17053.00
669.9520, 16968.00
671.1110, 17089.00
672.2690, 16988.00
673.4270, 17133.00
674.5850, 17033.00
675.7430, 17137.00
676.9010, 17394.00
678.0590, 17091.00
679.2160, 17444.00
680.3730, 17667.00
681.5300, 17659.00
682.6870, 17590.00
683.8440, 17807.00
685.0010, 17874.00
686.1570, 17784.00
687.3130, 17618.00
688.4690, 17712.00
689.6250, 17703.00
690.7810, 17638.00
691.9370, 17643.00
693.0920, 17617.00
694.2470, 17619.00
695.4020, 17618.55
696.5570, 17577.00
697.7120, 17645.00
698.8670, 17615.00
700.0210, 17670.00
701.1750, 17669.00
702.3290, 17707.00
703.4830, 17794.00
704.6370, 17790.00
705.7910, 17746.00
706.9440, 17867.00
708.0970, 17828.00
709.2510, 17802.00
710.4030, 17909.00
711.5560, 17924.00
712.7090, 17889.00
713.8610, 17802.00
715.0140, 17908.00
716.1660, 17859.00
717.3180, 17911.09
718.4690, 17965.00
719.6210, 18025.00
720.7730, 18100.00
721.9240, 18179.00
723.0750, 18343.00
724.2260, 18134.00
725.3770, 18404.00
726.5270, 18178.00
727.6780, 18239.00
728.8280, 18409.00
729.9780, 18272.00
731.1280, 18431.00
732.2780, 18483.00
733.4280, 18268.00
734.5770, 18579.00
735.7260, 18623.00
736.8760, 18511.00
738.0250, 18715.00
739.1730, 18647.00
740.3220, 18742.00
741.4700, 18586.00
742.6190, 18769.00
743.7670, 18722.00
744.9150, 18808.00
746.0630, 18740.00
747.2100, 18821.86
748.3580, 18875.00
749.5050, 18962.00
750.6520, 19007.67
751.7990, 19017.00
752.9460, 19106.00
754.0930, 19124.00
755.2390, 19177.00
756.3860, 19040.00
757.5320, 19197.00
758.6780, 19194.00
759.8240, 19118.00
760.9690, 19345.00
762.1150, 19220.00
763.2600, 19259.00
764.4060, 19496.00
765.5510, 19385.00
766.6950, 19490.00
767.8400, 19538.00
768.9850, 19548.00
770.1290, 19590.00
771.2730, 19608.62
772.4170, 19604.00
773.5610, 19629.00
774.7050, 19641.04
775.8480, 19613.38
776.9920, 19615.00
778.1350, 19648.00
779.2780, 19551.00
780.4210, 19674.00
781.5640, 19780.00
782.7060, 19977.00
783.8490, 19866.00
784.9910, 19933.00
786.1330, 20077.00
787.2750, 20052.00
788.4170, 20040.00
789.5580, 20143.00
790.7000, 20137.27
791.8410, 20060.00
792.9820, 20224.00
794.1230, 20392.00
795.2640, 20452.00
796.4040, 20409.00
797.5450, 20346.00
798.6850, 20485.00
799.8250, 20404.00
800.9650, 20536.00
802.1050, 20516.00
803.2450, 20472.00
804.3840, 20742.00
805.5230, 20782.00
806.6630, 20631.00
807.8020, 20896.00
808.9400, 20761.00
810.0790, 20812.00
811.2170, 20705.00
812.3560, 20812.00
813.4940, 20891.00
814.6320, 20997.00
815.7700, 21028.16
816.9070, 21203.00
818.0450, 21105.00
819.1820, 21183.00
820.3190, 21280.00
821.4560, 20944.00
822.5930, 21139.00
823.7300, 21080.00
824.8670, 21488.00
826.0030, 21323.00
827.1390, 21435.00
828.2750, 21439.00
829.4110, 21512.00
830.5470, 21533.00
831.6820, 21420.00
832.8180, 21529.00
833.9530, 21661.00
835.0880, 21583.00
836.2230, 21845.00
837.3580, 21571.00
838.4920, 21823.00
839.6270, 21918.00
840.7610, 21700.00
841.8950, 21939.00
843.0290, 22015.00
844.1630, 21902.00
845.2960, 22140.00
846.4300, 21933.00
847.5630, 21937.00
848.6960, 22091.00
849.8290, 22078.00
850.9620, 22164.94
852.0940, 22334.00
853.2270, 22336.00
854.3590, 22304.00
855.4910, 22462.00
856.6230, 22439.00
857.7550, 22465.00
858.8870, 22447.00
860.0180, 22498.00
861.1500, 22579.00
862.2810, 22658.00
863.4120, 22727.42
864.5430, 22714.00
865.6730, 22855.00
866.8040, 23022.00
867.9340, 23035.82
869.0640, 22821.00
870.1940, 23046.00
871.3240, 22844.00
872.4540, 22861.00
873.5830, 23027.00
874.7130, 23051.00
875.8420, 22948.00
876.9710, 23268.00
878.1000, 23168.00
879.2290, 23398.00
880.3570, 23090.00
881.4860, 23306.00
882.6140, 23412.00
883.7420, 23479.00
884.8700, 23561.00
885.9980, 23531.00
887.1250, 23557.00
888.2530, 23561.00
889.3800, 23671.00
890.5070, 23777.00
891.6340, 23798.00
892.7610, 23874.95
893.8880, 23809.00
895.0140, 23909.00
896.1400, 23908.00
897.2670, 23821.00
898.3930, 24173.00
899.5180, 24217.00
900.6440, 24128.00
901.7700, 24254.00
902.8950, 24246.00
904.0200, 24235.00
905.1450, 24325.00
906.2700, 24263.00
907.3950, 24293.00
908.5190, 24430.00
909.6440, 24485.00
910.7680, 24508.47
911.8920, 24492.00
913.0160, 24552.00
914.1400, 24529.00
915.2630, 24579.00
916.3870, 24667.00
917.5100, 24665.00
918.6330, 25003.00
919.7560, 24812.00
920.8790, 25067.00
922.0010, 24856.00
923.1240, 25131.00
924.2460, 25101.00
925.3680, 24970.00
926.4900, 25382.00
927.6120, 25148.00
928.7340, 25190.00
929.8550, 25333.00
930.9760, 25498.00
932.0980, 25441.00
933.2190, 25449.00
934.3390, 25585.00
935.4600, 25441.00
936.5810, 25750.00
937.7010, 25658.00
938.8210, 25548.00
939.9410, 25953.00
941.0610, 25854.00
942.1810, 25813.00
943.3010, 26017.00
944.4200, 26032.00
945.5390, 26071.00
946.6580, 26095.00
947.7770, 26111.00
948.8960, 26348.00
950.0150, 26357.00
951.1330, 26510.00
952.2510, 26336.00
953.3690, 26581.00
954.4870, 26538.00
955.6050, 26667.00
956.7230, 26822.00
957.8400, 27189.00
958.9580, 27151.00
960.0750, 27318.00
961.1920, 27319.00
962.3090, 27495.00
963.4250, 27773.00
964.5420, 27969.00
965.6580, 28079.00
966.7740, 28464.00
967.8900, 28496.00
969.0060, 28883.00
970.1220, 28949.00
971.2380, 28908.00
972.3530, 29043.00
973.4680, 29026.00
974.5830, 29017.00
975.6980, 29019.85
976.8130, 28976.32
977.9280, 28925.00
979.0420, 28826.00
980.1560, 28752.00
981.2710, 28527.00
982.3850, 28716.00
983.4980, 28505.00
984.6120, 28656.00
985.7260, 28517.00
986.8390, 28500.00
987.9520, 28339.00
989.0650, 28582.00
990.1780, 28463.00
991.2910, 28531.00
992.4030, 28358.00
993.5160, 28808.00
994.6280, 28435.00
995.7400, 29013.00
996.8520, 28747.00
997.9640, 28829.00
999.0750, 28940.00
1000.187, 29048.00
1001.298, 29059.00
1002.409, 29041.00
1003.520, 29131.00
1004.631, 29023.00
1005.741, 29124.00
1006.852, 29112.00
1007.962, 29100.00
1009.072, 29275.00
1010.182, 29145.00
1011.292, 29516.00
1012.402, 29554.00
1013.511, 29390.00
1014.621, 29535.00
1015.730, 29428.00
1016.839, 29750.00
1017.948, 29813.00
1019.056, 29984.00
1020.165, 30121.00
1021.273, 30046.00
1022.382, 30206.00
1023.490, 30169.00
1024.598, 30354.00
1025.706, 30406.00
1026.813, 30376.00
1027.921, 30431.00
1029.028, 30346.00
1030.135, 30391.00
1031.242, 30117.00
1032.349, 30619.00
1033.456, 29959.00
1034.562, 30157.00
1035.668, 30261.00
1036.775, 30060.00
1037.881, 30354.00
1038.987, 30335.00
1040.092, 30343.00
1041.198, 30285.00
1042.303, 30303.00
1043.408, 30322.58
1044.514, 30336.00
1045.618, 30407.00
1046.723, 30445.00
1047.828, 30516.00
1048.932, 30649.00
1050.037, 30668.27
1051.141, 30822.00
1052.245, 30764.00
1053.349, 30752.00
1054.452, 30800.00
1055.556, 30950.00
1056.659, 31036.00
1057.762, 31306.00
1058.865, 31038.00
1059.968, 31308.00
1061.071, 31299.00
1062.174, 31210.00
1063.276, 31301.00
1064.378, 31362.00
1065.480, 31539.00
1066.582, 31345.00
1067.684, 31812.00
1068.786, 31436.00
1069.887, 31561.00
1070.988, 31683.00
1072.090, 31802.00
1073.191, 31895.76
1074.291, 31797.00
1075.392, 32015.00
1076.493, 31941.00
1077.593, 31865.00
1078.693, 31957.00
1079.793, 32323.00
1080.893, 32340.00
1081.993, 32188.00
1083.092, 32459.00
1084.192, 32343.00
1085.291, 32585.00
1086.390, 32600.00
1087.489, 32676.00
##END=



