##NAMES=Pectolite
##RRUFFID=R050396
##IDEAL CHEMISTRY=NaCa_2_Si_3_O_8_(OH)
##LOCALITY=Jeffrey Quarry, Asbestos, Quebec, Canada
##OWNER=RRUFF
##SOURCE=Marcus Origlieri
##DESCRIPTION=Colorless to gray columnar blocky crystals
##STATUS=The identification of this mineral has been confirmed by X-ray diffraction and chemical analysis
##URL=rruff.info/R050396
##MEASURED CHEMISTRY=Na_1.00_Ca_2.00_Si_3.00_O_8_(OH)
##PIN_ID=M00143
##ORIENTATION=Laser parallel to -b* (0 -1 0). Fiducial mark perpendicular to laser is parallel to c [0 0 1]
127.5960, 18222.00
128.8330, 18291.00
130.0700, 18364.00
131.3060, 18666.00
132.5420, 18632.00
133.7780, 18629.00
135.0140, 18856.00
136.2500, 19213.00
137.4850, 19004.00
138.7200, 19379.00
139.9550, 19802.00
141.1900, 19893.00
142.4250, 20020.00
143.6600, 19991.00
144.8940, 19831.00
146.1280, 19801.00
147.3620, 19810.00
148.5960, 19745.00
149.8300, 19657.00
151.0630, 19707.00
152.2960, 19719.00
153.5300, 19620.00
154.7620, 19633.74
155.9950, 19569.68
157.2280, 19490.00
158.4600, 19490.00
159.6920, 19284.00
160.9250, 19296.00
162.1560, 19543.00
163.3880, 19560.00
164.6200, 19378.00
165.8510, 19639.00
167.0820, 19423.00
168.3130, 19618.00
169.5440, 19530.00
170.7750, 19533.00
172.0050, 19693.00
173.2350, 19781.00
174.4650, 19832.00
175.6950, 19748.00
176.9250, 19809.00
178.1550, 19903.00
179.3840, 19725.00
180.6130, 20048.00
181.8420, 20086.00
183.0710, 19874.00
184.3000, 20074.00
185.5280, 20001.00
186.7570, 19987.00
187.9850, 20031.00
189.2130, 20028.71
190.4400, 20101.00
191.6680, 20080.00
192.8960, 19993.00
194.1230, 19945.00
195.3500, 20000.33
196.5770, 20202.00
197.8030, 20114.00
199.0300, 20162.00
200.2560, 20179.00
201.4830, 20201.00
202.7090, 20280.00
203.9340, 20227.00
205.1600, 20391.00
206.3860, 20373.00
207.6110, 20330.00
208.8360, 20187.00
210.0610, 20130.00
211.2860, 20411.00
212.5100, 20520.00
213.7350, 20342.00
214.9590, 20399.00
216.1830, 20250.00
217.4070, 20423.00
218.6310, 20456.00
219.8540, 20428.00
221.0780, 20477.00
222.3010, 20472.00
223.5240, 20762.00
224.7470, 20444.00
225.9690, 20770.00
227.1920, 20593.00
228.4140, 20459.00
229.6360, 20620.00
230.8580, 20528.00
232.0800, 20450.00
233.3020, 20770.00
234.5230, 20669.00
235.7440, 20672.00
236.9650, 20631.00
238.1860, 20619.23
239.4070, 20634.55
240.6280, 20631.00
241.8480, 20663.00
243.0680, 20676.00
244.2880, 20671.00
245.5080, 20819.00
246.7280, 20833.00
247.9470, 20880.41
249.1660, 20901.00
250.3860, 20935.00
251.6040, 20810.00
252.8230, 20786.00
254.0420, 20943.00
255.2600, 20911.00
256.4790, 21119.00
257.6970, 20935.00
258.9150, 21045.00
260.1320, 21038.00
261.3500, 20931.00
262.5670, 20966.00
263.7840, 20950.73
265.0010, 21092.00
266.2180, 20980.00
267.4350, 21118.00
268.6510, 21139.00
269.8680, 21119.00
271.0840, 21271.00
272.3000, 21247.00
273.5160, 21303.00
274.7310, 21324.00
275.9470, 21379.00
277.1620, 21297.00
278.3770, 21382.00
279.5920, 21264.00
280.8070, 21337.00
282.0210, 21322.00
283.2360, 21393.00
284.4500, 21323.00
285.6640, 21296.00
286.8780, 21319.00
288.0920, 21148.00
289.3050, 21537.00
290.5180, 21214.00
291.7320, 21364.00
292.9450, 21190.00
294.1570, 21304.00
295.3700, 21346.00
296.5830, 21361.00
297.7950, 21356.00
299.0070, 21379.00
300.2190, 21371.00
301.4310, 21553.00
302.6420, 21485.00
303.8540, 21497.00
305.0650, 21651.00
306.2760, 21588.00
307.4870, 21571.00
308.6980, 21660.00
309.9080, 21527.00
311.1190, 21619.00
312.3290, 21857.00
313.5390, 21896.00
314.7490, 21748.00
315.9580, 21932.00
317.1680, 22099.00
318.3770, 21700.00
319.5860, 21901.00
320.7950, 21819.00
322.0040, 21736.00
323.2130, 21621.00
324.4210, 21774.00
325.6290, 21945.00
326.8380, 21866.00
328.0460, 21742.00
329.2530, 21866.00
330.4610, 21801.00
331.6680, 21693.00
332.8760, 21777.00
334.0830, 21907.00
335.2890, 21920.00
336.4960, 21877.00
337.7030, 21777.00
338.9090, 21970.00
340.1150, 21814.00
341.3210, 21840.00
342.5270, 21865.00
343.7330, 21993.00
344.9380, 21820.00
346.1440, 21994.00
347.3490, 21797.00
348.5540, 21939.00
349.7590, 22116.00
350.9630, 21986.00
352.1680, 21874.00
353.3720, 22294.00
354.5760, 22063.00
355.7800, 22118.00
356.9840, 22290.00
358.1870, 22264.00
359.3910, 22229.00
360.5940, 22203.00
361.7970, 22319.00
363.0000, 22145.00
364.2030, 22331.00
365.4050, 22179.00
366.6080, 21988.00
367.8100, 22199.00
369.0120, 22347.00
370.2140, 22285.00
371.4150, 22451.00
372.6170, 22499.72
373.8180, 22367.00
375.0190, 22650.00
376.2200, 22660.00
377.4210, 22721.00
378.6220, 22552.00
379.8220, 22864.00
381.0230, 22428.00
382.2230, 22618.00
383.4230, 22393.00
384.6220, 22386.00
385.8220, 22531.00
387.0220, 22436.00
388.2210, 22441.00
389.4200, 22367.00
390.6190, 22421.00
391.8180, 22537.00
393.0160, 22679.00
394.2150, 22622.00
395.4130, 22639.00
396.6110, 22660.00
397.8090, 22697.00
399.0060, 22681.13
400.2040, 22681.00
401.4010, 22620.00
402.5980, 22650.00
403.7950, 22549.00
404.9920, 22727.00
406.1890, 22918.00
407.3860, 22960.00
408.5820, 22867.00
409.7780, 22871.00
410.9740, 22848.00
412.1700, 23064.00
413.3650, 23047.00
414.5610, 23047.00
415.7560, 22840.00
416.9510, 23013.00
418.1460, 23080.00
419.3410, 23019.00
420.5360, 22748.00
421.7300, 22958.00
422.9240, 22969.00
424.1180, 23098.00
425.3120, 22735.00
426.5060, 22971.00
427.7000, 22871.00
428.8930, 22978.00
430.0860, 22944.00
431.2790, 22760.00
432.4720, 22829.00
433.6650, 22865.00
434.8580, 22933.00
436.0500, 22976.00
437.2420, 23015.78
438.4340, 23049.00
439.6260, 23076.00
440.8180, 23115.00
442.0090, 23113.00
443.2010, 22889.00
444.3920, 23052.00
445.5830, 23068.00
446.7740, 22985.00
447.9640, 23282.00
449.1550, 22991.00
450.3450, 23116.00
451.5350, 23135.00
452.7250, 23118.00
453.9150, 23189.00
455.1050, 23176.00
456.2940, 23018.00
457.4830, 23261.00
458.6720, 23266.00
459.8610, 23200.00
461.0500, 23358.00
462.2390, 23122.00
463.4270, 23429.00
464.6150, 23466.00
465.8040, 23516.00
466.9910, 23143.00
468.1790, 23393.00
469.3670, 23432.00
470.5540, 23229.00
471.7410, 23483.00
472.9280, 23461.00
474.1150, 23666.00
475.3020, 23567.00
476.4890, 23700.00
477.6750, 23727.00
478.8610, 23638.00
480.0470, 23674.00
481.2330, 23718.00
482.4190, 23599.00
483.6040, 23646.00
484.7900, 23732.00
485.9750, 23617.00
487.1600, 23557.00
488.3450, 23745.00
489.5290, 23653.00
490.7140, 23841.00
491.8980, 23643.00
493.0820, 23809.00
494.2660, 23930.00
495.4500, 23779.00
496.6340, 23899.00
497.8170, 23765.00
499.0010, 24019.00
500.1840, 24007.00
501.3670, 23963.00
502.5500, 23939.00
503.7320, 23979.00
504.9150, 24032.00
506.0970, 23955.00
507.2790, 23980.00
508.4610, 24036.00
509.6430, 24118.00
510.8250, 24046.00
512.0060, 24078.00
513.1870, 24103.34
514.3680, 24045.00
515.5490, 24133.00
516.7300, 24146.00
517.9110, 24117.00
519.0910, 24256.00
520.2710, 24229.00
521.4510, 24227.00
522.6310, 24285.00
523.8110, 24294.00
524.9910, 24439.00
526.1700, 24325.00
527.3490, 24362.00
528.5280, 24420.00
529.7070, 24563.00
530.8860, 24466.00
532.0650, 24374.00
533.2430, 24153.00
534.4210, 24272.00
535.5990, 24426.00
536.7770, 24462.00
537.9550, 24547.00
539.1320, 24690.00
540.3100, 24521.00
541.4870, 24561.00
542.6640, 24725.00
543.8410, 24648.00
545.0170, 24663.00
546.1940, 24704.00
547.3700, 24720.00
548.5470, 24709.78
549.7230, 24624.00
550.8980, 24683.00
552.0740, 24627.00
553.2500, 24627.00
554.4250, 24754.00
555.6000, 24750.00
556.7750, 24525.00
557.9500, 24795.00
559.1250, 24755.00
560.2990, 24707.00
561.4730, 24954.00
562.6480, 24808.00
563.8220, 24781.00
564.9950, 24958.00
566.1690, 24942.00
567.3430, 24758.00
568.5160, 24869.00
569.6890, 24962.00
570.8620, 25253.00
572.0350, 25003.00
573.2070, 24955.00
574.3800, 25212.00
575.5520, 25029.00
576.7240, 25134.00
577.8960, 25333.00
579.0680, 25179.00
580.2400, 25164.00
581.4110, 25299.00
582.5830, 25136.00
583.7540, 25258.00
584.9250, 25060.00
586.0950, 25272.00
587.2660, 25222.00
588.4370, 25102.00
589.6070, 25340.00
590.7770, 25379.00
591.9470, 25632.00
593.1170, 25332.00
594.2860, 25256.00
595.4560, 25264.00
596.6250, 25215.21
597.7940, 25502.00
598.9630, 25353.00
600.1320, 25458.00
601.3000, 25567.00
602.4690, 25362.00
603.6370, 25453.00
604.8050, 25776.00
605.9730, 25750.00
607.1410, 25570.00
608.3090, 25724.00
609.4760, 25717.00
610.6430, 25711.00
611.8100, 25803.00
612.9770, 25813.00
614.1440, 25826.00
615.3110, 25686.00
616.4770, 25673.00
617.6430, 26088.00
618.8090, 25770.00
619.9750, 26028.00
621.1410, 26029.00
622.3070, 26080.00
623.4720, 25923.00
624.6370, 26207.00
625.8020, 25966.00
626.9670, 26248.00
628.1320, 26033.00
629.2970, 26277.00
630.4610, 26086.00
631.6250, 26256.00
632.7890, 26140.00
633.9530, 26150.00
635.1170, 26480.00
636.2810, 26402.00
637.4440, 26459.00
638.6070, 26590.00
639.7700, 26804.00
640.9330, 26824.70
642.0960, 27059.00
643.2590, 26992.00
644.4210, 27175.00
645.5830, 27361.00
646.7450, 27436.00
647.9070, 27798.00
649.0690, 28176.00
650.2310, 27789.00
651.3920, 27917.00
652.5530, 28333.00
653.7140, 28030.00
654.8750, 27712.00
656.0360, 27678.00
657.1970, 27192.00
658.3570, 27215.00
659.5170, 27043.00
660.6770, 27255.00
661.8370, 26857.00
662.9970, 27069.00
664.1570, 26935.00
665.3160, 27100.00
666.4750, 27004.00
667.6340, 27133.00
668.7930, 26924.00
669.9520, 26919.00
671.1110, 26857.00
672.2690, 26965.00
673.4270, 27012.00
674.5850, 27053.00
675.7430, 27033.00
676.9010, 27256.00
678.0590, 26973.00
679.2160, 27174.00
680.3730, 26941.00
681.5300, 27001.00
682.6870, 27234.00
683.8440, 27157.00
685.0010, 27284.00
686.1570, 27111.00
687.3130, 27275.00
688.4690, 27397.00
689.6250, 27278.00
690.7810, 27392.00
691.9370, 27261.00
693.0920, 27317.00
694.2470, 27413.00
695.4020, 27362.00
696.5570, 27437.00
697.7120, 27403.00
698.8670, 27394.00
700.0210, 27384.00
701.1750, 27365.00
702.3290, 27533.00
703.4830, 27414.00
704.6370, 27601.00
705.7910, 27589.00
706.9440, 27632.00
708.0970, 27913.00
709.2510, 27537.00
710.4030, 27818.00
711.5560, 27816.00
712.7090, 27590.00
713.8610, 27851.00
715.0140, 27672.00
716.1660, 27724.00
717.3180, 27798.00
718.4690, 27793.00
719.6210, 27863.59
720.7730, 27887.06
721.9240, 27960.00
723.0750, 27974.00
724.2260, 28019.00
725.3770, 28127.00
726.5270, 28074.00
727.6780, 28101.00
728.8280, 28192.00
729.9780, 28131.00
731.1280, 28010.00
732.2780, 28415.00
733.4280, 28177.00
734.5770, 28452.00
735.7260, 28332.00
736.8760, 28283.00
738.0250, 28182.00
739.1730, 28199.00
740.3220, 28432.00
741.4700, 28376.00
742.6190, 28476.00
743.7670, 28449.00
744.9150, 28340.00
746.0630, 28485.00
747.2100, 28700.00
748.3580, 28403.00
749.5050, 28698.00
750.6520, 28648.00
751.7990, 28510.00
752.9460, 28628.00
754.0930, 28679.00
755.2390, 28683.00
756.3860, 28866.00
757.5320, 28802.00
758.6780, 28568.00
759.8240, 28582.00
760.9690, 28841.00
762.1150, 28941.00
763.2600, 29148.00
764.4060, 29192.67
765.5510, 28935.00
766.6950, 29194.00
767.8400, 29307.00
768.9850, 29214.00
770.1290, 29391.00
771.2730, 29071.00
772.4170, 28772.00
773.5610, 29146.00
774.7050, 29176.00
775.8480, 29424.00
776.9920, 29121.00
778.1350, 29144.00
779.2780, 29282.00
780.4210, 29404.00
781.5640, 29350.00
782.7060, 29236.00
783.8490, 29532.00
784.9910, 29169.00
786.1330, 29489.00
787.2750, 29537.00
788.4170, 29593.00
789.5580, 29685.00
790.7000, 29407.00
791.8410, 29588.00
792.9820, 29593.00
794.1230, 29757.00
795.2640, 29547.00
796.4040, 29715.00
797.5450, 29680.00
798.6850, 29703.00
799.8250, 29783.00
800.9650, 29759.00
802.1050, 29924.00
803.2450, 29950.51
804.3840, 29987.00
805.5230, 30070.00
806.6630, 30048.00
807.8020, 30064.00
808.9400, 30154.00
810.0790, 30013.00
811.2170, 29996.00
812.3560, 30177.00
813.4940, 30283.00
814.6320, 30330.00
815.7700, 30277.00
816.9070, 30151.00
818.0450, 30293.00
819.1820, 30321.00
820.3190, 30215.00
821.4560, 30245.00
822.5930, 30434.00
823.7300, 30303.00
824.8670, 30364.00
826.0030, 30123.00
827.1390, 30329.00
828.2750, 30513.00
829.4110, 30478.00
830.5470, 30612.00
831.6820, 30490.00
832.8180, 30777.00
833.9530, 30804.00
835.0880, 30897.00
836.2230, 30879.00
837.3580, 30734.00
838.4920, 30747.00
839.6270, 30869.00
840.7610, 30929.00
841.8950, 30962.00
843.0290, 30894.00
844.1630, 30929.00
845.2960, 31074.00
846.4300, 30959.00
847.5630, 31312.00
848.6960, 30964.00
849.8290, 31171.00
850.9620, 31085.00
852.0940, 31287.00
853.2270, 31200.00
854.3590, 31465.00
855.4910, 31345.00
856.6230, 31139.00
857.7550, 31534.00
858.8870, 31307.00
860.0180, 31374.00
861.1500, 31276.00
862.2810, 31268.00
863.4120, 31342.35
864.5430, 31561.00
865.6730, 31498.00
866.8040, 31571.00
867.9340, 31663.00
869.0640, 31670.00
870.1940, 31724.00
871.3240, 31645.00
872.4540, 31501.00
873.5830, 31626.70
874.7130, 31597.64
875.8420, 31779.00
876.9710, 31746.00
878.1000, 31782.00
879.2290, 31899.00
880.3570, 32129.00
881.4860, 32105.00
882.6140, 32176.00
883.7420, 32153.00
884.8700, 32105.00
885.9980, 32083.00
887.1250, 32099.00
888.2530, 32203.00
889.3800, 32337.00
890.5070, 32308.00
891.6340, 32312.00
892.7610, 32089.00
893.8880, 32338.00
895.0140, 32207.00
896.1400, 32676.00
897.2670, 32355.00
898.3930, 32154.00
899.5180, 32751.00
900.6440, 32485.00
901.7700, 32686.00
902.8950, 32512.00
904.0200, 32477.00
905.1450, 32839.00
906.2700, 32824.00
907.3950, 32960.00
908.5190, 32805.00
909.6440, 32920.00
910.7680, 32936.00
911.8920, 32846.00
913.0160, 33088.00
914.1400, 32782.00
915.2630, 33236.00
916.3870, 33203.00
917.5100, 33021.00
918.6330, 33210.00
919.7560, 33076.00
920.8790, 33165.00
922.0010, 33090.00
923.1240, 33276.00
924.2460, 33322.00
925.3680, 33438.00
926.4900, 33283.00
927.6120, 33435.00
928.7340, 33389.00
929.8550, 33189.00
930.9760, 33520.00
932.0980, 33394.00
933.2190, 33470.00
934.3390, 33571.00
935.4600, 33504.00
936.5810, 33846.00
937.7010, 33829.00
938.8210, 33805.00
939.9410, 33718.00
941.0610, 33449.00
942.1810, 33982.00
943.3010, 33652.00
944.4200, 33986.00
945.5390, 33675.00
946.6580, 34054.00
947.7770, 34085.00
948.8960, 34112.00
950.0150, 34171.00
951.1330, 34162.00
952.2510, 34236.77
953.3690, 34083.00
954.4870, 34342.00
955.6050, 34319.00
956.7230, 34323.00
957.8400, 34627.00
958.9580, 34625.00
960.0750, 34689.00
961.1920, 34860.00
962.3090, 34707.00
963.4250, 34806.00
964.5420, 34698.00
965.6580, 34775.00
966.7740, 34959.00
967.8900, 34973.00
969.0060, 35025.00
970.1220, 35160.00
971.2380, 35171.68
972.3530, 35080.00
973.4680, 35272.00
974.5830, 35239.00
975.6980, 35283.00
976.8130, 35330.00
977.9280, 35430.00
979.0420, 35381.00
980.1560, 35592.00
981.2710, 35543.00
982.3850, 35390.00
983.4980, 35438.00
984.6120, 35277.00
985.7260, 35687.00
986.8390, 35485.00
987.9520, 35594.00
989.0650, 35798.00
990.1780, 35690.00
991.2910, 35928.00
992.4030, 35672.00
993.5160, 35876.00
994.6280, 35922.00
995.7400, 35760.00
996.8520, 35828.00
997.9640, 35783.00
999.0750, 35837.96
1000.187, 35975.00
1001.298, 36061.00
1002.409, 36298.00
1003.520, 36522.00
1004.631, 36469.00
1005.741, 36220.00
1006.852, 36566.00
1007.962, 36249.00
1009.072, 36102.00
1010.182, 36417.00
1011.292, 36307.00
1012.402, 36383.00
1013.511, 36607.00
1014.621, 36545.00
1015.730, 36571.00
1016.839, 36703.00
1017.948, 36790.00
1019.056, 36815.00
1020.165, 37179.00
1021.273, 36891.00
1022.382, 37276.00
1023.490, 37394.00
1024.598, 37403.00
1025.706, 37489.00
1026.813, 37209.00
1027.921, 37520.00
1029.028, 37116.00
1030.135, 37228.00
1031.242, 37154.00
1032.349, 36950.00
1033.456, 36983.00
1034.562, 36893.00
1035.668, 37043.00
1036.775, 37029.00
1037.881, 36975.00
1038.987, 37153.00
1040.092, 37146.00
1041.198, 37375.00
1042.303, 37241.00
1043.408, 37391.00
1044.514, 37339.00
1045.618, 37324.00
1046.723, 37512.00
1047.828, 37286.00
1048.932, 37401.00
1050.037, 37569.00
1051.141, 37534.00
1052.245, 37649.88
1053.349, 37757.00
1054.452, 37655.00
1055.556, 37749.00
1056.659, 37789.73
1057.762, 37767.00
1058.865, 37865.00
1059.968, 37869.00
1061.071, 37934.56
1062.174, 37496.00
1063.276, 38072.00
1064.378, 38181.00
1065.480, 38261.00
1066.582, 37837.00
1067.684, 37902.00
1068.786, 37852.00
1069.887, 37945.00
1070.988, 38150.00
1072.090, 38336.00
1073.191, 38355.00
1074.291, 38189.00
1075.392, 38481.00
1076.493, 38444.00
1077.593, 38423.00
1078.693, 38765.00
1079.793, 38965.00
1080.893, 38496.00
1081.993, 38795.00
1083.092, 38417.00
1084.192, 38830.00
1085.291, 38894.00
1086.390, 38985.00
1087.489, 38838.00
1088.588, 38772.00
1089.686, 38788.00
1090.785, 39026.00
1091.883, 38921.00
1092.981, 39027.00
1094.079, 39048.00
1095.177, 39036.00
1096.275, 38986.00
1097.373, 39035.00
1098.470, 39325.00
1099.567, 39287.00
1100.664, 39264.00
1101.761, 39384.00
1102.858, 39216.00
1103.954, 39294.00
1105.051, 39411.00
1106.147, 39437.00
1107.243, 39466.00
1108.339, 39708.00
1109.435, 39749.00
1110.531, 39676.00
1111.626, 39644.00
1112.722, 39784.00
1113.817, 39650.00
1114.912, 39867.00
1116.007, 39949.00
1117.101, 39969.00
1118.196, 40104.00
1119.290, 40292.00
1120.385, 39969.00
1121.479, 40227.00
1122.573, 40181.00
1123.666, 40318.00
1124.760, 40355.00
1125.853, 40357.00
1126.947, 40309.00
1128.040, 40466.00
1129.133, 40292.00
1130.226, 40351.00
1131.318, 40486.00
1132.411, 40489.00
1133.503, 40385.00
1134.596, 40671.00
1135.688, 40969.00
1136.780, 40797.00
1137.871, 40621.00
1138.963, 40603.00
1140.054, 40991.00
1141.146, 40658.00
1142.237, 40927.00
1143.328, 40735.00
1144.419, 41186.00
1145.509, 41082.00
1146.600, 41045.00
1147.690, 41184.00
1148.780, 41208.00
1149.870, 41262.00
1150.960, 41623.00
1152.050, 41379.00
1153.139, 41366.00
1154.229, 41143.00
1155.318, 41420.00
1156.407, 41658.00
1157.496, 41413.00
1158.585, 41579.00
1159.674, 41383.00
1160.762, 41460.00
1161.850, 41358.00
1162.939, 41712.00
1164.027, 41873.00
1165.114, 41741.00
1166.202, 41719.00
1167.290, 41815.00
1168.377, 41857.00
1169.464, 42026.00
1170.551, 42270.00
1171.638, 42203.00
1172.725, 42220.00
1173.812, 41985.00
1174.898, 42305.00
1175.984, 42192.00
1177.071, 42351.00
1178.157, 42321.00
1179.242, 42406.00
1180.328, 42610.00
1181.414, 42273.00
1182.499, 42332.00
1183.584, 42416.00
1184.669, 42442.00
1185.754, 42499.60
1186.839, 42576.72
1187.924, 42621.00
1189.008, 42681.00
##END=



