##NAMES=Pectolite
##RRUFFID=R050396
##IDEAL CHEMISTRY=NaCa_2_Si_3_O_8_(OH)
##LOCALITY=Jeffrey Quarry, Asbestos, Quebec, Canada
##OWNER=RRUFF
##SOURCE=Marcus Origlieri
##DESCRIPTION=Colorless to gray columnar blocky crystals
##STATUS=The identification of this mineral has been confirmed by X-ray diffraction and chemical analysis
##URL=rruff.info/R050396
##MEASURED CHEMISTRY=Na_1.00_Ca_2.00_Si_3.00_O_8_(OH)
##PIN_ID=M00439
##ORIENTATION=Laser parallel to -c* (0 0 -1). Fiducial mark perpendicular to laser is parallel to a [1 0 0]
135.1660, 7785.000
136.3990, 7804.000
137.6310, 7934.000
138.8640, 8163.000
140.0960, 8149.000
141.3280, 8262.000
142.5600, 8362.000
143.7910, 8535.000
145.0230, 8638.255
146.2540, 8707.000
147.4850, 8866.000
148.7160, 8928.000
149.9470, 8983.000
151.1780, 9104.000
152.4080, 8974.000
153.6380, 8898.000
154.8690, 8787.000
156.0980, 8531.000
157.3280, 8460.000
158.5580, 8318.000
159.7870, 8327.000
161.0170, 8293.000
162.2460, 8285.000
163.4750, 8204.000
164.7030, 8291.000
165.9320, 8218.000
167.1600, 8222.000
168.3890, 8145.000
169.6170, 8294.000
170.8450, 8170.000
172.0730, 8317.000
173.3000, 8308.000
174.5280, 8481.000
175.7550, 8456.000
176.9820, 8450.000
178.2090, 8581.000
179.4350, 8449.000
180.6620, 8554.000
181.8880, 8597.000
183.1150, 8642.000
184.3410, 8763.000
185.5670, 8875.000
186.7920, 8957.000
188.0180, 9001.000
189.2430, 9003.007
190.4690, 8903.000
191.6940, 8912.000
192.9180, 8946.000
194.1430, 8849.000
195.3680, 8917.000
196.5920, 9046.000
197.8160, 9120.000
199.0400, 9133.000
200.2640, 9221.000
201.4880, 9364.000
202.7110, 9345.000
203.9350, 9374.000
205.1580, 9238.000
206.3810, 9284.000
207.6040, 9254.000
208.8270, 9217.000
210.0490, 9137.000
211.2710, 9236.000
212.4940, 9241.000
213.7160, 9230.000
214.9370, 9270.000
216.1590, 9339.000
217.3810, 9431.000
218.6020, 9368.000
219.8230, 9556.000
221.0440, 9507.000
222.2650, 9585.000
223.4860, 9600.000
224.7060, 9589.000
225.9260, 9569.000
227.1470, 9497.000
228.3670, 9442.000
229.5860, 9410.000
230.8060, 9360.119
232.0260, 9323.000
233.2450, 9263.000
234.4640, 9221.000
235.6830, 9205.714
236.9020, 9312.000
238.1200, 9207.000
239.3390, 9235.000
240.5570, 9287.000
241.7750, 9139.000
242.9930, 9245.000
244.2110, 9155.000
245.4290, 9320.000
246.6460, 9312.167
247.8630, 9355.000
249.0810, 9392.000
250.2980, 9441.000
251.5140, 9518.000
252.7310, 9548.000
253.9470, 9477.000
255.1640, 9538.000
256.3800, 9602.000
257.5960, 9753.000
258.8120, 9752.000
260.0270, 9589.000
261.2430, 9766.000
262.4580, 9573.000
263.6730, 9659.000
264.8880, 9666.000
266.1030, 9694.000
267.3170, 9800.000
268.5320, 9886.000
269.7460, 9897.000
270.9600, 9940.000
272.1740, 9949.000
273.3880, 9950.000
274.6010, 10053.00
275.8150, 9950.000
277.0280, 9969.000
278.2410, 9797.000
279.4540, 9929.000
280.6670, 9980.000
281.8790, 9728.000
283.0920, 9791.000
284.3040, 9788.000
285.5160, 9695.000
286.7280, 9820.000
287.9400, 9725.000
289.1510, 9696.000
290.3630, 9769.000
291.5740, 9733.000
292.7850, 9763.000
293.9960, 9858.000
295.2070, 9829.000
296.4170, 9964.000
297.6280, 9796.000
298.8380, 9940.000
300.0480, 9837.000
301.2580, 9987.000
302.4680, 10111.00
303.6770, 10084.00
304.8870, 10009.00
306.0960, 10135.00
307.3050, 10311.00
308.5140, 10262.00
309.7230, 10454.00
310.9310, 10443.00
312.1400, 10708.00
313.3480, 10815.00
314.5560, 10766.00
315.7640, 11010.00
316.9720, 11089.00
318.1790, 11067.00
319.3870, 11137.00
320.5940, 11090.00
321.8010, 11152.00
323.0080, 11074.00
324.2150, 11047.18
325.4210, 10942.00
326.6280, 10909.00
327.8340, 10840.00
329.0400, 10703.00
330.2460, 10679.34
331.4510, 10593.00
332.6570, 10559.00
333.8620, 10539.00
335.0680, 10460.00
336.2730, 10488.00
337.4780, 10457.00
338.6820, 10385.00
339.8870, 10394.00
341.0910, 10454.00
342.2950, 10425.00
343.5000, 10602.00
344.7030, 10432.00
345.9070, 10679.00
347.1110, 10716.00
348.3140, 10717.00
349.5170, 10811.00
350.7200, 10811.00
351.9230, 10888.00
353.1260, 10991.00
354.3290, 11160.00
355.5310, 11263.00
356.7330, 11310.00
357.9350, 11352.31
359.1370, 11361.00
360.3390, 11292.00
361.5400, 11315.00
362.7420, 11193.00
363.9430, 11229.00
365.1440, 11210.00
366.3450, 11157.00
367.5460, 11138.00
368.7460, 11406.00
369.9470, 11528.00
371.1470, 11583.00
372.3470, 11773.14
373.5470, 11935.00
374.7460, 12067.00
375.9460, 12305.00
377.1450, 12554.00
378.3450, 12594.00
379.5440, 12660.00
380.7430, 12373.00
381.9410, 12196.00
383.1400, 11846.00
384.3380, 11641.00
385.5370, 11420.00
386.7350, 11277.00
387.9320, 11348.00
389.1300, 11188.00
390.3280, 11293.00
391.5250, 11252.00
392.7220, 11232.00
393.9190, 11276.00
395.1160, 11343.00
396.3130, 11326.00
397.5100, 11397.00
398.7060, 11473.00
399.9020, 11476.00
401.0980, 11656.00
402.2940, 11635.00
403.4900, 11829.00
404.6860, 11995.00
405.8810, 12147.00
407.0760, 12287.00
408.2710, 12499.45
409.4660, 12691.00
410.6610, 12922.00
411.8550, 13128.00
413.0500, 13340.00
414.2440, 13303.00
415.4380, 13404.00
416.6320, 13155.00
417.8260, 12836.00
419.0190, 12529.00
420.2130, 12392.00
421.4060, 12163.00
422.5990, 11901.00
423.7920, 11863.00
424.9850, 11721.00
426.1770, 11542.00
427.3700, 11578.00
428.5620, 11449.00
429.7540, 11432.00
430.9460, 11573.00
432.1380, 11425.00
433.3290, 11391.00
434.5210, 11477.00
435.7120, 11578.00
436.9030, 11375.00
438.0940, 11579.00
439.2850, 11519.00
440.4750, 11603.00
441.6660, 11514.00
442.8560, 11539.94
444.0460, 11567.00
445.2360, 11588.00
446.4260, 11568.00
447.6160, 11682.00
448.8050, 11626.00
449.9940, 11675.00
451.1830, 11770.00
452.3720, 11673.00
453.5610, 11774.00
454.7500, 11823.00
455.9380, 11796.00
457.1260, 11750.00
458.3150, 11695.00
459.5020, 11875.00
460.6900, 11795.00
461.8780, 11818.00
463.0650, 12003.00
464.2530, 12047.00
465.4400, 12071.00
466.6270, 12010.00
467.8130, 11889.00
469.0000, 11970.00
470.1870, 11941.00
471.3730, 12002.00
472.5590, 12024.00
473.7450, 12015.00
474.9310, 12022.00
476.1160, 12032.00
477.3020, 12074.00
478.4870, 12106.00
479.6720, 12104.16
480.8570, 12205.00
482.0420, 12113.00
483.2270, 12135.00
484.4110, 12162.00
485.5960, 12334.00
486.7800, 12260.00
487.9640, 12111.00
489.1480, 12271.00
490.3310, 12220.00
491.5150, 12410.00
492.6980, 12328.00
493.8810, 12374.00
495.0640, 12363.00
496.2470, 12481.00
497.4300, 12600.00
498.6120, 12526.00
499.7950, 12631.00
500.9770, 12727.00
502.1590, 12614.00
503.3410, 12618.00
504.5220, 12624.00
505.7040, 12569.00
506.8850, 12610.00
508.0660, 12656.00
509.2470, 12585.00
510.4280, 12618.00
511.6090, 12735.00
512.7890, 12786.00
513.9700, 12802.00
515.1500, 12767.00
516.3300, 12671.00
517.5100, 12884.00
518.6900, 12758.00
519.8690, 12806.00
521.0490, 12723.00
522.2280, 12894.00
523.4070, 12888.00
524.5860, 12802.00
525.7640, 12998.00
526.9430, 12917.00
528.1210, 12908.00
529.3000, 13011.00
530.4780, 13118.00
531.6560, 13138.00
532.8330, 13104.00
534.0110, 13183.00
535.1880, 13195.00
536.3650, 13126.00
537.5430, 13257.00
538.7190, 13268.00
539.8960, 13215.00
541.0730, 13262.00
542.2490, 13337.00
543.4250, 13309.55
544.6020, 13363.00
545.7780, 13354.00
546.9530, 13300.00
548.1290, 13383.00
549.3040, 13273.00
550.4800, 13441.00
551.6550, 13360.00
552.8300, 13272.00
554.0040, 13455.00
555.1790, 13391.00
556.3540, 13415.00
557.5280, 13389.00
558.7020, 13330.00
559.8760, 13510.00
561.0500, 13466.00
562.2230, 13481.00
563.3970, 13332.00
564.5700, 13404.29
565.7430, 13631.00
566.9160, 13545.00
568.0890, 13564.00
569.2620, 13769.00
570.4340, 13610.00
571.6070, 13729.00
572.7790, 13625.00
573.9510, 13688.00
575.1230, 13781.00
576.2940, 13729.00
577.4660, 13729.00
578.6370, 13813.00
579.8080, 13893.00
580.9790, 13758.00
582.1500, 13962.00
583.3210, 13917.00
584.4910, 14095.00
585.6620, 13852.00
586.8320, 13869.00
588.0020, 14082.00
589.1720, 14115.00
590.3410, 14225.00
591.5110, 14145.00
592.6800, 14151.00
593.8500, 14281.00
595.0190, 14279.00
596.1880, 14146.00
597.3560, 14345.00
598.5250, 14274.00
599.6930, 14489.00
600.8620, 14453.15
602.0300, 14455.00
603.1970, 14429.00
604.3650, 14415.00
605.5330, 14418.00
606.7000, 14380.00
607.8680, 14395.00
609.0350, 14439.08
610.2020, 14490.00
611.3680, 14577.00
612.5350, 14679.00
613.7010, 14788.00
614.8680, 14668.00
616.0340, 14844.00
617.2000, 14862.00
618.3660, 14879.00
619.5310, 15084.00
620.6970, 15034.00
621.8620, 14977.00
623.0270, 14994.00
624.1920, 15036.90
625.3570, 15163.00
626.5220, 15223.00
627.6860, 15370.00
628.8500, 15522.00
630.0140, 15441.00
631.1780, 15620.00
632.3420, 15575.00
633.5060, 15668.00
634.6700, 15776.00
635.8330, 15934.00
636.9960, 16115.00
638.1590, 16405.00
639.3220, 16666.00
640.4850, 17109.00
641.6470, 17685.00
642.8100, 18391.00
643.9720, 18990.00
645.1340, 19717.00
646.2960, 20652.00
647.4570, 21610.00
648.6190, 22513.00
649.7800, 23565.00
650.9420, 24460.00
652.1030, 25030.00
653.2640, 24609.00
654.4240, 23806.00
655.5850, 22617.00
656.7450, 21244.00
657.9060, 19941.00
659.0660, 18906.00
660.2260, 18084.00
661.3850, 17695.00
662.5450, 17201.00
663.7040, 16801.00
664.8640, 16529.00
666.0230, 16557.00
667.1820, 16365.00
668.3410, 16348.00
669.4990, 16229.00
670.6580, 16210.00
671.8160, 16134.00
672.9740, 16131.00
674.1320, 16076.00
675.2900, 16202.00
676.4480, 16103.00
677.6050, 16234.00
678.7630, 16237.00
679.9200, 16230.00
681.0770, 16264.00
682.2340, 16254.00
683.3900, 16306.79
684.5470, 16525.00
685.7030, 16415.00
686.8590, 16506.00
688.0150, 16570.00
689.1710, 16499.00
690.3270, 16478.00
691.4830, 16377.00
692.6380, 16380.87
693.7930, 16484.00
694.9480, 16388.00
696.1030, 16475.00
697.2580, 16527.00
698.4130, 16459.00
699.5670, 16625.00
700.7210, 16637.00
701.8750, 16651.00
703.0290, 16663.00
704.1830, 16719.00
705.3370, 16774.00
706.4900, 16748.55
707.6430, 16900.00
708.7970, 16721.00
709.9490, 16710.00
711.1020, 16730.00
712.2550, 16796.00
713.4070, 16891.00
714.5600, 16880.95
715.7120, 16883.00
716.8640, 16889.00
718.0160, 16921.00
719.1670, 16917.00
720.3190, 16971.00
721.4700, 16989.00
722.6210, 16989.00
723.7720, 17007.00
724.9230, 16966.00
726.0740, 17177.00
727.2250, 17155.00
728.3750, 17313.00
729.5250, 17206.00
730.6750, 17410.00
731.8250, 17330.00
732.9750, 17296.00
734.1240, 17209.00
735.2740, 17519.00
736.4230, 17532.00
737.5720, 17444.00
738.7210, 17435.00
739.8700, 17455.00
741.0190, 17384.00
742.1670, 17476.00
743.3150, 17684.00
744.4630, 17644.00
745.6110, 17656.00
746.7590, 17770.00
747.9070, 17622.00
749.0540, 17769.00
750.2020, 17735.00
751.3490, 17802.00
752.4960, 17768.00
753.6430, 17901.00
754.7890, 17818.00
755.9360, 18004.00
757.0820, 18165.00
758.2280, 18080.00
759.3740, 18228.00
760.5200, 18239.66
761.6660, 18223.00
762.8120, 18280.00
763.9570, 18212.00
765.1020, 18190.00
766.2470, 18240.00
767.3920, 18235.06
768.5370, 18277.30
769.6810, 18357.00
770.8260, 18394.00
771.9700, 18548.00
773.1140, 18673.00
774.2580, 18515.00
775.4020, 18349.00
776.5460, 18519.00
777.6890, 18569.00
778.8320, 18722.00
779.9750, 18921.00
781.1180, 18778.00
782.2610, 18770.00
783.4040, 18651.00
784.5460, 18981.00
785.6890, 18914.00
786.8310, 18912.00
787.9730, 18867.00
789.1150, 18867.00
790.2560, 18866.78
791.3980, 18965.00
792.5390, 18941.00
793.6810, 19035.00
794.8220, 19205.00
795.9630, 19152.00
797.1030, 19088.00
798.2440, 19222.00
799.3840, 19382.00
800.5240, 19260.00
801.6650, 19454.00
802.8040, 19630.00
803.9440, 19476.00
805.0840, 19459.00
806.2230, 19605.00
807.3630, 19538.00
808.5020, 19688.00
809.6410, 19620.00
810.7790, 19942.00
811.9180, 19885.00
813.0570, 19718.00
814.1950, 19849.00
815.3330, 19736.00
816.4710, 19908.00
817.6090, 20056.00
818.7470, 19990.00
819.8840, 20063.00
821.0220, 20100.00
822.1590, 20174.00
823.2960, 20204.00
824.4330, 20349.00
825.5690, 20352.00
826.7060, 20262.00
827.8420, 20440.00
828.9790, 20370.00
830.1150, 20413.00
831.2510, 20379.00
832.3860, 20541.00
833.5220, 20554.00
834.6570, 20763.00
835.7930, 20590.00
836.9280, 20742.00
838.0630, 20670.00
839.1980, 20685.00
840.3320, 20822.00
841.4670, 20922.00
842.6010, 20823.00
843.7350, 21007.00
844.8690, 20970.00
846.0030, 21067.00
847.1370, 20981.00
848.2700, 21019.00
849.4040, 21160.00
850.5370, 21180.00
851.6700, 21191.00
852.8030, 21441.00
853.9360, 21518.00
855.0680, 21385.00
856.2000, 21328.00
857.3330, 21465.00
858.4650, 21511.00
859.5970, 21702.00
860.7290, 21573.00
861.8600, 21454.00
862.9920, 21776.00
864.1230, 21956.00
865.2540, 21532.00
866.3850, 21941.00
867.5160, 21979.00
868.6460, 21722.00
869.7770, 21838.00
870.9070, 21873.00
872.0370, 22017.00
873.1670, 21990.00
874.2970, 22004.00
875.4270, 22044.00
876.5570, 21948.00
877.6860, 22055.00
878.8150, 22090.00
879.9440, 22199.00
881.0730, 22209.00
882.2020, 22334.00
883.3300, 22079.00
884.4590, 22350.00
885.5870, 22138.00
886.7150, 22318.00
887.8430, 22419.00
888.9710, 22502.00
890.0990, 22562.00
891.2260, 22635.68
892.3530, 22748.00
893.4810, 22719.00
894.6080, 22698.00
895.7340, 22663.00
896.8610, 22751.00
897.9880, 22640.00
899.1140, 22807.00
900.2400, 23017.00
901.3660, 22954.00
902.4920, 23115.00
903.6180, 23184.00
904.7430, 23011.00
905.8690, 23530.00
906.9940, 23611.00
908.1190, 23674.00
909.2440, 23653.00
910.3690, 23754.00
911.4930, 23798.00
912.6180, 23756.00
913.7420, 23738.00
914.8660, 23869.00
915.9900, 23833.00
917.1140, 23646.00
918.2380, 24000.00
919.3610, 23824.00
920.4850, 23794.00
921.6080, 24014.00
922.7310, 23798.00
923.8540, 23900.00
924.9760, 24009.00
926.0990, 24077.00
927.2210, 24106.00
928.3440, 24361.00
929.4660, 24142.00
930.5880, 24362.00
931.7090, 24209.00
932.8310, 24434.00
933.9520, 24367.00
935.0740, 24579.00
936.1950, 24427.00
937.3160, 24567.00
938.4360, 24715.00
939.5570, 24748.00
940.6780, 24743.00
941.7980, 24637.00
942.9180, 24592.00
944.0380, 24641.61
945.1580, 24837.00
946.2780, 24720.00
947.3970, 25007.00
948.5170, 24984.00
949.6360, 25112.00
950.7550, 25288.00
951.8740, 25263.00
952.9930, 25244.00
954.1110, 25462.00
955.2300, 25486.00
956.3480, 25548.00
957.4660, 25703.00
958.5840, 25838.00
959.7020, 25924.00
960.8190, 26120.00
961.9370, 26153.00
963.0540, 26372.00
964.1710, 26736.00
965.2880, 26690.00
966.4050, 26925.00
967.5220, 27063.00
968.6380, 27068.00
969.7550, 27428.00
970.8710, 27586.00
971.9870, 27719.00
973.1030, 27690.00
974.2190, 27624.00
975.3340, 27794.00
976.4500, 27607.00
977.5650, 27610.00
978.6800, 27434.00
979.7950, 27533.00
980.9100, 27610.00
982.0250, 27223.00
983.1390, 27586.00
984.2530, 27407.00
985.3680, 27369.00
986.4820, 27597.00
987.5950, 27522.00
988.7090, 27732.00
989.8230, 27929.00
990.9360, 27779.00
992.0490, 28109.00
993.1620, 27926.00
994.2750, 28564.00
995.3880, 28256.00
996.5010, 28501.00
997.6130, 28528.00
998.7250, 28404.00
999.8370, 28670.00
1000.949, 28646.00
1002.061, 28909.00
1003.173, 28974.00
1004.284, 28995.00
1005.396, 28978.00
1006.507, 28895.00
1007.618, 28799.00
1008.729, 28562.00
1009.839, 28424.00
1010.950, 28560.00
1012.060, 28584.00
1013.171, 28704.89
1014.281, 28979.00
1015.391, 29061.00
1016.500, 29380.00
1017.610, 29610.00
1018.719, 30116.00
1019.829, 30496.00
1020.938, 30679.00
1022.047, 31078.00
1023.156, 31727.00
1024.264, 31858.00
1025.373, 31735.00
1026.481, 32084.00
1027.589, 31764.00
1028.697, 31303.00
1029.805, 31198.00
1030.913, 30752.00
1032.020, 30500.00
1033.128, 30090.00
1034.235, 29997.00
1035.342, 29751.00
1036.449, 29505.00
1037.556, 29609.00
1038.663, 29494.00
1039.769, 29430.00
1040.875, 29544.00
1041.981, 29410.00
1043.087, 29482.00
1044.193, 29518.00
1045.299, 29736.00
1046.404, 29665.73
1047.510, 29548.00
1048.615, 29614.00
1049.720, 29552.00
1050.825, 29534.00
1051.930, 29841.00
1053.034, 29682.00
1054.139, 29733.00
1055.243, 29976.00
1056.347, 29974.00
1057.451, 29753.00
1058.555, 30081.00
1059.658, 30005.00
1060.762, 30070.00
1061.865, 30209.00
1062.968, 30400.00
1064.071, 30259.00
1065.174, 30150.00
1066.277, 30342.00
1067.380, 30474.00
1068.482, 30520.00
1069.584, 30671.00
1070.686, 30760.00
1071.788, 30784.00
1072.890, 30662.00
1073.992, 30731.00
1075.093, 30778.00
1076.194, 31136.00
1077.295, 31010.00
1078.396, 31232.00
1079.497, 31178.00
1080.598, 31395.00
1081.698, 31292.00
1082.799, 31256.00
1083.899, 31339.00
1084.999, 31674.00
1086.099, 31545.00
1087.199, 31567.00
1088.298, 31348.00
1089.398, 31586.00
1090.497, 31560.00
1091.596, 31912.00
1092.695, 31764.00
1093.794, 31782.00
1094.892, 31806.00
1095.991, 32020.00
1097.089, 31794.00
1098.187, 32269.00
1099.285, 32238.00
1100.383, 32190.00
1101.481, 32300.00
1102.579, 32202.00
1103.676, 32459.00
1104.773, 32544.00
1105.870, 32362.00
1106.967, 32407.00
1108.064, 32660.00
1109.161, 32746.00
1110.257, 32912.00
1111.353, 32554.00
1112.449, 32818.00
1113.545, 32948.00
1114.641, 33024.00
1115.737, 33338.00
1116.832, 33157.00
1117.928, 33213.00
1119.023, 33356.00
1120.118, 33204.00
1121.213, 33505.00
1122.308, 33488.00
1123.402, 33662.00
1124.497, 33634.00
1125.591, 33957.00
1126.685, 33584.00
1127.779, 33818.00
1128.873, 33892.00
1129.967, 33722.00
1131.060, 33978.00
1132.153, 33926.00
1133.247, 33680.00
1134.340, 33843.00
1135.433, 33850.94
1136.525, 34247.00
1137.618, 34182.00
1138.710, 34232.00
1139.802, 34557.00
1140.895, 34318.00
1141.987, 34474.00
1143.078, 34653.00
1144.170, 34730.00
1145.261, 34848.89
1146.353, 34912.72
1147.444, 34972.00
1148.535, 34990.00
1149.626, 34962.00
1150.716, 34973.00
1151.807, 35071.18
1152.897, 35091.34
1153.988, 35275.00
1155.078, 35255.00
1156.168, 35297.00
1157.257, 35442.00
1158.347, 35625.00
1159.436, 35740.00
1160.526, 35968.00
1161.615, 35621.00
1162.704, 35706.00
1163.793, 35670.00
1164.881, 35766.00
1165.970, 36105.00
1167.058, 36222.00
1168.147, 36017.00
1169.235, 36326.00
1170.323, 36232.00
1171.410, 36256.00
1172.498, 36183.00
1173.585, 36352.00
1174.673, 36393.00
1175.760, 36708.00
1176.847, 36634.00
1177.934, 36562.00
1179.020, 36806.00
1180.107, 36560.00
1181.193, 37082.00
1182.279, 36858.00
1183.365, 36841.00
1184.451, 37123.00
1185.537, 36925.00
1186.623, 36813.00
1187.708, 37380.00
1188.793, 37130.00
1189.878, 37291.00
1190.963, 37459.00
1192.048, 37501.00
1193.133, 37468.00
1194.217, 37587.02
1195.302, 37616.76
1196.386, 37726.00
1197.470, 37782.00
1198.554, 37896.00
1199.638, 38041.00
1200.721, 38098.00
1201.805, 38188.05
1202.888, 38273.16
1203.971, 38280.00
1205.054, 38387.00
1206.137, 38373.00
1207.219, 38360.00
1208.302, 38594.00
1209.384, 38686.00
1210.466, 38774.00
1211.548, 38766.00
1212.630, 39100.00
1213.712, 38944.00
1214.794, 38862.00
1215.875, 39119.00
1216.956, 39001.00
1218.037, 39316.00
1219.118, 39357.00
1220.199, 39194.00
1221.280, 39342.00
1222.360, 39556.00
1223.441, 39377.00
1224.521, 39657.00
1225.601, 39701.00
1226.681, 39704.00
1227.760, 39760.00
1228.840, 40016.00
1229.919, 39914.00
1230.999, 40259.00
1232.078, 40044.00
1233.157, 40341.00
1234.236, 40311.00
1235.314, 40372.00
1236.393, 40622.00
##END=



