##NAMES=Pectolite
##RRUFFID=R050396
##IDEAL CHEMISTRY=NaCa_2_Si_3_O_8_(OH)
##LOCALITY=Jeffrey Quarry, Asbestos, Quebec, Canada
##OWNER=RRUFF
##SOURCE=Marcus Origlieri
##DESCRIPTION=Colorless to gray columnar blocky crystals
##STATUS=The identification of this mineral has been confirmed by X-ray diffraction and chemical analysis
##URL=rruff.info/R050396
##MEASURED CHEMISTRY=Na_1.00_Ca_2.00_Si_3.00_O_8_(OH)
##PIN_ID=L01945
##ORIENTATION=Laser parallel to (1 1 0). Fiducial mark perpendicular to laser is parallel to c [0 0 1]
164.6200, 20847.00
165.8510, 20879.27
167.0820, 21171.00
168.3130, 20931.00
169.5440, 21121.00
170.7750, 21224.00
172.0050, 21133.00
173.2350, 21114.00
174.4650, 21003.00
175.6950, 21031.00
176.9250, 21372.00
178.1550, 21315.00
179.3840, 21536.00
180.6130, 21594.68
181.8420, 21445.00
183.0710, 21624.00
184.3000, 21585.00
185.5280, 21469.00
186.7570, 21573.00
187.9850, 21623.00
189.2130, 21559.00
190.4400, 21524.00
191.6680, 21708.00
192.8960, 21576.00
194.1230, 21603.00
195.3500, 21576.00
196.5770, 21557.80
197.8030, 21704.00
199.0300, 21599.00
200.2560, 21717.00
201.4830, 21796.00
202.7090, 21835.00
203.9340, 21909.00
205.1600, 21784.00
206.3860, 21827.00
207.6110, 21800.00
208.8360, 21918.00
210.0610, 21829.00
211.2860, 21818.00
212.5100, 21910.00
213.7350, 22162.00
214.9590, 21881.00
216.1830, 22056.00
217.4070, 21946.00
218.6310, 21921.00
219.8540, 22072.00
221.0780, 22139.00
222.3010, 22163.00
223.5240, 22030.00
224.7470, 22172.00
225.9690, 22215.00
227.1920, 22119.00
228.4140, 22189.00
229.6360, 22191.00
230.8580, 22138.00
232.0800, 22217.00
233.3020, 22109.00
234.5230, 22254.00
235.7440, 22348.00
236.9650, 22548.00
238.1860, 22237.00
239.4070, 22076.00
240.6280, 22374.00
241.8480, 22167.00
243.0680, 22169.00
244.2880, 22236.00
245.5080, 22132.00
246.7280, 22370.00
247.9470, 22320.00
249.1660, 22330.00
250.3860, 22327.00
251.6040, 22306.00
252.8230, 22454.00
254.0420, 22408.00
255.2600, 22536.00
256.4790, 22445.00
257.6970, 22492.00
258.9150, 22438.00
260.1320, 22654.00
261.3500, 22545.00
262.5670, 22775.00
263.7840, 22605.00
265.0010, 22833.00
266.2180, 22840.00
267.4350, 22870.00
268.6510, 22729.00
269.8680, 23002.00
271.0840, 23144.00
272.3000, 23378.00
273.5160, 23157.00
274.7310, 23282.00
275.9470, 23246.00
277.1620, 23202.00
278.3770, 23263.73
279.5920, 23233.46
280.8070, 23283.00
282.0210, 23300.00
283.2360, 23276.00
284.4500, 23415.00
285.6640, 23273.00
286.8780, 23011.00
288.0920, 23077.00
289.3050, 23133.00
290.5180, 22935.00
291.7320, 23064.00
292.9450, 23096.00
294.1570, 23166.00
295.3700, 22960.00
296.5830, 22972.00
297.7950, 23007.00
299.0070, 23143.00
300.2190, 23105.00
301.4310, 23278.00
302.6420, 23225.00
303.8540, 23129.00
305.0650, 23277.00
306.2760, 23278.00
307.4870, 23428.00
308.6980, 23353.00
309.9080, 23463.00
311.1190, 23472.95
312.3290, 23487.00
313.5390, 23485.00
314.7490, 23533.00
315.9580, 23507.00
317.1680, 23599.00
318.3770, 23502.00
319.5860, 23513.00
320.7950, 23446.00
322.0040, 23451.00
323.2130, 23478.00
324.4210, 23405.00
325.6290, 23387.00
326.8380, 23344.00
328.0460, 23568.00
329.2530, 23443.00
330.4610, 23495.00
331.6680, 23509.00
332.8760, 23301.00
334.0830, 23578.00
335.2890, 23426.00
336.4960, 23446.00
337.7030, 23488.00
338.9090, 23662.00
340.1150, 23570.00
341.3210, 23627.00
342.5270, 23563.00
343.7330, 23615.00
344.9380, 23766.00
346.1440, 23798.00
347.3490, 23706.00
348.5540, 23727.00
349.7590, 23681.00
350.9630, 23670.00
352.1680, 23637.00
353.3720, 23791.00
354.5760, 23670.00
355.7800, 23924.00
356.9840, 23962.00
358.1870, 23992.00
359.3910, 23861.00
360.5940, 23896.00
361.7970, 23886.00
363.0000, 23959.00
364.2030, 23883.00
365.4050, 23875.00
366.6080, 23999.00
367.8100, 23958.00
369.0120, 23878.00
370.2140, 23774.00
371.4150, 24038.00
372.6170, 23785.00
373.8180, 24272.00
375.0190, 24144.00
376.2200, 24048.00
377.4210, 24100.00
378.6220, 24015.00
379.8220, 24029.18
381.0230, 24145.00
382.2230, 24031.00
383.4230, 24118.00
384.6220, 24095.00
385.8220, 24167.00
387.0220, 24094.00
388.2210, 24125.00
389.4200, 24216.00
390.6190, 24039.00
391.8180, 24153.00
393.0160, 24108.00
394.2150, 24215.00
395.4130, 24380.00
396.6110, 24282.00
397.8090, 24395.11
399.0060, 24407.00
400.2040, 24421.00
401.4010, 24283.00
402.5980, 24215.00
403.7950, 24467.00
404.9920, 24372.00
406.1890, 24473.00
407.3860, 24484.82
408.5820, 24403.00
409.7780, 24418.00
410.9740, 24523.00
412.1700, 24433.00
413.3650, 24541.00
414.5610, 24576.00
415.7560, 24580.00
416.9510, 24567.00
418.1460, 24701.00
419.3410, 24814.00
420.5360, 24648.00
421.7300, 24506.00
422.9240, 24509.00
424.1180, 24628.00
425.3120, 24568.00
426.5060, 24725.00
427.7000, 24546.00
428.8930, 24621.00
430.0860, 24720.00
431.2790, 24620.00
432.4720, 24687.00
433.6650, 24661.00
434.8580, 24685.00
436.0500, 24676.00
437.2420, 24743.00
438.4340, 24770.00
439.6260, 24695.00
440.8180, 24759.00
442.0090, 24791.00
443.2010, 24867.00
444.3920, 24826.00
445.5830, 24896.00
446.7740, 25001.00
447.9640, 24811.00
449.1550, 24845.00
450.3450, 24915.00
451.5350, 24825.00
452.7250, 24827.00
453.9150, 24931.00
455.1050, 25140.00
456.2940, 24921.00
457.4830, 24851.00
458.6720, 25065.00
459.8610, 25040.00
461.0500, 25205.00
462.2390, 25185.00
463.4270, 25241.00
464.6150, 25295.70
465.8040, 25209.00
466.9910, 25383.00
468.1790, 25171.00
469.3670, 25250.00
470.5540, 25376.00
471.7410, 25242.00
472.9280, 25280.00
474.1150, 25535.00
475.3020, 25380.00
476.4890, 25306.00
477.6750, 25456.00
478.8610, 25311.00
480.0470, 25376.00
481.2330, 25382.36
482.4190, 25446.00
483.6040, 25424.00
484.7900, 25429.00
485.9750, 25518.00
487.1600, 25616.00
488.3450, 25530.00
489.5290, 25590.00
490.7140, 25582.00
491.8980, 25370.00
493.0820, 25761.00
494.2660, 25366.00
495.4500, 25567.00
496.6340, 25789.00
497.8170, 25667.00
499.0010, 25948.00
500.1840, 26075.00
501.3670, 25910.00
502.5500, 26099.00
503.7320, 25837.00
504.9150, 25762.00
506.0970, 25903.00
507.2790, 25992.00
508.4610, 25988.00
509.6430, 26011.00
510.8250, 25891.00
512.0060, 26124.00
513.1870, 25709.00
514.3680, 25940.00
515.5490, 25861.00
516.7300, 26291.00
517.9110, 26017.00
519.0910, 25979.00
520.2710, 26286.00
521.4510, 26063.00
522.6310, 26230.00
523.8110, 26318.00
524.9910, 26344.00
526.1700, 26250.00
527.3490, 26197.00
528.5280, 26176.00
529.7070, 26274.00
530.8860, 26274.00
532.0650, 26214.00
533.2430, 26418.00
534.4210, 26340.00
535.5990, 26242.00
536.7770, 26281.00
537.9550, 26256.00
539.1320, 26361.00
540.3100, 26301.00
541.4870, 26435.00
542.6640, 26527.00
543.8410, 26352.00
545.0170, 26514.00
546.1940, 26455.00
547.3700, 26436.00
548.5470, 26542.00
549.7230, 26441.00
550.8980, 26490.00
552.0740, 26662.00
553.2500, 26372.00
554.4250, 26486.00
555.6000, 26472.00
556.7750, 26521.00
557.9500, 26709.00
559.1250, 26544.00
560.2990, 26623.00
561.4730, 26655.00
562.6480, 26864.00
563.8220, 26743.00
564.9950, 26558.00
566.1690, 26885.00
567.3430, 26991.00
568.5160, 26878.00
569.6890, 26943.00
570.8620, 27000.00
572.0350, 26955.00
573.2070, 27033.00
574.3800, 27032.00
575.5520, 26854.00
576.7240, 27215.00
577.8960, 27037.00
579.0680, 26958.00
580.2400, 26789.00
581.4110, 27013.00
582.5830, 26972.00
583.7540, 27270.00
584.9250, 27071.00
586.0950, 27195.00
587.2660, 27101.00
588.4370, 27078.00
589.6070, 27127.00
590.7770, 27241.00
591.9470, 27341.00
593.1170, 27239.00
594.2860, 27286.00
595.4560, 27192.00
596.6250, 27303.00
597.7940, 27330.43
598.9630, 27129.00
600.1320, 27502.00
601.3000, 27488.00
602.4690, 27627.00
603.6370, 27565.00
604.8050, 27661.00
605.9730, 27478.00
607.1410, 27609.00
608.3090, 27675.00
609.4760, 27572.00
610.6430, 27756.00
611.8100, 27629.00
612.9770, 27820.00
614.1440, 27597.00
615.3110, 27730.00
616.4770, 27598.00
617.6430, 27833.00
618.8090, 28041.00
619.9750, 27752.00
621.1410, 27751.00
622.3070, 27831.00
623.4720, 27817.00
624.6370, 28005.00
625.8020, 28033.00
626.9670, 28119.44
628.1320, 28179.30
629.2970, 28261.00
630.4610, 28237.00
631.6250, 28252.00
632.7890, 28265.00
633.9530, 28332.00
635.1170, 28367.00
636.2810, 28315.00
637.4440, 28468.00
638.6070, 28657.00
639.7700, 28903.00
640.9330, 28935.00
642.0960, 28924.00
643.2590, 28900.00
644.4210, 29270.00
645.5830, 29682.00
646.7450, 29791.00
647.9070, 29838.00
649.0690, 30078.00
650.2310, 30490.00
651.3920, 30888.00
652.5530, 30586.00
653.7140, 30521.00
654.8750, 30339.00
656.0360, 30023.00
657.1970, 29786.00
658.3570, 29419.00
659.5170, 29364.00
660.6770, 29190.00
661.8370, 28991.00
662.9970, 28930.00
664.1570, 29014.00
665.3160, 28973.00
666.4750, 29004.00
667.6340, 29011.90
668.7930, 28922.00
669.9520, 29043.00
671.1110, 29041.00
672.2690, 29127.00
673.4270, 29046.00
674.5850, 29012.00
675.7430, 29094.00
676.9010, 29086.00
678.0590, 29246.00
679.2160, 29383.00
680.3730, 29261.00
681.5300, 29228.00
682.6870, 29317.00
683.8440, 29148.00
685.0010, 29370.00
686.1570, 29348.00
687.3130, 29576.00
688.4690, 29643.00
689.6250, 29271.00
690.7810, 29430.00
691.9370, 29473.00
693.0920, 29258.00
694.2470, 29288.00
695.4020, 29566.00
696.5570, 29568.00
697.7120, 29615.00
698.8670, 29702.07
700.0210, 29690.27
701.1750, 29751.00
702.3290, 29716.00
703.4830, 29744.00
704.6370, 29768.00
705.7910, 29727.00
706.9440, 29897.00
708.0970, 29738.00
709.2510, 29756.00
710.4030, 29863.00
711.5560, 29990.00
712.7090, 30096.00
713.8610, 30069.01
715.0140, 29973.00
716.1660, 30008.00
717.3180, 30013.00
718.4690, 30060.00
719.6210, 30035.00
720.7730, 30137.00
721.9240, 29916.00
723.0750, 30153.00
724.2260, 29944.00
725.3770, 30072.00
726.5270, 29875.00
727.6780, 30146.00
728.8280, 30239.00
729.9780, 30197.00
731.1280, 30182.00
732.2780, 30375.00
733.4280, 30443.00
734.5770, 30446.00
735.7260, 30365.00
736.8760, 30464.00
738.0250, 30413.00
739.1730, 30169.00
740.3220, 30315.00
741.4700, 30393.00
742.6190, 30309.00
743.7670, 30528.00
744.9150, 30335.00
746.0630, 30340.00
747.2100, 30674.00
748.3580, 30521.00
749.5050, 30639.00
750.6520, 30814.00
751.7990, 30381.00
752.9460, 30610.00
754.0930, 30764.00
755.2390, 30791.00
756.3860, 30803.00
757.5320, 30778.00
758.6780, 31007.00
759.8240, 30822.00
760.9690, 31039.00
762.1150, 31167.00
763.2600, 30920.00
764.4060, 31047.00
765.5510, 31183.00
766.6950, 31126.00
767.8400, 31139.00
768.9850, 31085.00
770.1290, 31244.00
771.2730, 31302.00
772.4170, 31270.00
773.5610, 31112.00
774.7050, 31132.00
775.8480, 31295.00
776.9920, 31257.00
778.1350, 31404.00
779.2780, 31352.00
780.4210, 31352.00
781.5640, 31406.00
782.7060, 31449.00
783.8490, 31470.87
784.9910, 31634.00
786.1330, 31557.00
787.2750, 31476.00
788.4170, 31558.00
789.5580, 31677.00
790.7000, 31628.00
791.8410, 31789.00
792.9820, 31635.00
794.1230, 31716.00
795.2640, 31639.00
796.4040, 31678.00
797.5450, 31880.00
798.6850, 32005.00
799.8250, 31755.00
800.9650, 31920.00
802.1050, 31907.00
803.2450, 32044.00
804.3840, 32042.00
805.5230, 32154.00
806.6630, 32165.28
807.8020, 32198.00
808.9400, 32142.00
810.0790, 32320.00
811.2170, 32235.00
812.3560, 32394.00
813.4940, 32387.00
814.6320, 32259.00
815.7700, 32529.00
816.9070, 32484.00
818.0450, 32336.00
819.1820, 32667.00
820.3190, 32512.00
821.4560, 32721.00
822.5930, 32418.00
823.7300, 32297.00
824.8670, 32369.00
826.0030, 32541.00
827.1390, 32777.00
828.2750, 32815.00
829.4110, 32664.00
830.5470, 33020.00
831.6820, 32720.00
832.8180, 32690.00
833.9530, 32681.00
835.0880, 32971.00
836.2230, 32700.00
837.3580, 33050.00
838.4920, 33285.00
839.6270, 33026.00
840.7610, 32866.00
841.8950, 32923.00
843.0290, 32954.00
844.1630, 32917.00
845.2960, 33067.00
846.4300, 33375.00
847.5630, 33282.00
848.6960, 33467.00
849.8290, 33428.00
850.9620, 33435.00
852.0940, 33465.00
853.2270, 33581.00
854.3590, 33402.00
855.4910, 33693.00
856.6230, 33565.00
857.7550, 33356.00
858.8870, 33559.00
860.0180, 33498.00
861.1500, 33776.00
862.2810, 33723.00
863.4120, 33558.00
864.5430, 33608.00
865.6730, 33829.00
866.8040, 33597.00
867.9340, 33904.00
869.0640, 34305.00
870.1940, 33932.00
871.3240, 33767.00
872.4540, 34095.00
873.5830, 34193.00
874.7130, 34334.00
875.8420, 34170.00
876.9710, 34119.00
878.1000, 34147.00
879.2290, 34125.00
880.3570, 34214.00
881.4860, 34200.00
882.6140, 34320.00
883.7420, 34159.00
884.8700, 34316.00
885.9980, 34561.00
887.1250, 34267.00
888.2530, 34072.00
889.3800, 34271.00
890.5070, 34574.00
891.6340, 34356.00
892.7610, 34633.00
893.8880, 34617.00
895.0140, 34660.00
896.1400, 34792.00
897.2670, 34756.00
898.3930, 34890.00
899.5180, 34795.00
900.6440, 34871.00
901.7700, 34982.00
902.8950, 34860.00
904.0200, 34936.00
905.1450, 34782.00
906.2700, 34925.00
907.3950, 35154.00
908.5190, 35003.00
909.6440, 35109.00
910.7680, 35190.00
911.8920, 34857.00
913.0160, 35225.00
914.1400, 35349.00
915.2630, 35240.00
916.3870, 35511.00
917.5100, 35444.00
918.6330, 35427.00
919.7560, 35292.00
920.8790, 35418.00
922.0010, 35542.00
923.1240, 35656.00
924.2460, 35645.00
925.3680, 35655.00
926.4900, 35655.00
927.6120, 35495.00
928.7340, 35841.00
929.8550, 35843.00
930.9760, 35956.00
932.0980, 35670.00
933.2190, 35995.00
934.3390, 35836.00
935.4600, 35700.00
936.5810, 35856.00
937.7010, 35993.00
938.8210, 36060.00
939.9410, 36046.00
941.0610, 36312.00
942.1810, 36391.00
943.3010, 36329.00
944.4200, 36139.00
945.5390, 36257.00
946.6580, 36347.00
947.7770, 36248.00
948.8960, 36379.00
950.0150, 36329.00
951.1330, 36426.00
952.2510, 36581.00
953.3690, 36583.00
954.4870, 36508.00
955.6050, 36582.00
956.7230, 36800.00
957.8400, 37002.00
958.9580, 36783.00
960.0750, 36786.00
961.1920, 37196.00
962.3090, 37082.00
963.4250, 37208.00
964.5420, 37405.00
965.6580, 37609.00
966.7740, 37500.00
967.8900, 37461.00
969.0060, 37781.00
970.1220, 37734.00
971.2380, 37571.00
972.3530, 38052.00
973.4680, 37888.00
974.5830, 37907.00
975.6980, 38131.00
976.8130, 37878.00
977.9280, 37864.00
979.0420, 37966.00
980.1560, 38183.00
981.2710, 37918.00
982.3850, 37757.00
983.4980, 37874.00
984.6120, 38173.00
985.7260, 37832.00
986.8390, 37928.00
987.9520, 37804.00
989.0650, 37944.00
990.1780, 37763.00
991.2910, 38087.00
992.4030, 37961.00
993.5160, 38154.00
994.6280, 38517.00
995.7400, 38154.00
996.8520, 38339.00
997.9640, 38508.00
999.0750, 38475.00
1000.187, 38394.00
1001.298, 38334.00
1002.409, 38510.00
1003.520, 38339.00
1004.631, 38430.00
1005.741, 38372.00
1006.852, 38379.00
1007.962, 38535.00
1009.072, 38442.00
1010.182, 38487.00
1011.292, 38672.00
1012.402, 38772.00
1013.511, 38826.00
1014.621, 38899.00
1015.730, 38978.84
1016.839, 38934.00
1017.948, 39103.00
1019.056, 39113.00
1020.165, 39115.00
1021.273, 39465.00
1022.382, 39471.00
1023.490, 39413.00
1024.598, 39844.00
1025.706, 39619.00
1026.813, 39707.00
1027.921, 39757.00
1029.028, 39796.00
1030.135, 39537.00
1031.242, 39633.00
1032.349, 39238.00
1033.456, 39513.00
1034.562, 39426.00
1035.668, 39473.00
1036.775, 39673.00
1037.881, 39478.00
1038.987, 39709.00
1040.092, 39671.00
1041.198, 39715.00
1042.303, 39649.00
1043.408, 39627.00
1044.514, 39824.00
1045.618, 39899.00
1046.723, 39697.00
1047.828, 39797.00
1048.932, 40007.00
1050.037, 39913.00
1051.141, 39664.00
1052.245, 40136.00
1053.349, 39926.00
1054.452, 39978.00
1055.556, 40383.00
1056.659, 39858.00
1057.762, 40108.00
1058.865, 39926.00
1059.968, 40181.00
1061.071, 40407.00
1062.174, 40419.00
1063.276, 40182.00
1064.378, 40417.00
1065.480, 40247.00
1066.582, 40417.00
1067.684, 40590.00
1068.786, 40482.00
1069.887, 40489.00
1070.988, 40717.00
1072.090, 40351.00
1073.191, 40909.00
1074.291, 40794.00
1075.392, 40864.00
1076.493, 41228.00
1077.593, 41271.00
1078.693, 41341.92
1079.793, 41049.00
1080.893, 41358.00
1081.993, 41317.00
1083.092, 41299.00
1084.192, 41447.00
1085.291, 41258.00
1086.390, 41606.00
1087.489, 41303.00
1088.588, 41253.00
1089.686, 41481.00
1090.785, 41631.00
1091.883, 41559.00
1092.981, 41512.00
1094.079, 41422.00
1095.177, 41766.00
1096.275, 41652.00
1097.373, 41699.00
1098.470, 41611.00
1099.567, 41912.00
1100.664, 41953.00
1101.761, 41859.00
1102.858, 42064.00
1103.954, 41997.00
1105.051, 41769.00
1106.147, 41713.00
1107.243, 41688.00
1108.339, 42039.00
1109.435, 42046.00
1110.531, 42019.00
1111.626, 42360.00
1112.722, 42167.00
1113.817, 42282.00
1114.912, 42354.00
1116.007, 42084.00
1117.101, 42585.00
##END=



