##NAMES=Pectolite
##RRUFFID=R050396
##IDEAL CHEMISTRY=NaCa_2_Si_3_O_8_(OH)
##LOCALITY=Jeffrey Quarry, Asbestos, Quebec, Canada
##OWNER=RRUFF
##SOURCE=Marcus Origlieri
##DESCRIPTION=Colorless to gray columnar blocky crystals
##STATUS=The identification of this mineral has been confirmed by X-ray diffraction and chemical analysis
##URL=rruff.info/R050396
##MEASURED CHEMISTRY=Na_1.00_Ca_2.00_Si_3.00_O_8_(OH)
##PIN_ID=L01067
##ORIENTATION=Laser parallel to a* (1 0 0). Fiducial mark perpendicular to laser is parallel to -b [0 -1 0]
111.5030, 7285.000
112.7420, 7332.000
113.9810, 7342.000
115.2200, 7457.000
116.4580, 7496.000
117.6970, 7617.000
118.9350, 7675.000
120.1730, 7682.000
121.4100, 7784.000
122.6480, 7835.000
123.8850, 7897.000
125.1230, 8003.000
126.3600, 8084.898
127.5960, 8119.000
128.8330, 8293.000
130.0700, 8330.000
131.3060, 8427.000
132.5420, 8571.000
133.7780, 8537.000
135.0140, 8766.000
136.2500, 8829.000
137.4850, 8775.000
138.7200, 8886.000
139.9550, 9045.000
141.1900, 9205.000
142.4250, 9104.000
143.6600, 9101.000
144.8940, 9209.000
146.1280, 9110.000
147.3620, 9036.000
148.5960, 8991.000
149.8300, 9126.000
151.0630, 8993.000
152.2960, 9017.000
153.5300, 8933.000
154.7620, 8899.000
155.9950, 8972.000
157.2280, 8915.000
158.4600, 8948.000
159.6920, 8891.000
160.9250, 8826.000
162.1560, 8720.000
163.3880, 8866.000
164.6200, 8770.000
165.8510, 8929.000
167.0820, 8853.000
168.3130, 8896.000
169.5440, 8853.000
170.7750, 8826.000
172.0050, 8898.000
173.2350, 8916.000
174.4650, 9001.000
175.6950, 9071.000
176.9250, 8992.000
178.1550, 9153.000
179.3840, 9148.000
180.6130, 9116.000
181.8420, 9247.000
183.0710, 9333.000
184.3000, 9311.000
185.5280, 9264.000
186.7570, 9384.000
187.9850, 9381.000
189.2130, 9319.000
190.4400, 9441.000
191.6680, 9402.000
192.8960, 9329.000
194.1230, 9457.000
195.3500, 9586.000
196.5770, 9606.000
197.8030, 9720.000
199.0300, 9711.000
200.2560, 9904.000
201.4830, 9857.000
202.7090, 9947.000
203.9340, 9842.000
205.1600, 9860.000
206.3860, 9773.000
207.6110, 9801.000
208.8360, 9768.000
210.0610, 9866.000
211.2860, 9786.000
212.5100, 9838.000
213.7350, 9959.000
214.9590, 9994.000
216.1830, 10183.00
217.4070, 10039.00
218.6310, 10233.00
219.8540, 10069.00
221.0780, 10109.00
222.3010, 10276.00
223.5240, 10193.00
224.7470, 10318.00
225.9690, 10027.00
227.1920, 10055.00
228.4140, 10114.00
229.6360, 9967.000
230.8580, 9975.000
232.0800, 10005.00
233.3020, 9920.000
234.5230, 9837.000
235.7440, 9948.000
236.9650, 9849.000
238.1860, 9912.000
239.4070, 9846.000
240.6280, 9912.000
241.8480, 9917.000
243.0680, 9867.000
244.2880, 10024.00
245.5080, 10011.00
246.7280, 9883.000
247.9470, 10103.00
249.1660, 10095.00
250.3860, 10192.00
251.6040, 10144.00
252.8230, 10227.00
254.0420, 10219.00
255.2600, 10215.00
256.4790, 10390.00
257.6970, 10348.00
258.9150, 10430.00
260.1320, 10326.00
261.3500, 10393.00
262.5670, 10506.00
263.7840, 10438.00
265.0010, 10384.00
266.2180, 10470.00
267.4350, 10510.00
268.6510, 10421.00
269.8680, 10469.00
271.0840, 10460.00
272.3000, 10554.00
273.5160, 10519.00
274.7310, 10481.00
275.9470, 10462.00
277.1620, 10478.46
278.3770, 10482.49
279.5920, 10526.00
280.8070, 10547.00
282.0210, 10546.00
283.2360, 10601.00
284.4500, 10610.00
285.6640, 10715.00
286.8780, 10768.00
288.0920, 10489.00
289.3050, 10772.00
290.5180, 10618.00
291.7320, 10695.00
292.9450, 10656.00
294.1570, 10799.00
295.3700, 10814.00
296.5830, 10827.00
297.7950, 10889.52
299.0070, 10890.23
300.2190, 10885.00
301.4310, 10929.00
302.6420, 10811.00
303.8540, 10830.00
305.0650, 10832.00
306.2760, 11026.00
307.4870, 10943.00
308.6980, 10994.00
309.9080, 11036.00
311.1190, 10969.00
312.3290, 10989.00
313.5390, 11132.00
314.7490, 11170.00
315.9580, 11290.00
317.1680, 11193.00
318.3770, 11212.00
319.5860, 11210.00
320.7950, 11238.00
322.0040, 11336.00
323.2130, 11236.00
324.4210, 11372.00
325.6290, 11279.00
326.8380, 11442.00
328.0460, 11293.00
329.2530, 11275.00
330.4610, 11415.00
331.6680, 11447.00
332.8760, 11282.00
334.0830, 11263.00
335.2890, 11241.00
336.4960, 11398.00
337.7030, 11362.00
338.9090, 11464.00
340.1150, 11413.00
341.3210, 11450.00
342.5270, 11442.00
343.7330, 11458.00
344.9380, 11466.00
346.1440, 11431.00
347.3490, 11461.00
348.5540, 11482.58
349.7590, 11630.00
350.9630, 11550.00
352.1680, 11691.00
353.3720, 11713.00
354.5760, 11792.00
355.7800, 11711.00
356.9840, 11713.00
358.1870, 11713.00
359.3910, 11862.00
360.5940, 11843.00
361.7970, 11834.00
363.0000, 11816.00
364.2030, 11766.00
365.4050, 11902.00
366.6080, 11906.00
367.8100, 11973.00
369.0120, 11909.00
370.2140, 11988.00
371.4150, 12176.00
372.6170, 12008.00
373.8180, 12077.00
375.0190, 11939.00
376.2200, 12216.00
377.4210, 12242.00
378.6220, 12235.00
379.8220, 12311.00
381.0230, 12225.00
382.2230, 12082.00
383.4230, 12266.00
384.6220, 12093.00
385.8220, 12151.00
387.0220, 12103.00
388.2210, 12018.00
389.4200, 12212.00
390.6190, 12225.00
391.8180, 12223.00
393.0160, 12193.00
394.2150, 12235.00
395.4130, 12233.00
396.6110, 12290.00
397.8090, 12412.00
399.0060, 12526.00
400.2040, 12454.00
401.4010, 12418.00
402.5980, 12495.00
403.7950, 12514.00
404.9920, 12678.00
406.1890, 12706.00
407.3860, 12841.00
408.5820, 12870.00
409.7780, 12939.00
410.9740, 13178.00
412.1700, 13061.00
413.3650, 13220.00
414.5610, 13159.00
415.7560, 13189.00
416.9510, 13213.00
418.1460, 12978.00
419.3410, 12952.00
420.5360, 12922.00
421.7300, 12788.00
422.9240, 12801.00
424.1180, 12663.00
425.3120, 12594.00
426.5060, 12689.00
427.7000, 12612.00
428.8930, 12728.00
430.0860, 12643.00
431.2790, 12670.00
432.4720, 12751.00
433.6650, 12697.00
434.8580, 12742.00
436.0500, 12728.00
437.2420, 12694.00
438.4340, 12809.00
439.6260, 12797.00
440.8180, 12685.00
442.0090, 12764.00
443.2010, 12739.92
444.3920, 12904.00
445.5830, 12817.00
446.7740, 12852.00
447.9640, 12952.00
449.1550, 12984.00
450.3450, 13003.00
451.5350, 12895.00
452.7250, 12696.00
453.9150, 13005.00
455.1050, 12900.00
456.2940, 13040.00
457.4830, 12870.00
458.6720, 13130.00
459.8610, 13237.00
461.0500, 13240.00
462.2390, 13190.00
463.4270, 13257.42
464.6150, 13164.00
465.8040, 13302.00
466.9910, 13116.00
468.1790, 13125.00
469.3670, 13087.00
470.5540, 13351.00
471.7410, 13311.00
472.9280, 13196.00
474.1150, 13333.00
475.3020, 13276.00
476.4890, 13196.00
477.6750, 13351.00
478.8610, 13272.00
480.0470, 13431.00
481.2330, 13468.00
482.4190, 13385.00
483.6040, 13527.00
484.7900, 13508.00
485.9750, 13488.00
487.1600, 13544.00
488.3450, 13433.00
489.5290, 13559.00
490.7140, 13500.00
491.8980, 13632.00
493.0820, 13605.00
494.2660, 13541.00
495.4500, 13635.00
496.6340, 13718.00
497.8170, 13792.00
499.0010, 13845.12
500.1840, 13825.00
501.3670, 13900.00
502.5500, 13888.00
503.7320, 13847.00
504.9150, 13852.00
506.0970, 13859.04
507.2790, 13892.33
508.4610, 13906.00
509.6430, 13982.00
510.8250, 14023.00
512.0060, 14032.00
513.1870, 13973.00
514.3680, 14122.00
515.5490, 13977.00
516.7300, 14131.00
517.9110, 14082.00
519.0910, 14125.00
520.2710, 14080.00
521.4510, 14023.00
522.6310, 14231.00
523.8110, 14147.00
524.9910, 14077.00
526.1700, 14209.00
527.3490, 14235.00
528.5280, 14233.00
529.7070, 14362.00
530.8860, 14219.00
532.0650, 14359.00
533.2430, 14432.00
534.4210, 14389.00
535.5990, 14223.00
536.7770, 14472.00
537.9550, 14368.00
539.1320, 14300.00
540.3100, 14463.00
541.4870, 14420.00
542.6640, 14368.00
543.8410, 14473.00
545.0170, 14549.00
546.1940, 14401.00
547.3700, 14618.00
548.5470, 14486.00
549.7230, 14392.00
550.8980, 14603.00
552.0740, 14394.00
553.2500, 14711.00
554.4250, 14672.00
555.6000, 14712.00
556.7750, 14746.00
557.9500, 14704.00
559.1250, 14753.81
560.2990, 14796.64
561.4730, 14813.00
562.6480, 14889.00
563.8220, 14957.00
564.9950, 14935.00
566.1690, 14904.00
567.3430, 14966.00
568.5160, 14929.00
569.6890, 15003.00
570.8620, 14904.00
572.0350, 15081.00
573.2070, 14899.00
574.3800, 14971.00
575.5520, 15012.00
576.7240, 14947.00
577.8960, 15038.00
579.0680, 15194.00
580.2400, 15156.00
581.4110, 15036.00
582.5830, 15288.00
583.7540, 15128.00
584.9250, 15120.00
586.0950, 15317.00
587.2660, 15331.00
588.4370, 15276.00
589.6070, 15276.00
590.7770, 15283.00
591.9470, 15300.00
593.1170, 15251.00
594.2860, 15345.00
595.4560, 15606.00
596.6250, 15436.00
597.7940, 15528.00
598.9630, 15477.00
600.1320, 15437.00
601.3000, 15674.00
602.4690, 15612.00
603.6370, 15538.00
604.8050, 15739.00
605.9730, 15731.00
607.1410, 15561.00
608.3090, 15869.00
609.4760, 15786.00
610.6430, 15714.00
611.8100, 15959.00
612.9770, 15976.00
614.1440, 15773.00
615.3110, 15823.00
616.4770, 16049.00
617.6430, 16028.00
618.8090, 15996.00
619.9750, 15849.00
621.1410, 16147.00
622.3070, 16222.00
623.4720, 16000.00
624.6370, 16281.00
625.8020, 16275.00
626.9670, 16343.00
628.1320, 16310.00
629.2970, 16615.00
630.4610, 16442.00
631.6250, 16693.00
632.7890, 16576.00
633.9530, 16731.00
635.1170, 16744.00
636.2810, 16919.00
637.4440, 17123.00
638.6070, 17192.00
639.7700, 17499.00
640.9330, 17870.00
642.0960, 18046.00
643.2590, 18535.00
644.4210, 18872.00
645.5830, 19633.00
646.7450, 20031.00
647.9070, 20640.00
649.0690, 21431.00
650.2310, 22071.00
651.3920, 22144.00
652.5530, 22364.00
653.7140, 21708.00
654.8750, 21005.00
656.0360, 20269.00
657.1970, 19467.00
658.3570, 18801.00
659.5170, 18276.00
660.6770, 18140.00
661.8370, 17726.00
662.9970, 17597.00
664.1570, 17522.00
665.3160, 17448.00
666.4750, 17255.00
667.6340, 17141.00
668.7930, 17337.00
669.9520, 17370.00
671.1110, 17155.00
672.2690, 17057.00
673.4270, 17200.00
674.5850, 17343.00
675.7430, 17283.00
676.9010, 17225.00
678.0590, 17257.00
679.2160, 17341.00
680.3730, 17254.00
681.5300, 17425.00
682.6870, 17618.00
683.8440, 17577.00
685.0010, 17782.00
686.1570, 17494.00
687.3130, 17505.00
688.4690, 17575.00
689.6250, 17655.00
690.7810, 17552.00
691.9370, 17610.00
693.0920, 17633.00
694.2470, 17519.00
695.4020, 17702.00
696.5570, 17569.00
697.7120, 17531.00
698.8670, 17748.00
700.0210, 17795.00
701.1750, 17651.00
702.3290, 17584.00
703.4830, 17630.00
704.6370, 17676.00
705.7910, 17743.00
706.9440, 17774.85
708.0970, 17807.80
709.2510, 17860.00
710.4030, 17840.00
711.5560, 17898.00
712.7090, 17889.00
713.8610, 17910.00
715.0140, 17736.00
716.1660, 18065.00
717.3180, 17946.00
718.4690, 18050.00
719.6210, 18224.00
720.7730, 18146.00
721.9240, 18028.00
723.0750, 18127.00
724.2260, 18166.00
725.3770, 18304.00
726.5270, 18295.00
727.6780, 18302.00
728.8280, 18402.00
729.9780, 18421.00
731.1280, 18415.00
732.2780, 18426.00
733.4280, 18437.00
734.5770, 18458.00
735.7260, 18406.00
736.8760, 18550.00
738.0250, 18472.00
739.1730, 18558.00
740.3220, 18567.00
741.4700, 18663.00
742.6190, 18664.00
743.7670, 18713.03
744.9150, 18756.83
746.0630, 18780.00
747.2100, 18809.00
748.3580, 18827.00
749.5050, 18812.00
750.6520, 19063.00
751.7990, 18706.00
752.9460, 18970.00
754.0930, 18855.00
755.2390, 18962.00
756.3860, 18867.00
757.5320, 18898.00
758.6780, 18839.00
759.8240, 18948.00
760.9690, 19098.00
762.1150, 19254.00
763.2600, 18992.00
764.4060, 19176.00
765.5510, 19210.00
766.6950, 19182.00
767.8400, 19259.00
768.9850, 19381.00
770.1290, 19332.00
771.2730, 19205.00
772.4170, 19269.00
773.5610, 19343.00
774.7050, 19450.00
775.8480, 19398.00
776.9920, 19563.00
778.1350, 19527.00
779.2780, 19602.00
780.4210, 19567.00
781.5640, 19653.00
782.7060, 19570.00
783.8490, 19620.00
784.9910, 19725.00
786.1330, 19648.00
787.2750, 19827.00
788.4170, 19801.00
789.5580, 19935.00
790.7000, 19961.00
791.8410, 19991.00
792.9820, 20006.50
794.1230, 20042.00
795.2640, 19927.00
796.4040, 20000.00
797.5450, 19885.00
798.6850, 19979.00
799.8250, 20118.00
800.9650, 19915.00
802.1050, 20187.00
803.2450, 20161.00
804.3840, 20128.00
805.5230, 20333.00
806.6630, 20407.00
807.8020, 20359.00
808.9400, 20292.00
810.0790, 20432.00
811.2170, 20377.00
812.3560, 20534.00
813.4940, 20476.00
814.6320, 20674.00
815.7700, 20578.00
816.9070, 20657.00
818.0450, 20750.00
819.1820, 20650.00
820.3190, 20726.00
821.4560, 20799.00
822.5930, 20644.00
823.7300, 20748.00
824.8670, 20926.00
826.0030, 20851.00
827.1390, 20751.00
828.2750, 20866.00
829.4110, 20991.00
830.5470, 21121.00
831.6820, 21098.00
832.8180, 21093.00
833.9530, 20924.00
835.0880, 20942.00
836.2230, 21260.00
837.3580, 21183.00
838.4920, 21360.00
839.6270, 21133.00
840.7610, 21423.00
841.8950, 21270.00
843.0290, 21448.00
844.1630, 21569.00
845.2960, 21501.00
846.4300, 21637.00
847.5630, 21764.00
848.6960, 21538.00
849.8290, 21712.00
850.9620, 21608.00
852.0940, 21713.00
853.2270, 21730.00
854.3590, 21911.00
855.4910, 21830.00
856.6230, 21753.00
857.7550, 21804.00
858.8870, 21659.00
860.0180, 22059.00
861.1500, 21935.00
862.2810, 22016.00
863.4120, 21966.00
864.5430, 22157.00
865.6730, 22096.00
866.8040, 22131.00
867.9340, 22160.00
869.0640, 22199.11
870.1940, 22161.00
871.3240, 22299.00
872.4540, 22315.00
873.5830, 22277.00
874.7130, 22238.00
875.8420, 22531.00
876.9710, 22377.00
878.1000, 22654.00
879.2290, 22571.00
880.3570, 22489.00
881.4860, 22566.00
882.6140, 22634.00
883.7420, 22686.00
884.8700, 22780.00
885.9980, 22647.00
887.1250, 22741.00
888.2530, 22799.00
889.3800, 22759.00
890.5070, 22815.00
891.6340, 22741.00
892.7610, 22981.00
893.8880, 22773.00
895.0140, 22958.00
896.1400, 23122.00
897.2670, 22989.00
898.3930, 23004.00
899.5180, 23087.00
900.6440, 23204.00
901.7700, 23351.00
902.8950, 23240.00
904.0200, 23382.00
905.1450, 23513.00
906.2700, 23411.00
907.3950, 23790.00
908.5190, 23586.00
909.6440, 23639.00
910.7680, 23906.00
911.8920, 23510.00
913.0160, 23871.00
914.1400, 23968.00
915.2630, 23738.00
916.3870, 23957.00
917.5100, 23751.00
918.6330, 23774.00
919.7560, 24019.00
920.8790, 23881.00
922.0010, 24008.00
923.1240, 24152.00
924.2460, 24050.00
925.3680, 24035.00
926.4900, 24068.00
927.6120, 24141.00
928.7340, 24283.00
929.8550, 24279.00
930.9760, 24375.03
932.0980, 24492.00
933.2190, 24468.00
934.3390, 24444.00
935.4600, 24429.00
936.5810, 24544.00
937.7010, 24868.00
938.8210, 24749.00
939.9410, 24822.00
941.0610, 24782.00
942.1810, 24724.00
943.3010, 24746.00
944.4200, 24926.00
945.5390, 24749.00
946.6580, 24980.00
947.7770, 24885.00
948.8960, 25074.00
950.0150, 25287.00
951.1330, 25140.00
952.2510, 25401.00
953.3690, 25165.00
954.4870, 25297.00
955.6050, 25280.00
956.7230, 25428.00
957.8400, 25255.00
958.9580, 25384.00
960.0750, 25477.47
961.1920, 25708.00
962.3090, 25832.00
963.4250, 25771.00
964.5420, 26126.00
965.6580, 26261.00
966.7740, 26019.00
967.8900, 26163.00
969.0060, 26357.00
970.1220, 26476.00
971.2380, 26599.00
972.3530, 26663.35
973.4680, 26816.00
974.5830, 26673.00
975.6980, 26681.00
976.8130, 26559.00
977.9280, 26574.00
979.0420, 26538.27
980.1560, 26569.00
981.2710, 26485.00
982.3850, 26551.00
983.4980, 26492.00
984.6120, 26571.00
985.7260, 26604.00
986.8390, 26708.00
987.9520, 26586.00
989.0650, 26644.00
990.1780, 26684.00
991.2910, 26823.00
992.4030, 26939.00
993.5160, 26961.00
994.6280, 27049.00
995.7400, 27236.00
996.8520, 27040.00
997.9640, 27347.00
999.0750, 27289.00
1000.187, 27267.00
1001.298, 27057.00
1002.409, 27419.00
1003.520, 27272.00
1004.631, 27383.00
1005.741, 27355.00
1006.852, 27235.00
1007.962, 27692.00
1009.072, 27777.00
1010.182, 27617.00
1011.292, 27512.00
1012.402, 27572.00
1013.511, 27823.00
1014.621, 27814.00
1015.730, 28017.00
1016.839, 28005.00
1017.948, 28254.00
1019.056, 28388.00
1020.165, 28570.00
1021.273, 28560.00
1022.382, 28903.00
1023.490, 29160.00
1024.598, 28873.00
1025.706, 29347.00
1026.813, 29199.00
1027.921, 29018.00
1029.028, 29085.00
1030.135, 28995.00
1031.242, 28751.00
1032.349, 28846.00
1033.456, 28482.00
1034.562, 28766.00
1035.668, 28585.00
1036.775, 28714.00
1037.881, 28736.00
1038.987, 28784.00
1040.092, 28700.00
1041.198, 28807.00
1042.303, 28639.00
1043.408, 28631.00
1044.514, 28799.00
1045.618, 28921.00
1046.723, 28803.00
1047.828, 28825.00
1048.932, 28860.00
1050.037, 29069.00
1051.141, 28891.00
1052.245, 29189.00
1053.349, 29041.00
1054.452, 29011.00
1055.556, 29408.00
1056.659, 29225.00
1057.762, 29326.00
1058.865, 29232.00
1059.968, 29236.53
1061.071, 29406.00
1062.174, 29304.00
1063.276, 29501.00
1064.378, 29631.00
1065.480, 29722.00
1066.582, 29759.00
1067.684, 29609.00
1068.786, 29765.00
1069.887, 29782.00
1070.988, 29674.00
1072.090, 29855.00
1073.191, 29797.00
1074.291, 29954.00
1075.392, 30156.00
1076.493, 30226.00
1077.593, 30272.00
1078.693, 30263.00
1079.793, 30331.00
1080.893, 30453.00
1081.993, 30393.00
1083.092, 30327.00
1084.192, 30517.00
1085.291, 30483.00
1086.390, 30576.00
1087.489, 30599.00
1088.588, 30762.00
1089.686, 30792.05
1090.785, 30872.74
1091.883, 30876.00
1092.981, 30980.00
1094.079, 30951.00
##END=



