##NAMES=Pectolite
##RRUFFID=R050396
##IDEAL CHEMISTRY=NaCa_2_Si_3_O_8_(OH)
##LOCALITY=Jeffrey Quarry, Asbestos, Quebec, Canada
##OWNER=RRUFF
##SOURCE=Marcus Origlieri
##DESCRIPTION=Colorless to gray columnar blocky crystals
##STATUS=The identification of this mineral has been confirmed by X-ray diffraction and chemical analysis
##URL=rruff.info/R050396
##MEASURED CHEMISTRY=Na_1.00_Ca_2.00_Si_3.00_O_8_(OH)
##PIN_ID=M00143
##ORIENTATION=Laser parallel to -b* (0 -1 0). Fiducial mark perpendicular to laser is parallel to c [0 0 1]
123.8850, 16225.00
125.1230, 16335.00
126.3600, 16318.00
127.5960, 16206.00
128.8330, 16617.00
130.0700, 16574.00
131.3060, 16822.00
132.5420, 16820.00
133.7780, 16579.00
135.0140, 17084.00
136.2500, 16926.00
137.4850, 17135.00
138.7200, 17170.00
139.9550, 17434.00
141.1900, 17357.00
142.4250, 17554.00
143.6600, 17572.00
144.8940, 17638.00
146.1280, 17669.00
147.3620, 17708.00
148.5960, 17659.00
149.8300, 17859.00
151.0630, 17777.00
152.2960, 17793.00
153.5300, 17534.00
154.7620, 17651.00
155.9950, 17525.00
157.2280, 17439.00
158.4600, 17593.00
159.6920, 17666.00
160.9250, 17491.00
162.1560, 17647.00
163.3880, 17592.00
164.6200, 17761.00
165.8510, 17755.00
167.0820, 17721.00
168.3130, 17521.00
169.5440, 17586.00
170.7750, 17927.00
172.0050, 17634.00
173.2350, 17951.00
174.4650, 17800.00
175.6950, 17842.00
176.9250, 17911.00
178.1550, 18025.00
179.3840, 17976.00
180.6130, 18169.00
181.8420, 18003.00
183.0710, 17990.00
184.3000, 18124.00
185.5280, 18056.00
186.7570, 18231.00
187.9850, 18208.00
189.2130, 18123.00
190.4400, 18112.00
191.6680, 18169.00
192.8960, 18193.00
194.1230, 18228.00
195.3500, 18163.00
196.5770, 18336.00
197.8030, 18098.00
199.0300, 18443.00
200.2560, 18218.00
201.4830, 18280.00
202.7090, 18336.00
203.9340, 18437.00
205.1600, 18472.00
206.3860, 18343.00
207.6110, 18402.00
208.8360, 18438.00
210.0610, 18405.00
211.2860, 18435.00
212.5100, 18481.00
213.7350, 18447.00
214.9590, 18505.94
216.1830, 18665.00
217.4070, 18551.00
218.6310, 18617.00
219.8540, 18583.00
221.0780, 18741.00
222.3010, 18615.00
223.5240, 18848.00
224.7470, 18794.00
225.9690, 18769.00
227.1920, 18655.00
228.4140, 18764.00
229.6360, 18809.00
230.8580, 18951.00
232.0800, 18902.00
233.3020, 18829.00
234.5230, 18807.00
235.7440, 18810.00
236.9650, 18850.00
238.1860, 18789.00
239.4070, 18897.00
240.6280, 18920.00
241.8480, 18999.00
243.0680, 18700.00
244.2880, 18812.00
245.5080, 18809.00
246.7280, 18833.00
247.9470, 18858.84
249.1660, 18848.00
250.3860, 18832.00
251.6040, 19033.00
252.8230, 18974.00
254.0420, 19075.00
255.2600, 18871.00
256.4790, 19057.00
257.6970, 18950.00
258.9150, 19132.00
260.1320, 19308.00
261.3500, 19171.00
262.5670, 19086.00
263.7840, 19155.00
265.0010, 19255.00
266.2180, 19009.00
267.4350, 19490.00
268.6510, 19462.00
269.8680, 19586.00
271.0840, 19398.00
272.3000, 19447.00
273.5160, 19430.00
274.7310, 19449.00
275.9470, 19486.00
277.1620, 19429.00
278.3770, 19339.00
279.5920, 19405.00
280.8070, 19590.00
282.0210, 19490.00
283.2360, 19675.00
284.4500, 19511.00
285.6640, 19440.00
286.8780, 19458.00
288.0920, 19604.00
289.3050, 19545.00
290.5180, 19465.00
291.7320, 19376.00
292.9450, 19457.00
294.1570, 19578.00
295.3700, 19494.00
296.5830, 19478.00
297.7950, 19615.00
299.0070, 19578.00
300.2190, 19742.00
301.4310, 19878.00
302.6420, 19614.00
303.8540, 19606.00
305.0650, 19536.00
306.2760, 19561.00
307.4870, 19926.00
308.6980, 19663.00
309.9080, 19882.00
311.1190, 19826.00
312.3290, 19838.00
313.5390, 19984.00
314.7490, 19944.00
315.9580, 19875.00
317.1680, 19929.00
318.3770, 20069.00
319.5860, 20091.00
320.7950, 19895.00
322.0040, 19812.00
323.2130, 20057.00
324.4210, 19866.00
325.6290, 19981.00
326.8380, 19950.00
328.0460, 20079.00
329.2530, 19981.00
330.4610, 19917.00
331.6680, 20016.00
332.8760, 20175.00
334.0830, 20057.00
335.2890, 20020.00
336.4960, 20204.00
337.7030, 20009.00
338.9090, 20062.00
340.1150, 20093.00
341.3210, 19798.00
342.5270, 20095.00
343.7330, 20104.00
344.9380, 20075.00
346.1440, 20053.00
347.3490, 20248.00
348.5540, 20082.00
349.7590, 20199.00
350.9630, 20289.00
352.1680, 20148.00
353.3720, 20213.00
354.5760, 20136.00
355.7800, 20288.00
356.9840, 20342.00
358.1870, 20200.00
359.3910, 20360.00
360.5940, 20304.00
361.7970, 20584.00
363.0000, 20201.00
364.2030, 20310.00
365.4050, 20468.00
366.6080, 20235.00
367.8100, 20641.00
369.0120, 20535.00
370.2140, 20496.00
371.4150, 20647.00
372.6170, 20470.00
373.8180, 20702.00
375.0190, 20634.00
376.2200, 20687.00
377.4210, 20558.00
378.6220, 20765.00
379.8220, 20790.00
381.0230, 20646.00
382.2230, 20760.00
383.4230, 20780.00
384.6220, 20727.00
385.8220, 20748.00
387.0220, 20706.01
388.2210, 20767.00
389.4200, 20687.00
390.6190, 20607.00
391.8180, 20714.00
393.0160, 20808.00
394.2150, 20731.00
395.4130, 20804.00
396.6110, 20678.00
397.8090, 20967.00
399.0060, 20909.00
400.2040, 20790.00
401.4010, 21076.00
402.5980, 20922.00
403.7950, 20903.00
404.9920, 20827.00
406.1890, 20772.08
407.3860, 20809.00
408.5820, 20781.00
409.7780, 20961.00
410.9740, 21155.00
412.1700, 21111.00
413.3650, 21029.00
414.5610, 21225.00
415.7560, 20989.00
416.9510, 21228.00
418.1460, 21075.00
419.3410, 21192.00
420.5360, 21159.00
421.7300, 21101.00
422.9240, 20986.00
424.1180, 21112.00
425.3120, 21311.00
426.5060, 21251.00
427.7000, 21073.00
428.8930, 21257.00
430.0860, 21221.00
431.2790, 21272.00
432.4720, 21325.00
433.6650, 21331.38
434.8580, 21404.00
436.0500, 21393.00
437.2420, 21314.00
438.4340, 21337.00
439.6260, 21400.00
440.8180, 21513.00
442.0090, 21437.00
443.2010, 21537.00
444.3920, 21349.00
445.5830, 21354.00
446.7740, 21468.00
447.9640, 21539.00
449.1550, 21523.00
450.3450, 21553.00
451.5350, 21651.00
452.7250, 21654.00
453.9150, 21705.75
455.1050, 21677.00
456.2940, 21794.00
457.4830, 21792.00
458.6720, 21879.00
459.8610, 21646.00
461.0500, 21770.00
462.2390, 21691.00
463.4270, 21789.00
464.6150, 21816.00
465.8040, 21771.00
466.9910, 21957.00
468.1790, 21780.00
469.3670, 22014.00
470.5540, 21935.00
471.7410, 21967.00
472.9280, 21891.00
474.1150, 21927.00
475.3020, 21964.00
476.4890, 21850.00
477.6750, 22230.00
478.8610, 21974.00
480.0470, 22262.00
481.2330, 22139.00
482.4190, 22128.00
483.6040, 22218.00
484.7900, 22185.00
485.9750, 22222.48
487.1600, 22328.00
488.3450, 22241.00
489.5290, 22301.00
490.7140, 22272.00
491.8980, 22285.00
493.0820, 22312.00
494.2660, 22344.00
495.4500, 22189.00
496.6340, 22323.00
497.8170, 22274.87
499.0010, 22362.00
500.1840, 22284.00
501.3670, 22481.00
502.5500, 22478.00
503.7320, 22278.00
504.9150, 22512.00
506.0970, 22688.00
507.2790, 22457.00
508.4610, 22704.00
509.6430, 22626.00
510.8250, 22544.00
512.0060, 22711.00
513.1870, 22786.00
514.3680, 22740.00
515.5490, 22626.00
516.7300, 22639.00
517.9110, 22656.00
519.0910, 22685.00
520.2710, 22960.00
521.4510, 22954.00
522.6310, 23061.00
523.8110, 22948.00
524.9910, 22930.00
526.1700, 22927.00
527.3490, 22958.00
528.5280, 23087.00
529.7070, 22979.00
530.8860, 22815.00
532.0650, 23143.00
533.2430, 23050.00
534.4210, 23013.00
535.5990, 23161.00
536.7770, 23161.00
537.9550, 23108.00
539.1320, 22866.00
540.3100, 23148.00
541.4870, 22985.00
542.6640, 23124.00
543.8410, 23111.00
545.0170, 23088.00
546.1940, 23139.00
547.3700, 23095.00
548.5470, 23339.00
549.7230, 23241.00
550.8980, 23197.00
552.0740, 23416.00
553.2500, 23345.00
554.4250, 23445.00
555.6000, 23308.00
556.7750, 23442.00
557.9500, 23483.00
559.1250, 23286.00
560.2990, 23443.00
561.4730, 23426.00
562.6480, 23515.00
563.8220, 23565.00
564.9950, 23612.00
566.1690, 23496.00
567.3430, 23666.00
568.5160, 23544.00
569.6890, 23718.00
570.8620, 23679.00
572.0350, 23819.00
573.2070, 23688.00
574.3800, 24027.00
575.5520, 23754.00
576.7240, 23773.00
577.8960, 23885.00
579.0680, 23760.00
580.2400, 23771.00
581.4110, 23749.00
582.5830, 23692.00
583.7540, 24180.00
584.9250, 23772.00
586.0950, 24067.00
587.2660, 24112.00
588.4370, 23917.00
589.6070, 24145.00
590.7770, 24038.00
591.9470, 24119.00
593.1170, 23993.00
594.2860, 23838.00
595.4560, 24243.00
596.6250, 24033.00
597.7940, 24281.00
598.9630, 24347.00
600.1320, 24292.00
601.3000, 24390.74
602.4690, 24476.00
603.6370, 24417.00
604.8050, 24364.00
605.9730, 24440.00
607.1410, 24312.00
608.3090, 24422.00
609.4760, 24473.00
610.6430, 24407.00
611.8100, 24523.00
612.9770, 24396.00
614.1440, 24649.00
615.3110, 24626.00
616.4770, 24631.00
617.6430, 24725.00
618.8090, 24632.00
619.9750, 24611.00
621.1410, 24600.00
622.3070, 24798.00
623.4720, 24852.00
624.6370, 24973.00
625.8020, 25132.00
626.9670, 25128.00
628.1320, 24955.00
629.2970, 25002.00
630.4610, 24971.00
631.6250, 24943.00
632.7890, 25026.11
633.9530, 25139.00
635.1170, 25165.00
636.2810, 25290.00
637.4440, 25350.00
638.6070, 25452.00
639.7700, 25751.00
640.9330, 25587.00
642.0960, 25861.00
643.2590, 26084.00
644.4210, 26143.00
645.5830, 26445.00
646.7450, 26664.00
647.9070, 26916.00
649.0690, 27244.00
650.2310, 27220.00
651.3920, 27415.33
652.5530, 27354.39
653.7140, 27431.00
654.8750, 27113.00
656.0360, 26806.00
657.1970, 26587.00
658.3570, 26317.00
659.5170, 26083.00
660.6770, 26132.00
661.8370, 26148.00
662.9970, 26073.00
664.1570, 25981.00
665.3160, 25823.00
666.4750, 25895.00
667.6340, 26075.00
668.7930, 25752.00
669.9520, 26121.00
671.1110, 26068.00
672.2690, 26096.00
673.4270, 25917.00
674.5850, 26024.00
675.7430, 25978.00
676.9010, 26036.00
678.0590, 26213.00
679.2160, 26163.00
680.3730, 26183.00
681.5300, 26275.00
682.6870, 26303.00
683.8440, 26516.00
685.0010, 26400.00
686.1570, 26637.00
687.3130, 26503.00
688.4690, 26479.00
689.6250, 26621.00
690.7810, 26511.00
691.9370, 26656.00
693.0920, 26412.00
694.2470, 26512.00
695.4020, 26723.00
696.5570, 26494.00
697.7120, 26436.00
698.8670, 26425.00
700.0210, 26552.00
701.1750, 26314.00
702.3290, 26568.00
703.4830, 26543.00
704.6370, 26689.00
705.7910, 26505.00
706.9440, 26852.00
708.0970, 26754.00
709.2510, 26816.00
710.4030, 26686.00
711.5560, 27017.00
712.7090, 26979.00
713.8610, 27087.00
715.0140, 26853.00
716.1660, 27224.00
717.3180, 26977.00
718.4690, 27002.00
719.6210, 26946.00
720.7730, 27039.00
721.9240, 27021.17
723.0750, 27273.00
724.2260, 27024.00
725.3770, 27080.00
726.5270, 27026.00
727.6780, 27281.00
728.8280, 27247.00
729.9780, 27332.00
731.1280, 27420.00
732.2780, 27564.00
733.4280, 27462.00
734.5770, 27576.59
735.7260, 27457.00
736.8760, 27632.00
738.0250, 27512.00
739.1730, 27480.00
740.3220, 27502.00
741.4700, 27564.00
742.6190, 27620.00
743.7670, 27453.00
744.9150, 27784.00
746.0630, 27819.00
747.2100, 27536.00
748.3580, 27737.00
749.5050, 27754.00
750.6520, 27787.00
751.7990, 27867.00
752.9460, 27958.00
754.0930, 27975.59
755.2390, 28060.00
756.3860, 28075.00
757.5320, 28039.00
758.6780, 28170.00
759.8240, 28121.00
760.9690, 28172.00
762.1150, 28181.00
763.2600, 28036.00
764.4060, 28320.00
765.5510, 28395.00
766.6950, 28308.00
767.8400, 28187.00
768.9850, 28242.00
770.1290, 28397.00
771.2730, 28399.00
772.4170, 28455.02
773.5610, 28542.00
774.7050, 28506.00
775.8480, 28454.00
776.9920, 28496.00
778.1350, 28690.00
779.2780, 28611.00
780.4210, 28605.00
781.5640, 28493.00
782.7060, 28751.00
783.8490, 28782.00
784.9910, 28840.00
786.1330, 28723.00
787.2750, 28770.00
788.4170, 28748.00
789.5580, 28844.00
790.7000, 28896.17
791.8410, 28952.94
792.9820, 29047.00
794.1230, 29091.00
795.2640, 29134.00
796.4040, 29175.00
797.5450, 29311.00
798.6850, 29270.00
799.8250, 29153.00
800.9650, 29381.00
802.1050, 29333.00
803.2450, 29403.00
804.3840, 29508.00
805.5230, 29568.00
806.6630, 29585.55
807.8020, 29598.22
808.9400, 29577.00
810.0790, 29544.00
811.2170, 29512.00
812.3560, 29471.00
813.4940, 29596.00
814.6320, 29682.00
815.7700, 29849.00
816.9070, 29832.00
818.0450, 29913.73
819.1820, 29992.00
820.3190, 29932.00
821.4560, 29958.00
822.5930, 29878.00
823.7300, 29894.00
824.8670, 30053.00
826.0030, 29903.00
827.1390, 30135.00
828.2750, 30132.00
829.4110, 30143.00
830.5470, 30120.00
831.6820, 30280.00
832.8180, 30227.00
833.9530, 30234.00
835.0880, 30442.00
836.2230, 30202.00
837.3580, 30571.00
838.4920, 30451.00
839.6270, 30548.00
840.7610, 30307.00
841.8950, 30694.00
843.0290, 30581.00
844.1630, 30555.00
845.2960, 30504.00
846.4300, 30608.00
847.5630, 30774.00
848.6960, 30853.00
849.8290, 30867.00
850.9620, 30938.00
852.0940, 30804.00
853.2270, 31090.00
854.3590, 30920.00
855.4910, 30939.00
856.6230, 31262.00
857.7550, 30963.00
858.8870, 31139.00
860.0180, 31292.00
861.1500, 31357.00
862.2810, 31154.00
863.4120, 31258.00
864.5430, 31302.00
865.6730, 31250.00
866.8040, 31395.00
867.9340, 31618.00
869.0640, 31557.00
870.1940, 31433.00
871.3240, 31509.00
872.4540, 31405.00
873.5830, 31762.00
874.7130, 31752.00
875.8420, 31835.00
876.9710, 31770.00
878.1000, 31749.00
879.2290, 31839.00
880.3570, 31777.00
881.4860, 31757.63
882.6140, 31782.99
883.7420, 31726.00
884.8700, 31874.00
885.9980, 32032.00
887.1250, 32279.00
888.2530, 31917.00
889.3800, 32112.00
890.5070, 32065.00
891.6340, 32108.00
892.7610, 32449.00
893.8880, 32395.00
895.0140, 32273.00
896.1400, 32572.00
897.2670, 32357.00
898.3930, 32297.00
899.5180, 32393.00
900.6440, 32766.00
901.7700, 32685.00
902.8950, 32518.00
904.0200, 32738.00
905.1450, 32538.00
906.2700, 32939.00
907.3950, 32977.00
908.5190, 32717.00
909.6440, 32833.00
910.7680, 33072.00
911.8920, 33164.00
913.0160, 33025.00
914.1400, 33053.00
915.2630, 32996.00
916.3870, 33106.00
917.5100, 33239.00
918.6330, 33095.00
919.7560, 33250.00
920.8790, 33382.00
922.0010, 33223.00
923.1240, 33546.00
924.2460, 33426.00
925.3680, 33360.00
926.4900, 33408.00
927.6120, 33418.00
928.7340, 33658.00
929.8550, 33411.00
930.9760, 33355.00
932.0980, 33596.00
933.2190, 33634.00
934.3390, 33916.00
935.4600, 33935.00
936.5810, 33952.00
937.7010, 33878.00
938.8210, 33978.00
939.9410, 34088.00
941.0610, 33885.00
942.1810, 34203.00
943.3010, 33996.00
944.4200, 34029.00
945.5390, 34385.00
946.6580, 34211.00
947.7770, 34117.00
948.8960, 34500.00
950.0150, 34370.00
951.1330, 34465.05
952.2510, 34512.00
953.3690, 34514.00
954.4870, 34763.00
955.6050, 34792.00
956.7230, 34717.00
957.8400, 34855.00
958.9580, 35063.00
960.0750, 35342.00
961.1920, 35143.00
962.3090, 35598.00
963.4250, 35553.00
964.5420, 35604.00
965.6580, 35722.00
966.7740, 35659.00
967.8900, 35847.00
969.0060, 36045.00
970.1220, 36225.00
971.2380, 36236.00
972.3530, 36336.00
973.4680, 36302.00
974.5830, 36320.00
975.6980, 36321.91
976.8130, 36285.00
977.9280, 36338.00
979.0420, 36193.00
980.1560, 36306.00
981.2710, 36212.00
982.3850, 36078.00
983.4980, 36035.00
984.6120, 36090.00
985.7260, 36203.00
986.8390, 36175.00
987.9520, 36350.00
989.0650, 36119.00
990.1780, 36427.00
991.2910, 36110.00
992.4030, 36355.00
993.5160, 36368.00
994.6280, 36677.00
995.7400, 36485.00
996.8520, 36527.00
997.9640, 36786.00
999.0750, 36613.00
1000.187, 36808.00
1001.298, 36692.00
1002.409, 36648.00
1003.520, 36873.00
1004.631, 36817.00
1005.741, 36928.00
1006.852, 36885.00
1007.962, 36679.00
1009.072, 37013.00
1010.182, 37087.00
1011.292, 37071.00
1012.402, 37335.00
1013.511, 37111.00
1014.621, 37505.00
1015.730, 37508.00
1016.839, 37373.00
1017.948, 37614.00
1019.056, 37822.00
1020.165, 38019.00
1021.273, 38132.08
1022.382, 38236.82
1023.490, 38292.00
1024.598, 38283.00
1025.706, 38329.00
1026.813, 38200.00
1027.921, 38078.00
1029.028, 38094.00
1030.135, 38118.00
1031.242, 38176.00
1032.349, 38164.00
1033.456, 38154.25
1034.562, 37838.00
1035.668, 38067.00
1036.775, 37864.00
1037.881, 37760.00
1038.987, 38017.00
1040.092, 38106.00
1041.198, 38150.00
1042.303, 38171.00
1043.408, 38214.00
1044.514, 38222.86
1045.618, 38336.00
1046.723, 38229.00
1047.828, 38263.00
1048.932, 38248.00
1050.037, 38387.00
1051.141, 38311.00
1052.245, 38602.00
1053.349, 38527.00
1054.452, 38532.00
1055.556, 38616.00
1056.659, 38603.00
1057.762, 38770.00
1058.865, 38486.00
1059.968, 38812.00
1061.071, 38791.00
1062.174, 39059.00
1063.276, 39075.27
1064.378, 39063.12
1065.480, 39069.00
1066.582, 39048.00
1067.684, 39085.68
1068.786, 39124.00
1069.887, 39206.00
1070.988, 39352.00
1072.090, 39517.00
1073.191, 39462.00
1074.291, 39708.00
1075.392, 39506.00
1076.493, 39533.00
1077.593, 39479.00
1078.693, 39601.00
1079.793, 39503.00
1080.893, 39553.00
1081.993, 39755.00
1083.092, 39813.00
1084.192, 39714.00
1085.291, 39822.00
1086.390, 40036.00
1087.489, 39791.00
1088.588, 40075.00
1089.686, 40170.00
1090.785, 40074.00
1091.883, 40136.00
1092.981, 40334.00
1094.079, 40125.00
1095.177, 40424.00
1096.275, 40500.00
1097.373, 40497.00
1098.470, 40547.00
1099.567, 40602.59
1100.664, 40433.00
1101.761, 40666.00
1102.858, 40730.00
1103.954, 40657.00
1105.051, 40870.00
1106.147, 40757.00
1107.243, 40942.00
1108.339, 41097.00
1109.435, 40658.00
1110.531, 41071.00
1111.626, 40930.00
1112.722, 40995.00
1113.817, 41114.00
1114.912, 40825.00
1116.007, 41097.00
1117.101, 41182.00
1118.196, 41378.00
1119.290, 41388.00
1120.385, 41412.00
1121.479, 41510.00
1122.573, 41658.00
1123.666, 41618.00
1124.760, 41728.00
1125.853, 41742.00
1126.947, 41441.00
1128.040, 41710.00
1129.133, 41752.00
1130.226, 41693.00
1131.318, 42208.00
1132.411, 42006.00
1133.503, 42158.00
1134.596, 42125.00
1135.688, 42153.00
1136.780, 42364.00
1137.871, 42308.00
1138.963, 42281.00
1140.054, 42089.00
1141.146, 42375.00
1142.237, 42749.00
1143.328, 42484.00
1144.419, 42544.00
1145.509, 42809.00
1146.600, 42762.00
1147.690, 42875.86
1148.780, 42743.00
1149.870, 42971.00
1150.960, 42754.00
1152.050, 42779.00
1153.139, 43088.00
1154.229, 42909.00
1155.318, 43084.00
1156.407, 43033.00
1157.496, 42923.00
1158.585, 43241.00
1159.674, 43236.00
1160.762, 43159.00
1161.850, 43197.00
1162.939, 43270.72
1164.027, 43374.27
1165.114, 43470.00
1166.202, 43648.00
1167.290, 43703.00
1168.377, 43717.00
1169.464, 43902.00
1170.551, 43807.00
1171.638, 43871.00
1172.725, 43648.00
1173.812, 43884.00
1174.898, 43858.00
1175.984, 44285.00
1177.071, 43955.00
1178.157, 44136.00
1179.242, 44385.00
1180.328, 43907.00
1181.414, 44114.00
1182.499, 44418.00
1183.584, 44272.00
1184.669, 44373.00
1185.754, 44678.00
1186.839, 44542.00
1187.924, 44890.00
1189.008, 44953.00
1190.092, 44615.00
1191.177, 44715.00
1192.260, 44557.00
1193.344, 44906.00
1194.428, 44994.00
1195.512, 44913.00
1196.595, 45111.00
1197.678, 45096.00
1198.761, 45166.96
1199.844, 45384.00
1200.927, 45274.00
1202.009, 45356.00
##END=



