##NAMES=Pectolite
##RRUFFID=R050396
##IDEAL CHEMISTRY=NaCa_2_Si_3_O_8_(OH)
##LOCALITY=Jeffrey Quarry, Asbestos, Quebec, Canada
##OWNER=RRUFF
##SOURCE=Marcus Origlieri
##DESCRIPTION=Colorless to gray columnar blocky crystals
##STATUS=The identification of this mineral has been confirmed by X-ray diffraction and chemical analysis
##URL=rruff.info/R050396
##MEASURED CHEMISTRY=Na_1.00_Ca_2.00_Si_3.00_O_8_(OH)
##PIN_ID=L01945
##ORIENTATION=Laser parallel to (1 1 0). Fiducial mark perpendicular to laser is parallel to c [0 0 1]
147.3620, 24108.00
148.5960, 24242.00
149.8300, 24319.00
151.0630, 24494.00
152.2960, 24499.00
153.5300, 24113.00
154.7620, 24433.00
155.9950, 24252.00
157.2280, 24475.00
158.4600, 24587.00
159.6920, 24424.00
160.9250, 24308.00
162.1560, 24563.00
163.3880, 24358.00
164.6200, 24592.00
165.8510, 24490.00
167.0820, 24492.00
168.3130, 24566.00
169.5440, 24609.00
170.7750, 24612.00
172.0050, 24703.02
173.2350, 24696.35
174.4650, 24822.00
175.6950, 24763.00
176.9250, 24758.00
178.1550, 24884.00
179.3840, 24798.00
180.6130, 24801.00
181.8420, 25038.00
183.0710, 24993.00
184.3000, 25047.00
185.5280, 24941.00
186.7570, 25133.00
187.9850, 25031.00
189.2130, 25251.00
190.4400, 25153.00
191.6680, 25079.00
192.8960, 24986.00
194.1230, 25190.00
195.3500, 25051.00
196.5770, 25180.00
197.8030, 25432.00
199.0300, 25125.00
200.2560, 25261.00
201.4830, 25174.00
202.7090, 25324.00
203.9340, 25263.00
205.1600, 25420.00
206.3860, 25379.00
207.6110, 25298.00
208.8360, 25125.00
210.0610, 25284.00
211.2860, 25341.00
212.5100, 25500.00
213.7350, 25588.00
214.9590, 25519.00
216.1830, 25539.00
217.4070, 25509.00
218.6310, 25561.00
219.8540, 25566.08
221.0780, 25650.00
222.3010, 25709.00
223.5240, 25601.00
224.7470, 25868.00
225.9690, 25623.00
227.1920, 25834.00
228.4140, 25789.00
229.6360, 25706.00
230.8580, 25607.00
232.0800, 25656.87
233.3020, 25808.00
234.5230, 25786.00
235.7440, 25798.00
236.9650, 25930.00
238.1860, 25804.00
239.4070, 26004.00
240.6280, 25516.00
241.8480, 25924.00
243.0680, 25740.00
244.2880, 25758.00
245.5080, 25934.00
246.7280, 25978.00
247.9470, 25940.00
249.1660, 25958.00
250.3860, 25856.00
251.6040, 26066.00
252.8230, 25759.00
254.0420, 25870.00
255.2600, 26155.00
256.4790, 26083.00
257.6970, 26042.00
258.9150, 25954.00
260.1320, 25999.00
261.3500, 26087.00
262.5670, 26367.00
263.7840, 26228.00
265.0010, 26161.00
266.2180, 26508.00
267.4350, 26322.00
268.6510, 26419.00
269.8680, 26403.00
271.0840, 26565.00
272.3000, 26762.00
273.5160, 26605.00
274.7310, 26717.00
275.9470, 26954.00
277.1620, 26564.00
278.3770, 26804.00
279.5920, 26691.00
280.8070, 26639.00
282.0210, 26686.00
283.2360, 26632.00
284.4500, 26558.00
285.6640, 26621.00
286.8780, 26632.00
288.0920, 26618.00
289.3050, 26507.00
290.5180, 26521.00
291.7320, 26650.00
292.9450, 26705.00
294.1570, 26590.00
295.3700, 26516.00
296.5830, 26459.00
297.7950, 26581.00
299.0070, 26512.00
300.2190, 26522.54
301.4310, 26681.00
302.6420, 26506.00
303.8540, 26685.00
305.0650, 26720.00
306.2760, 26762.00
307.4870, 26716.00
308.6980, 26719.00
309.9080, 26861.00
311.1190, 26808.00
312.3290, 26658.00
313.5390, 26987.00
314.7490, 26845.00
315.9580, 26899.00
317.1680, 27036.00
318.3770, 27259.00
319.5860, 26975.00
320.7950, 27021.00
322.0040, 27135.00
323.2130, 26928.00
324.4210, 26981.00
325.6290, 27074.00
326.8380, 26978.00
328.0460, 26898.00
329.2530, 27071.00
330.4610, 26982.00
331.6680, 27052.00
332.8760, 26903.00
334.0830, 27056.00
335.2890, 27024.00
336.4960, 26894.00
337.7030, 26943.00
338.9090, 26771.00
340.1150, 26979.00
341.3210, 27199.00
342.5270, 27083.00
343.7330, 27078.00
344.9380, 27072.00
346.1440, 27043.71
347.3490, 27119.07
348.5540, 27075.00
349.7590, 27217.00
350.9630, 27288.00
352.1680, 27216.00
353.3720, 27218.00
354.5760, 27383.00
355.7800, 27452.00
356.9840, 27385.00
358.1870, 27299.00
359.3910, 27338.83
360.5940, 27591.00
361.7970, 27327.00
363.0000, 27192.00
364.2030, 27145.00
365.4050, 27570.00
366.6080, 27411.00
367.8100, 27422.00
369.0120, 27607.00
370.2140, 27569.00
371.4150, 27621.00
372.6170, 27554.00
373.8180, 27658.00
375.0190, 27572.00
376.2200, 27730.00
377.4210, 27525.00
378.6220, 27667.00
379.8220, 27496.00
381.0230, 27725.00
382.2230, 27693.00
383.4230, 27679.00
384.6220, 27543.00
385.8220, 27773.00
387.0220, 27547.00
388.2210, 27541.00
389.4200, 27859.00
390.6190, 27649.00
391.8180, 27411.00
393.0160, 27659.00
394.2150, 27846.00
395.4130, 27788.00
396.6110, 27837.00
397.8090, 27810.00
399.0060, 27884.00
400.2040, 27839.00
401.4010, 27755.00
402.5980, 27748.00
403.7950, 27838.00
404.9920, 27763.00
406.1890, 27939.00
407.3860, 28143.00
408.5820, 28214.00
409.7780, 28238.21
410.9740, 27877.00
412.1700, 28144.00
413.3650, 28086.00
414.5610, 28000.00
415.7560, 28098.00
416.9510, 28326.00
418.1460, 27931.00
419.3410, 28110.00
420.5360, 27933.00
421.7300, 28222.00
422.9240, 28126.00
424.1180, 28334.00
425.3120, 28179.00
426.5060, 28284.00
427.7000, 28101.00
428.8930, 28188.00
430.0860, 28202.00
431.2790, 28210.00
432.4720, 28235.00
433.6650, 28263.93
434.8580, 28288.00
436.0500, 28267.00
437.2420, 28357.00
438.4340, 28216.00
439.6260, 28418.00
440.8180, 28360.00
442.0090, 28460.00
443.2010, 28302.00
444.3920, 28463.00
445.5830, 28468.00
446.7740, 28417.00
447.9640, 28461.00
449.1550, 28546.00
450.3450, 28688.00
451.5350, 28771.00
452.7250, 28754.59
453.9150, 28652.00
455.1050, 28677.00
456.2940, 28670.00
457.4830, 28636.00
458.6720, 28649.00
459.8610, 28604.00
461.0500, 28648.95
462.2390, 28689.31
463.4270, 28717.00
464.6150, 28788.00
465.8040, 28785.00
466.9910, 28761.00
468.1790, 28938.00
469.3670, 28990.00
470.5540, 28678.00
471.7410, 28842.00
472.9280, 29136.00
474.1150, 29116.00
475.3020, 28806.00
476.4890, 28930.00
477.6750, 29079.00
478.8610, 29202.00
480.0470, 29359.00
481.2330, 29109.00
482.4190, 29202.00
483.6040, 29105.00
484.7900, 29217.00
485.9750, 28928.00
487.1600, 29076.00
488.3450, 28983.00
489.5290, 29308.00
490.7140, 29396.00
491.8980, 29377.00
493.0820, 29226.00
494.2660, 29321.00
495.4500, 29247.00
496.6340, 29243.85
497.8170, 29571.00
499.0010, 29308.00
500.1840, 29386.00
501.3670, 29545.00
502.5500, 29290.00
503.7320, 29532.00
504.9150, 29624.00
506.0970, 29667.00
507.2790, 29453.00
508.4610, 29673.00
509.6430, 29695.00
510.8250, 29518.00
512.0060, 29610.00
513.1870, 29774.00
514.3680, 29750.00
515.5490, 29792.00
516.7300, 29652.00
517.9110, 29928.00
519.0910, 29846.00
520.2710, 30014.00
521.4510, 30110.00
522.6310, 29921.00
523.8110, 29884.00
524.9910, 29944.00
526.1700, 29769.00
527.3490, 30026.00
528.5280, 29968.00
529.7070, 30172.00
530.8860, 29934.00
532.0650, 29952.00
533.2430, 29931.00
534.4210, 30093.00
535.5990, 29924.00
536.7770, 29967.00
537.9550, 29893.00
539.1320, 30069.00
540.3100, 30107.00
541.4870, 30088.00
542.6640, 30350.00
543.8410, 30263.00
545.0170, 30046.00
546.1940, 30246.00
547.3700, 30140.00
548.5470, 30422.00
549.7230, 30095.00
550.8980, 30329.00
552.0740, 30262.00
553.2500, 30249.00
554.4250, 30298.00
555.6000, 30215.00
556.7750, 30442.00
557.9500, 30513.00
559.1250, 30519.00
560.2990, 30571.39
561.4730, 30539.00
562.6480, 30520.00
563.8220, 30475.00
564.9950, 30449.00
566.1690, 30462.00
567.3430, 30569.00
568.5160, 30563.68
569.6890, 30717.00
570.8620, 30678.00
572.0350, 30707.00
573.2070, 30836.00
574.3800, 30769.00
575.5520, 30876.00
576.7240, 30787.00
577.8960, 30862.00
579.0680, 31001.00
580.2400, 30732.00
581.4110, 30822.00
582.5830, 30885.00
583.7540, 30807.00
584.9250, 30951.00
586.0950, 31069.00
587.2660, 30935.00
588.4370, 31128.00
589.6070, 31157.00
590.7770, 31110.00
591.9470, 31362.00
593.1170, 31007.00
594.2860, 31159.00
595.4560, 31133.00
596.6250, 31010.00
597.7940, 31068.00
598.9630, 31071.00
600.1320, 31173.00
601.3000, 31298.00
602.4690, 31275.24
603.6370, 31269.00
604.8050, 31239.00
605.9730, 31366.00
607.1410, 31268.00
608.3090, 31302.00
609.4760, 31648.00
610.6430, 31485.00
611.8100, 31531.00
612.9770, 31627.00
614.1440, 31566.00
615.3110, 31566.00
616.4770, 31724.00
617.6430, 31614.00
618.8090, 31743.00
619.9750, 31947.00
621.1410, 31997.00
622.3070, 31706.00
623.4720, 31924.00
624.6370, 32097.00
625.8020, 31796.00
626.9670, 32094.00
628.1320, 32030.00
629.2970, 32005.00
630.4610, 32024.00
631.6250, 31960.00
632.7890, 32044.00
633.9530, 32157.00
635.1170, 32149.00
636.2810, 32175.00
637.4440, 32348.00
638.6070, 32505.00
639.7700, 32474.00
640.9330, 32772.00
642.0960, 32756.00
643.2590, 32982.00
644.4210, 33224.00
645.5830, 33476.00
646.7450, 33477.00
647.9070, 34088.00
649.0690, 34390.00
650.2310, 34558.00
651.3920, 34655.89
652.5530, 34509.00
653.7140, 34399.00
654.8750, 34232.00
656.0360, 33891.00
657.1970, 33522.00
658.3570, 33492.00
659.5170, 33364.00
660.6770, 33057.00
661.8370, 33294.00
662.9970, 32843.00
664.1570, 33020.00
665.3160, 32825.00
666.4750, 32936.00
667.6340, 32742.00
668.7930, 32859.00
669.9520, 33151.00
671.1110, 32990.00
672.2690, 32936.00
673.4270, 33109.00
674.5850, 33033.00
675.7430, 32938.00
676.9010, 33220.00
678.0590, 33234.00
679.2160, 33039.00
680.3730, 33382.00
681.5300, 33111.00
682.6870, 33380.00
683.8440, 33472.00
685.0010, 33445.00
686.1570, 33627.00
687.3130, 33444.00
688.4690, 33384.00
689.6250, 33395.00
690.7810, 33478.00
691.9370, 33490.00
693.0920, 33319.00
694.2470, 33660.00
695.4020, 33307.00
696.5570, 33672.00
697.7120, 33321.00
698.8670, 33529.00
700.0210, 33427.00
701.1750, 33507.00
702.3290, 33757.00
703.4830, 33707.00
704.6370, 33732.00
705.7910, 33547.00
706.9440, 33805.00
708.0970, 33696.00
709.2510, 33937.00
710.4030, 34065.00
711.5560, 33906.00
712.7090, 34100.00
713.8610, 33860.00
715.0140, 34031.00
716.1660, 33991.00
717.3180, 34276.00
718.4690, 33834.00
719.6210, 34006.00
720.7730, 34183.00
721.9240, 34038.00
723.0750, 34327.00
724.2260, 33911.00
725.3770, 34331.00
726.5270, 34119.00
727.6780, 34161.00
728.8280, 34452.00
729.9780, 34303.00
731.1280, 34372.00
732.2780, 34504.00
733.4280, 34277.00
734.5770, 34397.00
735.7260, 34193.00
736.8760, 34321.00
738.0250, 34372.00
739.1730, 34805.00
740.3220, 34479.00
741.4700, 34624.00
742.6190, 34413.00
743.7670, 34525.00
744.9150, 34795.00
746.0630, 34553.00
747.2100, 34787.00
748.3580, 34784.00
749.5050, 34696.00
750.6520, 34520.00
751.7990, 34908.00
752.9460, 34580.00
754.0930, 34925.00
755.2390, 34962.00
756.3860, 35023.00
757.5320, 34805.00
758.6780, 35082.00
759.8240, 34912.00
760.9690, 34962.00
762.1150, 34981.00
763.2600, 34985.95
764.4060, 35130.00
765.5510, 35117.00
766.6950, 35221.00
767.8400, 35309.00
768.9850, 35298.00
770.1290, 35191.00
771.2730, 35371.00
772.4170, 35346.00
773.5610, 35221.00
774.7050, 35333.00
775.8480, 35507.00
776.9920, 35377.00
778.1350, 35487.00
779.2780, 35417.00
780.4210, 35445.36
781.5640, 35540.00
782.7060, 35568.00
783.8490, 35548.00
784.9910, 35733.00
786.1330, 35610.00
787.2750, 35912.00
788.4170, 35667.00
789.5580, 35725.00
790.7000, 36039.00
791.8410, 35700.00
792.9820, 35757.00
794.1230, 36245.00
795.2640, 35926.00
796.4040, 35802.00
797.5450, 36033.00
798.6850, 36167.00
799.8250, 36381.00
800.9650, 36326.00
802.1050, 36342.00
803.2450, 36109.00
804.3840, 36061.00
805.5230, 36322.00
806.6630, 36426.00
807.8020, 36449.00
808.9400, 36343.00
810.0790, 36582.00
811.2170, 36678.00
812.3560, 36591.00
813.4940, 36675.00
814.6320, 36673.00
815.7700, 36470.00
816.9070, 36704.00
818.0450, 36579.00
819.1820, 36802.00
820.3190, 36861.00
821.4560, 36647.00
822.5930, 36818.00
823.7300, 36754.00
824.8670, 36807.00
826.0030, 36854.00
827.1390, 36525.00
828.2750, 37054.00
829.4110, 36868.00
830.5470, 37144.00
831.6820, 36818.00
832.8180, 36910.00
833.9530, 36934.00
835.0880, 37022.00
836.2230, 37272.00
837.3580, 37031.00
838.4920, 37282.00
839.6270, 37190.00
840.7610, 37047.00
841.8950, 37286.00
843.0290, 37503.00
844.1630, 37327.00
845.2960, 37690.00
846.4300, 37529.00
847.5630, 37594.00
848.6960, 37628.00
849.8290, 37661.00
850.9620, 37553.00
852.0940, 37462.00
853.2270, 37635.00
854.3590, 37606.00
855.4910, 37932.00
856.6230, 37791.00
857.7550, 38019.00
858.8870, 37939.00
860.0180, 38050.00
861.1500, 37847.00
862.2810, 38047.00
863.4120, 37855.00
864.5430, 37963.00
865.6730, 38065.00
866.8040, 38066.00
867.9340, 38116.00
869.0640, 38260.00
870.1940, 38000.00
871.3240, 38119.00
872.4540, 38277.00
873.5830, 38013.00
874.7130, 38372.00
875.8420, 38417.00
876.9710, 38337.00
878.1000, 38328.00
879.2290, 38356.07
880.3570, 38418.00
881.4860, 38508.00
882.6140, 38530.00
883.7420, 38818.00
884.8700, 38598.00
885.9980, 38737.41
887.1250, 38490.00
888.2530, 38742.00
889.3800, 38694.00
890.5070, 38609.00
891.6340, 38626.00
892.7610, 38884.00
893.8880, 38970.00
895.0140, 39380.00
896.1400, 38912.00
897.2670, 38950.00
898.3930, 39136.00
899.5180, 39266.00
900.6440, 39083.00
901.7700, 39020.00
902.8950, 39042.00
904.0200, 38979.48
905.1450, 39159.00
906.2700, 39072.00
907.3950, 39285.00
908.5190, 39508.00
909.6440, 39551.00
910.7680, 39329.00
911.8920, 39216.00
913.0160, 39288.00
914.1400, 39427.00
915.2630, 39547.00
916.3870, 39571.00
917.5100, 39612.00
918.6330, 40008.00
919.7560, 39628.00
920.8790, 39747.00
922.0010, 39546.00
923.1240, 39805.00
924.2460, 39662.00
925.3680, 39747.00
926.4900, 39787.20
927.6120, 40082.00
928.7340, 39912.00
929.8550, 39906.00
930.9760, 40175.00
932.0980, 40119.00
933.2190, 40104.00
934.3390, 40275.00
935.4600, 40125.00
936.5810, 40341.00
937.7010, 40289.00
938.8210, 40233.00
939.9410, 40303.00
941.0610, 39947.00
942.1810, 40356.00
943.3010, 40809.00
944.4200, 40638.00
945.5390, 40722.00
946.6580, 40620.00
947.7770, 40504.00
948.8960, 40826.00
950.0150, 41070.00
951.1330, 40723.00
952.2510, 40900.00
953.3690, 40841.00
954.4870, 41115.00
955.6050, 41081.00
956.7230, 41212.00
957.8400, 40949.00
958.9580, 40929.00
960.0750, 41182.00
961.1920, 41280.00
962.3090, 41487.00
963.4250, 41504.00
964.5420, 41577.00
965.6580, 41718.00
966.7740, 41855.00
967.8900, 41925.00
969.0060, 42126.00
970.1220, 42095.00
971.2380, 42093.00
972.3530, 42233.00
973.4680, 42245.00
974.5830, 42197.00
975.6980, 42335.00
976.8130, 42220.00
977.9280, 42091.00
979.0420, 42390.00
980.1560, 42438.00
981.2710, 41959.00
982.3850, 42157.00
983.4980, 42092.00
984.6120, 42048.00
985.7260, 41988.00
986.8390, 42224.00
987.9520, 42358.00
989.0650, 42146.00
990.1780, 42226.00
991.2910, 42076.00
992.4030, 42368.00
993.5160, 42638.00
994.6280, 42154.00
995.7400, 42441.00
996.8520, 42543.00
997.9640, 42631.00
999.0750, 42653.00
1000.187, 42705.36
1001.298, 42621.00
1002.409, 42716.00
1003.520, 42679.00
1004.631, 42622.00
1005.741, 42787.00
1006.852, 42529.00
1007.962, 42712.00
1009.072, 42668.00
1010.182, 42822.00
1011.292, 42978.00
1012.402, 42881.00
1013.511, 43058.00
1014.621, 43044.00
1015.730, 42872.00
1016.839, 43079.00
1017.948, 43010.00
1019.056, 43498.00
1020.165, 43459.00
1021.273, 43803.00
1022.382, 43515.00
1023.490, 43533.00
1024.598, 44066.00
1025.706, 44135.00
1026.813, 43724.00
1027.921, 43835.00
1029.028, 43814.00
1030.135, 43485.00
1031.242, 43496.00
1032.349, 43692.00
1033.456, 43456.00
1034.562, 43620.00
1035.668, 43587.00
1036.775, 43747.00
1037.881, 43828.00
1038.987, 43831.00
1040.092, 43996.00
1041.198, 43871.00
1042.303, 44130.00
1043.408, 43919.00
1044.514, 43729.00
1045.618, 43924.00
1046.723, 43838.00
1047.828, 44000.00
1048.932, 44058.00
1050.037, 44129.00
1051.141, 44239.00
1052.245, 44229.00
1053.349, 44091.00
1054.452, 44186.00
1055.556, 44147.00
1056.659, 44252.00
1057.762, 44358.00
1058.865, 44437.00
1059.968, 44525.00
1061.071, 44492.00
1062.174, 44548.28
1063.276, 44703.00
1064.378, 44608.00
1065.480, 44586.00
1066.582, 44696.00
1067.684, 44616.00
1068.786, 44632.00
1069.887, 44766.00
1070.988, 45002.00
1072.090, 44899.00
1073.191, 44771.00
1074.291, 44700.00
1075.392, 45062.00
1076.493, 44855.00
1077.593, 44989.00
1078.693, 45047.00
1079.793, 45036.00
1080.893, 45233.00
1081.993, 45284.00
1083.092, 45285.00
1084.192, 45333.00
1085.291, 45449.00
1086.390, 45427.00
1087.489, 45518.00
1088.588, 45600.00
1089.686, 45458.00
1090.785, 45552.34
1091.883, 45574.00
1092.981, 45604.00
1094.079, 45561.00
1095.177, 45650.00
1096.275, 45594.00
1097.373, 45675.00
1098.470, 45666.00
1099.567, 45783.00
1100.664, 45758.00
1101.761, 45668.00
1102.858, 45782.99
##END=



