##NAMES=Pectolite
##RRUFFID=R050396
##IDEAL CHEMISTRY=NaCa_2_Si_3_O_8_(OH)
##LOCALITY=Jeffrey Quarry, Asbestos, Quebec, Canada
##OWNER=RRUFF
##SOURCE=Marcus Origlieri
##DESCRIPTION=Colorless to gray columnar blocky crystals
##STATUS=The identification of this mineral has been confirmed by X-ray diffraction and chemical analysis
##URL=rruff.info/R050396
##MEASURED CHEMISTRY=Na_1.00_Ca_2.00_Si_3.00_O_8_(OH)
##PIN_ID=M00143
##ORIENTATION=Laser parallel to -b* (0 -1 0). Fiducial mark perpendicular to laser is parallel to c [0 0 1]
127.5960, 15681.00
128.8330, 15718.00
130.0700, 15846.00
131.3060, 16014.00
132.5420, 16100.26
133.7780, 16221.00
135.0140, 16379.00
136.2500, 16421.00
137.4850, 16610.00
138.7200, 16969.00
139.9550, 16906.00
141.1900, 17257.00
142.4250, 17128.00
143.6600, 17385.00
144.8940, 17383.00
146.1280, 17247.00
147.3620, 17254.00
148.5960, 17310.00
149.8300, 17238.00
151.0630, 17138.00
152.2960, 17098.00
153.5300, 16925.00
154.7620, 16969.00
155.9950, 16860.00
157.2280, 16924.00
158.4600, 17085.00
159.6920, 16856.00
160.9250, 16791.00
162.1560, 16811.00
163.3880, 16962.00
164.6200, 17016.00
165.8510, 16960.00
167.0820, 17026.00
168.3130, 17072.00
169.5440, 17062.00
170.7750, 17100.33
172.0050, 17065.00
173.2350, 17139.00
174.4650, 17097.00
175.6950, 17152.00
176.9250, 17223.00
178.1550, 17222.00
179.3840, 17258.00
180.6130, 17304.00
181.8420, 17319.00
183.0710, 17338.43
184.3000, 17401.00
185.5280, 17373.00
186.7570, 17330.00
187.9850, 17383.00
189.2130, 17390.00
190.4400, 17410.27
191.6680, 17338.00
192.8960, 17443.00
194.1230, 17495.00
195.3500, 17450.00
196.5770, 17560.00
197.8030, 17492.00
199.0300, 17372.00
200.2560, 17363.00
201.4830, 17592.00
202.7090, 17697.00
203.9340, 17582.00
205.1600, 17764.00
206.3860, 17690.00
207.6110, 17785.00
208.8360, 17703.00
210.0610, 17648.00
211.2860, 17646.00
212.5100, 17863.00
213.7350, 17693.00
214.9590, 17826.00
216.1830, 17717.00
217.4070, 17789.00
218.6310, 17724.00
219.8540, 17818.00
221.0780, 17776.00
222.3010, 17856.00
223.5240, 17930.00
224.7470, 17771.00
225.9690, 17992.00
227.1920, 18024.00
228.4140, 17898.00
229.6360, 17846.00
230.8580, 17801.00
232.0800, 17991.00
233.3020, 17899.00
234.5230, 18015.00
235.7440, 18051.00
236.9650, 18053.00
238.1860, 18145.00
239.4070, 18113.79
240.6280, 18194.00
241.8480, 18058.00
243.0680, 18185.00
244.2880, 18107.00
245.5080, 17964.00
246.7280, 18133.00
247.9470, 18014.00
249.1660, 18135.00
250.3860, 18164.00
251.6040, 18245.00
252.8230, 18110.00
254.0420, 18206.00
255.2600, 18167.00
256.4790, 18267.00
257.6970, 18430.00
258.9150, 18346.00
260.1320, 18280.00
261.3500, 18218.00
262.5670, 18305.00
263.7840, 18431.00
265.0010, 18170.00
266.2180, 18414.00
267.4350, 18365.00
268.6510, 18417.00
269.8680, 18471.00
271.0840, 18543.00
272.3000, 18536.00
273.5160, 18574.00
274.7310, 18593.00
275.9470, 18648.00
277.1620, 18753.00
278.3770, 18747.91
279.5920, 18580.00
280.8070, 18689.00
282.0210, 18646.00
283.2360, 18409.00
284.4500, 18659.00
285.6640, 18526.00
286.8780, 18591.00
288.0920, 18698.00
289.3050, 18573.00
290.5180, 18541.00
291.7320, 18774.00
292.9450, 18797.00
294.1570, 18648.00
295.3700, 18638.00
296.5830, 18726.00
297.7950, 18608.00
299.0070, 18635.00
300.2190, 18752.00
301.4310, 18666.00
302.6420, 18831.00
303.8540, 18812.00
305.0650, 18844.00
306.2760, 18709.00
307.4870, 18927.00
308.6980, 18903.00
309.9080, 18930.00
311.1190, 19032.00
312.3290, 18894.00
313.5390, 19075.00
314.7490, 19184.00
315.9580, 19034.00
317.1680, 19128.00
318.3770, 19124.00
319.5860, 19165.00
320.7950, 19175.43
322.0040, 19154.06
323.2130, 19172.00
324.4210, 19097.00
325.6290, 19098.00
326.8380, 19059.00
328.0460, 19044.56
329.2530, 19079.00
330.4610, 19058.00
331.6680, 19045.00
332.8760, 19105.00
334.0830, 19001.00
335.2890, 19063.00
336.4960, 19033.00
337.7030, 19189.00
338.9090, 19077.00
340.1150, 19264.00
341.3210, 18972.00
342.5270, 19135.00
343.7330, 19277.00
344.9380, 19242.00
346.1440, 19357.00
347.3490, 19170.00
348.5540, 19180.00
349.7590, 19292.00
350.9630, 19427.00
352.1680, 19284.00
353.3720, 19300.00
354.5760, 19565.00
355.7800, 19502.00
356.9840, 19499.00
358.1870, 19503.00
359.3910, 19384.00
360.5940, 19443.00
361.7970, 19426.00
363.0000, 19438.00
364.2030, 19479.00
365.4050, 19456.00
366.6080, 19529.00
367.8100, 19491.00
369.0120, 19605.00
370.2140, 19693.00
371.4150, 19631.00
372.6170, 19626.00
373.8180, 19832.00
375.0190, 19709.00
376.2200, 19913.00
377.4210, 19846.00
378.6220, 19869.00
379.8220, 19981.00
381.0230, 19883.00
382.2230, 19876.00
383.4230, 19741.00
384.6220, 19649.00
385.8220, 19787.00
387.0220, 19921.00
388.2210, 19636.00
389.4200, 19699.00
390.6190, 19489.00
391.8180, 19749.00
393.0160, 19695.00
394.2150, 19789.00
395.4130, 19793.00
396.6110, 19736.00
397.8090, 19794.00
399.0060, 19831.00
400.2040, 19968.00
401.4010, 19820.00
402.5980, 19923.00
403.7950, 19974.00
404.9920, 19863.00
406.1890, 19942.00
407.3860, 20068.00
408.5820, 20110.00
409.7780, 20198.00
410.9740, 20237.94
412.1700, 20246.00
413.3650, 20281.00
414.5610, 20206.00
415.7560, 20188.00
416.9510, 20231.00
418.1460, 20077.00
419.3410, 20300.00
420.5360, 20171.00
421.7300, 20316.00
422.9240, 20061.00
424.1180, 20109.00
425.3120, 20230.00
426.5060, 20133.00
427.7000, 20062.00
428.8930, 20153.00
430.0860, 20268.00
431.2790, 20343.00
432.4720, 20250.00
433.6650, 20224.00
434.8580, 20194.00
436.0500, 20252.00
437.2420, 20273.00
438.4340, 20115.00
439.6260, 20448.00
440.8180, 20554.00
442.0090, 20396.00
443.2010, 20320.00
444.3920, 20300.00
445.5830, 20381.00
446.7740, 20517.00
447.9640, 20452.00
449.1550, 20408.00
450.3450, 20378.00
451.5350, 20706.00
452.7250, 20424.00
453.9150, 20478.00
455.1050, 20654.00
456.2940, 20481.00
457.4830, 20574.00
458.6720, 20519.00
459.8610, 20611.00
461.0500, 20594.00
462.2390, 20626.00
463.4270, 20509.00
464.6150, 20694.00
465.8040, 20569.00
466.9910, 20779.00
468.1790, 20712.00
469.3670, 20883.00
470.5540, 20917.00
471.7410, 20803.00
472.9280, 20890.00
474.1150, 20849.00
475.3020, 20754.00
476.4890, 21088.00
477.6750, 20665.00
478.8610, 21007.00
480.0470, 20992.00
481.2330, 21112.00
482.4190, 20986.00
483.6040, 20981.00
484.7900, 21022.00
485.9750, 21079.00
487.1600, 20956.00
488.3450, 21105.00
489.5290, 20891.00
490.7140, 20961.00
491.8980, 21182.00
493.0820, 21246.00
494.2660, 21315.00
495.4500, 21160.00
496.6340, 21249.00
497.8170, 21136.00
499.0010, 21293.00
500.1840, 21290.00
501.3670, 21380.00
502.5500, 21439.83
503.7320, 21404.00
504.9150, 21472.00
506.0970, 21406.00
507.2790, 21272.00
508.4610, 21509.00
509.6430, 21415.00
510.8250, 21363.00
512.0060, 21433.00
513.1870, 21480.00
514.3680, 21523.00
515.5490, 21420.00
516.7300, 21654.00
517.9110, 21381.00
519.0910, 21527.00
520.2710, 21419.00
521.4510, 21528.00
522.6310, 21565.00
523.8110, 21664.00
524.9910, 21548.00
526.1700, 21505.00
527.3490, 21657.00
528.5280, 21467.00
529.7070, 21688.00
530.8860, 21592.00
532.0650, 21719.00
533.2430, 21798.00
534.4210, 21576.00
535.5990, 21898.00
536.7770, 21811.00
537.9550, 21707.00
539.1320, 21807.00
540.3100, 21641.00
541.4870, 21822.00
542.6640, 21905.00
543.8410, 21842.00
545.0170, 22099.00
546.1940, 21804.00
547.3700, 22012.00
548.5470, 22006.00
549.7230, 22012.00
550.8980, 22008.00
552.0740, 22119.00
553.2500, 21948.00
554.4250, 21896.00
555.6000, 21925.00
556.7750, 22119.00
557.9500, 22187.00
559.1250, 22137.00
560.2990, 22149.00
561.4730, 21932.00
562.6480, 22033.00
563.8220, 22097.00
564.9950, 22076.00
566.1690, 22408.00
567.3430, 22542.00
568.5160, 22014.00
569.6890, 22353.00
570.8620, 22329.00
572.0350, 22573.00
573.2070, 22323.00
574.3800, 22344.00
575.5520, 22600.00
576.7240, 22288.00
577.8960, 22539.00
579.0680, 22495.00
580.2400, 22434.00
581.4110, 22443.00
582.5830, 22404.87
583.7540, 22438.81
584.9250, 22415.00
586.0950, 22495.00
587.2660, 22594.00
588.4370, 22563.00
589.6070, 22647.00
590.7770, 22678.00
591.9470, 22595.00
593.1170, 22637.00
594.2860, 22757.00
595.4560, 22553.00
596.6250, 22763.00
597.7940, 22799.00
598.9630, 22769.00
600.1320, 22781.00
601.3000, 22821.00
602.4690, 22764.00
603.6370, 22903.00
604.8050, 22878.00
605.9730, 23006.00
607.1410, 23027.00
608.3090, 22907.00
609.4760, 23062.00
610.6430, 23088.00
611.8100, 23037.00
612.9770, 23232.00
614.1440, 23234.00
615.3110, 23285.00
616.4770, 23349.00
617.6430, 23050.00
618.8090, 23095.00
619.9750, 23048.00
621.1410, 23077.00
622.3070, 23128.72
623.4720, 23383.00
624.6370, 23272.00
625.8020, 23413.00
626.9670, 23534.00
628.1320, 23513.00
629.2970, 23577.00
630.4610, 23522.00
631.6250, 23668.00
632.7890, 23651.00
633.9530, 23567.00
635.1170, 23792.00
636.2810, 23719.00
637.4440, 24003.00
638.6070, 23966.00
639.7700, 24180.00
640.9330, 23834.00
642.0960, 24203.00
643.2590, 24118.00
644.4210, 24442.00
645.5830, 24591.00
646.7450, 24790.00
647.9070, 24839.00
649.0690, 25099.00
650.2310, 25453.00
651.3920, 25713.00
652.5530, 25629.00
653.7140, 25386.00
654.8750, 25329.00
656.0360, 24915.00
657.1970, 24763.00
658.3570, 24482.00
659.5170, 24525.00
660.6770, 24413.00
661.8370, 24337.00
662.9970, 24281.00
664.1570, 24225.55
665.3160, 24318.00
666.4750, 24187.00
667.6340, 24327.00
668.7930, 24383.00
669.9520, 24406.00
671.1110, 24439.18
672.2690, 24398.00
673.4270, 24370.00
674.5850, 24387.46
675.7430, 24403.00
676.9010, 24423.00
678.0590, 24410.00
679.2160, 24481.00
680.3730, 24621.00
681.5300, 24617.00
682.6870, 24702.63
683.8440, 24563.00
685.0010, 24780.00
686.1570, 24630.00
687.3130, 24610.00
688.4690, 24757.00
689.6250, 24681.00
690.7810, 24974.00
691.9370, 24711.00
693.0920, 24606.00
694.2470, 24789.00
695.4020, 24658.00
696.5570, 24785.00
697.7120, 24965.00
698.8670, 24733.00
700.0210, 24834.00
701.1750, 24892.00
702.3290, 24770.00
703.4830, 24790.00
704.6370, 24979.00
705.7910, 24872.00
706.9440, 24919.00
708.0970, 25149.00
709.2510, 25117.00
710.4030, 25024.00
711.5560, 25086.00
712.7090, 25012.00
713.8610, 25149.00
715.0140, 25153.00
716.1660, 25180.12
717.3180, 25185.00
718.4690, 25214.00
719.6210, 25303.00
720.7730, 25250.00
721.9240, 25347.00
723.0750, 25456.00
724.2260, 25587.00
725.3770, 25366.00
726.5270, 25125.00
727.6780, 25381.00
728.8280, 25292.00
729.9780, 25574.00
731.1280, 25527.00
732.2780, 25540.00
733.4280, 25473.00
734.5770, 25658.00
735.7260, 25761.00
736.8760, 25832.00
738.0250, 25728.00
739.1730, 25756.00
740.3220, 25670.00
741.4700, 25673.00
742.6190, 25654.00
743.7670, 25675.46
744.9150, 25827.00
746.0630, 25759.00
747.2100, 25787.00
748.3580, 25812.00
749.5050, 26034.00
750.6520, 26093.00
751.7990, 26087.00
752.9460, 25978.00
754.0930, 26120.00
755.2390, 26094.00
756.3860, 26148.59
757.5320, 26110.00
758.6780, 26259.00
759.8240, 26157.00
760.9690, 26156.00
762.1150, 26354.00
763.2600, 26254.00
764.4060, 26349.00
765.5510, 26395.00
766.6950, 26421.00
767.8400, 26493.00
768.9850, 26428.00
770.1290, 26352.00
771.2730, 26321.00
772.4170, 26350.78
773.5610, 26466.00
774.7050, 26496.00
775.8480, 26528.00
776.9920, 26669.00
778.1350, 26700.00
779.2780, 26781.00
780.4210, 26816.54
781.5640, 26839.00
782.7060, 26819.00
783.8490, 26735.00
784.9910, 26656.00
786.1330, 26778.00
787.2750, 27068.00
788.4170, 26844.00
789.5580, 26946.00
790.7000, 26842.00
791.8410, 26902.00
792.9820, 26999.00
794.1230, 26961.00
795.2640, 27137.00
796.4040, 26859.00
797.5450, 27151.00
798.6850, 27345.00
799.8250, 26990.00
800.9650, 27085.00
802.1050, 27106.00
803.2450, 27341.00
804.3840, 27270.00
805.5230, 27399.00
806.6630, 27402.00
807.8020, 27249.00
808.9400, 27466.00
810.0790, 27294.00
811.2170, 27531.00
812.3560, 27615.00
813.4940, 27531.00
814.6320, 27541.00
815.7700, 27725.00
816.9070, 27649.00
818.0450, 27792.00
819.1820, 27796.00
820.3190, 27695.00
821.4560, 27891.00
822.5930, 27868.00
823.7300, 27812.00
824.8670, 27919.00
826.0030, 27956.00
827.1390, 28019.00
828.2750, 28035.00
829.4110, 28039.64
830.5470, 28193.00
831.6820, 28059.00
832.8180, 27962.00
833.9530, 28055.00
835.0880, 27890.00
836.2230, 28253.00
837.3580, 27989.00
838.4920, 28412.00
839.6270, 28378.00
840.7610, 28245.00
841.8950, 28306.00
843.0290, 28182.00
844.1630, 28224.00
845.2960, 28564.00
846.4300, 28489.00
847.5630, 28701.00
848.6960, 28443.00
849.8290, 28352.00
850.9620, 28545.00
852.0940, 28558.00
853.2270, 28764.00
854.3590, 28755.00
855.4910, 28858.00
856.6230, 28786.00
857.7550, 28636.00
858.8870, 28945.00
860.0180, 28855.00
861.1500, 28800.00
862.2810, 28904.00
863.4120, 29125.00
864.5430, 28962.00
865.6730, 28986.00
866.8040, 28918.00
867.9340, 29274.00
869.0640, 29252.00
870.1940, 29100.00
871.3240, 29264.00
872.4540, 29157.00
873.5830, 29117.00
874.7130, 29409.00
875.8420, 29311.00
876.9710, 29506.00
878.1000, 29372.00
879.2290, 29271.00
880.3570, 29552.00
881.4860, 29495.00
882.6140, 29325.00
883.7420, 29533.00
884.8700, 29785.00
885.9980, 29541.00
887.1250, 29558.00
888.2530, 29832.00
889.3800, 29427.00
890.5070, 29614.00
891.6340, 29586.00
892.7610, 29827.00
893.8880, 29692.00
895.0140, 29870.00
896.1400, 29940.00
897.2670, 29669.00
898.3930, 29819.00
899.5180, 29820.00
900.6440, 30103.00
901.7700, 30037.00
902.8950, 30178.00
904.0200, 30147.00
905.1450, 29985.00
906.2700, 30426.00
907.3950, 30263.00
908.5190, 30213.00
909.6440, 30682.00
910.7680, 30513.00
911.8920, 30468.00
913.0160, 30267.00
914.1400, 30707.00
915.2630, 30479.00
916.3870, 30720.00
917.5100, 30455.00
918.6330, 30555.00
919.7560, 30551.00
920.8790, 30573.00
922.0010, 30802.00
923.1240, 30630.00
924.2460, 30610.00
925.3680, 30794.00
926.4900, 30821.00
927.6120, 30889.00
928.7340, 30987.00
929.8550, 31078.00
930.9760, 30977.00
932.0980, 31182.00
933.2190, 30984.00
934.3390, 31162.00
935.4600, 31107.00
936.5810, 31156.00
937.7010, 31161.00
938.8210, 31354.00
939.9410, 31187.00
941.0610, 31410.00
942.1810, 31327.00
943.3010, 31588.00
944.4200, 31418.00
945.5390, 31626.00
946.6580, 31688.00
947.7770, 31597.00
948.8960, 31813.00
950.0150, 31664.00
951.1330, 31573.00
952.2510, 31733.00
953.3690, 31826.00
954.4870, 31762.00
955.6050, 31905.00
956.7230, 32112.00
957.8400, 32151.00
958.9580, 32165.00
960.0750, 32119.00
961.1920, 31938.00
962.3090, 32229.00
963.4250, 32457.00
964.5420, 32288.00
965.6580, 32354.00
966.7740, 32494.00
967.8900, 32633.00
969.0060, 32885.00
970.1220, 32911.00
971.2380, 32949.00
972.3530, 32825.00
973.4680, 32928.00
974.5830, 32953.00
975.6980, 32695.00
976.8130, 32805.00
977.9280, 32839.00
979.0420, 33239.00
980.1560, 33006.00
981.2710, 33152.00
982.3850, 33053.00
983.4980, 32884.00
984.6120, 33165.00
985.7260, 33042.00
986.8390, 33052.00
987.9520, 33201.00
989.0650, 33328.00
990.1780, 33299.00
991.2910, 33401.00
992.4030, 33422.00
993.5160, 33383.00
994.6280, 33360.00
995.7400, 33479.00
996.8520, 33589.00
997.9640, 33557.00
999.0750, 33647.00
1000.187, 33682.36
1001.298, 33913.00
1002.409, 33754.00
1003.520, 33848.00
1004.631, 33863.00
1005.741, 34093.00
1006.852, 33808.00
1007.962, 33835.00
1009.072, 33743.00
1010.182, 33868.00
1011.292, 33735.00
1012.402, 33974.00
1013.511, 33963.00
1014.621, 34147.00
1015.730, 34064.00
1016.839, 34246.00
1017.948, 34287.00
1019.056, 34501.00
1020.165, 34670.00
1021.273, 34789.00
1022.382, 34612.00
1023.490, 35072.00
1024.598, 34831.00
1025.706, 35026.00
1026.813, 34872.00
1027.921, 34826.00
1029.028, 34659.00
1030.135, 34762.00
1031.242, 34755.00
1032.349, 34810.00
1033.456, 34776.00
1034.562, 34826.00
1035.668, 34857.92
1036.775, 34621.00
1037.881, 34907.00
1038.987, 34770.00
1040.092, 34706.00
1041.198, 34893.00
1042.303, 34686.00
1043.408, 34822.00
1044.514, 34814.00
1045.618, 34849.00
1046.723, 34964.00
1047.828, 34759.00
1048.932, 35000.00
1050.037, 35349.00
1051.141, 35046.00
1052.245, 35271.00
1053.349, 35230.00
1054.452, 35175.00
1055.556, 35329.00
1056.659, 34922.00
1057.762, 35067.00
1058.865, 35221.00
1059.968, 35428.00
1061.071, 35332.00
1062.174, 35471.00
1063.276, 35663.00
1064.378, 35543.00
1065.480, 35626.00
1066.582, 35589.00
1067.684, 35826.00
1068.786, 35942.00
1069.887, 35611.00
1070.988, 35868.00
1072.090, 35778.00
1073.191, 35736.00
1074.291, 36027.00
1075.392, 36244.00
1076.493, 36134.00
1077.593, 35983.00
1078.693, 36262.00
1079.793, 36289.00
1080.893, 36359.00
1081.993, 36237.00
1083.092, 36212.00
1084.192, 36412.00
1085.291, 36164.00
1086.390, 36478.00
1087.489, 36463.00
1088.588, 36647.00
1089.686, 36565.00
1090.785, 36463.00
1091.883, 36812.00
1092.981, 36783.00
1094.079, 36558.00
1095.177, 36791.00
1096.275, 36917.00
1097.373, 36922.00
1098.470, 37023.00
1099.567, 36937.00
1100.664, 36686.00
1101.761, 37055.00
1102.858, 36994.00
1103.954, 37024.00
1105.051, 37270.00
1106.147, 37157.00
1107.243, 37188.00
1108.339, 37206.00
1109.435, 37233.00
1110.531, 37435.00
1111.626, 37411.00
1112.722, 37287.00
1113.817, 37197.00
1114.912, 37614.00
1116.007, 37376.00
1117.101, 37362.00
1118.196, 37839.00
1119.290, 37661.00
1120.385, 37698.00
1121.479, 37846.00
1122.573, 37931.00
1123.666, 37829.00
1124.760, 38214.00
1125.853, 38021.00
1126.947, 38128.00
1128.040, 38147.00
1129.133, 38037.00
1130.226, 38273.00
1131.318, 38096.00
1132.411, 38249.00
1133.503, 38191.00
1134.596, 38389.00
1135.688, 38405.00
1136.780, 38290.00
1137.871, 38554.00
1138.963, 38350.00
1140.054, 38698.00
1141.146, 38648.00
1142.237, 38367.00
1143.328, 38512.00
1144.419, 38558.00
1145.509, 38678.00
1146.600, 38761.00
1147.690, 38904.00
1148.780, 38990.00
1149.870, 38519.00
1150.960, 39088.00
1152.050, 38775.00
1153.139, 39025.00
1154.229, 38963.00
1155.318, 39148.00
1156.407, 39285.00
1157.496, 39088.00
1158.585, 39239.00
1159.674, 39343.00
1160.762, 39481.00
1161.850, 39467.31
1162.939, 39595.00
1164.027, 39358.00
1165.114, 39601.00
1166.202, 39471.00
1167.290, 39689.00
1168.377, 39625.00
1169.464, 39884.00
1170.551, 39884.00
1171.638, 40038.00
1172.725, 39624.00
1173.812, 39515.00
1174.898, 39959.00
1175.984, 39969.00
1177.071, 40131.00
1178.157, 40178.00
1179.242, 39985.00
1180.328, 39945.00
1181.414, 40113.00
1182.499, 39996.00
1183.584, 40214.00
1184.669, 40357.00
1185.754, 40210.00
1186.839, 40332.00
1187.924, 40456.00
1189.008, 40352.00
1190.092, 40493.00
1191.177, 40287.00
1192.260, 40595.00
1193.344, 40547.00
1194.428, 40543.00
##END=



