##NAMES=Pectolite
##RRUFFID=R050396
##IDEAL CHEMISTRY=NaCa_2_Si_3_O_8_(OH)
##LOCALITY=Jeffrey Quarry, Asbestos, Quebec, Canada
##OWNER=RRUFF
##SOURCE=Marcus Origlieri
##DESCRIPTION=Colorless to gray columnar blocky crystals
##STATUS=The identification of this mineral has been confirmed by X-ray diffraction and chemical analysis
##URL=rruff.info/R050396
##MEASURED CHEMISTRY=Na_1.00_Ca_2.00_Si_3.00_O_8_(OH)
##PIN_ID=L01945
##ORIENTATION=Laser parallel to (1 1 0). Fiducial mark perpendicular to laser is parallel to c [0 0 1]
137.4850, 24760.00
138.7200, 24914.00
139.9550, 24957.82
141.1900, 25104.00
142.4250, 25086.00
143.6600, 25239.00
144.8940, 25377.00
146.1280, 25271.00
147.3620, 25439.00
148.5960, 25534.00
149.8300, 25637.00
151.0630, 25612.00
152.2960, 25822.00
153.5300, 25725.00
154.7620, 25792.00
155.9950, 25558.00
157.2280, 25687.00
158.4600, 25693.00
159.6920, 25683.00
160.9250, 25636.00
162.1560, 25640.00
163.3880, 25450.00
164.6200, 25676.00
165.8510, 25645.00
167.0820, 25426.00
168.3130, 25592.00
169.5440, 25636.00
170.7750, 25604.00
172.0050, 25675.00
173.2350, 25718.00
174.4650, 25586.00
175.6950, 25848.00
176.9250, 25748.00
178.1550, 25891.00
179.3840, 25941.00
180.6130, 26101.00
181.8420, 26136.54
183.0710, 26238.99
184.3000, 26197.00
185.5280, 26339.00
186.7570, 26321.00
187.9850, 26209.00
189.2130, 26070.00
190.4400, 26179.00
191.6680, 26192.00
192.8960, 26077.00
194.1230, 26228.00
195.3500, 26551.00
196.5770, 26481.00
197.8030, 26527.00
199.0300, 26551.00
200.2560, 26555.00
201.4830, 26714.00
202.7090, 26642.00
203.9340, 26717.00
205.1600, 26743.00
206.3860, 26691.00
207.6110, 26621.00
208.8360, 26549.00
210.0610, 26524.00
211.2860, 26489.00
212.5100, 26645.00
213.7350, 26728.00
214.9590, 26721.84
216.1830, 26518.00
217.4070, 26666.00
218.6310, 26655.00
219.8540, 26463.00
221.0780, 26827.00
222.3010, 26882.00
223.5240, 26627.00
224.7470, 26762.00
225.9690, 26605.00
227.1920, 26765.00
228.4140, 26599.00
229.6360, 26641.00
230.8580, 26592.00
232.0800, 26764.00
233.3020, 26812.00
234.5230, 26797.00
235.7440, 26939.00
236.9650, 26734.00
238.1860, 26871.00
239.4070, 26850.00
240.6280, 26861.00
241.8480, 26853.00
243.0680, 26752.00
244.2880, 26775.00
245.5080, 26804.00
246.7280, 26780.00
247.9470, 26927.00
249.1660, 26940.00
250.3860, 26789.00
251.6040, 27046.00
252.8230, 27224.00
254.0420, 27064.00
255.2600, 27090.00
256.4790, 27140.00
257.6970, 27238.00
258.9150, 27412.00
260.1320, 27436.34
261.3500, 27142.00
262.5670, 27471.00
263.7840, 27468.00
265.0010, 27301.00
266.2180, 27436.00
267.4350, 27268.00
268.6510, 27304.00
269.8680, 27462.00
271.0840, 27435.00
272.3000, 27350.00
273.5160, 27572.00
274.7310, 27339.00
275.9470, 27583.00
277.1620, 27571.00
278.3770, 27487.00
279.5920, 27766.00
280.8070, 27435.00
282.0210, 27709.00
283.2360, 27491.00
284.4500, 27531.00
285.6640, 27808.00
286.8780, 27611.00
288.0920, 27516.00
289.3050, 27673.00
290.5180, 27457.00
291.7320, 27634.00
292.9450, 27656.00
294.1570, 27697.00
295.3700, 27717.00
296.5830, 27695.14
297.7950, 27470.00
299.0070, 27641.00
300.2190, 27707.00
301.4310, 27706.00
302.6420, 27949.00
303.8540, 27987.63
305.0650, 27803.00
306.2760, 28089.00
307.4870, 28085.00
308.6980, 27865.00
309.9080, 28221.00
311.1190, 28218.00
312.3290, 28473.00
313.5390, 28293.00
314.7490, 28557.00
315.9580, 28522.00
317.1680, 28663.00
318.3770, 28410.00
319.5860, 28375.00
320.7950, 28414.00
322.0040, 28467.00
323.2130, 28184.00
324.4210, 28090.00
325.6290, 28045.00
326.8380, 27724.00
328.0460, 28139.00
329.2530, 28045.00
330.4610, 27886.00
331.6680, 27904.00
332.8760, 27970.00
334.0830, 28078.00
335.2890, 28007.00
336.4960, 28033.00
337.7030, 28026.00
338.9090, 27918.00
340.1150, 28195.00
341.3210, 28397.00
342.5270, 28085.00
343.7330, 27997.00
344.9380, 28302.00
346.1440, 28074.00
347.3490, 28504.00
348.5540, 28370.00
349.7590, 28331.00
350.9630, 28551.00
352.1680, 28514.00
353.3720, 28514.00
354.5760, 28606.00
355.7800, 28640.00
356.9840, 28771.00
358.1870, 28703.00
359.3910, 28873.00
360.5940, 28762.00
361.7970, 28524.00
363.0000, 28383.00
364.2030, 28379.08
365.4050, 28515.00
366.6080, 28455.00
367.8100, 28499.00
369.0120, 28619.00
370.2140, 28552.00
371.4150, 28338.00
372.6170, 28432.00
373.8180, 28507.00
375.0190, 28660.00
376.2200, 28785.00
377.4210, 28713.00
378.6220, 28668.00
379.8220, 28549.00
381.0230, 28565.88
382.2230, 28540.00
383.4230, 28552.00
384.6220, 28616.00
385.8220, 28557.00
387.0220, 28436.00
388.2210, 28704.00
389.4200, 28762.00
390.6190, 28649.00
391.8180, 28569.00
393.0160, 28649.00
394.2150, 28642.00
395.4130, 28742.00
396.6110, 28724.87
397.8090, 28770.00
399.0060, 28768.00
400.2040, 28744.00
401.4010, 28890.00
402.5980, 28829.00
403.7950, 28919.00
404.9920, 29125.00
406.1890, 29045.00
407.3860, 29296.00
408.5820, 29146.00
409.7780, 29290.00
410.9740, 29465.00
412.1700, 29651.00
413.3650, 29272.00
414.5610, 29238.00
415.7560, 29253.00
416.9510, 29396.00
418.1460, 29278.00
419.3410, 29270.00
420.5360, 29015.00
421.7300, 28968.66
422.9240, 29289.00
424.1180, 28896.00
425.3120, 28865.00
426.5060, 29133.00
427.7000, 28891.00
428.8930, 29170.00
430.0860, 28920.00
431.2790, 29045.00
432.4720, 28795.00
433.6650, 29254.00
434.8580, 29048.00
436.0500, 29192.00
437.2420, 28865.00
438.4340, 28932.00
439.6260, 29162.00
440.8180, 29223.00
442.0090, 29226.00
443.2010, 29043.00
444.3920, 29008.00
445.5830, 29374.00
446.7740, 28909.00
447.9640, 29209.00
449.1550, 29395.00
450.3450, 29332.00
451.5350, 29141.00
452.7250, 29273.00
453.9150, 29482.00
455.1050, 29636.00
456.2940, 29538.00
457.4830, 29246.00
458.6720, 29595.00
459.8610, 29378.00
461.0500, 29328.00
462.2390, 29476.00
463.4270, 29391.00
464.6150, 29457.00
465.8040, 29505.00
466.9910, 29480.00
468.1790, 29777.00
469.3670, 29798.00
470.5540, 29717.00
471.7410, 29651.00
472.9280, 29649.00
474.1150, 29751.00
475.3020, 29660.00
476.4890, 29747.00
477.6750, 29624.00
478.8610, 29829.00
480.0470, 29974.00
481.2330, 29605.00
482.4190, 30086.00
483.6040, 29759.00
484.7900, 29960.00
485.9750, 29821.00
487.1600, 29948.00
488.3450, 29783.00
489.5290, 29979.00
490.7140, 29805.00
491.8980, 29771.00
493.0820, 30069.00
494.2660, 29997.00
495.4500, 30022.00
496.6340, 30186.00
497.8170, 30148.00
499.0010, 30133.00
500.1840, 30015.00
501.3670, 30136.00
502.5500, 30175.00
503.7320, 30117.00
504.9150, 30204.00
506.0970, 30284.00
507.2790, 30269.00
508.4610, 30409.00
509.6430, 30222.00
510.8250, 30189.00
512.0060, 30332.00
513.1870, 30492.00
514.3680, 30259.00
515.5490, 30442.00
516.7300, 30466.00
517.9110, 30420.00
519.0910, 30447.00
520.2710, 30649.00
521.4510, 30376.00
522.6310, 30593.00
523.8110, 30541.00
524.9910, 30475.00
526.1700, 30556.00
527.3490, 30530.00
528.5280, 30527.00
529.7070, 30753.00
530.8860, 30627.00
532.0650, 30831.00
533.2430, 30789.00
534.4210, 30890.00
535.5990, 30541.00
536.7770, 30599.00
537.9550, 30528.00
539.1320, 30605.00
540.3100, 30481.00
541.4870, 30755.00
542.6640, 30628.00
543.8410, 30703.00
545.0170, 30935.00
546.1940, 30814.00
547.3700, 30949.00
548.5470, 30813.00
549.7230, 30702.00
550.8980, 30823.00
552.0740, 30802.00
553.2500, 30794.66
554.4250, 30905.00
555.6000, 30859.00
556.7750, 30958.00
557.9500, 31131.00
559.1250, 31017.00
560.2990, 31126.00
561.4730, 31031.00
562.6480, 31027.00
563.8220, 31134.00
564.9950, 31099.00
566.1690, 31200.00
567.3430, 31201.00
568.5160, 31116.00
569.6890, 31354.00
570.8620, 31396.00
572.0350, 31355.00
573.2070, 31223.00
574.3800, 31393.00
575.5520, 31467.00
576.7240, 31354.00
577.8960, 31352.00
579.0680, 31459.00
580.2400, 31346.00
581.4110, 31509.00
582.5830, 31417.00
583.7540, 31460.00
584.9250, 31763.00
586.0950, 31634.00
587.2660, 31594.00
588.4370, 31576.00
589.6070, 31366.00
590.7770, 31695.00
591.9470, 31675.00
593.1170, 31437.00
594.2860, 31724.00
595.4560, 31728.00
596.6250, 31803.00
597.7940, 31555.00
598.9630, 31598.00
600.1320, 31738.00
601.3000, 31978.00
602.4690, 31692.00
603.6370, 31822.00
604.8050, 32035.00
605.9730, 32185.00
607.1410, 32063.00
608.3090, 31931.00
609.4760, 31983.00
610.6430, 31883.00
611.8100, 32007.00
612.9770, 31936.00
614.1440, 32196.00
615.3110, 32164.00
616.4770, 32163.00
617.6430, 32134.00
618.8090, 32014.00
619.9750, 32296.00
621.1410, 32481.00
622.3070, 32307.00
623.4720, 32329.00
624.6370, 32344.00
625.8020, 32458.00
626.9670, 32625.00
628.1320, 32669.00
629.2970, 32630.00
630.4610, 32614.00
631.6250, 32653.00
632.7890, 32706.00
633.9530, 32641.00
635.1170, 32919.00
636.2810, 32897.00
637.4440, 33096.00
638.6070, 32946.00
639.7700, 33409.00
640.9330, 33577.00
642.0960, 33837.00
643.2590, 34243.00
644.4210, 34563.00
645.5830, 34882.00
646.7450, 35405.00
647.9070, 35959.00
649.0690, 36292.00
650.2310, 36763.00
651.3920, 37110.00
652.5530, 36833.00
653.7140, 36701.00
654.8750, 36249.00
656.0360, 35764.00
657.1970, 35076.00
658.3570, 34826.00
659.5170, 34396.00
660.6770, 33862.00
661.8370, 33556.00
662.9970, 33726.00
664.1570, 33346.00
665.3160, 33738.00
666.4750, 33666.00
667.6340, 33421.00
668.7930, 33473.00
669.9520, 33170.00
671.1110, 33590.00
672.2690, 33427.00
673.4270, 33499.00
674.5850, 33362.00
675.7430, 33404.00
676.9010, 33298.00
678.0590, 33181.00
679.2160, 33519.00
680.3730, 33397.00
681.5300, 33378.00
682.6870, 33461.00
683.8440, 33296.00
685.0010, 33445.00
686.1570, 33388.00
687.3130, 33594.00
688.4690, 33694.00
689.6250, 33499.00
690.7810, 33592.00
691.9370, 33782.00
693.0920, 33488.00
694.2470, 33646.00
695.4020, 33698.00
696.5570, 33586.00
697.7120, 33765.00
698.8670, 33504.00
700.0210, 33667.00
701.1750, 33745.00
702.3290, 34031.00
703.4830, 33915.00
704.6370, 33970.00
705.7910, 33995.00
706.9440, 33870.00
708.0970, 34091.00
709.2510, 34146.00
710.4030, 34071.00
711.5560, 34120.00
712.7090, 34275.00
713.8610, 34213.00
715.0140, 34191.00
716.1660, 34130.00
717.3180, 34178.73
718.4690, 34042.00
719.6210, 34323.00
720.7730, 34265.00
721.9240, 34394.00
723.0750, 34201.00
724.2260, 34112.00
725.3770, 34328.00
726.5270, 34386.00
727.6780, 34287.00
728.8280, 34496.00
729.9780, 34372.00
731.1280, 34393.00
732.2780, 34262.00
733.4280, 34413.00
734.5770, 34468.00
735.7260, 34706.00
736.8760, 34779.00
738.0250, 34482.00
739.1730, 34936.00
740.3220, 34512.00
741.4700, 34654.00
742.6190, 34690.00
743.7670, 34461.00
744.9150, 34861.00
746.0630, 34773.00
747.2100, 34772.00
748.3580, 34805.00
749.5050, 34808.00
750.6520, 35040.00
751.7990, 34799.00
752.9460, 35042.00
754.0930, 35153.00
755.2390, 35010.00
756.3860, 34786.00
757.5320, 34909.00
758.6780, 34786.00
759.8240, 34923.00
760.9690, 35085.00
762.1150, 35172.00
763.2600, 35076.00
764.4060, 35160.00
765.5510, 35287.00
766.6950, 35217.00
767.8400, 35357.00
768.9850, 35385.00
770.1290, 35108.00
771.2730, 35236.00
772.4170, 35383.00
773.5610, 35253.00
774.7050, 35383.00
775.8480, 35303.00
776.9920, 35539.00
778.1350, 35606.00
779.2780, 35719.00
780.4210, 35777.26
781.5640, 35475.00
782.7060, 35659.00
783.8490, 35758.00
784.9910, 35376.00
786.1330, 35402.00
787.2750, 35728.00
788.4170, 35712.00
789.5580, 35715.00
790.7000, 35573.00
791.8410, 35668.00
792.9820, 35869.00
794.1230, 35837.00
795.2640, 35731.00
796.4040, 35706.00
797.5450, 35929.00
798.6850, 35955.00
799.8250, 35974.00
800.9650, 35960.00
802.1050, 36001.00
803.2450, 36107.00
804.3840, 36198.00
805.5230, 36185.00
806.6630, 36315.00
807.8020, 35984.00
808.9400, 36319.00
810.0790, 36438.00
811.2170, 36127.00
812.3560, 36360.00
813.4940, 36293.00
814.6320, 36574.00
815.7700, 36364.00
816.9070, 36289.00
818.0450, 36505.00
819.1820, 36585.00
820.3190, 36391.00
821.4560, 36610.00
822.5930, 36554.00
823.7300, 36633.00
824.8670, 36757.00
826.0030, 36817.00
827.1390, 36835.69
828.2750, 36931.00
829.4110, 36843.00
830.5470, 36922.22
831.6820, 36700.00
832.8180, 36974.00
833.9530, 36935.00
835.0880, 36916.00
836.2230, 36721.00
837.3580, 36715.00
838.4920, 37046.00
839.6270, 37198.00
840.7610, 37090.00
841.8950, 36994.00
843.0290, 37120.00
844.1630, 37434.00
845.2960, 37380.00
846.4300, 37352.00
847.5630, 37302.00
848.6960, 37244.00
849.8290, 37332.00
850.9620, 37317.00
852.0940, 37272.00
853.2270, 37270.00
854.3590, 37503.00
855.4910, 37521.00
856.6230, 37328.00
857.7550, 37574.00
858.8870, 37450.00
860.0180, 37558.00
861.1500, 37441.00
862.2810, 37335.00
863.4120, 37771.00
864.5430, 38016.00
865.6730, 37884.00
866.8040, 37906.00
867.9340, 37809.00
869.0640, 37704.00
870.1940, 37785.00
871.3240, 37775.05
872.4540, 37601.00
873.5830, 37993.00
874.7130, 37844.00
875.8420, 38109.00
876.9710, 37919.00
878.1000, 37857.00
879.2290, 37876.00
880.3570, 37911.00
881.4860, 38040.00
882.6140, 38044.38
883.7420, 37922.00
884.8700, 38129.00
885.9980, 38164.00
887.1250, 38213.00
888.2530, 38426.00
889.3800, 38329.00
890.5070, 38130.00
891.6340, 38419.00
892.7610, 38105.00
893.8880, 38395.00
895.0140, 38551.00
896.1400, 38503.00
897.2670, 38499.00
898.3930, 38513.00
899.5180, 38420.00
900.6440, 38599.00
901.7700, 38834.00
902.8950, 38475.00
904.0200, 38838.00
905.1450, 38614.00
906.2700, 38886.00
907.3950, 38958.00
908.5190, 38814.00
909.6440, 38970.00
910.7680, 39246.00
911.8920, 38891.00
913.0160, 38899.00
914.1400, 39158.00
915.2630, 38986.00
916.3870, 38944.00
917.5100, 39078.00
918.6330, 38931.00
919.7560, 39173.00
920.8790, 39024.00
922.0010, 39169.00
923.1240, 39140.00
924.2460, 39366.00
925.3680, 39145.00
926.4900, 39250.00
927.6120, 39275.00
928.7340, 39531.00
929.8550, 39476.00
930.9760, 39392.00
932.0980, 39444.00
933.2190, 39426.43
934.3390, 39379.00
935.4600, 39437.00
936.5810, 39682.00
937.7010, 39593.00
938.8210, 39933.00
939.9410, 39888.00
941.0610, 39603.00
942.1810, 40158.00
943.3010, 39914.00
944.4200, 39881.00
945.5390, 40036.00
946.6580, 40054.00
947.7770, 39891.00
948.8960, 40219.00
950.0150, 40205.00
951.1330, 40098.00
952.2510, 40174.00
953.3690, 40246.00
954.4870, 40339.00
955.6050, 40047.00
956.7230, 40259.00
957.8400, 40089.00
958.9580, 40494.00
960.0750, 40821.00
961.1920, 40528.00
962.3090, 40733.00
963.4250, 40806.00
964.5420, 40740.00
965.6580, 40753.00
966.7740, 40730.00
967.8900, 40787.00
969.0060, 41156.00
970.1220, 41122.00
971.2380, 41449.00
972.3530, 41426.00
973.4680, 41660.00
974.5830, 41151.00
975.6980, 41325.00
976.8130, 41315.00
977.9280, 41236.00
979.0420, 41449.00
980.1560, 41333.00
981.2710, 41334.00
982.3850, 41431.00
983.4980, 41197.00
984.6120, 41108.00
985.7260, 41270.00
986.8390, 41235.00
987.9520, 41346.00
989.0650, 41237.00
990.1780, 41370.00
991.2910, 41358.00
992.4030, 41442.00
993.5160, 41509.00
994.6280, 41440.00
995.7400, 41362.00
996.8520, 41611.00
997.9640, 41371.00
999.0750, 41527.00
1000.187, 41612.00
1001.298, 41916.00
1002.409, 41944.00
1003.520, 41979.57
1004.631, 41864.00
1005.741, 41977.00
1006.852, 42044.00
1007.962, 42163.00
1009.072, 42081.00
1010.182, 42169.96
1011.292, 42181.94
1012.402, 42197.00
1013.511, 42238.00
1014.621, 42190.00
1015.730, 42246.00
1016.839, 42213.00
1017.948, 42845.00
1019.056, 42647.00
1020.165, 43029.00
1021.273, 43071.00
1022.382, 43251.00
1023.490, 43334.00
1024.598, 43604.00
1025.706, 43148.00
1026.813, 43386.00
1027.921, 43348.00
1029.028, 43054.00
1030.135, 43033.00
1031.242, 42992.00
1032.349, 42804.00
1033.456, 42498.00
1034.562, 43078.00
1035.668, 42630.00
1036.775, 43007.00
1037.881, 42818.00
1038.987, 42808.00
1040.092, 42983.00
1041.198, 42999.00
1042.303, 42564.00
1043.408, 42818.00
1044.514, 42801.00
1045.618, 42745.00
1046.723, 42881.00
1047.828, 42668.00
1048.932, 43158.00
1050.037, 42981.00
1051.141, 43250.00
1052.245, 42981.00
1053.349, 42938.00
1054.452, 43100.00
1055.556, 43079.00
1056.659, 43242.00
1057.762, 43102.00
1058.865, 43084.00
1059.968, 43393.00
1061.071, 43426.00
1062.174, 43350.00
1063.276, 43521.00
1064.378, 43300.00
1065.480, 43700.00
1066.582, 43685.00
1067.684, 43439.00
1068.786, 43529.00
1069.887, 43831.00
1070.988, 43637.00
1072.090, 43653.00
1073.191, 43897.00
1074.291, 43716.00
1075.392, 43664.00
1076.493, 43814.00
1077.593, 43886.00
1078.693, 43893.00
1079.793, 43827.00
1080.893, 44067.00
1081.993, 44309.00
1083.092, 44245.00
1084.192, 44344.00
1085.291, 44164.00
1086.390, 44266.00
1087.489, 44501.00
1088.588, 44330.00
1089.686, 44421.00
1090.785, 44654.00
1091.883, 44464.88
1092.981, 44528.00
1094.079, 44389.00
1095.177, 44361.00
1096.275, 44528.00
1097.373, 44435.00
1098.470, 44592.00
1099.567, 44650.00
1100.664, 44678.00
1101.761, 44703.00
1102.858, 44636.00
1103.954, 44737.04
1105.051, 44889.00
##END=



