##NAMES=Pectolite
##RRUFFID=R050396
##IDEAL CHEMISTRY=NaCa_2_Si_3_O_8_(OH)
##LOCALITY=Jeffrey Quarry, Asbestos, Quebec, Canada
##OWNER=RRUFF
##SOURCE=Marcus Origlieri
##DESCRIPTION=Colorless to gray columnar blocky crystals
##STATUS=The identification of this mineral has been confirmed by X-ray diffraction and chemical analysis
##URL=rruff.info/R050396
##MEASURED CHEMISTRY=Na_1.00_Ca_2.00_Si_3.00_O_8_(OH)
##PIN_ID=L01945
##ORIENTATION=Laser parallel to (1 1 0). Fiducial mark perpendicular to laser is parallel to c [0 0 1]
118.9350, 19025.00
120.1730, 19376.00
121.4100, 19205.00
122.6480, 19460.00
123.8850, 19584.00
125.1230, 19542.00
126.3600, 19644.00
127.5960, 19832.00
128.8330, 19833.00
130.0700, 19897.00
131.3060, 19976.00
132.5420, 20111.00
133.7780, 20259.00
135.0140, 20248.00
136.2500, 20400.00
137.4850, 20402.00
138.7200, 20702.00
139.9550, 20881.00
141.1900, 20870.00
142.4250, 21012.00
143.6600, 21071.00
144.8940, 21002.00
146.1280, 21374.00
147.3620, 21202.00
148.5960, 21398.00
149.8300, 21376.00
151.0630, 21423.00
152.2960, 21633.00
153.5300, 21445.00
154.7620, 21530.00
155.9950, 21380.00
157.2280, 21501.00
158.4600, 21519.00
159.6920, 21561.00
160.9250, 21593.23
162.1560, 21557.63
163.3880, 21654.00
164.6200, 21441.00
165.8510, 21546.00
167.0820, 21426.00
168.3130, 21416.00
169.5440, 21687.00
170.7750, 21489.00
172.0050, 21579.00
173.2350, 21511.00
174.4650, 21698.00
175.6950, 21687.00
176.9250, 21604.00
178.1550, 21812.00
179.3840, 21958.00
180.6130, 21838.00
181.8420, 21917.00
183.0710, 21907.00
184.3000, 22121.00
185.5280, 21924.00
186.7570, 22013.00
187.9850, 22065.00
189.2130, 21990.00
190.4400, 21964.00
191.6680, 21999.00
192.8960, 21978.95
194.1230, 22007.49
195.3500, 22032.00
196.5770, 22050.00
197.8030, 22082.57
199.0300, 22102.00
200.2560, 22146.50
201.4830, 22176.00
202.7090, 22217.00
203.9340, 22112.00
205.1600, 22143.00
206.3860, 22163.00
207.6110, 22277.00
208.8360, 22280.88
210.0610, 22415.00
211.2860, 22330.00
212.5100, 22416.00
213.7350, 22409.00
214.9590, 22351.00
216.1830, 22264.00
217.4070, 22366.99
218.6310, 22430.00
219.8540, 22545.00
221.0780, 22551.00
222.3010, 22604.00
223.5240, 22592.00
224.7470, 22630.00
225.9690, 22727.00
227.1920, 22653.00
228.4140, 22724.00
229.6360, 22739.00
230.8580, 22704.00
232.0800, 22765.00
233.3020, 22829.00
234.5230, 22938.00
235.7440, 22713.00
236.9650, 22612.00
238.1860, 22839.00
239.4070, 23007.00
240.6280, 22769.00
241.8480, 22842.00
243.0680, 22714.00
244.2880, 22744.00
245.5080, 22905.00
246.7280, 22681.00
247.9470, 22884.00
249.1660, 22942.00
250.3860, 22883.00
251.6040, 23157.00
252.8230, 23001.00
254.0420, 23086.00
255.2600, 23121.00
256.4790, 23031.00
257.6970, 23295.00
258.9150, 23041.00
260.1320, 23201.00
261.3500, 23239.00
262.5670, 23210.00
263.7840, 23284.00
265.0010, 23401.00
266.2180, 23396.61
267.4350, 23573.00
268.6510, 23521.00
269.8680, 23561.00
271.0840, 23736.00
272.3000, 23764.00
273.5160, 23632.00
274.7310, 23688.00
275.9470, 23835.00
277.1620, 23871.00
278.3770, 23668.00
279.5920, 23903.00
280.8070, 23722.00
282.0210, 23891.00
283.2360, 23795.00
284.4500, 23708.00
285.6640, 23661.00
286.8780, 23576.00
288.0920, 23656.00
289.3050, 23864.00
290.5180, 23656.00
291.7320, 23726.00
292.9450, 23663.00
294.1570, 23515.00
295.3700, 23778.00
296.5830, 23693.00
297.7950, 23605.00
299.0070, 23864.00
300.2190, 23829.00
301.4310, 23877.00
302.6420, 23905.00
303.8540, 23697.00
305.0650, 23789.00
306.2760, 23737.00
307.4870, 23929.00
308.6980, 23779.00
309.9080, 23704.00
311.1190, 23962.00
312.3290, 23904.00
313.5390, 24077.00
314.7490, 23951.00
315.9580, 24080.00
317.1680, 24052.00
318.3770, 24114.00
319.5860, 24115.00
320.7950, 24025.00
322.0040, 24026.00
323.2130, 24100.00
324.4210, 24016.00
325.6290, 23930.00
326.8380, 23866.00
328.0460, 24188.00
329.2530, 23903.00
330.4610, 24202.00
331.6680, 24092.00
332.8760, 24043.00
334.0830, 23954.00
335.2890, 24062.00
336.4960, 24115.00
337.7030, 23872.00
338.9090, 24030.00
340.1150, 23999.00
341.3210, 24147.00
342.5270, 24114.00
343.7330, 24009.00
344.9380, 24134.00
346.1440, 24146.00
347.3490, 24050.00
348.5540, 24179.78
349.7590, 24242.00
350.9630, 24299.00
352.1680, 24299.00
353.3720, 24321.00
354.5760, 24360.67
355.7800, 24272.00
356.9840, 24421.00
358.1870, 24379.00
359.3910, 24387.00
360.5940, 24300.00
361.7970, 24161.00
363.0000, 24435.00
364.2030, 24497.00
365.4050, 24409.00
366.6080, 24609.00
367.8100, 24476.00
369.0120, 24632.00
370.2140, 24660.00
371.4150, 24555.00
372.6170, 24531.00
373.8180, 24659.00
375.0190, 24643.00
376.2200, 24781.00
377.4210, 24713.00
378.6220, 24643.00
379.8220, 24900.00
381.0230, 24687.00
382.2230, 24772.00
383.4230, 24741.00
384.6220, 24756.00
385.8220, 24840.00
387.0220, 24656.00
388.2210, 24692.00
389.4200, 24706.00
390.6190, 24936.00
391.8180, 24722.00
393.0160, 24847.00
394.2150, 24715.00
395.4130, 24901.00
396.6110, 24834.00
397.8090, 24696.00
399.0060, 24882.00
400.2040, 24867.00
401.4010, 24974.00
402.5980, 24957.00
403.7950, 25070.00
404.9920, 25128.00
406.1890, 25104.11
407.3860, 24978.00
408.5820, 25037.00
409.7780, 25045.00
410.9740, 24948.00
412.1700, 24984.00
413.3650, 24993.00
414.5610, 25202.00
415.7560, 25114.00
416.9510, 25183.00
418.1460, 25205.00
419.3410, 25135.00
420.5360, 25144.00
421.7300, 25151.00
422.9240, 25233.00
424.1180, 25328.00
425.3120, 25082.00
426.5060, 25252.00
427.7000, 25192.00
428.8930, 25337.00
430.0860, 25232.00
431.2790, 25316.00
432.4720, 25424.00
433.6650, 25259.00
434.8580, 25353.00
436.0500, 25299.00
437.2420, 25434.00
438.4340, 25577.00
439.6260, 25390.00
440.8180, 25595.00
442.0090, 25558.00
443.2010, 25470.00
444.3920, 25825.00
445.5830, 25404.00
446.7740, 25467.00
447.9640, 25553.00
449.1550, 25641.00
450.3450, 25693.00
451.5350, 25804.26
452.7250, 25857.51
453.9150, 25949.00
455.1050, 25940.00
456.2940, 25878.00
457.4830, 25814.00
458.6720, 25857.21
459.8610, 25930.00
461.0500, 25947.00
462.2390, 25987.00
463.4270, 26061.00
464.6150, 25898.00
465.8040, 26158.00
466.9910, 25985.00
468.1790, 26043.00
469.3670, 26199.00
470.5540, 26000.00
471.7410, 26208.00
472.9280, 26150.00
474.1150, 25921.00
475.3020, 26010.00
476.4890, 26269.00
477.6750, 26303.00
478.8610, 26222.00
480.0470, 26459.00
481.2330, 26330.00
482.4190, 26172.00
483.6040, 26468.00
484.7900, 26232.00
485.9750, 26440.00
487.1600, 26265.00
488.3450, 26511.00
489.5290, 26338.00
490.7140, 26290.00
491.8980, 26533.00
493.0820, 26716.00
494.2660, 26495.00
495.4500, 26419.00
496.6340, 26706.00
497.8170, 26662.00
499.0010, 26536.00
500.1840, 26625.00
501.3670, 26509.00
502.5500, 26630.00
503.7320, 26758.00
504.9150, 26553.00
506.0970, 26562.00
507.2790, 26772.00
508.4610, 26744.00
509.6430, 26715.00
510.8250, 26819.00
512.0060, 26908.00
513.1870, 26750.00
514.3680, 26849.00
515.5490, 27103.00
516.7300, 26931.00
517.9110, 27073.00
519.0910, 27083.00
520.2710, 27029.00
521.4510, 27067.00
522.6310, 27049.00
523.8110, 27217.00
524.9910, 27167.00
526.1700, 27163.00
527.3490, 26961.00
528.5280, 26880.00
529.7070, 27080.00
530.8860, 27192.00
532.0650, 27002.00
533.2430, 27267.00
534.4210, 27085.00
535.5990, 27134.00
536.7770, 27223.00
537.9550, 27240.00
539.1320, 27051.00
540.3100, 27082.00
541.4870, 27249.00
542.6640, 27200.00
543.8410, 27384.00
545.0170, 27333.00
546.1940, 27369.00
547.3700, 27354.00
548.5470, 27322.00
549.7230, 27246.00
550.8980, 27576.00
552.0740, 27424.00
553.2500, 27488.00
554.4250, 27326.00
555.6000, 27509.00
556.7750, 27688.00
557.9500, 27556.00
559.1250, 27560.00
560.2990, 27835.00
561.4730, 27504.00
562.6480, 27681.00
563.8220, 27626.00
564.9950, 27733.00
566.1690, 27875.00
567.3430, 27675.00
568.5160, 27728.00
569.6890, 27761.00
570.8620, 27745.00
572.0350, 28101.00
573.2070, 27797.00
574.3800, 28138.00
575.5520, 28081.00
576.7240, 27901.00
577.8960, 27926.00
579.0680, 28069.00
580.2400, 27869.00
581.4110, 28206.00
582.5830, 27908.00
583.7540, 28138.00
584.9250, 28098.00
586.0950, 28010.00
587.2660, 28277.00
588.4370, 27925.00
589.6070, 28190.00
590.7770, 28257.00
591.9470, 28353.00
593.1170, 28205.00
594.2860, 28389.00
595.4560, 28265.00
596.6250, 28454.00
597.7940, 28399.00
598.9630, 28558.00
600.1320, 28540.00
601.3000, 28297.00
602.4690, 28377.00
603.6370, 28480.00
604.8050, 28365.00
605.9730, 28614.00
607.1410, 28475.00
608.3090, 28454.00
609.4760, 28616.00
610.6430, 28800.00
611.8100, 28512.00
612.9770, 28802.00
614.1440, 29034.00
615.3110, 28595.00
616.4770, 28717.00
617.6430, 28767.00
618.8090, 28942.00
619.9750, 28926.00
621.1410, 28997.13
622.3070, 28824.00
623.4720, 29055.00
624.6370, 29004.00
625.8020, 29026.00
626.9670, 29165.00
628.1320, 29117.00
629.2970, 29044.00
630.4610, 29290.00
631.6250, 29292.00
632.7890, 29207.00
633.9530, 29126.00
635.1170, 29203.00
636.2810, 29318.99
637.4440, 29454.00
638.6070, 29657.00
639.7700, 29774.00
640.9330, 30000.40
642.0960, 30116.00
643.2590, 30400.00
644.4210, 30639.00
645.5830, 30753.00
646.7450, 30906.00
647.9070, 31165.00
649.0690, 31520.00
650.2310, 32035.00
651.3920, 32007.00
652.5530, 31844.00
653.7140, 31901.00
654.8750, 31480.00
656.0360, 31109.00
657.1970, 30650.00
658.3570, 30670.00
659.5170, 30573.00
660.6770, 30111.00
661.8370, 30199.00
662.9970, 30168.00
664.1570, 30141.00
665.3160, 30052.00
666.4750, 30073.00
667.6340, 29889.00
668.7930, 30276.00
669.9520, 29937.00
671.1110, 30057.00
672.2690, 30336.00
673.4270, 30055.00
674.5850, 30205.00
675.7430, 30298.00
676.9010, 30210.00
678.0590, 30358.00
679.2160, 30326.68
680.3730, 30600.00
681.5300, 30363.00
682.6870, 30536.00
683.8440, 30634.00
685.0010, 30669.00
686.1570, 30720.00
687.3130, 30683.00
688.4690, 30753.00
689.6250, 30667.00
690.7810, 30764.00
691.9370, 30863.00
693.0920, 30701.00
694.2470, 30574.00
695.4020, 30546.00
696.5570, 30634.00
697.7120, 30633.00
698.8670, 30821.00
700.0210, 30718.00
701.1750, 30870.00
702.3290, 30797.00
703.4830, 30788.00
704.6370, 30644.00
705.7910, 30704.00
706.9440, 30919.00
708.0970, 31098.00
709.2510, 30992.00
710.4030, 31104.00
711.5560, 30995.00
712.7090, 31129.00
713.8610, 31224.00
715.0140, 31190.00
716.1660, 30975.00
717.3180, 31073.00
718.4690, 31250.00
719.6210, 31008.00
720.7730, 31250.00
721.9240, 31199.00
723.0750, 31178.00
724.2260, 31090.00
725.3770, 31330.00
726.5270, 31163.00
727.6780, 31354.00
728.8280, 31346.00
729.9780, 31387.00
731.1280, 31430.00
732.2780, 31497.00
733.4280, 31423.00
734.5770, 31611.00
735.7260, 31534.00
736.8760, 31375.00
738.0250, 31606.00
739.1730, 31456.00
740.3220, 31394.00
741.4700, 31682.00
742.6190, 31649.00
743.7670, 31805.00
744.9150, 31655.00
746.0630, 31954.00
747.2100, 31777.00
748.3580, 31973.00
749.5050, 32054.00
750.6520, 31991.00
751.7990, 32053.00
752.9460, 31945.00
754.0930, 31832.00
755.2390, 32155.00
756.3860, 32146.00
757.5320, 32233.00
758.6780, 32045.00
759.8240, 32002.00
760.9690, 32007.00
762.1150, 32238.00
763.2600, 32024.00
764.4060, 32401.00
765.5510, 32231.00
766.6950, 32357.00
767.8400, 32387.00
768.9850, 32272.00
770.1290, 32560.00
771.2730, 32409.00
772.4170, 32661.00
773.5610, 32296.00
774.7050, 32583.00
775.8480, 32539.00
776.9920, 32487.00
778.1350, 32697.00
779.2780, 32498.00
780.4210, 32735.00
781.5640, 32685.00
782.7060, 32773.00
783.8490, 32844.00
784.9910, 33004.00
786.1330, 33008.59
787.2750, 32921.00
788.4170, 32999.00
789.5580, 32843.00
790.7000, 32702.00
791.8410, 32825.00
792.9820, 32921.00
794.1230, 33048.00
795.2640, 33050.00
796.4040, 32991.00
797.5450, 33250.00
798.6850, 33328.00
799.8250, 33276.00
800.9650, 33113.00
802.1050, 33294.00
803.2450, 33370.00
804.3840, 33162.00
805.5230, 33322.00
806.6630, 33684.00
807.8020, 33468.00
808.9400, 33325.00
810.0790, 33752.00
811.2170, 33639.00
812.3560, 33438.00
813.4940, 33696.00
814.6320, 33750.00
815.7700, 33525.00
816.9070, 33917.00
818.0450, 33729.00
819.1820, 33542.00
820.3190, 34057.00
821.4560, 33710.00
822.5930, 33962.00
823.7300, 33940.00
824.8670, 33943.00
826.0030, 34174.00
827.1390, 34175.00
828.2750, 34240.00
829.4110, 34145.00
830.5470, 34175.00
831.6820, 34049.00
832.8180, 34187.00
833.9530, 34067.00
835.0880, 34332.00
836.2230, 34451.00
837.3580, 34372.00
838.4920, 34435.00
839.6270, 34405.00
840.7610, 34634.00
841.8950, 34546.00
843.0290, 34561.00
844.1630, 34623.54
845.2960, 34590.96
846.4300, 34658.00
847.5630, 34639.00
848.6960, 34667.00
849.8290, 34738.00
850.9620, 34746.00
852.0940, 34939.00
853.2270, 35038.00
854.3590, 34791.00
855.4910, 34956.00
856.6230, 34929.00
857.7550, 35098.00
858.8870, 35112.00
860.0180, 35091.00
861.1500, 35393.00
862.2810, 35165.00
863.4120, 35080.00
864.5430, 35077.00
865.6730, 35325.00
866.8040, 35331.00
867.9340, 35356.00
869.0640, 35512.00
870.1940, 35459.00
871.3240, 35479.00
872.4540, 35583.00
873.5830, 35438.00
874.7130, 35609.00
875.8420, 35550.00
876.9710, 35866.00
878.1000, 35847.00
879.2290, 35458.00
880.3570, 35877.00
881.4860, 35772.00
882.6140, 35937.00
883.7420, 36003.00
884.8700, 35847.00
885.9980, 35852.00
887.1250, 35760.00
888.2530, 35855.00
889.3800, 35936.00
890.5070, 36110.00
891.6340, 36132.00
892.7610, 36077.00
893.8880, 36364.00
895.0140, 36171.00
896.1400, 36273.00
897.2670, 36197.00
898.3930, 36451.00
899.5180, 36362.00
900.6440, 36456.00
901.7700, 36485.00
902.8950, 36275.00
904.0200, 36561.00
905.1450, 36526.00
906.2700, 36619.00
907.3950, 36510.00
908.5190, 36705.00
909.6440, 36628.00
910.7680, 36876.00
911.8920, 36710.00
913.0160, 36634.00
914.1400, 36888.00
915.2630, 36895.00
916.3870, 36907.00
917.5100, 37037.00
918.6330, 37155.00
919.7560, 37117.52
920.8790, 36892.00
922.0010, 37057.00
923.1240, 36987.00
924.2460, 36925.00
925.3680, 37154.00
926.4900, 37054.00
927.6120, 37063.00
928.7340, 37313.00
929.8550, 37539.00
930.9760, 37553.00
932.0980, 37473.00
933.2190, 37499.00
934.3390, 37668.00
935.4600, 37722.00
936.5810, 37715.00
937.7010, 37664.00
938.8210, 37838.00
939.9410, 37749.00
941.0610, 37804.00
942.1810, 37756.00
943.3010, 37950.00
944.4200, 37954.00
945.5390, 38077.00
946.6580, 38181.00
947.7770, 38164.00
948.8960, 38277.60
950.0150, 38317.00
951.1330, 38447.00
952.2510, 38531.88
953.3690, 38434.00
954.4870, 38743.00
955.6050, 38645.00
956.7230, 38760.00
957.8400, 38599.00
958.9580, 38851.00
960.0750, 38922.00
961.1920, 39049.00
962.3090, 39303.00
963.4250, 39317.00
964.5420, 39580.00
965.6580, 39539.00
966.7740, 39719.00
967.8900, 40089.00
969.0060, 40238.00
970.1220, 40214.00
971.2380, 39952.00
972.3530, 40236.00
973.4680, 40009.00
974.5830, 39842.00
975.6980, 40260.00
976.8130, 40126.00
977.9280, 40240.00
979.0420, 40144.00
980.1560, 39997.00
981.2710, 40058.00
982.3850, 39868.00
983.4980, 39987.00
984.6120, 39666.00
985.7260, 39943.00
986.8390, 40151.00
987.9520, 40101.00
989.0650, 40012.00
990.1780, 39989.00
991.2910, 39989.07
992.4030, 39921.00
993.5160, 40020.00
994.6280, 40172.00
995.7400, 40167.00
996.8520, 39975.00
997.9640, 40191.00
999.0750, 40383.00
1000.187, 40212.00
1001.298, 40505.00
1002.409, 40556.00
1003.520, 40395.00
1004.631, 40438.00
1005.741, 40612.00
1006.852, 40421.00
1007.962, 40647.00
1009.072, 40368.00
1010.182, 40690.00
1011.292, 40525.00
1012.402, 40751.00
1013.511, 40492.00
1014.621, 40859.00
1015.730, 40820.00
1016.839, 41025.00
1017.948, 41273.00
1019.056, 41173.00
1020.165, 41129.00
1021.273, 41534.00
1022.382, 41291.00
1023.490, 41512.00
1024.598, 41289.00
1025.706, 41672.00
1026.813, 41617.00
1027.921, 41524.00
1029.028, 41418.00
1030.135, 41309.00
1031.242, 41146.00
1032.349, 41262.00
1033.456, 41287.00
1034.562, 41674.00
1035.668, 41305.00
1036.775, 41518.00
1037.881, 41679.00
1038.987, 41513.00
1040.092, 41354.00
1041.198, 41461.00
1042.303, 41397.00
1043.408, 41492.47
1044.514, 41607.00
1045.618, 41673.00
1046.723, 41835.00
1047.828, 41804.00
1048.932, 41748.00
1050.037, 42044.00
1051.141, 41786.00
1052.245, 42015.00
1053.349, 41961.00
1054.452, 42040.00
1055.556, 42123.00
1056.659, 42010.00
1057.762, 42263.00
1058.865, 41991.00
1059.968, 42052.00
1061.071, 42284.00
1062.174, 42348.00
1063.276, 42571.00
1064.378, 42640.00
1065.480, 42686.16
1066.582, 42730.00
1067.684, 42756.00
1068.786, 42743.21
1069.887, 42752.04
1070.988, 42711.00
1072.090, 42768.00
1073.191, 42807.00
1074.291, 42912.00
1075.392, 42824.00
1076.493, 43061.00
1077.593, 43033.00
1078.693, 43273.00
1079.793, 43359.00
1080.893, 43328.00
1081.993, 43446.00
1083.092, 43409.34
1084.192, 43345.00
1085.291, 43346.00
1086.390, 43365.97
1087.489, 43293.00
1088.588, 43500.00
1089.686, 43812.00
1090.785, 43808.00
1091.883, 43632.00
1092.981, 43739.00
1094.079, 43596.00
1095.177, 43779.00
1096.275, 43771.00
1097.373, 43846.00
1098.470, 43731.00
1099.567, 43941.00
1100.664, 43989.00
1101.761, 43908.00
1102.858, 44031.00
1103.954, 43899.00
1105.051, 44019.00
1106.147, 44252.00
1107.243, 44028.00
1108.339, 44140.00
1109.435, 44274.00
1110.531, 44294.00
1111.626, 44038.00
1112.722, 44547.00
1113.817, 44260.00
1114.912, 44509.00
1116.007, 44490.00
1117.101, 44494.00
##END=



