##NAMES=Pectolite
##RRUFFID=R050396
##IDEAL CHEMISTRY=NaCa_2_Si_3_O_8_(OH)
##LOCALITY=Jeffrey Quarry, Asbestos, Quebec, Canada
##OWNER=RRUFF
##SOURCE=Marcus Origlieri
##DESCRIPTION=Colorless to gray columnar blocky crystals
##STATUS=The identification of this mineral has been confirmed by X-ray diffraction and chemical analysis
##URL=rruff.info/R050396
##MEASURED CHEMISTRY=Na_1.00_Ca_2.00_Si_3.00_O_8_(OH)
##PIN_ID=M00143
##ORIENTATION=Laser parallel to -b* (0 -1 0). Fiducial mark perpendicular to laser is parallel to c [0 0 1]
128.8330, 19045.00
130.0700, 19246.00
131.3060, 19500.00
132.5420, 19425.00
133.7780, 19818.00
135.0140, 19865.00
136.2500, 20144.00
137.4850, 20570.00
138.7200, 20975.00
139.9550, 21432.00
141.1900, 21991.00
142.4250, 22191.00
143.6600, 22141.00
144.8940, 21816.00
146.1280, 21460.00
147.3620, 21342.00
148.5960, 20908.00
149.8300, 20916.00
151.0630, 20804.00
152.2960, 20775.00
153.5300, 20662.00
154.7620, 20568.00
155.9950, 20432.00
157.2280, 20535.00
158.4600, 20486.00
159.6920, 20554.00
160.9250, 20616.00
162.1560, 20473.00
163.3880, 20471.00
164.6200, 20599.00
165.8510, 20593.00
167.0820, 20693.00
168.3130, 20746.56
169.5440, 20676.00
170.7750, 20838.00
172.0050, 20762.00
173.2350, 20754.00
174.4650, 20857.00
175.6950, 20914.00
176.9250, 20829.00
178.1550, 21050.00
179.3840, 20926.00
180.6130, 21138.00
181.8420, 21012.00
183.0710, 21105.00
184.3000, 21149.00
185.5280, 21155.00
186.7570, 21296.00
187.9850, 21146.00
189.2130, 21266.00
190.4400, 21127.00
191.6680, 21200.00
192.8960, 21295.00
194.1230, 21327.00
195.3500, 21332.00
196.5770, 21435.00
197.8030, 21471.00
199.0300, 21483.00
200.2560, 21436.00
201.4830, 21441.00
202.7090, 21408.00
203.9340, 21547.00
205.1600, 21392.00
206.3860, 21733.00
207.6110, 21740.00
208.8360, 21492.00
210.0610, 21488.00
211.2860, 21689.00
212.5100, 21541.00
213.7350, 21622.00
214.9590, 21646.00
216.1830, 21790.00
217.4070, 21762.00
218.6310, 21817.00
219.8540, 21974.00
221.0780, 21946.00
222.3010, 21883.00
223.5240, 21758.00
224.7470, 21887.00
225.9690, 21910.00
227.1920, 21888.00
228.4140, 22038.00
229.6360, 21905.00
230.8580, 22054.00
232.0800, 21936.00
233.3020, 21984.00
234.5230, 22032.00
235.7440, 22257.00
236.9650, 22273.00
238.1860, 22313.00
239.4070, 22103.00
240.6280, 22009.00
241.8480, 22020.00
243.0680, 22031.00
244.2880, 22086.00
245.5080, 22393.00
246.7280, 22267.00
247.9470, 22362.00
249.1660, 22114.00
250.3860, 22351.00
251.6040, 22312.00
252.8230, 22258.00
254.0420, 22471.00
255.2600, 22295.00
256.4790, 22370.00
257.6970, 22334.00
258.9150, 22590.00
260.1320, 22646.00
261.3500, 22554.00
262.5670, 22759.00
263.7840, 22467.00
265.0010, 22615.00
266.2180, 22719.00
267.4350, 22580.00
268.6510, 22885.00
269.8680, 22700.00
271.0840, 22700.00
272.3000, 22876.00
273.5160, 22838.00
274.7310, 22730.00
275.9470, 22861.00
277.1620, 22951.00
278.3770, 22799.00
279.5920, 22895.00
280.8070, 22921.00
282.0210, 22861.00
283.2360, 23054.00
284.4500, 22954.00
285.6640, 23123.00
286.8780, 23176.00
288.0920, 22886.00
289.3050, 22986.00
290.5180, 22891.00
291.7320, 23069.00
292.9450, 23130.00
294.1570, 22982.00
295.3700, 23022.00
296.5830, 23015.00
297.7950, 22796.00
299.0070, 23013.00
300.2190, 23231.00
301.4310, 23200.00
302.6420, 23063.00
303.8540, 23066.00
305.0650, 23106.00
306.2760, 23238.00
307.4870, 23369.00
308.6980, 23294.00
309.9080, 23383.00
311.1190, 23519.00
312.3290, 23351.00
313.5390, 23383.00
314.7490, 23513.00
315.9580, 23518.00
317.1680, 23574.00
318.3770, 23672.00
319.5860, 23531.00
320.7950, 23556.00
322.0040, 23638.00
323.2130, 23570.00
324.4210, 23546.00
325.6290, 23520.00
326.8380, 23525.99
328.0460, 23475.00
329.2530, 23594.00
330.4610, 23653.00
331.6680, 23734.00
332.8760, 23620.00
334.0830, 23740.00
335.2890, 23535.00
336.4960, 23787.00
337.7030, 23643.00
338.9090, 23738.00
340.1150, 23664.00
341.3210, 23847.00
342.5270, 23723.00
343.7330, 23879.00
344.9380, 23612.00
346.1440, 23831.00
347.3490, 23696.00
348.5540, 23897.00
349.7590, 23934.00
350.9630, 23954.00
352.1680, 24018.00
353.3720, 23893.00
354.5760, 24164.00
355.7800, 24022.00
356.9840, 24334.00
358.1870, 24135.00
359.3910, 24157.00
360.5940, 24020.00
361.7970, 24120.00
363.0000, 24229.00
364.2030, 24016.00
365.4050, 24318.00
366.6080, 24232.00
367.8100, 23951.00
369.0120, 23998.00
370.2140, 24321.00
371.4150, 24130.00
372.6170, 24392.00
373.8180, 24549.00
375.0190, 24389.00
376.2200, 24495.00
377.4210, 24409.00
378.6220, 24451.00
379.8220, 24373.00
381.0230, 24474.00
382.2230, 24672.00
383.4230, 24277.00
384.6220, 24556.00
385.8220, 24526.00
387.0220, 24389.00
388.2210, 24571.00
389.4200, 24454.00
390.6190, 24657.00
391.8180, 24679.00
393.0160, 24596.00
394.2150, 24730.00
395.4130, 24706.00
396.6110, 24627.00
397.8090, 24600.00
399.0060, 24730.00
400.2040, 24805.00
401.4010, 24845.00
402.5980, 24857.62
403.7950, 24740.00
404.9920, 24871.00
406.1890, 24868.00
407.3860, 25019.00
408.5820, 24933.00
409.7780, 24959.00
410.9740, 24933.00
412.1700, 24970.00
413.3650, 24906.00
414.5610, 25153.00
415.7560, 24945.00
416.9510, 25057.00
418.1460, 25019.00
419.3410, 24990.00
420.5360, 25064.00
421.7300, 24892.00
422.9240, 24985.00
424.1180, 25017.00
425.3120, 25084.00
426.5060, 25118.42
427.7000, 25155.00
428.8930, 25164.00
430.0860, 25153.00
431.2790, 25153.00
432.4720, 24993.00
433.6650, 25276.00
434.8580, 25343.00
436.0500, 25156.00
437.2420, 25421.00
438.4340, 25065.00
439.6260, 25475.00
440.8180, 25276.00
442.0090, 25428.00
443.2010, 25339.00
444.3920, 25463.00
445.5830, 25190.00
446.7740, 25451.00
447.9640, 25397.00
449.1550, 25558.00
450.3450, 25598.00
451.5350, 25538.00
452.7250, 25344.00
453.9150, 25420.83
455.1050, 25625.00
456.2940, 25444.00
457.4830, 25656.00
458.6720, 25686.00
459.8610, 25906.00
461.0500, 25828.00
462.2390, 25619.00
463.4270, 25769.00
464.6150, 25888.00
465.8040, 25665.00
466.9910, 25810.00
468.1790, 25936.00
469.3670, 26169.00
470.5540, 25976.00
471.7410, 25900.00
472.9280, 25972.00
474.1150, 25972.00
475.3020, 25742.00
476.4890, 26257.00
477.6750, 25957.00
478.8610, 26203.00
480.0470, 26118.00
481.2330, 26275.00
482.4190, 26245.00
483.6040, 26245.00
484.7900, 26067.00
485.9750, 26208.00
487.1600, 26350.00
488.3450, 26122.00
489.5290, 26208.00
490.7140, 26377.00
491.8980, 26516.00
493.0820, 26242.00
494.2660, 26366.00
495.4500, 26378.00
496.6340, 26363.00
497.8170, 26735.00
499.0010, 26322.00
500.1840, 26622.00
501.3670, 26570.00
502.5500, 26428.00
503.7320, 26681.00
504.9150, 26707.00
506.0970, 26620.00
507.2790, 26509.00
508.4610, 26612.00
509.6430, 26701.00
510.8250, 26752.00
512.0060, 26840.00
513.1870, 26989.00
514.3680, 26940.00
515.5490, 26643.00
516.7300, 26864.00
517.9110, 26755.00
519.0910, 26862.00
520.2710, 27035.00
521.4510, 27123.00
522.6310, 27181.36
523.8110, 27072.00
524.9910, 27174.00
526.1700, 27099.00
527.3490, 26923.00
528.5280, 27133.00
529.7070, 27306.00
530.8860, 27197.00
532.0650, 27049.00
533.2430, 26994.00
534.4210, 26994.37
535.5990, 27020.00
536.7770, 27074.00
537.9550, 27167.00
539.1320, 27208.00
540.3100, 27267.13
541.4870, 27457.00
542.6640, 27324.00
543.8410, 27420.00
545.0170, 27366.00
546.1940, 27298.00
547.3700, 27381.00
548.5470, 27361.00
549.7230, 27301.00
550.8980, 27471.00
552.0740, 27367.00
553.2500, 27614.00
554.4250, 27603.00
555.6000, 27569.00
556.7750, 27428.00
557.9500, 27674.00
559.1250, 27531.00
560.2990, 27592.00
561.4730, 27656.00
562.6480, 27764.00
563.8220, 27623.00
564.9950, 27847.00
566.1690, 27591.00
567.3430, 27870.00
568.5160, 27858.00
569.6890, 27607.00
570.8620, 28004.00
572.0350, 27916.00
573.2070, 27756.00
574.3800, 28167.00
575.5520, 27945.00
576.7240, 28056.00
577.8960, 27799.00
579.0680, 28003.00
580.2400, 28294.00
581.4110, 28216.00
582.5830, 27974.00
583.7540, 28197.00
584.9250, 28175.00
586.0950, 28363.00
587.2660, 28190.00
588.4370, 28271.00
589.6070, 28090.00
590.7770, 28379.00
591.9470, 28380.00
593.1170, 28550.00
594.2860, 28471.00
595.4560, 28456.00
596.6250, 28437.00
597.7940, 28616.00
598.9630, 28398.00
600.1320, 28347.00
601.3000, 28683.00
602.4690, 28352.00
603.6370, 28550.00
604.8050, 28756.00
605.9730, 28629.00
607.1410, 28813.00
608.3090, 28717.00
609.4760, 28814.00
610.6430, 28806.00
611.8100, 28843.00
612.9770, 28955.00
614.1440, 29103.00
615.3110, 28765.00
616.4770, 29015.00
617.6430, 29145.00
618.8090, 28952.00
619.9750, 29144.00
621.1410, 28918.00
622.3070, 29079.00
623.4720, 29283.00
624.6370, 29191.00
625.8020, 29337.00
626.9670, 29223.00
628.1320, 29347.00
629.2970, 29410.00
630.4610, 29508.00
631.6250, 29607.00
632.7890, 29425.00
633.9530, 29701.00
635.1170, 29584.00
636.2810, 29844.00
637.4440, 29834.00
638.6070, 29868.00
639.7700, 30114.00
640.9330, 29914.00
642.0960, 30033.00
643.2590, 30161.00
644.4210, 30479.00
645.5830, 30623.00
646.7450, 30568.00
647.9070, 31032.00
649.0690, 30941.00
650.2310, 31043.00
651.3920, 31073.00
652.5530, 31109.00
653.7140, 31023.00
654.8750, 31016.00
656.0360, 30625.00
657.1970, 30408.00
658.3570, 30532.00
659.5170, 30307.00
660.6770, 30352.00
661.8370, 30403.00
662.9970, 30333.00
664.1570, 30232.00
665.3160, 30046.00
666.4750, 30204.00
667.6340, 30182.00
668.7930, 30287.00
669.9520, 30296.76
671.1110, 30443.00
672.2690, 30335.00
673.4270, 30388.00
674.5850, 30490.00
675.7430, 30529.00
676.9010, 30515.00
678.0590, 30411.00
679.2160, 30686.00
680.3730, 30527.00
681.5300, 30385.00
682.6870, 30692.00
683.8440, 30651.00
685.0010, 30804.00
686.1570, 31027.00
687.3130, 30831.00
688.4690, 30803.00
689.6250, 30828.00
690.7810, 30752.00
691.9370, 30746.00
693.0920, 30808.00
694.2470, 30922.00
695.4020, 30605.00
696.5570, 30831.00
697.7120, 30883.00
698.8670, 31188.00
700.0210, 30794.00
701.1750, 30956.00
702.3290, 30889.00
703.4830, 30976.00
704.6370, 31035.00
705.7910, 31130.00
706.9440, 31097.00
708.0970, 31127.00
709.2510, 31196.00
710.4030, 31322.00
711.5560, 31316.00
712.7090, 31360.85
713.8610, 31323.00
715.0140, 31392.00
716.1660, 31400.71
717.3180, 31601.00
718.4690, 31458.00
719.6210, 31433.00
720.7730, 31466.00
721.9240, 31674.00
723.0750, 31532.00
724.2260, 31630.00
725.3770, 31556.00
726.5270, 31574.00
727.6780, 31824.00
728.8280, 31676.00
729.9780, 31963.00
731.1280, 31856.00
732.2780, 31836.00
733.4280, 32144.00
734.5770, 31789.00
735.7260, 31910.00
736.8760, 31998.00
738.0250, 32011.00
739.1730, 32164.00
740.3220, 31911.00
741.4700, 32038.00
742.6190, 32135.00
743.7670, 32033.00
744.9150, 32320.00
746.0630, 32116.00
747.2100, 32155.00
748.3580, 32237.00
749.5050, 32445.00
750.6520, 32472.00
751.7990, 32512.98
752.9460, 32548.00
754.0930, 32477.00
755.2390, 32509.00
756.3860, 32439.00
757.5320, 32409.00
758.6780, 32725.00
759.8240, 32511.00
760.9690, 32679.00
762.1150, 32741.00
763.2600, 32701.00
764.4060, 32820.00
765.5510, 32704.00
766.6950, 32802.73
767.8400, 32911.00
768.9850, 32953.00
770.1290, 32951.00
771.2730, 33076.00
772.4170, 32968.00
773.5610, 32981.00
774.7050, 33198.00
775.8480, 33411.00
776.9920, 33226.00
778.1350, 33139.00
779.2780, 33298.00
780.4210, 33153.00
781.5640, 33002.00
782.7060, 33285.00
783.8490, 33226.00
784.9910, 33218.00
786.1330, 33236.00
787.2750, 33288.73
788.4170, 33321.00
789.5580, 33497.00
790.7000, 33427.00
791.8410, 33591.00
792.9820, 33612.92
794.1230, 33484.00
795.2640, 33618.00
796.4040, 33621.00
797.5450, 33468.00
798.6850, 33666.00
799.8250, 33758.00
800.9650, 33856.00
802.1050, 33934.00
803.2450, 33874.00
804.3840, 33878.00
805.5230, 33912.00
806.6630, 33904.42
807.8020, 33938.95
808.9400, 33933.00
810.0790, 34048.00
811.2170, 34031.00
812.3560, 34190.00
813.4940, 34211.00
814.6320, 34522.00
815.7700, 34406.00
816.9070, 34417.00
818.0450, 34585.00
819.1820, 34263.00
820.3190, 34754.00
821.4560, 34682.00
822.5930, 34179.00
823.7300, 34641.00
824.8670, 34652.00
826.0030, 34697.00
827.1390, 34740.00
828.2750, 34731.00
829.4110, 34805.00
830.5470, 34926.00
831.6820, 34833.00
832.8180, 35026.00
833.9530, 34786.00
835.0880, 34938.00
836.2230, 34894.00
837.3580, 34858.00
838.4920, 35010.00
839.6270, 35136.00
840.7610, 35245.00
841.8950, 35348.26
843.0290, 35087.00
844.1630, 35414.00
845.2960, 35396.00
846.4300, 35195.00
847.5630, 35518.00
848.6960, 35527.00
849.8290, 35315.00
850.9620, 35228.00
852.0940, 35566.00
853.2270, 35525.00
854.3590, 35433.00
855.4910, 35769.00
856.6230, 35835.00
857.7550, 35764.00
858.8870, 35854.00
860.0180, 35845.00
861.1500, 35762.00
862.2810, 35783.00
863.4120, 35794.00
864.5430, 35917.00
865.6730, 35912.00
866.8040, 36063.00
867.9340, 35923.00
869.0640, 35994.00
870.1940, 36010.00
871.3240, 36420.00
872.4540, 36285.00
873.5830, 36277.00
874.7130, 36103.00
875.8420, 36143.00
876.9710, 36278.00
878.1000, 36489.00
879.2290, 36152.00
880.3570, 36412.00
881.4860, 36544.00
882.6140, 36377.00
883.7420, 36610.00
884.8700, 36423.00
885.9980, 36581.00
887.1250, 36487.00
888.2530, 36798.00
889.3800, 36632.00
890.5070, 36817.00
891.6340, 36856.00
892.7610, 36845.00
893.8880, 37017.00
895.0140, 36807.00
896.1400, 37078.00
897.2670, 37005.00
898.3930, 36981.00
899.5180, 37299.00
900.6440, 37056.00
901.7700, 37125.00
902.8950, 37284.00
904.0200, 37452.00
905.1450, 37385.00
906.2700, 37426.00
907.3950, 37410.00
908.5190, 37433.00
909.6440, 37484.00
910.7680, 37479.00
911.8920, 37516.00
913.0160, 37496.00
914.1400, 37499.30
915.2630, 37570.59
916.3870, 37558.00
917.5100, 37687.00
918.6330, 37888.00
919.7560, 37896.00
920.8790, 37972.00
922.0010, 37909.00
923.1240, 37911.00
924.2460, 37791.00
925.3680, 38294.00
926.4900, 37944.00
927.6120, 38227.00
928.7340, 38122.00
929.8550, 38320.00
930.9760, 38230.00
932.0980, 38134.00
933.2190, 38376.00
934.3390, 38353.00
935.4600, 38435.00
936.5810, 38502.00
937.7010, 38513.00
938.8210, 38565.91
939.9410, 38629.00
941.0610, 38600.00
942.1810, 38694.00
943.3010, 38681.00
944.4200, 38909.00
945.5390, 38828.00
946.6580, 38891.00
947.7770, 38949.00
948.8960, 38928.00
950.0150, 38795.00
951.1330, 39212.00
952.2510, 38993.00
953.3690, 39132.00
954.4870, 39295.00
955.6050, 39014.00
956.7230, 39243.00
957.8400, 39156.00
958.9580, 39585.00
960.0750, 39569.00
961.1920, 39725.00
962.3090, 39764.00
963.4250, 39903.00
964.5420, 39899.24
965.6580, 39972.00
966.7740, 39865.00
967.8900, 40040.00
969.0060, 40013.00
970.1220, 40166.00
971.2380, 40204.86
972.3530, 40160.00
973.4680, 40269.00
974.5830, 40300.00
975.6980, 40269.00
976.8130, 40328.00
977.9280, 40240.00
979.0420, 40151.00
980.1560, 40286.00
981.2710, 40482.00
982.3850, 40443.00
983.4980, 40566.00
984.6120, 40607.00
985.7260, 40920.00
986.8390, 40737.00
987.9520, 40503.00
989.0650, 40753.00
990.1780, 41046.00
991.2910, 40821.00
992.4030, 40980.00
993.5160, 40807.00
994.6280, 41061.00
995.7400, 41331.00
996.8520, 40965.00
997.9640, 40978.00
999.0750, 41264.00
1000.187, 40986.00
1001.298, 41365.00
1002.409, 41393.00
1003.520, 41228.00
1004.631, 41448.00
1005.741, 41496.00
1006.852, 41332.00
1007.962, 41758.00
1009.072, 41602.00
1010.182, 41558.00
1011.292, 41502.00
1012.402, 41421.00
1013.511, 41595.00
1014.621, 41746.00
1015.730, 41807.00
1016.839, 41955.00
1017.948, 42128.00
1019.056, 41905.00
1020.165, 42215.00
1021.273, 42338.00
1022.382, 42330.00
1023.490, 42755.00
1024.598, 42392.00
1025.706, 42596.00
1026.813, 42804.00
1027.921, 42738.00
1029.028, 42444.00
1030.135, 42410.00
1031.242, 42405.00
1032.349, 42371.43
1033.456, 42203.00
1034.562, 42424.00
1035.668, 42462.00
1036.775, 42325.00
1037.881, 42489.00
1038.987, 42657.00
1040.092, 42680.00
1041.198, 42690.00
1042.303, 42526.00
1043.408, 42614.46
1044.514, 42657.00
1045.618, 42676.00
1046.723, 42736.57
1047.828, 42750.51
1048.932, 42835.00
1050.037, 42854.00
1051.141, 42946.00
1052.245, 43136.00
1053.349, 42982.00
1054.452, 43181.00
1055.556, 43155.00
1056.659, 43161.00
1057.762, 43265.00
1058.865, 43224.00
1059.968, 43316.00
1061.071, 43505.00
1062.174, 43555.00
1063.276, 43798.00
1064.378, 43518.00
1065.480, 43873.00
1066.582, 43969.00
1067.684, 43494.00
1068.786, 44012.00
1069.887, 43850.00
1070.988, 43663.00
1072.090, 43983.00
1073.191, 44153.00
1074.291, 44251.00
1075.392, 44288.01
1076.493, 44056.00
1077.593, 44178.00
1078.693, 44238.00
1079.793, 44199.00
1080.893, 44524.00
1081.993, 44438.00
1083.092, 44544.00
1084.192, 44417.00
1085.291, 44909.00
1086.390, 44892.00
1087.489, 44913.00
1088.588, 44999.00
1089.686, 44681.00
1090.785, 44757.00
1091.883, 44806.00
1092.981, 44918.00
1094.079, 44827.00
1095.177, 44740.00
1096.275, 44825.00
1097.373, 44853.00
1098.470, 44908.09
1099.567, 45120.00
1100.664, 45136.00
1101.761, 45094.00
1102.858, 45310.00
1103.954, 45491.00
1105.051, 45375.00
1106.147, 45469.00
1107.243, 45340.00
1108.339, 45245.00
1109.435, 45333.00
1110.531, 45265.00
1111.626, 45740.00
1112.722, 45608.00
1113.817, 45787.00
1114.912, 45859.00
1116.007, 45943.00
1117.101, 45995.00
1118.196, 45983.00
1119.290, 46135.00
1120.385, 46160.00
1121.479, 46233.00
1122.573, 46489.00
1123.666, 46106.00
1124.760, 46159.00
1125.853, 46193.00
1126.947, 46336.00
1128.040, 46175.00
1129.133, 46176.00
1130.226, 46632.00
1131.318, 46732.00
1132.411, 46661.00
1133.503, 46711.00
1134.596, 46764.00
1135.688, 46880.00
1136.780, 46707.00
1137.871, 46973.00
1138.963, 46726.00
1140.054, 47116.00
1141.146, 47202.00
1142.237, 46906.00
1143.328, 46994.00
1144.419, 47245.00
1145.509, 47069.00
1146.600, 47375.00
1147.690, 47261.00
1148.780, 47252.00
1149.870, 47616.00
1150.960, 47489.00
1152.050, 47501.00
1153.139, 47693.00
1154.229, 47615.00
1155.318, 47603.00
1156.407, 47674.00
1157.496, 47750.00
1158.585, 47721.00
1159.674, 47902.00
1160.762, 47727.00
1161.850, 47578.00
1162.939, 48030.00
1164.027, 48027.00
1165.114, 48151.00
1166.202, 48460.00
1167.290, 48334.00
1168.377, 48548.26
1169.464, 48513.00
1170.551, 48688.00
1171.638, 48506.00
1172.725, 48410.00
1173.812, 48494.00
1174.898, 48626.00
1175.984, 48466.00
1177.071, 48558.00
1178.157, 48526.00
1179.242, 48779.00
1180.328, 48774.00
1181.414, 48849.00
1182.499, 48767.00
1183.584, 48941.00
1184.669, 48835.00
1185.754, 48959.00
1186.839, 48990.00
1187.924, 49234.00
1189.008, 49329.00
1190.092, 49061.00
1191.177, 49368.00
##END=



