##NAMES=Pharmacosiderite
##RRUFFID=R050574
##IDEAL CHEMISTRY=KFe^3+^_4_(As^5+^O_4_)_3_(OH)_4_&#183;6-7H_2_O
##LOCALITY=Cornwall, England
##OWNER=RRUFF
##SOURCE=University of Arizona Mineral Museum
##DESCRIPTION=Druse of bluish-green cubes
##STATUS=The identification of this mineral is confirmed by single-crystal X-ray diffraction and chemical analysis.
##URL=rruff.info/R050574
##MEASURED CHEMISTRY=K_1.27_(Fe^3+^_3.73_Fe^2+^_0.27_)_Σ=4_(As_1.00_O_4_)_3_(OH)_4_·6H_2_O
##PIN_ID=M00719
##ORIENTATION=Laser parallel to a* (1 0 0). Fiducial mark perpendicular to laser is parallel to c [0 0 1]
214.0620, 24376.00
215.2900, 24519.00
216.5170, 24475.00
217.7440, 24687.00
218.9710, 24673.00
220.1980, 24818.00
221.4250, 24892.00
222.6510, 24880.00
223.8770, 24830.00
225.1040, 25273.00
226.3290, 25304.00
227.5550, 25413.00
228.7810, 25451.00
230.0060, 25867.00
231.2310, 25811.00
232.4560, 25834.00
233.6810, 26148.00
234.9050, 26256.00
236.1290, 26794.00
237.3540, 26782.00
238.5770, 26820.00
239.8010, 27174.00
241.0250, 26821.00
242.2480, 26905.00
243.4710, 26686.00
244.6940, 26957.00
245.9170, 26585.00
247.1400, 26695.00
248.3620, 26764.00
249.5840, 26654.00
250.8060, 26604.00
252.0280, 26590.00
253.2500, 26466.00
254.4710, 26466.00
255.6920, 26766.00
256.9140, 26403.00
258.1340, 26862.00
259.3550, 26937.00
260.5760, 26758.00
261.7960, 26987.00
263.0160, 27057.00
264.2360, 26887.00
265.4560, 27108.00
266.6750, 26899.00
267.8940, 26915.00
269.1140, 26761.00
270.3330, 26713.00
271.5510, 26583.00
272.7700, 26640.00
273.9880, 26685.00
275.2070, 26821.00
276.4250, 26667.00
277.6420, 26515.00
278.8600, 26598.00
280.0770, 26650.00
281.2950, 26869.00
282.5120, 26746.00
283.7290, 26842.00
284.9450, 26603.00
286.1620, 26878.00
287.3780, 26806.00
288.5940, 26512.00
289.8100, 26722.00
291.0260, 26528.00
292.2410, 26757.00
293.4570, 26564.00
294.6720, 26622.00
295.8870, 26441.00
297.1010, 26593.00
298.3160, 26486.00
299.5300, 26454.00
300.7450, 26784.00
301.9590, 26681.00
303.1730, 26676.00
304.3860, 26547.00
305.6000, 26728.00
306.8130, 26741.00
308.0260, 26463.00
309.2390, 26349.00
310.4510, 26530.00
311.6640, 26438.00
312.8760, 26268.00
314.0880, 26290.00
315.3000, 26104.00
316.5120, 26229.00
317.7240, 26285.00
318.9350, 26244.00
320.1460, 26369.00
321.3570, 26116.00
322.5680, 26201.00
323.7790, 26206.00
324.9890, 26146.00
326.1990, 26221.00
327.4090, 26265.00
328.6190, 26220.00
329.8290, 26147.00
331.0380, 26329.00
332.2480, 26393.00
333.4570, 26338.00
334.6660, 26454.00
335.8740, 26269.00
337.0830, 26604.00
338.2910, 26258.00
339.5000, 26593.00
340.7080, 26382.00
341.9150, 26464.00
343.1230, 26593.00
344.3300, 26512.00
345.5380, 26644.00
346.7450, 26581.00
347.9520, 26472.00
349.1580, 26465.00
350.3650, 26790.00
351.5710, 26564.00
352.7770, 26735.00
353.9830, 26481.00
355.1890, 26706.00
356.3940, 26695.00
357.6000, 26774.00
358.8050, 26829.00
360.0100, 26701.00
361.2150, 26730.00
362.4190, 26815.00
363.6240, 26928.00
364.8280, 27054.00
366.0320, 26949.00
367.2360, 27049.00
368.4400, 27158.00
369.6430, 27100.00
370.8460, 27280.00
372.0500, 27366.00
373.2530, 27550.00
374.4550, 27340.00
375.6580, 27617.00
376.8600, 27578.00
378.0620, 27534.00
379.2650, 27942.00
380.4660, 27979.00
381.6680, 28024.00
382.8690, 28122.00
384.0710, 28306.00
385.2720, 28142.00
386.4730, 28349.00
387.6730, 28429.00
388.8740, 28718.00
390.0740, 28739.00
391.2740, 28588.00
392.4740, 28807.00
393.6740, 28777.00
394.8740, 28807.00
396.0730, 28701.00
397.2730, 28831.00
398.4720, 28756.00
399.6700, 28855.00
400.8690, 28828.00
402.0680, 28454.00
403.2660, 28691.00
404.4640, 28708.00
405.6620, 28613.00
406.8600, 28631.00
408.0570, 28493.00
409.2550, 28375.00
410.4520, 28505.00
411.6490, 28392.00
412.8460, 28280.00
414.0430, 28429.00
415.2390, 28504.00
416.4350, 28525.00
417.6310, 28526.00
418.8270, 28562.00
420.0230, 28543.00
421.2190, 28770.00
422.4140, 28595.00
423.6090, 28435.00
424.8040, 28946.00
425.9990, 28527.00
427.1940, 28757.00
428.3880, 28832.00
429.5820, 28759.00
430.7760, 28788.00
431.9700, 28770.00
433.1640, 29041.00
434.3580, 29057.00
435.5510, 29358.00
436.7440, 29213.00
437.9370, 29241.00
439.1300, 29412.00
440.3230, 29659.00
441.5150, 29476.00
442.7070, 29519.00
443.8990, 29969.00
445.0910, 29803.00
446.2830, 29922.00
447.4750, 30316.00
448.6660, 30275.00
449.8570, 30567.00
451.0480, 30750.00
452.2390, 30952.00
453.4290, 31139.00
454.6200, 31546.00
455.8100, 31680.00
457.0000, 31929.00
458.1900, 32648.00
459.3800, 32808.00
460.5690, 33246.00
461.7590, 33861.00
462.9480, 34624.00
464.1370, 35311.00
465.3260, 36408.00
466.5140, 37398.00
467.7030, 38909.00
468.8910, 40693.00
470.0790, 42723.00
471.2670, 44915.00
472.4550, 47215.00
473.6420, 49946.00
474.8300, 52003.00
476.0170, 53889.00
477.2040, 54493.00
478.3900, 54556.00
479.5770, 53328.00
480.7640, 51487.00
481.9500, 49206.00
483.1360, 46920.00
484.3220, 44679.00
485.5080, 42517.00
486.6930, 41029.00
487.8780, 39444.00
489.0640, 38395.00
490.2490, 37252.00
491.4330, 36850.00
492.6180, 35929.00
493.8030, 35207.00
494.9870, 35051.00
496.1710, 34228.00
497.3550, 33893.00
498.5390, 33668.00
499.7220, 33611.00
500.9060, 33179.00
502.0890, 32962.00
503.2720, 32624.00
504.4550, 32762.00
505.6370, 32626.00
506.8200, 32011.00
508.0020, 32012.00
509.1840, 31830.00
510.3660, 31903.00
511.5480, 31720.00
512.7290, 31748.00
513.9110, 31685.00
515.0920, 31569.00
516.2730, 31357.00
517.4540, 31340.00
518.6350, 31361.00
519.8150, 31308.00
520.9960, 31456.00
522.1760, 31389.00
523.3560, 31210.00
524.5350, 31208.00
525.7150, 31036.00
526.8950, 30836.00
528.0740, 31028.00
529.2530, 30893.00
530.4320, 30719.00
531.6100, 30746.00
532.7890, 30785.00
533.9670, 30874.00
535.1460, 30685.00
536.3240, 30933.00
537.5010, 30818.00
538.6790, 30602.00
539.8570, 30573.00
541.0340, 30779.00
542.2110, 30754.00
543.3880, 30721.00
544.5650, 30789.00
545.7410, 30817.00
546.9180, 30821.00
548.0940, 30740.00
549.2700, 30744.00
550.4460, 30414.00
551.6210, 30857.00
552.7970, 30547.00
553.9720, 30951.00
555.1480, 31081.00
556.3230, 30840.00
557.4970, 30743.00
558.6720, 30969.00
559.8460, 30870.00
561.0210, 30936.00
562.1950, 30764.00
563.3690, 30937.00
564.5420, 30877.00
565.7160, 31055.00
566.8890, 30976.00
568.0630, 30784.00
569.2360, 30852.00
570.4090, 30922.00
571.5810, 30907.00
572.7540, 30921.00
573.9260, 30923.00
575.0980, 30890.00
576.2700, 31199.00
577.4420, 30953.00
578.6140, 31082.00
579.7850, 30762.00
580.9560, 31289.00
582.1270, 30885.00
583.2980, 31154.00
584.4690, 31037.00
585.6400, 31112.00
586.8100, 31353.00
587.9800, 31290.00
589.1500, 31155.00
590.3200, 31405.00
591.4900, 31278.00
592.6590, 31246.00
593.8290, 31148.00
594.9980, 31288.00
596.1670, 31311.00
597.3360, 31456.00
598.5040, 31305.00
599.6730, 31516.00
600.8410, 31587.00
602.0090, 31497.00
603.1770, 31409.00
604.3450, 31637.00
605.5130, 31793.00
606.6800, 31600.00
607.8470, 31575.00
609.0140, 31484.00
610.1810, 31583.00
611.3480, 31556.00
612.5140, 31699.00
613.6810, 31617.00
614.8470, 31680.00
616.0130, 31811.00
617.1790, 31970.00
618.3440, 31999.00
619.5100, 32093.00
620.6750, 32369.00
621.8400, 32376.00
623.0050, 32448.00
624.1700, 32553.00
625.3350, 32445.00
626.4990, 32878.00
627.6640, 32848.00
628.8280, 32553.00
629.9920, 32312.00
631.1550, 32367.00
632.3190, 32467.00
633.4820, 32436.00
634.6460, 32136.00
635.8090, 32139.00
636.9710, 32275.00
638.1340, 32099.00
639.2970, 32117.00
640.4590, 32268.00
641.6210, 32542.00
642.7830, 32494.00
643.9450, 32729.00
645.1070, 32521.00
646.2680, 32715.00
647.4300, 32961.00
648.5910, 32742.00
649.7520, 32947.00
650.9130, 32666.00
652.0730, 32981.00
653.2340, 32690.00
654.3940, 32609.00
655.5540, 32684.00
656.7140, 32338.00
657.8740, 32712.00
659.0330, 32526.00
660.1930, 32636.00
661.3520, 32337.00
662.5110, 32457.00
663.6700, 32530.00
664.8290, 32492.00
665.9870, 32685.00
667.1460, 32361.00
668.3040, 32510.00
669.4620, 32325.00
670.6200, 32498.00
671.7770, 32302.00
672.9350, 32500.00
674.0920, 32612.00
675.2500, 32614.00
676.4070, 32753.00
677.5630, 32713.00
678.7200, 32571.00
679.8770, 32532.00
681.0330, 32770.00
682.1890, 32719.00
683.3450, 32522.00
684.5010, 32777.00
685.6560, 32695.00
686.8120, 32806.00
687.9670, 32802.00
689.1220, 32918.00
690.2770, 32724.00
691.4320, 32903.00
692.5870, 32752.00
693.7410, 33044.00
694.8950, 33037.00
696.0490, 32940.00
697.2030, 33035.00
698.3570, 33058.00
699.5110, 33092.00
700.6640, 33223.00
701.8170, 33368.00
702.9700, 33384.00
704.1230, 32960.00
705.2760, 33341.00
706.4290, 33143.00
707.5810, 33322.00
708.7330, 33434.00
709.8850, 33458.00
711.0370, 33504.00
712.1890, 33395.00
713.3400, 33324.00
714.4920, 33601.00
715.6430, 33523.00
716.7940, 33257.00
717.9450, 33463.00
719.0960, 33766.00
720.2460, 33649.00
721.3960, 33801.00
722.5470, 33911.00
723.6970, 33737.00
724.8460, 33894.00
725.9960, 33849.00
727.1460, 33863.00
728.2950, 33866.00
729.4440, 33897.00
730.5930, 34006.00
731.7420, 34173.00
732.8910, 34219.00
734.0390, 34289.00
735.1870, 34236.00
736.3360, 34239.00
737.4840, 34255.00
738.6310, 34049.00
739.7790, 34289.00
740.9260, 34145.00
742.0740, 34384.00
743.2210, 34135.00
744.3680, 34346.00
745.5150, 34455.00
746.6610, 34683.00
747.8080, 34387.00
748.9540, 34517.00
750.1000, 34664.00
751.2460, 34795.00
752.3920, 34730.00
753.5380, 34846.00
754.6830, 34918.00
755.8280, 34674.00
756.9730, 35069.00
758.1180, 34915.00
759.2630, 35064.00
760.4080, 34896.00
761.5520, 35191.00
762.6960, 35271.00
763.8410, 35411.00
764.9840, 35328.00
766.1280, 35559.00
767.2720, 35237.00
768.4150, 35561.00
769.5590, 35493.00
770.7020, 36030.00
771.8450, 35678.00
772.9870, 35884.00
774.1300, 36119.00
775.2720, 36430.00
776.4150, 36497.00
777.5570, 36813.00
778.6990, 36862.00
779.8400, 37084.00
780.9820, 37387.00
782.1230, 37744.00
783.2650, 38479.00
784.4060, 38761.00
785.5470, 38878.00
786.6870, 39342.00
787.8280, 39514.00
788.9680, 39871.00
790.1090, 39868.00
791.2490, 39791.00
792.3890, 40081.00
793.5280, 39968.00
794.6680, 39664.00
795.8070, 39406.00
796.9470, 39343.00
798.0860, 38644.00
799.2250, 38822.00
800.3630, 38490.00
801.5020, 38208.00
802.6410, 38098.00
803.7790, 37813.00
804.9170, 37925.00
806.0550, 37489.00
807.1930, 37560.00
808.3300, 37524.00
809.4680, 37375.00
810.6050, 37393.00
811.7420, 37177.00
812.8790, 37146.00
814.0160, 36948.00
815.1520, 36884.00
816.2890, 37066.00
817.4250, 37197.00
818.5610, 36839.00
819.6970, 37152.00
820.8330, 37253.00
821.9680, 37161.00
823.1040, 37138.00
824.2390, 37161.00
825.3740, 37174.00
826.5090, 37205.00
827.6440, 37192.00
828.7790, 37264.00
829.9130, 37204.00
831.0470, 37197.00
832.1810, 37350.00
833.3150, 37381.00
834.4490, 37513.00
835.5830, 37409.00
836.7160, 37434.00
837.8500, 37351.00
838.9830, 37763.00
840.1160, 37598.00
841.2480, 37598.00
842.3810, 37729.00
843.5140, 37962.00
844.6460, 37894.00
845.7780, 37892.00
846.9100, 38239.00
848.0420, 38013.00
849.1740, 38282.00
850.3050, 38363.00
851.4360, 38670.00
852.5680, 38666.00
853.6990, 38584.00
854.8290, 38819.00
855.9600, 39191.00
857.0910, 39633.00
858.2210, 39278.00
859.3510, 39865.00
860.4810, 40145.00
861.6110, 40036.00
862.7410, 40039.00
863.8700, 40310.00
865.0000, 40436.00
866.1290, 40553.00
867.2580, 40537.00
868.3870, 40282.00
869.5150, 40528.00
870.6440, 40652.00
871.7720, 40797.00
872.9000, 40963.00
874.0290, 41137.00
875.1560, 41274.00
876.2840, 41531.00
877.4120, 41926.00
878.5390, 42095.00
879.6660, 42369.00
880.7930, 42417.00
881.9200, 42413.00
883.0470, 42607.00
884.1740, 42315.00
885.3000, 42086.00
886.4260, 42103.00
887.5530, 41588.00
888.6780, 41420.00
889.8040, 41016.00
890.9300, 41004.00
892.0550, 40570.00
893.1810, 40399.00
894.3060, 40110.00
895.4310, 39737.00
896.5560, 39653.00
897.6800, 39372.00
898.8050, 39372.00
899.9290, 38958.00
901.0530, 39155.00
902.1770, 39059.00
903.3010, 38737.00
904.4250, 38909.00
905.5480, 39104.00
906.6720, 38607.00
907.7950, 38543.00
908.9180, 38699.00
910.0410, 38541.00
911.1630, 38749.00
912.2860, 38771.00
913.4080, 38766.00
914.5300, 38639.00
915.6530, 38532.00
916.7740, 38705.00
917.8960, 38607.00
919.0180, 38681.00
920.1390, 38762.00
921.2600, 38548.00
922.3820, 38648.00
923.5020, 38829.00
924.6230, 38611.00
925.7440, 38891.00
926.8640, 38640.00
927.9850, 38895.00
929.1050, 38821.00
930.2250, 38806.00
931.3450, 39003.00
932.4640, 38884.00
933.5840, 38873.00
934.7030, 38787.00
935.8220, 39006.00
936.9410, 38934.00
938.0600, 38876.00
939.1790, 39036.00
940.2970, 39024.00
941.4160, 39269.00
942.5340, 38927.00
943.6520, 39162.00
944.7700, 38995.00
945.8870, 39140.00
947.0050, 39165.00
948.1220, 39375.00
949.2400, 39248.00
950.3570, 39103.00
951.4740, 39244.00
952.5900, 39414.00
953.7070, 39472.00
954.8240, 39405.00
955.9400, 39338.00
957.0560, 39461.00
958.1720, 39353.00
959.2880, 39729.00
960.4030, 39479.00
961.5190, 39646.00
962.6340, 39537.00
963.7490, 39502.00
964.8640, 39786.00
965.9790, 39420.00
967.0940, 39761.00
968.2080, 39700.00
969.3230, 39704.00
970.4370, 39737.00
971.5510, 39787.00
972.6650, 39667.00
973.7790, 39819.00
974.8920, 40101.00
976.0060, 39844.00
977.1190, 39930.00
978.2320, 40265.00
979.3450, 40104.00
980.4580, 40059.00
981.5710, 40097.00
982.6830, 40212.00
983.7950, 40022.00
984.9080, 40053.00
986.0200, 40119.00
987.1310, 40120.00
988.2430, 40379.00
989.3550, 40339.00
990.4660, 40459.00
991.5770, 40445.00
992.6880, 40260.00
993.7990, 40409.00
994.9100, 40526.00
996.0200, 40378.00
997.1310, 40981.00
998.2410, 40867.00
999.3510, 41096.00
1000.461, 41260.00
1001.571, 41391.00
1002.681, 41305.00
1003.790, 41282.00
1004.899, 41139.00
1006.009, 40700.00
1007.118, 41053.00
1008.226, 40856.00
1009.335, 40827.00
1010.444, 41170.00
1011.552, 40819.00
1012.660, 40975.00
1013.768, 41103.00
1014.876, 41161.00
1015.984, 41163.00
1017.092, 40975.00
1018.199, 41206.00
1019.306, 41370.00
1020.413, 41412.00
1021.520, 41255.00
1022.627, 41320.00
1023.734, 41357.00
1024.840, 41492.00
1025.947, 41585.00
1027.053, 41600.00
1028.159, 41521.00
1029.265, 41441.00
1030.370, 41532.00
1031.476, 41458.00
1032.581, 41434.00
1033.687, 41596.00
1034.792, 41351.00
1035.897, 41419.00
1037.002, 41695.00
1038.106, 41692.00
1039.211, 41785.00
1040.315, 41605.00
1041.419, 41558.00
1042.523, 41583.00
1043.627, 41725.00
1044.731, 41522.00
1045.834, 42010.00
1046.938, 41919.00
1048.041, 41819.00
1049.144, 41621.00
1050.247, 41805.00
1051.349, 41982.00
1052.452, 41870.00
1053.555, 41877.00
1054.657, 41832.00
1055.759, 41926.00
1056.861, 42120.00
1057.963, 41912.00
1059.064, 42208.00
1060.166, 42093.00
1061.267, 42114.00
1062.368, 41889.00
1063.470, 41758.00
1064.570, 42287.00
1065.671, 42126.00
1066.772, 42085.00
1067.872, 42113.00
1068.972, 42082.00
1070.073, 42337.00
1071.173, 42172.00
1072.272, 42502.00
1073.372, 42280.00
1074.472, 42591.00
1075.571, 42512.00
1076.670, 42447.00
1077.769, 42663.00
1078.868, 42450.00
1079.967, 42568.00
1081.065, 42732.00
1082.164, 42700.00
1083.262, 42751.00
1084.360, 42561.00
1085.458, 42778.00
1086.556, 42647.00
1087.654, 42694.00
1088.751, 42812.00
1089.848, 42808.00
1090.946, 42642.00
1092.043, 42729.00
1093.139, 42900.00
1094.236, 42819.00
1095.333, 42773.00
1096.429, 42766.00
1097.525, 42916.00
1098.622, 43101.00
1099.718, 42884.00
1100.813, 42902.00
1101.909, 42877.00
1103.005, 43013.00
1104.100, 43048.00
1105.195, 43121.00
1106.290, 42829.00
1107.385, 43035.00
1108.480, 43459.00
1109.574, 43462.00
1110.669, 43091.00
1111.763, 43364.00
1112.857, 43054.00
1113.951, 43480.00
1115.045, 43256.00
1116.139, 43361.00
1117.232, 43666.00
1118.326, 43124.00
1119.419, 43239.00
1120.512, 43350.00
1121.605, 43380.00
1122.697, 43230.00
1123.790, 43819.00
1124.883, 43512.00
1125.975, 43544.00
1127.067, 43614.00
1128.159, 43391.00
1129.251, 43494.00
1130.342, 43652.00
1131.434, 43783.00
1132.525, 43729.00
1133.617, 43547.00
1134.708, 43796.00
1135.799, 43776.00
1136.889, 43696.00
1137.980, 43624.00
1139.071, 43493.00
1140.161, 43608.00
1141.251, 43851.00
1142.341, 43694.00
1143.431, 43702.00
1144.521, 43988.00
1145.610, 44068.00
1146.700, 44030.00
1147.789, 44259.00
1148.878, 44228.00
1149.967, 44037.00
1151.056, 43818.00
1152.144, 43877.00
1153.233, 44046.00
1154.321, 44231.00
1155.409, 44078.00
1156.498, 44335.00
1157.585, 44324.00
1158.673, 44506.00
1159.761, 44257.00
1160.848, 44213.00
1161.936, 44380.00
1163.023, 44544.00
1164.110, 44581.00
1165.197, 44289.00
1166.283, 44812.00
1167.370, 44402.00
1168.456, 44137.00
1169.542, 44499.00
1170.629, 44491.00
1171.714, 44621.00
1172.800, 44545.00
1173.886, 44557.00
1174.971, 44723.00
1176.057, 44839.00
1177.142, 44833.00
1178.227, 44737.00
1179.312, 44938.00
1180.397, 44670.00
1181.481, 44952.00
1182.566, 44944.00
1183.650, 44811.00
1184.734, 45134.00
1185.818, 45117.00
1186.902, 45001.00
1187.986, 45077.00
1189.069, 45009.00
1190.153, 45217.00
1191.236, 45178.00
1192.319, 45084.00
1193.402, 45108.00
1194.485, 45024.00
1195.567, 45091.00
1196.650, 45272.00
1197.732, 45371.00
1198.814, 45117.00
1199.896, 45300.00
1200.978, 45127.00
1202.060, 45390.00
1203.142, 45425.00
1204.223, 45230.00
1205.304, 45538.00
1206.386, 45681.00
1207.467, 45600.00
1208.547, 45462.00
1209.628, 45573.00
1210.709, 45560.00
1211.789, 45676.00
1212.869, 45675.00
1213.950, 45674.00
1215.030, 45959.00
1216.109, 45531.00
1217.189, 45787.00
1218.269, 45459.00
1219.348, 45669.00
1220.427, 45835.00
1221.506, 45998.00
1222.585, 45935.00
1223.664, 45910.00
1224.743, 46386.00
1225.821, 45934.00
1226.899, 46010.00
1227.978, 45847.00
1229.056, 46194.00
1230.134, 46178.00
1231.211, 46149.00
1232.289, 46225.00
1233.366, 46222.00
1234.444, 46538.00
1235.521, 46297.00
1236.598, 45974.00
1237.675, 46441.00
1238.751, 46675.00
1239.828, 46662.00
1240.904, 46451.00
1241.981, 46506.00
1243.057, 46761.00
1244.133, 46829.00
1245.209, 46431.00
1246.284, 46711.00
1247.360, 46869.00
1248.435, 46767.00
1249.510, 46582.00
1250.585, 46867.00
1251.660, 46837.00
1252.735, 46803.00
1253.810, 46865.00
1254.884, 47034.00
1255.959, 46863.00
1257.033, 47060.00
1258.107, 47141.00
1259.181, 46959.00
1260.255, 46946.00
1261.328, 47087.00
1262.402, 46968.23
1263.475, 47460.25
1264.548, 47747.21
1265.621, 47840.13
1266.694, 47157.86
1267.767, 47476.59
1268.840, 47394.16
1269.912, 47295.27
1270.984, 47754.86
1272.056, 47185.32
1273.129, 47636.08
1274.200, 47679.52
1275.272, 47909.38
1276.344, 47735.61
1277.415, 47686.48
1278.486, 48041.12
1279.558, 48172.21
1280.629, 47951.95
1281.699, 48193.62
1282.770, 47609.95
1283.841, 47750.54
1284.911, 48203.60
1285.981, 48003.61
1287.051, 48252.66
1288.121, 48330.69
1289.191, 47851.00
1290.261, 48083.00
1291.330, 47790.00
1292.400, 48165.00
1293.469, 48240.00
1294.538, 48603.00
1295.607, 48126.00
1296.676, 48433.00
1297.745, 48557.00
1298.813, 48253.00
1299.881, 48572.00
1300.950, 48470.00
1302.018, 48424.00
1303.086, 48420.00
1304.154, 48635.00
1305.221, 48586.00
1306.289, 48384.00
1307.356, 48694.00
1308.423, 48904.00
1309.490, 48651.00
1310.557, 49092.00
1311.624, 48772.00
1312.691, 49054.00
1313.757, 48999.00
1314.823, 48707.00
1315.890, 49027.00
1316.956, 49088.00
1318.022, 48935.00
1319.087, 49274.00
1320.153, 48722.00
1321.219, 48787.00
1322.284, 49155.00
1323.349, 49012.00
1324.414, 49020.00
1325.479, 49195.00
1326.544, 48953.00
1327.608, 48835.00
1328.673, 49473.00
1329.737, 48730.00
1330.801, 48887.00
1331.865, 48947.00
1332.929, 49087.00
1333.993, 48814.00
1335.057, 49118.00
1336.120, 49294.00
1337.183, 48992.00
1338.247, 49272.00
1339.310, 49280.00
1340.373, 49367.00
1341.435, 49263.00
1342.498, 49117.00
1343.560, 49039.00
1344.623, 49066.00
1345.685, 49275.00
1346.747, 49324.00
1347.809, 49606.00
1348.871, 49635.00
1349.932, 49742.00
1350.994, 49421.00
1352.055, 49857.00
1353.116, 49465.00
1354.177, 49573.00
1355.238, 49931.00
1356.299, 49648.00
1357.359, 49618.00
1358.420, 49962.00
1359.480, 49558.00
1360.540, 49725.00
1361.600, 49978.00
1362.660, 50158.00
1363.720, 49713.00
1364.780, 49883.00
1365.839, 49963.00
1366.898, 49888.00
1367.958, 49772.00
1369.017, 49912.00
1370.076, 49828.00
1371.134, 50069.00
1372.193, 50046.00
1373.251, 50173.00
1374.310, 50121.00
1375.368, 50304.00
