##NAMES=Pharmacosiderite
##RRUFFID=R050574
##IDEAL CHEMISTRY=KFe^3+^_4_(As^5+^O_4_)_3_(OH)_4_&#183;6-7H_2_O
##LOCALITY=Cornwall, England
##OWNER=RRUFF
##SOURCE=University of Arizona Mineral Museum
##DESCRIPTION=Druse of bluish-green cubes
##STATUS=The identification of this mineral is confirmed by single-crystal X-ray diffraction and chemical analysis.
##URL=rruff.info/R050574
##MEASURED CHEMISTRY=K_1.27_(Fe^3+^_3.73_Fe^2+^_0.27_)_Σ=4_(As_1.00_O_4_)_3_(OH)_4_·6H_2_O
##PIN_ID=M00719
##ORIENTATION=Laser parallel to a* (1 0 0). Fiducial mark perpendicular to laser is parallel to c [0 0 1]
210.3780, 10669.00
211.6060, 10663.00
212.8340, 10638.00
214.0620, 10613.00
215.2900, 10694.00
216.5170, 10672.00
217.7440, 10795.00
218.9710, 10855.00
220.1980, 10796.00
221.4250, 10974.00
222.6510, 11066.00
223.8770, 11221.00
225.1040, 11251.00
226.3290, 11348.00
227.5550, 11688.00
228.7810, 11874.00
230.0060, 12252.00
231.2310, 12524.00
232.4560, 12714.00
233.6810, 13129.00
234.9050, 13441.00
236.1290, 13628.00
237.3540, 13842.00
238.5770, 14103.00
239.8010, 14204.00
241.0250, 14358.00
242.2480, 14124.00
243.4710, 14225.00
244.6940, 14054.00
245.9170, 13774.00
247.1400, 13694.00
248.3620, 13571.00
249.5840, 13514.00
250.8060, 13408.00
252.0280, 13471.00
253.2500, 13777.00
254.4710, 13619.00
255.6920, 13602.00
256.9140, 13651.00
258.1340, 14076.00
259.3550, 14093.00
260.5760, 14214.00
261.7960, 14176.00
263.0160, 14237.00
264.2360, 14215.00
265.4560, 14193.28
266.6750, 14061.00
267.8940, 14112.00
269.1140, 13936.00
270.3330, 13837.00
271.5510, 13702.00
272.7700, 13363.00
273.9880, 13267.00
275.2070, 13258.00
276.4250, 13217.00
277.6420, 13244.00
278.8600, 13281.00
280.0770, 13298.99
281.2950, 13382.00
282.5120, 13407.00
283.7290, 13424.00
284.9450, 13522.00
286.1620, 13303.00
287.3780, 13377.00
288.5940, 13132.00
289.8100, 12894.00
291.0260, 12537.00
292.2410, 12491.00
293.4570, 12250.00
294.6720, 12194.00
295.8870, 12220.00
297.1010, 12106.00
298.3160, 12141.00
299.5300, 12186.00
300.7450, 12141.00
301.9590, 12221.00
303.1730, 12047.00
304.3860, 12147.00
305.6000, 11996.00
306.8130, 12129.00
308.0260, 11959.00
309.2390, 11764.00
310.4510, 11628.00
311.6640, 11496.01
312.8760, 11382.55
314.0880, 11302.00
315.3000, 11229.00
316.5120, 11193.00
317.7240, 11175.00
318.9350, 11105.00
320.1460, 11133.00
321.3570, 10983.00
322.5680, 10876.00
323.7790, 10968.00
324.9890, 11012.00
326.1990, 10870.00
327.4090, 10884.00
328.6190, 10872.00
329.8290, 10845.00
331.0380, 10822.00
332.2480, 10865.00
333.4570, 10832.00
334.6660, 10811.00
335.8740, 10829.00
337.0830, 10789.00
338.2910, 10900.00
339.5000, 10993.00
340.7080, 10826.00
341.9150, 10983.00
343.1230, 10987.00
344.3300, 11005.00
345.5380, 11035.00
346.7450, 10892.00
347.9520, 11028.00
349.1580, 10890.00
350.3650, 11003.00
351.5710, 11072.00
352.7770, 10999.00
353.9830, 11092.00
355.1890, 11016.00
356.3940, 11113.00
357.6000, 11034.00
358.8050, 11072.00
360.0100, 11141.00
361.2150, 11124.00
362.4190, 11121.00
363.6240, 11188.00
364.8280, 11225.00
366.0320, 11386.00
367.2360, 11400.00
368.4400, 11520.00
369.6430, 11554.00
370.8460, 11635.00
372.0500, 11678.00
373.2530, 11788.00
374.4550, 11871.00
375.6580, 11972.88
376.8600, 12126.00
378.0620, 12228.00
379.2650, 12388.00
380.4660, 12581.00
381.6680, 12677.00
382.8690, 12860.38
384.0710, 12938.00
385.2720, 13148.00
386.4730, 13363.00
387.6730, 13454.00
388.8740, 13617.00
390.0740, 13567.00
391.2740, 13736.00
392.4740, 13780.00
393.6740, 13569.00
394.8740, 13645.00
396.0730, 13588.00
397.2730, 13592.00
398.4720, 13443.00
399.6700, 13374.00
400.8690, 13292.00
402.0680, 13176.00
403.2660, 13102.53
404.4640, 13045.00
405.6620, 12967.00
406.8600, 12872.00
408.0570, 12896.00
409.2550, 12651.00
410.4520, 12783.00
411.6490, 12801.00
412.8460, 12896.00
414.0430, 12657.00
415.2390, 12622.00
416.4350, 12781.00
417.6310, 12679.00
418.8270, 12742.00
420.0230, 12674.00
421.2190, 12805.00
422.4140, 12789.00
423.6090, 12785.00
424.8040, 12796.00
425.9990, 12939.00
427.1940, 12824.00
428.3880, 12908.00
429.5820, 12921.00
430.7760, 13132.00
431.9700, 13216.00
433.1640, 13364.00
434.3580, 13216.00
435.5510, 13590.00
436.7440, 13519.00
437.9370, 13721.00
439.1300, 13655.00
440.3230, 13849.00
441.5150, 14021.00
442.7070, 14128.00
443.8990, 14388.00
445.0910, 14560.18
446.2830, 14903.00
447.4750, 15036.00
448.6660, 15216.00
449.8570, 15547.38
451.0480, 15871.10
452.2390, 16324.00
453.4290, 16771.00
454.6200, 17201.00
455.8100, 17808.00
457.0000, 18340.00
458.1900, 18869.00
459.3800, 19687.00
460.5690, 20634.00
461.7590, 21550.00
462.9480, 23101.00
464.1370, 24589.00
465.3260, 26372.00
466.5140, 28591.00
467.7030, 31326.00
468.8910, 34610.00
470.0790, 38707.00
471.2670, 43539.00
472.4550, 48844.00
473.6420, 54408.00
474.8300, 59882.00
476.0170, 63740.00
477.2040, 65440.00
478.3900, 65535.00
479.5770, 63020.00
480.7640, 58879.00
481.9500, 53651.00
483.1360, 48906.00
484.3220, 43846.00
485.5080, 39730.00
486.6930, 36300.00
487.8780, 33018.00
489.0640, 30734.00
490.2490, 28650.00
491.4330, 26871.00
492.6180, 25390.00
493.8030, 23988.00
494.9870, 23117.00
496.1710, 22297.00
497.3550, 21326.00
498.5390, 20648.00
499.7220, 20093.00
500.9060, 19476.00
502.0890, 19047.00
503.2720, 18444.00
504.4550, 17981.00
505.6370, 17698.00
506.8200, 17235.00
508.0020, 17092.00
509.1840, 16856.00
510.3660, 16465.00
511.5480, 16209.00
512.7290, 16034.00
513.9110, 15785.52
515.0920, 15680.97
516.2730, 15537.64
517.4540, 15357.65
518.6350, 15031.10
519.8150, 14893.94
520.9960, 14680.80
522.1760, 14464.69
523.3560, 14354.17
524.5350, 14010.00
525.7150, 13920.00
526.8950, 13957.00
528.0740, 13714.00
529.2530, 13777.00
530.4320, 13719.00
531.6100, 13640.00
532.7890, 13616.00
533.9670, 13534.00
535.1460, 13475.00
536.3240, 13382.00
537.5010, 13335.00
538.6790, 13250.00
539.8570, 13224.00
541.0340, 13071.00
542.2110, 12905.00
543.3880, 13036.00
544.5650, 13180.00
545.7410, 12961.00
546.9180, 12895.00
548.0940, 12894.00
549.2700, 12842.00
550.4460, 12821.00
551.6210, 12672.00
552.7970, 12823.00
553.9720, 12627.00
555.1480, 12716.00
556.3230, 12753.00
557.4970, 12771.00
558.6720, 12710.00
559.8460, 12659.00
561.0210, 12769.00
562.1950, 12663.00
563.3690, 12489.00
564.5420, 12641.00
565.7160, 12605.00
566.8890, 12474.00
568.0630, 12648.00
569.2360, 12612.00
570.4090, 12562.00
571.5810, 12701.00
572.7540, 12717.00
573.9260, 12669.00
575.0980, 12473.00
576.2700, 12505.00
577.4420, 12487.00
578.6140, 12579.00
579.7850, 12560.00
580.9560, 12616.00
582.1270, 12631.73
583.2980, 12504.00
584.4690, 12597.00
585.6400, 12588.00
586.8100, 12448.00
587.9800, 12495.00
589.1500, 12582.00
590.3200, 12494.00
591.4900, 12524.00
592.6590, 12614.00
593.8290, 12446.00
594.9980, 12456.00
596.1670, 12536.00
597.3360, 12637.00
598.5040, 12626.00
599.6730, 12681.00
600.8410, 12651.79
602.0090, 12678.00
603.1770, 12593.00
604.3450, 12514.00
605.5130, 12546.00
606.6800, 12621.00
607.8470, 12583.00
609.0140, 12575.00
610.1810, 12524.00
611.3480, 12504.00
612.5140, 12507.00
613.6810, 12557.00
614.8470, 12614.00
616.0130, 12586.00
617.1790, 12521.00
618.3440, 12524.00
619.5100, 12574.83
620.6750, 12663.00
621.8400, 12765.00
623.0050, 12892.00
624.1700, 13063.00
625.3350, 13010.00
626.4990, 13143.00
627.6640, 12976.00
628.8280, 12809.00
629.9920, 12847.00
631.1550, 12787.00
632.3190, 12703.00
633.4820, 12797.00
634.6460, 12661.00
635.8090, 12581.00
636.9710, 12700.00
638.1340, 12605.00
639.2970, 12776.00
640.4590, 12609.00
641.6210, 12727.00
642.7830, 12772.00
643.9450, 12829.00
645.1070, 12749.00
646.2680, 12783.00
647.4300, 12898.00
648.5910, 12762.00
649.7520, 12969.00
650.9130, 12815.00
652.0730, 12946.00
653.2340, 12830.00
654.3940, 12771.00
655.5540, 12869.00
656.7140, 12718.00
657.8740, 12656.00
659.0330, 12689.00
660.1930, 12516.00
661.3520, 12572.00
662.5110, 12567.00
663.6700, 12587.00
664.8290, 12570.00
665.9870, 12536.14
667.1460, 12451.00
668.3040, 12480.00
669.4620, 12388.00
670.6200, 12433.00
671.7770, 12351.00
672.9350, 12536.00
674.0920, 12359.00
675.2500, 12430.00
676.4070, 12550.00
677.5630, 12455.00
678.7200, 12570.00
679.8770, 12449.00
681.0330, 12559.00
682.1890, 12586.00
683.3450, 12583.00
684.5010, 12503.00
685.6560, 12720.00
686.8120, 12704.00
687.9670, 12611.00
689.1220, 12598.00
690.2770, 12567.00
691.4320, 12541.00
692.5870, 12696.00
693.7410, 12506.00
694.8950, 12678.00
696.0490, 12699.00
697.2030, 12718.00
698.3570, 12645.00
699.5110, 12702.00
700.6640, 12587.00
701.8170, 12620.00
702.9700, 12675.00
704.1230, 12660.00
705.2760, 12830.00
706.4290, 12760.00
707.5810, 12847.00
708.7330, 12819.00
709.8850, 12901.00
711.0370, 12908.00
712.1890, 12949.00
713.3400, 12971.00
714.4920, 13001.00
715.6430, 13001.18
716.7940, 13021.00
717.9450, 13004.00
719.0960, 12999.00
720.2460, 13032.00
721.3960, 13057.00
722.5470, 13116.00
723.6970, 13069.00
724.8460, 13257.00
725.9960, 13305.00
727.1460, 13233.00
728.2950, 13375.00
729.4440, 13345.00
730.5930, 13254.00
731.7420, 13201.00
732.8910, 13425.00
734.0390, 13286.00
735.1870, 13469.00
736.3360, 13551.00
737.4840, 13498.00
738.6310, 13641.00
739.7790, 13502.00
740.9260, 13518.00
742.0740, 13658.00
743.2210, 13567.00
744.3680, 13580.00
745.5150, 13650.00
746.6610, 13762.00
747.8080, 13733.00
748.9540, 13751.00
750.1000, 13700.00
751.2460, 13858.00
752.3920, 13866.00
753.5380, 13889.00
754.6830, 13997.00
755.8280, 13925.00
756.9730, 14143.00
758.1180, 14338.00
759.2630, 14206.00
760.4080, 14416.00
761.5520, 14536.00
762.6960, 14549.00
763.8410, 14756.00
764.9840, 14683.00
766.1280, 14817.00
767.2720, 15016.00
768.4150, 15188.00
769.5590, 15168.00
770.7020, 15521.00
771.8450, 15744.00
772.9870, 16081.00
774.1300, 16133.00
775.2720, 16721.00
776.4150, 17051.00
777.5570, 17514.00
778.6990, 18379.00
779.8400, 18868.00
780.9820, 19748.00
782.1230, 20341.00
783.2650, 21265.61
784.4060, 22191.33
785.5470, 23037.00
786.6870, 24104.00
787.8280, 24705.00
788.9680, 25463.00
790.1090, 25923.00
791.2490, 26178.00
792.3890, 26062.00
793.5280, 25952.00
794.6680, 25315.00
795.8070, 24767.00
796.9470, 24029.00
798.0860, 22972.00
799.2250, 22294.00
800.3630, 21504.00
801.5020, 20875.00
802.6410, 20328.00
803.7790, 19709.00
804.9170, 19469.00
806.0550, 18887.00
807.1930, 18535.00
808.3300, 18236.00
809.4680, 17599.00
810.6050, 17327.00
811.7420, 17093.00
812.8790, 16931.00
814.0160, 16551.00
815.1520, 16544.00
816.2890, 16261.00
817.4250, 16203.00
818.5610, 16281.00
819.6970, 16123.00
820.8330, 16052.00
821.9680, 15982.00
823.1040, 16080.00
824.2390, 16105.00
825.3740, 16060.00
826.5090, 15943.00
827.6440, 15933.00
828.7790, 15730.00
829.9130, 15904.00
831.0470, 15919.00
832.1810, 15932.00
833.3150, 15830.00
834.4490, 15935.00
835.5830, 15707.00
836.7160, 15739.00
837.8500, 15877.00
838.9830, 15764.00
840.1160, 15894.00
841.2480, 15833.00
842.3810, 15920.00
843.5140, 15937.00
844.6460, 15952.00
845.7780, 16110.00
846.9100, 16222.00
848.0420, 16164.00
849.1740, 16314.00
850.3050, 16403.00
851.4360, 16626.00
852.5680, 16763.00
853.6990, 17028.00
854.8290, 17103.00
855.9600, 17382.00
857.0910, 17701.00
858.2210, 18100.00
859.3510, 18360.00
860.4810, 18524.00
861.6110, 18651.00
862.7410, 18945.00
863.8700, 19295.00
865.0000, 19288.00
866.1290, 19508.00
867.2580, 19607.00
868.3870, 19772.00
869.5150, 19953.00
870.6440, 20282.00
871.7720, 20590.27
872.9000, 20922.00
874.0290, 21388.00
875.1560, 21720.00
876.2840, 22176.00
877.4120, 22645.00
878.5390, 23367.00
879.6660, 23562.00
880.7930, 24019.00
881.9200, 24342.00
883.0470, 24433.00
884.1740, 24361.00
885.3000, 24152.00
886.4260, 23469.00
887.5530, 23164.00
888.6780, 22378.00
889.8040, 21833.00
890.9300, 21186.00
892.0550, 20439.00
893.1810, 19616.00
894.3060, 19138.00
895.4310, 18663.00
896.5560, 18303.00
897.6800, 17686.00
898.8050, 17425.00
899.9290, 17098.00
901.0530, 16922.00
902.1770, 16623.00
903.3010, 16474.00
904.4250, 16220.00
905.5480, 16209.00
906.6720, 16015.00
907.7950, 15895.00
908.9180, 15650.00
910.0410, 15743.00
911.1630, 15680.00
912.2860, 15625.00
913.4080, 15375.00
914.5300, 15290.00
915.6530, 15431.00
916.7740, 15290.00
917.8960, 15348.00
919.0180, 15265.00
920.1390, 15231.85
921.2600, 15387.00
922.3820, 15270.00
923.5020, 14973.00
924.6230, 15182.00
925.7440, 15058.00
926.8640, 15122.00
927.9850, 15273.00
929.1050, 15038.00
930.2250, 15027.00
931.3450, 15166.00
932.4640, 15005.00
933.5840, 15080.00
934.7030, 15019.00
935.8220, 15109.00
936.9410, 14912.00
938.0600, 15057.00
939.1790, 15269.00
940.2970, 15122.00
941.4160, 15130.00
942.5340, 15027.00
943.6520, 15002.00
944.7700, 15174.00
945.8870, 15224.00
947.0050, 15253.00
948.1220, 15122.00
949.2400, 15194.00
950.3570, 14987.00
951.4740, 15254.00
952.5900, 15286.00
953.7070, 15330.00
954.8240, 15219.00
955.9400, 15301.00
957.0560, 15329.00
958.1720, 15341.00
959.2880, 15254.00
960.4030, 15270.00
961.5190, 15469.00
962.6340, 15114.00
963.7490, 15364.00
964.8640, 15288.00
965.9790, 15265.00
967.0940, 15386.00
968.2080, 15582.00
969.3230, 15357.00
970.4370, 15538.00
971.5510, 15506.00
972.6650, 15616.00
973.7790, 15376.00
974.8920, 15458.00
976.0060, 15568.00
977.1190, 15299.00
978.2320, 15618.00
979.3450, 15470.00
980.4580, 15697.00
981.5710, 15629.00
982.6830, 15745.00
983.7950, 15684.00
984.9080, 15723.12
986.0200, 15737.00
987.1310, 15765.00
988.2430, 15748.00
989.3550, 15747.00
990.4660, 15851.00
991.5770, 15740.00
992.6880, 15724.00
993.7990, 15669.00
994.9100, 15892.00
996.0200, 15915.00
997.1310, 15975.00
998.2410, 16114.00
999.3510, 16197.00
1000.461, 16282.00
1001.571, 16341.00
1002.681, 16448.00
1003.790, 16421.00
1004.899, 16301.00
1006.009, 16217.00
1007.118, 16357.00
1008.226, 16166.00
1009.335, 16222.00
1010.444, 16214.00
1011.552, 16163.00
1012.660, 16186.00
1013.768, 16203.00
1014.876, 16260.14
1015.984, 16198.00
1017.092, 16249.84
1018.199, 16279.00
1019.306, 16328.00
1020.413, 16384.00
1021.520, 16400.51
1022.627, 16429.44
1023.734, 16439.00
1024.840, 16447.00
1025.947, 16455.00
1027.053, 16444.30
1028.159, 16527.00
1029.265, 16375.00
1030.370, 16377.00
1031.476, 16337.00
1032.581, 16437.00
1033.687, 16547.00
1034.792, 16316.00
1035.897, 16540.00
1037.002, 16361.00
1038.106, 16340.00
1039.211, 16319.00
1040.315, 16389.00
1041.419, 16368.00
1042.523, 16370.00
1043.627, 16365.10
1044.731, 16390.00
1045.834, 16336.00
1046.938, 16302.00
1048.041, 16330.00
1049.144, 16415.00
1050.247, 16375.15
1051.349, 16304.00
1052.452, 16376.00
1053.555, 16336.00
1054.657, 16364.00
1055.759, 16447.00
1056.861, 16370.79
1057.963, 16379.90
1059.064, 16277.00
1060.166, 16256.00
1061.267, 16209.00
1062.368, 16056.00
1063.470, 16120.00
1064.570, 16238.00
1065.671, 16197.00
1066.772, 16122.00
1067.872, 16354.00
1068.972, 16355.00
1070.073, 16339.00
1071.173, 16151.00
1072.272, 16276.00
1073.372, 16116.00
1074.472, 16181.00
1075.571, 16325.00
1076.670, 16372.00
1077.769, 16256.00
1078.868, 16402.00
1079.967, 16427.00
1081.065, 16290.00
1082.164, 16552.00
1083.262, 16476.00
1084.360, 16260.00
1085.458, 16412.00
1086.556, 16391.00
1087.654, 16342.00
1088.751, 16595.00
1089.848, 16558.00
1090.946, 16546.13
1092.043, 16415.00
1093.139, 16421.00
1094.236, 16424.00
1095.333, 16321.00
1096.429, 16304.00
1097.525, 16416.00
1098.622, 16469.00
1099.718, 16268.00
1100.813, 16413.00
1101.909, 16443.00
1103.005, 16370.00
1104.100, 16454.00
1105.195, 16366.00
1106.290, 16505.00
1107.385, 16354.00
1108.480, 16449.00
1109.574, 16389.00
1110.669, 16432.00
1111.763, 16604.00
1112.857, 16387.00
1113.951, 16318.00
1115.045, 16616.00
1116.139, 16315.00
1117.232, 16364.00
1118.326, 16357.00
1119.419, 16417.00
1120.512, 16225.00
1121.605, 16400.00
1122.697, 16257.00
1123.790, 16344.00
1124.883, 16619.00
1125.975, 16471.00
1127.067, 16459.00
1128.159, 16412.00
1129.251, 16364.00
1130.342, 16406.00
1131.434, 16285.00
1132.525, 16253.00
1133.617, 16309.00
1134.708, 16567.00
1135.799, 16394.00
1136.889, 16432.00
1137.980, 16468.00
1139.071, 16407.00
1140.161, 16425.00
1141.251, 16515.00
1142.341, 16474.00
1143.431, 16413.00
1144.521, 16349.00
1145.610, 16524.00
1146.700, 16542.00
1147.789, 16505.00
1148.878, 16653.00
1149.967, 16397.00
1151.056, 16601.00
1152.144, 16516.00
1153.233, 16394.00
1154.321, 16511.00
1155.409, 16506.00
1156.498, 16646.00
1157.585, 16549.00
1158.673, 16653.00
1159.761, 16640.00
1160.848, 16502.00
1161.936, 16726.00
1163.023, 16742.00
1164.110, 16749.00
1165.197, 16605.00
1166.283, 16698.00
1167.370, 16673.00
1168.456, 16626.89
1169.542, 16729.98
1170.629, 16794.33
1171.714, 16821.97
1172.800, 16703.08
1173.886, 16773.42
1174.971, 16767.91
1176.057, 16759.31
1177.142, 16856.27
1178.227, 16840.00
1179.312, 16639.00
1180.397, 16850.00
1181.481, 16851.00
1182.566, 16799.00
1183.650, 16794.00
1184.734, 16845.00
1185.818, 16829.00
1186.902, 16894.00
1187.986, 16958.00
1189.069, 16717.00
1190.153, 17066.00
1191.236, 16808.00
1192.319, 16818.00
1193.402, 16949.00
1194.485, 16727.00
1195.567, 16742.00
1196.650, 16847.00
1197.732, 17036.00
1198.814, 16868.00
1199.896, 16973.00
1200.978, 16879.00
1202.060, 17099.00
1203.142, 16986.00
1204.223, 16996.00
1205.304, 16992.00
1206.386, 17078.00
1207.467, 16966.00
1208.547, 16970.00
1209.628, 17172.00
1210.709, 17083.00
1211.789, 17238.00
1212.869, 17168.00
1213.950, 17266.00
1215.030, 17139.00
1216.109, 17200.00
1217.189, 17119.00
1218.269, 17232.00
1219.348, 17252.00
1220.427, 17173.00
1221.506, 17136.00
1222.585, 17290.00
1223.664, 17228.00
1224.743, 17318.00
1225.821, 17251.00
1226.899, 17273.00
1227.978, 17298.00
1229.056, 17268.00
1230.134, 17427.00
1231.211, 17153.00
1232.289, 17368.00
1233.366, 17290.00
1234.444, 17498.00
1235.521, 17393.00
1236.598, 17509.00
1237.675, 17606.00
1238.751, 17392.00
1239.828, 17540.00
1240.904, 17529.00
1241.981, 17517.35
1243.057, 17819.00
1244.133, 17505.00
1245.209, 17808.00
1246.284, 17670.00
1247.360, 17689.00
1248.435, 17696.00
1249.510, 17656.00
1250.585, 17709.00
1251.660, 17723.26
1252.735, 17752.00
1253.810, 17804.00
1254.884, 17803.00
1255.959, 17842.00
1257.033, 17831.00
1258.107, 17865.00
1259.181, 17902.00
1260.255, 17863.00
1261.328, 17870.00
1262.402, 17886.00
1263.475, 17917.00
1264.548, 18101.00
1265.621, 17971.00
1266.694, 18144.00
1267.767, 18039.00
1268.840, 18162.00
1269.912, 18053.00
1270.984, 18098.00
1272.056, 18003.00
1273.129, 18147.00
1274.200, 18182.00
1275.272, 18175.00
1276.344, 18110.00
1277.415, 17964.00
1278.486, 17815.00
1279.558, 17908.00
1280.629, 18012.00
1281.699, 18115.00
1282.770, 18030.00
1283.841, 18220.00
1284.911, 18139.00
1285.981, 18139.00
1287.051, 18153.00
1288.121, 18180.00
1289.191, 18222.75
1290.261, 18496.00
1291.330, 18353.00
1292.400, 18376.00
1293.469, 18478.00
1294.538, 18357.00
1295.607, 18523.00
1296.676, 18543.00
1297.745, 18429.00
1298.813, 18318.00
1299.881, 18457.00
1300.950, 18377.00
1302.018, 18415.00
1303.086, 18666.00
1304.154, 18441.00
1305.221, 18583.00
1306.289, 18661.00
1307.356, 18633.00
1308.423, 18626.00
1309.490, 18719.00
1310.557, 18736.00
1311.624, 18631.00
1312.691, 18782.00
1313.757, 18631.00
1314.823, 18767.00
1315.890, 18586.00
1316.956, 18715.00
1318.022, 18621.00
1319.087, 18984.00
1320.153, 18687.00
1321.219, 18781.00
1322.284, 18598.00
1323.349, 18823.00
1324.414, 18507.00
1325.479, 18946.00
1326.544, 18740.98
1327.608, 18978.00
1328.673, 18658.00
1329.737, 18525.00
1330.801, 18696.00
1331.865, 18568.00
1332.929, 18574.00
1333.993, 18652.00
1335.057, 18659.00
1336.120, 18763.00
1337.183, 18897.00
1338.247, 18830.00
1339.310, 18862.00
1340.373, 18638.00
1341.435, 18816.00
1342.498, 18834.00
1343.560, 18813.00
1344.623, 19018.00
1345.685, 18768.00
1346.747, 18816.00
1347.809, 18875.00
1348.871, 18724.00
1349.932, 18751.00
1350.994, 18931.00
1352.055, 18714.00
1353.116, 18744.00
1354.177, 18724.00
1355.238, 18682.86
1356.299, 18728.21
1357.359, 18727.00
1358.420, 18836.00
1359.480, 18902.00
1360.540, 18909.92
1361.600, 19014.00
1362.660, 18939.00
1363.720, 18961.00
1364.780, 18970.00
1365.839, 18975.00
1366.898, 18974.00
1367.958, 19067.00
1369.017, 18996.00
1370.076, 19043.00
1371.134, 19241.00
1372.193, 19047.00
