##NAMES=Pharmacosiderite
##RRUFFID=R050574
##IDEAL CHEMISTRY=KFe^3+^_4_(As^5+^O_4_)_3_(OH)_4_&#183;6-7H_2_O
##LOCALITY=Cornwall, England
##OWNER=RRUFF
##SOURCE=University of Arizona Mineral Museum
##DESCRIPTION=Druse of bluish-green cubes
##STATUS=The identification of this mineral is confirmed by single-crystal X-ray diffraction and chemical analysis.
##URL=rruff.info/R050574
##MEASURED CHEMISTRY=K_1.27_(Fe^3+^_3.73_Fe^2+^_0.27_)_Σ=4_(As_1.00_O_4_)_3_(OH)_4_·6H_2_O
##PIN_ID=M00719
##ORIENTATION=Laser parallel to a* (1 0 0). Fiducial mark perpendicular to laser is parallel to c [0 0 1]
200.5460, 17552.00
201.7750, 17350.00
203.0050, 17544.00
204.2340, 17507.00
205.4630, 17534.00
206.6920, 17617.00
207.9210, 17588.00
209.1500, 17662.00
210.3780, 17522.00
211.6060, 17466.00
212.8340, 17652.00
214.0620, 17830.00
215.2900, 17753.00
216.5170, 17744.00
217.7440, 17908.00
218.9710, 17960.00
220.1980, 17962.00
221.4250, 18100.00
222.6510, 18377.00
223.8770, 18285.00
225.1040, 18518.00
226.3290, 18859.00
227.5550, 18827.00
228.7810, 19203.00
230.0060, 19341.00
231.2310, 19680.00
232.4560, 19909.00
233.6810, 20229.00
234.9050, 20720.00
236.1290, 20951.00
237.3540, 21113.00
238.5770, 21415.00
239.8010, 21548.00
241.0250, 21482.00
242.2480, 21617.00
243.4710, 21522.00
244.6940, 21186.00
245.9170, 21006.00
247.1400, 20590.00
248.3620, 20555.00
249.5840, 20321.00
250.8060, 20081.00
252.0280, 19947.00
253.2500, 19810.00
254.4710, 19747.00
255.6920, 19653.00
256.9140, 19618.68
258.1340, 19444.00
259.3550, 19539.00
260.5760, 19623.00
261.7960, 19496.00
263.0160, 19434.00
264.2360, 19378.00
265.4560, 19328.00
266.6750, 19293.00
267.8940, 19191.00
269.1140, 19195.00
270.3330, 19144.00
271.5510, 19135.39
272.7700, 19155.94
273.9880, 19169.00
275.2070, 19230.00
276.4250, 19303.00
277.6420, 19387.00
278.8600, 19224.00
280.0770, 19587.00
281.2950, 19377.00
282.5120, 19262.00
283.7290, 19439.00
284.9450, 19440.00
286.1620, 19519.00
287.3780, 19605.00
288.5940, 19642.00
289.8100, 19422.00
291.0260, 19607.00
292.2410, 19538.00
293.4570, 19447.00
294.6720, 19518.00
295.8870, 19662.00
297.1010, 19678.00
298.3160, 19774.00
299.5300, 19694.00
300.7450, 19737.00
301.9590, 19990.00
303.1730, 20093.00
304.3860, 20009.00
305.6000, 20077.00
306.8130, 20077.00
308.0260, 19843.00
309.2390, 20037.00
310.4510, 19695.00
311.6640, 19696.00
312.8760, 19676.00
314.0880, 19433.00
315.3000, 19354.00
316.5120, 19467.00
317.7240, 19273.00
318.9350, 19263.00
320.1460, 19286.00
321.3570, 18977.00
322.5680, 19042.00
323.7790, 19248.00
324.9890, 19080.00
326.1990, 19434.00
327.4090, 19216.00
328.6190, 19224.00
329.8290, 19190.00
331.0380, 19054.00
332.2480, 19193.00
333.4570, 19159.00
334.6660, 19382.00
335.8740, 19183.00
337.0830, 19285.00
338.2910, 19319.00
339.5000, 19226.00
340.7080, 19214.00
341.9150, 19257.00
343.1230, 19374.00
344.3300, 19291.00
345.5380, 19239.00
346.7450, 19291.00
347.9520, 19469.00
349.1580, 19411.00
350.3650, 19483.00
351.5710, 19343.00
352.7770, 19410.00
353.9830, 19387.00
355.1890, 19392.00
356.3940, 19420.00
357.6000, 19316.00
358.8050, 19476.00
360.0100, 19475.00
361.2150, 19519.00
362.4190, 19649.00
363.6240, 19699.00
364.8280, 19843.00
366.0320, 19804.00
367.2360, 19794.00
368.4400, 19748.00
369.6430, 20000.00
370.8460, 19939.00
372.0500, 20152.00
373.2530, 19961.00
374.4550, 20226.00
375.6580, 20112.00
376.8600, 20551.00
378.0620, 20526.00
379.2650, 20753.00
380.4660, 20561.00
381.6680, 20994.00
382.8690, 21071.00
384.0710, 21327.00
385.2720, 21470.00
386.4730, 21739.00
387.6730, 21825.65
388.8740, 21944.98
390.0740, 21991.00
391.2740, 22073.00
392.4740, 22130.25
393.6740, 22146.00
394.8740, 22160.65
396.0730, 22167.00
397.2730, 22108.00
398.4720, 22030.00
399.6700, 21947.00
400.8690, 22014.00
402.0680, 21863.00
403.2660, 21752.44
404.4640, 21696.00
405.6620, 21471.28
406.8600, 21528.00
408.0570, 21505.00
409.2550, 21285.00
410.4520, 21293.00
411.6490, 21343.00
412.8460, 21424.00
414.0430, 21390.00
415.2390, 21310.00
416.4350, 21409.00
417.6310, 21241.00
418.8270, 21266.00
420.0230, 21138.00
421.2190, 21191.00
422.4140, 21265.00
423.6090, 21195.00
424.8040, 21314.00
425.9990, 21199.00
427.1940, 21447.00
428.3880, 21626.00
429.5820, 21190.00
430.7760, 21488.00
431.9700, 21476.00
433.1640, 21485.00
434.3580, 21476.00
435.5510, 21664.00
436.7440, 21631.00
437.9370, 21727.00
439.1300, 21746.00
440.3230, 21858.00
441.5150, 21882.00
442.7070, 21995.57
443.8990, 22068.66
445.0910, 22210.00
446.2830, 22289.00
447.4750, 22372.00
448.6660, 22598.00
449.8570, 22517.00
451.0480, 22771.00
452.2390, 23051.00
453.4290, 23210.00
454.6200, 23177.00
455.8100, 23499.00
457.0000, 23728.00
458.1900, 23983.00
459.3800, 24468.00
460.5690, 24826.00
461.7590, 25346.00
462.9480, 25873.00
464.1370, 26674.00
465.3260, 27521.00
466.5140, 28651.23
467.7030, 29947.63
468.8910, 31455.00
470.0790, 33082.00
471.2670, 35034.00
472.4550, 37043.00
473.6420, 39569.00
474.8300, 41551.00
476.0170, 43644.00
477.2040, 44465.00
478.3900, 44442.00
479.5770, 43213.00
480.7640, 41407.00
481.9500, 39327.00
483.1360, 37020.00
484.3220, 34796.00
485.5080, 32621.00
486.6930, 31569.00
487.8780, 29823.00
489.0640, 28675.00
490.2490, 27786.00
491.4330, 27008.00
492.6180, 26343.47
493.8030, 25990.00
494.9870, 25396.00
496.1710, 25075.26
497.3550, 25052.00
498.5390, 24539.00
499.7220, 24397.00
500.9060, 24287.00
502.0890, 24126.00
503.2720, 23891.00
504.4550, 23874.00
505.6370, 23798.00
506.8200, 23376.00
508.0020, 23496.00
509.1840, 23466.00
510.3660, 23225.00
511.5480, 23201.00
512.7290, 23387.00
513.9110, 23475.00
515.0920, 23269.00
516.2730, 23064.00
517.4540, 22985.00
518.6350, 23039.00
519.8150, 23025.00
520.9960, 22920.00
522.1760, 22945.00
523.3560, 22949.00
524.5350, 22752.00
525.7150, 22973.00
526.8950, 22734.00
528.0740, 22900.00
529.2530, 22638.00
530.4320, 22823.00
531.6100, 22722.00
532.7890, 22720.00
533.9670, 22734.00
535.1460, 22776.00
536.3240, 22634.00
537.5010, 22554.00
538.6790, 22754.00
539.8570, 22534.00
541.0340, 22848.00
542.2110, 22559.00
543.3880, 22732.00
544.5650, 22577.00
545.7410, 22705.00
546.9180, 22622.00
548.0940, 22508.00
549.2700, 22778.00
550.4460, 22645.00
551.6210, 22785.00
552.7970, 22698.00
553.9720, 22657.00
555.1480, 22672.00
556.3230, 22675.00
557.4970, 22885.00
558.6720, 22798.00
559.8460, 22942.00
561.0210, 22802.00
562.1950, 22797.00
563.3690, 22846.00
564.5420, 22679.00
565.7160, 22986.00
566.8890, 22740.00
568.0630, 22844.00
569.2360, 22993.00
570.4090, 23027.00
571.5810, 23032.00
572.7540, 22842.00
573.9260, 22976.00
575.0980, 22969.00
576.2700, 22954.00
577.4420, 23125.00
578.6140, 22997.00
579.7850, 22892.00
580.9560, 23114.00
582.1270, 23022.00
583.2980, 23265.00
584.4690, 23086.00
585.6400, 23052.00
586.8100, 23275.00
587.9800, 23294.00
589.1500, 23213.00
590.3200, 23358.00
591.4900, 23373.00
592.6590, 23322.00
593.8290, 23391.00
594.9980, 23285.00
596.1670, 23378.00
597.3360, 23316.00
598.5040, 23276.00
599.6730, 23340.00
600.8410, 23472.00
602.0090, 23435.00
603.1770, 23493.00
604.3450, 23500.00
605.5130, 23595.00
606.6800, 23285.00
607.8470, 23505.00
609.0140, 23453.00
610.1810, 23265.00
611.3480, 23517.00
612.5140, 23388.00
613.6810, 23493.00
614.8470, 23600.00
616.0130, 23768.00
617.1790, 23707.00
618.3440, 23926.00
619.5100, 23972.00
620.6750, 23866.00
621.8400, 24055.00
623.0050, 24378.00
624.1700, 24216.00
625.3350, 24441.00
626.4990, 24579.00
627.6640, 24557.00
628.8280, 24303.00
629.9920, 24254.00
631.1550, 24204.00
632.3190, 24026.00
633.4820, 24136.00
634.6460, 23941.00
635.8090, 24108.00
636.9710, 24121.00
638.1340, 23874.00
639.2970, 24147.00
640.4590, 24271.00
641.6210, 24155.00
642.7830, 24168.00
643.9450, 24227.00
645.1070, 24179.00
646.2680, 24383.00
647.4300, 24374.00
648.5910, 24572.00
649.7520, 24385.00
650.9130, 24462.00
652.0730, 24438.00
653.2340, 24399.00
654.3940, 24278.00
655.5540, 24274.00
656.7140, 24474.00
657.8740, 24082.00
659.0330, 24040.00
660.1930, 24262.00
661.3520, 24269.00
662.5110, 24189.00
663.6700, 24046.00
664.8290, 24211.00
665.9870, 24144.00
667.1460, 24153.00
668.3040, 24024.00
669.4620, 24040.00
670.6200, 24068.00
671.7770, 24272.00
672.9350, 24028.00
674.0920, 23840.00
675.2500, 24156.00
676.4070, 24249.00
677.5630, 24347.00
678.7200, 24254.00
679.8770, 24112.00
681.0330, 24175.00
682.1890, 24159.00
683.3450, 24274.00
684.5010, 24295.00
685.6560, 24266.00
686.8120, 24315.00
687.9670, 24216.00
689.1220, 24263.00
690.2770, 24192.00
691.4320, 24494.00
692.5870, 24309.00
693.7410, 24461.00
694.8950, 24242.00
696.0490, 24467.00
697.2030, 24456.00
698.3570, 24435.00
699.5110, 24545.00
700.6640, 24475.00
701.8170, 24604.00
702.9700, 24629.00
704.1230, 24659.00
705.2760, 24431.00
706.4290, 24720.00
707.5810, 24831.00
708.7330, 24546.00
709.8850, 24982.00
711.0370, 24669.00
712.1890, 24910.00
713.3400, 24719.00
714.4920, 25016.00
715.6430, 24771.00
716.7940, 24931.00
717.9450, 24807.00
719.0960, 25041.00
720.2460, 24979.00
721.3960, 25020.00
722.5470, 25045.00
723.6970, 25153.00
724.8460, 25309.00
725.9960, 25320.83
727.1460, 25340.00
728.2950, 25394.00
729.4440, 25201.00
730.5930, 25181.00
731.7420, 25150.00
732.8910, 25273.00
734.0390, 25177.00
735.1870, 25421.00
736.3360, 25512.00
737.4840, 25298.00
738.6310, 25240.00
739.7790, 25416.00
740.9260, 25449.00
742.0740, 25309.00
743.2210, 25439.00
744.3680, 25559.00
745.5150, 25647.00
746.6610, 25536.00
747.8080, 25463.00
748.9540, 25679.00
750.1000, 25648.00
751.2460, 25705.00
752.3920, 25648.00
753.5380, 25884.00
754.6830, 25682.00
755.8280, 25900.00
756.9730, 25695.00
758.1180, 25864.00
759.2630, 25898.00
760.4080, 25940.00
761.5520, 25937.00
762.6960, 26139.00
763.8410, 26072.00
764.9840, 26157.00
766.1280, 26088.00
767.2720, 26061.00
768.4150, 25941.00
769.5590, 26172.00
770.7020, 26379.00
771.8450, 26340.00
772.9870, 26462.00
774.1300, 26523.38
775.2720, 26390.00
776.4150, 26652.00
777.5570, 26744.00
778.6990, 26865.83
779.8400, 26800.00
780.9820, 27051.00
782.1230, 26802.00
783.2650, 26933.00
784.4060, 27002.00
785.5470, 27090.02
786.6870, 27339.00
787.8280, 27461.00
788.9680, 27660.00
790.1090, 27843.00
791.2490, 27757.00
792.3890, 27801.00
793.5280, 27899.00
794.6680, 27607.00
795.8070, 27789.00
796.9470, 27653.00
798.0860, 27639.00
799.2250, 27823.00
800.3630, 27568.00
801.5020, 27528.00
802.6410, 27398.00
803.7790, 27419.00
804.9170, 27363.00
806.0550, 27525.00
807.1930, 27280.00
808.3300, 27362.00
809.4680, 27542.00
810.6050, 27374.00
811.7420, 27531.00
812.8790, 27374.00
814.0160, 27477.00
815.1520, 27444.00
816.2890, 27438.00
817.4250, 27402.00
818.5610, 27528.00
819.6970, 27627.00
820.8330, 27766.00
821.9680, 27638.00
823.1040, 27571.00
824.2390, 27399.00
825.3740, 27656.00
826.5090, 27796.00
827.6440, 27790.00
828.7790, 27836.00
829.9130, 27950.00
831.0470, 27785.00
832.1810, 27824.00
833.3150, 27769.00
834.4490, 28014.00
835.5830, 27866.00
836.7160, 28027.01
837.8500, 28364.00
838.9830, 28225.00
840.1160, 28277.00
841.2480, 28346.00
842.3810, 28526.00
843.5140, 28572.83
844.6460, 28563.00
845.7780, 28752.00
846.9100, 28766.00
848.0420, 28844.00
849.1740, 29068.00
850.3050, 29081.00
851.4360, 29180.00
852.5680, 29537.00
853.6990, 29663.00
854.8290, 29956.00
855.9600, 30179.00
857.0910, 30404.65
858.2210, 30576.00
859.3510, 30862.00
860.4810, 31075.00
861.6110, 31222.72
862.7410, 31299.85
863.8700, 31335.00
865.0000, 31316.00
866.1290, 31297.00
867.2580, 31288.00
868.3870, 31334.00
869.5150, 31400.00
870.6440, 31297.00
871.7720, 31431.00
872.9000, 31445.21
874.0290, 31556.00
875.1560, 31632.00
876.2840, 31709.00
877.4120, 31945.00
878.5390, 31965.00
879.6660, 32111.00
880.7930, 32311.00
881.9200, 32320.00
883.0470, 32377.00
884.1740, 32297.80
885.3000, 32161.69
886.4260, 31960.00
887.5530, 31714.00
888.6780, 31396.00
889.8040, 31038.00
890.9300, 30965.00
892.0550, 30538.00
893.1810, 30372.00
894.3060, 30015.00
895.4310, 30064.00
896.5560, 29901.00
897.6800, 29646.00
898.8050, 29786.00
899.9290, 29263.00
901.0530, 29480.00
902.1770, 29320.00
903.3010, 29197.00
904.4250, 29459.00
905.5480, 29022.00
906.6720, 29373.00
907.7950, 29123.00
908.9180, 29091.00
910.0410, 29274.00
911.1630, 29129.00
912.2860, 29196.94
913.4080, 29069.00
914.5300, 29128.00
915.6530, 29213.00
916.7740, 29022.00
917.8960, 28999.00
919.0180, 29243.00
920.1390, 29106.00
921.2600, 29067.00
922.3820, 29135.00
923.5020, 29101.00
924.6230, 29275.00
925.7440, 29183.00
926.8640, 29199.00
927.9850, 29119.00
929.1050, 29086.00
930.2250, 29450.00
931.3450, 29249.00
932.4640, 29338.00
933.5840, 29228.00
934.7030, 29268.55
935.8220, 29421.00
936.9410, 29368.00
938.0600, 29549.00
939.1790, 29576.00
940.2970, 29429.00
941.4160, 29622.00
942.5340, 29273.00
943.6520, 29490.00
944.7700, 29545.00
945.8870, 29509.00
947.0050, 29644.00
948.1220, 29620.00
949.2400, 29648.00
950.3570, 29751.00
951.4740, 29709.00
952.5900, 29853.00
953.7070, 29684.00
954.8240, 29979.00
955.9400, 30066.00
957.0560, 29783.00
958.1720, 29529.00
959.2880, 29817.00
960.4030, 30007.00
961.5190, 30216.00
962.6340, 30053.00
963.7490, 29834.00
964.8640, 30336.00
965.9790, 30091.00
967.0940, 30218.00
968.2080, 29906.00
969.3230, 30170.00
970.4370, 30228.00
971.5510, 30133.00
972.6650, 30169.00
973.7790, 30156.00
974.8920, 30142.00
976.0060, 30191.00
977.1190, 30513.00
978.2320, 30316.00
979.3450, 30294.00
980.4580, 30142.00
981.5710, 30426.00
982.6830, 30469.00
983.7950, 30411.00
984.9080, 30717.00
986.0200, 30611.00
987.1310, 30623.00
988.2430, 30836.00
989.3550, 30647.00
990.4660, 30631.00
991.5770, 30673.00
992.6880, 31011.00
993.7990, 30762.00
994.9100, 30962.00
996.0200, 30853.00
997.1310, 31057.00
998.2410, 31479.00
999.3510, 31105.00
1000.461, 31554.00
1001.571, 31871.00
1002.681, 31614.00
1003.790, 31497.00
1004.899, 31391.00
1006.009, 31326.00
1007.118, 31231.00
1008.226, 31209.00
1009.335, 31080.00
1010.444, 31146.98
1011.552, 31171.90
1012.660, 31296.00
1013.768, 31290.00
1014.876, 31408.00
1015.984, 31375.00
1017.092, 31537.00
1018.199, 31673.00
1019.306, 31453.00
1020.413, 31407.00
1021.520, 31748.00
1022.627, 31683.00
1023.734, 31689.00
1024.840, 31886.00
1025.947, 31788.00
1027.053, 31775.00
1028.159, 31563.00
1029.265, 31686.00
1030.370, 31728.00
1031.476, 31655.00
1032.581, 31794.00
1033.687, 31791.00
1034.792, 31757.00
1035.897, 31931.00
1037.002, 32010.00
1038.106, 32045.00
1039.211, 31851.00
1040.315, 31635.00
1041.419, 31976.00
1042.523, 31997.00
1043.627, 32066.00
1044.731, 31640.00
1045.834, 31771.00
1046.938, 31968.00
1048.041, 32356.00
1049.144, 32040.00
1050.247, 32127.00
1051.349, 32115.00
1052.452, 31947.00
1053.555, 32147.00
1054.657, 32265.00
1055.759, 32105.00
1056.861, 32275.00
1057.963, 31941.00
1059.064, 32139.00
1060.166, 32187.00
1061.267, 32343.00
1062.368, 32283.00
1063.470, 32262.00
1064.570, 32179.00
1065.671, 32221.00
1066.772, 32284.00
1067.872, 32190.00
1068.972, 32498.00
1070.073, 32216.00
1071.173, 32357.00
1072.272, 32201.00
1073.372, 32583.00
1074.472, 32492.00
1075.571, 32578.00
1076.670, 32733.00
1077.769, 32476.00
1078.868, 32617.00
1079.967, 32716.00
1081.065, 32581.00
1082.164, 32906.00
1083.262, 32637.00
1084.360, 32888.00
1085.458, 32982.00
1086.556, 32718.00
1087.654, 32819.00
1088.751, 32767.00
1089.848, 32624.00
1090.946, 32986.00
1092.043, 33077.00
1093.139, 32852.00
1094.236, 32827.00
1095.333, 32824.00
1096.429, 32892.00
1097.525, 32880.00
1098.622, 32948.00
1099.718, 32954.22
1100.813, 32821.00
1101.909, 33002.00
1103.005, 33058.00
1104.100, 33138.79
1105.195, 33030.00
1106.290, 33216.00
1107.385, 33035.00
1108.480, 32936.00
1109.574, 33166.00
1110.669, 33034.00
1111.763, 33199.00
1112.857, 33193.00
1113.951, 33032.00
1115.045, 33400.00
1116.139, 33064.00
1117.232, 33119.00
1118.326, 33263.00
1119.419, 33185.00
1120.512, 33158.00
1121.605, 33431.00
1122.697, 33300.00
1123.790, 33116.00
1124.883, 33448.00
1125.975, 33300.00
1127.067, 33545.00
1128.159, 33448.00
1129.251, 33359.00
1130.342, 33604.00
1131.434, 33289.00
1132.525, 33479.00
1133.617, 33309.00
1134.708, 33395.00
1135.799, 33511.00
1136.889, 33329.00
1137.980, 33733.00
1139.071, 33505.00
1140.161, 33619.00
1141.251, 33518.00
1142.341, 33561.00
1143.431, 33619.00
1144.521, 33559.00
1145.610, 33338.00
1146.700, 33717.00
1147.789, 33552.00
1148.878, 33427.00
1149.967, 33593.00
1151.056, 33470.59
1152.144, 33321.00
1153.233, 33535.00
1154.321, 33716.00
1155.409, 33906.00
1156.498, 33925.00
1157.585, 33866.00
1158.673, 34080.00
1159.761, 33961.00
1160.848, 34144.00
1161.936, 33776.00
1163.023, 33844.00
1164.110, 34142.00
1165.197, 34060.00
1166.283, 34298.00
1167.370, 34311.00
1168.456, 34304.00
1169.542, 34294.00
1170.629, 34317.75
1171.714, 34300.00
1172.800, 34354.00
1173.886, 34367.00
1174.971, 34377.00
1176.057, 34558.00
1177.142, 34183.00
1178.227, 34426.00
1179.312, 34587.00
1180.397, 34642.00
1181.481, 34343.00
1182.566, 34477.00
1183.650, 34593.00
1184.734, 34807.00
1185.818, 34532.00
1186.902, 34697.00
1187.986, 34644.00
1189.069, 34822.00
1190.153, 34598.00
1191.236, 34685.00
1192.319, 34755.00
1193.402, 34705.00
1194.485, 34822.00
1195.567, 34638.00
1196.650, 34845.00
1197.732, 34688.00
1198.814, 35029.00
1199.896, 35055.00
1200.978, 35040.00
1202.060, 35043.00
1203.142, 35054.00
1204.223, 34894.00
1205.304, 35171.00
1206.386, 35164.00
1207.467, 34976.00
1208.547, 35068.00
1209.628, 35245.00
1210.709, 35247.00
1211.789, 35098.00
1212.869, 35495.00
1213.950, 35361.00
1215.030, 35268.00
1216.109, 35420.00
1217.189, 35457.00
1218.269, 35476.00
1219.348, 35571.00
1220.427, 35447.00
1221.506, 35573.00
1222.585, 35557.00
1223.664, 35650.00
1224.743, 35640.00
1225.821, 35553.00
1226.899, 35712.00
1227.978, 35881.00
1229.056, 35746.00
1230.134, 35689.00
1231.211, 35933.00
1232.289, 35759.00
1233.366, 36012.00
1234.444, 36105.00
1235.521, 36159.00
1236.598, 35889.00
1237.675, 36256.00
1238.751, 36112.00
1239.828, 36289.00
1240.904, 35869.00
1241.981, 36223.00
1243.057, 36227.00
1244.133, 36047.00
1245.209, 36199.00
1246.284, 36244.00
1247.360, 36225.00
1248.435, 36255.00
1249.510, 36169.00
1250.585, 36307.00
1251.660, 36177.00
1252.735, 36290.00
1253.810, 36405.00
1254.884, 36369.00
1255.959, 36599.00
1257.033, 36703.00
1258.107, 36665.00
1259.181, 36735.00
1260.255, 36737.00
1261.328, 36648.00
1262.402, 36864.00
1263.475, 36917.00
1264.548, 36993.00
1265.621, 36906.00
1266.694, 36989.00
1267.767, 37084.00
1268.840, 37136.00
1269.912, 36903.00
1270.984, 37086.00
1272.056, 36821.00
1273.129, 36893.00
1274.200, 36871.00
1275.272, 36971.00
1276.344, 37121.00
1277.415, 36635.00
1278.486, 37148.00
1279.558, 37011.00
1280.629, 37708.00
1281.699, 37265.00
1282.770, 37413.00
1283.841, 37646.00
1284.911, 37643.00
1285.981, 37432.00
1287.051, 37302.00
1288.121, 37539.00
1289.191, 37577.00
1290.261, 37561.00
1291.330, 37777.00
1292.400, 37830.00
1293.469, 38018.00
1294.538, 37965.00
1295.607, 37982.47
1296.676, 37653.00
1297.745, 37857.00
1298.813, 37864.00
1299.881, 37744.00
1300.950, 38299.00
1302.018, 38023.00
1303.086, 37783.00
1304.154, 38096.00
1305.221, 38371.00
1306.289, 38435.00
1307.356, 38116.00
1308.423, 38509.00
1309.490, 38378.00
1310.557, 38318.00
1311.624, 38489.00
1312.691, 38424.00
1313.757, 38467.00
1314.823, 38566.00
1315.890, 38530.00
1316.956, 38380.00
1318.022, 38338.00
1319.087, 38650.00
1320.153, 38463.00
1321.219, 38587.00
1322.284, 38662.00
1323.349, 38506.00
1324.414, 38492.00
1325.479, 38488.00
1326.544, 38500.00
1327.608, 38580.00
1328.673, 38555.00
1329.737, 38576.00
1330.801, 38476.00
1331.865, 38284.00
1332.929, 38421.00
1333.993, 38659.00
1335.057, 38558.00
1336.120, 38905.00
1337.183, 38687.00
1338.247, 38803.00
1339.310, 38857.00
1340.373, 38936.00
1341.435, 38684.00
1342.498, 38852.00
1343.560, 38795.00
1344.623, 38745.00
1345.685, 38845.00
1346.747, 38936.00
1347.809, 38881.00
1348.871, 38769.00
1349.932, 38917.00
1350.994, 38807.00
1352.055, 39069.00
1353.116, 39091.00
1354.177, 38917.00
1355.238, 38864.00
1356.299, 39213.00
1357.359, 38944.00
1358.420, 39072.00
1359.480, 39271.00
1360.540, 38952.00
1361.600, 39182.00
1362.660, 39192.00
1363.720, 39354.00
