##NAMES=Phillipsite-Ca
##RRUFFID=R050078
##IDEAL CHEMISTRY=Ca_3_(Si_10_Al_6_)O_32_&#183;12H_2_O
##LOCALITY=Grant County, Oregon, USA
##OWNER=RRUFF
##SOURCE=Rock Currier
##DESCRIPTION=White tabular hexagonal
##STATUS=The identification of this mineral has been confirmed by X-ray diffraction and chemical analysis
##URL=rruff.info/R050078
##MEASURED CHEMISTRY=(Ca_0.90_K_0.75_[box]_0.25_Na_0.10_)_Σ=2_(Si_5.35_Al_2.65_)_Σ=8_O_16_·6H_2_O
##PIN_ID=L00386
##ORIENTATION=Laser parallel to a* (1 0 0). Fiducial mark perpendicular to laser is parallel to b [0 1 0]
273.2760, 24612.00
274.4880, 24754.00
275.7000, 24517.00
276.9120, 24552.00
278.1230, 24506.00
279.3340, 24520.00
280.5450, 24598.00
281.7560, 24623.00
282.9670, 24470.00
284.1780, 24584.00
285.3880, 24737.00
286.5980, 24497.00
287.8090, 24582.00
289.0190, 24551.00
290.2290, 24739.00
291.4380, 24814.00
292.6480, 24480.00
293.8570, 24658.00
295.0670, 24737.00
296.2760, 24601.00
297.4850, 24724.00
298.6930, 24787.00
299.9020, 24569.00
301.1110, 24674.00
302.3190, 24592.00
303.5270, 24655.00
304.7350, 24873.00
305.9430, 24867.00
307.1510, 24559.00
308.3580, 24768.00
309.5660, 24730.00
310.7730, 24606.00
311.9800, 24876.00
313.1870, 24655.00
314.3940, 24837.00
315.6010, 24782.00
316.8070, 24922.00
318.0130, 24849.00
319.2200, 24652.00
320.4260, 24964.00
321.6310, 24970.00
322.8370, 24744.00
324.0430, 25078.00
325.2480, 24799.00
326.4540, 25119.00
327.6590, 24906.00
328.8640, 25077.00
330.0680, 25203.00
331.2730, 25065.00
332.4780, 24928.00
333.6820, 25051.00
334.8860, 24903.00
336.0900, 24983.00
337.2940, 25020.00
338.4980, 25060.00
339.7010, 25124.00
340.9050, 25044.00
342.1080, 25166.00
343.3110, 25224.00
344.5140, 25272.00
345.7170, 25190.00
346.9200, 25155.00
348.1220, 25031.00
349.3240, 25078.00
350.5270, 25060.00
351.7290, 25341.00
352.9310, 25401.00
354.1320, 25485.00
355.3340, 25299.00
356.5350, 25506.00
357.7370, 25446.00
358.9380, 25396.00
360.1390, 25473.00
361.3400, 25509.00
362.5400, 25454.00
363.7410, 25686.00
364.9410, 25727.00
366.1410, 25812.00
367.3410, 25885.00
368.5410, 25946.00
369.7410, 25814.00
370.9400, 26016.00
372.1400, 26220.00
373.3390, 26198.00
374.5380, 26506.00
375.7370, 26308.00
376.9360, 26385.00
378.1350, 26666.00
379.3330, 26690.00
380.5310, 26760.00
381.7300, 26991.00
382.9280, 27163.00
384.1260, 27260.00
385.3230, 27483.00
386.5210, 27642.00
387.7180, 27953.00
388.9160, 27941.00
390.1130, 28149.00
391.3100, 28319.00
392.5060, 28397.00
393.7030, 28820.00
394.9000, 28655.00
396.0960, 28923.00
397.2920, 29463.00
398.4880, 29500.00
399.6840, 29619.00
400.8800, 29947.00
402.0750, 30022.00
403.2710, 30221.00
404.4660, 30517.00
405.6610, 30715.00
406.8560, 31056.00
408.0510, 31457.00
409.2450, 31608.00
410.4400, 32039.00
411.6340, 32343.00
412.8280, 32632.00
414.0220, 33047.00
415.2160, 33282.00
416.4100, 33644.00
417.6030, 33834.42
418.7970, 34110.00
419.9900, 34049.00
421.1830, 34291.00
422.3760, 34128.00
423.5690, 34360.00
424.7610, 34191.00
425.9540, 34208.00
427.1460, 34138.00
428.3380, 34021.00
429.5300, 34208.00
430.7220, 33973.00
431.9140, 34273.00
433.1050, 34158.00
434.2970, 34368.00
435.4880, 34596.00
436.6790, 34888.00
437.8700, 35061.00
439.0610, 35535.00
440.2510, 35724.00
441.4420, 36366.00
442.6320, 36879.00
443.8220, 37622.00
445.0120, 38250.00
446.2020, 39246.00
447.3910, 39863.00
448.5810, 40777.00
449.7700, 41866.00
450.9600, 43035.00
452.1490, 44091.00
453.3370, 45270.00
454.5260, 46396.00
455.7150, 47660.00
456.9030, 48752.21
458.0910, 50046.00
459.2800, 50966.00
460.4670, 52147.00
461.6550, 53197.00
462.8430, 54187.00
464.0300, 54896.00
465.2180, 55805.00
466.4050, 56479.00
467.5920, 56907.00
468.7790, 57625.00
469.9650, 58151.00
471.1520, 58614.00
472.3380, 58818.00
473.5250, 59052.00
474.7110, 58993.00
475.8970, 59170.00
477.0820, 59265.00
478.2680, 59080.00
479.4540, 58482.00
480.6390, 57740.00
481.8240, 57515.00
483.0090, 56518.00
484.1940, 55853.00
485.3780, 54693.00
486.5630, 53865.00
487.7470, 52391.00
488.9320, 51043.00
490.1160, 49400.00
491.3000, 47861.00
492.4830, 46792.00
493.6670, 45202.00
494.8500, 43794.00
496.0340, 42293.00
497.2170, 41183.00
498.4000, 40207.00
499.5820, 39196.00
500.7650, 37947.00
501.9480, 37252.00
503.1300, 36263.00
504.3120, 35670.00
505.4940, 35103.00
506.6760, 34477.00
507.8580, 33965.00
509.0390, 33750.00
510.2210, 33185.00
511.4020, 32942.00
512.5830, 32621.00
513.7640, 32596.00
514.9450, 32256.00
516.1250, 32213.00
517.3060, 31819.00
518.4860, 31844.00
519.6660, 31641.00
520.8460, 31536.00
522.0260, 31664.00
523.2060, 31380.00
524.3850, 31210.00
525.5650, 31046.00
526.7440, 31160.00
527.9230, 30988.00
529.1020, 30888.00
530.2810, 30714.00
531.4590, 30690.00
532.6380, 30580.00
533.8160, 30552.00
534.9940, 30604.00
536.1720, 30415.00
537.3500, 30380.00
538.5270, 30430.00
539.7050, 30128.00
540.8820, 30250.00
542.0590, 30262.00
543.2360, 29812.00
544.4130, 29704.00
545.5900, 29870.00
546.7660, 29813.00
547.9430, 29725.00
549.1190, 29723.00
550.2950, 29574.00
551.4710, 29647.00
552.6470, 29552.00
553.8220, 29735.00
554.9980, 29683.00
556.1730, 29524.00
557.3480, 29569.00
558.5230, 29499.00
559.6980, 29474.00
560.8730, 29511.00
562.0470, 29438.00
563.2220, 29380.00
564.3960, 29390.00
565.5700, 29497.00
566.7440, 29238.00
567.9170, 29466.00
569.0910, 29427.00
570.2640, 29311.00
571.4380, 29269.00
572.6110, 29326.66
573.7840, 29427.00
574.9570, 29470.00
576.1290, 29525.82
577.3020, 29426.00
578.4740, 29624.00
579.6460, 29593.00
580.8180, 29661.00
581.9900, 29472.00
583.1620, 29538.00
584.3330, 29707.00
585.5040, 29493.00
586.6760, 29732.00
587.8470, 29738.00
589.0180, 29596.00
590.1880, 29661.00
591.3590, 29780.00
592.5290, 29810.00
593.7000, 29983.00
594.8700, 29953.00
596.0400, 29837.00
597.2090, 29751.00
598.3790, 29851.00
599.5490, 30127.00
600.7180, 30021.00
601.8870, 30106.00
603.0560, 29979.00
604.2250, 29888.00
605.3940, 30102.00
606.5620, 30193.00
607.7300, 30327.00
608.8990, 30367.67
610.0670, 30187.00
611.2350, 30397.00
612.4020, 30253.00
613.5700, 30278.00
614.7370, 30304.00
615.9050, 30356.00
617.0720, 30531.00
618.2390, 30465.00
619.4060, 30590.00
620.5720, 30483.00
621.7390, 30703.00
622.9050, 30628.00
624.0710, 30809.00
625.2370, 30725.00
626.4030, 30975.00
627.5690, 31083.00
628.7340, 30948.00
629.9000, 31054.00
631.0650, 31045.00
632.2300, 31184.00
633.3950, 31312.00
634.5600, 31163.00
635.7240, 31154.00
636.8890, 31239.00
638.0530, 31194.00
639.2170, 31308.00
640.3810, 31303.00
641.5450, 31426.00
642.7080, 31409.00
643.8720, 31195.00
645.0350, 31304.00
646.1980, 31297.00
647.3610, 31370.00
648.5240, 31355.00
649.6870, 31334.00
650.8490, 31327.00
652.0120, 31351.00
653.1740, 31248.00
654.3360, 31294.00
655.4980, 31166.00
656.6600, 31392.00
657.8210, 31394.00
658.9830, 31347.00
660.1440, 31412.00
661.3050, 31561.00
662.4660, 31384.00
663.6270, 31451.00
664.7870, 31342.00
665.9480, 31368.00
667.1080, 31362.14
668.2680, 31426.00
669.4280, 31380.00
670.5880, 31407.00
671.7480, 31463.00
672.9070, 31291.00
674.0670, 31552.00
675.2260, 31645.00
676.3850, 31350.00
677.5440, 31527.00
678.7030, 31443.00
679.8610, 31597.00
681.0200, 31570.00
682.1780, 31674.00
683.3360, 31779.00
684.4940, 31516.00
685.6520, 31612.00
686.8090, 31655.32
687.9670, 31643.42
689.1240, 31905.00
690.2810, 31722.00
691.4380, 31963.00
692.5950, 31865.00
693.7520, 31651.00
694.9080, 31639.00
696.0650, 31772.00
697.2210, 31804.00
698.3770, 32156.00
699.5330, 31936.00
700.6880, 32073.00
701.8440, 32104.00
702.9990, 31900.00
704.1550, 32135.00
705.3100, 32098.00
706.4650, 32275.00
707.6190, 32445.00
708.7740, 32677.00
709.9290, 32303.00
711.0830, 32329.00
712.2370, 32371.00
713.3910, 32582.00
714.5450, 32785.00
715.6980, 32614.00
716.8520, 32714.00
718.0050, 32709.00
719.1580, 32740.55
720.3110, 32857.00
721.4640, 32834.00
722.6170, 32988.00
723.7700, 32923.00
724.9220, 32712.00
726.0740, 32911.00
727.2260, 33020.00
728.3780, 32918.00
729.5300, 33076.00
730.6810, 32893.00
731.8330, 33125.00
732.9840, 32899.00
734.1350, 33113.00
735.2860, 32949.00
736.4370, 33102.00
737.5880, 33238.00
738.7380, 33543.00
739.8880, 33350.00
741.0390, 33136.00
742.1890, 33603.00
743.3380, 33328.00
744.4880, 33311.00
745.6380, 33669.00
746.7870, 33351.00
747.9360, 33495.00
749.0850, 33762.00
750.2340, 33629.00
751.3830, 33503.00
752.5310, 33502.00
753.6800, 33636.00
754.8280, 33753.00
755.9760, 33993.00
757.1240, 33871.00
758.2720, 34026.00
759.4190, 34141.00
760.5670, 33972.00
761.7140, 34090.00
762.8610, 33812.00
764.0080, 33982.00
765.1550, 34149.00
766.3020, 33964.00
767.4480, 34165.00
768.5950, 34215.00
769.7410, 34183.00
770.8870, 33933.00
772.0330, 33940.00
773.1780, 34096.00
774.3240, 33811.00
775.4690, 34140.00
776.6140, 34150.00
777.7590, 33845.00
778.9040, 34043.00
780.0490, 33958.00
781.1940, 34194.00
782.3380, 34223.00
783.4820, 34057.00
784.6260, 33878.00
785.7700, 33991.00
786.9140, 33760.00
788.0580, 33941.00
789.2010, 34147.00
790.3450, 34089.00
791.4880, 33930.00
792.6310, 33901.00
793.7730, 33876.24
794.9160, 33717.00
796.0590, 33962.00
797.2010, 33946.00
798.3430, 34142.00
799.4850, 34025.00
800.6270, 34085.74
801.7690, 34136.00
802.9100, 34021.00
804.0520, 34049.00
805.1930, 34074.61
806.3340, 34044.00
807.4750, 34135.00
808.6160, 34142.00
809.7560, 34122.00
810.8970, 34179.34
812.0370, 34196.47
813.1770, 34256.00
814.3170, 34207.00
815.4570, 34293.00
816.5960, 34147.00
817.7360, 34297.00
818.8750, 34326.44
820.0140, 34342.00
821.1530, 34436.00
822.2920, 34422.00
823.4310, 34344.00
824.5690, 34199.00
825.7070, 34305.00
826.8460, 34665.00
827.9840, 34509.14
829.1220, 34681.00
830.2590, 34429.00
831.3970, 34657.00
832.5340, 34514.00
833.6710, 34842.00
834.8080, 34745.00
835.9450, 34679.00
837.0820, 34992.00
838.2190, 34807.00
839.3550, 34756.00
840.4910, 34798.00
841.6270, 34789.00
842.7630, 35170.00
843.8990, 34691.00
845.0350, 35019.00
846.1700, 34785.00
847.3060, 34785.00
848.4410, 35170.00
849.5760, 35249.00
850.7100, 35325.00
851.8450, 35462.00
852.9800, 35188.00
854.1140, 35085.00
855.2480, 35192.00
856.3820, 35269.00
857.5160, 35255.25
858.6500, 35212.00
859.7830, 35365.00
860.9170, 35597.00
862.0500, 35776.00
863.1830, 35559.00
864.3160, 35789.00
865.4480, 35432.00
866.5810, 35600.00
867.7130, 35708.00
868.8460, 35643.00
869.9780, 35827.00
871.1100, 35913.00
872.2410, 35759.00
873.3730, 35882.00
874.5050, 36090.00
875.6360, 35720.00
876.7670, 35742.00
877.8980, 35934.00
879.0290, 35989.00
880.1590, 35920.00
881.2900, 35854.00
882.4200, 35933.67
883.5500, 35925.00
884.6800, 36034.00
885.8100, 36206.00
886.9400, 36231.00
888.0690, 36334.00
889.1990, 36111.00
890.3280, 36296.00
891.4570, 36143.00
892.5860, 36169.00
893.7140, 36388.00
894.8430, 36257.00
895.9710, 36266.00
897.1000, 36490.00
898.2280, 36215.00
899.3560, 36567.00
900.4830, 36576.00
901.6110, 36684.00
902.7380, 36671.00
903.8660, 36634.00
904.9930, 36557.00
906.1200, 36703.00
907.2460, 36935.00
908.3730, 36917.00
909.5000, 36920.00
910.6260, 36816.00
911.7520, 36881.00
912.8780, 36910.00
914.0040, 37162.00
915.1290, 36895.00
916.2550, 37084.00
917.3800, 37247.00
918.5050, 37234.00
919.6300, 37337.00
920.7550, 37197.00
921.8800, 37284.00
923.0040, 37341.00
924.1290, 37510.00
925.2530, 37446.00
926.3770, 37583.00
927.5010, 37533.00
928.6250, 37708.00
929.7480, 37896.00
930.8720, 37689.00
931.9950, 37742.00
933.1180, 37583.00
934.2410, 37523.00
935.3640, 37777.00
936.4860, 37969.00
937.6090, 37751.00
938.7310, 37921.00
939.8530, 37939.00
940.9750, 37926.00
942.0970, 38082.00
943.2180, 38053.00
944.3400, 38130.00
945.4610, 38254.00
946.5820, 38257.00
947.7030, 38297.00
948.8240, 38265.00
949.9450, 38542.00
951.0650, 38667.00
952.1860, 38771.00
953.3060, 38727.00
954.4260, 38586.00
955.5460, 38685.00
956.6650, 38760.00
957.7850, 38906.00
958.9040, 39002.00
960.0230, 38849.00
961.1420, 38770.00
962.2610, 39138.00
963.3800, 38890.00
964.4990, 38963.00
965.6170, 39128.00
966.7350, 39178.00
967.8530, 39086.00
968.9710, 39294.00
970.0890, 39417.00
971.2070, 39336.00
972.3240, 39534.00
973.4410, 39459.00
974.5580, 39733.00
975.6750, 39497.00
976.7920, 39666.00
977.9090, 40096.00
979.0250, 39847.00
980.1410, 40040.00
981.2580, 40075.00
982.3740, 40141.00
983.4890, 40155.00
984.6050, 40309.00
985.7200, 40187.00
986.8360, 40305.00
987.9510, 40212.00
989.0660, 40577.00
990.1810, 40208.00
991.2950, 40443.00
992.4100, 40400.00
993.5240, 40250.00
994.6390, 40736.00
995.7530, 40509.00
996.8660, 40851.00
997.9800, 40896.00
999.0940, 40734.00
1000.207, 40930.00
1001.320, 41247.00
1002.433, 40977.00
1003.546, 41206.00
1004.659, 40922.00
1005.772, 40980.00
1006.884, 41150.00
1007.996, 41261.00
1009.108, 41204.00
1010.220, 41272.00
1011.332, 41489.00
1012.444, 41364.00
1013.555, 41675.00
1014.666, 41673.00
1015.777, 41708.00
1016.888, 41575.00
1017.999, 41574.00
1019.110, 41906.00
1020.220, 41693.00
1021.331, 41959.00
1022.441, 41952.00
1023.551, 42164.00
1024.661, 42115.00
1025.770, 42236.00
1026.880, 42176.00
1027.989, 42336.00
1029.098, 42327.84
1030.207, 42358.20
1031.316, 42455.00
1032.425, 42470.00
1033.533, 42722.00
1034.642, 42929.00
1035.750, 42638.00
1036.858, 42792.00
1037.966, 43014.00
1039.073, 42926.00
1040.181, 43139.00
1041.288, 42965.00
1042.396, 42958.00
1043.503, 43007.00
1044.610, 43111.00
1045.716, 42956.00
1046.823, 43413.00
1047.929, 43376.00
1049.036, 43028.00
1050.142, 43291.00
1051.248, 43636.00
1052.353, 43525.00
1053.459, 43724.00
1054.564, 43679.00
1055.670, 43709.00
1056.775, 43940.00
1057.880, 43828.00
1058.985, 43912.00
1060.089, 44140.00
1061.194, 44104.00
1062.298, 44257.00
1063.402, 44381.00
1064.506, 44474.00
1065.610, 44761.00
1066.713, 44820.00
1067.817, 44962.00
1068.920, 44690.00
1070.023, 45249.00
1071.126, 45024.00
1072.229, 45133.00
1073.332, 45466.00
1074.435, 45550.00
1075.537, 45173.00
1076.639, 45452.00
1077.741, 45587.00
1078.843, 45658.00
1079.945, 46113.00
1081.046, 45915.00
1082.148, 46068.00
1083.249, 46232.55
1084.350, 46532.00
1085.451, 46379.00
1086.551, 46390.00
1087.652, 46242.00
1088.752, 46150.00
1089.853, 46268.00
1090.953, 46183.00
1092.053, 46260.00
1093.152, 46009.00
1094.252, 46108.00
1095.351, 46408.00
1096.451, 46154.00
1097.550, 46335.00
1098.649, 46295.00
1099.748, 46374.00
1100.846, 46028.00
1101.945, 46153.00
1103.043, 46136.00
1104.141, 46047.00
1105.239, 46132.23
1106.337, 46134.00
1107.434, 46123.00
1108.532, 46207.00
1109.629, 46084.00
1110.726, 46132.00
1111.823, 46288.00
1112.920, 45939.00
1114.017, 46075.00
1115.113, 45987.00
1116.210, 46214.00
1117.306, 46132.00
1118.402, 46335.00
1119.498, 45984.00
1120.593, 46321.00
1121.689, 46031.00
1122.784, 46218.00
1123.879, 46317.00
1124.974, 46429.00
1126.069, 46069.00
1127.164, 45842.00
1128.259, 45847.00
1129.353, 46025.00
1130.447, 45899.00
1131.541, 45789.00
1132.635, 45828.00
1133.729, 45621.00
1134.822, 45886.00
1135.916, 45806.00
1137.009, 45800.00
1138.102, 45651.00
1139.195, 45697.00
1140.288, 45755.00
1141.380, 45629.00
1142.473, 45763.00
1143.565, 45571.00
1144.657, 45524.00
1145.749, 45382.00
1146.841, 45652.00
1147.932, 45427.00
1149.024, 45590.00
1150.115, 45252.00
1151.206, 45567.00
1152.297, 45586.00
1153.388, 45450.00
1154.479, 45453.00
1155.569, 45404.00
1156.659, 45410.00
1157.750, 45378.00
1158.839, 45123.00
1159.929, 45245.00
1161.019, 45256.00
1162.108, 45011.00
1163.198, 45271.00
1164.287, 45264.00
1165.376, 45104.00
1166.465, 45244.00
1167.553, 44942.00
1168.642, 45167.00
1169.730, 45319.00
1170.818, 45005.00
1171.906, 45186.13
1172.994, 45290.00
1174.082, 45173.00
1175.170, 45168.00
1176.257, 45185.00
1177.344, 45013.00
1178.431, 44987.00
1179.518, 45180.00
1180.605, 45266.00
1181.691, 44888.00
1182.778, 45049.00
1183.864, 45144.00
1184.950, 45198.00
1186.036, 45278.00
1187.122, 45043.00
1188.207, 45163.00
1189.292, 45179.00
1190.378, 45024.00
1191.463, 45310.00
1192.548, 44799.00
1193.632, 45336.00
1194.717, 45329.00
1195.801, 45185.00
1196.886, 45442.00
1197.970, 45471.00
1199.054, 45376.00
1200.137, 45421.00
1201.221, 45342.00
1202.305, 45205.00
1203.388, 45496.00
1204.471, 45401.00
1205.554, 45535.00
1206.637, 45553.00
1207.719, 45373.00
1208.802, 45686.00
1209.884, 45457.00
1210.966, 45454.00
1212.048, 45455.00
1213.130, 45805.00
1214.212, 45895.00
1215.293, 45832.00
1216.374, 45914.00
1217.456, 45684.00
1218.536, 45745.00
1219.617, 45761.65
1220.698, 46321.00
1221.778, 45824.00
1222.859, 46032.00
1223.939, 45989.00
1225.019, 45750.00
1226.099, 45759.00
1227.178, 46003.00
1228.258, 45982.00
1229.337, 46196.00
1230.417, 46034.00
1231.496, 46106.00
1232.574, 46205.00
1233.653, 45880.00
1234.732, 46042.00
1235.810, 46119.00
1236.888, 46288.00
1237.966, 46190.00
1239.044, 46249.00
1240.122, 46298.26
1241.199, 46281.00
1242.277, 46389.00
1243.354, 46306.00
1244.431, 46377.00
1245.508, 46403.00
1246.585, 46253.00
1247.661, 46539.00
1248.738, 46945.00
1249.814, 46828.00
1250.890, 46802.00
1251.966, 46439.00
1253.042, 46734.00
1254.117, 46844.00
1255.193, 46477.00
1256.268, 46615.00
1257.343, 46853.00
1258.418, 46815.00
1259.493, 46516.00
1260.567, 47100.00
1261.642, 47462.00
1262.716, 47586.00
1263.790, 47119.00
1264.864, 47087.00
1265.938, 47170.00
1267.011, 47283.00
1268.085, 47192.00
1269.158, 46989.00
1270.231, 47216.00
1271.304, 47019.00
1272.377, 47141.00
1273.450, 46952.00
1274.522, 47175.00
1275.594, 47168.00
1276.666, 47052.00
1277.738, 47176.00
1278.810, 47489.00
1279.882, 47617.00
1280.953, 47643.00
1282.025, 47570.00
1283.096, 47644.00
1284.167, 47556.00
1285.238, 47832.00
1286.308, 47279.00
1287.379, 47833.00
1288.449, 47503.00
1289.519, 47835.00
1290.589, 47631.00
1291.659, 47762.00
1292.729, 47960.00
1293.798, 48002.00
1294.868, 47789.00
1295.937, 47883.00
1297.006, 47827.00
1298.075, 48027.00
1299.143, 48068.00
1300.212, 48081.00
1301.280, 47794.00
1302.348, 48067.00
1303.416, 48237.00
1304.484, 48562.00
1305.552, 48203.00
1306.620, 48311.00
1307.687, 48289.00
1308.754, 48270.00
1309.821, 48327.05
1310.888, 48442.00
1311.955, 48413.00
1313.021, 48573.00
1314.088, 48705.00
1315.154, 48733.00
1316.220, 48717.00
1317.286, 48630.00
1318.352, 49004.00
1319.417, 48785.00
1320.483, 48914.00
1321.548, 49039.59
1322.613, 48750.00
1323.678, 49136.00
1324.743, 48964.00
1325.807, 48766.00
1326.872, 49046.00
1327.936, 49050.00
1329.000, 49161.00
1330.064, 49014.00
1331.128, 49019.00
1332.191, 49032.00
1333.255, 49135.00
1334.318, 49008.00
1335.381, 49029.00
1336.444, 49326.00
1337.507, 49126.00
1338.569, 49341.00
1339.632, 49278.00
1340.694, 49112.00
1341.756, 49159.00
1342.818, 49129.93
1343.880, 49330.00
1344.941, 49152.00
1346.003, 49446.00
1347.064, 49386.00
1348.125, 49627.00
1349.186, 49837.00
1350.247, 49590.00
1351.308, 49716.00
1352.368, 49612.00
1353.428, 49784.00
1354.489, 49955.00
1355.549, 49813.00
1356.608, 49903.00
1357.668, 49700.00
1358.727, 50070.00
1359.787, 50000.00
1360.846, 50132.00
1361.905, 49826.00
1362.964, 50167.00
1364.022, 49857.00
1365.081, 50036.00
1366.139, 50089.00
1367.197, 49876.00
1368.255, 50231.00
1369.313, 50092.00
1370.371, 49904.00
1371.428, 50386.00
1372.486, 50546.00
1373.543, 50144.00
1374.600, 50438.00
1375.657, 50555.00
1376.713, 50106.00
1377.770, 50418.00
1378.826, 50135.00
1379.882, 50193.00
1380.938, 50336.00
1381.994, 50755.00
1383.050, 50404.00
1384.106, 50577.00
1385.161, 50577.00
1386.216, 50507.00
1387.271, 50317.00
1388.326, 50377.00
1389.381, 50778.00
1390.435, 50529.00
1391.490, 50418.00
1392.544, 50772.00
1393.598, 50640.00
1394.652, 50786.00
1395.705, 50775.00
1396.759, 50787.00
1397.812, 51119.00
1398.866, 50795.00
1399.919, 50826.00
1400.972, 50631.00
1402.024, 50997.00
1403.077, 51039.00
1404.129, 50937.00
1405.181, 50997.00
1406.233, 51119.00
1407.285, 51049.00
1408.337, 51178.00
1409.389, 51384.00
1410.440, 51069.00
1411.491, 51310.00
1412.542, 51171.00
1413.593, 51383.00
1414.644, 51156.00
1415.695, 51395.00
1416.745, 51423.00
1417.795, 51333.00
1418.845, 51371.00
1419.895, 51225.00
1420.945, 51413.00
1421.995, 51598.00
1423.044, 51458.00
1424.093, 51698.00
1425.142, 51584.00
1426.191, 51535.00
1427.240, 51829.00
1428.289, 51583.00
1429.337, 51649.00
