##NAMES=Phillipsite-Ca
##RRUFFID=R050078
##IDEAL CHEMISTRY=Ca_3_(Si_10_Al_6_)O_32_&#183;12H_2_O
##LOCALITY=Grant County, Oregon, USA
##OWNER=RRUFF
##SOURCE=Rock Currier
##DESCRIPTION=White tabular hexagonal
##STATUS=The identification of this mineral has been confirmed by X-ray diffraction and chemical analysis
##URL=rruff.info/R050078
##MEASURED CHEMISTRY=(Ca_0.90_K_0.75_[box]_0.25_Na_0.10_)_Σ=2_(Si_5.35_Al_2.65_)_Σ=8_O_16_·6H_2_O
##PIN_ID=L00730
##ORIENTATION=Laser parallel to -c* (0 0 -1). Fiducial mark perpendicular to laser is parallel to a [1 0 0]
241.7140, 23387.00
242.9300, 23337.00
244.1460, 23177.00
245.3610, 23042.00
246.5770, 23021.00
247.7920, 22863.00
249.0070, 22923.00
250.2220, 22657.00
251.4370, 22751.00
252.6510, 22887.00
253.8660, 22695.00
255.0800, 22602.00
256.2940, 22682.00
257.5080, 22783.00
258.7220, 22707.00
259.9360, 22733.73
261.1490, 22671.31
262.3630, 22655.00
263.5760, 22468.00
264.7890, 22424.00
266.0020, 22240.00
267.2150, 22282.00
268.4270, 22360.00
269.6400, 22300.00
270.8520, 22374.00
272.0640, 22611.00
273.2760, 22281.00
274.4880, 22261.00
275.7000, 22233.00
276.9120, 22471.00
278.1230, 22403.00
279.3340, 22434.00
280.5450, 22241.00
281.7560, 22328.00
282.9670, 22563.00
284.1780, 22402.00
285.3880, 22339.00
286.5980, 22452.00
287.8090, 22349.00
289.0190, 22430.00
290.2290, 22341.00
291.4380, 22519.00
292.6480, 22544.00
293.8570, 22568.00
295.0670, 22625.00
296.2760, 22618.00
297.4850, 22603.00
298.6930, 22644.29
299.9020, 22653.39
301.1110, 22705.00
302.3190, 22736.00
303.5270, 22798.00
304.7350, 22791.37
305.9430, 22830.00
307.1510, 22796.00
308.3580, 22774.00
309.5660, 22813.99
310.7730, 22829.69
311.9800, 22900.00
313.1870, 22914.00
314.3940, 22871.00
315.6010, 22883.00
316.8070, 22853.00
318.0130, 22891.47
319.2200, 22904.19
320.4260, 22943.00
321.6310, 22988.00
322.8370, 22933.00
324.0430, 23021.00
325.2480, 23010.00
326.4540, 22984.02
327.6590, 22834.00
328.8640, 22974.00
330.0680, 22929.00
331.2730, 23027.00
332.4780, 22749.00
333.6820, 22924.00
334.8860, 22793.00
336.0900, 22548.00
337.2940, 22914.00
338.4980, 22539.00
339.7010, 22823.00
340.9050, 22536.00
342.1080, 22650.00
343.3110, 22524.00
344.5140, 22393.00
345.7170, 22412.00
346.9200, 22256.00
348.1220, 22214.00
349.3240, 22450.00
350.5270, 22436.00
351.7290, 22407.00
352.9310, 22315.00
354.1320, 22499.00
355.3340, 22586.00
356.5350, 22646.00
357.7370, 22644.00
358.9380, 22708.00
360.1390, 22660.00
361.3400, 22664.00
362.5400, 22685.27
363.7410, 22722.44
364.9410, 22701.00
366.1410, 22804.00
367.3410, 22802.00
368.5410, 22892.68
369.7410, 22873.00
370.9400, 23079.00
372.1400, 23175.00
373.3390, 23274.53
374.5380, 22992.00
375.7370, 23352.00
376.9360, 23370.00
378.1350, 23282.00
379.3330, 23512.00
380.5310, 23784.00
381.7300, 23878.00
382.9280, 23802.00
384.1260, 24177.00
385.3230, 24056.00
386.5210, 24245.00
387.7180, 24562.00
388.9160, 24592.00
390.1130, 24740.00
391.3100, 25057.00
392.5060, 25243.00
393.7030, 25281.00
394.9000, 25508.00
396.0960, 25907.00
397.2920, 25753.00
398.4880, 25962.00
399.6840, 26399.00
400.8800, 26468.00
402.0750, 26595.00
403.2710, 26745.00
404.4660, 27059.00
405.6610, 27140.00
406.8560, 27630.00
408.0510, 27732.00
409.2450, 27787.00
410.4400, 28454.00
411.6340, 28801.00
412.8280, 29052.00
414.0220, 29395.00
415.2160, 29859.00
416.4100, 30223.00
417.6030, 30430.00
418.7970, 30806.00
419.9900, 31016.00
421.1830, 31139.00
422.3760, 31141.00
423.5690, 31406.00
424.7610, 31271.00
425.9540, 31095.00
427.1460, 31217.00
428.3380, 31041.00
429.5300, 30993.00
430.7220, 31049.00
431.9140, 31041.00
433.1050, 31132.00
434.2970, 31158.00
435.4880, 31145.00
436.6790, 31617.00
437.8700, 31968.00
439.0610, 32057.00
440.2510, 32577.00
441.4420, 33221.00
442.6320, 33628.00
443.8220, 34263.00
445.0120, 35029.00
446.2020, 35933.00
447.3910, 37024.00
448.5810, 37979.00
449.7700, 39088.00
450.9600, 40220.00
452.1490, 41335.00
453.3370, 42601.00
454.5260, 43818.00
455.7150, 45019.00
456.9030, 46573.00
458.0910, 48049.00
459.2800, 49363.00
460.4670, 50723.00
461.6550, 52122.00
462.8430, 53386.00
464.0300, 54679.00
465.2180, 55581.00
466.4050, 56671.00
467.5920, 57601.00
468.7790, 58076.00
469.9650, 58526.00
471.1520, 58736.00
472.3380, 59137.00
473.5250, 59524.00
474.7110, 59400.00
475.8970, 59057.00
477.0820, 59188.00
478.2680, 59077.00
479.4540, 58835.00
480.6390, 57984.00
481.8240, 57907.00
483.0090, 56454.00
484.1940, 55629.00
485.3780, 54750.00
486.5630, 53760.00
487.7470, 51991.00
488.9320, 50348.00
490.1160, 48788.00
491.3000, 47098.00
492.4830, 45562.00
493.6670, 43971.00
494.8500, 42486.00
496.0340, 40717.00
497.2170, 39438.00
498.4000, 37790.00
499.5820, 36909.00
500.7650, 35618.00
501.9480, 34728.00
503.1300, 33546.00
504.3120, 32851.00
505.4940, 32035.00
506.6760, 31341.00
507.8580, 31012.00
509.0390, 30344.00
510.2210, 29809.00
511.4020, 29718.00
512.5830, 29204.00
513.7640, 28934.00
514.9450, 28826.00
516.1250, 28440.00
517.3060, 28272.00
518.4860, 28088.00
519.6660, 28000.00
520.8460, 27821.00
522.0260, 27771.00
523.2060, 27696.00
524.3850, 27562.00
525.5650, 27534.00
526.7440, 27403.56
527.9230, 27234.00
529.1020, 27178.00
530.2810, 27066.00
531.4590, 26943.00
532.6380, 26743.00
533.8160, 26829.00
534.9940, 26730.00
536.1720, 26662.00
537.3500, 26297.00
538.5270, 26222.00
539.7050, 25984.00
540.8820, 25853.50
542.0590, 25947.00
543.2360, 25709.00
544.4130, 25755.00
545.5900, 25819.00
546.7660, 25617.00
547.9430, 25567.00
549.1190, 25479.00
550.2950, 25510.00
551.4710, 25413.00
552.6470, 25257.00
553.8220, 25248.00
554.9980, 25094.00
556.1730, 25239.00
557.3480, 25262.00
558.5230, 25204.00
559.6980, 25082.00
560.8730, 25003.00
562.0470, 25073.00
563.2220, 24978.00
564.3960, 25267.00
565.5700, 25154.00
566.7440, 25027.00
567.9170, 25145.00
569.0910, 24891.00
570.2640, 25162.00
571.4380, 24963.00
572.6110, 25196.00
573.7840, 24900.00
574.9570, 24882.00
576.1290, 24961.00
577.3020, 24991.00
578.4740, 24957.00
579.6460, 24901.00
580.8180, 24919.00
581.9900, 24939.00
583.1620, 24944.00
584.3330, 24945.38
585.5040, 24894.00
586.6760, 24997.00
587.8470, 24963.00
589.0180, 25122.00
590.1880, 25056.00
591.3590, 25172.00
592.5290, 24969.00
593.7000, 25060.00
594.8700, 25019.00
596.0400, 25243.00
597.2090, 25014.00
598.3790, 25125.00
599.5490, 25149.00
600.7180, 25170.00
601.8870, 25183.00
603.0560, 25197.00
604.2250, 25236.92
605.3940, 25304.00
606.5620, 25319.00
607.7300, 25336.00
608.8990, 25375.00
610.0670, 25280.00
611.2350, 25343.00
612.4020, 25428.00
613.5700, 25405.18
614.7370, 25496.00
615.9050, 25434.00
617.0720, 25533.00
618.2390, 25499.00
619.4060, 25559.61
620.5720, 25736.00
621.7390, 25625.00
622.9050, 25687.00
624.0710, 25602.00
625.2370, 25720.00
626.4030, 25712.00
627.5690, 25493.00
628.7340, 25720.00
629.9000, 25953.00
631.0650, 25695.00
632.2300, 25681.00
633.3950, 25740.00
634.5600, 25951.00
635.7240, 25875.00
636.8890, 25794.00
638.0530, 25803.00
639.2170, 25806.72
640.3810, 25834.00
641.5450, 25913.00
642.7080, 25991.00
643.8720, 26077.00
645.0350, 25950.00
646.1980, 25860.00
647.3610, 26036.00
648.5240, 25784.00
649.6870, 26207.00
650.8490, 26111.00
652.0120, 26090.00
653.1740, 26138.00
654.3360, 26160.00
655.4980, 26116.00
656.6600, 26172.00
657.8210, 26086.00
658.9830, 26113.00
660.1440, 25994.00
661.3050, 26004.05
662.4660, 26065.00
663.6270, 26089.00
664.7870, 26110.00
665.9480, 26373.00
667.1080, 26266.00
668.2680, 26327.00
669.4280, 26128.00
670.5880, 26191.00
671.7480, 26239.00
672.9070, 26279.00
674.0670, 26331.00
675.2260, 26277.00
676.3850, 26404.00
677.5440, 26290.00
678.7030, 26396.00
679.8610, 26560.00
681.0200, 26375.00
682.1780, 26548.00
683.3360, 26299.00
684.4940, 26410.00
685.6520, 26465.00
686.8090, 26588.00
687.9670, 26451.00
689.1240, 26450.00
690.2810, 26735.00
691.4380, 26546.00
692.5950, 26449.00
693.7520, 26458.00
694.9080, 26726.00
696.0650, 26786.00
697.2210, 26711.00
698.3770, 26885.00
699.5330, 26711.00
700.6880, 26898.00
701.8440, 27086.00
702.9990, 26846.00
704.1550, 27058.00
705.3100, 26886.00
706.4650, 26948.00
707.6190, 27271.00
708.7740, 27273.00
709.9290, 27227.00
711.0830, 27377.00
712.2370, 27119.00
713.3910, 27218.00
714.5450, 27267.00
715.6980, 27377.00
716.8520, 27227.00
718.0050, 27426.00
719.1580, 27517.00
720.3110, 27248.00
721.4640, 27482.00
722.6170, 27415.00
723.7700, 27574.00
724.9220, 27425.00
726.0740, 27698.00
727.2260, 27689.00
728.3780, 27495.00
729.5300, 27441.00
730.6810, 27640.00
731.8330, 27731.00
732.9840, 27627.00
734.1350, 27607.00
735.2860, 27569.00
736.4370, 27850.00
737.5880, 27499.00
738.7380, 27699.00
739.8880, 27825.00
741.0390, 27566.00
742.1890, 27702.00
743.3380, 27702.00
744.4880, 27876.00
745.6380, 27898.00
746.7870, 27885.00
747.9360, 27931.00
749.0850, 27993.00
750.2340, 28110.00
751.3830, 28132.00
752.5310, 28304.00
753.6800, 28239.00
754.8280, 28412.00
755.9760, 28053.00
757.1240, 28278.00
758.2720, 28333.00
759.4190, 28244.00
760.5670, 28378.00
761.7140, 28450.00
762.8610, 28414.00
764.0080, 28298.00
765.1550, 28320.79
766.3020, 28342.00
767.4480, 28277.00
768.5950, 28221.00
769.7410, 28255.00
770.8870, 28122.00
772.0330, 28257.00
773.1780, 28003.00
774.3240, 28096.00
775.4690, 28163.00
776.6140, 28416.00
777.7590, 28114.00
778.9040, 28241.00
780.0490, 28101.00
781.1940, 28074.00
782.3380, 27958.00
783.4820, 27905.00
784.6260, 27780.00
785.7700, 27951.00
786.9140, 28024.00
788.0580, 28031.00
789.2010, 27912.00
790.3450, 28170.00
791.4880, 27730.00
792.6310, 27896.00
793.7730, 27731.00
794.9160, 27822.00
796.0590, 27815.00
797.2010, 27886.00
798.3430, 27878.00
799.4850, 27809.00
800.6270, 27855.70
801.7690, 27741.00
802.9100, 27847.00
804.0520, 27819.00
805.1930, 27773.00
806.3340, 27761.00
807.4750, 27919.00
808.6160, 27916.00
809.7560, 27881.00
810.8970, 27809.00
812.0370, 27840.02
813.1770, 27835.88
814.3170, 27863.00
815.4570, 27886.00
816.5960, 27883.00
817.7360, 27883.00
818.8750, 28162.00
820.0140, 28095.00
821.1530, 28163.00
822.2920, 28043.00
823.4310, 27940.00
824.5690, 28095.00
825.7070, 28193.00
826.8460, 28038.00
827.9840, 28225.00
829.1220, 28190.00
830.2590, 27937.00
831.3970, 28036.00
832.5340, 28312.00
833.6710, 28222.00
834.8080, 28446.00
835.9450, 28308.00
837.0820, 28510.00
838.2190, 28227.00
839.3550, 28311.00
840.4910, 28322.00
841.6270, 28540.00
842.7630, 28471.00
843.8990, 28558.00
845.0350, 28649.00
846.1700, 28520.00
847.3060, 28571.00
848.4410, 28766.00
849.5760, 28471.00
850.7100, 28654.00
851.8450, 28721.00
852.9800, 28753.00
854.1140, 28755.00
855.2480, 28781.36
856.3820, 28809.00
857.5160, 28827.00
858.6500, 28870.16
859.7830, 28939.40
860.9170, 28945.00
862.0500, 29072.00
863.1830, 29097.00
864.3160, 29092.00
865.4480, 28953.00
866.5810, 29101.00
867.7130, 28891.00
868.8460, 29039.00
869.9780, 29279.00
871.1100, 29108.00
872.2410, 29152.00
873.3730, 29050.00
874.5050, 29189.00
875.6360, 29164.00
876.7670, 29031.00
877.8980, 29403.00
879.0290, 29187.00
880.1590, 29351.00
881.2900, 29268.00
882.4200, 29466.00
883.5500, 29461.00
884.6800, 29448.00
885.8100, 29285.00
886.9400, 29376.00
888.0690, 29504.00
889.1990, 29276.00
890.3280, 29600.00
891.4570, 29543.00
892.5860, 29490.00
893.7140, 29663.00
894.8430, 29608.00
895.9710, 29362.00
897.1000, 29640.00
898.2280, 29584.00
899.3560, 29723.00
900.4830, 29556.00
901.6110, 29493.00
902.7380, 29484.00
903.8660, 29520.00
904.9930, 29529.68
906.1200, 29581.30
907.2460, 29584.00
908.3730, 29780.00
909.5000, 29736.00
910.6260, 30000.00
911.7520, 29810.00
912.8780, 29905.00
914.0040, 29922.00
915.1290, 29688.00
916.2550, 29854.00
917.3800, 30139.00
918.5050, 30133.00
919.6300, 30071.00
920.7550, 30219.00
921.8800, 30178.00
923.0040, 30136.00
924.1290, 30088.00
925.2530, 29877.00
926.3770, 30340.00
927.5010, 30680.00
928.6250, 30257.00
929.7480, 30505.00
930.8720, 30306.00
931.9950, 30484.00
933.1180, 30609.00
934.2410, 30567.00
935.3640, 30566.00
936.4860, 30398.00
937.6090, 30585.00
938.7310, 30656.00
939.8530, 30734.00
940.9750, 30526.00
942.0970, 30702.00
943.2180, 30830.00
944.3400, 30869.00
945.4610, 31074.00
946.5820, 31058.57
947.7030, 31087.00
948.8240, 31142.00
949.9450, 31141.00
951.0650, 31320.00
952.1860, 31430.00
953.3060, 31132.00
954.4260, 31436.00
955.5460, 31391.00
956.6650, 31406.00
957.7850, 31539.00
958.9040, 31585.00
960.0230, 31626.00
961.1420, 31694.00
962.2610, 31705.00
963.3800, 31630.00
964.4990, 31672.00
965.6170, 31877.00
966.7350, 31775.00
967.8530, 31944.00
968.9710, 31839.00
970.0890, 32039.00
971.2070, 32345.00
972.3240, 32217.00
973.4410, 32080.00
974.5580, 32187.00
975.6750, 32418.00
976.7920, 32323.00
977.9090, 32455.00
979.0250, 32498.00
980.1410, 32490.00
981.2580, 32699.00
982.3740, 32675.00
983.4890, 32654.00
984.6050, 32738.00
985.7200, 32647.00
986.8360, 32942.00
987.9510, 32988.00
989.0660, 33219.00
990.1810, 32959.00
991.2950, 33067.00
992.4100, 33088.00
993.5240, 33117.00
994.6390, 33050.00
995.7530, 33430.00
996.8660, 33385.00
997.9800, 33578.00
999.0940, 33285.00
1000.207, 33322.00
1001.320, 33618.00
1002.433, 33702.00
1003.546, 33637.00
1004.659, 33518.00
1005.772, 33742.00
1006.884, 33586.00
1007.996, 33814.00
1009.108, 33866.00
1010.220, 33975.00
1011.332, 33913.00
1012.444, 33964.00
1013.555, 34145.00
1014.666, 34026.00
1015.777, 34397.00
1016.888, 34320.00
1017.999, 34198.00
1019.110, 34085.00
1020.220, 34550.00
1021.331, 34702.00
1022.441, 34510.00
1023.551, 34704.00
1024.661, 34611.00
1025.770, 34773.00
1026.880, 34945.00
1027.989, 35257.00
1029.098, 35185.46
1030.207, 35183.00
1031.316, 35118.00
1032.425, 35106.00
1033.533, 35133.00
1034.642, 35363.00
1035.750, 35426.00
1036.858, 35194.00
1037.966, 35532.00
1039.073, 35382.00
1040.181, 35385.00
1041.288, 35437.00
1042.396, 35546.00
1043.503, 35706.00
1044.610, 35940.00
1045.716, 35551.00
1046.823, 35991.00
1047.929, 35581.00
1049.036, 35636.00
1050.142, 36076.00
1051.248, 35839.00
1052.353, 36046.00
1053.459, 36053.00
1054.564, 36078.00
1055.670, 35911.00
1056.775, 36091.00
1057.880, 36154.00
1058.985, 36628.00
1060.089, 36456.00
1061.194, 36773.00
1062.298, 36624.00
1063.402, 36689.00
1064.506, 36798.00
1065.610, 37137.00
1066.713, 37155.00
1067.817, 37458.00
1068.920, 37111.00
1070.023, 37340.00
1071.126, 37751.00
1072.229, 37408.00
1073.332, 37653.00
1074.435, 37848.00
1075.537, 37597.00
1076.639, 37896.00
1077.741, 38249.00
1078.843, 38262.00
1079.945, 38248.00
1081.046, 38151.00
1082.148, 38283.00
1083.249, 38352.00
1084.350, 38293.00
1085.451, 38488.00
1086.551, 38391.00
1087.652, 38763.00
1088.752, 38677.00
1089.853, 38534.00
1090.953, 38719.00
1092.053, 38873.00
1093.152, 38646.00
1094.252, 38686.00
1095.351, 38539.00
1096.451, 38605.00
1097.550, 38456.00
1098.649, 38666.00
1099.748, 38738.00
1100.846, 38578.00
1101.945, 38791.00
1103.043, 38635.00
1104.141, 38399.00
1105.239, 38579.00
1106.337, 38565.00
1107.434, 38383.00
1108.532, 38721.00
1109.629, 38602.00
1110.726, 38496.00
1111.823, 38406.00
1112.920, 38490.00
1114.017, 38546.00
1115.113, 38589.00
1116.210, 38637.00
1117.306, 38539.00
1118.402, 38432.00
1119.498, 38192.00
1120.593, 38372.00
1121.689, 38594.00
1122.784, 38432.00
1123.879, 38461.00
1124.974, 38218.00
1126.069, 38241.00
1127.164, 38057.00
1128.259, 37926.00
1129.353, 37895.00
1130.447, 37825.16
1131.541, 37771.00
1132.635, 37851.00
1133.729, 37796.00
1134.822, 37892.00
1135.916, 37673.00
1137.009, 38014.00
1138.102, 37670.00
1139.195, 37588.00
1140.288, 37603.00
1141.380, 37743.00
1142.473, 37490.00
1143.565, 37446.00
1144.657, 37391.00
1145.749, 37323.62
1146.841, 37237.00
1147.932, 37342.00
1149.024, 37281.00
1150.115, 37345.00
1151.206, 37030.00
1152.297, 36808.00
1153.388, 37089.00
1154.479, 37273.00
1155.569, 36844.00
1156.659, 37008.00
1157.750, 37025.00
1158.839, 36746.00
1159.929, 36766.00
1161.019, 36693.00
1162.108, 36720.89
1163.198, 36625.00
1164.287, 36812.00
1165.376, 36736.00
1166.465, 36559.00
1167.553, 36761.00
1168.642, 36630.00
1169.730, 36487.00
1170.818, 36607.00
1171.906, 36461.00
1172.994, 36610.00
1174.082, 36430.00
1175.170, 36479.00
1176.257, 36406.00
1177.344, 36520.00
1178.431, 36495.00
1179.518, 36312.00
1180.605, 36606.00
1181.691, 36409.00
1182.778, 36288.00
1183.864, 36206.00
1184.950, 36205.00
1186.036, 36174.29
1187.122, 36256.00
1188.207, 36255.00
1189.292, 36359.00
1190.378, 36499.00
1191.463, 36550.00
1192.548, 36572.39
1193.632, 36099.00
1194.717, 36487.00
1195.801, 36368.00
1196.886, 36191.00
1197.970, 36607.00
1199.054, 36325.00
1200.137, 36463.00
1201.221, 36331.00
1202.305, 36361.00
1203.388, 36323.00
1204.471, 36478.00
1205.554, 36515.00
1206.637, 36360.00
1207.719, 36204.00
1208.802, 36516.00
1209.884, 36438.00
1210.966, 36442.00
1212.048, 36433.00
1213.130, 36527.00
1214.212, 36604.00
1215.293, 36410.00
1216.374, 36651.00
1217.456, 36593.00
1218.536, 36721.00
1219.617, 37004.00
1220.698, 37169.00
1221.778, 36705.00
1222.859, 37090.00
1223.939, 36467.00
1225.019, 36484.00
1226.099, 36962.00
1227.178, 36846.00
1228.258, 36528.00
1229.337, 36585.00
1230.417, 36677.00
1231.496, 36706.00
1232.574, 36780.00
1233.653, 36723.00
1234.732, 37008.00
1235.810, 36846.00
1236.888, 37069.00
1237.966, 36911.00
1239.044, 36971.00
1240.122, 37078.00
1241.199, 36938.00
1242.277, 37111.00
1243.354, 37095.00
1244.431, 37223.00
1245.508, 37154.00
1246.585, 37246.00
1247.661, 37234.00
1248.738, 37122.00
1249.814, 37337.00
1250.890, 37242.00
1251.966, 37392.00
1253.042, 37266.00
1254.117, 37120.00
1255.193, 37290.00
1256.268, 37116.00
1257.343, 37216.00
1258.418, 37249.00
1259.493, 37283.00
1260.567, 37144.00
1261.642, 37471.00
1262.716, 37639.00
1263.790, 37532.00
1264.864, 37530.00
1265.938, 37626.00
1267.011, 37444.00
1268.085, 37542.00
1269.158, 37673.00
1270.231, 37729.00
1271.304, 37578.00
1272.377, 37518.00
1273.450, 37512.00
1274.522, 37765.00
1275.594, 37899.00
1276.666, 37950.00
1277.738, 37690.00
1278.810, 37628.00
1279.882, 37926.00
1280.953, 37569.00
1282.025, 37980.00
1283.096, 37658.00
1284.167, 37430.00
1285.238, 37938.00
1286.308, 38131.00
1287.379, 37761.00
1288.449, 37865.00
1289.519, 37949.00
1290.589, 38032.00
1291.659, 38054.00
1292.729, 38119.64
1293.798, 38042.00
1294.868, 38185.00
1295.937, 38048.00
1297.006, 38032.00
1298.075, 38150.00
1299.143, 38119.00
1300.212, 38105.00
1301.280, 38040.00
1302.348, 38448.00
1303.416, 38383.00
1304.484, 38437.23
1305.552, 38410.00
1306.620, 38489.00
1307.687, 38190.00
1308.754, 38336.00
1309.821, 38193.00
1310.888, 38489.00
1311.955, 38622.00
1313.021, 38385.00
1314.088, 38630.00
1315.154, 38512.00
1316.220, 38371.00
1317.286, 38458.00
1318.352, 38739.00
1319.417, 38945.00
1320.483, 38991.00
1321.548, 38892.00
1322.613, 38929.00
1323.678, 38875.00
1324.743, 38842.00
1325.807, 38704.00
1326.872, 38763.00
1327.936, 38883.00
1329.000, 39034.00
1330.064, 38960.00
1331.128, 38919.00
1332.191, 38945.00
1333.255, 38967.00
1334.318, 39040.00
1335.381, 39039.45
1336.444, 39270.00
1337.507, 39024.00
1338.569, 39138.00
1339.632, 39045.00
1340.694, 39230.00
1341.756, 39316.00
1342.818, 39055.00
1343.880, 39439.00
1344.941, 39428.00
1346.003, 39191.00
1347.064, 39343.00
1348.125, 39356.00
1349.186, 39414.00
1350.247, 39431.00
1351.308, 39520.00
1352.368, 39502.00
1353.428, 39523.31
1354.489, 39321.00
1355.549, 39563.00
1356.608, 39691.00
1357.668, 39819.00
1358.727, 39430.00
1359.787, 39704.00
1360.846, 39601.00
1361.905, 39787.00
1362.964, 39516.00
1364.022, 39852.00
1365.081, 39832.00
1366.139, 39768.00
1367.197, 39802.00
1368.255, 39835.00
1369.313, 39966.00
1370.371, 39897.61
1371.428, 39745.00
1372.486, 39833.00
1373.543, 39927.00
1374.600, 39962.00
1375.657, 40119.00
1376.713, 40043.00
1377.770, 40168.00
1378.826, 39995.00
1379.882, 39950.00
1380.938, 40188.00
1381.994, 40362.00
1383.050, 40210.00
1384.106, 40016.00
1385.161, 40216.00
1386.216, 40117.00
1387.271, 40283.00
1388.326, 39877.00
1389.381, 40170.00
1390.435, 40409.00
1391.490, 40127.00
1392.544, 40229.00
1393.598, 40379.00
1394.652, 40256.00
1395.705, 40222.00
1396.759, 40331.00
1397.812, 40348.00
1398.866, 40387.00
1399.919, 40203.00
1400.972, 40507.00
1402.024, 40540.00
