##NAMES=Phillipsite-Ca
##RRUFFID=R050078
##IDEAL CHEMISTRY=Ca_3_(Si_10_Al_6_)O_32_&#183;12H_2_O
##LOCALITY=Grant County, Oregon, USA
##OWNER=RRUFF
##SOURCE=Rock Currier
##DESCRIPTION=White tabular hexagonal
##STATUS=The identification of this mineral has been confirmed by X-ray diffraction and chemical analysis
##URL=rruff.info/R050078
##MEASURED CHEMISTRY=(Ca_0.90_K_0.75_[box]_0.25_Na_0.10_)_Σ=2_(Si_5.35_Al_2.65_)_Σ=8_O_16_·6H_2_O
##PIN_ID=L00386
##ORIENTATION=Laser parallel to a* (1 0 0). Fiducial mark perpendicular to laser is parallel to b [0 1 0]
273.2760, 21204.00
274.4880, 21252.00
275.7000, 21197.00
276.9120, 21373.00
278.1230, 21391.00
279.3340, 21197.00
280.5450, 21181.00
281.7560, 21025.00
282.9670, 21084.00
284.1780, 21233.00
285.3880, 21093.00
286.5980, 20988.00
287.8090, 21172.00
289.0190, 21072.00
290.2290, 20928.00
291.4380, 21250.00
292.6480, 21031.00
293.8570, 21264.00
295.0670, 21222.00
296.2760, 21182.00
297.4850, 21363.00
298.6930, 21093.00
299.9020, 21140.00
301.1110, 21255.00
302.3190, 21325.00
303.5270, 21212.00
304.7350, 21474.00
305.9430, 21320.00
307.1510, 21458.00
308.3580, 21466.00
309.5660, 21521.00
310.7730, 21529.00
311.9800, 21733.00
313.1870, 21523.00
314.3940, 21723.00
315.6010, 21761.00
316.8070, 21674.00
318.0130, 21862.00
319.2200, 21829.00
320.4260, 21874.00
321.6310, 21904.64
322.8370, 22017.00
324.0430, 21979.00
325.2480, 21765.00
326.4540, 21970.00
327.6590, 22042.00
328.8640, 21804.00
330.0680, 21900.00
331.2730, 21901.00
332.4780, 21917.00
333.6820, 21956.00
334.8860, 21776.00
336.0900, 21741.00
337.2940, 21600.00
338.4980, 21773.00
339.7010, 21756.00
340.9050, 21589.00
342.1080, 21710.00
343.3110, 21653.00
344.5140, 21751.00
345.7170, 21776.00
346.9200, 21779.00
348.1220, 21646.00
349.3240, 21797.00
350.5270, 21702.00
351.7290, 21648.00
352.9310, 21808.00
354.1320, 21616.00
355.3340, 21735.00
356.5350, 21622.00
357.7370, 21899.00
358.9380, 21877.00
360.1390, 22019.00
361.3400, 22010.00
362.5400, 22101.00
363.7410, 22111.00
364.9410, 22183.00
366.1410, 22294.00
367.3410, 22369.00
368.5410, 22388.00
369.7410, 22627.00
370.9400, 22666.04
372.1400, 22690.00
373.3390, 22881.00
374.5380, 23046.00
375.7370, 23172.12
376.9360, 23294.10
378.1350, 23442.37
379.3330, 23483.00
380.5310, 23712.00
381.7300, 23822.00
382.9280, 23947.00
384.1260, 24252.00
385.3230, 24171.00
386.5210, 24312.00
387.7180, 24668.00
388.9160, 24788.00
390.1130, 24963.00
391.3100, 25008.00
392.5060, 25360.00
393.7030, 25535.00
394.9000, 25603.00
396.0960, 25808.00
397.2920, 25862.00
398.4880, 26080.00
399.6840, 26253.00
400.8800, 26438.00
402.0750, 26693.00
403.2710, 26721.00
404.4660, 27049.00
405.6610, 27228.00
406.8560, 27765.00
408.0510, 27862.00
409.2450, 28386.00
410.4400, 28614.00
411.6340, 28984.00
412.8280, 29348.00
414.0220, 29765.00
415.2160, 30389.00
416.4100, 30532.00
417.6030, 30997.00
418.7970, 31098.00
419.9900, 31346.00
421.1830, 31513.00
422.3760, 31526.00
423.5690, 31661.00
424.7610, 31584.00
425.9540, 31544.00
427.1460, 31505.00
428.3380, 31515.00
429.5300, 31129.00
430.7220, 31239.00
431.9140, 31029.00
433.1050, 30960.00
434.2970, 31102.00
435.4880, 31142.08
436.6790, 31257.00
437.8700, 31605.00
439.0610, 31900.00
440.2510, 32366.00
441.4420, 32652.00
442.6320, 33363.00
443.8220, 33878.00
445.0120, 34630.00
446.2020, 35418.00
447.3910, 36107.00
448.5810, 37183.00
449.7700, 37853.00
450.9600, 39023.00
452.1490, 40098.00
453.3370, 41353.00
454.5260, 42445.00
455.7150, 43432.00
456.9030, 44572.00
458.0910, 45762.00
459.2800, 46960.00
460.4670, 48187.00
461.6550, 49355.00
462.8430, 50221.00
464.0300, 51054.00
465.2180, 51996.00
466.4050, 52675.00
467.5920, 53190.00
468.7790, 53931.00
469.9650, 54444.00
471.1520, 54948.00
472.3380, 55420.00
473.5250, 55906.00
474.7110, 56030.00
475.8970, 56351.00
477.0820, 56210.00
478.2680, 56057.00
479.4540, 55945.00
480.6390, 55248.00
481.8240, 55130.00
483.0090, 54160.00
484.1940, 53379.00
485.3780, 52315.00
486.5630, 51142.00
487.7470, 49564.00
488.9320, 48334.00
490.1160, 46665.00
491.3000, 45340.00
492.4830, 43576.00
493.6670, 42127.00
494.8500, 40487.00
496.0340, 39251.00
497.2170, 37817.00
498.4000, 36670.00
499.5820, 35551.00
500.7650, 34457.00
501.9480, 33561.00
503.1300, 32917.00
504.3120, 31889.00
505.4940, 31677.00
506.6760, 30820.00
507.8580, 30547.00
509.0390, 30268.00
510.2210, 29779.00
511.4020, 29618.00
512.5830, 29193.00
513.7640, 28726.00
514.9450, 28818.00
516.1250, 28554.00
517.3060, 28413.00
518.4860, 28132.00
519.6660, 27932.00
520.8460, 27920.00
522.0260, 27841.00
523.2060, 27709.00
524.3850, 27551.00
525.5650, 27473.00
526.7440, 27367.00
527.9230, 27286.00
529.1020, 27070.52
530.2810, 26822.00
531.4590, 26641.00
532.6380, 26400.00
533.8160, 26247.00
534.9940, 25996.00
536.1720, 25919.00
537.3500, 25737.66
538.5270, 25622.85
539.7050, 25530.00
540.8820, 25467.00
542.0590, 25528.00
543.2360, 25559.00
544.4130, 25114.00
545.5900, 25350.00
546.7660, 25072.00
547.9430, 25254.00
549.1190, 25053.00
550.2950, 24732.00
551.4710, 24932.00
552.6470, 24942.00
553.8220, 24762.00
554.9980, 24634.00
556.1730, 24829.00
557.3480, 24630.00
558.5230, 24728.00
559.6980, 24708.00
560.8730, 24505.00
562.0470, 24554.00
563.2220, 24603.00
564.3960, 24741.00
565.5700, 24609.00
566.7440, 24380.00
567.9170, 24731.00
569.0910, 24368.00
570.2640, 24407.00
571.4380, 24653.00
572.6110, 24574.00
573.7840, 24514.00
574.9570, 24543.00
576.1290, 24610.00
577.3020, 24616.00
578.4740, 24676.34
579.6460, 24631.00
580.8180, 24779.00
581.9900, 24630.00
583.1620, 24672.00
584.3330, 24539.00
585.5040, 24728.00
586.6760, 24795.00
587.8470, 24705.00
589.0180, 24628.00
590.1880, 24752.00
591.3590, 24608.00
592.5290, 24582.00
593.7000, 24788.00
594.8700, 24748.00
596.0400, 24858.00
597.2090, 24701.00
598.3790, 24663.00
599.5490, 24787.00
600.7180, 24947.00
601.8870, 25078.00
603.0560, 24741.00
604.2250, 24852.00
605.3940, 25009.00
606.5620, 25052.00
607.7300, 25157.00
608.8990, 25185.59
610.0670, 25151.00
611.2350, 25213.00
612.4020, 25293.00
613.5700, 25321.00
614.7370, 25228.00
615.9050, 25380.00
617.0720, 25278.00
618.2390, 25264.00
619.4060, 25577.00
620.5720, 25571.00
621.7390, 25579.00
622.9050, 25457.00
624.0710, 25873.00
625.2370, 25863.00
626.4030, 25912.00
627.5690, 25950.00
628.7340, 25819.00
629.9000, 26117.00
631.0650, 25950.00
632.2300, 26042.00
633.3950, 26292.00
634.5600, 25968.00
635.7240, 26123.00
636.8890, 26002.00
638.0530, 26109.00
639.2170, 26016.00
640.3810, 26090.00
641.5450, 25926.00
642.7080, 26187.00
643.8720, 26024.00
645.0350, 26066.00
646.1980, 26174.00
647.3610, 26077.00
648.5240, 26175.06
649.6870, 26155.01
650.8490, 26228.00
652.0120, 26154.00
653.1740, 26100.00
654.3360, 26121.00
655.4980, 26021.00
656.6600, 26029.00
657.8210, 26100.00
658.9830, 26036.00
660.1440, 26206.00
661.3050, 26029.00
662.4660, 26205.00
663.6270, 26032.00
664.7870, 26133.00
665.9480, 25858.00
667.1080, 26066.00
668.2680, 25994.00
669.4280, 26236.00
670.5880, 26108.00
671.7480, 26200.00
672.9070, 26208.00
674.0670, 26121.00
675.2260, 26202.00
676.3850, 26168.53
677.5440, 26156.00
678.7030, 26183.00
679.8610, 26271.00
681.0200, 26300.00
682.1780, 26182.00
683.3360, 26119.00
684.4940, 25971.00
685.6520, 26217.00
686.8090, 26214.00
687.9670, 26376.00
689.1240, 26229.00
690.2810, 26254.00
691.4380, 26442.00
692.5950, 26412.00
693.7520, 26233.00
694.9080, 26422.00
696.0650, 26526.00
697.2210, 26730.00
698.3770, 26480.00
699.5330, 26362.00
700.6880, 26614.00
701.8440, 26512.00
702.9990, 26582.00
704.1550, 26645.00
705.3100, 26678.00
706.4650, 26814.00
707.6190, 26884.00
708.7740, 26994.00
709.9290, 26927.47
711.0830, 27225.00
712.2370, 26924.00
713.3910, 26815.00
714.5450, 27194.00
715.6980, 27200.00
716.8520, 27124.00
718.0050, 27040.00
719.1580, 26951.00
720.3110, 27427.00
721.4640, 27370.00
722.6170, 27535.00
723.7700, 27651.00
724.9220, 27596.00
726.0740, 27470.00
727.2260, 27418.00
728.3780, 27426.00
729.5300, 27575.00
730.6810, 27522.00
731.8330, 27682.00
732.9840, 27844.00
734.1350, 27524.00
735.2860, 27697.00
736.4370, 27654.00
737.5880, 27849.00
738.7380, 27804.00
739.8880, 28097.00
741.0390, 28070.00
742.1890, 28035.00
743.3380, 28189.00
744.4880, 28181.00
745.6380, 28273.00
746.7870, 28415.00
747.9360, 28410.59
749.0850, 28510.04
750.2340, 28443.00
751.3830, 28600.00
752.5310, 28545.00
753.6800, 28531.00
754.8280, 28712.00
755.9760, 28649.00
757.1240, 28943.00
758.2720, 28815.00
759.4190, 29064.00
760.5670, 28927.00
761.7140, 28895.00
762.8610, 29034.00
764.0080, 28689.00
765.1550, 28890.00
766.3020, 28960.00
767.4480, 28913.00
768.5950, 28943.00
769.7410, 28904.00
770.8870, 28870.00
772.0330, 28764.00
773.1780, 28701.00
774.3240, 28586.00
775.4690, 28704.00
776.6140, 28598.00
777.7590, 28429.00
778.9040, 28618.00
780.0490, 28481.00
781.1940, 28371.00
782.3380, 28594.00
783.4820, 28533.00
784.6260, 28293.00
785.7700, 28349.00
786.9140, 28345.00
788.0580, 28345.00
789.2010, 28254.00
790.3450, 28228.00
791.4880, 28115.00
792.6310, 28178.00
793.7730, 27924.00
794.9160, 28179.00
796.0590, 28069.00
797.2010, 28168.00
798.3430, 27997.00
799.4850, 28090.00
800.6270, 27987.00
801.7690, 28098.00
802.9100, 28100.00
804.0520, 28051.00
805.1930, 28017.00
806.3340, 28027.00
807.4750, 28059.00
808.6160, 28050.00
809.7560, 28168.00
810.8970, 28049.00
812.0370, 28186.00
813.1770, 28090.00
814.3170, 28086.00
815.4570, 27957.00
816.5960, 27941.00
817.7360, 27937.09
818.8750, 28036.00
820.0140, 27991.00
821.1530, 28138.00
822.2920, 28240.00
823.4310, 28226.00
824.5690, 28233.00
825.7070, 28203.00
826.8460, 28216.00
827.9840, 28382.00
829.1220, 28232.00
830.2590, 28219.00
831.3970, 28194.00
832.5340, 28442.00
833.6710, 28316.00
834.8080, 28508.00
835.9450, 28397.00
837.0820, 28475.00
838.2190, 28690.00
839.3550, 28612.00
840.4910, 28481.00
841.6270, 28566.00
842.7630, 28749.00
843.8990, 28508.00
845.0350, 28772.00
846.1700, 28659.00
847.3060, 29103.00
848.4410, 28736.00
849.5760, 28933.00
850.7100, 28952.00
851.8450, 28819.00
852.9800, 28913.00
854.1140, 28789.00
855.2480, 28687.00
856.3820, 28870.00
857.5160, 29113.00
858.6500, 28666.00
859.7830, 29197.00
860.9170, 28876.00
862.0500, 28958.00
863.1830, 29043.00
864.3160, 29050.00
865.4480, 29185.00
866.5810, 29292.00
867.7130, 29437.00
868.8460, 29437.30
869.9780, 29144.00
871.1100, 29414.00
872.2410, 29196.00
873.3730, 29153.00
874.5050, 29207.00
875.6360, 29442.00
876.7670, 29420.00
877.8980, 29193.00
879.0290, 29358.00
880.1590, 29237.00
881.2900, 29579.00
882.4200, 29497.00
883.5500, 29525.00
884.6800, 29490.00
885.8100, 29576.00
886.9400, 29618.00
888.0690, 29570.00
889.1990, 29746.00
890.3280, 29645.00
891.4570, 29625.00
892.5860, 29699.00
893.7140, 29797.00
894.8430, 29811.00
895.9710, 29750.00
897.1000, 29558.00
898.2280, 29769.00
899.3560, 29982.00
900.4830, 29710.00
901.6110, 29945.00
902.7380, 29884.00
903.8660, 29778.00
904.9930, 29969.00
906.1200, 29956.00
907.2460, 30002.00
908.3730, 30003.00
909.5000, 30088.00
910.6260, 30099.00
911.7520, 29935.00
912.8780, 30165.00
914.0040, 30228.00
915.1290, 30454.00
916.2550, 30326.00
917.3800, 30299.00
918.5050, 30462.00
919.6300, 30404.00
920.7550, 30367.00
921.8800, 30423.00
923.0040, 30271.00
924.1290, 30681.00
925.2530, 30507.00
926.3770, 30469.00
927.5010, 30537.00
928.6250, 30439.95
929.7480, 30620.00
930.8720, 30516.00
931.9950, 30492.00
933.1180, 30778.00
934.2410, 30689.00
935.3640, 30822.00
936.4860, 30780.00
937.6090, 30892.00
938.7310, 30901.00
939.8530, 30882.00
940.9750, 30991.17
942.0970, 31147.00
943.2180, 31134.00
944.3400, 31226.00
945.4610, 31274.00
946.5820, 31359.00
947.7030, 31385.00
948.8240, 31483.06
949.9450, 31529.00
951.0650, 31686.00
952.1860, 31674.00
953.3060, 31814.97
954.4260, 31796.67
955.5460, 31892.00
956.6650, 31777.00
957.7850, 31787.00
958.9040, 31818.00
960.0230, 31817.00
961.1420, 31865.00
962.2610, 32090.00
963.3800, 32050.00
964.4990, 32288.00
965.6170, 32229.00
966.7350, 32193.00
967.8530, 32114.00
968.9710, 32415.00
970.0890, 32310.00
971.2070, 32167.00
972.3240, 32480.00
973.4410, 32367.00
974.5580, 32587.00
975.6750, 32496.00
976.7920, 32680.00
977.9090, 32628.00
979.0250, 32812.00
980.1410, 32733.00
981.2580, 32990.00
982.3740, 33042.00
983.4890, 33056.92
984.6050, 32987.00
985.7200, 33127.00
986.8360, 33181.00
987.9510, 33281.40
989.0660, 33101.00
990.1810, 33239.00
991.2950, 33366.00
992.4100, 33153.00
993.5240, 33375.00
994.6390, 33414.00
995.7530, 33322.00
996.8660, 33424.00
997.9800, 33558.00
999.0940, 33684.00
1000.207, 33863.00
1001.320, 33718.00
1002.433, 34087.00
1003.546, 33860.00
1004.659, 33864.00
1005.772, 34088.00
1006.884, 34051.00
1007.996, 33893.00
1009.108, 33934.00
1010.220, 33969.77
1011.332, 34016.39
1012.444, 34113.00
1013.555, 34297.00
1014.666, 34282.00
1015.777, 34534.00
1016.888, 34653.00
1017.999, 34698.00
1019.110, 34590.00
1020.220, 34882.00
1021.331, 34712.00
1022.441, 34947.00
1023.551, 35106.00
1024.661, 35273.00
1025.770, 35110.00
1026.880, 35425.00
1027.989, 35120.00
1029.098, 35523.00
1030.207, 35469.00
1031.316, 35625.00
1032.425, 35687.00
1033.533, 35787.00
1034.642, 35875.25
1035.750, 35948.35
1036.858, 36034.00
1037.966, 36132.00
1039.073, 36235.00
1040.181, 36388.00
1041.288, 36247.00
1042.396, 36331.00
1043.503, 36398.00
1044.610, 36333.00
1045.716, 36552.00
1046.823, 36497.00
1047.929, 36518.00
1049.036, 36550.00
1050.142, 36485.00
1051.248, 36603.00
1052.353, 36615.00
1053.459, 36747.00
1054.564, 36654.00
1055.670, 36684.00
1056.775, 36656.00
1057.880, 36875.00
1058.985, 36971.00
1060.089, 37037.73
1061.194, 37231.00
1062.298, 37269.00
1063.402, 37260.00
1064.506, 37502.00
1065.610, 37463.00
1066.713, 37642.00
1067.817, 37548.00
1068.920, 37766.00
1070.023, 37785.00
1071.126, 37813.00
1072.229, 37961.00
1073.332, 37955.00
1074.435, 38236.00
1075.537, 38002.00
1076.639, 38245.00
1077.741, 38219.00
1078.843, 38133.00
1079.945, 38662.00
1081.046, 38438.00
1082.148, 38538.00
1083.249, 38611.00
1084.350, 38688.00
1085.451, 38982.00
1086.551, 38745.00
1087.652, 38569.00
1088.752, 38711.00
1089.853, 38435.00
1090.953, 38451.00
1092.053, 38706.00
1093.152, 38614.00
1094.252, 38791.00
1095.351, 38744.00
1096.451, 38828.00
1097.550, 38781.00
1098.649, 38763.33
1099.748, 38744.98
1100.846, 38684.00
1101.945, 38592.00
1103.043, 38529.00
1104.141, 38495.39
1105.239, 38485.34
1106.337, 38466.00
1107.434, 38536.00
1108.532, 38577.00
1109.629, 38639.00
1110.726, 38464.00
1111.823, 38090.00
1112.920, 38341.00
1114.017, 38315.00
1115.113, 38174.00
1116.210, 38524.00
1117.306, 38432.00
1118.402, 38349.00
1119.498, 38217.00
1120.593, 38164.00
1121.689, 38101.00
1122.784, 38157.00
1123.879, 38171.00
1124.974, 38182.00
1126.069, 38150.00
1127.164, 37937.00
1128.259, 38132.00
1129.353, 38101.00
1130.447, 37800.00
1131.541, 38194.00
1132.635, 38047.00
1133.729, 37782.00
1134.822, 37933.00
1135.916, 37913.00
1137.009, 37898.00
1138.102, 37720.00
1139.195, 37714.00
1140.288, 37675.00
1141.380, 37698.00
1142.473, 37620.00
1143.565, 37622.00
1144.657, 37372.00
1145.749, 37277.00
1146.841, 37196.66
1147.932, 37480.00
1149.024, 37078.00
1150.115, 37233.00
1151.206, 37306.00
1152.297, 37198.00
1153.388, 37258.00
1154.479, 37034.00
1155.569, 37118.00
1156.659, 36853.00
1157.750, 36794.00
1158.839, 37088.00
1159.929, 36963.00
1161.019, 37278.00
1162.108, 36854.00
1163.198, 36780.00
1164.287, 36755.00
1165.376, 36894.00
1166.465, 36895.00
1167.553, 36824.00
1168.642, 36882.00
1169.730, 36649.00
1170.818, 36811.00
1171.906, 36686.00
1172.994, 36765.00
1174.082, 36810.00
1175.170, 36642.00
1176.257, 36896.00
1177.344, 36613.00
1178.431, 36790.00
1179.518, 36715.00
1180.605, 36648.00
1181.691, 36465.00
1182.778, 36382.00
1183.864, 36570.00
1184.950, 36700.00
1186.036, 36691.00
1187.122, 36732.00
1188.207, 36640.00
1189.292, 36525.00
1190.378, 36565.93
1191.463, 36683.00
1192.548, 36580.00
1193.632, 36797.00
1194.717, 36831.00
1195.801, 36768.00
1196.886, 36706.00
1197.970, 36761.00
1199.054, 36694.00
1200.137, 36880.00
1201.221, 36716.00
1202.305, 36854.00
1203.388, 36681.00
1204.471, 36846.00
1205.554, 36905.00
1206.637, 36779.00
1207.719, 36970.00
1208.802, 36907.00
1209.884, 37052.00
1210.966, 36955.00
1212.048, 37216.00
1213.130, 37132.00
1214.212, 36843.00
1215.293, 37206.00
1216.374, 37112.00
1217.456, 37001.00
1218.536, 37213.00
1219.617, 37255.00
1220.698, 37114.00
1221.778, 37226.00
1222.859, 37374.00
1223.939, 37231.00
1225.019, 37040.00
1226.099, 37437.00
1227.178, 37296.00
1228.258, 37207.00
1229.337, 37408.00
1230.417, 37609.00
1231.496, 37367.00
1232.574, 37307.00
1233.653, 37520.00
1234.732, 37500.00
1235.810, 37518.00
1236.888, 37575.00
1237.966, 37487.00
1239.044, 37476.00
1240.122, 37556.00
1241.199, 37463.00
1242.277, 37704.00
1243.354, 37641.00
1244.431, 37582.00
1245.508, 37530.00
1246.585, 37827.00
1247.661, 37698.00
1248.738, 37684.00
1249.814, 37810.00
1250.890, 37493.00
1251.966, 37782.00
1253.042, 37654.00
1254.117, 37905.00
1255.193, 37905.00
1256.268, 37783.00
1257.343, 37885.00
1258.418, 37777.00
1259.493, 37901.00
1260.567, 37943.00
1261.642, 38194.00
1262.716, 37988.00
1263.790, 37980.00
1264.864, 37891.00
1265.938, 38201.00
1267.011, 38287.00
1268.085, 38454.00
1269.158, 38413.16
1270.231, 38464.65
1271.304, 38400.27
1272.377, 38452.00
1273.450, 38162.00
1274.522, 38161.00
1275.594, 37979.00
1276.666, 38400.00
1277.738, 38082.00
1278.810, 38389.00
1279.882, 38190.00
1280.953, 38183.00
1282.025, 38488.00
1283.096, 38294.00
1284.167, 38368.00
1285.238, 38575.00
1286.308, 38551.00
1287.379, 38357.00
1288.449, 38642.00
1289.519, 38414.00
1290.589, 38466.00
1291.659, 38688.00
1292.729, 38661.00
1293.798, 38899.00
1294.868, 38794.00
1295.937, 38734.00
1297.006, 39031.00
1298.075, 38914.00
1299.143, 38673.00
1300.212, 38837.00
1301.280, 38917.00
1302.348, 39113.00
1303.416, 38901.00
1304.484, 38878.00
1305.552, 39338.00
1306.620, 39068.00
1307.687, 39167.00
1308.754, 39068.00
1309.821, 39201.00
1310.888, 39280.00
1311.955, 39122.00
1313.021, 39128.00
1314.088, 39144.00
1315.154, 39173.00
1316.220, 39534.00
1317.286, 39274.00
1318.352, 39498.00
1319.417, 39616.00
1320.483, 39430.00
1321.548, 39437.00
1322.613, 39470.04
1323.678, 39410.00
1324.743, 39521.00
1325.807, 39559.00
1326.872, 39562.00
1327.936, 39616.77
1329.000, 39583.00
1330.064, 39674.00
1331.128, 39455.00
1332.191, 39502.00
1333.255, 39685.00
1334.318, 39493.00
1335.381, 39771.00
1336.444, 39619.00
1337.507, 39860.00
1338.569, 39858.00
1339.632, 39987.00
1340.694, 39983.00
1341.756, 39856.00
1342.818, 39693.00
1343.880, 39970.00
1344.941, 39816.00
1346.003, 39987.00
1347.064, 40100.00
1348.125, 39988.00
1349.186, 39809.00
1350.247, 39970.00
1351.308, 40090.00
1352.368, 40055.00
1353.428, 40267.00
1354.489, 40218.00
1355.549, 40256.00
1356.608, 40376.00
1357.668, 40074.00
1358.727, 40206.00
1359.787, 40209.00
1360.846, 40409.00
1361.905, 40520.00
1362.964, 40500.00
1364.022, 40550.00
1365.081, 40783.00
1366.139, 40658.00
1367.197, 40652.66
1368.255, 40444.00
1369.313, 40476.00
1370.371, 40434.00
1371.428, 40431.00
1372.486, 40722.00
1373.543, 40693.00
1374.600, 40444.00
1375.657, 40737.00
1376.713, 40479.00
1377.770, 40662.00
1378.826, 40809.00
1379.882, 40911.00
1380.938, 40815.00
1381.994, 40753.00
1383.050, 40914.00
1384.106, 40734.00
1385.161, 40918.00
1386.216, 40757.00
1387.271, 40751.00
1388.326, 40954.00
1389.381, 40785.00
1390.435, 40987.00
1391.490, 41006.00
1392.544, 40951.00
1393.598, 41078.00
1394.652, 41074.00
1395.705, 41114.47
1396.759, 41028.00
1397.812, 41145.00
1398.866, 41128.00
1399.919, 41025.00
1400.972, 41136.00
1402.024, 40964.00
1403.077, 41366.00
1404.129, 41364.00
1405.181, 41480.00
1406.233, 41317.00
1407.285, 41405.00
1408.337, 41463.00
1409.389, 41625.00
1410.440, 41400.00
1411.491, 41463.00
1412.542, 41561.00
1413.593, 41583.00
1414.644, 41608.00
1415.695, 41729.00
1416.745, 41491.00
1417.795, 41602.00
1418.845, 41403.00
1419.895, 41752.00
1420.945, 41508.00
1421.995, 41837.00
1423.044, 41533.00
1424.093, 41694.00
1425.142, 41752.00
1426.191, 41792.00
1427.240, 41842.29
1428.289, 42093.00
1429.337, 41813.00
