##NAMES=Phillipsite-Ca
##RRUFFID=R050078
##IDEAL CHEMISTRY=Ca_3_(Si_10_Al_6_)O_32_&#183;12H_2_O
##LOCALITY=Grant County, Oregon, USA
##OWNER=RRUFF
##SOURCE=Rock Currier
##DESCRIPTION=White tabular hexagonal
##STATUS=The identification of this mineral has been confirmed by X-ray diffraction and chemical analysis
##URL=rruff.info/R050078
##MEASURED CHEMISTRY=(Ca_0.90_K_0.75_[box]_0.25_Na_0.10_)_Σ=2_(Si_5.35_Al_2.65_)_Σ=8_O_16_·6H_2_O
##PIN_ID=L00386
##ORIENTATION=Laser parallel to a* (1 0 0). Fiducial mark perpendicular to laser is parallel to b [0 1 0]
273.2760, 22769.00
274.4880, 22437.00
275.7000, 22939.00
276.9120, 22853.00
278.1230, 22790.00
279.3340, 22652.00
280.5450, 22709.00
281.7560, 22522.00
282.9670, 22894.00
284.1780, 22671.00
285.3880, 22650.00
286.5980, 22742.00
287.8090, 22572.00
289.0190, 22678.00
290.2290, 22750.00
291.4380, 22662.00
292.6480, 22755.00
293.8570, 22802.00
295.0670, 22665.00
296.2760, 22609.00
297.4850, 22684.00
298.6930, 22849.00
299.9020, 22656.00
301.1110, 22854.00
302.3190, 22904.00
303.5270, 22867.00
304.7350, 22885.00
305.9430, 22719.00
307.1510, 22941.00
308.3580, 22939.00
309.5660, 22870.00
310.7730, 23057.00
311.9800, 23111.00
313.1870, 22982.00
314.3940, 23009.00
315.6010, 22916.00
316.8070, 23084.00
318.0130, 23219.00
319.2200, 23084.00
320.4260, 23231.00
321.6310, 23128.00
322.8370, 23289.00
324.0430, 23350.00
325.2480, 23319.00
326.4540, 23335.00
327.6590, 23273.00
328.8640, 23346.00
330.0680, 23264.19
331.2730, 23104.00
332.4780, 23162.00
333.6820, 23151.00
334.8860, 23143.72
336.0900, 23199.32
337.2940, 23171.99
338.4980, 23263.00
339.7010, 23204.00
340.9050, 23182.00
342.1080, 23288.00
343.3110, 23360.00
344.5140, 23155.00
345.7170, 23224.00
346.9200, 23213.00
348.1220, 23165.00
349.3240, 23210.00
350.5270, 23401.00
351.7290, 23415.00
352.9310, 23496.00
354.1320, 23499.85
355.3340, 23357.00
356.5350, 23500.00
357.7370, 23387.00
358.9380, 23516.00
360.1390, 23459.00
361.3400, 23473.00
362.5400, 23796.00
363.7410, 23673.00
364.9410, 23756.00
366.1410, 23776.00
367.3410, 23820.00
368.5410, 23881.00
369.7410, 23992.00
370.9400, 24124.00
372.1400, 24018.00
373.3390, 24348.00
374.5380, 24171.00
375.7370, 24436.00
376.9360, 24468.00
378.1350, 24624.00
379.3330, 24917.00
380.5310, 24852.00
381.7300, 25058.00
382.9280, 25191.00
384.1260, 25277.00
385.3230, 25578.00
386.5210, 25681.00
387.7180, 25851.00
388.9160, 25950.00
390.1130, 26051.00
391.3100, 26258.69
392.5060, 26639.00
393.7030, 26685.00
394.9000, 26910.00
396.0960, 27188.00
397.2920, 27253.00
398.4880, 27427.00
399.6840, 27770.00
400.8800, 27636.00
402.0750, 27970.00
403.2710, 28303.00
404.4660, 28333.00
405.6610, 28925.00
406.8560, 28959.00
408.0510, 29358.00
409.2450, 29610.00
410.4400, 29976.00
411.6340, 30483.00
412.8280, 30525.00
414.0220, 31062.00
415.2160, 31662.00
416.4100, 31652.00
417.6030, 32021.00
418.7970, 32405.00
419.9900, 32643.00
421.1830, 32615.00
422.3760, 32746.00
423.5690, 32772.00
424.7610, 32973.00
425.9540, 32683.00
427.1460, 32850.00
428.3380, 32819.00
429.5300, 32603.00
430.7220, 32686.00
431.9140, 32536.00
433.1050, 32671.00
434.2970, 32513.00
435.4880, 32640.00
436.6790, 32970.00
437.8700, 33115.00
439.0610, 33297.00
440.2510, 33672.00
441.4420, 34553.00
442.6320, 34622.00
443.8220, 35650.00
445.0120, 36605.00
446.2020, 37113.00
447.3910, 38002.00
448.5810, 39141.00
449.7700, 40073.00
450.9600, 41033.00
452.1490, 42109.00
453.3370, 43159.00
454.5260, 44490.00
455.7150, 45657.00
456.9030, 47094.00
458.0910, 48461.00
459.2800, 49101.00
460.4670, 50443.00
461.6550, 51726.00
462.8430, 52775.00
464.0300, 54079.00
465.2180, 55426.00
466.4050, 56348.00
467.5920, 56993.00
468.7790, 56287.00
469.9650, 57146.00
471.1520, 57538.00
472.3380, 57660.00
473.5250, 58045.00
474.7110, 57974.00
475.8970, 58401.00
477.0820, 58459.00
478.2680, 58669.00
479.4540, 58090.00
480.6390, 57470.00
481.8240, 56897.00
483.0090, 56055.39
484.1940, 55127.85
485.3780, 54127.00
486.5630, 52943.00
487.7470, 51531.00
488.9320, 50253.00
490.1160, 48704.00
491.3000, 47279.00
492.4830, 45640.00
493.6670, 44121.00
494.8500, 42612.00
496.0340, 41243.64
497.2170, 39870.00
498.4000, 38694.00
499.5820, 37603.00
500.7650, 36478.00
501.9480, 35736.00
503.1300, 34764.00
504.3120, 33714.00
505.4940, 33423.00
506.6760, 32768.00
507.8580, 32045.00
509.0390, 31664.00
510.2210, 31432.00
511.4020, 30995.00
512.5830, 30744.00
513.7640, 30480.00
514.9450, 29990.00
516.1250, 29973.00
517.3060, 29893.00
518.4860, 29619.00
519.6660, 29349.00
520.8460, 29434.00
522.0260, 29514.00
523.2060, 29100.00
524.3850, 29093.00
525.5650, 28844.00
526.7440, 28871.00
527.9230, 28798.00
529.1020, 28582.00
530.2810, 28504.00
531.4590, 28483.00
532.6380, 28334.00
533.8160, 28293.96
534.9940, 28143.00
536.1720, 28108.00
537.3500, 27894.00
538.5270, 27694.00
539.7050, 27718.00
540.8820, 27618.00
542.0590, 27570.00
543.2360, 27474.00
544.4130, 27609.00
545.5900, 27084.00
546.7660, 27315.00
547.9430, 27026.00
549.1190, 27270.00
550.2950, 27111.00
551.4710, 27010.00
552.6470, 27082.00
553.8220, 27043.00
554.9980, 26872.00
556.1730, 26750.00
557.3480, 26834.00
558.5230, 26932.00
559.6980, 26783.00
560.8730, 26729.00
562.0470, 26787.00
563.2220, 26755.00
564.3960, 26807.00
565.5700, 26732.00
566.7440, 26811.00
567.9170, 26688.00
569.0910, 26721.72
570.2640, 26880.00
571.4380, 26767.00
572.6110, 26784.00
573.7840, 26885.00
574.9570, 26820.96
576.1290, 26840.11
577.3020, 26808.00
578.4740, 26806.00
579.6460, 26771.00
580.8180, 26784.00
581.9900, 26795.43
583.1620, 26750.00
584.3330, 26871.00
585.5040, 26878.00
586.6760, 26973.00
587.8470, 26990.00
589.0180, 26967.31
590.1880, 26954.00
591.3590, 26964.00
592.5290, 26949.00
593.7000, 26930.63
594.8700, 26951.54
596.0400, 26888.00
597.2090, 27010.00
598.3790, 27010.00
599.5490, 27095.00
600.7180, 27076.56
601.8870, 26963.00
603.0560, 27026.00
604.2250, 27105.00
605.3940, 27109.00
606.5620, 27209.00
607.7300, 27371.00
608.8990, 27580.00
610.0670, 27501.00
611.2350, 27425.00
612.4020, 27260.00
613.5700, 27648.00
614.7370, 27556.00
615.9050, 27257.00
617.0720, 27628.00
618.2390, 27613.00
619.4060, 27701.00
620.5720, 27687.00
621.7390, 27725.31
622.9050, 27855.00
624.0710, 27827.00
625.2370, 27784.00
626.4030, 27924.00
627.5690, 28130.00
628.7340, 27938.00
629.9000, 28117.00
631.0650, 28145.00
632.2300, 28200.00
633.3950, 28183.00
634.5600, 28242.00
635.7240, 28204.28
636.8890, 28248.00
638.0530, 28107.00
639.2170, 28235.00
640.3810, 28147.00
641.5450, 28229.00
642.7080, 28455.00
643.8720, 28281.00
645.0350, 28367.00
646.1980, 28197.00
647.3610, 28326.00
648.5240, 28352.00
649.6870, 28221.00
650.8490, 28477.00
652.0120, 28152.00
653.1740, 28407.00
654.3360, 28395.00
655.4980, 28380.00
656.6600, 28426.00
657.8210, 28468.00
658.9830, 28359.00
660.1440, 28342.00
661.3050, 28541.00
662.4660, 28415.00
663.6270, 28443.00
664.7870, 28639.00
665.9480, 28506.00
667.1080, 28390.00
668.2680, 28271.00
669.4280, 28158.00
670.5880, 28628.00
671.7480, 28355.00
672.9070, 28406.00
674.0670, 28746.00
675.2260, 28426.00
676.3850, 28747.00
677.5440, 28555.00
678.7030, 28419.00
679.8610, 28645.00
681.0200, 28435.00
682.1780, 28654.00
683.3360, 28584.00
684.4940, 28776.00
685.6520, 28472.00
686.8090, 28539.00
687.9670, 28543.00
689.1240, 28782.00
690.2810, 28869.00
691.4380, 28707.00
692.5950, 28696.00
693.7520, 28707.00
694.9080, 28733.36
696.0650, 28827.83
697.2210, 28882.00
698.3770, 29043.00
699.5330, 29058.00
700.6880, 29112.00
701.8440, 28959.00
702.9990, 29127.00
704.1550, 29173.00
705.3100, 29196.00
706.4650, 29284.00
707.6190, 29361.00
708.7740, 29477.00
709.9290, 29420.00
711.0830, 29326.00
712.2370, 29407.00
713.3910, 29528.00
714.5450, 29444.00
715.6980, 29711.00
716.8520, 29786.34
718.0050, 29753.97
719.1580, 30085.00
720.3110, 29754.00
721.4640, 29829.00
722.6170, 29941.00
723.7700, 29725.00
724.9220, 29704.00
726.0740, 29979.00
727.2260, 29801.00
728.3780, 30008.00
729.5300, 29830.00
730.6810, 30007.00
731.8330, 30042.00
732.9840, 30124.00
734.1350, 30009.00
735.2860, 30311.00
736.4370, 29944.00
737.5880, 30289.00
738.7380, 29967.00
739.8880, 30290.00
741.0390, 30377.00
742.1890, 30450.00
743.3380, 30374.00
744.4880, 30425.00
745.6380, 30506.00
746.7870, 30683.00
747.9360, 30459.00
749.0850, 30745.00
750.2340, 30562.00
751.3830, 30779.00
752.5310, 30641.00
753.6800, 30785.00
754.8280, 30815.00
755.9760, 30929.00
757.1240, 31042.00
758.2720, 30955.00
759.4190, 31029.00
760.5670, 30945.00
761.7140, 31266.00
762.8610, 30956.00
764.0080, 31108.00
765.1550, 31154.00
766.3020, 30943.00
767.4480, 31044.00
768.5950, 31028.00
769.7410, 31136.00
770.8870, 30999.00
772.0330, 30983.00
773.1780, 30943.00
774.3240, 30966.00
775.4690, 30880.00
776.6140, 30864.32
777.7590, 30866.00
778.9040, 30784.00
780.0490, 30653.00
781.1940, 30604.00
782.3380, 30770.00
783.4820, 30883.00
784.6260, 30832.00
785.7700, 30815.00
786.9140, 30644.00
788.0580, 30486.00
789.2010, 30809.00
790.3450, 30801.00
791.4880, 30611.00
792.6310, 30727.00
793.7730, 30723.00
794.9160, 30569.00
796.0590, 30797.00
797.2010, 30438.00
798.3430, 30858.00
799.4850, 30795.00
800.6270, 30791.00
801.7690, 30730.00
802.9100, 30532.00
804.0520, 30660.00
805.1930, 30548.00
806.3340, 30739.00
807.4750, 30779.00
808.6160, 30798.00
809.7560, 30741.00
810.8970, 30793.00
812.0370, 30742.56
813.1770, 30698.00
814.3170, 30683.00
815.4570, 30698.00
816.5960, 30693.00
817.7360, 30664.25
818.8750, 30695.00
820.0140, 30677.00
821.1530, 30843.00
822.2920, 31029.00
823.4310, 30869.00
824.5690, 31030.00
825.7070, 30800.00
826.8460, 31007.00
827.9840, 31033.00
829.1220, 30934.00
830.2590, 31248.00
831.3970, 31037.00
832.5340, 31329.00
833.6710, 31016.00
834.8080, 31315.00
835.9450, 31411.00
837.0820, 31144.00
838.2190, 31222.00
839.3550, 31261.00
840.4910, 31201.00
841.6270, 31267.00
842.7630, 31268.00
843.8990, 31372.00
845.0350, 31502.00
846.1700, 31563.00
847.3060, 31525.00
848.4410, 31584.00
849.5760, 31789.00
850.7100, 31379.00
851.8450, 31644.00
852.9800, 31519.00
854.1140, 31702.00
855.2480, 31624.00
856.3820, 31740.00
857.5160, 31782.00
858.6500, 31709.00
859.7830, 31845.00
860.9170, 31660.00
862.0500, 31893.00
863.1830, 31896.00
864.3160, 32081.00
865.4480, 32215.00
866.5810, 32053.00
867.7130, 31982.00
868.8460, 32114.00
869.9780, 32036.00
871.1100, 32080.00
872.2410, 32005.00
873.3730, 32258.00
874.5050, 32209.00
875.6360, 32313.00
876.7670, 32062.00
877.8980, 32198.00
879.0290, 32199.00
880.1590, 32258.00
881.2900, 32329.00
882.4200, 32311.25
883.5500, 32270.00
884.6800, 32332.00
885.8100, 32215.00
886.9400, 32276.00
888.0690, 32404.00
889.1990, 32301.00
890.3280, 32589.00
891.4570, 32261.00
892.5860, 32446.00
893.7140, 32595.00
894.8430, 32288.00
895.9710, 32738.00
897.1000, 32461.00
898.2280, 32681.00
899.3560, 32484.00
900.4830, 32967.00
901.6110, 32940.00
902.7380, 32747.00
903.8660, 32790.00
904.9930, 32925.00
906.1200, 32923.00
907.2460, 32786.00
908.3730, 32945.00
909.5000, 32997.00
910.6260, 32921.00
911.7520, 33075.00
912.8780, 33026.00
914.0040, 33138.00
915.1290, 33137.00
916.2550, 33281.00
917.3800, 33233.00
918.5050, 33285.00
919.6300, 33370.00
920.7550, 33310.00
921.8800, 33416.00
923.0040, 33175.00
924.1290, 33314.00
925.2530, 33341.00
926.3770, 33507.00
927.5010, 33441.00
928.6250, 33494.00
929.7480, 33517.00
930.8720, 33325.00
931.9950, 33690.00
933.1180, 33653.00
934.2410, 33609.00
935.3640, 33844.00
936.4860, 33817.00
937.6090, 33951.00
938.7310, 33950.00
939.8530, 34180.00
940.9750, 33942.00
942.0970, 34104.00
943.2180, 34195.00
944.3400, 34059.00
945.4610, 34214.00
946.5820, 34219.00
947.7030, 34187.00
948.8240, 34305.00
949.9450, 34579.00
951.0650, 34319.00
952.1860, 34737.00
953.3060, 34591.00
954.4260, 34586.00
955.5460, 34819.00
956.6650, 34785.00
957.7850, 34932.00
958.9040, 34853.00
960.0230, 35201.00
961.1420, 34971.00
962.2610, 35134.00
963.3800, 35169.00
964.4990, 34984.00
965.6170, 35113.00
966.7350, 35289.00
967.8530, 35100.00
968.9710, 35279.00
970.0890, 35186.00
971.2070, 35600.00
972.3240, 35502.00
973.4410, 35507.00
974.5580, 35527.00
975.6750, 35637.00
976.7920, 35632.00
977.9090, 35783.00
979.0250, 35825.00
980.1410, 35936.00
981.2580, 35818.00
982.3740, 35959.00
983.4890, 35906.00
984.6050, 35983.00
985.7200, 36040.00
986.8360, 36103.00
987.9510, 36190.96
989.0660, 36237.45
990.1810, 36341.00
991.2950, 36360.00
992.4100, 36376.00
993.5240, 36458.00
994.6390, 36513.00
995.7530, 36651.00
996.8660, 36702.00
997.9800, 36793.39
999.0940, 36851.71
1000.207, 36896.00
1001.320, 36963.00
1002.433, 36886.00
1003.546, 36976.00
1004.659, 37024.00
1005.772, 36884.00
1006.884, 37038.00
1007.996, 37106.00
1009.108, 37348.00
1010.220, 37027.00
1011.332, 37409.00
1012.444, 37151.00
1013.555, 37296.00
1014.666, 37358.00
1015.777, 37349.00
1016.888, 37342.00
1017.999, 37582.00
1019.110, 37191.00
1020.220, 37585.00
1021.331, 37985.00
1022.441, 37776.00
1023.551, 38275.00
1024.661, 38084.00
1025.770, 37836.00
1026.880, 38264.00
1027.989, 38333.00
1029.098, 38278.00
1030.207, 38108.00
1031.316, 38318.00
1032.425, 38332.00
1033.533, 38455.00
1034.642, 38657.00
1035.750, 38744.00
1036.858, 38699.00
1037.966, 38847.00
1039.073, 38990.00
1040.181, 38991.11
1041.288, 38826.00
1042.396, 39095.00
1043.503, 38943.00
1044.610, 39008.00
1045.716, 39034.00
1046.823, 39192.00
1047.929, 39259.00
1049.036, 39283.00
1050.142, 39338.11
1051.248, 39583.00
1052.353, 39378.00
1053.459, 39518.00
1054.564, 39603.00
1055.670, 39462.00
1056.775, 39897.00
1057.880, 39900.00
1058.985, 39946.14
1060.089, 40007.00
1061.194, 40047.00
1062.298, 40137.00
1063.402, 40284.00
1064.506, 40392.00
1065.610, 40461.00
1066.713, 40828.00
1067.817, 40764.00
1068.920, 40801.00
1070.023, 41210.00
1071.126, 40990.00
1072.229, 41135.00
1073.332, 41022.00
1074.435, 41096.00
1075.537, 41271.00
1076.639, 41319.00
1077.741, 41342.00
1078.843, 41312.00
1079.945, 41716.00
1081.046, 41624.00
1082.148, 41632.00
1083.249, 42021.00
1084.350, 41829.00
1085.451, 41878.00
1086.551, 41660.00
1087.652, 41791.00
1088.752, 41966.00
1089.853, 41804.00
1090.953, 41896.00
1092.053, 41699.00
1093.152, 41696.00
1094.252, 41897.00
1095.351, 41768.00
1096.451, 41839.00
1097.550, 42006.00
1098.649, 41991.00
1099.748, 41669.00
1100.846, 41785.00
1101.945, 41668.00
1103.043, 41850.00
1104.141, 41834.00
1105.239, 41773.00
1106.337, 41756.00
1107.434, 41924.00
1108.532, 41781.00
1109.629, 41769.00
1110.726, 41382.00
1111.823, 41631.00
1112.920, 41518.00
1114.017, 41791.00
1115.113, 41490.00
1116.210, 41408.00
1117.306, 41752.00
1118.402, 41424.00
1119.498, 41462.00
1120.593, 41402.00
1121.689, 41694.00
1122.784, 41444.00
1123.879, 41350.00
1124.974, 41530.00
1126.069, 41500.00
1127.164, 41464.00
1128.259, 41372.00
1129.353, 41330.00
1130.447, 41280.00
1131.541, 41334.00
1132.635, 41046.00
1133.729, 41179.00
1134.822, 41302.00
1135.916, 41181.00
1137.009, 40994.00
1138.102, 40942.00
1139.195, 41210.00
1140.288, 40940.00
1141.380, 41068.00
1142.473, 40848.00
1143.565, 40907.00
1144.657, 40821.00
1145.749, 40601.00
1146.841, 40713.00
1147.932, 41005.00
1149.024, 40627.00
1150.115, 40870.00
1151.206, 40786.00
1152.297, 40867.00
1153.388, 40609.00
1154.479, 40437.00
1155.569, 40729.00
1156.659, 40229.00
1157.750, 40530.00
1158.839, 40500.00
1159.929, 40440.00
1161.019, 40175.00
1162.108, 40191.00
1163.198, 40360.00
1164.287, 40416.00
1165.376, 40359.00
1166.465, 40297.00
1167.553, 40421.00
1168.642, 40371.00
1169.730, 40382.00
1170.818, 40337.00
1171.906, 40164.00
1172.994, 40310.00
1174.082, 40151.00
1175.170, 40205.00
1176.257, 40234.00
1177.344, 39979.00
1178.431, 40082.00
1179.518, 40046.00
1180.605, 40195.00
1181.691, 40196.00
1182.778, 40273.00
1183.864, 40295.00
1184.950, 40162.00
1186.036, 40136.00
1187.122, 40141.90
1188.207, 40310.00
1189.292, 40142.00
1190.378, 40268.00
1191.463, 40229.00
1192.548, 40118.00
1193.632, 40104.00
1194.717, 40295.00
1195.801, 40317.00
1196.886, 40219.00
1197.970, 40009.00
1199.054, 40219.00
1200.137, 40200.00
1201.221, 40284.00
1202.305, 40143.00
1203.388, 40212.01
1204.471, 40161.00
1205.554, 40299.00
1206.637, 40379.00
1207.719, 40536.00
1208.802, 40547.73
1209.884, 40613.00
1210.966, 40538.00
1212.048, 40553.00
1213.130, 40475.00
1214.212, 40392.00
1215.293, 40531.00
1216.374, 40811.00
1217.456, 40838.00
1218.536, 40568.00
1219.617, 40872.00
1220.698, 40638.00
1221.778, 40613.00
1222.859, 40847.00
1223.939, 40674.00
1225.019, 40882.00
1226.099, 41038.00
1227.178, 41061.00
1228.258, 40923.00
1229.337, 40939.00
1230.417, 40912.00
1231.496, 40895.00
1232.574, 40704.00
1233.653, 41151.00
1234.732, 41167.00
1235.810, 40891.00
1236.888, 41085.00
1237.966, 41006.00
1239.044, 41009.00
1240.122, 41317.00
1241.199, 41098.00
1242.277, 41344.00
1243.354, 41194.00
1244.431, 41357.00
1245.508, 41164.00
1246.585, 41264.00
1247.661, 41085.00
1248.738, 41629.00
1249.814, 41248.00
1250.890, 41628.00
1251.966, 41509.00
1253.042, 41542.00
1254.117, 41295.00
1255.193, 41448.00
1256.268, 41454.00
1257.343, 41500.00
1258.418, 41577.13
1259.493, 41725.00
1260.567, 41650.00
1261.642, 41655.00
1262.716, 41621.00
1263.790, 41552.09
1264.864, 41588.65
1265.938, 41528.00
1267.011, 41651.00
1268.085, 41886.00
1269.158, 41985.00
1270.231, 41924.00
1271.304, 41809.00
1272.377, 41900.00
1273.450, 41847.68
1274.522, 42010.00
1275.594, 41887.00
1276.666, 41895.00
1277.738, 41939.00
1278.810, 41870.00
1279.882, 41976.00
1280.953, 41841.00
1282.025, 42027.00
1283.096, 42061.00
1284.167, 42041.90
1285.238, 42156.00
1286.308, 42035.00
1287.379, 42286.00
1288.449, 42264.00
1289.519, 42374.00
1290.589, 42221.00
1291.659, 42559.00
1292.729, 42420.00
1293.798, 42448.00
1294.868, 42644.00
1295.937, 42540.00
1297.006, 42788.00
1298.075, 42730.00
1299.143, 42555.00
1300.212, 42683.00
1301.280, 42534.00
1302.348, 42974.00
1303.416, 42708.00
1304.484, 42956.00
1305.552, 42718.00
1306.620, 42882.00
1307.687, 42812.00
1308.754, 42863.00
1309.821, 42825.00
1310.888, 42842.00
1311.955, 42898.94
1313.021, 43054.00
1314.088, 42943.00
1315.154, 43170.00
1316.220, 43045.00
1317.286, 42898.00
1318.352, 42992.00
1319.417, 43190.00
1320.483, 43301.00
1321.548, 43403.00
1322.613, 43430.00
1323.678, 43191.00
1324.743, 43370.00
1325.807, 43154.00
1326.872, 43359.00
1327.936, 43464.00
1329.000, 43501.00
1330.064, 43581.00
1331.128, 43756.00
1332.191, 43265.00
1333.255, 43515.00
1334.318, 43473.00
1335.381, 43718.00
1336.444, 43531.00
1337.507, 43586.00
1338.569, 43648.00
1339.632, 43770.00
1340.694, 43892.00
1341.756, 43684.00
1342.818, 43556.00
1343.880, 43839.00
1344.941, 43668.00
1346.003, 43827.00
1347.064, 43848.00
1348.125, 43918.00
1349.186, 44020.00
1350.247, 43899.00
1351.308, 43803.00
1352.368, 44151.00
1353.428, 43887.00
1354.489, 44050.00
1355.549, 44240.00
1356.608, 44131.00
1357.668, 44026.00
1358.727, 44197.00
1359.787, 44182.00
1360.846, 44458.00
1361.905, 44418.00
1362.964, 44051.00
1364.022, 44265.00
1365.081, 44185.00
1366.139, 44276.00
1367.197, 44206.00
1368.255, 44564.00
1369.313, 44417.00
1370.371, 44302.00
1371.428, 44247.00
1372.486, 44590.00
1373.543, 44437.00
1374.600, 44726.00
1375.657, 44561.00
1376.713, 44799.00
1377.770, 44596.00
1378.826, 44564.00
1379.882, 44726.00
1380.938, 44626.00
1381.994, 44778.00
1383.050, 45084.00
1384.106, 44830.00
1385.161, 44781.00
1386.216, 44907.00
1387.271, 44784.00
1388.326, 44886.00
1389.381, 44966.00
1390.435, 44874.00
1391.490, 44795.00
1392.544, 44884.00
1393.598, 44828.00
1394.652, 44933.00
1395.705, 44942.00
1396.759, 45048.00
1397.812, 45099.00
1398.866, 45315.00
1399.919, 45140.00
1400.972, 44937.00
1402.024, 45326.00
1403.077, 44882.00
1404.129, 45480.00
1405.181, 45185.00
1406.233, 45164.00
1407.285, 45332.00
1408.337, 45155.00
1409.389, 45416.00
1410.440, 45412.00
1411.491, 45236.00
1412.542, 45286.00
1413.593, 45454.00
1414.644, 45808.00
1415.695, 45798.00
1416.745, 45604.00
1417.795, 45615.00
1418.845, 45530.00
1419.895, 45755.00
1420.945, 45448.00
1421.995, 45990.00
1423.044, 45627.00
1424.093, 45927.00
1425.142, 45676.00
1426.191, 45812.00
1427.240, 45728.00
1428.289, 46016.00
1429.337, 45892.00
