##NAMES=Phillipsite-Ca
##RRUFFID=R050078
##IDEAL CHEMISTRY=Ca_3_(Si_10_Al_6_)O_32_&#183;12H_2_O
##LOCALITY=Grant County, Oregon, USA
##OWNER=RRUFF
##SOURCE=Rock Currier
##DESCRIPTION=White tabular hexagonal
##STATUS=The identification of this mineral has been confirmed by X-ray diffraction and chemical analysis
##URL=rruff.info/R050078
##MEASURED CHEMISTRY=(Ca_0.90_K_0.75_[box]_0.25_Na_0.10_)_Σ=2_(Si_5.35_Al_2.65_)_Σ=8_O_16_·6H_2_O
##PIN_ID=L01141
##ORIENTATION=Laser parallel to (1 0 1). Fiducial mark perpendicular to laser is parallel to -b [0 -1 0]
273.2760, 25185.00
274.4880, 25236.00
275.7000, 25472.00
276.9120, 25406.00
278.1230, 25326.00
279.3340, 25319.00
280.5450, 25311.00
281.7560, 25449.00
282.9670, 25205.00
284.1780, 25365.00
285.3880, 25026.00
286.5980, 25130.00
287.8090, 25178.00
289.0190, 25025.00
290.2290, 25282.00
291.4380, 25250.00
292.6480, 25272.00
293.8570, 25054.00
295.0670, 24943.00
296.2760, 25189.00
297.4850, 25175.00
298.6930, 24944.00
299.9020, 25007.00
301.1110, 24986.00
302.3190, 24992.00
303.5270, 25038.00
304.7350, 25106.00
305.9430, 25099.00
307.1510, 25103.00
308.3580, 25151.42
309.5660, 24972.00
310.7730, 25228.00
311.9800, 25293.00
313.1870, 25350.00
314.3940, 25100.00
315.6010, 25375.00
316.8070, 25350.00
318.0130, 25243.00
319.2200, 25460.00
320.4260, 25463.00
321.6310, 25272.00
322.8370, 25489.00
324.0430, 25360.00
325.2480, 25375.00
326.4540, 25548.00
327.6590, 25325.00
328.8640, 25270.00
330.0680, 25549.00
331.2730, 25324.00
332.4780, 25221.00
333.6820, 25179.00
334.8860, 25253.00
336.0900, 25228.00
337.2940, 25289.00
338.4980, 25063.00
339.7010, 25322.00
340.9050, 25452.00
342.1080, 25244.00
343.3110, 25361.00
344.5140, 25420.00
345.7170, 25344.00
346.9200, 25414.00
348.1220, 25266.00
349.3240, 25242.00
350.5270, 25425.00
351.7290, 25297.00
352.9310, 25359.00
354.1320, 25417.00
355.3340, 25309.00
356.5350, 25402.00
357.7370, 25276.00
358.9380, 25383.00
360.1390, 25318.00
361.3400, 25468.00
362.5400, 25522.00
363.7410, 25557.00
364.9410, 25628.00
366.1410, 25568.00
367.3410, 25787.00
368.5410, 25812.00
369.7410, 25899.00
370.9400, 26170.00
372.1400, 26082.00
373.3390, 26044.00
374.5380, 26176.00
375.7370, 26128.00
376.9360, 26212.00
378.1350, 26593.00
379.3330, 26550.00
380.5310, 26753.00
381.7300, 26891.00
382.9280, 26738.00
384.1260, 27109.00
385.3230, 27163.00
386.5210, 27234.00
387.7180, 27484.00
388.9160, 27890.00
390.1130, 27595.00
391.3100, 27972.00
392.5060, 27927.00
393.7030, 28276.00
394.9000, 28537.00
396.0960, 28486.00
397.2920, 28652.00
398.4880, 28830.00
399.6840, 29013.00
400.8800, 29242.00
402.0750, 29505.00
403.2710, 29622.00
404.4660, 29971.23
405.6610, 29945.00
406.8560, 30537.00
408.0510, 30715.00
409.2450, 30838.00
410.4400, 31101.00
411.6340, 31562.00
412.8280, 31789.00
414.0220, 32296.00
415.2160, 32818.00
416.4100, 33070.00
417.6030, 33241.00
418.7970, 33472.00
419.9900, 33645.97
421.1830, 33687.00
422.3760, 33958.00
423.5690, 33926.00
424.7610, 34007.00
425.9540, 33782.00
427.1460, 33406.00
428.3380, 33357.00
429.5300, 33158.60
430.7220, 33010.00
431.9140, 32979.00
433.1050, 32941.00
434.2970, 32923.00
435.4880, 32965.00
436.6790, 33033.64
437.8700, 33156.00
439.0610, 33320.00
440.2510, 33361.00
441.4420, 33647.00
442.6320, 34000.00
443.8220, 34429.00
445.0120, 34883.00
446.2020, 35492.00
447.3910, 36112.67
448.5810, 36752.58
449.7700, 37540.00
450.9600, 38257.00
452.1490, 38998.00
453.3370, 39978.00
454.5260, 40460.00
455.7150, 41731.00
456.9030, 42636.00
458.0910, 43740.00
459.2800, 44395.00
460.4670, 45432.00
461.6550, 46518.00
462.8430, 47144.00
464.0300, 47843.00
465.2180, 48994.00
466.4050, 49510.00
467.5920, 50328.00
468.7790, 50807.00
469.9650, 51478.00
471.1520, 52667.00
472.3380, 52698.00
473.5250, 53560.00
474.7110, 53721.00
475.8970, 53746.00
477.0820, 54301.00
478.2680, 54308.00
479.4540, 54424.00
480.6390, 54483.00
481.8240, 54295.00
483.0090, 54262.00
484.1940, 53696.00
485.3780, 53158.00
486.5630, 52018.00
487.7470, 51049.00
488.9320, 49768.00
490.1160, 48653.00
491.3000, 47698.00
492.4830, 45839.00
493.6670, 44726.00
494.8500, 43564.00
496.0340, 41846.00
497.2170, 40716.00
498.4000, 39732.00
499.5820, 38608.00
500.7650, 37440.00
501.9480, 36425.00
503.1300, 35605.00
504.3120, 35412.00
505.4940, 34465.00
506.6760, 33966.00
507.8580, 33237.00
509.0390, 33057.00
510.2210, 32534.00
511.4020, 32230.00
512.5830, 32122.00
513.7640, 31710.00
514.9450, 31390.00
516.1250, 31275.00
517.3060, 31275.00
518.4860, 31217.00
519.6660, 31110.00
520.8460, 30730.00
522.0260, 30853.00
523.2060, 30699.00
524.3850, 30657.00
525.5650, 30834.00
526.7440, 30635.16
527.9230, 30504.00
529.1020, 30356.00
530.2810, 30182.00
531.4590, 29868.00
532.6380, 29841.00
533.8160, 30049.00
534.9940, 29648.00
536.1720, 29682.00
537.3500, 29333.00
538.5270, 29247.00
539.7050, 29580.00
540.8820, 29365.00
542.0590, 29359.00
543.2360, 29115.00
544.4130, 28832.00
545.5900, 29149.00
546.7660, 29071.00
547.9430, 28942.00
549.1190, 28864.00
550.2950, 28895.00
551.4710, 28950.00
552.6470, 28861.00
553.8220, 28991.00
554.9980, 28734.00
556.1730, 28750.00
557.3480, 28756.00
558.5230, 28836.00
559.6980, 28897.00
560.8730, 28364.00
562.0470, 28860.00
563.2220, 28610.00
564.3960, 28619.00
565.5700, 28764.00
566.7440, 28556.00
567.9170, 28510.00
569.0910, 28548.00
570.2640, 28709.00
571.4380, 28671.00
572.6110, 28731.00
573.7840, 28717.00
574.9570, 28787.00
576.1290, 28540.00
577.3020, 28769.00
578.4740, 28920.00
579.6460, 28555.00
580.8180, 28808.00
581.9900, 28717.00
583.1620, 28691.00
584.3330, 29079.00
585.5040, 28972.00
586.6760, 28934.00
587.8470, 29133.00
589.0180, 28977.00
590.1880, 28973.00
591.3590, 29037.00
592.5290, 29118.00
593.7000, 29025.00
594.8700, 29260.00
596.0400, 29229.00
597.2090, 29352.00
598.3790, 29373.00
599.5490, 29307.00
600.7180, 29560.00
601.8870, 29241.00
603.0560, 29615.00
604.2250, 29553.00
605.3940, 29429.00
606.5620, 29523.00
607.7300, 29480.00
608.8990, 29767.00
610.0670, 29234.00
611.2350, 29400.00
612.4020, 29599.00
613.5700, 29477.00
614.7370, 29762.00
615.9050, 29770.00
617.0720, 30162.00
618.2390, 29922.00
619.4060, 29938.00
620.5720, 30220.00
621.7390, 30629.00
622.9050, 30343.00
624.0710, 30790.00
625.2370, 30988.00
626.4030, 30709.00
627.5690, 30896.00
628.7340, 30672.24
629.9000, 30752.00
631.0650, 30264.00
632.2300, 30139.00
633.3950, 29938.00
634.5600, 29988.00
635.7240, 30017.00
636.8890, 30092.00
638.0530, 30161.36
639.2170, 30272.00
640.3810, 30363.00
641.5450, 30439.00
642.7080, 30505.76
643.8720, 30627.00
645.0350, 30622.00
646.1980, 30721.00
647.3610, 30811.00
648.5240, 30784.00
649.6870, 30961.00
650.8490, 30847.00
652.0120, 30976.00
653.1740, 30648.00
654.3360, 30672.00
655.4980, 30649.00
656.6600, 30508.00
657.8210, 30394.00
658.9830, 30418.00
660.1440, 30188.00
661.3050, 30340.00
662.4660, 30178.00
663.6270, 30238.00
664.7870, 30083.00
665.9480, 30338.00
667.1080, 30287.00
668.2680, 30166.00
669.4280, 30125.00
670.5880, 29961.00
671.7480, 30129.00
672.9070, 30083.00
674.0670, 30004.00
675.2260, 30174.00
676.3850, 29854.00
677.5440, 30346.00
678.7030, 30113.00
679.8610, 29979.00
681.0200, 30353.00
682.1780, 30214.00
683.3360, 30344.00
684.4940, 30219.00
685.6520, 30139.00
686.8090, 30287.00
687.9670, 30194.00
689.1240, 30407.00
690.2810, 30348.07
691.4380, 30406.00
692.5950, 30310.00
693.7520, 30319.00
694.9080, 30314.00
696.0650, 30462.00
697.2210, 30531.00
698.3770, 30535.00
699.5330, 30497.00
700.6880, 30630.00
701.8440, 30536.00
702.9990, 30681.00
704.1550, 30674.00
705.3100, 30740.00
706.4650, 30728.00
707.6190, 30933.00
708.7740, 30799.00
709.9290, 31029.00
711.0830, 30862.00
712.2370, 30958.00
713.3910, 30921.00
714.5450, 30949.00
715.6980, 31015.00
716.8520, 31241.00
718.0050, 31139.00
719.1580, 30993.00
720.3110, 31161.00
721.4640, 31528.00
722.6170, 31257.00
723.7700, 31374.00
724.9220, 31158.00
726.0740, 31411.00
727.2260, 31671.00
728.3780, 31737.00
729.5300, 31638.00
730.6810, 31631.00
731.8330, 31328.00
732.9840, 31764.00
734.1350, 31727.00
735.2860, 32010.00
736.4370, 31851.00
737.5880, 31913.00
738.7380, 31728.00
739.8880, 31721.00
741.0390, 31798.00
742.1890, 31845.00
743.3380, 31974.00
744.4880, 32026.65
745.6380, 32042.00
746.7870, 32176.70
747.9360, 32196.00
749.0850, 32272.00
750.2340, 32341.00
751.3830, 32398.00
752.5310, 32457.00
753.6800, 32413.00
754.8280, 32389.00
755.9760, 32614.00
757.1240, 32642.00
758.2720, 32778.00
759.4190, 32816.00
760.5670, 32809.00
761.7140, 32935.00
762.8610, 32978.00
764.0080, 33085.00
765.1550, 33198.00
766.3020, 33062.00
767.4480, 32979.00
768.5950, 33400.00
769.7410, 33154.00
770.8870, 33038.00
772.0330, 32813.00
773.1780, 33036.00
774.3240, 32783.00
775.4690, 33047.00
776.6140, 33087.00
777.7590, 33087.00
778.9040, 33089.00
780.0490, 33111.00
781.1940, 32921.00
782.3380, 32783.00
783.4820, 32996.00
784.6260, 33076.00
785.7700, 32949.00
786.9140, 32766.00
788.0580, 32711.00
789.2010, 32905.00
790.3450, 32770.00
791.4880, 33072.00
792.6310, 32748.00
793.7730, 32793.00
794.9160, 32856.00
796.0590, 32664.00
797.2010, 33147.00
798.3430, 32708.00
799.4850, 32884.00
800.6270, 33160.00
801.7690, 33005.00
802.9100, 32854.00
804.0520, 32880.00
805.1930, 32841.50
806.3340, 32894.00
807.4750, 32938.00
808.6160, 32931.00
809.7560, 32999.32
810.8970, 32928.00
812.0370, 32948.00
813.1770, 32812.00
814.3170, 32814.00
815.4570, 33091.00
816.5960, 32985.00
817.7360, 33058.00
818.8750, 33038.00
820.0140, 33035.00
821.1530, 33085.00
822.2920, 33148.71
823.4310, 33052.00
824.5690, 33299.00
825.7070, 33508.00
826.8460, 33497.00
827.9840, 33387.00
829.1220, 33327.00
830.2590, 33466.00
831.3970, 33268.00
832.5340, 33388.00
833.6710, 33492.00
834.8080, 33361.00
835.9450, 33669.00
837.0820, 33551.00
838.2190, 33367.00
839.3550, 33561.00
840.4910, 33673.00
841.6270, 33834.00
842.7630, 33788.00
843.8990, 33931.00
845.0350, 33781.00
846.1700, 34471.00
847.3060, 34205.00
848.4410, 33977.00
849.5760, 34357.00
850.7100, 33984.00
851.8450, 34520.00
852.9800, 34429.00
854.1140, 34451.00
855.2480, 34607.00
856.3820, 34605.00
857.5160, 34778.00
858.6500, 35071.00
859.7830, 35125.00
860.9170, 34985.00
862.0500, 35131.00
863.1830, 35081.00
864.3160, 34860.00
865.4480, 34823.00
866.5810, 34865.00
867.7130, 34805.00
868.8460, 34792.00
869.9780, 34815.00
871.1100, 34734.00
872.2410, 34745.00
873.3730, 34679.00
874.5050, 34891.00
875.6360, 34779.00
876.7670, 34906.00
877.8980, 34768.00
879.0290, 34633.00
880.1590, 34835.00
881.2900, 34765.00
882.4200, 34652.00
883.5500, 34877.00
884.6800, 34914.00
885.8100, 34903.00
886.9400, 34831.00
888.0690, 35038.00
889.1990, 35141.00
890.3280, 35338.00
891.4570, 35124.00
892.5860, 35222.00
893.7140, 35108.00
894.8430, 35099.00
895.9710, 35149.00
897.1000, 35048.00
898.2280, 35125.00
899.3560, 35261.00
900.4830, 35163.00
901.6110, 35316.00
902.7380, 35297.00
903.8660, 35475.00
904.9930, 35494.00
906.1200, 35681.00
907.2460, 35617.00
908.3730, 35446.00
909.5000, 35589.00
910.6260, 35341.00
911.7520, 35339.00
912.8780, 35411.00
914.0040, 35427.00
915.1290, 35330.00
916.2550, 35394.00
917.3800, 35147.00
918.5050, 35442.00
919.6300, 35554.00
920.7550, 35329.00
921.8800, 35673.00
923.0040, 35449.00
924.1290, 35187.00
925.2530, 35747.00
926.3770, 35515.00
927.5010, 35657.00
928.6250, 35658.00
929.7480, 35685.00
930.8720, 35848.00
931.9950, 35767.00
933.1180, 35912.00
934.2410, 35830.00
935.3640, 35909.00
936.4860, 36020.00
937.6090, 35953.00
938.7310, 35899.00
939.8530, 36038.00
940.9750, 35969.95
942.0970, 36208.00
943.2180, 36042.00
944.3400, 36203.00
945.4610, 36381.00
946.5820, 36384.00
947.7030, 36321.00
948.8240, 36534.00
949.9450, 36327.00
951.0650, 36706.00
952.1860, 36709.00
953.3060, 36727.00
954.4260, 36874.00
955.5460, 36940.00
956.6650, 36891.00
957.7850, 36863.00
958.9040, 36929.71
960.0230, 36942.49
961.1420, 36991.00
962.2610, 37062.00
963.3800, 37008.00
964.4990, 37057.00
965.6170, 37084.00
966.7350, 36858.00
967.8530, 37251.00
968.9710, 37418.00
970.0890, 37486.00
971.2070, 37245.00
972.3240, 37630.00
973.4410, 37075.00
974.5580, 37269.00
975.6750, 37503.00
976.7920, 37602.00
977.9090, 37637.00
979.0250, 37779.05
980.1410, 37554.00
981.2580, 37889.00
982.3740, 37793.00
983.4890, 37731.00
984.6050, 38131.00
985.7200, 37872.00
986.8360, 38125.00
987.9510, 37977.00
989.0660, 38198.00
990.1810, 38265.00
991.2950, 38319.00
992.4100, 38108.00
993.5240, 38074.00
994.6390, 38249.00
995.7530, 38209.85
996.8660, 38730.00
997.9800, 38600.00
999.0940, 38815.00
1000.207, 39442.00
1001.320, 39559.00
1002.433, 39609.00
1003.546, 39391.00
1004.659, 39341.00
1005.772, 39132.00
1006.884, 38652.00
1007.996, 38818.00
1009.108, 39076.00
1010.220, 38783.00
1011.332, 39198.00
1012.444, 39066.00
1013.555, 39231.00
1014.666, 39311.00
1015.777, 39351.00
1016.888, 39531.00
1017.999, 39452.00
1019.110, 39548.00
1020.220, 39816.00
1021.331, 39958.00
1022.441, 39998.00
1023.551, 40324.00
1024.661, 39932.00
1025.770, 40140.00
1026.880, 40420.00
1027.989, 40132.00
1029.098, 40219.00
1030.207, 40441.00
1031.316, 40437.00
1032.425, 40464.00
1033.533, 40493.00
1034.642, 40695.00
1035.750, 40686.00
1036.858, 40802.00
1037.966, 40558.00
1039.073, 40792.00
1040.181, 40758.00
1041.288, 40885.00
1042.396, 40962.00
1043.503, 41242.00
1044.610, 41259.00
1045.716, 41124.00
1046.823, 41198.90
1047.929, 40993.00
1049.036, 41194.00
1050.142, 41036.00
1051.248, 41279.00
1052.353, 41417.00
1053.459, 41459.00
1054.564, 41597.54
1055.670, 41394.00
1056.775, 41640.00
1057.880, 41631.00
1058.985, 41445.00
1060.089, 41908.00
1061.194, 41640.00
1062.298, 41782.00
1063.402, 41952.00
1064.506, 42274.00
1065.610, 42130.00
1066.713, 42238.00
1067.817, 42260.00
1068.920, 42362.84
1070.023, 42506.71
1071.126, 42680.00
1072.229, 42840.00
1073.332, 43017.00
1074.435, 43211.00
1075.537, 43250.00
1076.639, 43158.00
1077.741, 43585.00
1078.843, 43778.00
1079.945, 43699.00
1081.046, 43958.00
1082.148, 43813.00
1083.249, 43955.00
1084.350, 44074.00
1085.451, 44035.19
1086.551, 44127.00
1087.652, 44051.00
1088.752, 43974.00
1089.853, 43898.00
1090.953, 44109.00
1092.053, 43695.00
1093.152, 44093.00
1094.252, 44081.00
1095.351, 43923.00
1096.451, 43798.00
1097.550, 43835.99
1098.649, 43664.00
1099.748, 43903.00
1100.846, 43798.00
1101.945, 43851.00
1103.043, 43959.00
1104.141, 43783.00
1105.239, 43977.00
1106.337, 43725.00
1107.434, 43747.00
1108.532, 43735.00
1109.629, 43811.00
1110.726, 43918.00
1111.823, 43799.00
1112.920, 43877.00
1114.017, 43961.00
1115.113, 43855.00
1116.210, 43948.00
1117.306, 43691.00
1118.402, 44182.00
1119.498, 43699.00
1120.593, 43981.00
1121.689, 43907.00
1122.784, 43797.00
1123.879, 44018.00
1124.974, 43864.00
1126.069, 43762.00
1127.164, 43942.00
1128.259, 43639.00
1129.353, 43695.00
1130.447, 43426.00
1131.541, 43578.00
1132.635, 43670.00
1133.729, 43424.00
1134.822, 43656.00
1135.916, 43558.00
1137.009, 43424.00
1138.102, 43305.00
1139.195, 43298.00
1140.288, 42998.00
1141.380, 43407.00
1142.473, 42865.00
1143.565, 43016.00
1144.657, 42990.00
1145.749, 42819.00
1146.841, 43184.00
1147.932, 43054.00
1149.024, 42473.00
1150.115, 42591.00
1151.206, 42701.00
1152.297, 42669.00
1153.388, 42702.44
1154.479, 42643.52
1155.569, 42615.00
1156.659, 42492.00
1157.750, 42388.00
1158.839, 42352.00
1159.929, 42462.00
1161.019, 42379.62
1162.108, 42409.00
1163.198, 42327.00
1164.287, 42488.00
1165.376, 42413.00
1166.465, 42503.00
1167.553, 42256.00
1168.642, 42168.00
1169.730, 42213.00
1170.818, 42107.00
1171.906, 42287.00
1172.994, 42356.00
1174.082, 42124.00
1175.170, 42261.00
1176.257, 41930.00
1177.344, 42061.00
1178.431, 42116.00
1179.518, 42228.00
1180.605, 42015.00
1181.691, 42141.00
1182.778, 41921.00
1183.864, 41924.00
1184.950, 42206.00
1186.036, 42002.00
1187.122, 42228.00
1188.207, 42244.00
1189.292, 41828.00
1190.378, 41898.00
1191.463, 41729.00
1192.548, 42025.00
1193.632, 42081.00
1194.717, 42062.00
1195.801, 42132.00
1196.886, 42108.00
1197.970, 41917.00
1199.054, 41865.00
1200.137, 41896.16
1201.221, 42034.00
1202.305, 42010.00
1203.388, 42126.00
1204.471, 42196.00
1205.554, 42088.00
1206.637, 42343.00
1207.719, 42245.00
1208.802, 42224.00
1209.884, 42120.00
1210.966, 42185.00
1212.048, 42334.00
1213.130, 42277.00
1214.212, 42330.00
1215.293, 42405.00
1216.374, 42671.00
1217.456, 42623.00
1218.536, 42722.00
1219.617, 42528.00
1220.698, 42738.00
1221.778, 42566.00
1222.859, 42571.00
1223.939, 42643.00
1225.019, 42604.00
1226.099, 42610.00
1227.178, 42676.00
1228.258, 42829.00
1229.337, 42834.00
1230.417, 42622.00
1231.496, 42798.00
1232.574, 42919.00
1233.653, 42966.00
1234.732, 43171.00
1235.810, 42973.00
1236.888, 43016.00
1237.966, 43205.00
1239.044, 43249.00
1240.122, 43104.00
1241.199, 43123.00
1242.277, 42891.00
1243.354, 43024.00
1244.431, 43011.00
1245.508, 43341.00
1246.585, 43109.00
1247.661, 43062.00
1248.738, 43343.00
1249.814, 43223.00
1250.890, 43189.00
1251.966, 43407.00
1253.042, 43465.00
1254.117, 43272.00
1255.193, 43224.00
1256.268, 43212.00
1257.343, 43356.00
1258.418, 43348.00
1259.493, 43352.00
1260.567, 43613.00
1261.642, 43532.00
1262.716, 43711.00
1263.790, 43771.00
1264.864, 43766.00
1265.938, 43931.00
1267.011, 43831.00
1268.085, 43813.00
1269.158, 44066.00
1270.231, 44047.00
1271.304, 44276.00
1272.377, 44316.00
1273.450, 44368.00
1274.522, 44302.00
1275.594, 44279.00
1276.666, 44452.00
1277.738, 44186.00
1278.810, 44048.00
1279.882, 44091.00
1280.953, 44241.00
1282.025, 44295.00
1283.096, 44319.14
1284.167, 44319.13
1285.238, 44307.00
1286.308, 44196.00
1287.379, 44118.00
1288.449, 44004.00
1289.519, 44124.00
1290.589, 44268.00
1291.659, 44451.00
1292.729, 44511.93
1293.798, 44621.00
1294.868, 44647.00
1295.937, 44664.00
1297.006, 44704.00
1298.075, 44644.00
1299.143, 44619.00
1300.212, 44455.00
1301.280, 44633.00
1302.348, 44752.00
1303.416, 44573.00
1304.484, 44871.00
1305.552, 44660.00
1306.620, 44728.00
1307.687, 44870.00
1308.754, 44997.00
1309.821, 44949.00
1310.888, 45192.00
1311.955, 45097.00
1313.021, 45285.00
1314.088, 45176.00
1315.154, 45339.00
1316.220, 45386.23
1317.286, 45619.00
1318.352, 45495.00
1319.417, 45467.00
1320.483, 45452.00
1321.548, 45410.00
1322.613, 45442.00
1323.678, 45482.00
1324.743, 45295.00
1325.807, 45120.00
1326.872, 45307.00
1327.936, 45135.99
1329.000, 45347.00
1330.064, 44959.00
1331.128, 45059.00
1332.191, 44742.00
1333.255, 44722.00
1334.318, 45187.00
1335.381, 44857.00
1336.444, 44892.00
1337.507, 44957.00
1338.569, 44927.00
1339.632, 45075.00
1340.694, 45200.00
1341.756, 45164.44
1342.818, 44903.00
1343.880, 45110.00
1344.941, 45099.00
1346.003, 44989.00
1347.064, 45354.00
1348.125, 44967.00
1349.186, 45277.00
1350.247, 45514.00
1351.308, 45075.00
1352.368, 45446.00
1353.428, 44969.00
1354.489, 45334.00
1355.549, 45169.00
1356.608, 45203.00
1357.668, 45064.00
1358.727, 45420.00
1359.787, 45292.00
1360.846, 45353.00
1361.905, 45494.00
1362.964, 45146.00
1364.022, 45412.00
1365.081, 45484.00
1366.139, 45353.00
1367.197, 45383.00
1368.255, 45305.00
1369.313, 45415.43
1370.371, 45839.00
1371.428, 45662.00
1372.486, 45678.00
1373.543, 45744.00
1374.600, 45444.00
1375.657, 45916.00
1376.713, 45747.00
1377.770, 45804.00
1378.826, 46107.00
1379.882, 46004.00
1380.938, 45858.00
1381.994, 46360.00
1383.050, 45882.00
1384.106, 46086.00
1385.161, 45906.00
1386.216, 45828.00
1387.271, 45940.00
1388.326, 45822.00
1389.381, 45903.97
1390.435, 46042.00
1391.490, 45980.00
1392.544, 46105.00
1393.598, 46070.00
1394.652, 46151.00
1395.705, 46010.00
1396.759, 46009.00
1397.812, 45936.00
1398.866, 46227.00
1399.919, 46295.00
1400.972, 46276.00
1402.024, 46160.00
1403.077, 46206.00
1404.129, 46298.00
1405.181, 46064.00
1406.233, 46303.00
1407.285, 46016.00
1408.337, 46411.00
1409.389, 46462.00
1410.440, 46209.00
1411.491, 46430.00
1412.542, 46328.00
1413.593, 46480.00
1414.644, 46575.00
1415.695, 46489.00
1416.745, 46446.00
1417.795, 46613.00
1418.845, 46561.00
1419.895, 46684.00
1420.945, 46700.00
1421.995, 46726.33
1423.044, 46785.19
1424.093, 46757.00
1425.142, 46798.00
1426.191, 46739.00
1427.240, 46626.00
1428.289, 46927.00
1429.337, 46700.00
