##NAMES=Phillipsite-Ca
##RRUFFID=R050078
##IDEAL CHEMISTRY=Ca_3_(Si_10_Al_6_)O_32_&#183;12H_2_O
##LOCALITY=Grant County, Oregon, USA
##OWNER=RRUFF
##SOURCE=Rock Currier
##DESCRIPTION=White tabular hexagonal
##STATUS=The identification of this mineral has been confirmed by X-ray diffraction and chemical analysis
##URL=rruff.info/R050078
##MEASURED CHEMISTRY=(Ca_0.90_K_0.75_[box]_0.25_Na_0.10_)_Σ=2_(Si_5.35_Al_2.65_)_Σ=8_O_16_·6H_2_O
##PIN_ID=L01141
##ORIENTATION=Laser parallel to (1 0 1). Fiducial mark perpendicular to laser is parallel to -b [0 -1 0]
273.2760, 23213.00
274.4880, 23077.00
275.7000, 23273.00
276.9120, 23014.00
278.1230, 23165.00
279.3340, 22805.00
280.5450, 23003.00
281.7560, 23170.00
282.9670, 22888.00
284.1780, 22644.00
285.3880, 22933.00
286.5980, 22865.00
287.8090, 22816.00
289.0190, 22950.00
290.2290, 22814.00
291.4380, 22678.00
292.6480, 22693.00
293.8570, 22781.00
295.0670, 22732.00
296.2760, 22573.00
297.4850, 22711.00
298.6930, 22639.00
299.9020, 22560.00
301.1110, 22640.00
302.3190, 22549.00
303.5270, 22624.00
304.7350, 22576.00
305.9430, 22629.92
307.1510, 22718.00
308.3580, 22733.00
309.5660, 22739.00
310.7730, 22745.00
311.9800, 22724.00
313.1870, 22775.00
314.3940, 22775.00
315.6010, 22835.00
316.8070, 22693.00
318.0130, 22997.00
319.2200, 22743.00
320.4260, 22980.00
321.6310, 22902.00
322.8370, 22904.00
324.0430, 22795.00
325.2480, 23043.00
326.4540, 23037.00
327.6590, 22764.00
328.8640, 22855.00
330.0680, 22698.00
331.2730, 22806.00
332.4780, 22722.00
333.6820, 22804.00
334.8860, 22729.00
336.0900, 22537.00
337.2940, 22606.00
338.4980, 22669.00
339.7010, 22393.00
340.9050, 22658.00
342.1080, 22649.00
343.3110, 22661.00
344.5140, 22622.00
345.7170, 22607.00
346.9200, 22468.00
348.1220, 22478.00
349.3240, 22497.00
350.5270, 22564.00
351.7290, 22485.00
352.9310, 22414.00
354.1320, 22500.00
355.3340, 22442.00
356.5350, 22510.00
357.7370, 22595.00
358.9380, 22722.00
360.1390, 22732.00
361.3400, 22752.00
362.5400, 22776.00
363.7410, 22989.00
364.9410, 22838.00
366.1410, 22820.00
367.3410, 23050.00
368.5410, 23046.00
369.7410, 23205.00
370.9400, 23185.00
372.1400, 23487.00
373.3390, 23394.00
374.5380, 23479.00
375.7370, 23467.00
376.9360, 23716.00
378.1350, 23701.00
379.3330, 23834.00
380.5310, 24009.00
381.7300, 24157.00
382.9280, 24250.35
384.1260, 24159.00
385.3230, 24449.00
386.5210, 24513.00
387.7180, 24663.00
388.9160, 25054.00
390.1130, 25085.00
391.3100, 25369.00
392.5060, 25355.00
393.7030, 25588.00
394.9000, 25861.00
396.0960, 25944.00
397.2920, 26190.00
398.4880, 26321.00
399.6840, 26512.00
400.8800, 26875.00
402.0750, 27073.00
403.2710, 27338.00
404.4660, 27687.00
405.6610, 27912.00
406.8560, 28059.00
408.0510, 28438.00
409.2450, 28901.00
410.4400, 29289.00
411.6340, 29880.00
412.8280, 30282.00
414.0220, 30449.00
415.2160, 31135.00
416.4100, 31488.00
417.6030, 31955.00
418.7970, 31884.00
419.9900, 32118.00
421.1830, 32468.00
422.3760, 32309.00
423.5690, 32425.00
424.7610, 32321.00
425.9540, 32129.00
427.1460, 31990.00
428.3380, 31860.00
429.5300, 31579.00
430.7220, 31293.00
431.9140, 31108.00
433.1050, 31100.00
434.2970, 30866.00
435.4880, 31136.00
436.6790, 31349.00
437.8700, 31394.00
439.0610, 31620.00
440.2510, 31787.00
441.4420, 32080.00
442.6320, 32454.00
443.8220, 32868.00
445.0120, 33275.00
446.2020, 34241.00
447.3910, 34847.00
448.5810, 35745.00
449.7700, 36428.00
450.9600, 37245.00
452.1490, 38398.00
453.3370, 39285.00
454.5260, 40299.00
455.7150, 41430.00
456.9030, 42526.00
458.0910, 43674.00
459.2800, 44915.00
460.4670, 46136.00
461.6550, 47220.73
462.8430, 48284.44
464.0300, 49313.00
465.2180, 50243.00
466.4050, 51094.00
467.5920, 52030.00
468.7790, 52769.00
469.9650, 53260.00
471.1520, 54098.00
472.3380, 54653.00
473.5250, 55450.00
474.7110, 55514.00
475.8970, 56035.00
477.0820, 56294.00
478.2680, 56981.00
479.4540, 56539.00
480.6390, 56278.00
481.8240, 56384.00
483.0090, 55702.00
484.1940, 55413.00
485.3780, 54490.00
486.5630, 53234.00
487.7470, 52405.00
488.9320, 50874.00
490.1160, 49309.00
491.3000, 47806.00
492.4830, 46199.00
493.6670, 44783.00
494.8500, 42542.00
496.0340, 41328.00
497.2170, 39324.00
498.4000, 37998.00
499.5820, 37029.00
500.7650, 35945.00
501.9480, 34655.00
503.1300, 33721.00
504.3120, 32712.00
505.4940, 31977.00
506.6760, 31376.00
507.8580, 30968.00
509.0390, 30384.00
510.2210, 29900.00
511.4020, 29544.03
512.5830, 29215.00
513.7640, 28909.00
514.9450, 28628.00
516.1250, 28450.00
517.3060, 28274.00
518.4860, 28048.00
519.6660, 28019.00
520.8460, 27651.00
522.0260, 27743.00
523.2060, 27724.00
524.3850, 27451.00
525.5650, 27402.00
526.7440, 27307.00
527.9230, 27050.00
529.1020, 27094.00
530.2810, 26919.00
531.4590, 26798.00
532.6380, 26679.00
533.8160, 26517.00
534.9940, 26316.00
536.1720, 26317.00
537.3500, 26210.00
538.5270, 26030.31
539.7050, 25982.00
540.8820, 25695.00
542.0590, 25596.00
543.2360, 25467.00
544.4130, 25615.00
545.5900, 25276.00
546.7660, 25347.00
547.9430, 25331.00
549.1190, 25103.00
550.2950, 25006.00
551.4710, 24929.00
552.6470, 25036.00
553.8220, 24850.00
554.9980, 25055.00
556.1730, 24837.00
557.3480, 24902.00
558.5230, 24912.00
559.6980, 24605.00
560.8730, 24756.00
562.0470, 24713.00
563.2220, 24753.00
564.3960, 24724.00
565.5700, 24468.00
566.7440, 24660.00
567.9170, 24273.00
569.0910, 24542.00
570.2640, 24429.00
571.4380, 24476.00
572.6110, 24769.00
573.7840, 24451.00
574.9570, 24570.00
576.1290, 24512.00
577.3020, 24438.00
578.4740, 24638.00
579.6460, 24745.00
580.8180, 24458.00
581.9900, 24760.00
583.1620, 24746.00
584.3330, 24699.00
585.5040, 24684.00
586.6760, 24694.00
587.8470, 24695.90
589.0180, 24690.26
590.1880, 24728.00
591.3590, 24691.00
592.5290, 24668.00
593.7000, 24678.00
594.8700, 24611.00
596.0400, 24846.00
597.2090, 24697.00
598.3790, 24852.00
599.5490, 24941.00
600.7180, 24971.00
601.8870, 24965.00
603.0560, 24961.00
604.2250, 24894.00
605.3940, 25037.00
606.5620, 24740.00
607.7300, 25126.00
608.8990, 25047.00
610.0670, 24896.00
611.2350, 24976.00
612.4020, 24860.44
613.5700, 25096.84
614.7370, 25239.44
615.9050, 25293.29
617.0720, 24992.57
618.2390, 25149.69
619.4060, 25123.33
620.5720, 25089.42
621.7390, 25310.99
622.9050, 25061.81
624.0710, 25279.30
625.2370, 25310.51
626.4030, 25426.98
627.5690, 25358.82
628.7340, 25347.67
629.9000, 25521.22
631.0650, 25592.49
632.2300, 25503.06
633.3950, 25624.93
634.5600, 25369.28
635.7240, 25307.00
636.8890, 25485.00
638.0530, 25439.00
639.2170, 25583.00
640.3810, 25367.00
641.5450, 25483.00
642.7080, 25540.00
643.8720, 25321.00
645.0350, 25442.00
646.1980, 25592.00
647.3610, 25813.00
648.5240, 25660.00
649.6870, 25751.00
650.8490, 25636.00
652.0120, 25850.00
653.1740, 25625.00
654.3360, 25757.00
655.4980, 25364.00
656.6600, 25506.00
657.8210, 25699.00
658.9830, 25536.00
660.1440, 25617.00
661.3050, 25728.00
662.4660, 25519.00
663.6270, 25537.00
664.7870, 25472.00
665.9480, 25628.00
667.1080, 25686.00
668.2680, 25549.00
669.4280, 25585.00
670.5880, 25681.00
671.7480, 25398.00
672.9070, 25698.00
674.0670, 25550.00
675.2260, 25499.00
676.3850, 25716.00
677.5440, 25640.00
678.7030, 25631.00
679.8610, 25652.00
681.0200, 25521.00
682.1780, 25709.00
683.3360, 25766.00
684.4940, 25774.00
685.6520, 25736.00
686.8090, 25600.00
687.9670, 25583.00
689.1240, 25755.00
690.2810, 25541.00
691.4380, 25826.00
692.5950, 25952.00
693.7520, 25720.00
694.9080, 25746.00
696.0650, 25790.00
697.2210, 25917.00
698.3770, 25809.00
699.5330, 26000.00
700.6880, 25959.00
701.8440, 26095.00
702.9990, 26007.00
704.1550, 25856.00
705.3100, 26009.00
706.4650, 25999.00
707.6190, 25997.00
708.7740, 26296.00
709.9290, 26278.00
711.0830, 26227.00
712.2370, 26233.00
713.3910, 26427.00
714.5450, 26365.00
715.6980, 26477.00
716.8520, 26614.00
718.0050, 26493.00
719.1580, 26579.00
720.3110, 26513.00
721.4640, 26427.00
722.6170, 26565.00
723.7700, 26613.00
724.9220, 26544.00
726.0740, 26552.00
727.2260, 26602.29
728.3780, 26611.00
729.5300, 26711.00
730.6810, 26742.00
731.8330, 26792.00
732.9840, 26787.00
734.1350, 26685.00
735.2860, 26764.00
736.4370, 26751.82
737.5880, 26813.23
738.7380, 26814.00
739.8880, 26987.00
741.0390, 27018.00
742.1890, 27105.00
743.3380, 27300.00
744.4880, 27094.00
745.6380, 27059.00
746.7870, 27287.00
747.9360, 27356.00
749.0850, 27309.00
750.2340, 27275.00
751.3830, 27386.27
752.5310, 27483.33
753.6800, 27445.00
754.8280, 27541.66
755.9760, 27566.00
757.1240, 27648.00
758.2720, 27632.00
759.4190, 27729.00
760.5670, 27818.00
761.7140, 28009.00
762.8610, 27914.00
764.0080, 27961.00
765.1550, 28011.00
766.3020, 27980.00
767.4480, 27995.00
768.5950, 28112.00
769.7410, 27916.00
770.8870, 27986.00
772.0330, 27944.00
773.1780, 27784.00
774.3240, 27761.00
775.4690, 27816.00
776.6140, 27889.00
777.7590, 27877.00
778.9040, 27560.00
780.0490, 27917.00
781.1940, 27664.00
782.3380, 27800.00
783.4820, 27624.00
784.6260, 27482.00
785.7700, 27573.00
786.9140, 27596.00
788.0580, 27505.00
789.2010, 27334.00
790.3450, 27374.00
791.4880, 27493.00
792.6310, 27293.00
793.7730, 27037.00
794.9160, 27295.00
796.0590, 27301.00
797.2010, 27140.00
798.3430, 27186.00
799.4850, 27027.00
800.6270, 27190.00
801.7690, 27245.00
802.9100, 27166.00
804.0520, 27239.00
805.1930, 27093.00
806.3340, 27161.00
807.4750, 26966.00
808.6160, 26919.00
809.7560, 26989.00
810.8970, 27228.00
812.0370, 27077.00
813.1770, 27163.00
814.3170, 27306.00
815.4570, 27175.00
816.5960, 26977.00
817.7360, 27186.00
818.8750, 27223.00
820.0140, 27084.00
821.1530, 27388.00
822.2920, 27306.00
823.4310, 27384.00
824.5690, 27556.00
825.7070, 27409.00
826.8460, 27425.00
827.9840, 27392.00
829.1220, 27503.00
830.2590, 27516.00
831.3970, 27339.00
832.5340, 27253.00
833.6710, 27477.00
834.8080, 27273.00
835.9450, 27444.00
837.0820, 27461.00
838.2190, 27531.00
839.3550, 27623.00
840.4910, 27502.00
841.6270, 27648.00
842.7630, 27565.00
843.8990, 27748.00
845.0350, 27566.00
846.1700, 27611.00
847.3060, 27647.00
848.4410, 27856.00
849.5760, 27709.00
850.7100, 27717.00
851.8450, 27899.00
852.9800, 27851.00
854.1140, 27837.00
855.2480, 27906.00
856.3820, 28010.00
857.5160, 28200.00
858.6500, 28077.00
859.7830, 28123.00
860.9170, 28190.00
862.0500, 27995.00
863.1830, 28202.00
864.3160, 28320.00
865.4480, 28242.00
866.5810, 28292.00
867.7130, 28410.00
868.8460, 28425.00
869.9780, 28146.00
871.1100, 28522.00
872.2410, 28166.00
873.3730, 28254.00
874.5050, 28453.00
875.6360, 28339.00
876.7670, 28387.00
877.8980, 28395.00
879.0290, 28440.00
880.1590, 28384.90
881.2900, 28413.54
882.4200, 28308.00
883.5500, 28382.00
884.6800, 28459.00
885.8100, 28374.00
886.9400, 28568.00
888.0690, 28268.00
889.1990, 28655.00
890.3280, 28380.00
891.4570, 28389.00
892.5860, 28565.00
893.7140, 28604.00
894.8430, 28493.00
895.9710, 28656.00
897.1000, 28592.00
898.2280, 28715.00
899.3560, 28604.00
900.4830, 28795.00
901.6110, 28767.00
902.7380, 28783.00
903.8660, 28763.00
904.9930, 28681.00
906.1200, 28876.00
907.2460, 29052.00
908.3730, 28968.00
909.5000, 28930.00
910.6260, 29153.00
911.7520, 28908.00
912.8780, 29026.00
914.0040, 29166.00
915.1290, 28889.00
916.2550, 29184.00
917.3800, 28969.00
918.5050, 29250.00
919.6300, 29222.00
920.7550, 29160.00
921.8800, 29015.00
923.0040, 29213.00
924.1290, 29059.00
925.2530, 29096.00
926.3770, 29396.00
927.5010, 29223.00
928.6250, 29424.00
929.7480, 29633.00
930.8720, 29285.00
931.9950, 29466.00
933.1180, 29400.00
934.2410, 29650.00
935.3640, 29614.00
936.4860, 29622.00
937.6090, 29555.00
938.7310, 29609.00
939.8530, 29757.00
940.9750, 29632.00
942.0970, 29898.00
943.2180, 29656.00
944.3400, 29947.00
945.4610, 30057.00
946.5820, 29881.00
947.7030, 30088.00
948.8240, 30247.00
949.9450, 29950.00
951.0650, 30120.00
952.1860, 30268.00
953.3060, 30010.00
954.4260, 30220.00
955.5460, 30453.00
956.6650, 30422.00
957.7850, 30419.00
958.9040, 30383.00
960.0230, 30618.00
961.1420, 30644.00
962.2610, 30716.00
963.3800, 30788.00
964.4990, 30878.00
965.6170, 30828.00
966.7350, 30812.00
967.8530, 30933.00
968.9710, 31022.00
970.0890, 30939.00
971.2070, 31279.00
972.3240, 31087.00
973.4410, 31055.00
974.5580, 31265.00
975.6750, 31353.00
976.7920, 31244.00
977.9090, 31318.00
979.0250, 31521.00
980.1410, 31475.00
981.2580, 31544.00
982.3740, 31561.00
983.4890, 31553.00
984.6050, 31540.00
985.7200, 31876.00
986.8360, 31796.00
987.9510, 31836.00
989.0660, 31578.00
990.1810, 31901.00
991.2950, 31685.00
992.4100, 31943.00
993.5240, 32011.00
994.6390, 32144.00
995.7530, 31921.00
996.8660, 32314.00
997.9800, 32186.00
999.0940, 32253.00
1000.207, 32607.00
1001.320, 32661.00
1002.433, 32970.00
1003.546, 32711.00
1004.659, 32754.00
1005.772, 32585.00
1006.884, 32729.00
1007.996, 32546.00
1009.108, 32702.00
1010.220, 32716.00
1011.332, 32798.00
1012.444, 32979.00
1013.555, 32724.00
1014.666, 33069.00
1015.777, 33226.00
1016.888, 32857.00
1017.999, 33221.00
1019.110, 33436.00
1020.220, 33409.00
1021.331, 33569.00
1022.441, 33540.00
1023.551, 33675.00
1024.661, 33781.00
1025.770, 33661.00
1026.880, 33702.00
1027.989, 33803.00
1029.098, 33632.00
1030.207, 34085.00
1031.316, 34190.00
1032.425, 33914.00
1033.533, 34087.00
1034.642, 34335.00
1035.750, 34453.00
1036.858, 34325.00
1037.966, 34301.00
1039.073, 34551.00
1040.181, 34659.00
1041.288, 34661.00
1042.396, 34678.00
1043.503, 34633.00
1044.610, 34668.00
1045.716, 34559.00
1046.823, 34458.00
1047.929, 34830.00
1049.036, 34805.00
1050.142, 34789.00
1051.248, 35012.00
1052.353, 34752.00
1053.459, 35160.00
1054.564, 34902.00
1055.670, 34849.00
1056.775, 35426.00
1057.880, 35252.00
1058.985, 35202.00
1060.089, 35207.00
1061.194, 35685.00
1062.298, 35668.00
1063.402, 35713.00
1064.506, 36095.00
1065.610, 35918.00
1066.713, 36116.00
1067.817, 36237.00
1068.920, 36274.00
1070.023, 36646.00
1071.126, 36466.00
1072.229, 36570.00
1073.332, 37029.00
1074.435, 36768.00
1075.537, 36768.00
1076.639, 37084.00
1077.741, 37082.00
1078.843, 37232.00
1079.945, 37309.00
1081.046, 37268.00
1082.148, 37462.00
1083.249, 37607.00
1084.350, 37459.00
1085.451, 37609.00
1086.551, 37891.00
1087.652, 37898.00
1088.752, 37498.00
1089.853, 37777.00
1090.953, 37694.00
1092.053, 37643.00
1093.152, 37739.00
1094.252, 37626.00
1095.351, 37779.00
1096.451, 37646.00
1097.550, 37710.00
1098.649, 37681.00
1099.748, 37578.00
1100.846, 37453.00
1101.945, 37662.00
1103.043, 37576.00
1104.141, 37398.00
1105.239, 37745.00
1106.337, 37721.00
1107.434, 37453.00
1108.532, 37554.00
1109.629, 37765.00
1110.726, 37561.00
1111.823, 37428.00
1112.920, 37530.00
1114.017, 37405.00
1115.113, 37406.00
1116.210, 37359.00
1117.306, 37314.00
1118.402, 37321.00
1119.498, 37283.00
1120.593, 37207.77
1121.689, 37330.00
1122.784, 37105.00
1123.879, 37123.00
1124.974, 37224.00
1126.069, 37178.00
1127.164, 37062.00
1128.259, 37124.00
1129.353, 36989.00
1130.447, 37011.00
1131.541, 36981.00
1132.635, 37008.00
1133.729, 36886.00
1134.822, 36853.00
1135.916, 36701.00
1137.009, 36613.00
1138.102, 36540.00
1139.195, 36693.00
1140.288, 36539.00
1141.380, 36907.00
1142.473, 37017.00
1143.565, 36888.88
1144.657, 36246.00
1145.749, 36565.00
1146.841, 36218.00
1147.932, 35824.00
1149.024, 35894.00
1150.115, 36003.00
1151.206, 35903.00
1152.297, 35957.00
1153.388, 35685.00
1154.479, 36025.00
1155.569, 35795.00
1156.659, 35557.00
1157.750, 35795.00
1158.839, 35622.00
1159.929, 35397.00
1161.019, 35320.00
1162.108, 35446.00
1163.198, 35378.00
1164.287, 35360.00
1165.376, 35129.00
1166.465, 34956.00
1167.553, 35078.00
1168.642, 35141.00
1169.730, 34994.00
1170.818, 34817.00
1171.906, 34884.00
1172.994, 34988.00
1174.082, 35015.00
1175.170, 34964.00
1176.257, 34759.00
1177.344, 34877.00
1178.431, 34672.00
1179.518, 34674.00
1180.605, 34751.00
1181.691, 34461.00
1182.778, 34671.00
1183.864, 34775.00
1184.950, 34743.00
1186.036, 34621.00
1187.122, 34649.00
1188.207, 34665.00
1189.292, 34684.00
1190.378, 34714.00
1191.463, 34680.00
1192.548, 34447.00
1193.632, 34870.00
1194.717, 34343.00
1195.801, 34608.00
1196.886, 34518.00
1197.970, 34487.00
1199.054, 34622.00
1200.137, 34732.00
1201.221, 34726.00
1202.305, 34608.00
1203.388, 34523.00
1204.471, 34545.00
1205.554, 34593.00
1206.637, 34805.00
1207.719, 34649.00
1208.802, 34711.00
1209.884, 34767.00
1210.966, 34549.00
1212.048, 34638.00
1213.130, 34802.00
1214.212, 34771.00
1215.293, 34876.00
1216.374, 34822.00
1217.456, 34654.00
1218.536, 34659.00
1219.617, 34807.00
1220.698, 34718.43
1221.778, 34799.00
1222.859, 34743.00
1223.939, 34833.00
1225.019, 34861.00
1226.099, 35084.00
1227.178, 35013.00
1228.258, 34965.00
1229.337, 34822.00
1230.417, 35061.00
1231.496, 35341.00
1232.574, 34798.00
1233.653, 34863.00
1234.732, 35255.00
1235.810, 35377.00
1236.888, 35293.00
1237.966, 35078.00
1239.044, 35115.00
1240.122, 35159.00
1241.199, 35071.70
1242.277, 35123.00
1243.354, 35063.00
1244.431, 35149.00
1245.508, 35205.00
1246.585, 35383.00
1247.661, 35261.00
1248.738, 35194.00
1249.814, 35328.00
1250.890, 35218.00
1251.966, 35305.00
1253.042, 35270.00
1254.117, 35290.00
1255.193, 35362.00
1256.268, 35193.00
1257.343, 35347.00
1258.418, 35369.00
1259.493, 35233.00
1260.567, 35336.00
1261.642, 35717.00
1262.716, 35692.00
1263.790, 35769.00
1264.864, 35759.00
1265.938, 35859.00
1267.011, 35685.00
1268.085, 35695.00
1269.158, 35844.00
1270.231, 35915.00
1271.304, 36011.00
1272.377, 35601.00
1273.450, 35956.00
1274.522, 36075.00
1275.594, 35672.00
1276.666, 35860.00
1277.738, 36058.00
1278.810, 35780.00
1279.882, 35935.00
1280.953, 35508.00
1282.025, 35988.00
1283.096, 36016.00
1284.167, 35906.00
1285.238, 35857.00
1286.308, 35981.00
1287.379, 36118.00
1288.449, 36105.00
1289.519, 36085.00
1290.589, 35887.00
1291.659, 36099.00
1292.729, 35943.00
1293.798, 36192.00
1294.868, 36211.00
1295.937, 36219.00
1297.006, 36474.00
1298.075, 36211.00
1299.143, 36442.00
1300.212, 36324.00
1301.280, 36215.00
1302.348, 36361.00
1303.416, 36406.00
1304.484, 36344.00
1305.552, 36210.00
1306.620, 36575.00
1307.687, 36380.00
1308.754, 36620.00
1309.821, 36297.00
1310.888, 36557.00
1311.955, 36608.00
1313.021, 36692.00
1314.088, 36665.00
1315.154, 36597.00
1316.220, 36752.00
1317.286, 36625.00
1318.352, 36884.00
1319.417, 36797.00
1320.483, 36836.00
1321.548, 36888.00
1322.613, 36691.00
1323.678, 36766.00
1324.743, 36817.00
1325.807, 36968.00
1326.872, 37029.00
1327.936, 37093.00
1329.000, 36589.00
1330.064, 36723.00
1331.128, 36847.00
1332.191, 36590.00
1333.255, 36893.00
1334.318, 36781.00
1335.381, 36869.00
1336.444, 36602.00
1337.507, 36675.05
1338.569, 36853.00
1339.632, 36696.00
1340.694, 36873.00
1341.756, 36915.00
1342.818, 36811.00
1343.880, 36911.00
1344.941, 36855.00
1346.003, 37030.00
1347.064, 36895.00
1348.125, 36925.00
1349.186, 36977.00
1350.247, 37026.00
1351.308, 37078.00
1352.368, 37124.00
1353.428, 37127.00
1354.489, 37258.00
1355.549, 37233.00
1356.608, 37138.00
1357.668, 36985.00
1358.727, 37353.00
1359.787, 37051.00
1360.846, 37255.00
1361.905, 37264.00
1362.964, 37387.00
1364.022, 37473.00
1365.081, 37223.00
1366.139, 37372.00
1367.197, 37183.00
1368.255, 37297.00
1369.313, 37384.00
1370.371, 37498.00
1371.428, 37487.00
1372.486, 37558.00
1373.543, 37659.00
1374.600, 37489.00
1375.657, 37725.00
1376.713, 37622.00
1377.770, 37706.00
1378.826, 37897.00
1379.882, 37558.00
1380.938, 37707.00
1381.994, 37741.00
1383.050, 37698.00
1384.106, 37485.00
1385.161, 37866.00
1386.216, 37613.00
1387.271, 37571.00
1388.326, 37625.00
1389.381, 37580.34
1390.435, 37600.48
1391.490, 37746.00
1392.544, 37667.00
1393.598, 37832.00
1394.652, 37972.00
1395.705, 37758.00
1396.759, 37786.00
1397.812, 37815.00
1398.866, 37896.00
1399.919, 37846.00
1400.972, 38012.00
1402.024, 38085.00
1403.077, 37717.00
1404.129, 37843.00
1405.181, 38008.00
1406.233, 37968.00
1407.285, 38098.00
1408.337, 38046.00
1409.389, 38170.00
1410.440, 37862.00
1411.491, 38024.00
1412.542, 37953.00
1413.593, 38157.00
1414.644, 38403.00
1415.695, 38237.00
1416.745, 38094.00
1417.795, 38456.00
1418.845, 38110.00
1419.895, 38119.00
1420.945, 38248.00
1421.995, 38226.00
1423.044, 38429.00
1424.093, 38397.04
1425.142, 38408.00
1426.191, 38393.00
1427.240, 38422.00
1428.289, 38415.00
1429.337, 38565.00
