##NAMES=Phillipsite-Ca
##RRUFFID=R050078
##IDEAL CHEMISTRY=Ca_3_(Si_10_Al_6_)O_32_&#183;12H_2_O
##LOCALITY=Grant County, Oregon, USA
##OWNER=RRUFF
##SOURCE=Rock Currier
##DESCRIPTION=White tabular hexagonal
##STATUS=The identification of this mineral has been confirmed by X-ray diffraction and chemical analysis
##URL=rruff.info/R050078
##MEASURED CHEMISTRY=(Ca_0.90_K_0.75_[box]_0.25_Na_0.10_)_Σ=2_(Si_5.35_Al_2.65_)_Σ=8_O_16_·6H_2_O
##PIN_ID=L00386
##ORIENTATION=Laser parallel to a* (1 0 0). Fiducial mark perpendicular to laser is parallel to b [0 1 0]
273.2760, 21067.00
274.4880, 21189.00
275.7000, 21284.00
276.9120, 21344.00
278.1230, 21140.00
279.3340, 21295.00
280.5450, 20985.00
281.7560, 21349.00
282.9670, 21270.00
284.1780, 21259.00
285.3880, 21297.00
286.5980, 21247.00
287.8090, 21227.00
289.0190, 21309.00
290.2290, 21086.00
291.4380, 21163.00
292.6480, 21069.00
293.8570, 21218.00
295.0670, 21168.00
296.2760, 21270.00
297.4850, 21330.00
298.6930, 21187.00
299.9020, 21167.00
301.1110, 21206.81
302.3190, 21134.00
303.5270, 21299.00
304.7350, 21284.00
305.9430, 21348.00
307.1510, 21423.00
308.3580, 21257.00
309.5660, 21382.00
310.7730, 21156.00
311.9800, 21320.00
313.1870, 21240.00
314.3940, 21532.00
315.6010, 21542.00
316.8070, 21540.00
318.0130, 21234.00
319.2200, 21375.00
320.4260, 21464.00
321.6310, 21456.00
322.8370, 21618.00
324.0430, 21556.00
325.2480, 21591.00
326.4540, 21557.00
327.6590, 21465.00
328.8640, 21608.00
330.0680, 21475.00
331.2730, 21549.00
332.4780, 21699.00
333.6820, 21383.00
334.8860, 21429.00
336.0900, 21496.00
337.2940, 21482.00
338.4980, 21448.00
339.7010, 21516.52
340.9050, 21499.33
342.1080, 21579.00
343.3110, 21551.00
344.5140, 21519.00
345.7170, 21582.00
346.9200, 21577.25
348.1220, 21604.00
349.3240, 21658.00
350.5270, 21679.00
351.7290, 21752.00
352.9310, 21753.00
354.1320, 21638.00
355.3340, 21674.00
356.5350, 21928.00
357.7370, 21822.00
358.9380, 21886.00
360.1390, 21858.00
361.3400, 21943.00
362.5400, 21939.00
363.7410, 22126.00
364.9410, 22049.00
366.1410, 22111.00
367.3410, 22263.00
368.5410, 22295.81
369.7410, 22342.00
370.9400, 22489.00
372.1400, 22497.00
373.3390, 22533.00
374.5380, 22653.00
375.7370, 22653.00
376.9360, 22608.00
378.1350, 22863.00
379.3330, 22957.36
380.5310, 23196.00
381.7300, 23355.00
382.9280, 23416.00
384.1260, 23563.00
385.3230, 23660.00
386.5210, 23738.00
387.7180, 23895.00
388.9160, 24032.00
390.1130, 24285.00
391.3100, 24583.00
392.5060, 24643.45
393.7030, 24830.33
394.9000, 24922.00
396.0960, 25022.00
397.2920, 25367.00
398.4880, 25466.00
399.6840, 25812.00
400.8800, 25877.00
402.0750, 26301.00
403.2710, 26412.00
404.4660, 26777.00
405.6610, 27086.00
406.8560, 27283.00
408.0510, 27581.00
409.2450, 28008.00
410.4400, 28282.00
411.6340, 28623.00
412.8280, 29024.00
414.0220, 29335.00
415.2160, 29665.00
416.4100, 29859.00
417.6030, 30206.00
418.7970, 30518.00
419.9900, 30820.00
421.1830, 30876.00
422.3760, 30842.00
423.5690, 30717.00
424.7610, 30682.00
425.9540, 30626.00
427.1460, 30619.00
428.3380, 30767.00
429.5300, 30621.00
430.7220, 30780.00
431.9140, 30543.00
433.1050, 30850.00
434.2970, 30994.00
435.4880, 31467.00
436.6790, 31638.84
437.8700, 31638.00
439.0610, 32134.00
440.2510, 32577.00
441.4420, 32862.00
442.6320, 33592.00
443.8220, 34542.00
445.0120, 35098.00
446.2020, 36238.00
447.3910, 36986.00
448.5810, 37713.00
449.7700, 38822.00
450.9600, 39893.00
452.1490, 41219.00
453.3370, 42690.00
454.5260, 43933.00
455.7150, 45179.00
456.9030, 46559.00
458.0910, 47847.00
459.2800, 48905.00
460.4670, 50031.00
461.6550, 51498.00
462.8430, 52880.00
464.0300, 53465.00
465.2180, 54704.00
466.4050, 55550.00
467.5920, 56180.00
468.7790, 56853.00
469.9650, 57437.00
471.1520, 57665.00
472.3380, 58019.00
473.5250, 58389.00
474.7110, 58554.00
475.8970, 58535.97
477.0820, 58352.00
478.2680, 58155.00
479.4540, 57802.00
480.6390, 57367.00
481.8240, 56762.00
483.0090, 56229.00
484.1940, 55180.00
485.3780, 54202.00
486.5630, 52867.00
487.7470, 51007.00
488.9320, 49763.00
490.1160, 48150.00
491.3000, 46475.00
492.4830, 44809.00
493.6670, 43139.00
494.8500, 41669.00
496.0340, 40183.89
497.2170, 38952.00
498.4000, 37514.00
499.5820, 36189.00
500.7650, 35091.00
501.9480, 34130.00
503.1300, 33009.00
504.3120, 32361.00
505.4940, 31855.00
506.6760, 31083.00
507.8580, 30506.00
509.0390, 30034.00
510.2210, 29461.00
511.4020, 29167.00
512.5830, 28834.98
513.7640, 28459.26
514.9450, 28232.62
516.1250, 27876.00
517.3060, 27798.00
518.4860, 27592.00
519.6660, 27484.00
520.8460, 27231.00
522.0260, 27065.00
523.2060, 26883.00
524.3850, 27024.00
525.5650, 26693.00
526.7440, 26614.00
527.9230, 26725.00
529.1020, 26537.00
530.2810, 26428.00
531.4590, 26429.00
532.6380, 26414.00
533.8160, 26384.00
534.9940, 26281.38
536.1720, 26172.78
537.3500, 26018.00
538.5270, 25919.00
539.7050, 25759.00
540.8820, 25732.00
542.0590, 25571.00
543.2360, 25462.00
544.4130, 25389.00
545.5900, 25384.00
546.7660, 25276.00
547.9430, 25285.00
549.1190, 25321.00
550.2950, 25192.00
551.4710, 25246.00
552.6470, 25154.00
553.8220, 24933.00
554.9980, 24984.00
556.1730, 25066.00
557.3480, 25138.00
558.5230, 24971.00
559.6980, 25170.00
560.8730, 24845.00
562.0470, 24966.00
563.2220, 24977.00
564.3960, 24931.00
565.5700, 24909.00
566.7440, 24875.00
567.9170, 24835.88
569.0910, 24954.00
570.2640, 24828.00
571.4380, 24995.00
572.6110, 25153.00
573.7840, 24861.00
574.9570, 24804.00
576.1290, 25082.00
577.3020, 24982.00
578.4740, 24933.00
579.6460, 25131.00
580.8180, 25062.00
581.9900, 25003.00
583.1620, 25232.00
584.3330, 25301.00
585.5040, 24840.00
586.6760, 25129.00
587.8470, 25002.00
589.0180, 25166.00
590.1880, 24993.00
591.3590, 25133.00
592.5290, 25124.00
593.7000, 25226.00
594.8700, 25331.00
596.0400, 25323.00
597.2090, 25116.00
598.3790, 25189.00
599.5490, 25091.00
600.7180, 25292.00
601.8870, 25420.00
603.0560, 25312.00
604.2250, 25452.00
605.3940, 25560.00
606.5620, 25293.00
607.7300, 25404.00
608.8990, 25384.00
610.0670, 25660.00
611.2350, 25411.00
612.4020, 25546.00
613.5700, 25612.00
614.7370, 25556.00
615.9050, 25664.00
617.0720, 25746.00
618.2390, 25709.00
619.4060, 25941.00
620.5720, 25654.00
621.7390, 26000.00
622.9050, 25908.00
624.0710, 25760.00
625.2370, 25758.00
626.4030, 26086.00
627.5690, 26141.00
628.7340, 26037.00
629.9000, 25846.00
631.0650, 26061.00
632.2300, 25965.04
633.3950, 26250.00
634.5600, 26051.00
635.7240, 26192.00
636.8890, 26268.00
638.0530, 26042.00
639.2170, 26512.00
640.3810, 26475.00
641.5450, 26269.00
642.7080, 26304.00
643.8720, 26193.00
645.0350, 26214.63
646.1980, 26476.00
647.3610, 26293.00
648.5240, 26317.00
649.6870, 26324.00
650.8490, 26162.00
652.0120, 26565.00
653.1740, 26424.00
654.3360, 26546.00
655.4980, 26356.00
656.6600, 26377.00
657.8210, 26154.00
658.9830, 26336.00
660.1440, 26612.00
661.3050, 26471.00
662.4660, 26623.00
663.6270, 26456.00
664.7870, 26603.00
665.9480, 26546.70
667.1080, 26530.00
668.2680, 26511.00
669.4280, 26508.00
670.5880, 26555.00
671.7480, 26492.00
672.9070, 26649.00
674.0670, 26558.00
675.2260, 26573.00
676.3850, 26628.00
677.5440, 26546.00
678.7030, 26542.00
679.8610, 26395.00
681.0200, 26630.00
682.1780, 26785.00
683.3360, 26710.00
684.4940, 26830.33
685.6520, 26700.00
686.8090, 26812.00
687.9670, 26796.00
689.1240, 26728.00
690.2810, 26797.00
691.4380, 26880.00
692.5950, 26692.00
693.7520, 26921.00
694.9080, 26923.00
696.0650, 26842.00
697.2210, 27101.00
698.3770, 26869.00
699.5330, 27157.00
700.6880, 27190.00
701.8440, 27089.00
702.9990, 27164.00
704.1550, 27269.00
705.3100, 27147.00
706.4650, 27193.00
707.6190, 27165.33
708.7740, 27166.93
709.9290, 27185.00
711.0830, 27273.00
712.2370, 27460.00
713.3910, 27648.00
714.5450, 27595.00
715.6980, 27705.17
716.8520, 27574.00
718.0050, 27659.00
719.1580, 27696.00
720.3110, 27527.00
721.4640, 27768.00
722.6170, 27619.00
723.7700, 27701.00
724.9220, 27647.00
726.0740, 27791.00
727.2260, 27799.00
728.3780, 27601.00
729.5300, 27855.00
730.6810, 28012.00
731.8330, 27699.00
732.9840, 28049.00
734.1350, 27919.00
735.2860, 27944.00
736.4370, 27803.00
737.5880, 27906.00
738.7380, 27918.00
739.8880, 27993.00
741.0390, 28023.00
742.1890, 28115.00
743.3380, 28125.39
744.4880, 28077.00
745.6380, 28141.00
746.7870, 28201.00
747.9360, 28178.00
749.0850, 28104.00
750.2340, 28521.00
751.3830, 28382.00
752.5310, 28576.00
753.6800, 28592.00
754.8280, 28569.00
755.9760, 28646.00
757.1240, 28450.00
758.2720, 28504.00
759.4190, 28789.00
760.5670, 28615.00
761.7140, 28636.00
762.8610, 28683.00
764.0080, 28447.00
765.1550, 28617.00
766.3020, 28589.00
767.4480, 28579.00
768.5950, 28425.00
769.7410, 28712.00
770.8870, 28532.00
772.0330, 28690.00
773.1780, 28425.00
774.3240, 28268.00
775.4690, 28305.00
776.6140, 28193.95
777.7590, 28587.00
778.9040, 28300.00
780.0490, 28277.00
781.1940, 28544.00
782.3380, 28308.00
783.4820, 28350.00
784.6260, 28209.00
785.7700, 28359.00
786.9140, 28502.00
788.0580, 28322.00
789.2010, 28429.00
790.3450, 28310.00
791.4880, 28432.00
792.6310, 28477.00
793.7730, 28531.00
794.9160, 28287.00
796.0590, 28371.00
797.2010, 28240.00
798.3430, 28401.00
799.4850, 28463.00
800.6270, 28485.00
801.7690, 28396.00
802.9100, 28417.00
804.0520, 28318.00
805.1930, 28446.00
806.3340, 28581.00
807.4750, 28333.00
808.6160, 28504.00
809.7560, 28445.00
810.8970, 28287.00
812.0370, 28339.00
813.1770, 28477.00
814.3170, 28556.00
815.4570, 28588.00
816.5960, 28706.00
817.7360, 28455.00
818.8750, 28586.00
820.0140, 28584.00
821.1530, 28628.00
822.2920, 28726.00
823.4310, 28898.00
824.5690, 28755.00
825.7070, 28878.00
826.8460, 28834.00
827.9840, 28796.00
829.1220, 28934.00
830.2590, 28906.00
831.3970, 28912.46
832.5340, 28869.00
833.6710, 28874.00
834.8080, 28839.00
835.9450, 28791.00
837.0820, 28939.00
838.2190, 28998.00
839.3550, 29007.00
840.4910, 29202.00
841.6270, 29041.00
842.7630, 28901.00
843.8990, 29304.00
845.0350, 29104.00
846.1700, 29297.00
847.3060, 29277.00
848.4410, 29082.00
849.5760, 29283.00
850.7100, 29453.00
851.8450, 29220.00
852.9800, 29329.00
854.1140, 29362.00
855.2480, 29275.00
856.3820, 29538.00
857.5160, 29347.00
858.6500, 29434.00
859.7830, 29464.00
860.9170, 29662.00
862.0500, 29683.00
863.1830, 29686.00
864.3160, 29443.00
865.4480, 29740.00
866.5810, 29652.00
867.7130, 29832.00
868.8460, 29724.00
869.9780, 29715.00
871.1100, 29699.00
872.2410, 29679.53
873.3730, 29845.00
874.5050, 29696.00
875.6360, 29916.00
876.7670, 29936.00
877.8980, 30074.00
879.0290, 29916.00
880.1590, 29888.00
881.2900, 29985.00
882.4200, 29794.00
883.5500, 30017.00
884.6800, 30200.00
885.8100, 30211.00
886.9400, 30013.00
888.0690, 30207.00
889.1990, 30260.00
890.3280, 30070.00
891.4570, 30305.00
892.5860, 30197.00
893.7140, 30370.00
894.8430, 30077.00
895.9710, 30348.00
897.1000, 30537.00
898.2280, 30208.00
899.3560, 30360.00
900.4830, 30665.00
901.6110, 30796.00
902.7380, 30833.40
903.8660, 30822.00
904.9930, 30776.00
906.1200, 30629.00
907.2460, 30508.00
908.3730, 30521.00
909.5000, 30925.00
910.6260, 30738.00
911.7520, 30962.00
912.8780, 30735.00
914.0040, 30823.00
915.1290, 30764.00
916.2550, 30803.00
917.3800, 30951.00
918.5050, 31108.00
919.6300, 30903.00
920.7550, 31173.00
921.8800, 30991.00
923.0040, 31045.00
924.1290, 31113.00
925.2530, 30954.00
926.3770, 31129.00
927.5010, 30946.00
928.6250, 31016.00
929.7480, 31087.00
930.8720, 31537.00
931.9950, 31428.00
933.1180, 31495.00
934.2410, 31649.00
935.3640, 31490.00
936.4860, 31444.00
937.6090, 31488.00
938.7310, 31469.00
939.8530, 31466.00
940.9750, 31630.00
942.0970, 31583.00
943.2180, 31740.00
944.3400, 31687.00
945.4610, 31837.00
946.5820, 31959.00
947.7030, 31895.00
948.8240, 31830.00
949.9450, 32101.00
951.0650, 32026.00
952.1860, 32220.00
953.3060, 32172.00
954.4260, 32311.00
955.5460, 32313.00
956.6650, 32490.00
957.7850, 32478.00
958.9040, 32515.00
960.0230, 32442.00
961.1420, 32599.00
962.2610, 32699.00
963.3800, 32580.00
964.4990, 32840.00
965.6170, 32700.00
966.7350, 32677.00
967.8530, 32672.00
968.9710, 32408.00
970.0890, 32989.00
971.2070, 33193.00
972.3240, 33163.00
973.4410, 32991.00
974.5580, 33174.00
975.6750, 33398.00
976.7920, 33381.00
977.9090, 33488.00
979.0250, 33342.00
980.1410, 33393.00
981.2580, 33569.00
982.3740, 33484.00
983.4890, 33566.00
984.6050, 33716.00
985.7200, 33567.00
986.8360, 33796.00
987.9510, 33777.00
989.0660, 33821.00
990.1810, 33953.00
991.2950, 33878.00
992.4100, 33860.00
993.5240, 33989.00
994.6390, 33962.00
995.7530, 34190.00
996.8660, 34203.73
997.9800, 34061.00
999.0940, 34294.00
1000.207, 34331.00
1001.320, 34305.00
1002.433, 34219.00
1003.546, 34427.00
1004.659, 34382.00
1005.772, 34345.00
1006.884, 34620.00
1007.996, 34392.00
1009.108, 34568.00
1010.220, 34604.00
1011.332, 34589.00
1012.444, 34667.82
1013.555, 34761.61
1014.666, 34704.00
1015.777, 34991.00
1016.888, 35029.00
1017.999, 35091.00
1019.110, 34987.00
1020.220, 35041.00
1021.331, 34995.00
1022.441, 35014.00
1023.551, 35207.00
1024.661, 35234.00
1025.770, 35376.00
1026.880, 35247.00
1027.989, 35402.00
1029.098, 35659.00
1030.207, 35519.00
1031.316, 35805.00
1032.425, 36001.00
1033.533, 35721.00
1034.642, 35823.00
1035.750, 35786.00
1036.858, 35685.00
1037.966, 35778.00
1039.073, 36094.00
1040.181, 35982.00
1041.288, 36144.00
1042.396, 36074.00
1043.503, 36241.00
1044.610, 36338.00
1045.716, 36185.00
1046.823, 35977.00
1047.929, 36305.00
1049.036, 36085.00
1050.142, 36587.00
1051.248, 36524.00
1052.353, 36585.00
1053.459, 36640.00
1054.564, 36662.00
1055.670, 36750.09
1056.775, 36852.00
1057.880, 36916.00
1058.985, 37044.00
1060.089, 37152.00
1061.194, 37284.00
1062.298, 37609.00
1063.402, 37576.00
1064.506, 37477.00
1065.610, 38080.00
1066.713, 37894.00
1067.817, 37747.00
1068.920, 37815.00
1070.023, 38044.00
1071.126, 38031.00
1072.229, 38362.00
1073.332, 38635.00
1074.435, 38670.49
1075.537, 38382.00
1076.639, 38862.00
1077.741, 38695.00
1078.843, 38788.00
1079.945, 38848.00
1081.046, 38781.00
1082.148, 39010.00
1083.249, 39310.00
1084.350, 39251.00
1085.451, 39156.00
1086.551, 39234.00
1087.652, 39131.00
1088.752, 39111.00
1089.853, 39012.00
1090.953, 38997.00
1092.053, 39015.00
1093.152, 38861.00
1094.252, 39091.00
1095.351, 39239.00
1096.451, 39247.00
1097.550, 39206.00
1098.649, 39211.00
1099.748, 39186.38
1100.846, 39176.72
1101.945, 39143.00
1103.043, 39181.00
1104.141, 39165.00
1105.239, 39206.04
1106.337, 39337.00
1107.434, 39131.00
1108.532, 39170.00
1109.629, 38992.00
1110.726, 38929.00
1111.823, 38994.00
1112.920, 39006.00
1114.017, 38871.00
1115.113, 38937.00
1116.210, 39155.00
1117.306, 38644.00
1118.402, 39001.00
1119.498, 38967.00
1120.593, 38692.00
1121.689, 38807.00
1122.784, 39059.00
1123.879, 39093.00
1124.974, 38791.00
1126.069, 38949.00
1127.164, 38853.00
1128.259, 38623.00
1129.353, 38917.00
1130.447, 38590.00
1131.541, 38950.00
1132.635, 38952.00
1133.729, 38290.00
1134.822, 38517.00
1135.916, 38392.00
1137.009, 38610.00
1138.102, 38511.00
1139.195, 38544.00
1140.288, 38385.00
1141.380, 38538.00
1142.473, 38395.00
1143.565, 38321.00
1144.657, 38429.00
1145.749, 38446.00
1146.841, 38220.00
1147.932, 38143.00
1149.024, 38175.00
1150.115, 38333.00
1151.206, 38417.00
1152.297, 38109.00
1153.388, 37896.00
1154.479, 37962.00
1155.569, 38134.00
1156.659, 37655.00
1157.750, 38016.00
1158.839, 37681.00
1159.929, 37867.00
1161.019, 37835.00
1162.108, 37734.00
1163.198, 37742.00
1164.287, 37733.00
1165.376, 37726.13
1166.465, 37515.00
1167.553, 37765.00
1168.642, 37509.00
1169.730, 37497.00
1170.818, 37752.00
1171.906, 37548.00
1172.994, 37574.00
1174.082, 37551.00
1175.170, 37421.00
1176.257, 37579.00
1177.344, 37431.00
1178.431, 37356.00
1179.518, 37584.00
1180.605, 37472.00
1181.691, 37600.00
1182.778, 37431.00
1183.864, 37476.00
1184.950, 37427.26
1186.036, 37441.00
1187.122, 37306.00
1188.207, 37371.00
1189.292, 37289.00
1190.378, 37502.00
1191.463, 37440.00
1192.548, 37815.00
1193.632, 37523.00
1194.717, 37495.00
1195.801, 37320.00
1196.886, 37555.00
1197.970, 37535.00
1199.054, 37796.00
1200.137, 37595.00
1201.221, 37338.00
1202.305, 37547.00
1203.388, 37646.00
1204.471, 37883.00
1205.554, 37624.00
1206.637, 37536.00
1207.719, 37692.00
1208.802, 37784.00
1209.884, 37786.00
1210.966, 37782.00
1212.048, 37791.00
1213.130, 37964.00
1214.212, 37553.00
1215.293, 37807.00
1216.374, 37692.00
1217.456, 37813.00
1218.536, 37987.00
1219.617, 37876.00
1220.698, 37821.00
1221.778, 37868.72
1222.859, 37828.82
1223.939, 37855.00
1225.019, 37951.00
1226.099, 37951.00
1227.178, 38192.00
1228.258, 38047.00
1229.337, 37994.00
1230.417, 38483.00
1231.496, 38220.00
1232.574, 38165.00
1233.653, 38265.00
1234.732, 38127.00
1235.810, 38185.00
1236.888, 38354.00
1237.966, 38201.00
1239.044, 38158.00
1240.122, 38125.00
1241.199, 38113.29
1242.277, 38383.00
1243.354, 38275.00
1244.431, 38303.00
1245.508, 38590.00
1246.585, 38431.00
1247.661, 38533.00
1248.738, 38303.00
1249.814, 38499.00
1250.890, 38404.00
1251.966, 38399.00
1253.042, 38236.00
1254.117, 38575.00
1255.193, 38478.00
1256.268, 38766.00
1257.343, 38516.00
1258.418, 38525.00
1259.493, 38650.00
1260.567, 38649.00
1261.642, 38729.00
1262.716, 38831.00
1263.790, 39056.00
1264.864, 38793.00
1265.938, 38871.00
1267.011, 38891.00
1268.085, 39201.00
1269.158, 38879.00
1270.231, 38697.00
1271.304, 38956.00
1272.377, 38750.00
1273.450, 38799.00
1274.522, 38877.00
1275.594, 38879.00
1276.666, 38994.56
1277.738, 39126.00
1278.810, 39156.00
1279.882, 39206.74
1280.953, 39015.00
1282.025, 39195.00
1283.096, 39115.00
1284.167, 39041.00
1285.238, 39275.00
1286.308, 39276.00
1287.379, 39230.00
1288.449, 39518.00
1289.519, 39507.00
1290.589, 39453.00
1291.659, 39421.00
1292.729, 39196.00
1293.798, 39498.00
1294.868, 39527.00
1295.937, 39292.00
1297.006, 39308.00
1298.075, 39538.00
1299.143, 39529.00
1300.212, 39867.00
1301.280, 39824.00
1302.348, 39632.00
1303.416, 39749.00
1304.484, 39933.00
1305.552, 39750.00
1306.620, 39688.00
1307.687, 39817.00
1308.754, 40060.00
1309.821, 39843.00
1310.888, 39968.00
1311.955, 39799.00
1313.021, 39983.00
1314.088, 39881.00
1315.154, 40130.00
1316.220, 39790.00
1317.286, 40067.00
1318.352, 40087.00
1319.417, 40110.00
1320.483, 40097.00
1321.548, 40307.00
1322.613, 40279.00
1323.678, 40157.00
1324.743, 40188.00
1325.807, 40404.00
1326.872, 40406.00
1327.936, 40543.00
1329.000, 40330.00
1330.064, 40580.00
1331.128, 40335.00
1332.191, 40421.00
1333.255, 40345.00
1334.318, 40461.00
1335.381, 40445.11
1336.444, 40706.00
1337.507, 40430.00
1338.569, 40623.00
1339.632, 40561.00
1340.694, 40701.00
1341.756, 40668.00
1342.818, 40566.00
1343.880, 40544.00
1344.941, 40572.00
1346.003, 40559.48
1347.064, 40664.00
1348.125, 40696.00
1349.186, 40806.00
1350.247, 41028.00
1351.308, 41028.07
1352.368, 41049.00
1353.428, 41123.00
1354.489, 41057.00
1355.549, 41068.00
1356.608, 41168.00
1357.668, 41174.00
1358.727, 40959.00
1359.787, 41161.00
1360.846, 40839.00
1361.905, 40979.00
1362.964, 41085.00
1364.022, 41063.00
1365.081, 41319.00
1366.139, 41305.00
1367.197, 41384.00
1368.255, 41248.00
1369.313, 41217.00
1370.371, 41395.00
1371.428, 41424.00
1372.486, 41458.38
1373.543, 41530.00
1374.600, 41557.00
1375.657, 41424.00
1376.713, 41539.00
1377.770, 41415.00
1378.826, 41431.00
1379.882, 41662.00
1380.938, 41506.00
1381.994, 41745.00
1383.050, 41653.00
1384.106, 41588.00
1385.161, 41685.00
1386.216, 41663.00
1387.271, 41783.00
1388.326, 41782.00
1389.381, 41731.00
1390.435, 41836.00
1391.490, 41903.00
1392.544, 41865.00
1393.598, 41840.00
1394.652, 41933.00
1395.705, 41825.00
1396.759, 41834.00
1397.812, 42097.00
1398.866, 41984.00
1399.919, 42114.00
1400.972, 41968.00
1402.024, 42208.00
1403.077, 42086.00
1404.129, 42067.00
1405.181, 42053.00
1406.233, 42051.02
1407.285, 42029.00
1408.337, 42123.00
1409.389, 42203.00
1410.440, 42241.00
1411.491, 42290.57
1412.542, 42226.00
1413.593, 42307.00
1414.644, 42486.00
1415.695, 42433.00
1416.745, 42123.00
1417.795, 42541.00
1418.845, 42418.00
1419.895, 42492.00
1420.945, 42689.00
1421.995, 42516.00
1423.044, 42822.00
1424.093, 42548.00
1425.142, 42513.00
1426.191, 42656.00
1427.240, 42681.00
1428.289, 42740.65
1429.337, 42680.00
