##NAMES=Phillipsite-Ca
##RRUFFID=R050078
##IDEAL CHEMISTRY=Ca_3_(Si_10_Al_6_)O_32_&#183;12H_2_O
##LOCALITY=Grant County, Oregon, USA
##OWNER=RRUFF
##SOURCE=Rock Currier
##DESCRIPTION=White tabular hexagonal
##STATUS=The identification of this mineral has been confirmed by X-ray diffraction and chemical analysis
##URL=rruff.info/R050078
##MEASURED CHEMISTRY=(Ca_0.90_K_0.75_[box]_0.25_Na_0.10_)_Σ=2_(Si_5.35_Al_2.65_)_Σ=8_O_16_·6H_2_O
##PIN_ID=L01141
##ORIENTATION=Laser parallel to (1 0 1). Fiducial mark perpendicular to laser is parallel to -b [0 -1 0]
273.2760, 16381.00
274.4880, 16351.00
275.7000, 16304.40
276.9120, 16262.00
278.1230, 16294.00
279.3340, 16267.00
280.5450, 16306.00
281.7560, 16453.00
282.9670, 16261.00
284.1780, 16582.00
285.3880, 16425.00
286.5980, 16387.00
287.8090, 16270.00
289.0190, 16283.00
290.2290, 16279.00
291.4380, 16286.00
292.6480, 16226.00
293.8570, 16336.00
295.0670, 16112.00
296.2760, 16399.00
297.4850, 16394.00
298.6930, 16130.00
299.9020, 16295.00
301.1110, 16238.00
302.3190, 16236.00
303.5270, 16247.00
304.7350, 16225.94
305.9430, 16376.00
307.1510, 16287.00
308.3580, 16220.00
309.5660, 16377.00
310.7730, 16409.00
311.9800, 16280.00
313.1870, 16468.00
314.3940, 16458.00
315.6010, 16666.00
316.8070, 16540.00
318.0130, 16542.00
319.2200, 16452.00
320.4260, 16614.00
321.6310, 16707.00
322.8370, 16611.00
324.0430, 16704.00
325.2480, 16622.00
326.4540, 16583.00
327.6590, 16573.00
328.8640, 16460.00
330.0680, 16569.00
331.2730, 16501.00
332.4780, 16511.00
333.6820, 16479.09
334.8860, 16539.00
336.0900, 16556.73
337.2940, 16532.37
338.4980, 16647.00
339.7010, 16610.00
340.9050, 16653.00
342.1080, 16743.00
343.3110, 16672.00
344.5140, 16703.00
345.7170, 16650.00
346.9200, 16699.00
348.1220, 16831.00
349.3240, 16785.00
350.5270, 16795.00
351.7290, 17009.00
352.9310, 16800.00
354.1320, 16900.00
355.3340, 16886.00
356.5350, 17019.00
357.7370, 16965.00
358.9380, 16873.00
360.1390, 16979.00
361.3400, 17163.00
362.5400, 17204.00
363.7410, 17161.00
364.9410, 17157.00
366.1410, 17178.00
367.3410, 17261.00
368.5410, 17332.00
369.7410, 17420.00
370.9400, 17481.24
372.1400, 17663.00
373.3390, 17598.00
374.5380, 17677.00
375.7370, 17720.00
376.9360, 17972.00
378.1350, 18037.00
379.3330, 18054.00
380.5310, 18193.00
381.7300, 18273.00
382.9280, 18378.09
384.1260, 18512.25
385.3230, 18690.00
386.5210, 18768.00
387.7180, 19076.00
388.9160, 19207.00
390.1130, 19323.00
391.3100, 19486.00
392.5060, 19747.00
393.7030, 20152.00
394.9000, 19965.00
396.0960, 20252.00
397.2920, 20646.00
398.4880, 20769.00
399.6840, 21151.00
400.8800, 21435.00
402.0750, 21710.00
403.2710, 22291.00
404.4660, 22437.00
405.6610, 22944.00
406.8560, 23169.00
408.0510, 23807.00
409.2450, 24312.00
410.4400, 24707.00
411.6340, 25229.52
412.8280, 25667.00
414.0220, 26180.00
415.2160, 26591.00
416.4100, 27216.00
417.6030, 27533.00
418.7970, 27869.00
419.9900, 28016.00
421.1830, 28041.00
422.3760, 28083.00
423.5690, 28074.00
424.7610, 27689.00
425.9540, 27698.00
427.1460, 27231.00
428.3380, 26765.00
429.5300, 26592.00
430.7220, 26461.00
431.9140, 26383.00
433.1050, 26048.00
434.2970, 25982.00
435.4880, 25988.00
436.6790, 25921.00
437.8700, 26081.57
439.0610, 26230.00
440.2510, 26496.00
441.4420, 26910.00
442.6320, 27266.00
443.8220, 27486.00
445.0120, 28003.00
446.2020, 29010.00
447.3910, 29264.00
448.5810, 29974.00
449.7700, 31107.00
450.9600, 31757.00
452.1490, 32976.00
453.3370, 33792.00
454.5260, 34895.00
455.7150, 35946.00
456.9030, 37367.00
458.0910, 38408.00
459.2800, 39430.00
460.4670, 40838.00
461.6550, 41736.00
462.8430, 43002.00
464.0300, 44252.00
465.2180, 45114.00
466.4050, 46058.00
467.5920, 47284.00
468.7790, 48014.00
469.9650, 49326.00
471.1520, 50065.00
472.3380, 50438.00
473.5250, 51458.00
474.7110, 51958.00
475.8970, 52780.00
477.0820, 53013.00
478.2680, 53481.00
479.4540, 53839.00
480.6390, 53711.00
481.8240, 53629.48
483.0090, 53183.00
484.1940, 52636.00
485.3780, 51508.00
486.5630, 50333.00
487.7470, 48953.00
488.9320, 47524.00
490.1160, 45832.00
491.3000, 44207.00
492.4830, 42399.00
493.6670, 40581.00
494.8500, 38670.00
496.0340, 37156.00
497.2170, 35176.00
498.4000, 34013.00
499.5820, 32430.00
500.7650, 30916.00
501.9480, 29884.00
503.1300, 28662.00
504.3120, 27981.00
505.4940, 26894.00
506.6760, 26171.00
507.8580, 25440.00
509.0390, 24990.00
510.2210, 24351.00
511.4020, 23919.00
512.5830, 23573.00
513.7640, 23593.00
514.9450, 23087.00
516.1250, 23024.00
517.3060, 22571.00
518.4860, 22515.00
519.6660, 22457.00
520.8460, 22438.00
522.0260, 22014.00
523.2060, 21979.00
524.3850, 22032.00
525.5650, 21724.00
526.7440, 21904.00
527.9230, 21835.00
529.1020, 21634.00
530.2810, 21553.00
531.4590, 21303.00
532.6380, 21227.00
533.8160, 21311.00
534.9940, 20947.00
536.1720, 20908.00
537.3500, 20650.00
538.5270, 20537.00
539.7050, 20394.00
540.8820, 20333.00
542.0590, 20144.00
543.2360, 19986.00
544.4130, 20047.00
545.5900, 19880.00
546.7660, 19735.00
547.9430, 19746.00
549.1190, 19637.00
550.2950, 19534.00
551.4710, 19697.00
552.6470, 19544.00
553.8220, 19427.00
554.9980, 19343.00
556.1730, 19445.00
557.3480, 19319.00
558.5230, 19268.00
559.6980, 19223.00
560.8730, 19027.00
562.0470, 19121.00
563.2220, 19060.00
564.3960, 19284.00
565.5700, 19078.00
566.7440, 18961.00
567.9170, 19028.00
569.0910, 18925.00
570.2640, 18948.00
571.4380, 18955.00
572.6110, 18938.82
573.7840, 18999.00
574.9570, 19013.00
576.1290, 19005.00
577.3020, 19018.12
578.4740, 19006.10
579.6460, 18989.00
580.8180, 18977.00
581.9900, 18945.00
583.1620, 18918.00
584.3330, 18967.00
585.5040, 19036.00
586.6760, 19087.00
587.8470, 18985.00
589.0180, 18962.00
590.1880, 19042.00
591.3590, 18969.00
592.5290, 19109.00
593.7000, 19134.00
594.8700, 19221.00
596.0400, 19182.00
597.2090, 19246.55
598.3790, 19101.00
599.5490, 19278.00
600.7180, 19196.00
601.8870, 19116.00
603.0560, 19223.00
604.2250, 19261.00
605.3940, 19281.00
606.5620, 19280.00
607.7300, 19298.00
608.8990, 19312.00
610.0670, 19302.00
611.2350, 19328.00
612.4020, 19397.00
613.5700, 19354.00
614.7370, 19433.00
615.9050, 19436.00
617.0720, 19410.00
618.2390, 19374.00
619.4060, 19596.00
620.5720, 19239.00
621.7390, 19371.00
622.9050, 19500.00
624.0710, 19736.00
625.2370, 19755.00
626.4030, 19680.00
627.5690, 19566.00
628.7340, 19470.00
629.9000, 19706.00
631.0650, 19813.00
632.2300, 19711.00
633.3950, 19521.00
634.5600, 19487.00
635.7240, 19689.00
636.8890, 19752.00
638.0530, 19730.00
639.2170, 19704.00
640.3810, 19706.03
641.5450, 19570.00
642.7080, 19705.00
643.8720, 19654.00
645.0350, 19755.00
646.1980, 19780.00
647.3610, 19660.00
648.5240, 19785.00
649.6870, 19724.00
650.8490, 19758.00
652.0120, 19933.00
653.1740, 19897.00
654.3360, 19972.00
655.4980, 19671.00
656.6600, 19703.00
657.8210, 19955.00
658.9830, 19711.00
660.1440, 19975.00
661.3050, 19838.00
662.4660, 19724.00
663.6270, 19588.00
664.7870, 19492.00
665.9480, 19488.40
667.1080, 19612.00
668.2680, 19572.00
669.4280, 19552.00
670.5880, 19681.00
671.7480, 19541.00
672.9070, 19699.00
674.0670, 19670.00
675.2260, 19503.00
676.3850, 19648.00
677.5440, 19369.00
678.7030, 19571.00
679.8610, 19577.00
681.0200, 19566.00
682.1780, 19530.00
683.3360, 19514.00
684.4940, 19525.00
685.6520, 19543.93
686.8090, 19587.00
687.9670, 19623.00
689.1240, 19717.00
690.2810, 19759.00
691.4380, 19872.00
692.5950, 19673.00
693.7520, 19598.00
694.9080, 19941.00
696.0650, 20038.00
697.2210, 19827.00
698.3770, 19909.00
699.5330, 19782.00
700.6880, 19839.00
701.8440, 19878.00
702.9990, 20102.00
704.1550, 20151.00
705.3100, 20067.00
706.4650, 19979.00
707.6190, 20201.00
708.7740, 20294.00
709.9290, 20285.00
711.0830, 20481.00
712.2370, 20398.00
713.3910, 20351.00
714.5450, 20361.00
715.6980, 20372.00
716.8520, 20586.00
718.0050, 20560.00
719.1580, 20554.00
720.3110, 20512.00
721.4640, 20531.00
722.6170, 20446.00
723.7700, 20653.00
724.9220, 20725.00
726.0740, 20667.00
727.2260, 20714.00
728.3780, 20631.00
729.5300, 20619.00
730.6810, 20725.00
731.8330, 20728.00
732.9840, 20745.00
734.1350, 20706.00
735.2860, 20741.00
736.4370, 20699.62
737.5880, 20716.35
738.7380, 20662.00
739.8880, 20750.00
741.0390, 20802.00
742.1890, 20848.00
743.3380, 21002.00
744.4880, 20981.00
745.6380, 21067.00
746.7870, 21088.00
747.9360, 21128.00
749.0850, 21314.00
750.2340, 21119.00
751.3830, 21264.00
752.5310, 21220.00
753.6800, 21357.00
754.8280, 21294.00
755.9760, 21317.00
757.1240, 21542.00
758.2720, 21409.00
759.4190, 21558.00
760.5670, 21486.00
761.7140, 21664.00
762.8610, 21644.00
764.0080, 21468.00
765.1550, 21355.00
766.3020, 21553.00
767.4480, 21466.00
768.5950, 21582.00
769.7410, 21520.00
770.8870, 21378.00
772.0330, 21536.00
773.1780, 21436.00
774.3240, 21528.00
775.4690, 21412.00
776.6140, 21578.00
777.7590, 21550.00
778.9040, 21392.00
780.0490, 21297.00
781.1940, 21287.00
782.3380, 21223.00
783.4820, 21342.00
784.6260, 21273.00
785.7700, 21361.00
786.9140, 21379.00
788.0580, 21205.00
789.2010, 21333.00
790.3450, 21120.00
791.4880, 21199.00
792.6310, 21260.00
793.7730, 21181.00
794.9160, 21059.00
796.0590, 21037.00
797.2010, 20991.00
798.3430, 21010.00
799.4850, 20985.00
800.6270, 21073.00
801.7690, 20946.00
802.9100, 21049.00
804.0520, 21295.00
805.1930, 20971.00
806.3340, 21164.00
807.4750, 20862.00
808.6160, 21066.00
809.7560, 21140.00
810.8970, 21043.00
812.0370, 20961.00
813.1770, 20933.00
814.3170, 20906.72
815.4570, 20879.00
816.5960, 20929.69
817.7360, 20951.62
818.8750, 20989.00
820.0140, 21022.00
821.1530, 21088.00
822.2920, 21086.00
823.4310, 21058.00
824.5690, 21056.00
825.7070, 21179.00
826.8460, 21143.00
827.9840, 21406.00
829.1220, 21369.00
830.2590, 21345.00
831.3970, 21144.00
832.5340, 21163.00
833.6710, 21221.00
834.8080, 21126.00
835.9450, 21258.00
837.0820, 21338.00
838.2190, 21373.00
839.3550, 21398.00
840.4910, 21323.00
841.6270, 21471.00
842.7630, 21326.00
843.8990, 21626.00
845.0350, 21458.00
846.1700, 21435.00
847.3060, 21420.00
848.4410, 21461.00
849.5760, 21484.75
850.7100, 21710.00
851.8450, 21608.00
852.9800, 21605.00
854.1140, 21703.00
855.2480, 21519.00
856.3820, 21696.00
857.5160, 21780.00
858.6500, 21882.00
859.7830, 21873.00
860.9170, 22024.00
862.0500, 21826.00
863.1830, 21780.00
864.3160, 21971.00
865.4480, 21817.00
866.5810, 22079.00
867.7130, 21899.00
868.8460, 21964.00
869.9780, 21952.00
871.1100, 21899.00
872.2410, 21831.00
873.3730, 21911.00
874.5050, 21895.00
875.6360, 21905.00
876.7670, 21986.00
877.8980, 21870.00
879.0290, 21769.00
880.1590, 21807.00
881.2900, 21779.70
882.4200, 21921.00
883.5500, 21856.00
884.6800, 22004.00
885.8100, 22050.00
886.9400, 22070.00
888.0690, 22031.00
889.1990, 21931.00
890.3280, 22196.00
891.4570, 22163.00
892.5860, 22002.00
893.7140, 22703.00
894.8430, 22426.38
895.9710, 22310.00
897.1000, 22474.00
898.2280, 22048.00
899.3560, 22203.00
900.4830, 22262.00
901.6110, 22115.00
902.7380, 22453.00
903.8660, 22353.00
904.9930, 22404.00
906.1200, 22379.00
907.2460, 22307.00
908.3730, 22171.00
909.5000, 22402.00
910.6260, 22514.00
911.7520, 22333.00
912.8780, 22388.00
914.0040, 22471.00
915.1290, 22427.00
916.2550, 22520.00
917.3800, 22438.00
918.5050, 22458.00
919.6300, 22354.00
920.7550, 22459.00
921.8800, 22518.00
923.0040, 22534.00
924.1290, 22604.00
925.2530, 22579.00
926.3770, 22629.00
927.5010, 22574.00
928.6250, 22578.00
929.7480, 22824.00
930.8720, 22770.00
931.9950, 22855.98
933.1180, 22804.00
934.2410, 22937.00
935.3640, 22908.00
936.4860, 22965.00
937.6090, 22938.00
938.7310, 22772.00
939.8530, 23030.00
940.9750, 22899.00
942.0970, 23171.00
943.2180, 23002.00
944.3400, 23188.00
945.4610, 23075.00
946.5820, 23159.00
947.7030, 23273.00
948.8240, 23324.00
949.9450, 23261.00
951.0650, 23167.00
952.1860, 23328.00
953.3060, 23292.00
954.4260, 23417.00
955.5460, 23548.00
956.6650, 23659.00
957.7850, 23696.22
958.9040, 23761.05
960.0230, 23679.00
961.1420, 23758.00
962.2610, 23632.00
963.3800, 23504.00
964.4990, 23762.00
965.6170, 23812.00
966.7350, 23824.00
967.8530, 23900.00
968.9710, 23811.00
970.0890, 23890.43
971.2070, 23936.00
972.3240, 23995.00
973.4410, 24103.00
974.5580, 24213.00
975.6750, 24236.49
976.7920, 24308.93
977.9090, 24294.00
979.0250, 24384.00
980.1410, 24413.00
981.2580, 24455.00
982.3740, 24348.00
983.4890, 24348.00
984.6050, 24440.00
985.7200, 24294.00
986.8360, 24504.00
987.9510, 24563.00
989.0660, 24378.00
990.1810, 24501.00
991.2950, 24709.00
992.4100, 24481.00
993.5240, 24654.00
994.6390, 24812.00
995.7530, 24678.00
996.8660, 24721.00
997.9800, 24826.00
999.0940, 24983.00
1000.207, 25066.00
1001.320, 25192.00
1002.433, 25295.00
1003.546, 24966.00
1004.659, 25154.00
1005.772, 24926.00
1006.884, 24982.00
1007.996, 25084.00
1009.108, 25078.00
1010.220, 25343.00
1011.332, 25224.00
1012.444, 25288.00
1013.555, 25112.00
1014.666, 25321.00
1015.777, 25266.00
1016.888, 25559.00
1017.999, 25519.00
1019.110, 25491.00
1020.220, 25722.00
1021.331, 25567.00
1022.441, 25841.00
1023.551, 25824.00
1024.661, 25866.00
1025.770, 26149.00
1026.880, 25919.00
1027.989, 25938.00
1029.098, 25940.00
1030.207, 26103.00
1031.316, 26145.00
1032.425, 26191.00
1033.533, 26272.41
1034.642, 26371.00
1035.750, 26377.00
1036.858, 26477.00
1037.966, 26554.00
1039.073, 26673.00
1040.181, 26341.00
1041.288, 26583.00
1042.396, 26537.00
1043.503, 26607.00
1044.610, 26900.00
1045.716, 26821.00
1046.823, 26749.00
1047.929, 26800.00
1049.036, 26958.00
1050.142, 26865.00
1051.248, 26771.00
1052.353, 26969.00
1053.459, 26954.00
1054.564, 27161.00
1055.670, 27156.00
1056.775, 27284.00
1057.880, 27346.00
1058.985, 27307.00
1060.089, 27567.00
1061.194, 27462.00
1062.298, 27767.00
1063.402, 27726.00
1064.506, 27926.00
1065.610, 27865.00
1066.713, 27904.00
1067.817, 28129.00
1068.920, 28090.00
1070.023, 28280.00
1071.126, 28270.00
1072.229, 28443.00
1073.332, 28704.00
1074.435, 28938.00
1075.537, 28993.00
1076.639, 28910.00
1077.741, 29120.00
1078.843, 28970.00
1079.945, 29065.00
1081.046, 29169.00
1082.148, 29314.00
1083.249, 29287.00
1084.350, 29245.00
1085.451, 29653.00
1086.551, 29521.00
1087.652, 29516.00
1088.752, 29396.00
1089.853, 29567.00
1090.953, 29434.00
1092.053, 29689.00
1093.152, 29658.00
1094.252, 29695.00
1095.351, 29587.00
1096.451, 29573.00
1097.550, 29785.00
1098.649, 29727.00
1099.748, 29669.00
1100.846, 29597.00
1101.945, 29574.00
1103.043, 29554.00
1104.141, 29527.00
1105.239, 29318.00
1106.337, 29474.00
1107.434, 29700.00
1108.532, 29467.23
1109.629, 29617.00
1110.726, 29231.00
1111.823, 29315.00
1112.920, 29285.00
1114.017, 29219.00
1115.113, 29223.00
1116.210, 29206.81
1117.306, 29196.13
1118.402, 29222.00
1119.498, 29204.00
1120.593, 29225.00
1121.689, 29233.00
1122.784, 29278.00
1123.879, 29281.00
1124.974, 29200.00
1126.069, 29006.00
1127.164, 28976.00
1128.259, 28952.00
1129.353, 29048.00
1130.447, 29122.00
1131.541, 29212.00
1132.635, 28891.00
1133.729, 28688.00
1134.822, 28860.00
1135.916, 28792.00
1137.009, 28739.00
1138.102, 28651.00
1139.195, 28624.00
1140.288, 28528.33
1141.380, 28577.00
1142.473, 28342.00
1143.565, 28321.00
1144.657, 28201.35
1145.749, 28336.00
1146.841, 28195.00
1147.932, 28146.00
1149.024, 28155.00
1150.115, 27974.00
1151.206, 27930.00
1152.297, 28048.00
1153.388, 27831.00
1154.479, 27646.00
1155.569, 27598.00
1156.659, 27640.00
1157.750, 27784.00
1158.839, 27539.00
1159.929, 27484.00
1161.019, 27537.00
1162.108, 27422.00
1163.198, 27278.00
1164.287, 27398.00
1165.376, 27379.00
1166.465, 27345.00
1167.553, 27363.00
1168.642, 27228.00
1169.730, 26993.00
1170.818, 27020.00
1171.906, 27047.00
1172.994, 26898.00
1174.082, 27026.00
1175.170, 26738.00
1176.257, 26864.00
1177.344, 26852.00
1178.431, 26924.00
1179.518, 26600.00
1180.605, 26744.00
1181.691, 26643.00
1182.778, 26881.00
1183.864, 26855.00
1184.950, 26560.00
1186.036, 26543.00
1187.122, 26447.00
1188.207, 26531.00
1189.292, 26690.00
1190.378, 26694.00
1191.463, 26608.00
1192.548, 26500.00
1193.632, 26528.00
1194.717, 26535.00
1195.801, 26530.00
1196.886, 26649.00
1197.970, 26621.00
1199.054, 26513.00
1200.137, 26487.00
1201.221, 26652.00
1202.305, 26628.00
1203.388, 26770.00
1204.471, 26709.00
1205.554, 26471.00
1206.637, 26684.00
1207.719, 26496.00
1208.802, 26585.00
1209.884, 26487.00
1210.966, 26725.00
1212.048, 26657.00
1213.130, 26631.00
1214.212, 26687.00
1215.293, 26737.00
1216.374, 26700.00
1217.456, 26731.00
1218.536, 26788.97
1219.617, 26928.00
1220.698, 26851.00
1221.778, 26888.00
1222.859, 26766.00
1223.939, 26798.00
1225.019, 26909.00
1226.099, 26833.00
1227.178, 26764.00
1228.258, 27007.00
1229.337, 26941.00
1230.417, 26855.00
1231.496, 26931.00
1232.574, 26861.00
1233.653, 27024.00
1234.732, 26894.00
1235.810, 27030.00
1236.888, 27010.00
1237.966, 26961.61
1239.044, 26941.00
1240.122, 26918.00
1241.199, 26967.00
1242.277, 27034.00
1243.354, 27041.00
1244.431, 27120.00
1245.508, 27080.00
1246.585, 27026.00
1247.661, 26991.00
1248.738, 27060.00
1249.814, 27220.00
1250.890, 27178.00
1251.966, 27233.00
1253.042, 27135.00
1254.117, 27357.00
1255.193, 27072.00
1256.268, 27082.00
1257.343, 27189.00
1258.418, 26928.00
1259.493, 26949.00
1260.567, 27139.00
1261.642, 26998.00
1262.716, 27334.00
1263.790, 27554.00
1264.864, 27442.00
1265.938, 27202.00
1267.011, 27341.00
1268.085, 27381.00
1269.158, 27419.00
1270.231, 27327.00
1271.304, 27439.00
1272.377, 27515.00
1273.450, 27711.00
1274.522, 27889.00
1275.594, 27556.00
1276.666, 27360.00
1277.738, 27434.00
1278.810, 27485.00
1279.882, 27413.00
1280.953, 27452.00
1282.025, 27530.00
1283.096, 27652.00
1284.167, 27618.37
1285.238, 27527.00
1286.308, 27544.00
1287.379, 27545.83
1288.449, 27567.00
1289.519, 27629.00
1290.589, 27664.00
1291.659, 27736.00
1292.729, 27672.00
1293.798, 27739.00
1294.868, 27683.00
1295.937, 27688.00
1297.006, 27854.00
1298.075, 27684.00
1299.143, 27680.00
1300.212, 27733.00
1301.280, 28037.00
1302.348, 27834.00
1303.416, 27976.00
1304.484, 27888.00
1305.552, 27946.00
1306.620, 27840.00
1307.687, 27845.00
1308.754, 27891.00
1309.821, 27856.59
1310.888, 28004.00
1311.955, 27946.00
1313.021, 27990.00
1314.088, 28174.00
1315.154, 28073.00
1316.220, 28258.00
1317.286, 28215.00
1318.352, 28366.00
1319.417, 28236.00
1320.483, 28232.00
1321.548, 28016.00
1322.613, 28079.73
1323.678, 28242.00
1324.743, 28137.00
1325.807, 28260.00
1326.872, 28265.00
1327.936, 28268.00
1329.000, 28256.00
1330.064, 28313.00
1331.128, 28088.00
1332.191, 28174.00
1333.255, 28060.00
1334.318, 28220.00
1335.381, 28045.00
1336.444, 28261.00
1337.507, 28180.00
1338.569, 28466.00
1339.632, 28193.00
1340.694, 28358.00
1341.756, 28102.00
1342.818, 28446.00
1343.880, 28252.00
1344.941, 28320.00
1346.003, 28351.00
1347.064, 28341.00
1348.125, 28374.00
1349.186, 28340.00
1350.247, 28298.00
1351.308, 28523.00
1352.368, 28575.00
1353.428, 28541.02
1354.489, 28869.00
1355.549, 28447.00
1356.608, 28458.00
1357.668, 28393.00
1358.727, 28643.00
1359.787, 28480.00
1360.846, 28462.00
1361.905, 28671.00
1362.964, 28533.00
1364.022, 28573.00
1365.081, 28484.00
1366.139, 28649.00
1367.197, 28660.00
1368.255, 28786.00
1369.313, 28834.35
1370.371, 28627.00
1371.428, 28852.00
1372.486, 28839.00
1373.543, 28691.00
1374.600, 28786.00
1375.657, 28823.00
1376.713, 28740.00
1377.770, 28793.00
1378.826, 28766.00
1379.882, 28841.00
1380.938, 28885.00
1381.994, 28815.00
1383.050, 28939.00
1384.106, 28987.00
1385.161, 28879.00
1386.216, 28944.11
1387.271, 28908.00
1388.326, 28923.00
1389.381, 28811.00
1390.435, 28814.66
1391.490, 28688.00
1392.544, 28972.00
1393.598, 29006.00
1394.652, 29157.00
1395.705, 29022.00
1396.759, 28911.00
1397.812, 28926.00
1398.866, 28922.94
1399.919, 29030.00
1400.972, 29005.00
1402.024, 29173.00
1403.077, 29119.00
1404.129, 28986.00
1405.181, 29297.00
1406.233, 28954.00
1407.285, 29109.00
1408.337, 28992.00
1409.389, 29127.00
1410.440, 29329.00
1411.491, 29221.00
1412.542, 29186.00
1413.593, 29098.00
1414.644, 29238.00
1415.695, 29359.00
1416.745, 29267.00
1417.795, 29413.00
1418.845, 29178.00
1419.895, 29224.00
1420.945, 29222.00
1421.995, 29344.00
1423.044, 29310.00
1424.093, 29234.00
1425.142, 29369.00
1426.191, 29548.00
1427.240, 29397.00
1428.289, 29254.00
1429.337, 29447.00
