##NAMES=Plumbophyllite
##RRUFFID=R130081
##IDEAL CHEMISTRY=Pb^2+^_2_Si_4_O_10_&#183;H_2_O
##LOCALITY=Blue Bell claims, about 11 km west of Baker, San Bernardino County, California, USA
##OWNER=Anthony R. Kampf 
##SOURCE=Anthony R. Kampf and George R. Rossman
##DESCRIPTION=Colorless to pale blue and transparent.  Data from Kampf et al (2009)
##STATUS=The identification of this mineral has been confirmed by X-ray diffraction and chemical analysis
##URL=rruff.info/R130081
##MEASURED CHEMISTRY=Pb_1.79_Cu_0.02_Si_4_O_9.62_(OH)_0.38_Â·1.02H_2_O
3999.94, 1366.33
3998.86, 1361.7
3997.78, 1375.37
3996.7, 1419.14
3995.62, 1388.82
3994.54, 1430.25
3993.46, 1430.02
3992.38, 1388.15
3991.3, 1392.55
3990.22, 1339.13
3989.14, 1334.29
3988.06, 1403.44
3986.98, 1322.3
3985.9, 1402.98
3984.81, 1342.67
3983.73, 1370.18
3982.65, 1356.1
3981.57, 1441.34
3980.48, 1443.42
3979.4, 1376.22
3978.32, 1403.71
3977.24, 1352.7
3976.15, 1343.25
3975.07, 1439.95
3973.99, 1409.72
3972.9, 1400.27
3971.82, 1450.78
3970.73, 1422.88
3969.65, 1378.84
3968.57, 1355.56
3967.48, 1438.32
3966.4, 1417.35
3965.31, 1389.47
3964.23, 1396.16
3963.14, 1391.32
3962.06, 1446.37
3960.97, 1367.85
3959.88, 1425.19
3958.8, 1424.96
3957.71, 1401.71
3956.63, 1364.66
3955.54, 1442.67
3954.45, 1334.31
3953.37, 1430.71
3952.28, 1448.87
3951.19, 1379.66
3950.1, 1404.72
3949.02, 1347.03
3947.93, 1450.23
3946.84, 1378.76
3945.75, 1424.49
3944.66, 1410.48
3943.58, 1325.27
3942.49, 1384.76
3941.4, 1432.76
3940.31, 1402.68
3939.22, 1430
3938.13, 1395.34
3937.04, 1388.23
3935.95, 1431.6
3934.86, 1385.49
3933.77, 1419.67
3932.68, 1412.56
3931.59, 1414.62
3930.5, 1398.35
3929.41, 1411.87
3928.32, 1381.85
3927.23, 1411.42
3926.14, 1461.59
3925.04, 1495.71
3923.95, 1399.28
3922.86, 1380.74
3921.77, 1398.83
3920.68, 1448.96
3919.58, 1407.53
3918.49, 1377.55
3917.4, 1427.66
3916.31, 1374.82
3915.21, 1470.66
3914.12, 1422.4
3913.03, 1381.01
3911.93, 1451.66
3910.84, 1414.85
3909.75, 1368.91
3908.65, 1471.52
3907.56, 1443.86
3906.46, 1432.21
3905.37, 1447.96
3904.27, 1372.37
3903.18, 1429.23
3902.08, 1481.5
3900.99, 1435.61
3899.89, 1421.69
3898.8, 1505.88
3897.7, 1466.85
3896.6, 1439.24
3895.51, 1413.92
3894.41, 1466.14
3893.32, 1445.38
3892.22, 1404.12
3891.12, 1392.5
3890.02, 1442.4
3888.93, 1462.67
3887.83, 1359.93
3886.73, 1405.26
3885.63, 1382.26
3884.54, 1391.14
3883.44, 1479.7
3882.34, 1506.77
3881.24, 1374.54
3880.14, 1449.4
3879.04, 1380.91
3877.94, 1458.03
3876.85, 1387.29
3875.75, 1484.84
3874.65, 1441.4
3873.55, 1538.91
3872.45, 1456.84
3871.35, 1381.62
3870.25, 1376.85
3869.15, 1492.48
3868.04, 1403.66
3866.94, 1469.29
3865.84, 1421.37
3864.74, 1457.46
3863.64, 1436.8
3862.54, 1393.44
3861.44, 1404.56
3860.33, 1533.65
3859.23, 1433.59
3858.13, 1451.51
3857.03, 1421.79
3855.93, 1512.25
3854.82, 1437.2
3853.72, 1436.96
3852.62, 1443.53
3851.51, 1427.43
3850.41, 1400.02
3849.31, 1377.14
3848.2, 1467.5
3847.1, 1465
3845.99, 1491.93
3844.89, 1412.46
3843.78, 1529.92
3842.68, 1473.1
3841.57, 1502.27
3840.47, 1375.35
3839.36, 1418.1
3838.26, 1435.96
3837.15, 1483.21
3836.05, 1467.14
3834.94, 1487.24
3833.83, 1505.08
3832.73, 1459.65
3831.62, 1459.41
3830.51, 1508.87
3829.41, 1490.55
3828.3, 1479.02
3827.19, 1544.25
3826.09, 1464.99
3824.98, 1442.19
3823.87, 1426.16
3822.76, 1414.64
3821.65, 1414.41
3820.55, 1448.02
3819.44, 1481.61
3818.33, 1481.37
3817.22, 1442.8
3816.11, 1431.29
3815, 1428.81
3813.89, 1448.86
3812.78, 1414.83
3811.67, 1482.17
3810.56, 1502.2
3809.45, 1501.96
3808.34, 1490.45
3807.23, 1559.99
3806.12, 1447.2
3805.01, 1489.73
3803.9, 1433.23
3802.79, 1457.75
3801.67, 1477.75
3800.56, 1376.31
3799.45, 1486.26
3798.34, 1434.31
3797.23, 1463.3
3796.11, 1528.24
3795, 1505.52
3793.89, 1473.82
3792.78, 1505.03
3791.66, 1473.34
3790.55, 1540.47
3789.44, 1475.11
3788.32, 1517.52
3787.21, 1470.14
3786.09, 1523.75
3784.98, 1545.94
3783.87, 1426.79
3782.75, 1462.45
3781.64, 1531.73
3780.52, 1533.72
3779.41, 1495.36
3778.29, 1488.39
3777.18, 1564.35
3776.06, 1532.72
3774.94, 1474.22
3773.83, 1447.1
3772.71, 1496.14
3771.6, 1527.25
3770.48, 1504.61
3769.36, 1584.95
3768.25, 1492.92
3767.13, 1519.54
3766.01, 1543.9
3764.89, 1507.85
3763.78, 1556.82
3762.66, 1514.07
3761.54, 1484.75
3760.42, 1513.58
3759.3, 1533.45
3758.18, 1501.91
3757.07, 1512.84
3755.95, 1517.06
3754.83, 1541.38
3753.71, 1503.16
3752.59, 1627.97
3751.47, 1498.2
3750.35, 1522.52
3749.23, 1459.77
3748.11, 1577.81
3746.99, 1541.85
3745.87, 1472.44
3744.75, 1539.12
3743.63, 1507.64
3742.51, 1556.45
3741.38, 1574.04
3740.26, 1518.05
3739.14, 1569.06
3738.02, 1593.32
3736.9, 1486.11
3735.77, 1574.98
3734.65, 1583.63
3733.53, 1492.07
3732.41, 1571.98
3731.28, 1593.98
3730.16, 1524.72
3729.04, 1551.18
3727.91, 1588.75
3726.79, 1557.35
3725.67, 1568.21
3724.54, 1583.53
3723.42, 1536.57
3722.29, 1531.87
3721.17, 1527.17
3720.04, 1624.72
3718.92, 1617.79
3717.79, 1601.97
3716.67, 1535.06
3715.54, 1619.21
3714.42, 1574.53
3713.29, 1603.14
3712.17, 1600.66
3711.04, 1593.74
3709.91, 1551.31
3708.79, 1591
3707.66, 1612.92
3706.53, 1630.4
3705.41, 1601.31
3704.28, 1592.17
3703.15, 1645.12
3702.02, 1675.89
3700.89, 1622.42
3699.77, 1673.12
3698.64, 1613.03
3697.51, 1632.7
3696.38, 1641.29
3695.25, 1625.52
3694.12, 1658.47
3692.99, 1611.71
3691.86, 1653.5
3690.73, 1569.13
3689.6, 1644.11
3688.47, 1665.96
3687.34, 1676.75
3686.21, 1625.6
3685.08, 1640.82
3683.95, 1664.87
3682.82, 1717.65
3681.69, 1673.17
3680.56, 1646.37
3679.43, 1683.66
3678.3, 1725.36
3677.16, 1698.57
3676.03, 1667.38
3674.9, 1746.59
3673.77, 1715.4
3672.64, 1726.16
3671.5, 1690.56
3670.37, 1774.14
3669.24, 1747.37
3668.1, 1742.67
3666.97, 1707.1
3665.84, 1735.48
3664.7, 1799.14
3663.57, 1697.44
3662.43, 1818.39
3661.3, 1888.61
3660.17, 1762.7
3659.03, 1813.09
3657.9, 1777.54
3656.76, 1799.28
3655.62, 1836.41
3654.49, 1888.95
3653.35, 1802.79
3652.22, 1844.31
3651.08, 1905.62
3649.95, 1925.11
3648.81, 1891.8
3647.67, 1884.89
3646.54, 1904.37
3645.4, 1899.66
3644.26, 1853.19
3643.12, 1824.31
3641.99, 1907.52
3640.85, 1951.15
3639.71, 1983.78
3638.57, 2029.58
3637.43, 2031.45
3636.29, 2020.13
3635.16, 2041.76
3634.02, 1949.23
3632.88, 2032.31
3631.74, 2045.14
3630.6, 2007.5
3629.46, 2066.4
3628.32, 2138.44
3627.18, 2050.37
3626.04, 2093.89
3624.9, 2102.31
3623.76, 2134.84
3622.62, 2138.87
3621.48, 2156.05
3620.34, 2181.99
3619.19, 2240.77
3618.05, 2240.4
3616.91, 2264.12
3615.77, 2268.12
3614.63, 2269.94
3613.48, 2335.22
3612.34, 2247.31
3611.2, 2367.27
3610.06, 2452.2
3608.91, 2408.05
3607.77, 2359.55
3606.63, 2350.41
3605.48, 2404.68
3604.34, 2419.58
3603.2, 2432.29
3602.05, 2490.89
3600.91, 2516.69
3599.76, 2553.41
3598.62, 2577.02
3597.47, 2598.43
3596.33, 2676.59
3595.18, 2746
3594.04, 2732.46
3592.89, 2753.83
3591.75, 2812.28
3590.6, 2888.17
3589.45, 2848.43
3588.31, 2915.57
3587.16, 2869.3
3586.01, 3049.76
3584.87, 2959.9
3583.72, 3059.65
3582.57, 3189.88
3581.42, 3100.04
3580.28, 3088.64
3579.13, 3216.62
3577.98, 3237.86
3576.83, 3276.52
3575.68, 3289.04
3574.53, 3410.37
3573.39, 3420.69
3572.24, 3487.57
3571.09, 3565.31
3569.94, 3597.34
3568.79, 3670.69
3567.64, 3583.11
3566.49, 3647.74
3565.34, 3658
3564.19, 3674.78
3563.04, 3648.1
3561.89, 3806.09
3560.74, 3855.42
3559.58, 3726.65
3558.43, 3782.49
3557.28, 3810.09
3556.13, 3978.77
3554.98, 3884.8
3553.83, 3827.74
3552.67, 3809.75
3551.52, 3813.46
3550.37, 3799.82
3549.22, 3972.67
3548.06, 3874.45
3546.91, 3860.8
3545.76, 3847.16
3544.6, 3753.34
3543.45, 3891.39
3542.29, 3871.25
3541.14, 3950.75
3539.99, 3932.77
3538.83, 3934.29
3537.68, 3972.61
3536.52, 3883.21
3535.37, 3852.27
3534.21, 3949
3533.06, 3909.41
3531.9, 3962.84
3530.74, 3983.81
3529.59, 4054.51
3528.43, 4068.98
3527.27, 3949.41
3526.12, 4046.02
3524.96, 3935.14
3523.8, 3988.51
3522.65, 3979.21
3521.49, 4032.55
3520.33, 4031.88
3519.17, 4100.31
3518.02, 3996.01
3516.86, 4107.59
3515.7, 4173.81
3514.54, 3953.03
3513.38, 4243.63
3512.22, 4186.84
3511.06, 4224.97
3509.9, 4066.86
3508.74, 4283.94
3507.58, 4156.05
3506.42, 4163.98
3505.26, 4350.77
3504.1, 4281.1
3502.94, 4357.95
3501.78, 4208.61
3500.62, 4341.43
3499.46, 4493.59
3498.3, 4367.98
3497.14, 4468.42
3495.98, 4598.96
3494.81, 4438.97
3493.65, 4489.87
3492.49, 4620.34
3491.33, 4544.3
3490.17, 4605.91
3489, 4714.79
3487.84, 4888.12
3486.68, 4691.74
3485.51, 4918.74
3484.35, 4883.55
3483.19, 4949.33
3482.02, 4985.02
3480.86, 5007.82
3479.69, 5015.58
3478.53, 5182.19
3477.36, 5198.51
3476.2, 5133.26
3475.03, 5265.44
3473.87, 5133.71
3472.7, 5300.16
3471.54, 5230.66
3470.37, 5236.22
3469.21, 5291.1
3468.04, 5380.25
3466.87, 5383.64
3465.71, 5200.61
3464.54, 5296.16
3463.37, 5312.42
3462.2, 5362.94
3461.04, 5167.18
3459.87, 5359.02
3458.7, 5251.1
3457.53, 5245.95
3456.37, 5251.5
3455.2, 5162.9
3454.03, 5125.68
3452.86, 5124.83
3451.69, 5070.51
3450.52, 5050.43
3449.35, 4966.22
3448.18, 5040.2
3447.01, 4981.67
3445.84, 4989.39
3444.67, 4896.69
3443.5, 4910.83
3442.33, 4816.04
3441.16, 4898.52
3439.99, 4880.63
3438.82, 4847.8
3437.65, 4889.68
3436.48, 4769.37
3435.3, 4819.78
3434.13, 4742.19
3432.96, 4816.05
3431.79, 4813.12
3430.61, 4803.79
3429.44, 4628.18
3428.27, 4759.57
3427.1, 4707.63
3425.92, 4802.73
3424.75, 4799.8
3423.58, 4822.44
3422.4, 4894.05
3421.23, 4767.6
3420.05, 4869
3418.88, 4851.16
3417.7, 4775.87
3416.53, 4864.45
3415.35, 4918.95
3414.18, 4913.88
3413, 4900.3
3411.83, 4910.12
3410.65, 4864.66
3409.48, 4974.39
3408.3, 4982.07
3407.12, 5066.24
3405.95, 4942.16
3404.77, 4875.49
3403.59, 4980.88
3402.42, 5113.84
3401.24, 5017.44
3400.06, 4897.72
3398.88, 5058.22
3397.71, 5104.07
3396.53, 5154.15
3395.35, 5178.75
3394.17, 5241.53
3392.99, 5217.33
3391.81, 5288.55
3390.63, 5270.71
3389.45, 5386.43
3388.27, 5213.85
3387.09, 5350.73
3385.91, 5360.43
3384.73, 5317.17
3383.55, 5352.29
3382.37, 5393.75
3381.19, 5530.48
3380.01, 5656.58
3378.83, 5479.96
3377.65, 5671.63
3376.47, 5418.89
3375.29, 5627.43
3374.1, 5774.56
3372.92, 5739.76
3371.74, 5688.05
3370.56, 5742.07
3369.37, 5766.48
3368.19, 5735.93
3367.01, 5737.09
3365.83, 5949.52
3364.64, 5815.45
3363.46, 5936.98
3362.27, 5944.44
3361.09, 5776.65
3359.91, 6029.01
3358.72, 5954.13
3357.54, 6031.22
3356.35, 5966.92
3355.17, 6043.98
3353.98, 6078.83
3352.8, 6128.43
3351.61, 6045.17
3350.42, 5886.05
3349.24, 6112.71
3348.05, 6029.5
3346.87, 6152.82
3345.68, 6094.91
3344.49, 6039.12
3343.31, 6269.79
3342.12, 6300.33
3340.93, 6166.64
3339.74, 6039.31
3338.56, 6156.16
3337.37, 6176.18
3336.18, 6107.82
3334.99, 6096.28
3333.8, 6238.29
3332.61, 6151.02
3331.42, 6223.59
3330.23, 6262.49
3329.05, 6187.88
3327.86, 6081.77
3326.67, 5994.61
3325.48, 6172.18
3324.29, 6064.02
3323.1, 5974.81
3321.9, 6036.8
3320.71, 5920.33
3319.52, 5959.22
3318.33, 6014.89
3317.14, 6015.98
3315.95, 5928.96
3314.76, 5894.41
3313.56, 5840.99
3312.37, 5930.18
3311.18, 5885.16
3309.99, 5789.85
3308.79, 5648.45
3307.6, 5756.48
3306.41, 5761.8
3305.22, 5725.23
3304.02, 5780.82
3302.83, 5624.89
3301.63, 5682.58
3300.44, 5742.34
3299.25, 5753.93
3298.05, 5729.95
3296.86, 5779.21
3295.66, 5780.34
3294.47, 5720.8
3293.27, 5755.4
3292.07, 5762.8
3290.88, 5680.3
3289.68, 5676.22
3288.49, 5672.14
3287.29, 5668.06
3286.09, 5663.97
3284.9, 5659.89
3283.7, 5655.8
3282.5, 5615.18
3281.31, 5620.51
3280.11, 5607.04
3278.91, 5597.75
3277.71, 5690.72
3276.51, 5554.15
3275.32, 5661.7
3274.12, 5577.32
3272.92, 5555.53
3271.72, 5652.6
3270.52, 5530.74
3269.32, 5757.01
3268.12, 5426.77
3266.92, 5600.89
3265.72, 5556.2
3264.52, 5628.18
3263.32, 5546.01
3262.12, 5607.55
3260.92, 5467.12
3259.72, 5672.28
3258.52, 5673.41
3257.32, 5632.93
3256.11, 5698.56
3254.91, 5660.16
3253.71, 5613.46
3252.51, 5624.99
3251.31, 5649
3250.1, 5708.34
3248.9, 5715.69
3247.7, 5702.27
3246.49, 5597.43
3245.29, 5656.73
3244.09, 5614.24
3242.88, 5733.75
3241.68, 5811.69
3240.47, 5758.81
3239.27, 5714.26
3238.07, 5835.74
3236.86, 5683.29
3235.66, 5759.1
3234.45, 5807.92
3233.24, 5692.88
3232.04, 5845.37
3230.83, 5817.43
3229.63, 5874.5
3228.42, 5844.5
3227.21, 5793.78
3226.01, 5817.67
3224.8, 5880.91
3223.59, 5792.94
3222.39, 6040.46
3221.18, 5859.32
3219.97, 5876.96
3218.76, 5873.91
3217.56, 5883.27
3216.35, 5838.83
3215.14, 5993
3213.93, 6070.59
3212.72, 5937.22
3211.51, 5907.28
3210.3, 5933.16
3209.09, 5948.7
3207.88, 5867.1
3206.67, 5847.52
3205.46, 5960.16
3204.25, 5864.15
3203.04, 5879.68
3201.83, 5922.06
3200.62, 5855
3199.41, 5851.95
3198.2, 5902.56
3196.99, 5918.08
3195.77, 5696.33
3194.56, 5804.7
3193.35, 5805.78
3192.14, 5749.13
3190.93, 5950.22
3189.71, 5720.4
3188.5, 5770.96
3187.29, 5844.18
3186.07, 5785.51
3184.86, 5815.43
3183.65, 5608.49
3182.43, 5619.9
3181.22, 5715.73
3180, 5535.67
3178.79, 5551.2
3177.57, 5546.15
3176.36, 5539.05
3175.14, 5474.34
3173.93, 5448.73
3172.71, 5530.08
3171.5, 5313.25
3170.28, 5232.17
3169.06, 5434.79
3167.85, 5396.88
3166.63, 5336.38
3165.41, 5314.94
3164.2, 5295.56
3162.98, 5138.58
3161.76, 5246.55
3160.55, 5147.11
3159.33, 5211.94
3158.11, 5211.06
3156.89, 5160.93
3155.67, 5155.96
3154.45, 4972.52
3153.24, 5045.52
3152.02, 5065.17
3150.8, 5029.46
3149.58, 4866.67
3148.36, 4994.98
3147.14, 4826.09
3145.92, 4913.38
3144.7, 4855.19
3143.48, 4702.8
3142.26, 4808.5
3141.03, 4731.93
3139.81, 4755.7
3138.59, 4734.43
3137.37, 4819.59
3136.15, 4573.23
3134.93, 4586.78
3133.7, 4604.42
3132.48, 4605.69
3131.26, 4564.01
3130.04, 4614.36
3128.81, 4482.75
3127.59, 4473.82
3126.37, 4368.85
3125.14, 4427.37
3123.92, 4363.29
3122.7, 4319.67
3121.47, 4208.67
3120.25, 4332.5
3119.02, 4239.91
3117.8, 4280.01
3116.57, 4291.54
3115.35, 4233.68
3114.12, 4251.33
3112.9, 4109.88
3111.67, 4180.56
3110.44, 4134.99
3109.22, 4109.83
3107.99, 4182.52
3106.76, 4028.97
3105.54, 3936.59
3104.31, 3911.48
3103.08, 3959.71
3101.86, 3910.16
3100.63, 3842.31
3099.4, 3896.63
3098.17, 3841.01
3096.94, 3805.76
3095.71, 3729.83
3094.49, 3808.55
3093.26, 3702.13
3092.03, 3658.79
3090.8, 3751.71
3089.57, 3643.32
3088.34, 3673.2
3087.11, 3558.76
3085.88, 3613.03
3084.65, 3543.34
3083.42, 3583.37
3082.19, 3436.53
3080.95, 3456.25
3079.72, 3506.43
3078.49, 3377.94
3077.26, 3430.14
3076.03, 3334.18
3074.8, 3422.89
3073.56, 3373.63
3072.33, 3375.09
3071.1, 3244.73
3069.87, 3298.92
3068.63, 3241.6
3067.4, 3257.27
3066.17, 3216.19
3064.93, 3167.01
3063.7, 3211.05
3062.46, 3186.2
3061.23, 3177.55
3059.99, 3049.45
3058.76, 3154.21
3057.52, 3121.29
3056.29, 3049.93
3055.05, 3122.26
3053.82, 2990.22
3052.58, 3038.26
3051.35, 2999.32
3050.11, 2938.15
3048.87, 3050.87
3047.64, 2908.85
3046.4, 2944.74
3045.16, 2964.45
3043.92, 2808.38
3042.69, 2791.74
3041.45, 2874.08
3040.21, 2778.68
3038.97, 2848.87
3037.73, 2822.15
3036.5, 2751.03
3035.26, 2738.45
3034.02, 2758.16
3032.78, 2751.65
3031.54, 2743.11
3030.3, 2700.3
3029.06, 2726.05
3027.82, 2671.16
3026.58, 2686.83
3025.34, 2746.83
3024.1, 2768.53
3022.86, 2669.35
3021.62, 2634.65
3020.37, 2652.33
3019.13, 2643.82
3017.89, 2601.1
3016.65, 2650.98
3015.41, 2547.89
3014.16, 2559.53
3012.92, 2536.97
3011.68, 2530.5
3010.44, 2542.14
3009.19, 2569.86
3007.95, 2476.94
3006.71, 2510.69
3005.46, 2524.33
3004.22, 2505.82
3002.97, 2527.5
3001.73, 2430.64
3000.48, 2480.44
2999.24, 2453.92
2997.99, 2393.27
2996.75, 2479.18
2995.5, 2438.62
2994.26, 2488.37
2993.01, 2457.85
2991.76, 2391.24
2990.52, 2364.75
2989.27, 2342.29
2988.03, 2388.01
2986.78, 2349.52
2985.53, 2355.13
2984.28, 2370.76
2983.04, 2400.41
2981.79, 2369.96
2980.54, 2363.54
2979.29, 2303.06
2978.04, 2312.68
2976.79, 2258.24
2975.54, 2365.94
2974.3, 2213.44
2973.05, 2333.12
2971.8, 2262.7
2970.55, 2252.32
2969.3, 2281.93
2968.05, 2213.56
2966.8, 2329.14
2965.55, 2316.75
2964.29, 2226.42
2963.04, 2279.99
2961.79, 2241.65
2960.54, 2257.24
2959.29, 2286.82
2958.04, 2242.5
2956.78, 2248.11
2955.53, 2241.74
2954.28, 2161.52
2953.03, 2236.98
2951.77, 2272.51
2950.52, 2238.21
2949.27, 2142.1
2948.01, 2233.46
2946.76, 2298.88
2945.51, 2220.74
2944.25, 2232.32
2943, 2156.22
2941.74, 2179.76
2940.49, 2191.34
2939.23, 2147.15
2937.98, 2152.76
2936.72, 2158.36
2935.47, 2299.34
2934.21, 2247.2
2932.95, 2181.14
2931.7, 2204.65
2930.44, 2148.57
2929.18, 2185.99
2927.93, 2195.57
2926.67, 2240.92
2925.41, 2121.26
2924.15, 2134.81
2922.9, 2128.49
2921.64, 2181.77
2920.38, 2235.04
2919.12, 2212.81
2917.86, 2152.85
2916.6, 2154.47
2915.34, 2231.53
2914.08, 2185.5
2912.82, 2191.08
2911.56, 2133.16
2910.3, 2208.19
2909.04, 2158.22
2907.78, 2179.67
2906.52, 2094.03
2905.26, 2180.91
2904, 2214.23
2902.74, 2168.27
2901.48, 2106.47
2900.22, 2195.27
2898.95, 2129.52
2897.69, 2200.46
2896.43, 2164.44
2895.17, 2181.89
2893.9, 2118.17
2892.64, 2198.96
2891.38, 2050.16
2890.11, 2194.25
2888.85, 2160.25
2887.59, 2112.41
2886.32, 2165.44
2885.06, 2178.91
2883.79, 2170.63
2882.53, 2164.33
2881.26, 2219.3
2880, 2212.99
2878.73, 2297.56
2877.47, 2237.91
2876.2, 2180.26
2874.93, 2148.29
2873.67, 2116.34
2872.4, 2123.87
2871.13, 2137.32
2869.87, 2127.09
2868.6, 2091.22
2867.33, 2043.52
2866.07, 2106.28
2864.8, 2034.93
2863.53, 2014.87
2862.26, 2093.37
2860.99, 2051.63
2859.72, 2065.07
2858.46, 2098.21
2857.19, 2026.94
2855.92, 2064.01
2854.65, 2081.38
2853.38, 1986.52
2852.11, 2074.76
2850.84, 2005.52
2849.57, 2081.92
2848.3, 2063.86
2847.03, 2057.6
2845.75, 2120.19
2844.48, 2084.43
2843.21, 2019.19
2841.94, 2107.31
2840.67, 1955.61
2839.4, 2053.53
2838.12, 2045.32
2836.85, 1932.99
2835.58, 1958.2
2834.3, 1973.57
2833.03, 1967.34
2831.76, 1880.63
2830.48, 1921.53
2829.21, 1919.23
2827.94, 1879.66
2826.66, 1924.46
2825.39, 1865.29
2824.11, 1861.05
2822.84, 1827.4
2821.56, 1811.4
2820.29, 1891.45
2819.01, 1848.02
2817.73, 1822.23
2816.46, 1853.26
2815.18, 1798.1
2813.91, 1844.79
2812.63, 1903.22
2811.35, 1869.61
2810.07, 1857.54
2808.8, 1872.88
2807.52, 1878.43
2806.24, 1883.98
2804.96, 1875.83
2803.68, 1828.57
2802.41, 1867.37
2801.13, 1800.57
2799.85, 1831.54
2798.57, 1850.77
2797.29, 1862.18
2796.01, 1926.33
2794.73, 1842
2793.45, 1845.59
2792.17, 1845.28
2790.89, 1913.29
2789.61, 1858.31
2788.33, 1818.96
2787.05, 1808.89
2785.77, 1876.86
2784.48, 1816.07
2783.2, 1833.31
2781.92, 1754.99
2780.64, 1865.82
2779.36, 1886.95
2778.07, 1793.07
2776.79, 1862.91
2775.51, 1774.92
2774.22, 1885.65
2772.94, 1824.95
2771.66, 1853.85
2770.37, 1820.43
2769.09, 1765.61
2767.8, 1815.91
2766.52, 1821.44
2765.23, 1852.25
2763.95, 1863.61
2762.66, 1902.19
2761.38, 1857.13
2760.09, 1790.71
2758.81, 1897.32
2757.52, 1854.23
2756.23, 1799.5
2754.95, 1770.05
2753.66, 1826.08
2752.37, 1823.82
2751.08, 1885.65
2749.8, 1862.03
2748.51, 1762.7
2747.22, 1830.33
2745.93, 1822.25
2744.64, 1854.93
2743.36, 1844.91
2742.07, 1817.43
2740.78, 1807.43
2739.49, 1785.79
2738.2, 1799.05
2736.91, 1781.29
2735.62, 1879.82
2734.33, 1864
2733.04, 1857.87
2731.75, 1894.35
2730.46, 1886.28
2729.17, 1901.44
2727.87, 1934.03
2726.58, 1887.24
2725.29, 1857.88
2724, 1822.73
2722.71, 1892.07
2721.41, 1887.87
2720.12, 1881.75
2718.83, 1798.28
2717.54, 1873.36
2716.24, 1826.65
2714.95, 1905.57
2713.65, 1816.36
2712.36, 1860.48
2711.07, 1867.89
2709.77, 1902.33
2708.48, 1844.07
2707.18, 1876.58
2705.89, 1843.44
2704.59, 1883.65
2703.3, 1817.72
2702, 1850.2
2700.7, 1766.94
2699.41, 1893.92
2698.11, 1787.54
2696.81, 1866.28
2695.52, 1869.81
2694.22, 1848.29
2692.92, 1907.7
2691.63, 1859.21
2690.33, 1847.33
2689.03, 1873.98
2687.73, 1829.36
2686.43, 1869.48
2685.13, 1880.71
2683.84, 1901.55
2682.54, 1905.07
2681.24, 1933.6
2679.94, 1858.25
2678.64, 1842.54
2677.34, 1840.3
2676.04, 1866.9
2674.74, 1818.52
2673.44, 1862.41
2672.13, 1956.25
2670.83, 1909.8
2669.53, 1834.55
2668.23, 1928.35
2666.93, 1826.24
2665.63, 1868.16
2664.32, 1921.59
2663.02, 1957.73
2661.72, 1945.87
2660.42, 1878.38
2659.11, 1947.12
2657.81, 1900.75
2656.51, 1898.5
2655.2, 1905.85
2653.9, 1892.1
2652.59, 1882.19
2651.29, 1862.7
2649.98, 1848.96
2648.68, 1829.49
2647.37, 1855.99
2646.07, 1905.46
2644.76, 1891.72
2643.46, 1927.77
2642.15, 1923.61
2640.84, 1902.22
2639.54, 1877.02
2638.23, 1815.48
2636.92, 1849.59
2635.62, 1868.4
2634.31, 1977.06
2633, 1827.61
2631.69, 1833.02
2630.39, 1809.77
2629.08, 1868.69
2627.77, 1870.28
2626.46, 1877.6
2625.15, 1865.81
2623.84, 1867.4
2622.53, 1859.44
2621.22, 1866.75
2619.91, 1919.87
