##NAMES=Polylithionite
##RRUFFID=R050132
##IDEAL CHEMISTRY=KLi_2_AlSi_4_O_10_F_2_
##LOCALITY=Brown Derby mine, Ohio City, Gunnison County, Colorado, USA
##OWNER=RRUFF
##SOURCE=Dave Bunk Minerals
##DESCRIPTION=Purple scaly aggregate, polytype 2M1
##STATUS=The identification of this mineral has been confirmed by X-ray diffraction and chemical analysis
##URL=rruff.info/R050132
##MEASURED CHEMISTRY=(K_0.90_Rb_0.10_)(Li_0.62_Al_0.38_)_3_(Si_0.93_Al_0.07_)_4_O_10_(F_0.69_(OH)_0.31_)_2_
##PIN_ID=M00120
##ORIENTATION=Laser parallel to c* (0 0 1). Fiducial mark perpendicular to laser is parallel to -a [-1 0 0]
91.01200, 17347.00
92.24600, 17876.00
93.48000, 18313.00
94.71400, 18631.00
95.94800, 19070.00
97.18200, 19382.00
98.41600, 19276.00
99.64900, 19573.00
100.8830, 19238.00
102.1160, 19434.00
103.3490, 19092.00
104.5820, 19200.00
105.8150, 18957.00
107.0470, 19091.00
108.2800, 19305.00
109.5120, 19420.00
110.7440, 19354.00
111.9760, 19094.00
113.2080, 19428.00
114.4400, 19135.00
115.6710, 19281.00
116.9030, 19299.00
118.1340, 19517.00
119.3650, 19339.00
120.5960, 19198.00
121.8270, 19174.00
123.0580, 19154.00
124.2880, 19319.00
125.5190, 19436.00
126.7490, 19464.00
127.9790, 19357.00
129.2090, 19493.00
130.4390, 19565.00
131.6680, 19486.00
132.8980, 19674.00
134.1270, 19655.00
135.3560, 19557.00
136.5850, 19859.00
137.8140, 19768.00
139.0430, 19814.00
140.2710, 19805.00
141.5000, 20018.00
142.7280, 20113.00
143.9560, 19878.00
145.1840, 20131.00
146.4120, 20161.00
147.6390, 20342.00
148.8670, 20209.00
150.0940, 20432.00
151.3210, 20328.00
152.5490, 20434.00
153.7750, 20371.00
155.0020, 20316.00
156.2290, 20449.00
157.4550, 20584.00
158.6810, 20418.00
159.9080, 20744.00
161.1340, 20907.00
162.3590, 20823.00
163.5850, 21073.00
164.8110, 21302.00
166.0360, 21481.00
167.2610, 21595.00
168.4860, 21678.00
169.7110, 22055.00
170.9360, 22064.00
172.1610, 22243.00
173.3850, 22436.00
174.6100, 22324.00
175.8340, 22822.00
177.0580, 22815.00
178.2820, 22922.00
179.5050, 22792.00
180.7290, 22921.00
181.9520, 22771.00
183.1760, 22973.00
184.3990, 22724.00
185.6220, 22588.00
186.8450, 22470.00
188.0670, 22346.83
189.2900, 22351.00
190.5120, 22247.00
191.7340, 22277.00
192.9560, 22353.00
194.1780, 22367.27
195.4000, 22423.72
196.6220, 22512.00
197.8430, 22521.00
199.0640, 22581.00
200.2860, 22640.00
201.5070, 22377.00
202.7270, 22367.00
203.9480, 22389.00
205.1690, 22148.00
206.3890, 22254.00
207.6090, 22226.00
208.8290, 22266.00
210.0490, 22351.00
211.2690, 22366.00
212.4890, 22493.00
213.7080, 22521.00
214.9280, 22531.44
216.1470, 22535.00
217.3660, 22477.00
218.5850, 22312.00
219.8030, 22170.00
221.0220, 22107.00
222.2400, 22345.00
223.4590, 22295.00
224.6770, 22261.00
225.8950, 22302.00
227.1120, 22175.00
228.3300, 22369.00
229.5480, 22556.00
230.7650, 22598.00
231.9820, 22648.00
233.1990, 22842.00
234.4160, 22896.00
235.6330, 23189.00
236.8490, 23219.00
238.0660, 23271.00
239.2820, 23525.00
240.4980, 23703.00
241.7140, 23860.00
242.9300, 23889.00
244.1460, 24075.00
245.3610, 24132.00
246.5770, 24532.00
247.7920, 24705.00
249.0070, 24961.00
250.2220, 24919.00
251.4370, 25410.00
252.6510, 25618.00
253.8660, 26119.00
255.0800, 26572.00
256.2940, 26913.00
257.5080, 27656.00
258.7220, 28245.00
259.9360, 28817.00
261.1490, 29261.00
262.3630, 29257.00
263.5760, 29183.00
264.7890, 29015.00
266.0020, 28421.00
267.2150, 27894.00
268.4270, 27180.00
269.6400, 26585.00
270.8520, 26198.00
272.0640, 25734.00
273.2760, 25382.02
274.4880, 25058.54
275.7000, 24846.00
276.9120, 24508.00
278.1230, 24403.00
279.3340, 24206.00
280.5450, 24223.00
281.7560, 24167.00
282.9670, 23967.00
284.1780, 23983.00
285.3880, 23981.00
286.5980, 23911.00
287.8090, 23897.00
289.0190, 23878.00
290.2290, 23848.00
291.4380, 23956.00
292.6480, 24019.00
293.8570, 24077.00
295.0670, 23978.00
296.2760, 24216.00
297.4850, 24095.00
298.6930, 24201.00
299.9020, 24064.00
301.1110, 24176.00
302.3190, 24065.00
303.5270, 24276.00
304.7350, 24059.00
305.9430, 24225.00
307.1510, 24104.00
308.3580, 24250.00
309.5660, 24031.00
310.7730, 24288.00
311.9800, 24447.00
313.1870, 24285.00
314.3940, 24436.00
315.6010, 24591.00
316.8070, 24243.00
318.0130, 24207.00
319.2200, 24559.00
320.4260, 24380.00
321.6310, 24560.00
322.8370, 24374.00
324.0430, 24408.00
325.2480, 24546.00
326.4540, 24378.00
327.6590, 24575.00
328.8640, 24704.00
330.0680, 24560.00
331.2730, 24447.00
332.4780, 24338.00
333.6820, 24471.00
334.8860, 24628.00
336.0900, 24600.00
337.2940, 24438.00
338.4980, 24741.00
339.7010, 24633.00
340.9050, 24289.00
342.1080, 24486.00
343.3110, 24468.00
344.5140, 24691.00
345.7170, 24530.00
346.9200, 24694.00
348.1220, 24685.00
349.3240, 24746.00
350.5270, 24782.00
351.7290, 24988.00
352.9310, 24874.00
354.1320, 24753.00
355.3340, 25033.00
356.5350, 25205.00
357.7370, 25075.00
358.9380, 25041.00
360.1390, 25279.00
361.3400, 25244.00
362.5400, 25047.00
363.7410, 25268.00
364.9410, 25386.00
366.1410, 25354.00
367.3410, 25619.00
368.5410, 25648.00
369.7410, 25732.00
370.9400, 25765.00
372.1400, 25916.00
373.3390, 26068.00
374.5380, 25868.00
375.7370, 26099.00
376.9360, 26221.00
378.1350, 26036.00
379.3330, 26379.00
380.5310, 26474.00
381.7300, 26422.00
382.9280, 26551.00
384.1260, 26637.00
385.3230, 26716.00
386.5210, 26851.00
387.7180, 26933.00
388.9160, 27185.00
390.1130, 27263.44
391.3100, 27514.00
392.5060, 27533.00
393.7030, 27618.00
394.9000, 27799.00
396.0960, 28161.00
397.2920, 28037.00
398.4880, 28219.00
399.6840, 28255.00
400.8800, 28334.00
402.0750, 28519.00
403.2710, 28658.00
404.4660, 28754.00
405.6610, 28593.00
406.8560, 28567.00
408.0510, 28766.00
409.2450, 28399.00
410.4400, 28537.00
411.6340, 28350.00
412.8280, 28305.00
414.0220, 28126.00
415.2160, 28123.00
416.4100, 27859.00
417.6030, 27615.00
418.7970, 27706.00
419.9900, 27670.00
421.1830, 27634.00
422.3760, 27523.00
423.5690, 27610.00
424.7610, 27557.00
425.9540, 27487.00
427.1460, 27382.00
428.3380, 27301.00
429.5300, 27485.00
430.7220, 27489.00
431.9140, 27580.00
433.1050, 27569.00
434.2970, 27677.00
435.4880, 27622.00
436.6790, 27597.00
437.8700, 27688.00
439.0610, 27779.00
440.2510, 27765.00
441.4420, 27789.00
442.6320, 27978.00
443.8220, 27715.00
445.0120, 27872.00
446.2020, 27714.00
447.3910, 28088.00
448.5810, 27982.00
449.7700, 27933.00
450.9600, 27949.00
452.1490, 28095.00
453.3370, 28062.82
454.5260, 27958.00
455.7150, 28087.00
456.9030, 28013.00
458.0910, 27933.00
459.2800, 28053.00
460.4670, 27982.00
461.6550, 28036.00
462.8430, 28307.00
464.0300, 28192.00
465.2180, 28148.00
466.4050, 28287.00
467.5920, 28234.00
468.7790, 28336.00
469.9650, 28271.00
471.1520, 28256.00
472.3380, 28531.00
473.5250, 28561.00
474.7110, 28465.00
475.8970, 28700.00
477.0820, 28524.00
478.2680, 28467.00
479.4540, 28558.00
480.6390, 28556.00
481.8240, 28426.00
483.0090, 28409.00
484.1940, 28330.00
485.3780, 28489.00
486.5630, 28382.00
487.7470, 28572.00
488.9320, 28293.00
490.1160, 28415.00
491.3000, 28158.00
492.4830, 28431.00
493.6670, 28166.00
494.8500, 28329.00
496.0340, 28303.00
497.2170, 28348.00
498.4000, 28211.00
499.5820, 28215.00
500.7650, 28273.95
501.9480, 28387.00
503.1300, 28450.00
504.3120, 28512.30
505.4940, 28441.00
506.6760, 28619.00
507.8580, 28633.00
509.0390, 28674.00
510.2210, 28772.00
511.4020, 28603.00
512.5830, 28568.00
513.7640, 28750.00
514.9450, 28467.00
516.1250, 28788.00
517.3060, 28956.00
518.4860, 28822.00
519.6660, 28887.00
520.8460, 28851.00
522.0260, 29052.00
523.2060, 29084.00
524.3850, 29072.00
525.5650, 29428.00
526.7440, 29452.00
527.9230, 29363.00
529.1020, 29369.00
530.2810, 29392.00
531.4590, 29522.00
532.6380, 29652.00
533.8160, 29706.00
534.9940, 29800.75
536.1720, 29853.72
537.3500, 29934.00
538.5270, 29905.00
539.7050, 29983.00
540.8820, 29939.00
542.0590, 29983.00
543.2360, 29999.59
544.4130, 30198.00
545.5900, 30248.63
546.7660, 30362.00
547.9430, 30479.00
549.1190, 30645.00
550.2950, 30773.52
551.4710, 30757.00
552.6470, 30947.00
553.8220, 30992.00
554.9980, 31075.00
556.1730, 31329.00
557.3480, 31082.00
558.5230, 31363.00
559.6980, 31374.00
560.8730, 31430.00
562.0470, 31537.00
563.2220, 31471.00
564.3960, 31676.00
565.5700, 31519.00
566.7440, 31561.00
567.9170, 31381.00
569.0910, 31532.00
570.2640, 31187.00
571.4380, 31342.00
572.6110, 31128.00
573.7840, 30840.00
574.9570, 30803.00
576.1290, 30797.00
577.3020, 30895.00
578.4740, 30737.00
579.6460, 30899.00
580.8180, 30815.00
581.9900, 30706.00
583.1620, 30678.00
584.3330, 30608.00
585.5040, 30680.00
586.6760, 30791.00
587.8470, 30402.00
589.0180, 30556.00
590.1880, 30590.00
591.3590, 30798.00
592.5290, 30681.00
593.7000, 30499.00
594.8700, 30689.00
596.0400, 30764.00
597.2090, 30985.00
598.3790, 30942.00
599.5490, 30930.00
600.7180, 31160.00
601.8870, 31022.00
603.0560, 30862.00
604.2250, 30971.00
605.3940, 31222.00
606.5620, 31145.00
607.7300, 31251.00
608.8990, 31343.00
610.0670, 31290.00
611.2350, 31472.00
612.4020, 31796.00
613.5700, 31584.00
614.7370, 31800.00
615.9050, 31796.00
617.0720, 31829.00
618.2390, 31843.00
619.4060, 31625.00
620.5720, 31772.00
621.7390, 32098.00
622.9050, 32133.00
624.0710, 31962.00
625.2370, 32088.00
626.4030, 32032.00
627.5690, 32104.00
628.7340, 32271.00
629.9000, 32162.00
631.0650, 32180.00
632.2300, 32103.00
633.3950, 32032.00
634.5600, 32124.00
635.7240, 32253.00
636.8890, 31901.00
638.0530, 32364.00
639.2170, 32210.00
640.3810, 32337.00
641.5450, 32067.00
642.7080, 32076.00
643.8720, 31969.00
645.0350, 32051.00
646.1980, 31955.00
647.3610, 32286.00
648.5240, 31980.00
649.6870, 32391.00
650.8490, 32363.00
652.0120, 32231.00
653.1740, 32332.00
654.3360, 32636.00
655.4980, 32368.00
656.6600, 32506.00
657.8210, 32292.00
658.9830, 32586.00
660.1440, 32539.00
661.3050, 32673.00
662.4660, 32835.00
663.6270, 32631.00
664.7870, 32619.00
665.9480, 32532.00
667.1080, 32886.00
668.2680, 32731.00
669.4280, 32717.00
670.5880, 32925.00
671.7480, 32867.00
672.9070, 33132.00
674.0670, 33173.00
675.2260, 33422.00
676.3850, 33280.00
677.5440, 33627.00
678.7030, 33681.00
679.8610, 33892.00
681.0200, 33849.00
682.1780, 34085.00
683.3360, 34350.00
684.4940, 34735.00
685.6520, 34768.00
686.8090, 35053.00
687.9670, 35512.00
689.1240, 35644.00
690.2810, 35709.00
691.4380, 36332.00
692.5950, 36634.00
693.7520, 37125.00
694.9080, 37724.00
696.0650, 38438.00
697.2210, 39026.00
698.3770, 39883.00
699.5330, 40352.00
700.6880, 41329.00
701.8440, 42091.00
702.9990, 43256.00
704.1550, 44234.00
705.3100, 45423.00
706.4650, 46413.00
707.6190, 47429.00
708.7740, 48262.00
709.9290, 49001.00
711.0830, 49429.00
712.2370, 48874.00
713.3910, 47779.00
714.5450, 46474.00
715.6980, 44966.00
716.8520, 43403.00
718.0050, 42036.00
719.1580, 40849.00
720.3110, 39779.65
721.4640, 38630.00
722.6170, 38170.00
723.7700, 37453.00
724.9220, 37070.00
726.0740, 36481.00
727.2260, 36283.00
728.3780, 35958.00
729.5300, 35919.00
730.6810, 35734.00
731.8330, 35587.72
732.9840, 35461.00
734.1350, 35344.00
735.2860, 35511.00
736.4370, 35399.00
737.5880, 35473.00
738.7380, 35519.00
739.8880, 35408.00
741.0390, 35500.00
742.1890, 35699.00
743.3380, 35748.00
744.4880, 35853.00
745.6380, 36000.00
746.7870, 35817.00
747.9360, 35821.00
749.0850, 35827.00
750.2340, 35648.00
751.3830, 35964.00
752.5310, 35929.00
753.6800, 35987.00
754.8280, 35933.00
755.9760, 35935.00
757.1240, 35914.53
758.2720, 35899.00
759.4190, 35806.00
760.5670, 35798.00
761.7140, 35654.00
762.8610, 35571.00
764.0080, 35631.00
765.1550, 35716.00
766.3020, 35438.00
767.4480, 35486.00
768.5950, 35397.00
769.7410, 35488.00
770.8870, 35581.00
772.0330, 35327.00
773.1780, 35274.00
774.3240, 35508.00
775.4690, 35373.00
776.6140, 35369.00
777.7590, 35452.00
778.9040, 35463.00
780.0490, 35729.00
781.1940, 35580.00
782.3380, 35528.00
783.4820, 35872.00
784.6260, 35875.00
785.7700, 35702.00
786.9140, 35739.00
788.0580, 35937.00
789.2010, 35689.00
790.3450, 35996.00
791.4880, 35737.00
792.6310, 36057.00
793.7730, 35851.00
794.9160, 35875.00
796.0590, 35799.00
797.2010, 35584.00
798.3430, 35687.00
799.4850, 35603.00
800.6270, 35844.00
801.7690, 35646.00
802.9100, 35838.00
804.0520, 35792.00
805.1930, 35863.00
806.3340, 35968.00
807.4750, 35819.00
808.6160, 35753.00
809.7560, 35940.00
810.8970, 35913.00
812.0370, 35927.00
813.1770, 36005.00
814.3170, 35997.00
815.4570, 35915.00
816.5960, 36032.00
817.7360, 35936.00
818.8750, 36071.00
820.0140, 35848.00
821.1530, 36142.00
822.2920, 36096.00
823.4310, 36281.00
824.5690, 36182.00
825.7070, 36038.00
826.8460, 36334.00
827.9840, 36167.00
829.1220, 36200.00
830.2590, 36205.00
831.3970, 36518.00
832.5340, 36458.00
833.6710, 36441.00
834.8080, 36368.00
835.9450, 36533.00
837.0820, 36663.00
838.2190, 36602.00
839.3550, 36503.00
840.4910, 36643.00
841.6270, 36544.00
842.7630, 36529.00
843.8990, 36701.00
845.0350, 37066.00
846.1700, 37009.00
847.3060, 37076.00
848.4410, 36795.00
849.5760, 36942.00
850.7100, 37106.00
851.8450, 36966.00
852.9800, 37192.00
854.1140, 37044.00
855.2480, 37235.00
856.3820, 37107.00
857.5160, 37078.00
858.6500, 37438.00
859.7830, 37326.00
860.9170, 37319.00
862.0500, 37286.00
863.1830, 37684.00
864.3160, 37553.00
865.4480, 37713.00
866.5810, 37361.00
867.7130, 37459.00
868.8460, 37500.00
869.9780, 37637.00
871.1100, 37494.00
872.2410, 37532.00
873.3730, 37628.00
874.5050, 37720.00
875.6360, 37706.00
876.7670, 37530.00
877.8980, 37630.00
879.0290, 37722.00
880.1590, 37763.00
881.2900, 37869.00
882.4200, 37789.00
883.5500, 37825.00
884.6800, 37933.00
885.8100, 38101.00
886.9400, 38148.00
888.0690, 38298.00
889.1990, 38218.00
890.3280, 38268.00
891.4570, 38144.00
892.5860, 38243.00
893.7140, 38285.00
894.8430, 38348.00
895.9710, 38442.38
897.1000, 38492.00
898.2280, 38575.00
899.3560, 38561.00
900.4830, 38518.00
901.6110, 38918.00
902.7380, 38786.00
903.8660, 38599.00
904.9930, 38902.00
906.1200, 38823.00
907.2460, 39195.00
908.3730, 39180.00
909.5000, 39139.00
910.6260, 39425.00
911.7520, 39612.00
912.8780, 39312.00
914.0040, 39370.00
915.1290, 39343.00
916.2550, 39268.00
917.3800, 39479.00
918.5050, 39642.00
919.6300, 39379.00
920.7550, 39562.00
921.8800, 39564.00
923.0040, 39170.00
924.1290, 39470.00
925.2530, 39409.00
926.3770, 39509.00
927.5010, 39645.00
928.6250, 39557.00
929.7480, 39378.00
930.8720, 39610.00
931.9950, 39831.00
933.1180, 39568.00
934.2410, 39797.00
935.3640, 39950.00
936.4860, 39843.19
937.6090, 39962.98
938.7310, 39895.00
939.8530, 39925.00
940.9750, 40123.00
942.0970, 40065.00
943.2180, 40187.00
944.3400, 39899.00
945.4610, 40224.00
946.5820, 40072.00
947.7030, 40187.00
948.8240, 40256.00
949.9450, 40364.00
951.0650, 40475.00
952.1860, 40636.00
953.3060, 40715.00
954.4260, 40790.00
955.5460, 40614.00
956.6650, 40699.00
957.7850, 40773.00
958.9040, 40396.00
960.0230, 40830.00
961.1420, 40439.00
962.2610, 40507.00
963.3800, 40708.00
964.4990, 40894.00
965.6170, 40628.00
966.7350, 40912.00
967.8530, 40762.00
968.9710, 40625.00
970.0890, 40721.00
971.2070, 40649.00
972.3240, 40668.00
973.4410, 40718.87
974.5580, 40871.00
975.6750, 40750.00
976.7920, 40968.00
977.9090, 40876.00
979.0250, 41045.00
980.1410, 41017.00
981.2580, 40751.00
982.3740, 40998.00
983.4890, 41086.00
984.6050, 40931.00
985.7200, 41020.00
986.8360, 41024.64
987.9510, 41148.00
989.0660, 41069.00
990.1810, 41330.00
991.2950, 41320.00
992.4100, 41080.00
993.5240, 41415.00
994.6390, 41405.00
995.7530, 41603.00
996.8660, 41689.00
997.9800, 41625.00
999.0940, 41774.00
1000.207, 41903.00
1001.320, 41767.00
1002.433, 41829.00
1003.546, 41782.00
1004.659, 41785.58
1005.772, 41763.00
1006.884, 41857.00
1007.996, 41950.00
1009.108, 42051.00
1010.220, 42112.91
1011.332, 42244.62
1012.444, 42204.00
1013.555, 42342.00
1014.666, 42329.52
1015.777, 42045.00
1016.888, 42288.00
1017.999, 42346.00
1019.110, 42215.00
1020.220, 42417.00
1021.331, 42339.00
1022.441, 42182.00
1023.551, 42425.00
1024.661, 42374.00
1025.770, 42651.00
1026.880, 42636.00
1027.989, 42354.00
1029.098, 42552.00
1030.207, 42535.00
1031.316, 42764.00
1032.425, 42564.00
1033.533, 42568.00
1034.642, 42731.00
1035.750, 42521.00
1036.858, 42699.00
1037.966, 42586.00
1039.073, 42794.00
1040.181, 42916.00
1041.288, 42763.00
1042.396, 42839.00
1043.503, 42899.00
1044.610, 42909.00
1045.716, 42985.00
1046.823, 42750.00
1047.929, 43249.00
1049.036, 43067.00
1050.142, 43555.00
1051.248, 43486.00
1052.353, 43231.00
1053.459, 43041.00
1054.564, 43560.00
1055.670, 43566.00
1056.775, 43252.00
1057.880, 43503.00
1058.985, 43406.00
1060.089, 43575.00
1061.194, 43579.00
1062.298, 43681.00
1063.402, 43711.00
1064.506, 43606.00
1065.610, 43754.00
1066.713, 43832.00
1067.817, 43777.00
1068.920, 43994.00
1070.023, 44188.00
1071.126, 43999.00
1072.229, 44252.00
1073.332, 44513.00
1074.435, 44498.00
1075.537, 44660.00
1076.639, 44660.98
1077.741, 44559.00
1078.843, 44686.00
1079.945, 44762.00
1081.046, 44937.00
1082.148, 44893.00
1083.249, 44932.00
1084.350, 44735.00
1085.451, 45047.00
1086.551, 44964.00
1087.652, 45181.00
1088.752, 45088.00
1089.853, 45116.00
1090.953, 45037.00
1092.053, 45109.00
1093.152, 45147.00
1094.252, 45298.00
1095.351, 45266.00
1096.451, 45447.00
1097.550, 45370.00
1098.649, 45094.00
1099.748, 45403.00
1100.846, 45329.00
1101.945, 45466.00
1103.043, 45624.00
1104.141, 45464.00
1105.239, 45512.00
1106.337, 45747.00
1107.434, 45655.00
1108.532, 45599.00
1109.629, 45684.00
1110.726, 45821.00
1111.823, 45565.00
1112.920, 45812.00
1114.017, 45931.00
1115.113, 45617.00
1116.210, 45857.00
1117.306, 46041.00
1118.402, 45764.00
1119.498, 45950.00
1120.593, 46221.00
1121.689, 45910.00
1122.784, 45799.00
1123.879, 45998.00
1124.974, 46005.00
1126.069, 45951.00
1127.164, 46096.00
1128.259, 46091.00
1129.353, 46119.00
1130.447, 45961.00
1131.541, 45939.00
1132.635, 46150.00
1133.729, 45878.00
1134.822, 45695.00
1135.916, 45892.00
1137.009, 45787.00
1138.102, 45837.00
1139.195, 45787.00
1140.288, 45857.00
1141.380, 45873.00
1142.473, 45933.00
1143.565, 46047.00
1144.657, 45894.00
1145.749, 45973.00
1146.841, 45745.00
1147.932, 46002.00
1149.024, 46056.00
1150.115, 45864.00
1151.206, 46060.00
1152.297, 45950.00
1153.388, 46158.00
1154.479, 46089.00
1155.569, 46286.00
1156.659, 46257.00
1157.750, 46081.00
1158.839, 46319.00
1159.929, 45934.00
1161.019, 46265.00
1162.108, 46163.00
1163.198, 46267.00
1164.287, 46273.00
1165.376, 46441.00
1166.465, 46481.00
1167.553, 46399.00
1168.642, 46482.00
1169.730, 46619.00
1170.818, 46299.00
1171.906, 46565.00
1172.994, 46609.00
1174.082, 46513.00
1175.170, 46593.00
1176.257, 46620.00
1177.344, 46661.87
1178.431, 46622.00
1179.518, 46744.00
1180.605, 46738.00
1181.691, 46622.00
1182.778, 46952.00
1183.864, 47129.00
1184.950, 47157.00
1186.036, 46906.00
1187.122, 47114.00
1188.207, 47118.00
1189.292, 47248.00
1190.378, 47073.00
1191.463, 47297.00
1192.548, 47300.00
1193.632, 47138.00
1194.717, 47440.00
1195.801, 47333.00
1196.886, 47341.00
1197.970, 47419.00
1199.054, 47597.00
1200.137, 47475.00
1201.221, 47576.00
1202.305, 47453.00
1203.388, 47454.00
1204.471, 47478.00
1205.554, 47989.00
1206.637, 47330.00
1207.719, 47474.00
1208.802, 47842.00
1209.884, 47568.00
1210.966, 47937.00
1212.048, 48018.00
1213.130, 47933.00
1214.212, 47845.00
1215.293, 47884.85
1216.374, 48004.00
1217.456, 47975.00
1218.536, 47934.00
1219.617, 48172.00
1220.698, 48150.00
1221.778, 48101.00
1222.859, 48242.00
1223.939, 48241.00
1225.019, 48528.00
1226.099, 48123.00
1227.178, 48382.00
1228.258, 48396.00
1229.337, 48282.00
1230.417, 48383.00
1231.496, 48303.17
1232.574, 48562.00
1233.653, 48213.00
1234.732, 48588.00
1235.810, 48550.00
1236.888, 48505.00
1237.966, 48834.00
1239.044, 48734.00
1240.122, 49121.00
1241.199, 48645.00
1242.277, 48873.00
1243.354, 49180.00
1244.431, 48897.00
1245.508, 48993.00
1246.585, 49010.00
1247.661, 48976.00
1248.738, 49027.00
1249.814, 48948.00
1250.890, 49347.00
1251.966, 49285.00
1253.042, 49246.00
1254.117, 49118.00
1255.193, 49301.00
1256.268, 49325.00
1257.343, 49363.00
1258.418, 49180.00
1259.493, 49347.00
1260.567, 49455.00
1261.642, 49312.00
1262.716, 49460.00
1263.790, 49493.62
1264.864, 49650.00
1265.938, 49659.00
1267.011, 49761.00
1268.085, 49857.00
