##NAMES=Polylithionite
##RRUFFID=R050132
##IDEAL CHEMISTRY=KLi_2_AlSi_4_O_10_F_2_
##LOCALITY=Brown Derby mine, Ohio City, Gunnison County, Colorado, USA
##OWNER=RRUFF
##SOURCE=Dave Bunk Minerals
##DESCRIPTION=Purple scaly aggregate, polytype 2M1
##STATUS=The identification of this mineral has been confirmed by X-ray diffraction and chemical analysis
##URL=rruff.info/R050132
##MEASURED CHEMISTRY=(K_0.90_Rb_0.10_)(Li_0.62_Al_0.38_)_3_(Si_0.93_Al_0.07_)_4_O_10_(F_0.69_(OH)_0.31_)_2_
##PIN_ID=M00149
##ORIENTATION=Laser parallel to -b* (0 -1 0). Fiducial mark perpendicular to laser is parallel to -c [0 0 -1]
126.7490, 21802.00
127.9790, 21948.00
129.2090, 22067.00
130.4390, 21884.00
131.6680, 21992.00
132.8980, 21947.00
134.1270, 21896.00
135.3560, 21792.00
136.5850, 22029.00
137.8140, 22126.00
139.0430, 22121.00
140.2710, 22104.00
141.5000, 22124.00
142.7280, 22095.86
143.9560, 22143.00
145.1840, 22048.00
146.4120, 22140.00
147.6390, 22108.00
148.8670, 22236.00
150.0940, 22210.96
151.3210, 22244.46
152.5490, 22223.00
153.7750, 22327.00
155.0020, 22395.00
156.2290, 22539.00
157.4550, 22498.00
158.6810, 22396.00
159.9080, 22671.00
161.1340, 22704.00
162.3590, 23022.00
163.5850, 22919.00
164.8110, 23449.00
166.0360, 23474.00
167.2610, 23763.00
168.4860, 24085.00
169.7110, 24319.00
170.9360, 24907.00
172.1610, 24998.00
173.3850, 25299.00
174.6100, 25748.00
175.8340, 25903.00
177.0580, 26357.00
178.2820, 26482.00
179.5050, 26198.00
180.7290, 26631.00
181.9520, 26451.00
183.1760, 26291.00
184.3990, 26273.00
185.6220, 25790.00
186.8450, 25786.00
188.0670, 25478.00
189.2900, 25393.00
190.5120, 25298.00
191.7340, 25267.00
192.9560, 25225.00
194.1780, 25079.00
195.4000, 25570.00
196.6220, 25691.00
197.8430, 25557.00
199.0640, 25347.00
200.2860, 25382.00
201.5070, 25367.00
202.7270, 25149.00
203.9480, 25111.00
205.1690, 24944.00
206.3890, 24481.00
207.6090, 24529.00
208.8290, 24565.00
210.0490, 24650.00
211.2690, 24824.00
212.4890, 25080.00
213.7080, 25085.00
214.9280, 24931.00
216.1470, 24530.00
217.3660, 24505.00
218.5850, 24420.00
219.8030, 24258.00
221.0220, 24072.00
222.2400, 24061.00
223.4590, 23854.00
224.6770, 23953.00
225.8950, 23868.00
227.1120, 23865.00
228.3300, 23971.00
229.5480, 24252.00
230.7650, 24145.00
231.9820, 24336.00
233.1990, 24785.00
234.4160, 24835.00
235.6330, 25242.00
236.8490, 25292.00
238.0660, 25600.00
239.2820, 25969.00
240.4980, 26252.00
241.7140, 26588.00
242.9300, 26891.00
244.1460, 27286.00
245.3610, 27821.00
246.5770, 28225.00
247.7920, 28948.00
249.0070, 29411.00
250.2220, 29898.00
251.4370, 30346.00
252.6510, 31605.00
253.8660, 32656.00
255.0800, 33786.00
256.2940, 35287.00
257.5080, 36766.00
258.7220, 38645.00
259.9360, 39413.00
261.1490, 39762.00
262.3630, 40010.00
263.5760, 39539.00
264.7890, 38817.00
266.0020, 37293.00
267.2150, 36140.00
268.4270, 34467.00
269.6400, 32733.00
270.8520, 31376.00
272.0640, 30138.00
273.2760, 29297.00
274.4880, 28522.00
275.7000, 27887.00
276.9120, 27416.00
278.1230, 26784.00
279.3340, 26583.00
280.5450, 26102.00
281.7560, 25990.00
282.9670, 25898.00
284.1780, 25589.00
285.3880, 25446.00
286.5980, 25263.00
287.8090, 25336.00
289.0190, 25235.00
290.2290, 25108.00
291.4380, 25189.00
292.6480, 25049.00
293.8570, 24934.00
295.0670, 24822.00
296.2760, 25146.00
297.4850, 24907.00
298.6930, 25090.00
299.9020, 25240.00
301.1110, 25039.00
302.3190, 24965.00
303.5270, 24898.00
304.7350, 24994.00
305.9430, 25120.00
307.1510, 24961.00
308.3580, 24618.00
309.5660, 24673.00
310.7730, 24633.00
311.9800, 24895.00
313.1870, 24981.00
314.3940, 24968.00
315.6010, 24715.00
316.8070, 24650.00
318.0130, 24841.00
319.2200, 24794.00
320.4260, 24893.00
321.6310, 24867.00
322.8370, 25054.00
324.0430, 24828.00
325.2480, 24718.00
326.4540, 24731.00
327.6590, 25019.00
328.8640, 24886.00
330.0680, 24827.00
331.2730, 24803.00
332.4780, 24762.00
333.6820, 24785.00
334.8860, 24767.00
336.0900, 24600.00
337.2940, 24608.00
338.4980, 24474.00
339.7010, 24607.00
340.9050, 24561.00
342.1080, 24579.00
343.3110, 24580.02
344.5140, 24522.00
345.7170, 24542.00
346.9200, 24516.00
348.1220, 24540.00
349.3240, 24666.00
350.5270, 24726.42
351.7290, 24780.15
352.9310, 24920.00
354.1320, 24841.00
355.3340, 24824.00
356.5350, 24746.00
357.7370, 25105.00
358.9380, 25187.00
360.1390, 25150.00
361.3400, 25117.00
362.5400, 25505.00
363.7410, 25378.00
364.9410, 25745.00
366.1410, 25616.00
367.3410, 25827.00
368.5410, 26036.00
369.7410, 26110.00
370.9400, 26274.51
372.1400, 26519.00
373.3390, 26513.00
374.5380, 26796.00
375.7370, 26977.00
376.9360, 27045.00
378.1350, 27061.00
379.3330, 27422.00
380.5310, 27514.00
381.7300, 27692.00
382.9280, 27612.00
384.1260, 28023.00
385.3230, 28275.00
386.5210, 28187.00
387.7180, 28436.00
388.9160, 28760.00
390.1130, 28665.00
391.3100, 29022.00
392.5060, 29163.00
393.7030, 29320.00
394.9000, 29690.00
396.0960, 29829.00
397.2920, 29913.00
398.4880, 30349.00
399.6840, 30384.00
400.8800, 30541.00
402.0750, 30708.62
403.2710, 30715.83
404.4660, 30755.00
405.6610, 30735.00
406.8560, 30639.07
408.0510, 30319.00
409.2450, 30299.00
410.4400, 29975.00
411.6340, 29592.00
412.8280, 29530.00
414.0220, 29177.00
415.2160, 29092.00
416.4100, 28737.00
417.6030, 28589.00
418.7970, 28385.12
419.9900, 28168.01
421.1830, 28028.00
422.3760, 27803.00
423.5690, 27706.00
424.7610, 27509.00
425.9540, 27509.00
427.1460, 27536.00
428.3380, 27360.00
429.5300, 27503.00
430.7220, 27363.00
431.9140, 27364.00
433.1050, 27563.00
434.2970, 27513.00
435.4880, 27328.00
436.6790, 27303.00
437.8700, 27365.00
439.0610, 27362.00
440.2510, 27286.00
441.4420, 27421.00
442.6320, 27306.00
443.8220, 27541.00
445.0120, 27126.00
446.2020, 27235.00
447.3910, 26988.00
448.5810, 27179.00
449.7700, 27272.00
450.9600, 27105.00
452.1490, 27171.00
453.3370, 27270.00
454.5260, 27167.00
455.7150, 27137.00
456.9030, 27156.89
458.0910, 27138.00
459.2800, 27162.00
460.4670, 27307.00
461.6550, 27354.00
462.8430, 27407.00
464.0300, 27455.00
465.2180, 27534.00
466.4050, 27456.00
467.5920, 27395.00
468.7790, 27554.00
469.9650, 27442.00
471.1520, 27565.00
472.3380, 27668.00
473.5250, 27747.00
474.7110, 27849.00
475.8970, 27935.00
477.0820, 27975.00
478.2680, 27748.00
479.4540, 27730.00
480.6390, 27653.23
481.8240, 27613.00
483.0090, 27466.00
484.1940, 27460.00
485.3780, 27268.00
486.5630, 27192.00
487.7470, 27248.00
488.9320, 27276.00
490.1160, 27091.00
491.3000, 27142.00
492.4830, 26913.00
493.6670, 27198.00
494.8500, 27113.00
496.0340, 26995.00
497.2170, 26861.00
498.4000, 27052.00
499.5820, 26805.00
500.7650, 26907.00
501.9480, 26812.00
503.1300, 26787.00
504.3120, 26973.00
505.4940, 26918.00
506.6760, 26855.00
507.8580, 27184.00
509.0390, 27052.00
510.2210, 27084.00
511.4020, 27168.00
512.5830, 27152.00
513.7640, 27106.00
514.9450, 27112.00
516.1250, 27168.00
517.3060, 27323.00
518.4860, 27475.00
519.6660, 27418.00
520.8460, 27486.00
522.0260, 27420.00
523.2060, 27490.00
524.3850, 27599.00
525.5650, 27697.00
526.7440, 27675.00
527.9230, 27774.00
529.1020, 27861.25
530.2810, 27969.00
531.4590, 28049.00
532.6380, 28137.00
533.8160, 28178.00
534.9940, 28305.00
536.1720, 28319.84
537.3500, 28389.00
538.5270, 28402.00
539.7050, 28520.00
540.8820, 28626.00
542.0590, 28710.00
543.2360, 28821.00
544.4130, 28791.00
545.5900, 28968.00
546.7660, 29332.00
547.9430, 29585.00
549.1190, 29559.00
550.2950, 29480.00
551.4710, 29810.00
552.6470, 29764.00
553.8220, 30221.00
554.9980, 30153.00
556.1730, 30620.00
557.3480, 30565.00
558.5230, 30529.00
559.6980, 30725.00
560.8730, 30675.00
562.0470, 30678.00
563.2220, 30725.00
564.3960, 30750.00
565.5700, 30700.00
566.7440, 30684.00
567.9170, 30657.00
569.0910, 30428.00
570.2640, 30118.00
571.4380, 30256.00
572.6110, 30121.00
573.7840, 29790.00
574.9570, 29660.00
576.1290, 29634.00
577.3020, 29443.00
578.4740, 29526.00
579.6460, 29376.00
580.8180, 29409.00
581.9900, 29415.00
583.1620, 29380.00
584.3330, 29032.00
585.5040, 29237.00
586.6760, 29389.00
587.8470, 29097.00
589.0180, 29215.00
590.1880, 29026.00
591.3590, 29301.00
592.5290, 29225.00
593.7000, 29340.00
594.8700, 29299.00
596.0400, 29292.00
597.2090, 29494.00
598.3790, 29361.00
599.5490, 29514.00
600.7180, 29778.00
601.8870, 29700.00
603.0560, 29816.00
604.2250, 29815.00
605.3940, 29813.00
606.5620, 30134.00
607.7300, 29928.00
608.8990, 29974.00
610.0670, 30394.00
611.2350, 30604.00
612.4020, 30321.00
613.5700, 30333.00
614.7370, 30397.00
615.9050, 30687.00
617.0720, 30670.00
618.2390, 30868.00
619.4060, 30817.00
620.5720, 30972.00
621.7390, 30855.00
622.9050, 31014.00
624.0710, 31048.00
625.2370, 31255.00
626.4030, 31252.50
627.5690, 31214.00
628.7340, 31297.00
629.9000, 31108.00
631.0650, 31143.00
632.2300, 31224.00
633.3950, 30856.00
634.5600, 30608.00
635.7240, 30769.00
636.8890, 30616.00
638.0530, 30739.00
639.2170, 30834.00
640.3810, 30797.00
641.5450, 30567.00
642.7080, 30557.00
643.8720, 30507.00
645.0350, 30481.26
646.1980, 30538.00
647.3610, 30536.00
648.5240, 30488.00
649.6870, 30494.00
650.8490, 30689.00
652.0120, 30914.00
653.1740, 30621.00
654.3360, 30564.00
655.4980, 30587.00
656.6600, 30340.00
657.8210, 30699.00
658.9830, 30697.00
660.1440, 30458.00
661.3050, 30738.00
662.4660, 30757.00
663.6270, 30816.00
664.7870, 30874.00
665.9480, 30903.89
667.1080, 30844.00
668.2680, 31012.00
669.4280, 31042.00
670.5880, 31159.00
671.7480, 31312.59
672.9070, 31414.00
674.0670, 31621.00
675.2260, 31792.94
676.3850, 31824.00
677.5440, 32216.00
678.7030, 32479.00
679.8610, 32734.00
681.0200, 32713.00
682.1780, 33199.00
683.3360, 33693.00
684.4940, 33929.00
685.6520, 34633.00
686.8090, 35175.00
687.9670, 35698.00
689.1240, 36354.00
690.2810, 36898.00
691.4380, 37482.00
692.5950, 38439.00
693.7520, 39626.00
694.9080, 40426.00
696.0650, 41878.00
697.2210, 43197.00
698.3770, 44570.00
699.5330, 46148.00
700.6880, 48012.00
701.8440, 49574.00
702.9990, 51762.00
704.1550, 54004.00
705.3100, 55519.00
706.4650, 58144.00
707.6190, 59646.00
708.7740, 60638.00
709.9290, 61075.00
711.0830, 60486.81
712.2370, 59569.00
713.3910, 57447.00
714.5450, 54874.00
715.6980, 51709.00
716.8520, 49079.00
718.0050, 46641.00
719.1580, 44222.00
720.3110, 42490.00
721.4640, 40700.00
722.6170, 39190.00
723.7700, 38531.00
724.9220, 37450.00
726.0740, 36710.00
727.2260, 36045.00
728.3780, 35506.00
729.5300, 34930.00
730.6810, 34536.00
731.8330, 34438.00
732.9840, 34304.00
734.1350, 34052.00
735.2860, 34234.00
736.4370, 33800.00
737.5880, 33932.00
738.7380, 33822.00
739.8880, 33770.00
741.0390, 33916.00
742.1890, 33889.00
743.3380, 33946.40
744.4880, 34075.00
745.6380, 34075.00
746.7870, 34143.00
747.9360, 34278.00
749.0850, 34024.00
750.2340, 34167.00
751.3830, 34220.00
752.5310, 34393.00
753.6800, 34308.12
754.8280, 34166.00
755.9760, 34116.00
757.1240, 34040.00
758.2720, 33910.00
759.4190, 33792.00
760.5670, 33561.00
761.7140, 33468.00
762.8610, 33301.75
764.0080, 33225.00
765.1550, 33080.00
766.3020, 33007.07
767.4480, 32947.00
768.5950, 32877.00
769.7410, 32850.00
770.8870, 32800.48
772.0330, 32894.00
773.1780, 32613.00
774.3240, 32653.00
775.4690, 32445.00
776.6140, 32576.00
777.7590, 32396.00
778.9040, 32432.00
780.0490, 32681.00
781.1940, 32579.00
782.3380, 32724.00
783.4820, 32985.00
784.6260, 32546.00
785.7700, 32643.00
786.9140, 32725.00
788.0580, 32587.00
789.2010, 32833.00
790.3450, 32510.00
791.4880, 32614.00
792.6310, 32844.00
793.7730, 32562.00
794.9160, 32659.00
796.0590, 32654.00
797.2010, 32527.00
798.3430, 32471.00
799.4850, 32465.00
800.6270, 32451.00
801.7690, 32353.00
802.9100, 32400.00
804.0520, 32488.00
805.1930, 32453.00
806.3340, 32245.00
807.4750, 32448.00
808.6160, 32369.00
809.7560, 32475.00
810.8970, 32397.00
812.0370, 32510.00
813.1770, 32490.16
814.3170, 32477.00
815.4570, 32494.00
816.5960, 32426.00
817.7360, 32444.00
818.8750, 32569.00
820.0140, 32512.00
821.1530, 32616.00
822.2920, 32558.00
823.4310, 32501.00
824.5690, 32480.00
825.7070, 32561.00
826.8460, 32631.00
827.9840, 32592.00
829.1220, 32580.00
830.2590, 32870.00
831.3970, 32958.00
832.5340, 33033.00
833.6710, 32828.00
834.8080, 32988.00
835.9450, 33049.00
837.0820, 32780.00
838.2190, 32950.00
839.3550, 33144.00
840.4910, 33167.00
841.6270, 33153.00
842.7630, 33237.00
843.8990, 33441.00
845.0350, 33238.00
846.1700, 33441.00
847.3060, 33313.00
848.4410, 33438.00
849.5760, 33468.00
850.7100, 33636.00
851.8450, 33771.00
852.9800, 33733.00
854.1140, 33906.00
855.2480, 33875.00
856.3820, 34160.00
857.5160, 34035.00
858.6500, 33931.00
859.7830, 34085.00
860.9170, 34253.00
862.0500, 34032.00
863.1830, 34226.00
864.3160, 34110.89
865.4480, 34074.00
866.5810, 33978.00
867.7130, 33946.00
868.8460, 33932.00
869.9780, 34025.00
871.1100, 33940.00
872.2410, 33897.00
873.3730, 34110.00
874.5050, 33940.00
875.6360, 33991.00
876.7670, 33951.00
877.8980, 33996.00
879.0290, 34041.00
880.1590, 34003.79
881.2900, 34095.00
882.4200, 34092.31
883.5500, 34182.00
884.6800, 34159.00
885.8100, 34232.00
886.9400, 34319.00
888.0690, 33991.00
889.1990, 34257.00
890.3280, 34693.00
891.4570, 34438.00
892.5860, 34544.00
893.7140, 34332.00
894.8430, 34696.00
895.9710, 34651.00
897.1000, 34627.00
898.2280, 34698.00
899.3560, 34742.31
900.4830, 34907.00
901.6110, 34973.00
902.7380, 35140.00
903.8660, 35184.56
904.9930, 35097.00
906.1200, 35287.00
907.2460, 35261.00
908.3730, 35327.00
909.5000, 35436.00
910.6260, 35431.00
911.7520, 35592.00
912.8780, 35642.78
914.0040, 35694.00
915.1290, 35779.00
916.2550, 35674.00
917.3800, 35670.00
918.5050, 35748.00
919.6300, 35602.00
920.7550, 35842.00
921.8800, 35554.00
923.0040, 35580.00
924.1290, 35742.00
925.2530, 35615.00
926.3770, 35589.00
927.5010, 35603.00
928.6250, 35614.00
929.7480, 35589.00
930.8720, 35740.00
931.9950, 36055.00
933.1180, 35853.00
934.2410, 35674.00
935.3640, 36089.00
936.4860, 35849.00
937.6090, 35758.00
938.7310, 35817.00
939.8530, 35884.00
940.9750, 35957.14
942.0970, 36065.00
943.2180, 36165.00
944.3400, 36213.12
945.4610, 36137.00
946.5820, 36304.00
947.7030, 36316.00
948.8240, 36342.00
949.9450, 36508.00
951.0650, 36594.00
952.1860, 36580.00
953.3060, 36800.00
954.4260, 36918.00
955.5460, 36900.00
956.6650, 36727.00
957.7850, 36757.00
958.9040, 36913.00
960.0230, 36760.00
961.1420, 36855.00
962.2610, 36825.00
963.3800, 36815.00
964.4990, 36983.00
965.6170, 36929.00
966.7350, 36723.00
967.8530, 36808.00
968.9710, 36825.00
970.0890, 36674.00
971.2070, 36751.00
972.3240, 36879.00
973.4410, 36716.00
974.5580, 36883.00
975.6750, 36615.00
976.7920, 36944.00
977.9090, 36951.00
979.0250, 36901.00
980.1410, 36846.00
981.2580, 37078.00
982.3740, 36986.00
983.4890, 37259.00
984.6050, 36984.00
985.7200, 37283.00
986.8360, 37353.00
987.9510, 37328.00
989.0660, 37243.00
990.1810, 37288.00
991.2950, 37280.00
992.4100, 37293.00
993.5240, 37691.00
994.6390, 37338.00
995.7530, 37563.00
996.8660, 37679.00
997.9800, 38254.00
999.0940, 38198.00
1000.207, 38106.00
1001.320, 38280.00
1002.433, 38269.00
1003.546, 38452.00
1004.659, 38227.00
1005.772, 38150.00
1006.884, 38085.00
1007.996, 37928.00
1009.108, 38136.00
1010.220, 38104.00
1011.332, 38115.00
1012.444, 38239.00
1013.555, 38104.00
1014.666, 38059.00
1015.777, 38145.00
1016.888, 38335.00
1017.999, 38689.00
1019.110, 38214.00
1020.220, 38669.00
1021.331, 38299.00
1022.441, 38448.00
1023.551, 38568.00
1024.661, 38617.00
1025.770, 38416.00
1026.880, 38296.00
1027.989, 38716.00
1029.098, 38437.00
1030.207, 38542.00
1031.316, 38357.00
1032.425, 38376.00
1033.533, 38610.00
1034.642, 38530.00
1035.750, 38277.00
1036.858, 38268.00
1037.966, 38570.00
1039.073, 38541.00
1040.181, 38617.00
1041.288, 38510.00
1042.396, 38817.00
1043.503, 39001.00
1044.610, 38575.00
1045.716, 38680.00
1046.823, 38991.00
1047.929, 38765.00
1049.036, 39051.00
1050.142, 39242.00
1051.248, 39100.00
1052.353, 39437.00
1053.459, 39332.00
1054.564, 39336.00
1055.670, 39422.00
1056.775, 39298.00
1057.880, 39252.00
1058.985, 39347.00
1060.089, 39302.00
1061.194, 39513.00
1062.298, 39471.00
1063.402, 39595.00
1064.506, 39810.00
1065.610, 39851.00
1066.713, 39807.00
1067.817, 39802.00
1068.920, 39989.00
1070.023, 40154.00
1071.126, 40163.00
1072.229, 40336.00
1073.332, 40292.00
1074.435, 40679.00
1075.537, 40425.00
1076.639, 40749.00
1077.741, 40967.00
1078.843, 40676.00
1079.945, 40919.00
1081.046, 40939.00
1082.148, 41154.00
1083.249, 41366.00
1084.350, 41313.00
1085.451, 41387.00
1086.551, 40993.00
1087.652, 41179.00
1088.752, 41269.00
1089.853, 41424.00
1090.953, 41589.00
1092.053, 41678.00
1093.152, 41437.00
1094.252, 41726.00
1095.351, 41579.00
1096.451, 41796.00
1097.550, 41815.00
1098.649, 41942.00
1099.748, 41825.00
1100.846, 41894.00
1101.945, 41801.00
1103.043, 41757.00
1104.141, 42182.00
1105.239, 42325.00
1106.337, 42404.00
1107.434, 42273.00
1108.532, 42165.00
1109.629, 42346.00
1110.726, 42229.00
1111.823, 42622.00
1112.920, 42598.00
1114.017, 42326.00
1115.113, 42741.00
1116.210, 42667.00
1117.306, 42683.00
1118.402, 42639.00
1119.498, 42643.00
1120.593, 42601.50
1121.689, 42558.89
1122.784, 42509.00
1123.879, 42435.00
1124.974, 42374.00
1126.069, 42257.00
1127.164, 42406.00
1128.259, 42379.00
1129.353, 42445.00
1130.447, 42376.57
1131.541, 42329.68
1132.635, 42174.00
1133.729, 42156.00
1134.822, 42047.00
1135.916, 41928.00
1137.009, 41866.13
1138.102, 41861.00
1139.195, 41745.00
1140.288, 41748.00
1141.380, 41821.00
1142.473, 41890.00
1143.565, 41866.27
1144.657, 41873.00
1145.749, 41792.00
1146.841, 41633.00
1147.932, 41485.00
1149.024, 41566.00
1150.115, 41688.00
1151.206, 41562.00
1152.297, 41615.00
1153.388, 41692.00
1154.479, 41613.00
1155.569, 41622.00
1156.659, 41612.80
1157.750, 41482.00
1158.839, 41689.00
1159.929, 41622.00
1161.019, 41904.00
1162.108, 41905.00
1163.198, 41747.00
1164.287, 41923.00
1165.376, 42065.00
1166.465, 41951.00
1167.553, 42280.00
1168.642, 42311.00
1169.730, 42454.00
1170.818, 42070.00
1171.906, 42355.00
1172.994, 42264.00
1174.082, 42278.00
1175.170, 42269.00
1176.257, 42214.00
1177.344, 42422.00
1178.431, 42427.00
1179.518, 42447.00
1180.605, 42502.00
1181.691, 42563.00
1182.778, 42546.00
1183.864, 42466.00
1184.950, 42315.00
1186.036, 42454.00
1187.122, 42320.39
1188.207, 42527.00
1189.292, 42276.00
1190.378, 42641.00
1191.463, 42763.00
1192.548, 42551.00
1193.632, 42629.00
1194.717, 42641.00
1195.801, 42869.00
1196.886, 42651.00
1197.970, 42880.00
1199.054, 42913.00
1200.137, 43138.00
1201.221, 43027.00
1202.305, 43246.00
1203.388, 43011.00
1204.471, 43179.00
1205.554, 43094.00
1206.637, 43545.00
1207.719, 43377.49
1208.802, 43618.00
1209.884, 43237.00
1210.966, 43402.00
1212.048, 43324.00
1213.130, 43499.00
1214.212, 43407.00
1215.293, 43522.00
1216.374, 43758.00
1217.456, 43954.00
1218.536, 43573.00
1219.617, 43811.00
1220.698, 43761.00
1221.778, 43835.00
1222.859, 43604.00
1223.939, 44054.00
1225.019, 43936.00
1226.099, 44066.00
1227.178, 44276.00
1228.258, 44324.00
1229.337, 44265.00
1230.417, 44253.00
1231.496, 44319.00
1232.574, 44413.00
1233.653, 44462.00
1234.732, 44437.00
1235.810, 44263.00
1236.888, 44218.00
1237.966, 44495.00
1239.044, 44708.00
1240.122, 44588.00
1241.199, 44494.00
1242.277, 44623.00
1243.354, 44902.00
1244.431, 44823.00
1245.508, 44751.00
1246.585, 44936.00
1247.661, 44718.00
1248.738, 44734.00
1249.814, 44845.53
1250.890, 45010.00
1251.966, 45085.00
1253.042, 45100.00
1254.117, 45273.00
1255.193, 45173.00
1256.268, 45078.00
1257.343, 45493.00
1258.418, 45131.00
1259.493, 45412.00
1260.567, 45407.00
1261.642, 45631.00
1262.716, 45687.00
1263.790, 45591.00
1264.864, 45717.00
1265.938, 45736.00
1267.011, 45896.00
1268.085, 46083.00
1269.158, 46216.00
1270.231, 46265.00
1271.304, 45915.00
1272.377, 46073.00
1273.450, 46113.00
1274.522, 46138.00
1275.594, 46195.00
1276.666, 46195.16
1277.738, 46208.00
1278.810, 46173.00
1279.882, 46297.00
1280.953, 46232.00
1282.025, 46264.00
1283.096, 46402.00
1284.167, 46353.00
1285.238, 46463.00
1286.308, 46538.00
1287.379, 46709.00
1288.449, 46396.00
1289.519, 46559.00
1290.589, 46547.00
1291.659, 46660.00
1292.729, 46844.00
1293.798, 46721.00
1294.868, 46450.00
1295.937, 46681.00
1297.006, 46370.00
1298.075, 46488.00
1299.143, 46431.00
