##NAMES=Polylithionite
##RRUFFID=R050132
##IDEAL CHEMISTRY=KLi_2_AlSi_4_O_10_F_2_
##LOCALITY=Brown Derby mine, Ohio City, Gunnison County, Colorado, USA
##OWNER=RRUFF
##SOURCE=Dave Bunk Minerals
##DESCRIPTION=Purple scaly aggregate, polytype 2M1
##STATUS=The identification of this mineral has been confirmed by X-ray diffraction and chemical analysis
##URL=rruff.info/R050132
##MEASURED CHEMISTRY=(K_0.90_Rb_0.10_)(Li_0.62_Al_0.38_)_3_(Si_0.93_Al_0.07_)_4_O_10_(F_0.69_(OH)_0.31_)_2_
##PIN_ID=M00149
##ORIENTATION=Laser parallel to -b* (0 -1 0). Fiducial mark perpendicular to laser is parallel to -c [0 0 -1]
126.7490, 19442.00
127.9790, 19462.00
129.2090, 19411.00
130.4390, 19389.00
131.6680, 19399.00
132.8980, 19270.00
134.1270, 19152.00
135.3560, 19268.00
136.5850, 19243.00
137.8140, 19356.00
139.0430, 19465.00
140.2710, 19537.00
141.5000, 19638.00
142.7280, 19458.00
143.9560, 19312.00
145.1840, 19577.00
146.4120, 19616.00
147.6390, 19703.00
148.8670, 19721.00
150.0940, 19676.00
151.3210, 19816.07
152.5490, 19880.87
153.7750, 20060.00
155.0020, 20163.00
156.2290, 20339.00
157.4550, 20548.00
158.6810, 20551.00
159.9080, 20836.00
161.1340, 21127.00
162.3590, 21569.00
163.5850, 21996.00
164.8110, 22419.00
166.0360, 22997.00
167.2610, 23476.00
168.4860, 24201.00
169.7110, 24866.15
170.9360, 25437.00
172.1610, 26393.00
173.3850, 27272.00
174.6100, 28118.00
175.8340, 28828.00
177.0580, 29526.00
178.2820, 30049.00
179.5050, 30315.00
180.7290, 30570.00
181.9520, 30694.00
183.1760, 30439.00
184.3990, 29975.00
185.6220, 29788.00
186.8450, 29553.00
188.0670, 29128.00
189.2900, 28971.00
190.5120, 28849.00
191.7340, 28756.00
192.9560, 28444.00
194.1780, 28140.00
195.4000, 27928.00
196.6220, 27491.00
197.8430, 26994.00
199.0640, 26557.00
200.2860, 26358.00
201.5070, 25721.00
202.7270, 25507.00
203.9480, 25442.00
205.1690, 25182.00
206.3890, 24973.00
207.6090, 24854.00
208.8290, 25009.00
210.0490, 24883.00
211.2690, 24857.00
212.4890, 24902.00
213.7080, 24879.00
214.9280, 24887.00
216.1470, 24809.00
217.3660, 24863.00
218.5850, 24521.00
219.8030, 24684.00
221.0220, 24354.00
222.2400, 24570.00
223.4590, 24622.00
224.6770, 24767.00
225.8950, 25042.00
227.1120, 25266.00
228.3300, 25470.00
229.5480, 26008.00
230.7650, 26291.00
231.9820, 26628.00
233.1990, 27038.00
234.4160, 27061.00
235.6330, 27355.00
236.8490, 27806.00
238.0660, 28334.00
239.2820, 28611.00
240.4980, 29053.00
241.7140, 29526.00
242.9300, 29715.00
244.1460, 30163.88
245.3610, 30658.00
246.5770, 30967.00
247.7920, 31534.00
249.0070, 32170.00
250.2220, 32695.00
251.4370, 33608.00
252.6510, 34471.00
253.8660, 35443.00
255.0800, 36470.00
256.2940, 37518.00
257.5080, 38929.00
258.7220, 40111.00
259.9360, 40215.00
261.1490, 39989.00
262.3630, 39057.00
263.5760, 37992.00
264.7890, 36876.00
266.0020, 35121.00
267.2150, 33579.00
268.4270, 31772.00
269.6400, 30611.00
270.8520, 29221.00
272.0640, 28296.00
273.2760, 27140.00
274.4880, 26612.00
275.7000, 25903.00
276.9120, 25348.00
278.1230, 24865.00
279.3340, 24687.00
280.5450, 24395.00
281.7560, 24155.00
282.9670, 23996.25
284.1780, 23799.00
285.3880, 23689.00
286.5980, 23583.00
287.8090, 23464.00
289.0190, 23334.00
290.2290, 23200.00
291.4380, 23248.00
292.6480, 23271.00
293.8570, 23287.00
295.0670, 23147.00
296.2760, 23031.00
297.4850, 23271.00
298.6930, 23084.00
299.9020, 23164.00
301.1110, 23160.00
302.3190, 23166.00
303.5270, 23179.00
304.7350, 23144.00
305.9430, 23136.78
307.1510, 23091.39
308.3580, 23070.00
309.5660, 22967.00
310.7730, 22892.00
311.9800, 22786.00
313.1870, 22962.00
314.3940, 23159.00
315.6010, 22938.00
316.8070, 23267.00
318.0130, 23153.00
319.2200, 23176.00
320.4260, 23144.00
321.6310, 23181.00
322.8370, 23370.00
324.0430, 23200.00
325.2480, 23100.00
326.4540, 23196.00
327.6590, 23011.00
328.8640, 23121.00
330.0680, 23337.00
331.2730, 23205.00
332.4780, 23140.00
333.6820, 23074.00
334.8860, 23067.00
336.0900, 23049.00
337.2940, 23034.00
338.4980, 23035.00
339.7010, 23037.00
340.9050, 22919.00
342.1080, 22781.00
343.3110, 22823.00
344.5140, 22797.00
345.7170, 22856.00
346.9200, 22808.00
348.1220, 22929.00
349.3240, 22900.00
350.5270, 22902.00
351.7290, 22828.00
352.9310, 22920.00
354.1320, 23114.00
355.3340, 22999.00
356.5350, 23170.00
357.7370, 23072.00
358.9380, 23131.00
360.1390, 23153.00
361.3400, 23206.00
362.5400, 23233.00
363.7410, 23312.03
364.9410, 23498.00
366.1410, 23440.00
367.3410, 23685.00
368.5410, 23681.00
369.7410, 23911.00
370.9400, 23974.00
372.1400, 24044.00
373.3390, 24287.00
374.5380, 24400.00
375.7370, 24377.00
376.9360, 24253.00
378.1350, 24597.00
379.3330, 24500.00
380.5310, 24662.00
381.7300, 24710.00
382.9280, 24830.00
384.1260, 25030.00
385.3230, 24865.00
386.5210, 25375.00
387.7180, 25224.00
388.9160, 25345.00
390.1130, 25479.00
391.3100, 25288.00
392.5060, 25403.00
393.7030, 25401.00
394.9000, 25676.00
396.0960, 25741.00
397.2920, 25752.00
398.4880, 25903.00
399.6840, 25924.00
400.8800, 26075.00
402.0750, 26284.00
403.2710, 26301.00
404.4660, 26230.00
405.6610, 26156.00
406.8560, 26070.00
408.0510, 25974.00
409.2450, 25848.00
410.4400, 25600.00
411.6340, 25563.00
412.8280, 25558.00
414.0220, 25201.00
415.2160, 25310.00
416.4100, 24983.00
417.6030, 25016.00
418.7970, 24916.00
419.9900, 24687.00
421.1830, 24727.40
422.3760, 24688.00
423.5690, 24659.00
424.7610, 24525.00
425.9540, 24481.00
427.1460, 24548.00
428.3380, 24620.00
429.5300, 24622.00
430.7220, 24571.00
431.9140, 24490.00
433.1050, 24472.00
434.2970, 24607.00
435.4880, 24452.00
436.6790, 24637.00
437.8700, 24648.00
439.0610, 24636.00
440.2510, 24707.00
441.4420, 24694.32
442.6320, 24774.82
443.8220, 24718.00
445.0120, 24806.00
446.2020, 24831.00
447.3910, 24573.00
448.5810, 24604.00
449.7700, 24617.00
450.9600, 24645.00
452.1490, 24745.00
453.3370, 24893.00
454.5260, 24553.00
455.7150, 24700.00
456.9030, 24684.00
458.0910, 24826.00
459.2800, 24908.00
460.4670, 24879.00
461.6550, 24930.00
462.8430, 25171.00
464.0300, 25092.00
465.2180, 24822.00
466.4050, 24936.00
467.5920, 25142.00
468.7790, 25087.00
469.9650, 25256.00
471.1520, 25248.00
472.3380, 25139.00
473.5250, 25318.00
474.7110, 25197.00
475.8970, 25398.00
477.0820, 24989.00
478.2680, 25203.00
479.4540, 25151.00
480.6390, 24958.00
481.8240, 25159.00
483.0090, 25123.00
484.1940, 25263.00
485.3780, 24908.00
486.5630, 24882.00
487.7470, 24841.00
488.9320, 25072.00
490.1160, 24854.00
491.3000, 24890.00
492.4830, 24756.00
493.6670, 24829.00
494.8500, 24946.00
496.0340, 24993.00
497.2170, 24766.00
498.4000, 24791.00
499.5820, 24867.00
500.7650, 25028.00
501.9480, 25021.00
503.1300, 24999.00
504.3120, 25027.00
505.4940, 25252.00
506.6760, 25208.00
507.8580, 25254.00
509.0390, 25139.00
510.2210, 25383.00
511.4020, 25120.00
512.5830, 25368.00
513.7640, 25393.00
514.9450, 25639.00
516.1250, 25664.00
517.3060, 25609.00
518.4860, 25652.00
519.6660, 25549.00
520.8460, 25618.00
522.0260, 25583.00
523.2060, 25750.00
524.3850, 25958.00
525.5650, 26052.00
526.7440, 26066.00
527.9230, 25995.00
529.1020, 25923.00
530.2810, 26145.00
531.4590, 26083.00
532.6380, 26147.00
533.8160, 26288.00
534.9940, 26240.00
536.1720, 26241.00
537.3500, 26573.00
538.5270, 26371.00
539.7050, 26309.00
540.8820, 26563.00
542.0590, 26397.00
543.2360, 26488.00
544.4130, 26931.00
545.5900, 26902.00
546.7660, 26784.00
547.9430, 26929.00
549.1190, 27038.00
550.2950, 27314.00
551.4710, 27349.00
552.6470, 27734.00
553.8220, 27821.00
554.9980, 27869.00
556.1730, 27980.00
557.3480, 28094.00
558.5230, 28065.00
559.6980, 28145.00
560.8730, 28231.00
562.0470, 28187.93
563.2220, 28173.00
564.3960, 28138.00
565.5700, 27939.00
566.7440, 27878.00
567.9170, 27945.00
569.0910, 27794.00
570.2640, 27856.00
571.4380, 27690.00
572.6110, 27610.00
573.7840, 27234.00
574.9570, 27440.00
576.1290, 27260.00
577.3020, 27037.00
578.4740, 27073.00
579.6460, 27283.00
580.8180, 27116.00
581.9900, 27148.00
583.1620, 27130.00
584.3330, 27007.00
585.5040, 27105.00
586.6760, 27248.00
587.8470, 27050.00
589.0180, 26956.00
590.1880, 27226.00
591.3590, 27124.00
592.5290, 27063.00
593.7000, 27244.00
594.8700, 27292.00
596.0400, 27078.00
597.2090, 27291.00
598.3790, 27218.00
599.5490, 27302.00
600.7180, 27449.00
601.8870, 27569.00
603.0560, 27368.00
604.2250, 27625.00
605.3940, 27559.00
606.5620, 27780.00
607.7300, 27810.00
608.8990, 27920.00
610.0670, 28057.00
611.2350, 28065.00
612.4020, 28079.00
613.5700, 28174.00
614.7370, 28247.00
615.9050, 28384.00
617.0720, 28569.00
618.2390, 28316.00
619.4060, 28538.00
620.5720, 28399.00
621.7390, 28568.00
622.9050, 28825.00
624.0710, 28796.00
625.2370, 28683.00
626.4030, 28835.00
627.5690, 28742.00
628.7340, 28619.00
629.9000, 28582.00
631.0650, 28567.00
632.2300, 28513.83
633.3950, 28649.00
634.5600, 28526.00
635.7240, 28568.00
636.8890, 28684.00
638.0530, 28644.00
639.2170, 28521.00
640.3810, 28483.00
641.5450, 28669.00
642.7080, 28536.00
643.8720, 28584.00
645.0350, 28395.00
646.1980, 28736.00
647.3610, 28444.00
648.5240, 28502.00
649.6870, 28880.00
650.8490, 28859.00
652.0120, 28905.00
653.1740, 28846.00
654.3360, 29007.00
655.4980, 28971.00
656.6600, 28926.00
657.8210, 29114.00
658.9830, 28906.00
660.1440, 28895.00
661.3050, 29324.00
662.4660, 29182.00
663.6270, 29270.00
664.7870, 29285.00
665.9480, 29408.00
667.1080, 29179.00
668.2680, 29502.00
669.4280, 29312.00
670.5880, 29566.00
671.7480, 29993.00
672.9070, 29817.00
674.0670, 29913.00
675.2260, 30245.00
676.3850, 30203.00
677.5440, 30394.00
678.7030, 30599.00
679.8610, 30762.00
681.0200, 31055.00
682.1780, 31361.00
683.3360, 31690.00
684.4940, 32042.96
685.6520, 32536.00
686.8090, 32799.00
687.9670, 33363.00
689.1240, 33784.00
690.2810, 34271.00
691.4380, 35120.00
692.5950, 35520.00
693.7520, 36573.00
694.9080, 37331.00
696.0650, 38493.00
697.2210, 39673.00
698.3770, 40951.00
699.5330, 42368.78
700.6880, 43794.20
701.8440, 45453.00
702.9990, 46960.00
704.1550, 48726.00
705.3100, 50562.00
706.4650, 52234.00
707.6190, 52898.00
708.7740, 53629.00
709.9290, 53446.16
711.0830, 53078.00
712.2370, 51692.00
713.3910, 49758.00
714.5450, 47587.00
715.6980, 45191.00
716.8520, 42899.00
718.0050, 41138.00
719.1580, 39396.00
720.3110, 37675.00
721.4640, 36755.00
722.6170, 35415.00
723.7700, 34698.00
724.9220, 33836.00
726.0740, 33401.00
727.2260, 33143.00
728.3780, 32741.00
729.5300, 32552.00
730.6810, 32163.00
731.8330, 32114.00
732.9840, 31965.00
734.1350, 31930.00
735.2860, 31700.00
736.4370, 31636.00
737.5880, 31696.00
738.7380, 31609.00
739.8880, 31658.00
741.0390, 31755.00
742.1890, 31913.00
743.3380, 31982.00
744.4880, 31996.00
745.6380, 31991.00
746.7870, 31935.00
747.9360, 31928.00
749.0850, 32094.00
750.2340, 32350.00
751.3830, 32294.00
752.5310, 32346.00
753.6800, 32129.00
754.8280, 32140.83
755.9760, 32038.00
757.1240, 32032.00
758.2720, 31907.00
759.4190, 31857.00
760.5670, 31582.00
761.7140, 31367.00
762.8610, 31557.00
764.0080, 31375.00
765.1550, 31430.00
766.3020, 31033.00
767.4480, 31044.00
768.5950, 30969.00
769.7410, 30959.00
770.8870, 31034.00
772.0330, 31005.00
773.1780, 31001.93
774.3240, 30993.80
775.4690, 30947.00
776.6140, 30950.00
777.7590, 30906.00
778.9040, 30920.00
780.0490, 31099.00
781.1940, 31072.63
782.3380, 31118.94
783.4820, 31151.00
784.6260, 31088.00
785.7700, 31076.00
786.9140, 30956.00
788.0580, 31051.00
789.2010, 31262.00
790.3450, 31134.00
791.4880, 31203.17
792.6310, 31189.00
793.7730, 31111.00
794.9160, 30995.00
796.0590, 30897.00
797.2010, 31024.00
798.3430, 31067.00
799.4850, 31025.00
800.6270, 30996.00
801.7690, 30960.00
802.9100, 30604.00
804.0520, 31494.00
805.1930, 30930.00
806.3340, 31117.00
807.4750, 30847.00
808.6160, 30869.00
809.7560, 31050.00
810.8970, 30755.00
812.0370, 31018.00
813.1770, 30869.00
814.3170, 31034.00
815.4570, 31059.00
816.5960, 31287.00
817.7360, 31009.00
818.8750, 31282.00
820.0140, 30990.00
821.1530, 31152.00
822.2920, 31112.00
823.4310, 31286.00
824.5690, 31199.00
825.7070, 31087.00
826.8460, 31254.00
827.9840, 31350.00
829.1220, 31284.00
830.2590, 31349.00
831.3970, 31467.00
832.5340, 31317.00
833.6710, 31464.00
834.8080, 31553.00
835.9450, 31641.00
837.0820, 31699.88
838.2190, 31720.00
839.3550, 31790.00
840.4910, 31784.00
841.6270, 31867.00
842.7630, 31847.00
843.8990, 31917.00
845.0350, 32091.00
846.1700, 31992.00
847.3060, 32034.00
848.4410, 32232.00
849.5760, 32119.00
850.7100, 32231.00
851.8450, 32121.00
852.9800, 32382.00
854.1140, 32621.00
855.2480, 32445.00
856.3820, 32536.00
857.5160, 32678.00
858.6500, 32808.00
859.7830, 32893.00
860.9170, 32837.00
862.0500, 32744.00
863.1830, 32664.00
864.3160, 32659.65
865.4480, 32617.00
866.5810, 32652.00
867.7130, 32693.00
868.8460, 32679.00
869.9780, 32539.00
871.1100, 32785.00
872.2410, 32707.00
873.3730, 32626.00
874.5050, 32821.00
875.6360, 32672.00
876.7670, 32925.00
877.8980, 32602.00
879.0290, 33083.00
880.1590, 32998.00
881.2900, 33049.00
882.4200, 32989.00
883.5500, 33169.00
884.6800, 33121.57
885.8100, 32974.00
886.9400, 33152.00
888.0690, 33114.00
889.1990, 33165.00
890.3280, 33237.86
891.4570, 33321.00
892.5860, 33311.00
893.7140, 33414.00
894.8430, 33407.00
895.9710, 33514.00
897.1000, 33566.00
898.2280, 33518.00
899.3560, 33661.00
900.4830, 33753.00
901.6110, 33828.00
902.7380, 33701.00
903.8660, 33605.00
904.9930, 33782.00
906.1200, 33629.00
907.2460, 33844.00
908.3730, 33832.00
909.5000, 33957.00
910.6260, 33930.00
911.7520, 34042.00
912.8780, 34121.00
914.0040, 34130.00
915.1290, 34181.00
916.2550, 34202.27
917.3800, 34132.00
918.5050, 34219.00
919.6300, 34118.00
920.7550, 34088.00
921.8800, 34143.00
923.0040, 34062.00
924.1290, 34365.00
925.2530, 34301.00
926.3770, 34468.00
927.5010, 34304.00
928.6250, 34157.00
929.7480, 34192.00
930.8720, 34530.00
931.9950, 34484.00
933.1180, 34663.00
934.2410, 34605.00
935.3640, 34581.00
936.4860, 34775.00
937.6090, 34738.00
938.7310, 34627.00
939.8530, 34934.00
940.9750, 34979.00
942.0970, 34932.00
943.2180, 34846.00
944.3400, 34957.00
945.4610, 35057.00
946.5820, 35102.00
947.7030, 35204.00
948.8240, 35280.00
949.9450, 35467.00
951.0650, 35304.00
952.1860, 35586.00
953.3060, 35380.00
954.4260, 35552.00
955.5460, 35629.00
956.6650, 35531.00
957.7850, 35558.00
958.9040, 35849.00
960.0230, 35753.00
961.1420, 36047.00
962.2610, 35919.00
963.3800, 35766.00
964.4990, 36173.00
965.6170, 36172.00
966.7350, 36172.00
967.8530, 36003.00
968.9710, 36184.00
970.0890, 36182.00
971.2070, 36386.00
972.3240, 36422.13
973.4410, 36454.53
974.5580, 36559.00
975.6750, 36475.00
976.7920, 36584.00
977.9090, 36572.00
979.0250, 36636.00
980.1410, 36646.00
981.2580, 36772.00
982.3740, 36891.00
983.4890, 37010.00
984.6050, 37009.00
985.7200, 37061.00
986.8360, 37154.21
987.9510, 37121.00
989.0660, 37286.00
990.1810, 37192.00
991.2950, 37162.00
992.4100, 37221.00
993.5240, 37630.00
994.6390, 37523.00
995.7530, 37721.00
996.8660, 37568.00
997.9800, 38129.00
999.0940, 38076.00
1000.207, 38120.00
1001.320, 38316.00
1002.433, 38175.00
1003.546, 38113.00
1004.659, 37987.00
1005.772, 38069.00
1006.884, 38083.00
1007.996, 37792.00
1009.108, 37982.00
1010.220, 37976.00
1011.332, 38152.00
1012.444, 38079.00
1013.555, 38433.00
1014.666, 38293.00
1015.777, 38266.00
1016.888, 38381.00
1017.999, 38662.00
1019.110, 38531.00
1020.220, 38585.00
1021.331, 38672.00
1022.441, 38651.00
1023.551, 38603.00
1024.661, 38724.00
1025.770, 38564.00
1026.880, 38692.00
1027.989, 38861.00
1029.098, 38823.00
1030.207, 38817.00
1031.316, 38954.00
1032.425, 39004.00
1033.533, 38809.00
1034.642, 38757.00
1035.750, 38900.00
1036.858, 38997.00
1037.966, 38991.00
1039.073, 39288.00
1040.181, 39185.00
1041.288, 39273.00
1042.396, 39527.00
1043.503, 39688.00
1044.610, 39946.00
1045.716, 39728.00
1046.823, 39997.00
1047.929, 40234.00
1049.036, 40349.00
1050.142, 40660.00
1051.248, 40655.00
1052.353, 40884.00
1053.459, 40770.00
1054.564, 40912.00
1055.670, 41009.41
1056.775, 41276.00
1057.880, 41240.00
1058.985, 41319.00
1060.089, 41478.00
1061.194, 41342.00
1062.298, 41383.00
1063.402, 41681.00
1064.506, 41185.00
1065.610, 41084.00
1066.713, 41351.00
1067.817, 41173.00
1068.920, 41204.00
1070.023, 41440.00
1071.126, 41235.00
1072.229, 41243.00
1073.332, 41346.00
1074.435, 41538.00
1075.537, 41462.00
1076.639, 41751.00
1077.741, 41588.00
1078.843, 41584.00
1079.945, 41621.00
1081.046, 41658.00
1082.148, 41980.00
1083.249, 41676.00
1084.350, 41859.00
1085.451, 42054.00
1086.551, 41955.00
1087.652, 41755.00
1088.752, 41840.00
1089.853, 41863.00
1090.953, 42060.00
1092.053, 42056.00
1093.152, 41912.00
1094.252, 41980.00
1095.351, 41969.81
1096.451, 41985.00
1097.550, 42125.00
1098.649, 42296.00
1099.748, 42331.95
1100.846, 42416.00
1101.945, 42492.00
1103.043, 42467.00
1104.141, 42556.33
1105.239, 42702.22
1106.337, 42860.00
1107.434, 43048.00
1108.532, 43148.40
1109.629, 43282.83
1110.726, 43372.00
1111.823, 43507.00
1112.920, 43636.00
1114.017, 43779.00
1115.113, 43884.00
1116.210, 44061.00
1117.306, 44317.00
1118.402, 44322.00
1119.498, 44344.00
1120.593, 44784.00
1121.689, 44923.00
1122.784, 44881.00
1123.879, 44949.00
1124.974, 45230.00
1126.069, 45013.00
1127.164, 45255.00
1128.259, 45445.00
1129.353, 45668.00
1130.447, 45514.00
1131.541, 45664.00
1132.635, 45990.00
1133.729, 45815.00
1134.822, 45912.00
1135.916, 45722.00
1137.009, 45528.00
1138.102, 45702.00
1139.195, 45293.00
1140.288, 45222.00
1141.380, 44587.00
1142.473, 44162.00
1143.565, 43898.00
1144.657, 43678.00
1145.749, 43504.00
1146.841, 42944.00
1147.932, 42716.00
1149.024, 42433.00
1150.115, 42328.00
1151.206, 42181.00
1152.297, 42049.00
1153.388, 41994.00
1154.479, 42196.00
1155.569, 42004.00
1156.659, 42258.00
1157.750, 42186.00
1158.839, 42346.00
1159.929, 42020.00
1161.019, 42102.00
1162.108, 42025.00
1163.198, 42058.00
1164.287, 41991.00
1165.376, 42136.00
1166.465, 42480.00
1167.553, 42414.00
1168.642, 42227.00
1169.730, 42362.00
1170.818, 42111.00
1171.906, 42213.00
1172.994, 42553.00
1174.082, 42252.00
1175.170, 42473.00
1176.257, 42355.00
1177.344, 42529.00
1178.431, 42368.00
1179.518, 42621.00
1180.605, 42532.00
1181.691, 42591.00
1182.778, 42649.00
1183.864, 42653.00
1184.950, 42703.09
1186.036, 42696.91
1187.122, 42693.00
1188.207, 42757.00
1189.292, 42610.00
1190.378, 42793.00
1191.463, 42649.00
1192.548, 43086.00
1193.632, 43089.00
1194.717, 43027.00
1195.801, 42933.00
1196.886, 42959.00
1197.970, 42885.00
1199.054, 43154.00
1200.137, 43052.75
1201.221, 43196.00
1202.305, 43075.00
1203.388, 43203.00
1204.471, 43321.00
1205.554, 43341.00
1206.637, 43285.00
1207.719, 43463.00
1208.802, 43519.00
1209.884, 43506.00
1210.966, 43314.00
1212.048, 43403.00
1213.130, 43567.00
1214.212, 43692.00
1215.293, 43981.00
1216.374, 43864.00
1217.456, 43864.00
1218.536, 43975.00
1219.617, 43737.00
1220.698, 44022.00
1221.778, 43941.33
1222.859, 44161.00
1223.939, 44011.00
1225.019, 43962.00
1226.099, 44070.00
1227.178, 44251.00
1228.258, 44358.00
1229.337, 44386.00
1230.417, 44384.00
1231.496, 44299.00
1232.574, 44319.00
1233.653, 44348.77
1234.732, 44536.00
1235.810, 44531.00
1236.888, 44709.00
1237.966, 44963.00
1239.044, 44937.00
1240.122, 45022.99
1241.199, 44572.00
1242.277, 45025.00
1243.354, 44925.00
1244.431, 44981.00
1245.508, 45171.00
1246.585, 44955.00
1247.661, 45282.00
1248.738, 45274.00
1249.814, 45182.00
1250.890, 45024.00
1251.966, 45321.00
1253.042, 45173.00
1254.117, 45326.00
1255.193, 45281.00
1256.268, 45244.00
1257.343, 45206.00
1258.418, 45281.00
1259.493, 45230.00
1260.567, 45582.00
1261.642, 45595.00
1262.716, 45909.00
1263.790, 46042.00
1264.864, 46093.00
1265.938, 46191.00
1267.011, 46046.00
1268.085, 45951.00
1269.158, 46021.00
1270.231, 45999.00
1271.304, 46268.00
1272.377, 46207.00
1273.450, 46147.00
1274.522, 46362.00
1275.594, 46097.00
1276.666, 46485.00
1277.738, 46525.00
1278.810, 46557.00
1279.882, 46620.00
1280.953, 46451.00
1282.025, 46405.00
1283.096, 46345.00
1284.167, 46356.00
1285.238, 46316.00
1286.308, 46662.00
1287.379, 46750.00
1288.449, 46703.00
1289.519, 46560.00
1290.589, 46639.00
1291.659, 46953.00
1292.729, 46822.00
1293.798, 46925.00
1294.868, 46799.00
1295.937, 46612.00
1297.006, 47019.00
1298.075, 46882.00
1299.143, 46766.00
