##NAMES=Polylithionite
##RRUFFID=R050132
##IDEAL CHEMISTRY=KLi_2_AlSi_4_O_10_F_2_
##LOCALITY=Brown Derby mine, Ohio City, Gunnison County, Colorado, USA
##OWNER=RRUFF
##SOURCE=Dave Bunk Minerals
##DESCRIPTION=Purple scaly aggregate, polytype 2M1
##STATUS=The identification of this mineral has been confirmed by X-ray diffraction and chemical analysis
##URL=rruff.info/R050132
##MEASURED CHEMISTRY=(K_0.90_Rb_0.10_)(Li_0.62_Al_0.38_)_3_(Si_0.93_Al_0.07_)_4_O_10_(F_0.69_(OH)_0.31_)_2_
##PIN_ID=M00120
##ORIENTATION=Laser parallel to c* (0 0 1). Fiducial mark perpendicular to laser is parallel to -a [-1 0 0]
102.1160, 18221.00
103.3490, 18201.00
104.5820, 18542.00
105.8150, 18513.00
107.0470, 18696.00
108.2800, 18961.00
109.5120, 18960.00
110.7440, 18944.00
111.9760, 18886.00
113.2080, 19012.00
114.4400, 19176.00
115.6710, 19193.00
116.9030, 19318.00
118.1340, 19517.00
119.3650, 19232.00
120.5960, 19536.00
121.8270, 19464.00
123.0580, 19603.00
124.2880, 19660.00
125.5190, 19618.00
126.7490, 19691.00
127.9790, 19976.00
129.2090, 19995.00
130.4390, 20080.00
131.6680, 19986.00
132.8980, 20158.00
134.1270, 20202.00
135.3560, 20147.00
136.5850, 20365.00
137.8140, 20123.00
139.0430, 20233.00
140.2710, 20518.00
141.5000, 20631.00
142.7280, 20560.00
143.9560, 20526.00
145.1840, 20659.00
146.4120, 20669.00
147.6390, 20899.00
148.8670, 20849.00
150.0940, 20956.00
151.3210, 20910.00
152.5490, 20911.00
153.7750, 20921.00
155.0020, 20812.00
156.2290, 21017.00
157.4550, 21246.00
158.6810, 21176.00
159.9080, 21521.00
161.1340, 21333.00
162.3590, 21502.00
163.5850, 21591.00
164.8110, 21643.00
166.0360, 21962.00
167.2610, 22160.00
168.4860, 22382.00
169.7110, 22386.00
170.9360, 22681.00
172.1610, 22812.00
173.3850, 22824.00
174.6100, 23060.00
175.8340, 23072.00
177.0580, 23117.00
178.2820, 23317.00
179.5050, 23212.00
180.7290, 23271.00
181.9520, 23280.00
183.1760, 23052.00
184.3990, 23034.00
185.6220, 22909.00
186.8450, 22825.00
188.0670, 22837.00
189.2900, 22928.00
190.5120, 22817.00
191.7340, 22745.00
192.9560, 22634.00
194.1780, 22967.00
195.4000, 22709.00
196.6220, 23124.00
197.8430, 22822.00
199.0640, 22869.00
200.2860, 22658.00
201.5070, 23150.00
202.7270, 22928.00
203.9480, 22946.00
205.1690, 22879.00
206.3890, 22928.00
207.6090, 22961.00
208.8290, 22988.00
210.0490, 23001.31
211.2690, 23018.00
212.4890, 23018.91
213.7080, 23064.00
214.9280, 23100.00
216.1470, 23061.00
217.3660, 23002.00
218.5850, 22968.00
219.8030, 22975.41
221.0220, 23015.00
222.2400, 23050.00
223.4590, 23064.73
224.6770, 23117.61
225.8950, 23171.45
227.1120, 23227.00
228.3300, 23309.85
229.5480, 23404.38
230.7650, 23489.00
231.9820, 23581.00
233.1990, 23724.00
234.4160, 23835.00
235.6330, 23993.72
236.8490, 24093.00
238.0660, 24294.00
239.2820, 24487.00
240.4980, 24572.00
241.7140, 24837.00
242.9300, 24930.00
244.1460, 25058.00
245.3610, 25305.00
246.5770, 25583.00
247.7920, 25755.00
249.0070, 26030.68
250.2220, 26305.00
251.4370, 26560.00
252.6510, 26932.00
253.8660, 27285.00
255.0800, 27855.00
256.2940, 28313.00
257.5080, 29015.00
258.7220, 29559.00
259.9360, 30190.00
261.1490, 30330.00
262.3630, 30518.00
263.5760, 30350.00
264.7890, 29971.00
266.0020, 29286.00
267.2150, 28633.00
268.4270, 28068.00
269.6400, 27524.60
270.8520, 26960.00
272.0640, 26571.00
273.2760, 26146.00
274.4880, 25848.44
275.7000, 25696.00
276.9120, 25415.00
278.1230, 25349.00
279.3340, 25250.00
280.5450, 25080.00
281.7560, 25084.00
282.9670, 25035.00
284.1780, 24987.53
285.3880, 25080.00
286.5980, 24984.00
287.8090, 24916.00
289.0190, 24969.00
290.2290, 25021.00
291.4380, 24769.00
292.6480, 24994.00
293.8570, 24963.00
295.0670, 24882.00
296.2760, 25096.00
297.4850, 24820.00
298.6930, 24871.00
299.9020, 25170.00
301.1110, 25120.00
302.3190, 24869.00
303.5270, 24941.00
304.7350, 25220.00
305.9430, 25196.00
307.1510, 25316.00
308.3580, 25098.00
309.5660, 25215.00
310.7730, 25075.00
311.9800, 25265.00
313.1870, 25224.00
314.3940, 25318.00
315.6010, 25489.00
316.8070, 25340.00
318.0130, 25474.00
319.2200, 25532.00
320.4260, 25547.00
321.6310, 25390.00
322.8370, 25570.00
324.0430, 25494.00
325.2480, 25721.00
326.4540, 25410.00
327.6590, 25692.00
328.8640, 25761.00
330.0680, 25546.00
331.2730, 25642.00
332.4780, 25392.00
333.6820, 25493.00
334.8860, 25688.00
336.0900, 25427.00
337.2940, 25515.00
338.4980, 25868.00
339.7010, 25689.00
340.9050, 25647.00
342.1080, 25852.00
343.3110, 25715.00
344.5140, 26002.00
345.7170, 25634.00
346.9200, 25805.00
348.1220, 25948.00
349.3240, 25903.00
350.5270, 25923.00
351.7290, 25920.00
352.9310, 25989.00
354.1320, 26053.68
355.3340, 26049.00
356.5350, 26208.00
357.7370, 26246.00
358.9380, 26254.00
360.1390, 26315.00
361.3400, 26528.00
362.5400, 26404.00
363.7410, 26648.00
364.9410, 26466.00
366.1410, 26625.00
367.3410, 26769.00
368.5410, 26784.00
369.7410, 26791.00
370.9400, 26777.00
372.1400, 27181.00
373.3390, 27276.00
374.5380, 27169.00
375.7370, 27339.00
376.9360, 27327.00
378.1350, 27359.26
379.3330, 27330.00
380.5310, 27506.00
381.7300, 27605.00
382.9280, 27827.00
384.1260, 27689.00
385.3230, 27568.00
386.5210, 27948.00
387.7180, 28145.00
388.9160, 28245.00
390.1130, 28483.00
391.3100, 28270.00
392.5060, 28572.00
393.7030, 28515.00
394.9000, 28670.00
396.0960, 28710.00
397.2920, 28688.00
398.4880, 29053.00
399.6840, 29237.00
400.8800, 29077.00
402.0750, 29271.00
403.2710, 29403.00
404.4660, 29192.00
405.6610, 29436.00
406.8560, 29167.00
408.0510, 29259.00
409.2450, 29221.00
410.4400, 29150.00
411.6340, 29142.00
412.8280, 28902.00
414.0220, 28774.00
415.2160, 28634.00
416.4100, 28685.00
417.6030, 28548.00
418.7970, 28622.00
419.9900, 28507.00
421.1830, 28496.00
422.3760, 28569.00
423.5690, 28407.00
424.7610, 28629.00
425.9540, 28421.00
427.1460, 28841.00
428.3380, 28567.00
429.5300, 28406.00
430.7220, 28508.00
431.9140, 28551.00
433.1050, 28665.00
434.2970, 28750.00
435.4880, 28683.00
436.6790, 28696.00
437.8700, 28791.00
439.0610, 28914.00
440.2510, 28663.00
441.4420, 28730.00
442.6320, 29017.00
443.8220, 28637.00
445.0120, 28826.00
446.2020, 28840.00
447.3910, 28928.00
448.5810, 28969.00
449.7700, 28850.00
450.9600, 28959.00
452.1490, 28876.00
453.3370, 29051.00
454.5260, 28960.00
455.7150, 29107.00
456.9030, 29360.00
458.0910, 29251.00
459.2800, 29136.00
460.4670, 29240.00
461.6550, 29278.00
462.8430, 29252.00
464.0300, 29437.00
465.2180, 29503.00
466.4050, 29603.00
467.5920, 29603.00
468.7790, 29529.00
469.9650, 29578.00
471.1520, 29668.00
472.3380, 29721.00
473.5250, 29763.00
474.7110, 29936.00
475.8970, 29747.00
477.0820, 30010.00
478.2680, 29922.00
479.4540, 29859.00
480.6390, 29849.00
481.8240, 29676.00
483.0090, 29903.00
484.1940, 29647.00
485.3780, 29717.00
486.5630, 29862.00
487.7470, 29689.00
488.9320, 29690.00
490.1160, 29636.00
491.3000, 29620.00
492.4830, 29676.42
493.6670, 29790.00
494.8500, 29792.00
496.0340, 29763.00
497.2170, 29777.00
498.4000, 29755.00
499.5820, 29856.00
500.7650, 29768.00
501.9480, 29805.00
503.1300, 29662.00
504.3120, 30027.00
505.4940, 29988.00
506.6760, 29873.00
507.8580, 30096.00
509.0390, 30020.00
510.2210, 30188.00
511.4020, 29973.00
512.5830, 30211.00
513.7640, 30178.00
514.9450, 30217.00
516.1250, 30272.00
517.3060, 30276.22
518.4860, 30297.00
519.6660, 30399.00
520.8460, 30371.00
522.0260, 30563.00
523.2060, 30692.00
524.3850, 30565.00
525.5650, 30490.00
526.7440, 30790.00
527.9230, 30795.00
529.1020, 30741.00
530.2810, 30765.00
531.4590, 30813.54
532.6380, 30886.15
533.8160, 30970.00
534.9940, 31155.00
536.1720, 31275.00
537.3500, 31317.33
538.5270, 31418.48
539.7050, 31390.00
540.8820, 31476.00
542.0590, 31527.00
543.2360, 31472.00
544.4130, 31711.00
545.5900, 31630.00
546.7660, 31861.00
547.9430, 31905.00
549.1190, 31971.00
550.2950, 32030.00
551.4710, 32070.00
552.6470, 32369.00
553.8220, 32328.00
554.9980, 32384.00
556.1730, 32866.00
557.3480, 32713.66
558.5230, 32813.00
559.6980, 32749.00
560.8730, 32878.00
562.0470, 32933.00
563.2220, 32990.00
564.3960, 32975.29
565.5700, 32997.57
566.7440, 32866.00
567.9170, 32907.00
569.0910, 32829.00
570.2640, 32618.00
571.4380, 32431.00
572.6110, 32610.00
573.7840, 32522.00
574.9570, 32370.00
576.1290, 32309.00
577.3020, 32261.61
578.4740, 32366.00
579.6460, 32266.00
580.8180, 32352.00
581.9900, 32466.00
583.1620, 32328.00
584.3330, 32573.00
585.5040, 32596.00
586.6760, 32487.00
587.8470, 32431.00
589.0180, 32413.00
590.1880, 32391.00
591.3590, 32439.00
592.5290, 32625.00
593.7000, 32417.00
594.8700, 32492.00
596.0400, 32417.00
597.2090, 32640.00
598.3790, 32836.00
599.5490, 32853.00
600.7180, 32877.00
601.8870, 32841.00
603.0560, 33148.00
604.2250, 33038.00
605.3940, 33177.00
606.5620, 33234.00
607.7300, 33164.00
608.8990, 33170.00
610.0670, 33340.00
611.2350, 33133.00
612.4020, 33337.00
613.5700, 33597.00
614.7370, 33620.00
615.9050, 33640.00
617.0720, 33700.00
618.2390, 33697.00
619.4060, 33703.00
620.5720, 33972.00
621.7390, 33899.00
622.9050, 33914.00
624.0710, 34124.00
625.2370, 33956.00
626.4030, 34057.00
627.5690, 33846.00
628.7340, 34010.00
629.9000, 34179.00
631.0650, 33810.00
632.2300, 34316.00
633.3950, 34111.00
634.5600, 34197.00
635.7240, 34008.00
636.8890, 34120.00
638.0530, 33924.00
639.2170, 33947.03
640.3810, 34250.00
641.5450, 34002.00
642.7080, 34034.00
643.8720, 34190.00
645.0350, 33976.00
646.1980, 33970.00
647.3610, 34081.00
648.5240, 34203.00
649.6870, 34300.00
650.8490, 34244.00
652.0120, 34346.00
653.1740, 34241.00
654.3360, 34297.00
655.4980, 34309.00
656.6600, 34423.00
657.8210, 34342.00
658.9830, 34477.00
660.1440, 34537.00
661.3050, 34605.00
662.4660, 34421.00
663.6270, 34794.00
664.7870, 34745.00
665.9480, 35168.00
667.1080, 34978.00
668.2680, 35020.00
669.4280, 35168.00
670.5880, 35035.00
671.7480, 34969.00
672.9070, 35161.00
674.0670, 35200.00
675.2260, 35201.00
676.3850, 35277.00
677.5440, 35563.00
678.7030, 35707.00
679.8610, 35899.00
681.0200, 36112.12
682.1780, 36309.33
683.3360, 36515.00
684.4940, 36737.00
685.6520, 36980.00
686.8090, 37162.00
687.9670, 37390.00
689.1240, 37624.00
690.2810, 38103.00
691.4380, 38474.00
692.5950, 38873.00
693.7520, 39095.00
694.9080, 39563.00
696.0650, 40183.00
697.2210, 40923.00
698.3770, 41533.00
699.5330, 41754.00
700.6880, 42930.00
701.8440, 43618.00
702.9990, 44418.00
704.1550, 45554.00
705.3100, 46545.00
706.4650, 47673.00
707.6190, 48734.00
708.7740, 49240.00
709.9290, 49918.00
711.0830, 49851.00
712.2370, 49085.00
713.3910, 48212.00
714.5450, 46804.00
715.6980, 45731.00
716.8520, 44268.00
718.0050, 43000.00
719.1580, 41763.00
720.3110, 41015.00
721.4640, 40355.00
722.6170, 39782.00
723.7700, 39252.00
724.9220, 38798.00
726.0740, 38488.00
727.2260, 38228.00
728.3780, 37952.00
729.5300, 37755.00
730.6810, 37658.00
731.8330, 37506.57
732.9840, 37517.00
734.1350, 37479.00
735.2860, 37460.00
736.4370, 37745.00
737.5880, 37467.00
738.7380, 37281.00
739.8880, 37493.00
741.0390, 37669.00
742.1890, 37614.00
743.3380, 37610.00
744.4880, 37685.00
745.6380, 37696.00
746.7870, 37533.00
747.9360, 37915.00
749.0850, 38079.00
750.2340, 38084.00
751.3830, 37854.00
752.5310, 38048.00
753.6800, 37616.00
754.8280, 37879.00
755.9760, 38154.00
757.1240, 37873.00
758.2720, 37678.00
759.4190, 37598.00
760.5670, 37684.00
761.7140, 37775.00
762.8610, 37563.00
764.0080, 37690.00
765.1550, 37621.00
766.3020, 37535.00
767.4480, 37661.00
768.5950, 37835.00
769.7410, 37710.00
770.8870, 37579.00
772.0330, 37456.00
773.1780, 37480.00
774.3240, 37579.00
775.4690, 37574.00
776.6140, 37722.00
777.7590, 37788.00
778.9040, 37650.00
780.0490, 37857.00
781.1940, 37818.00
782.3380, 37970.00
783.4820, 37904.00
784.6260, 37846.00
785.7700, 37950.00
786.9140, 37996.00
788.0580, 38043.00
789.2010, 38024.00
790.3450, 38155.00
791.4880, 37895.00
792.6310, 38143.00
793.7730, 38193.00
794.9160, 37907.00
796.0590, 37873.00
797.2010, 38270.00
798.3430, 38189.00
799.4850, 38072.00
800.6270, 38137.00
801.7690, 38053.00
802.9100, 38080.75
804.0520, 37911.00
805.1930, 38256.00
806.3340, 38125.00
807.4750, 38452.00
808.6160, 38154.00
809.7560, 38284.00
810.8970, 38373.00
812.0370, 38520.00
813.1770, 38559.00
814.3170, 38653.00
815.4570, 38382.00
816.5960, 38592.00
817.7360, 38562.00
818.8750, 38710.00
820.0140, 38533.00
821.1530, 38633.00
822.2920, 38621.00
823.4310, 38800.00
824.5690, 38675.00
825.7070, 39049.00
826.8460, 38738.00
827.9840, 38794.00
829.1220, 39062.00
830.2590, 38930.00
831.3970, 38974.00
832.5340, 38740.00
833.6710, 38949.00
834.8080, 39272.00
835.9450, 39087.00
837.0820, 39334.00
838.2190, 39300.00
839.3550, 39073.00
840.4910, 39195.00
841.6270, 39070.00
842.7630, 39112.93
843.8990, 39321.00
845.0350, 39207.00
846.1700, 39423.00
847.3060, 39437.00
848.4410, 39353.00
849.5760, 39636.00
850.7100, 39663.00
851.8450, 39769.00
852.9800, 39470.00
854.1140, 39602.00
855.2480, 39791.00
856.3820, 39628.00
857.5160, 39920.00
858.6500, 39797.00
859.7830, 39863.24
860.9170, 40085.00
862.0500, 39976.00
863.1830, 40052.00
864.3160, 40200.00
865.4480, 40237.00
866.5810, 40357.00
867.7130, 40192.00
868.8460, 40322.00
869.9780, 40593.00
871.1100, 40143.00
872.2410, 40512.00
873.3730, 40268.00
874.5050, 40309.00
875.6360, 40117.00
876.7670, 40490.00
877.8980, 40589.00
879.0290, 40453.00
880.1590, 40370.00
881.2900, 40601.00
882.4200, 40243.00
883.5500, 40633.00
884.6800, 40691.00
885.8100, 40727.00
886.9400, 40638.00
888.0690, 40635.00
889.1990, 40617.00
890.3280, 40636.00
891.4570, 40804.00
892.5860, 40907.00
893.7140, 40879.00
894.8430, 40983.00
895.9710, 40950.00
897.1000, 41030.99
898.2280, 41116.00
899.3560, 41154.00
900.4830, 41165.00
901.6110, 41179.00
902.7380, 41374.00
903.8660, 41615.00
904.9930, 41493.00
906.1200, 41499.00
907.2460, 41428.00
908.3730, 41489.52
909.5000, 41909.00
910.6260, 41649.00
911.7520, 41863.00
912.8780, 41941.00
914.0040, 41842.00
915.1290, 42042.00
916.2550, 41927.00
917.3800, 42250.00
918.5050, 42020.00
919.6300, 42352.00
920.7550, 42067.00
921.8800, 42049.00
923.0040, 42155.00
924.1290, 42074.00
925.2530, 42215.00
926.3770, 42247.00
927.5010, 42308.00
928.6250, 42450.00
929.7480, 42075.00
930.8720, 42498.00
931.9950, 42270.00
933.1180, 42480.00
934.2410, 42435.00
935.3640, 42441.00
936.4860, 42173.00
937.6090, 42511.00
938.7310, 42448.00
939.8530, 42789.00
940.9750, 42628.00
942.0970, 42603.00
943.2180, 42724.00
944.3400, 42784.00
945.4610, 42805.00
946.5820, 43092.00
947.7030, 42683.00
948.8240, 43055.00
949.9450, 42896.00
951.0650, 43491.00
952.1860, 43252.00
953.3060, 43309.00
954.4260, 43242.00
955.5460, 43490.00
956.6650, 43296.00
957.7850, 43682.00
958.9040, 43435.00
960.0230, 43510.00
961.1420, 43478.00
962.2610, 43363.00
963.3800, 43582.00
964.4990, 43386.00
965.6170, 43297.00
966.7350, 43722.00
967.8530, 43432.00
968.9710, 43288.00
970.0890, 43651.00
971.2070, 43701.00
972.3240, 43868.00
973.4410, 43842.00
974.5580, 43654.00
975.6750, 43766.00
976.7920, 43708.00
977.9090, 43649.00
979.0250, 43835.00
980.1410, 43875.00
981.2580, 43865.00
982.3740, 43701.00
983.4890, 43962.00
984.6050, 44259.00
985.7200, 43946.00
986.8360, 44253.00
987.9510, 44150.00
989.0660, 44345.00
990.1810, 44414.00
991.2950, 44348.65
992.4100, 44282.00
993.5240, 44268.00
994.6390, 44422.00
995.7530, 44421.00
996.8660, 44513.00
997.9800, 44574.16
999.0940, 44659.00
1000.207, 44628.00
1001.320, 44734.00
1002.433, 44659.00
1003.546, 44737.00
1004.659, 44724.00
1005.772, 44803.00
1006.884, 44697.00
1007.996, 44587.00
1009.108, 44804.00
1010.220, 44721.00
1011.332, 44734.00
1012.444, 45001.00
1013.555, 44859.00
1014.666, 45062.00
1015.777, 45003.00
1016.888, 45016.00
1017.999, 45095.00
1019.110, 45256.00
1020.220, 45238.81
1021.331, 45405.00
1022.441, 45280.00
1023.551, 45347.00
1024.661, 45361.00
1025.770, 45387.00
1026.880, 45451.84
1027.989, 45497.52
1029.098, 45516.00
1030.207, 45624.00
1031.316, 45549.00
1032.425, 45586.00
1033.533, 45768.00
1034.642, 45623.00
1035.750, 45711.00
1036.858, 45827.00
1037.966, 45509.00
1039.073, 45936.00
1040.181, 45873.00
1041.288, 45871.00
1042.396, 46107.00
1043.503, 45886.00
1044.610, 45764.00
1045.716, 46343.00
1046.823, 46137.00
1047.929, 46115.00
1049.036, 46174.00
1050.142, 46463.00
1051.248, 46359.00
1052.353, 46390.00
1053.459, 46529.00
1054.564, 46400.00
1055.670, 46254.00
1056.775, 46525.00
1057.880, 46502.00
1058.985, 46730.00
1060.089, 46674.00
1061.194, 46689.19
1062.298, 46884.00
1063.402, 46634.00
1064.506, 46646.00
1065.610, 46646.00
1066.713, 46793.00
1067.817, 46827.75
1068.920, 46894.60
1070.023, 46976.00
1071.126, 47089.00
1072.229, 47099.00
1073.332, 47333.00
1074.435, 47325.00
1075.537, 47607.00
1076.639, 47434.00
1077.741, 47403.00
1078.843, 47561.00
1079.945, 47556.00
1081.046, 47641.00
1082.148, 47670.00
1083.249, 47629.79
1084.350, 47682.00
1085.451, 47565.00
1086.551, 47896.00
1087.652, 47957.00
1088.752, 47932.00
1089.853, 48150.00
1090.953, 48087.00
1092.053, 48025.00
1093.152, 48183.00
1094.252, 48222.00
1095.351, 48269.61
1096.451, 48322.87
1097.550, 48366.00
1098.649, 48406.00
1099.748, 48389.00
1100.846, 48526.00
1101.945, 48358.00
1103.043, 48571.00
1104.141, 48538.00
1105.239, 48371.00
1106.337, 48828.00
1107.434, 49018.00
1108.532, 48798.00
1109.629, 48856.00
1110.726, 48755.00
1111.823, 48865.00
1112.920, 48929.00
1114.017, 48948.00
1115.113, 49069.00
1116.210, 49106.00
1117.306, 49198.75
1118.402, 49122.00
1119.498, 49350.00
1120.593, 49158.00
1121.689, 49139.00
1122.784, 49284.00
1123.879, 49135.00
1124.974, 49088.00
1126.069, 49248.00
1127.164, 49378.00
1128.259, 49045.00
1129.353, 49151.00
1130.447, 49395.00
1131.541, 49163.00
1132.635, 49209.00
1133.729, 49216.00
1134.822, 49037.00
1135.916, 49274.00
1137.009, 49043.00
1138.102, 49143.00
1139.195, 49203.00
1140.288, 49234.00
1141.380, 49174.00
1142.473, 49213.00
1143.565, 49133.00
1144.657, 49010.27
1145.749, 49000.00
1146.841, 48859.00
1147.932, 49038.00
1149.024, 49327.00
1150.115, 49412.00
1151.206, 49331.00
1152.297, 49316.00
1153.388, 49152.00
1154.479, 49198.00
1155.569, 49736.00
1156.659, 49542.00
1157.750, 49549.00
1158.839, 49653.00
1159.929, 49199.00
1161.019, 49507.00
1162.108, 49791.00
1163.198, 49608.00
1164.287, 49716.00
1165.376, 49618.00
1166.465, 49655.00
1167.553, 49606.00
1168.642, 49604.00
1169.730, 49637.08
1170.818, 49627.31
1171.906, 49734.00
1172.994, 49766.00
1174.082, 49884.00
1175.170, 50182.00
1176.257, 50084.00
1177.344, 49974.00
1178.431, 49901.00
1179.518, 50284.00
1180.605, 50017.00
1181.691, 50198.00
1182.778, 50041.00
1183.864, 50211.00
1184.950, 50238.00
1186.036, 50493.00
1187.122, 50475.74
1188.207, 50247.00
1189.292, 50538.00
1190.378, 50397.00
1191.463, 50489.00
1192.548, 50793.00
1193.632, 50701.00
1194.717, 50652.00
1195.801, 50580.00
1196.886, 50554.00
1197.970, 50946.00
1199.054, 50663.00
1200.137, 50891.00
1201.221, 50815.00
1202.305, 50719.00
1203.388, 50839.00
1204.471, 51120.00
1205.554, 50789.00
1206.637, 50990.00
1207.719, 50749.00
1208.802, 51069.00
1209.884, 50890.00
1210.966, 50984.00
1212.048, 51392.00
1213.130, 51193.00
1214.212, 51358.00
1215.293, 51307.00
1216.374, 51119.00
1217.456, 51287.27
1218.536, 51510.00
1219.617, 51459.00
1220.698, 51420.00
1221.778, 51550.00
1222.859, 51572.00
1223.939, 51790.00
1225.019, 51500.00
1226.099, 51580.00
1227.178, 51490.00
1228.258, 51594.00
1229.337, 51666.00
1230.417, 51676.00
1231.496, 51954.00
1232.574, 51906.00
1233.653, 52123.00
1234.732, 51874.00
1235.810, 52103.00
1236.888, 52019.00
1237.966, 52027.00
1239.044, 51953.00
1240.122, 52313.00
1241.199, 52104.00
1242.277, 51974.00
1243.354, 52266.00
1244.431, 52152.00
1245.508, 52089.00
1246.585, 52637.00
1247.661, 52309.00
1248.738, 52543.00
1249.814, 52569.00
1250.890, 52589.00
1251.966, 52421.00
1253.042, 52749.00
1254.117, 52581.00
1255.193, 52611.00
1256.268, 52619.00
1257.343, 52497.00
1258.418, 52514.00
1259.493, 52642.00
1260.567, 52807.00
1261.642, 52987.00
1262.716, 52921.00
1263.790, 52729.00
1264.864, 53224.00
1265.938, 53207.00
1267.011, 53071.00
1268.085, 52761.00
1269.158, 52947.00
1270.231, 53147.00
1271.304, 53084.00
1272.377, 53137.00
1273.450, 53390.00
1274.522, 53403.00
1275.594, 53503.00
1276.666, 53576.91
1277.738, 53387.00
