##NAMES=Polylithionite
##RRUFFID=R050132
##IDEAL CHEMISTRY=KLi_2_AlSi_4_O_10_F_2_
##LOCALITY=Brown Derby mine, Ohio City, Gunnison County, Colorado, USA
##OWNER=RRUFF
##SOURCE=Dave Bunk Minerals
##DESCRIPTION=Purple scaly aggregate, polytype 2M1
##STATUS=The identification of this mineral has been confirmed by X-ray diffraction and chemical analysis
##URL=rruff.info/R050132
##MEASURED CHEMISTRY=(K_0.90_Rb_0.10_)(Li_0.62_Al_0.38_)_3_(Si_0.93_Al_0.07_)_4_O_10_(F_0.69_(OH)_0.31_)_2_
##PIN_ID=L01426
##ORIENTATION=Laser parallel to -a* (-1 0 0). Fiducial mark perpendicular to laser is parallel to -b [0 -1 0]
157.4550, 19714.00
158.6810, 19740.00
159.9080, 19872.53
161.1340, 19979.64
162.3590, 20169.00
163.5850, 20286.00
164.8110, 20555.00
166.0360, 20756.00
167.2610, 20787.00
168.4860, 21122.00
169.7110, 21351.00
170.9360, 21916.00
172.1610, 22111.00
173.3850, 22543.00
174.6100, 22771.00
175.8340, 23226.00
177.0580, 23435.00
178.2820, 23870.00
179.5050, 24088.00
180.7290, 24206.00
181.9520, 24308.00
183.1760, 24058.00
184.3990, 24027.00
185.6220, 23869.00
186.8450, 23664.00
188.0670, 23495.00
189.2900, 23236.00
190.5120, 23243.00
191.7340, 23033.00
192.9560, 23306.00
194.1780, 23365.00
195.4000, 23495.00
196.6220, 23874.00
197.8430, 23828.00
199.0640, 23844.00
200.2860, 23923.00
201.5070, 23662.00
202.7270, 23747.00
203.9480, 23421.00
205.1690, 23019.00
206.3890, 22836.00
207.6090, 22606.00
208.8290, 22623.00
210.0490, 22964.00
211.2690, 22767.00
212.4890, 22933.00
213.7080, 23247.00
214.9280, 23021.00
216.1470, 22694.00
217.3660, 22637.00
218.5850, 22509.00
219.8030, 22143.00
221.0220, 21908.00
222.2400, 21768.00
223.4590, 21579.24
224.6770, 21425.00
225.8950, 21417.00
227.1120, 21449.00
228.3300, 21477.64
229.5480, 21577.00
230.7650, 21560.00
231.9820, 21668.00
233.1990, 21705.00
234.4160, 21962.00
235.6330, 22297.00
236.8490, 22309.00
238.0660, 22481.00
239.2820, 22563.00
240.4980, 22840.00
241.7140, 23260.00
242.9300, 23488.00
244.1460, 23737.00
245.3610, 23959.00
246.5770, 24516.00
247.7920, 24877.00
249.0070, 25223.00
250.2220, 25862.00
251.4370, 26464.00
252.6510, 27160.00
253.8660, 27676.00
255.0800, 28762.00
256.2940, 29818.00
257.5080, 31082.00
258.7220, 32911.00
259.9360, 34324.00
261.1490, 34845.00
262.3630, 35111.00
263.5760, 35640.00
264.7890, 35238.00
266.0020, 34247.00
267.2150, 32984.00
268.4270, 31788.00
269.6400, 30221.00
270.8520, 28833.00
272.0640, 27662.00
273.2760, 26864.00
274.4880, 25912.00
275.7000, 25066.00
276.9120, 24832.00
278.1230, 24162.00
279.3340, 23869.00
280.5450, 23703.00
281.7560, 23336.00
282.9670, 23157.00
284.1780, 23079.00
285.3880, 22778.00
286.5980, 22905.00
287.8090, 22684.00
289.0190, 22842.00
290.2290, 22566.00
291.4380, 22680.00
292.6480, 22557.00
293.8570, 22750.00
295.0670, 22550.00
296.2760, 22603.00
297.4850, 22603.00
298.6930, 22583.78
299.9020, 22644.74
301.1110, 22697.00
302.3190, 22706.00
303.5270, 22695.35
304.7350, 22646.98
305.9430, 22640.00
307.1510, 22490.00
308.3580, 22495.00
309.5660, 22418.41
310.7730, 22481.00
311.9800, 22482.00
313.1870, 22535.00
314.3940, 22694.00
315.6010, 22482.00
316.8070, 22471.00
318.0130, 22692.00
319.2200, 22367.00
320.4260, 22431.00
321.6310, 22474.00
322.8370, 22328.00
324.0430, 22377.00
325.2480, 22556.00
326.4540, 22550.00
327.6590, 22555.00
328.8640, 22352.00
330.0680, 22592.00
331.2730, 22544.00
332.4780, 22476.00
333.6820, 22174.00
334.8860, 22397.00
336.0900, 22343.00
337.2940, 22150.00
338.4980, 22200.00
339.7010, 22137.00
340.9050, 22150.00
342.1080, 22291.00
343.3110, 22289.00
344.5140, 22377.00
345.7170, 22071.00
346.9200, 22132.00
348.1220, 22241.00
349.3240, 22208.00
350.5270, 22359.00
351.7290, 22398.00
352.9310, 22269.00
354.1320, 22414.00
355.3340, 22451.00
356.5350, 22482.81
357.7370, 22630.00
358.9380, 22609.00
360.1390, 22792.00
361.3400, 22840.00
362.5400, 22947.00
363.7410, 23060.73
364.9410, 23187.00
366.1410, 23278.00
367.3410, 23396.00
368.5410, 23548.00
369.7410, 23792.00
370.9400, 23861.00
372.1400, 24044.99
373.3390, 24312.00
374.5380, 24352.00
375.7370, 24631.00
376.9360, 24844.00
378.1350, 24899.00
379.3330, 25084.00
380.5310, 25290.00
381.7300, 25418.00
382.9280, 25547.00
384.1260, 25661.00
385.3230, 25801.00
386.5210, 26126.00
387.7180, 26341.00
388.9160, 26515.28
390.1130, 26871.00
391.3100, 26909.00
392.5060, 27198.00
393.7030, 27493.00
394.9000, 27752.00
396.0960, 28166.00
397.2920, 28469.00
398.4880, 28810.00
399.6840, 28951.00
400.8800, 29421.00
402.0750, 29381.00
403.2710, 29610.00
404.4660, 29487.00
405.6610, 29791.00
406.8560, 29647.00
408.0510, 29508.00
409.2450, 29508.00
410.4400, 29179.84
411.6340, 29184.00
412.8280, 28636.00
414.0220, 28053.00
415.2160, 27873.00
416.4100, 27602.00
417.6030, 27538.00
418.7970, 26928.00
419.9900, 26908.00
421.1830, 26651.00
422.3760, 26570.00
423.5690, 26347.00
424.7610, 26202.97
425.9540, 26069.00
427.1460, 25946.00
428.3380, 25883.00
429.5300, 25836.00
430.7220, 25812.39
431.9140, 25862.00
433.1050, 25823.00
434.2970, 25884.00
435.4880, 25885.27
436.6790, 26092.00
437.8700, 26004.00
439.0610, 25954.00
440.2510, 26007.00
441.4420, 25814.00
442.6320, 25774.00
443.8220, 25913.00
445.0120, 25782.00
446.2020, 25971.00
447.3910, 26070.00
448.5810, 25951.00
449.7700, 26024.00
450.9600, 25947.00
452.1490, 25860.00
453.3370, 25943.00
454.5260, 25687.00
455.7150, 25756.00
456.9030, 25790.00
458.0910, 26064.00
459.2800, 25839.00
460.4670, 25898.00
461.6550, 25909.00
462.8430, 25911.00
464.0300, 26000.00
465.2180, 26004.05
466.4050, 26041.99
467.5920, 26058.00
468.7790, 26104.00
469.9650, 26104.00
471.1520, 26141.00
472.3380, 26127.00
473.5250, 26245.00
474.7110, 26261.00
475.8970, 26247.00
477.0820, 26317.00
478.2680, 26162.00
479.4540, 26041.00
480.6390, 25926.00
481.8240, 26165.00
483.0090, 26105.00
484.1940, 25892.00
485.3780, 25667.00
486.5630, 25701.00
487.7470, 25469.00
488.9320, 25406.00
490.1160, 25507.00
491.3000, 25287.00
492.4830, 25389.00
493.6670, 25229.00
494.8500, 25143.00
496.0340, 25221.00
497.2170, 25400.00
498.4000, 24904.00
499.5820, 25214.00
500.7650, 25270.00
501.9480, 25093.00
503.1300, 25299.00
504.3120, 25216.00
505.4940, 25379.00
506.6760, 25217.00
507.8580, 25308.00
509.0390, 25304.00
510.2210, 25330.00
511.4020, 25363.00
512.5830, 25310.00
513.7640, 25540.00
514.9450, 25442.00
516.1250, 25576.00
517.3060, 25419.00
518.4860, 25709.00
519.6660, 25713.00
520.8460, 25657.00
522.0260, 25835.00
523.2060, 25905.00
524.3850, 25941.00
525.5650, 25939.00
526.7440, 26017.04
527.9230, 26060.00
529.1020, 26183.00
530.2810, 26193.00
531.4590, 26379.00
532.6380, 26520.00
533.8160, 26688.00
534.9940, 26341.00
536.1720, 26717.00
537.3500, 26608.00
538.5270, 26584.00
539.7050, 26674.00
540.8820, 26904.00
542.0590, 26983.00
543.2360, 27174.00
544.4130, 27257.00
545.5900, 27339.00
546.7660, 27501.00
547.9430, 27628.00
549.1190, 27693.00
550.2950, 27774.00
551.4710, 28086.00
552.6470, 28111.00
553.8220, 28613.00
554.9980, 28698.00
556.1730, 28924.00
557.3480, 29043.00
558.5230, 29130.00
559.6980, 29337.00
560.8730, 29246.00
562.0470, 29333.00
563.2220, 29195.00
564.3960, 29269.00
565.5700, 29271.00
566.7440, 29405.00
567.9170, 29081.00
569.0910, 29078.00
570.2640, 28833.00
571.4380, 28789.00
572.6110, 28459.00
573.7840, 28282.00
574.9570, 28340.00
576.1290, 27895.00
577.3020, 27773.00
578.4740, 27729.00
579.6460, 27832.00
580.8180, 27591.00
581.9900, 27540.00
583.1620, 27481.00
584.3330, 27406.00
585.5040, 27339.00
586.6760, 27270.60
587.8470, 27238.40
589.0180, 27170.00
590.1880, 27186.00
591.3590, 27227.00
592.5290, 27204.00
593.7000, 27237.66
594.8700, 27463.00
596.0400, 27242.00
597.2090, 27378.00
598.3790, 27325.00
599.5490, 27633.00
600.7180, 27562.00
601.8870, 27648.00
603.0560, 27394.00
604.2250, 27837.00
605.3940, 27736.00
606.5620, 27955.00
607.7300, 27912.00
608.8990, 27877.00
610.0670, 28123.00
611.2350, 28183.00
612.4020, 28408.00
613.5700, 28265.00
614.7370, 28353.00
615.9050, 28281.00
617.0720, 28331.00
618.2390, 28498.00
619.4060, 28478.00
620.5720, 28311.00
621.7390, 28624.00
622.9050, 28565.00
624.0710, 28752.00
625.2370, 28867.00
626.4030, 28823.00
627.5690, 29078.00
628.7340, 28863.00
629.9000, 28966.00
631.0650, 29044.00
632.2300, 29014.00
633.3950, 29247.00
634.5600, 29295.00
635.7240, 29566.00
636.8890, 28999.00
638.0530, 29136.00
639.2170, 29623.00
640.3810, 28819.00
641.5450, 28737.00
642.7080, 28528.00
643.8720, 28702.00
645.0350, 28539.00
646.1980, 28524.00
647.3610, 28441.00
648.5240, 28449.00
649.6870, 28163.00
650.8490, 28349.00
652.0120, 28533.00
653.1740, 28349.00
654.3360, 28111.00
655.4980, 28374.00
656.6600, 28464.00
657.8210, 28403.00
658.9830, 28629.00
660.1440, 28588.00
661.3050, 28604.00
662.4660, 28589.00
663.6270, 28613.00
664.7870, 29133.00
665.9480, 28867.00
667.1080, 28773.00
668.2680, 29254.00
669.4280, 29025.00
670.5880, 29077.00
671.7480, 29371.00
672.9070, 29641.00
674.0670, 29505.00
675.2260, 29866.00
676.3850, 29982.00
677.5440, 30075.00
678.7030, 30424.00
679.8610, 30550.00
681.0200, 30992.00
682.1780, 31269.00
683.3360, 31324.00
684.4940, 31506.00
685.6520, 32239.00
686.8090, 32562.00
687.9670, 33263.00
689.1240, 33507.00
690.2810, 34327.00
691.4380, 34705.00
692.5950, 35665.00
693.7520, 36813.00
694.9080, 37606.00
696.0650, 38672.00
697.2210, 39626.00
698.3770, 40910.34
699.5330, 42245.16
700.6880, 43852.00
701.8440, 45452.00
702.9990, 47411.00
704.1550, 49636.00
705.3100, 51205.00
706.4650, 53466.00
707.6190, 55197.00
708.7740, 56804.00
709.9290, 57932.00
711.0830, 58236.00
712.2370, 57683.00
713.3910, 56196.00
714.5450, 53822.00
715.6980, 50975.00
716.8520, 48096.00
718.0050, 45485.00
719.1580, 42906.00
720.3110, 40898.00
721.4640, 39050.00
722.6170, 37438.00
723.7700, 36553.00
724.9220, 35402.00
726.0740, 34431.00
727.2260, 33975.00
728.3780, 33339.00
729.5300, 33083.00
730.6810, 32550.00
731.8330, 32331.00
732.9840, 31987.00
734.1350, 31994.00
735.2860, 31926.00
736.4370, 31675.00
737.5880, 31535.00
738.7380, 31716.00
739.8880, 31699.00
741.0390, 31926.00
742.1890, 31955.00
743.3380, 32117.00
744.4880, 32251.00
745.6380, 32396.00
746.7870, 32523.00
747.9360, 32740.00
749.0850, 32905.00
750.2340, 32767.00
751.3830, 32847.00
752.5310, 32754.00
753.6800, 32845.00
754.8280, 32845.00
755.9760, 32555.00
757.1240, 32730.00
758.2720, 32468.00
759.4190, 32416.00
760.5670, 32194.00
761.7140, 32302.00
762.8610, 31792.00
764.0080, 31808.00
765.1550, 31870.00
766.3020, 31533.00
767.4480, 31520.00
768.5950, 31327.00
769.7410, 31233.00
770.8870, 30986.00
772.0330, 31236.00
773.1780, 30993.00
774.3240, 30826.00
775.4690, 31012.00
776.6140, 30817.00
777.7590, 30731.00
778.9040, 30647.00
780.0490, 30602.15
781.1940, 30906.00
782.3380, 30642.00
783.4820, 30744.00
784.6260, 30869.00
785.7700, 30756.00
786.9140, 30871.00
788.0580, 30805.00
789.2010, 30841.00
790.3450, 30783.00
791.4880, 30698.38
792.6310, 30810.00
793.7730, 30510.00
794.9160, 30545.00
796.0590, 30490.00
797.2010, 30561.00
798.3430, 30352.00
799.4850, 30512.00
800.6270, 30226.00
801.7690, 30423.00
802.9100, 30301.00
804.0520, 30336.00
805.1930, 30307.00
806.3340, 30089.00
807.4750, 30257.00
808.6160, 30408.00
809.7560, 30156.00
810.8970, 30218.00
812.0370, 29999.00
813.1770, 30180.00
814.3170, 30121.00
815.4570, 30118.00
816.5960, 30207.00
817.7360, 30341.00
818.8750, 30103.00
820.0140, 30279.00
821.1530, 30319.00
822.2920, 30277.00
823.4310, 30394.84
824.5690, 30360.00
825.7070, 30511.00
826.8460, 30362.00
827.9840, 30429.00
829.1220, 30372.00
830.2590, 30387.00
831.3970, 30440.00
832.5340, 30485.00
833.6710, 30422.00
834.8080, 30485.41
835.9450, 30394.00
837.0820, 30524.00
838.2190, 30489.00
839.3550, 30487.00
840.4910, 30599.00
841.6270, 30663.00
842.7630, 30513.00
843.8990, 30622.00
845.0350, 30700.00
846.1700, 30676.00
847.3060, 30780.00
848.4410, 30729.00
849.5760, 30884.00
850.7100, 30796.00
851.8450, 30851.00
852.9800, 30939.00
854.1140, 30977.00
855.2480, 30716.00
856.3820, 30946.00
857.5160, 30884.00
858.6500, 31099.00
859.7830, 31084.00
860.9170, 30945.00
862.0500, 30989.00
863.1830, 31131.00
864.3160, 31336.00
865.4480, 31090.00
866.5810, 31012.00
867.7130, 31147.00
868.8460, 31097.00
869.9780, 31059.00
871.1100, 31096.00
872.2410, 31128.11
873.3730, 31240.00
874.5050, 31308.00
875.6360, 31255.00
876.7670, 31408.00
877.8980, 31249.00
879.0290, 31363.00
880.1590, 31433.00
881.2900, 31642.00
882.4200, 31478.00
883.5500, 31388.00
884.6800, 31365.00
885.8100, 31223.00
886.9400, 31626.00
888.0690, 31847.00
889.1990, 31736.00
890.3280, 31749.00
891.4570, 31717.00
892.5860, 31866.00
893.7140, 31929.00
894.8430, 31957.00
895.9710, 32087.00
897.1000, 31944.00
898.2280, 32127.00
899.3560, 32022.00
900.4830, 32420.00
901.6110, 32038.00
902.7380, 32284.00
903.8660, 32299.00
904.9930, 32752.00
906.1200, 32361.00
907.2460, 32785.00
908.3730, 32785.00
909.5000, 32788.00
910.6260, 32869.00
911.7520, 32935.00
912.8780, 32909.00
914.0040, 33089.00
915.1290, 32988.00
916.2550, 33126.00
917.3800, 33110.00
918.5050, 33073.00
919.6300, 33244.00
920.7550, 33238.00
921.8800, 33197.00
923.0040, 33104.00
924.1290, 33240.00
925.2530, 33187.00
926.3770, 33233.00
927.5010, 33130.00
928.6250, 33210.00
929.7480, 33235.00
930.8720, 33101.00
931.9950, 33022.00
933.1180, 33423.00
934.2410, 33096.00
935.3640, 33307.00
936.4860, 33326.00
937.6090, 33300.00
938.7310, 33315.00
939.8530, 33264.00
940.9750, 33339.00
942.0970, 33250.00
943.2180, 33349.57
944.3400, 33476.00
945.4610, 33483.00
946.5820, 33624.88
947.7030, 33847.00
948.8240, 33829.00
949.9450, 33890.00
951.0650, 33960.00
952.1860, 33965.00
953.3060, 34059.88
954.4260, 34142.00
955.5460, 34135.00
956.6650, 34121.00
957.7850, 33982.00
958.9040, 34380.00
960.0230, 34191.00
961.1420, 34269.00
962.2610, 33999.00
963.3800, 34165.00
964.4990, 34223.00
965.6170, 34091.00
966.7350, 34166.00
967.8530, 34192.00
968.9710, 34434.00
970.0890, 34089.00
971.2070, 34345.00
972.3240, 34489.00
973.4410, 34113.00
974.5580, 34315.00
975.6750, 34208.00
976.7920, 34143.00
977.9090, 34242.00
979.0250, 34182.25
980.1410, 34209.00
981.2580, 34237.00
982.3740, 34295.69
983.4890, 34377.00
984.6050, 34450.00
985.7200, 34604.00
986.8360, 34768.00
987.9510, 34667.00
989.0660, 34688.00
990.1810, 34590.00
991.2950, 34645.00
992.4100, 34707.00
993.5240, 34790.00
994.6390, 34786.00
995.7530, 34925.00
996.8660, 34882.00
997.9800, 35134.00
999.0940, 35135.00
1000.207, 35143.00
1001.320, 35120.00
1002.433, 35124.00
1003.546, 35133.00
1004.659, 35114.00
1005.772, 35375.00
1006.884, 35103.00
1007.996, 35186.00
1009.108, 35167.00
1010.220, 35499.00
1011.332, 35166.00
1012.444, 35275.00
1013.555, 35440.00
1014.666, 35181.00
1015.777, 35406.00
1016.888, 35648.00
1017.999, 35493.00
1019.110, 35529.00
1020.220, 35597.00
1021.331, 35492.00
1022.441, 35608.00
1023.551, 35520.00
1024.661, 35525.00
1025.770, 35545.00
1026.880, 35637.00
1027.989, 35572.00
1029.098, 35747.00
1030.207, 35424.00
1031.316, 35505.00
1032.425, 35683.00
1033.533, 35347.00
1034.642, 35337.00
1035.750, 35556.00
1036.858, 35379.00
1037.966, 35325.00
1039.073, 35239.00
1040.181, 35312.40
1041.288, 35454.00
1042.396, 35557.00
1043.503, 35608.00
1044.610, 35740.00
1045.716, 35750.00
1046.823, 35751.00
1047.929, 35872.00
1049.036, 36103.00
1050.142, 35912.00
1051.248, 36167.00
1052.353, 36071.00
1053.459, 36068.00
1054.564, 36239.00
1055.670, 36453.00
1056.775, 36347.00
1057.880, 36444.00
1058.985, 36242.00
1060.089, 36488.00
1061.194, 36465.00
1062.298, 36615.00
1063.402, 36680.27
1064.506, 36593.00
1065.610, 36746.00
1066.713, 36868.00
1067.817, 36830.00
1068.920, 36680.00
1070.023, 36965.00
1071.126, 36762.00
1072.229, 37002.00
1073.332, 37282.00
1074.435, 37044.00
1075.537, 37198.00
1076.639, 37146.00
1077.741, 37181.00
1078.843, 37335.00
1079.945, 37491.00
1081.046, 37404.00
1082.148, 37446.00
1083.249, 37640.00
1084.350, 37794.00
1085.451, 37976.00
1086.551, 38071.00
1087.652, 37982.00
1088.752, 38018.00
1089.853, 37954.00
1090.953, 37983.00
1092.053, 37806.00
1093.152, 37850.00
1094.252, 38127.00
1095.351, 37964.00
1096.451, 38101.00
1097.550, 38260.00
1098.649, 38237.00
1099.748, 38157.00
1100.846, 38262.00
1101.945, 38357.00
1103.043, 38488.00
1104.141, 38620.00
1105.239, 38522.00
1106.337, 38396.00
1107.434, 38642.00
1108.532, 38557.00
1109.629, 38345.00
1110.726, 38734.00
1111.823, 38556.00
1112.920, 38415.00
1114.017, 38569.00
1115.113, 38633.00
1116.210, 38614.00
1117.306, 38589.00
1118.402, 38923.00
1119.498, 38941.00
1120.593, 39205.00
1121.689, 39001.00
1122.784, 39173.00
1123.879, 38867.00
1124.974, 38783.00
1126.069, 38755.00
1127.164, 38512.00
1128.259, 38412.00
1129.353, 38243.00
1130.447, 38118.00
1131.541, 38116.00
1132.635, 38142.00
1133.729, 38231.00
1134.822, 38087.00
1135.916, 38052.00
1137.009, 37939.00
1138.102, 38033.00
1139.195, 37908.00
1140.288, 37882.00
1141.380, 37699.00
1142.473, 37570.00
1143.565, 37618.00
1144.657, 37657.00
1145.749, 37448.00
1146.841, 37773.00
1147.932, 37398.00
1149.024, 37483.00
1150.115, 37534.00
1151.206, 37696.00
1152.297, 37763.00
1153.388, 37824.00
1154.479, 37639.00
1155.569, 37383.00
1156.659, 37652.00
1157.750, 37777.00
1158.839, 37623.00
1159.929, 37728.00
1161.019, 37524.00
1162.108, 37656.00
1163.198, 37560.00
1164.287, 37606.00
1165.376, 37708.00
1166.465, 37813.00
1167.553, 37810.00
1168.642, 37673.00
1169.730, 37965.00
1170.818, 37694.00
1171.906, 37807.00
1172.994, 37978.00
1174.082, 37943.00
1175.170, 37962.00
1176.257, 38078.00
1177.344, 38042.98
1178.431, 37966.00
1179.518, 38044.00
1180.605, 38067.00
1181.691, 38019.00
1182.778, 38097.28
1183.864, 38198.00
1184.950, 38155.00
1186.036, 38146.00
1187.122, 38120.00
1188.207, 38099.00
1189.292, 38224.00
1190.378, 38252.00
1191.463, 38344.00
1192.548, 38147.00
1193.632, 38425.00
1194.717, 38057.00
1195.801, 38130.00
1196.886, 38416.00
1197.970, 38195.00
1199.054, 38432.00
1200.137, 38696.00
1201.221, 38532.00
1202.305, 38406.00
1203.388, 38527.00
1204.471, 38364.00
1205.554, 38399.23
1206.637, 38445.00
1207.719, 38436.00
1208.802, 38614.00
1209.884, 38719.00
1210.966, 38707.00
1212.048, 38604.00
1213.130, 38654.00
1214.212, 38618.00
1215.293, 38671.00
1216.374, 38850.00
1217.456, 38863.00
1218.536, 39062.00
1219.617, 38829.00
1220.698, 38749.00
1221.778, 38880.00
1222.859, 38858.00
1223.939, 39117.00
1225.019, 38866.00
1226.099, 38941.00
1227.178, 39034.00
1228.258, 38847.00
1229.337, 38806.00
1230.417, 39016.00
1231.496, 39475.00
1232.574, 39123.00
1233.653, 39592.00
1234.732, 39150.00
1235.810, 39070.00
1236.888, 39354.00
1237.966, 39526.00
1239.044, 39429.00
1240.122, 39537.05
1241.199, 39426.00
1242.277, 39494.00
1243.354, 39481.16
1244.431, 39317.00
1245.508, 39479.00
1246.585, 39448.00
1247.661, 39471.00
1248.738, 39522.00
1249.814, 39436.00
1250.890, 39379.00
1251.966, 39407.00
1253.042, 39623.00
1254.117, 39363.00
1255.193, 39553.00
1256.268, 39611.00
1257.343, 39577.00
1258.418, 39554.00
1259.493, 39704.00
1260.567, 39813.16
1261.642, 40054.00
1262.716, 39955.00
1263.790, 40260.00
1264.864, 39815.00
1265.938, 39961.00
1267.011, 39978.00
1268.085, 39911.00
1269.158, 39710.00
1270.231, 40063.00
1271.304, 39681.00
1272.377, 39765.00
1273.450, 40040.00
1274.522, 40000.00
1275.594, 39987.00
1276.666, 40042.00
1277.738, 40066.00
1278.810, 40188.00
1279.882, 40054.00
1280.953, 40106.00
1282.025, 40315.00
1283.096, 40178.00
1284.167, 40082.00
1285.238, 40138.00
1286.308, 40329.00
1287.379, 40317.00
1288.449, 40308.00
1289.519, 40293.00
1290.589, 40298.00
1291.659, 40315.16
1292.729, 40404.00
1293.798, 40388.00
1294.868, 40506.00
1295.937, 40592.00
1297.006, 40631.00
1298.075, 40711.00
1299.143, 40701.00
1300.212, 40740.46
1301.280, 40864.00
1302.348, 40729.00
1303.416, 40711.00
1304.484, 40615.00
1305.552, 40841.00
1306.620, 40696.00
1307.687, 40726.00
1308.754, 40975.00
1309.821, 40781.00
1310.888, 40804.00
1311.955, 41091.00
1313.021, 41057.00
1314.088, 41103.00
1315.154, 41244.00
1316.220, 41102.00
1317.286, 41185.00
1318.352, 41282.00
1319.417, 41231.00
1320.483, 41306.00
1321.548, 41294.00
1322.613, 41162.00
1323.678, 41213.00
1324.743, 41366.00
1325.807, 41250.00
