##NAMES=Polylithionite
##RRUFFID=R050132
##IDEAL CHEMISTRY=KLi_2_AlSi_4_O_10_F_2_
##LOCALITY=Brown Derby mine, Ohio City, Gunnison County, Colorado, USA
##OWNER=RRUFF
##SOURCE=Dave Bunk Minerals
##DESCRIPTION=Purple scaly aggregate, polytype 2M1
##STATUS=The identification of this mineral has been confirmed by X-ray diffraction and chemical analysis
##URL=rruff.info/R050132
##MEASURED CHEMISTRY=(K_0.90_Rb_0.10_)(Li_0.62_Al_0.38_)_3_(Si_0.93_Al_0.07_)_4_O_10_(F_0.69_(OH)_0.31_)_2_
##PIN_ID=L01426
##ORIENTATION=Laser parallel to -a* (-1 0 0). Fiducial mark perpendicular to laser is parallel to -b [0 -1 0]
157.4550, 19155.00
158.6810, 19371.00
159.9080, 19278.00
161.1340, 19762.00
162.3590, 20137.00
163.5850, 19915.00
164.8110, 20108.00
166.0360, 20601.00
167.2610, 20945.00
168.4860, 21517.00
169.7110, 21820.76
170.9360, 22230.00
172.1610, 22596.00
173.3850, 23286.00
174.6100, 23936.00
175.8340, 24424.00
177.0580, 25272.00
178.2820, 25885.00
179.5050, 26040.00
180.7290, 26351.00
181.9520, 26557.00
183.1760, 26828.00
184.3990, 26856.00
185.6220, 26673.00
186.8450, 26491.00
188.0670, 26193.00
189.2900, 25942.00
190.5120, 25802.00
191.7340, 25688.71
192.9560, 25544.00
194.1780, 25657.00
195.4000, 25645.00
196.6220, 25731.00
197.8430, 25480.00
199.0640, 25361.00
200.2860, 25091.00
201.5070, 24978.00
202.7270, 24819.00
203.9480, 24428.00
205.1690, 23889.00
206.3890, 23700.00
207.6090, 23280.00
208.8290, 23182.00
210.0490, 23339.00
211.2690, 23356.00
212.4890, 23514.00
213.7080, 23507.00
214.9280, 23670.00
216.1470, 23375.00
217.3660, 23328.00
218.5850, 23183.00
219.8030, 22848.00
221.0220, 22558.00
222.2400, 22697.00
223.4590, 22532.00
224.6770, 22534.00
225.8950, 22686.00
227.1120, 22649.00
228.3300, 22788.00
229.5480, 22919.00
230.7650, 22960.00
231.9820, 23379.00
233.1990, 23486.00
234.4160, 23684.00
235.6330, 23970.00
236.8490, 24069.00
238.0660, 24447.00
239.2820, 24672.00
240.4980, 24923.00
241.7140, 25337.00
242.9300, 25472.00
244.1460, 25986.00
245.3610, 26511.00
246.5770, 26763.00
247.7920, 27103.00
249.0070, 27348.00
250.2220, 27979.00
251.4370, 28603.00
252.6510, 29227.00
253.8660, 29961.00
255.0800, 31041.00
256.2940, 32186.00
257.5080, 33170.00
258.7220, 34991.00
259.9360, 36453.00
261.1490, 36879.00
262.3630, 37554.00
263.5760, 37677.00
264.7890, 37322.00
266.0020, 36481.00
267.2150, 35206.00
268.4270, 33506.00
269.6400, 31945.00
270.8520, 30387.00
272.0640, 28917.00
273.2760, 27683.00
274.4880, 26887.00
275.7000, 25782.00
276.9120, 25427.00
278.1230, 24703.00
279.3340, 24157.00
280.5450, 23850.00
281.7560, 23546.00
282.9670, 23310.43
284.1780, 23134.00
285.3880, 23057.00
286.5980, 22890.00
287.8090, 22843.00
289.0190, 22632.00
290.2290, 22646.00
291.4380, 22634.00
292.6480, 22537.00
293.8570, 22601.00
295.0670, 22602.00
296.2760, 22393.00
297.4850, 22582.00
298.6930, 22557.00
299.9020, 22475.00
301.1110, 22642.00
302.3190, 22758.00
303.5270, 22532.00
304.7350, 22484.00
305.9430, 22606.00
307.1510, 22511.00
308.3580, 22574.00
309.5660, 22469.00
310.7730, 22459.00
311.9800, 22469.00
313.1870, 22449.00
314.3940, 22597.00
315.6010, 22549.00
316.8070, 22575.00
318.0130, 22447.00
319.2200, 22615.00
320.4260, 22610.00
321.6310, 22507.00
322.8370, 22729.00
324.0430, 22561.00
325.2480, 22421.00
326.4540, 22470.00
327.6590, 22634.00
328.8640, 22632.00
330.0680, 22431.00
331.2730, 22314.00
332.4780, 22493.00
333.6820, 22519.00
334.8860, 22446.00
336.0900, 22414.00
337.2940, 22467.00
338.4980, 22550.00
339.7010, 22456.00
340.9050, 22439.00
342.1080, 22504.00
343.3110, 22277.00
344.5140, 22457.00
345.7170, 22266.00
346.9200, 22355.00
348.1220, 22367.00
349.3240, 22448.00
350.5270, 22539.00
351.7290, 22416.00
352.9310, 22434.00
354.1320, 22759.00
355.3340, 22420.00
356.5350, 22769.00
357.7370, 22806.00
358.9380, 22956.00
360.1390, 22791.00
361.3400, 22988.00
362.5400, 23060.00
363.7410, 23250.00
364.9410, 23427.00
366.1410, 23438.00
367.3410, 23493.00
368.5410, 23488.00
369.7410, 23660.00
370.9400, 23906.00
372.1400, 24001.00
373.3390, 23986.00
374.5380, 24275.00
375.7370, 24271.00
376.9360, 24563.00
378.1350, 24785.00
379.3330, 24854.00
380.5310, 24916.00
381.7300, 25123.00
382.9280, 25141.00
384.1260, 25202.00
385.3230, 25222.00
386.5210, 25499.00
387.7180, 25579.00
388.9160, 25650.00
390.1130, 25851.00
391.3100, 25910.00
392.5060, 26028.00
393.7030, 26199.80
394.9000, 26434.00
396.0960, 26517.00
397.2920, 26878.00
398.4880, 27045.00
399.6840, 27437.00
400.8800, 27725.00
402.0750, 27737.00
403.2710, 27801.00
404.4660, 27820.00
405.6610, 27837.77
406.8560, 27906.00
408.0510, 27890.00
409.2450, 27690.00
410.4400, 27756.00
411.6340, 27464.00
412.8280, 27443.00
414.0220, 27055.00
415.2160, 26601.00
416.4100, 26520.00
417.6030, 26207.00
418.7970, 26205.00
419.9900, 25899.00
421.1830, 25811.00
422.3760, 25683.00
423.5690, 25528.00
424.7610, 25461.56
425.9540, 25236.00
427.1460, 25295.00
428.3380, 25236.00
429.5300, 25149.00
430.7220, 25248.00
431.9140, 25309.00
433.1050, 25254.00
434.2970, 25425.00
435.4880, 25340.00
436.6790, 25365.00
437.8700, 25374.00
439.0610, 25351.00
440.2510, 25615.00
441.4420, 25648.00
442.6320, 25740.00
443.8220, 25514.00
445.0120, 25428.00
446.2020, 25384.00
447.3910, 25339.43
448.5810, 25400.00
449.7700, 25415.00
450.9600, 25502.00
452.1490, 25609.00
453.3370, 25646.00
454.5260, 25373.00
455.7150, 25606.00
456.9030, 25398.00
458.0910, 25238.00
459.2800, 25681.00
460.4670, 25420.00
461.6550, 25467.00
462.8430, 25706.00
464.0300, 25716.00
465.2180, 25627.00
466.4050, 25524.00
467.5920, 25539.00
468.7790, 25449.00
469.9650, 25499.00
471.1520, 25517.85
472.3380, 25645.00
473.5250, 25661.00
474.7110, 25742.00
475.8970, 25911.00
477.0820, 25682.00
478.2680, 25819.00
479.4540, 25937.00
480.6390, 25711.00
481.8240, 25805.00
483.0090, 25559.00
484.1940, 25445.00
485.3780, 25437.00
486.5630, 25467.00
487.7470, 25541.00
488.9320, 25310.00
490.1160, 25265.00
491.3000, 25277.00
492.4830, 25190.00
493.6670, 25058.00
494.8500, 25228.00
496.0340, 25197.00
497.2170, 25030.00
498.4000, 25236.00
499.5820, 25151.00
500.7650, 25155.00
501.9480, 25102.00
503.1300, 25205.00
504.3120, 25185.00
505.4940, 25240.00
506.6760, 25152.00
507.8580, 25296.00
509.0390, 25327.00
510.2210, 25279.00
511.4020, 25451.00
512.5830, 25552.83
513.7640, 25615.78
514.9450, 25793.00
516.1250, 25754.00
517.3060, 25617.00
518.4860, 25549.00
519.6660, 25739.00
520.8460, 25819.00
522.0260, 26117.00
523.2060, 26027.00
524.3850, 26156.00
525.5650, 26170.00
526.7440, 26288.00
527.9230, 26355.00
529.1020, 26454.00
530.2810, 26479.00
531.4590, 26502.00
532.6380, 26566.00
533.8160, 26597.00
534.9940, 26699.00
536.1720, 26745.49
537.3500, 26638.00
538.5270, 26821.00
539.7050, 26820.00
540.8820, 26741.00
542.0590, 26876.00
543.2360, 27017.00
544.4130, 27137.00
545.5900, 27286.00
546.7660, 27395.60
547.9430, 27388.00
549.1190, 27601.00
550.2950, 27692.00
551.4710, 27753.00
552.6470, 27979.00
553.8220, 28198.00
554.9980, 28248.00
556.1730, 28468.00
557.3480, 28820.00
558.5230, 28846.00
559.6980, 28913.00
560.8730, 29095.00
562.0470, 29083.00
563.2220, 29132.00
564.3960, 29203.00
565.5700, 29112.00
566.7440, 29051.00
567.9170, 28901.00
569.0910, 28823.03
570.2640, 28559.00
571.4380, 28626.00
572.6110, 28525.00
573.7840, 28446.00
574.9570, 28074.00
576.1290, 28161.00
577.3020, 27799.00
578.4740, 27863.00
579.6460, 27641.00
580.8180, 27590.00
581.9900, 27464.00
583.1620, 27491.00
584.3330, 27400.00
585.5040, 27365.51
586.6760, 27402.00
587.8470, 27295.00
589.0180, 27232.00
590.1880, 27193.00
591.3590, 27183.71
592.5290, 27427.00
593.7000, 27301.00
594.8700, 27303.00
596.0400, 27521.00
597.2090, 27466.00
598.3790, 27683.00
599.5490, 27675.00
600.7180, 27801.00
601.8870, 27473.00
603.0560, 27902.00
604.2250, 27921.00
605.3940, 27647.00
606.5620, 28096.00
607.7300, 28066.00
608.8990, 28169.00
610.0670, 28117.00
611.2350, 28393.00
612.4020, 28413.00
613.5700, 28541.00
614.7370, 28478.00
615.9050, 28487.00
617.0720, 28648.00
618.2390, 28582.00
619.4060, 28715.00
620.5720, 28715.00
621.7390, 28625.00
622.9050, 28744.00
624.0710, 28940.00
625.2370, 28983.00
626.4030, 29090.00
627.5690, 29261.00
628.7340, 29048.00
629.9000, 29303.00
631.0650, 29236.00
632.2300, 29247.00
633.3950, 29328.00
634.5600, 29199.00
635.7240, 29430.00
636.8890, 29390.00
638.0530, 29161.00
639.2170, 29053.00
640.3810, 29174.00
641.5450, 29019.00
642.7080, 29067.00
643.8720, 28697.00
645.0350, 28772.00
646.1980, 28782.00
647.3610, 28531.00
648.5240, 28731.00
649.6870, 28623.00
650.8490, 28803.00
652.0120, 28665.00
653.1740, 28927.00
654.3360, 29087.00
655.4980, 28947.00
656.6600, 29046.00
657.8210, 29005.00
658.9830, 29263.00
660.1440, 29333.00
661.3050, 29228.00
662.4660, 29389.00
663.6270, 29164.00
664.7870, 29464.00
665.9480, 29345.00
667.1080, 29511.00
668.2680, 29607.00
669.4280, 29697.00
670.5880, 29729.00
671.7480, 29891.91
672.9070, 29981.00
674.0670, 30148.00
675.2260, 30183.00
676.3850, 30213.00
677.5440, 30387.00
678.7030, 30569.00
679.8610, 30764.00
681.0200, 31266.00
682.1780, 31358.00
683.3360, 31732.00
684.4940, 32052.00
685.6520, 32314.00
686.8090, 32811.00
687.9670, 33239.00
689.1240, 33643.00
690.2810, 34405.00
691.4380, 34922.00
692.5950, 35589.00
693.7520, 36435.62
694.9080, 37336.00
696.0650, 38229.00
697.2210, 39229.00
698.3770, 40285.00
699.5330, 41560.00
700.6880, 43182.00
701.8440, 44287.00
702.9990, 46517.00
704.1550, 47991.00
705.3100, 49898.00
706.4650, 52202.00
707.6190, 53751.00
708.7740, 55679.00
709.9290, 57027.00
711.0830, 57743.00
712.2370, 57727.00
713.3910, 56332.00
714.5450, 54176.00
715.6980, 52186.00
716.8520, 49122.00
718.0050, 46412.00
719.1580, 44012.00
720.3110, 41885.79
721.4640, 39987.00
722.6170, 38500.00
723.7700, 37194.00
724.9220, 36087.00
726.0740, 35344.00
727.2260, 34434.00
728.3780, 33859.00
729.5300, 33261.00
730.6810, 33151.00
731.8330, 33072.00
732.9840, 32656.00
734.1350, 32515.00
735.2860, 32403.00
736.4370, 32387.00
737.5880, 32182.00
738.7380, 32156.00
739.8880, 32144.00
741.0390, 32245.00
742.1890, 32254.00
743.3380, 32571.00
744.4880, 32585.00
745.6380, 32797.00
746.7870, 33084.00
747.9360, 32886.00
749.0850, 33081.00
750.2340, 32951.00
751.3830, 33254.00
752.5310, 33267.00
753.6800, 33225.00
754.8280, 33419.00
755.9760, 33133.00
757.1240, 33188.00
758.2720, 33131.00
759.4190, 32904.00
760.5670, 32741.00
761.7140, 32586.00
762.8610, 32422.00
764.0080, 32246.05
765.1550, 32073.00
766.3020, 31953.00
767.4480, 31743.00
768.5950, 31734.00
769.7410, 31448.00
770.8870, 31544.00
772.0330, 31450.00
773.1780, 31347.00
774.3240, 31244.00
775.4690, 31221.96
776.6140, 31340.00
777.7590, 31200.00
778.9040, 31336.00
780.0490, 31354.00
781.1940, 31274.00
782.3380, 31419.00
783.4820, 31251.00
784.6260, 31360.00
785.7700, 31271.00
786.9140, 31332.00
788.0580, 31391.00
789.2010, 31430.00
790.3450, 31351.00
791.4880, 31555.00
792.6310, 31337.00
793.7730, 31479.00
794.9160, 31187.00
796.0590, 31279.00
797.2010, 31091.00
798.3430, 31038.00
799.4850, 31252.00
800.6270, 30913.00
801.7690, 31064.00
802.9100, 31143.00
804.0520, 31048.00
805.1930, 30914.00
806.3340, 30980.00
807.4750, 30962.00
808.6160, 30886.09
809.7560, 31011.00
810.8970, 30806.00
812.0370, 30913.00
813.1770, 30965.00
814.3170, 30676.00
815.4570, 31080.00
816.5960, 30830.00
817.7360, 31040.00
818.8750, 30912.00
820.0140, 30743.00
821.1530, 30797.00
822.2920, 31029.00
823.4310, 30971.00
824.5690, 31104.00
825.7070, 31114.00
826.8460, 31124.88
827.9840, 31026.00
829.1220, 31187.00
830.2590, 31131.00
831.3970, 31231.00
832.5340, 31112.00
833.6710, 31311.00
834.8080, 31380.00
835.9450, 31309.00
837.0820, 31346.00
838.2190, 31392.07
839.3550, 31316.00
840.4910, 31496.00
841.6270, 31648.00
842.7630, 31698.67
843.8990, 31545.00
845.0350, 31786.00
846.1700, 31670.00
847.3060, 31664.00
848.4410, 31957.00
849.5760, 31444.00
850.7100, 31573.00
851.8450, 31813.00
852.9800, 31934.00
854.1140, 31797.00
855.2480, 31706.00
856.3820, 31957.00
857.5160, 31818.00
858.6500, 31876.00
859.7830, 31883.00
860.9170, 31856.00
862.0500, 32001.00
863.1830, 32076.00
864.3160, 31988.00
865.4480, 32113.00
866.5810, 32064.00
867.7130, 31966.00
868.8460, 32020.00
869.9780, 32175.00
871.1100, 32182.00
872.2410, 32309.00
873.3730, 32368.00
874.5050, 32346.00
875.6360, 32349.57
876.7670, 32282.00
877.8980, 32309.00
879.0290, 32301.00
880.1590, 32438.00
881.2900, 32454.00
882.4200, 32558.99
883.5500, 32604.73
884.6800, 32608.99
885.8100, 32660.00
886.9400, 32588.00
888.0690, 32544.00
889.1990, 32488.00
890.3280, 32977.00
891.4570, 32705.00
892.5860, 32672.00
893.7140, 32911.00
894.8430, 32726.00
895.9710, 32871.00
897.1000, 32741.00
898.2280, 32825.00
899.3560, 32872.19
900.4830, 33040.00
901.6110, 33009.00
902.7380, 33142.00
903.8660, 33265.00
904.9930, 33292.00
906.1200, 33407.00
907.2460, 33598.00
908.3730, 33306.00
909.5000, 33667.00
910.6260, 33516.00
911.7520, 33541.00
912.8780, 33781.00
914.0040, 33808.00
915.1290, 33684.00
916.2550, 33725.00
917.3800, 33957.00
918.5050, 33906.00
919.6300, 33689.00
920.7550, 33948.00
921.8800, 33882.00
923.0040, 34049.00
924.1290, 33966.00
925.2530, 33759.00
926.3770, 33958.00
927.5010, 34105.00
928.6250, 33938.00
929.7480, 34049.00
930.8720, 33886.00
931.9950, 34109.00
933.1180, 34096.00
934.2410, 34134.00
935.3640, 34178.00
936.4860, 34194.00
937.6090, 34148.00
938.7310, 34194.68
939.8530, 34232.98
940.9750, 34266.00
942.0970, 34391.00
943.2180, 34510.00
944.3400, 34664.00
945.4610, 34498.00
946.5820, 34641.00
947.7030, 34693.00
948.8240, 34717.00
949.9450, 34903.00
951.0650, 34840.00
952.1860, 34973.00
953.3060, 34949.00
954.4260, 34989.00
955.5460, 35179.00
956.6650, 35093.00
957.7850, 35088.00
958.9040, 35537.00
960.0230, 35326.00
961.1420, 35496.00
962.2610, 35297.00
963.3800, 35381.00
964.4990, 35531.00
965.6170, 35488.00
966.7350, 35459.00
967.8530, 35773.00
968.9710, 35518.00
970.0890, 36013.00
971.2070, 36134.00
972.3240, 35698.00
973.4410, 36042.00
974.5580, 35954.00
975.6750, 35960.00
976.7920, 35966.00
977.9090, 36161.00
979.0250, 36218.00
980.1410, 36184.00
981.2580, 36344.00
982.3740, 36402.00
983.4890, 36334.00
984.6050, 36465.00
985.7200, 36476.00
986.8360, 36460.00
987.9510, 36414.00
989.0660, 36566.00
990.1810, 36431.00
991.2950, 36571.33
992.4100, 36567.00
993.5240, 36741.00
994.6390, 36797.00
995.7530, 36819.00
996.8660, 36844.00
997.9800, 36887.00
999.0940, 36914.33
1000.207, 36872.00
1001.320, 36963.00
1002.433, 36982.88
1003.546, 37138.00
1004.659, 37093.00
1005.772, 37253.00
1006.884, 37322.00
1007.996, 37151.00
1009.108, 37346.00
1010.220, 37453.00
1011.332, 37063.00
1012.444, 37421.00
1013.555, 37542.00
1014.666, 37467.00
1015.777, 37311.00
1016.888, 37750.00
1017.999, 37500.00
1019.110, 37646.00
1020.220, 37658.00
1021.331, 37423.00
1022.441, 37464.00
1023.551, 37783.00
1024.661, 37632.00
1025.770, 37643.00
1026.880, 37577.00
1027.989, 37579.00
1029.098, 37663.00
1030.207, 37750.00
1031.316, 37715.47
1032.425, 37454.00
1033.533, 37720.00
1034.642, 37519.00
1035.750, 37606.00
1036.858, 37654.00
1037.966, 37477.00
1039.073, 37592.00
1040.181, 37843.00
1041.288, 37948.00
1042.396, 37811.00
1043.503, 37992.00
1044.610, 38008.00
1045.716, 38045.00
1046.823, 38412.00
1047.929, 38418.00
1049.036, 38430.00
1050.142, 38408.00
1051.248, 38798.00
1052.353, 38944.00
1053.459, 38886.00
1054.564, 39246.00
1055.670, 39224.00
1056.775, 39704.00
1057.880, 39279.00
1058.985, 39480.00
1060.089, 39600.00
1061.194, 39596.00
1062.298, 39673.00
1063.402, 39617.00
1064.506, 39656.00
1065.610, 39629.00
1066.713, 39745.00
1067.817, 39609.00
1068.920, 39684.00
1070.023, 39576.00
1071.126, 39532.00
1072.229, 39814.00
1073.332, 39450.00
1074.435, 39403.00
1075.537, 39568.00
1076.639, 39751.00
1077.741, 39760.00
1078.843, 39804.00
1079.945, 39854.00
1081.046, 39976.00
1082.148, 39920.00
1083.249, 39880.00
1084.350, 40065.00
1085.451, 40081.00
1086.551, 40150.00
1087.652, 40171.00
1088.752, 40192.00
1089.853, 40103.00
1090.953, 40069.00
1092.053, 40097.79
1093.152, 40241.00
1094.252, 40097.00
1095.351, 40331.00
1096.451, 40229.00
1097.550, 40362.00
1098.649, 40748.00
1099.748, 40407.00
1100.846, 40347.00
1101.945, 40390.00
1103.043, 40598.00
1104.141, 40651.00
1105.239, 40753.04
1106.337, 40846.00
1107.434, 40959.00
1108.532, 40909.00
1109.629, 41072.00
1110.726, 41213.00
1111.823, 41126.00
1112.920, 41239.00
1114.017, 41105.00
1115.113, 41236.60
1116.210, 41504.00
1117.306, 41550.00
1118.402, 41766.00
1119.498, 42135.00
1120.593, 41937.00
1121.689, 42207.00
1122.784, 42212.00
1123.879, 42194.00
1124.974, 42221.00
1126.069, 42176.04
1127.164, 42351.00
1128.259, 42220.00
1129.353, 42220.00
1130.447, 42508.00
1131.541, 42515.00
1132.635, 42422.00
1133.729, 42510.00
1134.822, 42448.00
1135.916, 42446.75
1137.009, 42508.00
1138.102, 42411.00
1139.195, 42444.00
1140.288, 42386.00
1141.380, 42095.00
1142.473, 41841.00
1143.565, 41412.00
1144.657, 40894.00
1145.749, 40948.00
1146.841, 40704.00
1147.932, 40201.00
1149.024, 40317.00
1150.115, 40205.00
1151.206, 40076.00
1152.297, 40068.35
1153.388, 39929.00
1154.479, 39906.00
1155.569, 39797.00
1156.659, 39694.00
1157.750, 39709.00
1158.839, 39500.00
1159.929, 39669.00
1161.019, 39841.00
1162.108, 39534.00
1163.198, 39753.00
1164.287, 39863.00
1165.376, 39751.00
1166.465, 40122.00
1167.553, 40619.00
1168.642, 40850.00
1169.730, 40983.00
1170.818, 39929.00
1171.906, 39914.00
1172.994, 39834.00
1174.082, 39835.00
1175.170, 39895.00
1176.257, 39685.00
1177.344, 39567.00
1178.431, 39726.00
1179.518, 39828.00
1180.605, 39908.00
1181.691, 39930.00
1182.778, 39819.00
1183.864, 40061.00
1184.950, 39902.00
1186.036, 40068.00
1187.122, 40163.00
1188.207, 39892.00
1189.292, 40465.00
1190.378, 40063.00
1191.463, 40288.00
1192.548, 40334.00
1193.632, 40151.00
1194.717, 40385.00
1195.801, 40214.00
1196.886, 40227.00
1197.970, 40245.00
1199.054, 40624.00
1200.137, 40366.00
1201.221, 40635.00
1202.305, 40472.00
1203.388, 40645.00
1204.471, 40577.00
1205.554, 40643.00
1206.637, 40719.00
1207.719, 40618.00
1208.802, 40597.00
1209.884, 40699.00
1210.966, 40737.00
1212.048, 40736.00
1213.130, 40852.00
1214.212, 40810.00
1215.293, 40834.93
1216.374, 40984.00
1217.456, 40891.00
1218.536, 40980.00
1219.617, 41162.00
1220.698, 40969.00
1221.778, 40970.00
1222.859, 40959.00
1223.939, 41059.00
1225.019, 40982.00
1226.099, 41185.00
1227.178, 41118.00
1228.258, 41439.00
1229.337, 40974.00
1230.417, 41171.00
1231.496, 41400.00
1232.574, 41156.00
1233.653, 41257.00
1234.732, 41285.00
1235.810, 41324.00
1236.888, 41399.00
1237.966, 41306.00
1239.044, 41636.00
1240.122, 41669.00
1241.199, 41502.00
1242.277, 41611.00
1243.354, 41541.00
1244.431, 41663.00
1245.508, 41708.00
1246.585, 41712.00
1247.661, 41756.00
1248.738, 41821.00
1249.814, 41729.00
1250.890, 41656.00
1251.966, 41797.00
1253.042, 41718.38
1254.117, 41753.00
1255.193, 41757.00
1256.268, 41735.00
1257.343, 41808.00
1258.418, 41719.00
1259.493, 41811.00
1260.567, 41746.00
1261.642, 41896.00
1262.716, 42089.00
1263.790, 42076.00
1264.864, 41962.00
1265.938, 42349.00
1267.011, 42201.00
1268.085, 42232.00
1269.158, 42026.00
1270.231, 41858.00
1271.304, 42212.00
1272.377, 42118.00
1273.450, 42143.00
1274.522, 42400.00
1275.594, 42235.00
1276.666, 42146.00
1277.738, 42313.00
1278.810, 42275.81
1279.882, 42563.00
1280.953, 42503.00
1282.025, 42616.00
1283.096, 42835.00
1284.167, 42447.00
1285.238, 42563.00
1286.308, 42719.00
1287.379, 42558.00
1288.449, 42591.00
1289.519, 42757.00
1290.589, 42725.00
1291.659, 42902.00
1292.729, 42853.00
1293.798, 42818.00
1294.868, 42846.00
1295.937, 43096.00
1297.006, 42924.00
1298.075, 42973.00
1299.143, 42810.00
1300.212, 43102.00
1301.280, 43181.00
1302.348, 43051.00
1303.416, 43130.00
1304.484, 43032.00
1305.552, 43173.00
1306.620, 43285.00
1307.687, 43238.00
1308.754, 43224.00
1309.821, 43535.00
1310.888, 43383.00
1311.955, 43265.00
1313.021, 43449.00
1314.088, 43351.00
1315.154, 43641.00
1316.220, 43599.00
1317.286, 43662.00
1318.352, 43898.00
1319.417, 43754.00
1320.483, 43817.00
1321.548, 43690.00
1322.613, 43717.00
1323.678, 43595.00
1324.743, 43696.00
1325.807, 43748.00
