##NAMES=Polylithionite
##RRUFFID=R050132
##IDEAL CHEMISTRY=KLi_2_AlSi_4_O_10_F_2_
##LOCALITY=Brown Derby mine, Ohio City, Gunnison County, Colorado, USA
##OWNER=RRUFF
##SOURCE=Dave Bunk Minerals
##DESCRIPTION=Purple scaly aggregate, polytype 2M1
##STATUS=The identification of this mineral has been confirmed by X-ray diffraction and chemical analysis
##URL=rruff.info/R050132
##MEASURED CHEMISTRY=(K_0.90_Rb_0.10_)(Li_0.62_Al_0.38_)_3_(Si_0.93_Al_0.07_)_4_O_10_(F_0.69_(OH)_0.31_)_2_
##PIN_ID=M00120
##ORIENTATION=Laser parallel to c* (0 0 1). Fiducial mark perpendicular to laser is parallel to -a [-1 0 0]
95.94800, 16400.00
97.18200, 16689.00
98.41600, 16790.00
99.64900, 16977.00
100.8830, 16901.00
102.1160, 16886.00
103.3490, 16884.00
104.5820, 16955.00
105.8150, 17006.00
107.0470, 17010.00
108.2800, 17153.00
109.5120, 17386.00
110.7440, 17374.00
111.9760, 17455.00
113.2080, 17280.00
114.4400, 17672.00
115.6710, 17447.00
116.9030, 17466.00
118.1340, 17694.00
119.3650, 17636.00
120.5960, 17891.00
121.8270, 17715.00
123.0580, 17841.00
124.2880, 17828.00
125.5190, 18074.00
126.7490, 18061.00
127.9790, 17952.00
129.2090, 18156.00
130.4390, 18121.00
131.6680, 18131.00
132.8980, 18224.00
134.1270, 18432.00
135.3560, 18376.00
136.5850, 18405.00
137.8140, 18605.00
139.0430, 18566.00
140.2710, 18685.00
141.5000, 18900.00
142.7280, 18803.00
143.9560, 18750.00
145.1840, 18816.00
146.4120, 18905.00
147.6390, 18910.00
148.8670, 19015.00
150.0940, 18957.00
151.3210, 19075.00
152.5490, 19187.00
153.7750, 19179.00
155.0020, 19148.00
156.2290, 19241.00
157.4550, 19220.00
158.6810, 19338.00
159.9080, 19497.00
161.1340, 19440.00
162.3590, 19494.00
163.5850, 19757.00
164.8110, 19683.00
166.0360, 20157.00
167.2610, 19950.00
168.4860, 20113.00
169.7110, 20469.00
170.9360, 20630.00
172.1610, 20630.00
173.3850, 20835.00
174.6100, 20646.00
175.8340, 20901.00
177.0580, 20869.00
178.2820, 20998.00
179.5050, 21039.00
180.7290, 21141.00
181.9520, 20952.00
183.1760, 20845.00
184.3990, 20982.00
185.6220, 20908.00
186.8450, 21019.00
188.0670, 20704.00
189.2900, 20637.00
190.5120, 20763.00
191.7340, 20775.00
192.9560, 20880.00
194.1780, 20957.00
195.4000, 20840.00
196.6220, 20889.00
197.8430, 20933.00
199.0640, 20959.00
200.2860, 20919.00
201.5070, 20957.01
202.7270, 21076.00
203.9480, 20920.00
205.1690, 20915.00
206.3890, 20777.00
207.6090, 20971.00
208.8290, 21167.00
210.0490, 20999.00
211.2690, 21238.00
212.4890, 21299.00
213.7080, 21059.00
214.9280, 21128.00
216.1470, 21209.00
217.3660, 21193.00
218.5850, 21298.00
219.8030, 21188.00
221.0220, 21158.00
222.2400, 21184.00
223.4590, 21134.00
224.6770, 21220.00
225.8950, 21337.00
227.1120, 21210.00
228.3300, 21231.00
229.5480, 21248.00
230.7650, 21460.00
231.9820, 21436.00
233.1990, 21463.00
234.4160, 21740.00
235.6330, 21602.00
236.8490, 21837.00
238.0660, 21990.00
239.2820, 21954.00
240.4980, 22070.00
241.7140, 22367.00
242.9300, 22333.00
244.1460, 22389.00
245.3610, 22485.00
246.5770, 22584.72
247.7920, 22731.86
249.0070, 22901.00
250.2220, 23075.00
251.4370, 23269.76
252.6510, 23457.42
253.8660, 23650.00
255.0800, 23855.00
256.2940, 24073.00
257.5080, 24406.00
258.7220, 24747.00
259.9360, 24986.00
261.1490, 25255.00
262.3630, 25397.00
263.5760, 25433.00
264.7890, 25151.00
266.0020, 24949.00
267.2150, 24574.00
268.4270, 24323.00
269.6400, 24181.00
270.8520, 23793.00
272.0640, 23379.00
273.2760, 23437.00
274.4880, 23159.00
275.7000, 23142.00
276.9120, 22940.00
278.1230, 22852.33
279.3340, 22966.00
280.5450, 22776.00
281.7560, 22832.00
282.9670, 22976.00
284.1780, 22771.00
285.3880, 22925.00
286.5980, 22689.00
287.8090, 22696.00
289.0190, 22953.00
290.2290, 22795.00
291.4380, 23094.00
292.6480, 23139.00
293.8570, 22986.00
295.0670, 22997.00
296.2760, 23026.00
297.4850, 23163.00
298.6930, 23054.00
299.9020, 23127.00
301.1110, 23120.00
302.3190, 23358.00
303.5270, 23334.00
304.7350, 23389.00
305.9430, 23193.00
307.1510, 23332.00
308.3580, 23072.00
309.5660, 23326.00
310.7730, 23070.00
311.9800, 23353.00
313.1870, 23471.00
314.3940, 23388.00
315.6010, 23370.00
316.8070, 23325.00
318.0130, 23344.00
319.2200, 23429.00
320.4260, 23460.00
321.6310, 23510.00
322.8370, 23382.00
324.0430, 23470.00
325.2480, 23458.31
326.4540, 23516.00
327.6590, 23515.00
328.8640, 23509.00
330.0680, 23555.00
331.2730, 23753.00
332.4780, 23652.00
333.6820, 23891.00
334.8860, 23844.00
336.0900, 23811.00
337.2940, 23862.00
338.4980, 23827.00
339.7010, 23761.00
340.9050, 23966.00
342.1080, 23774.00
343.3110, 23710.00
344.5140, 23826.00
345.7170, 24003.00
346.9200, 24047.00
348.1220, 24033.00
349.3240, 24087.00
350.5270, 24123.00
351.7290, 24197.00
352.9310, 24150.00
354.1320, 24195.00
355.3340, 24254.00
356.5350, 24319.00
357.7370, 24368.00
358.9380, 24419.00
360.1390, 24538.00
361.3400, 24690.00
362.5400, 24565.00
363.7410, 24526.00
364.9410, 24555.00
366.1410, 24751.00
367.3410, 24802.00
368.5410, 24899.00
369.7410, 25044.00
370.9400, 24954.00
372.1400, 24903.00
373.3390, 24922.00
374.5380, 24921.12
375.7370, 25185.00
376.9360, 25015.00
378.1350, 25155.00
379.3330, 25221.00
380.5310, 25214.00
381.7300, 25249.00
382.9280, 25352.75
384.1260, 25406.00
385.3230, 25558.00
386.5210, 25734.00
387.7180, 25815.00
388.9160, 25833.00
390.1130, 26097.00
391.3100, 25976.00
392.5060, 26246.00
393.7030, 26225.00
394.9000, 26357.00
396.0960, 26727.00
397.2920, 26572.00
398.4880, 26568.00
399.6840, 26859.00
400.8800, 27021.00
402.0750, 26951.00
403.2710, 27153.00
404.4660, 27053.00
405.6610, 26992.00
406.8560, 27106.00
408.0510, 27095.00
409.2450, 27116.00
410.4400, 27234.00
411.6340, 26798.00
412.8280, 26941.00
414.0220, 26590.00
415.2160, 26805.00
416.4100, 26710.00
417.6030, 26831.00
418.7970, 26545.00
419.9900, 26616.00
421.1830, 26505.00
422.3760, 26484.00
423.5690, 26446.00
424.7610, 26407.00
425.9540, 26415.00
427.1460, 26568.00
428.3380, 26656.00
429.5300, 26640.39
430.7220, 26692.00
431.9140, 26654.00
433.1050, 26628.00
434.2970, 26717.00
435.4880, 26821.00
436.6790, 26763.00
437.8700, 26784.00
439.0610, 26810.00
440.2510, 26809.00
441.4420, 26982.00
442.6320, 26735.00
443.8220, 26782.00
445.0120, 27119.00
446.2020, 27136.00
447.3910, 26737.00
448.5810, 26950.00
449.7700, 27046.00
450.9600, 27134.00
452.1490, 27135.00
453.3370, 27263.00
454.5260, 27379.00
455.7150, 27216.00
456.9030, 27467.00
458.0910, 27412.18
459.2800, 27241.00
460.4670, 27413.00
461.6550, 27356.00
462.8430, 27270.00
464.0300, 27424.00
465.2180, 27520.00
466.4050, 27476.00
467.5920, 27509.00
468.7790, 27566.04
469.9650, 27637.00
471.1520, 27699.00
472.3380, 27752.00
473.5250, 27882.00
474.7110, 27901.00
475.8970, 27753.00
477.0820, 27830.00
478.2680, 27815.00
479.4540, 27761.89
480.6390, 27772.00
481.8240, 27685.00
483.0090, 27841.00
484.1940, 27776.00
485.3780, 27997.00
486.5630, 27675.00
487.7470, 27782.00
488.9320, 27675.00
490.1160, 28154.00
491.3000, 27982.00
492.4830, 27924.00
493.6670, 27842.00
494.8500, 27620.00
496.0340, 27809.00
497.2170, 27999.00
498.4000, 27979.00
499.5820, 28001.00
500.7650, 27828.00
501.9480, 27961.00
503.1300, 27928.00
504.3120, 28116.00
505.4940, 28025.00
506.6760, 28118.00
507.8580, 28126.77
509.0390, 28219.00
510.2210, 28131.00
511.4020, 28197.00
512.5830, 28229.00
513.7640, 28141.00
514.9450, 28158.00
516.1250, 28491.00
517.3060, 28396.00
518.4860, 28680.00
519.6660, 28447.00
520.8460, 28609.00
522.0260, 28593.00
523.2060, 28636.00
524.3850, 28869.00
525.5650, 28721.00
526.7440, 28790.00
527.9230, 28905.00
529.1020, 28756.00
530.2810, 29062.00
531.4590, 29175.00
532.6380, 29085.00
533.8160, 29150.00
534.9940, 29208.00
536.1720, 29327.00
537.3500, 29250.00
538.5270, 29317.00
539.7050, 29396.00
540.8820, 29546.00
542.0590, 29563.00
543.2360, 29584.00
544.4130, 29431.00
545.5900, 29584.00
546.7660, 29628.00
547.9430, 30008.00
549.1190, 29859.00
550.2950, 29929.00
551.4710, 29860.00
552.6470, 29970.00
553.8220, 30190.00
554.9980, 30189.00
556.1730, 30283.00
557.3480, 30479.00
558.5230, 30481.00
559.6980, 30663.00
560.8730, 30338.00
562.0470, 30594.00
563.2220, 30527.00
564.3960, 30668.00
565.5700, 30825.00
566.7440, 30640.00
567.9170, 30633.00
569.0910, 30742.00
570.2640, 30590.00
571.4380, 30557.00
572.6110, 30382.00
573.7840, 30320.00
574.9570, 30292.12
576.1290, 30460.00
577.3020, 30315.00
578.4740, 30375.00
579.6460, 30505.00
580.8180, 30231.00
581.9900, 30236.00
583.1620, 30358.00
584.3330, 30164.00
585.5040, 30534.00
586.6760, 30365.00
587.8470, 30495.00
589.0180, 30488.00
590.1880, 30535.00
591.3590, 30445.00
592.5290, 30757.00
593.7000, 30545.00
594.8700, 30476.00
596.0400, 30675.00
597.2090, 30573.00
598.3790, 30992.00
599.5490, 30622.00
600.7180, 30529.00
601.8870, 30898.00
603.0560, 31038.00
604.2250, 30929.00
605.3940, 30832.00
606.5620, 31020.00
607.7300, 30954.00
608.8990, 30724.00
610.0670, 31098.00
611.2350, 31097.00
612.4020, 31386.00
613.5700, 31198.00
614.7370, 31303.00
615.9050, 31323.00
617.0720, 31180.00
618.2390, 31599.00
619.4060, 31481.00
620.5720, 31621.00
621.7390, 31385.00
622.9050, 31272.00
624.0710, 31606.00
625.2370, 31362.00
626.4030, 31843.00
627.5690, 31901.00
628.7340, 31633.00
629.9000, 31486.00
631.0650, 31948.00
632.2300, 31792.00
633.3950, 31495.00
634.5600, 31781.00
635.7240, 31750.00
636.8890, 31970.00
638.0530, 31620.00
639.2170, 31845.00
640.3810, 31733.00
641.5450, 31771.00
642.7080, 31940.00
643.8720, 31749.00
645.0350, 31875.00
646.1980, 31914.00
647.3610, 32006.00
648.5240, 31823.00
649.6870, 31866.00
650.8490, 32183.00
652.0120, 31933.00
653.1740, 31977.00
654.3360, 32169.00
655.4980, 31972.00
656.6600, 32076.00
657.8210, 32071.00
658.9830, 32350.00
660.1440, 32435.00
661.3050, 32246.00
662.4660, 32212.00
663.6270, 32470.00
664.7870, 32331.00
665.9480, 32476.00
667.1080, 32640.00
668.2680, 32610.00
669.4280, 32598.00
670.5880, 32961.00
671.7480, 32736.00
672.9070, 32969.00
674.0670, 32841.00
675.2260, 32855.00
676.3850, 32733.00
677.5440, 33178.00
678.7030, 33111.00
679.8610, 33233.00
681.0200, 33239.00
682.1780, 33412.00
683.3360, 33651.00
684.4940, 33591.00
685.6520, 33886.00
686.8090, 33926.00
687.9670, 34234.00
689.1240, 34376.00
690.2810, 34778.00
691.4380, 34677.00
692.5950, 35114.00
693.7520, 35358.00
694.9080, 35712.00
696.0650, 36012.00
697.2210, 36297.00
698.3770, 36613.00
699.5330, 36963.00
700.6880, 37369.00
701.8440, 38194.00
702.9990, 38732.00
704.1550, 39360.00
705.3100, 40032.00
706.4650, 40754.00
707.6190, 41289.00
708.7740, 42146.00
709.9290, 42423.00
711.0830, 42614.00
712.2370, 42490.00
713.3910, 41924.00
714.5450, 40871.00
715.6980, 39958.00
716.8520, 39301.00
718.0050, 38149.00
719.1580, 37485.00
720.3110, 36882.00
721.4640, 36593.00
722.6170, 36293.00
723.7700, 35860.00
724.9220, 35573.00
726.0740, 35303.00
727.2260, 35147.00
728.3780, 35144.00
729.5300, 34950.00
730.6810, 35049.00
731.8330, 34943.00
732.9840, 34971.00
734.1350, 34963.62
735.2860, 34905.00
736.4370, 34924.00
737.5880, 34890.00
738.7380, 34842.00
739.8880, 34759.00
741.0390, 35046.00
742.1890, 35190.00
743.3380, 35086.00
744.4880, 35170.00
745.6380, 35261.00
746.7870, 35287.00
747.9360, 35218.00
749.0850, 35268.00
750.2340, 35213.00
751.3830, 35191.61
752.5310, 35194.00
753.6800, 35169.00
754.8280, 35198.00
755.9760, 35270.00
757.1240, 35395.00
758.2720, 35274.00
759.4190, 35450.00
760.5670, 35323.00
761.7140, 35309.00
762.8610, 35488.00
764.0080, 35479.00
765.1550, 35287.00
766.3020, 35548.00
767.4480, 35141.00
768.5950, 35388.00
769.7410, 35289.00
770.8870, 35521.00
772.0330, 35165.00
773.1780, 35453.00
774.3240, 35353.00
775.4690, 35347.00
776.6140, 35221.00
777.7590, 35416.00
778.9040, 35335.00
780.0490, 35665.00
781.1940, 35576.00
782.3380, 35513.00
783.4820, 35471.00
784.6260, 35559.00
785.7700, 35556.00
786.9140, 35831.00
788.0580, 35814.00
789.2010, 35575.00
790.3450, 35841.00
791.4880, 35730.00
792.6310, 35847.00
793.7730, 35796.00
794.9160, 35696.00
796.0590, 35728.00
797.2010, 35878.00
798.3430, 35799.00
799.4850, 36095.00
800.6270, 35884.00
801.7690, 35939.00
802.9100, 35774.00
804.0520, 36172.00
805.1930, 36194.00
806.3340, 36023.00
807.4750, 36122.00
808.6160, 36118.00
809.7560, 36110.00
810.8970, 36147.34
812.0370, 36035.00
813.1770, 36155.00
814.3170, 36088.00
815.4570, 36073.00
816.5960, 36277.00
817.7360, 36193.00
818.8750, 36397.00
820.0140, 36481.00
821.1530, 36398.00
822.2920, 36437.00
823.4310, 36462.00
824.5690, 36480.00
825.7070, 36494.02
826.8460, 36562.00
827.9840, 36482.00
829.1220, 36450.00
830.2590, 36392.00
831.3970, 36731.00
832.5340, 36711.00
833.6710, 36814.00
834.8080, 36661.00
835.9450, 36882.00
837.0820, 36573.00
838.2190, 36974.00
839.3550, 36970.00
840.4910, 36917.00
841.6270, 36929.00
842.7630, 36971.94
843.8990, 37005.00
845.0350, 37094.00
846.1700, 37208.00
847.3060, 37265.71
848.4410, 37205.00
849.5760, 37283.00
850.7100, 37258.00
851.8450, 37137.00
852.9800, 37299.00
854.1140, 37451.00
855.2480, 37362.00
856.3820, 37496.72
857.5160, 37481.00
858.6500, 37576.00
859.7830, 37581.00
860.9170, 37616.00
862.0500, 37633.00
863.1830, 37639.00
864.3160, 37653.00
865.4480, 37841.00
866.5810, 38009.00
867.7130, 37887.00
868.8460, 37847.00
869.9780, 37805.00
871.1100, 37961.00
872.2410, 37807.00
873.3730, 37939.00
874.5050, 38106.00
875.6360, 38033.00
876.7670, 38151.00
877.8980, 38079.00
879.0290, 38084.69
880.1590, 37863.00
881.2900, 38116.00
882.4200, 38058.00
883.5500, 38202.00
884.6800, 38216.00
885.8100, 38245.00
886.9400, 38357.00
888.0690, 38438.00
889.1990, 38475.00
890.3280, 38386.00
891.4570, 38544.00
892.5860, 38532.00
893.7140, 38618.00
894.8430, 38801.00
895.9710, 38510.00
897.1000, 38606.00
898.2280, 38492.00
899.3560, 38833.00
900.4830, 38799.00
901.6110, 38954.00
902.7380, 38929.00
903.8660, 39131.00
904.9930, 39098.00
906.1200, 39109.00
907.2460, 39145.00
908.3730, 39107.16
909.5000, 39157.00
910.6260, 39147.00
911.7520, 39266.00
912.8780, 39469.00
914.0040, 39281.00
915.1290, 39661.00
916.2550, 39535.00
917.3800, 39400.00
918.5050, 39335.00
919.6300, 39478.00
920.7550, 39386.29
921.8800, 39622.00
923.0040, 39496.00
924.1290, 39520.00
925.2530, 39789.00
926.3770, 39851.00
927.5010, 39844.00
928.6250, 39744.00
929.7480, 39887.00
930.8720, 39863.41
931.9950, 40039.00
933.1180, 40004.00
934.2410, 39995.00
935.3640, 40169.00
936.4860, 40022.00
937.6090, 40125.00
938.7310, 40169.00
939.8530, 40213.00
940.9750, 40027.00
942.0970, 40042.00
943.2180, 40259.00
944.3400, 40533.00
945.4610, 40411.00
946.5820, 40343.00
947.7030, 40600.00
948.8240, 40478.00
949.9450, 40477.00
951.0650, 40765.00
952.1860, 40549.00
953.3060, 40540.00
954.4260, 41057.00
955.5460, 40981.00
956.6650, 40722.00
957.7850, 40654.00
958.9040, 40811.00
960.0230, 40846.00
961.1420, 40885.00
962.2610, 41070.00
963.3800, 41014.00
964.4990, 41064.00
965.6170, 41033.00
966.7350, 40854.00
967.8530, 41229.00
968.9710, 41006.00
970.0890, 40852.00
971.2070, 41127.00
972.3240, 41013.00
973.4410, 41279.00
974.5580, 41374.00
975.6750, 41365.00
976.7920, 41257.00
977.9090, 41380.00
979.0250, 41282.00
980.1410, 41554.00
981.2580, 41595.00
982.3740, 41616.00
983.4890, 41604.00
984.6050, 41828.00
985.7200, 41665.00
986.8360, 41876.00
987.9510, 41739.00
989.0660, 41896.00
990.1810, 41697.00
991.2950, 41805.00
992.4100, 41916.00
993.5240, 41928.00
994.6390, 42129.00
995.7530, 41936.00
996.8660, 42131.00
997.9800, 42007.00
999.0940, 42290.00
1000.207, 42261.00
1001.320, 41955.00
1002.433, 42226.00
1003.546, 42434.00
1004.659, 42329.00
1005.772, 42423.00
1006.884, 42234.00
1007.996, 42094.00
1009.108, 42418.00
1010.220, 42474.00
1011.332, 42730.00
1012.444, 42349.00
1013.555, 42556.00
1014.666, 42637.00
1015.777, 42575.00
1016.888, 42683.00
1017.999, 42723.00
1019.110, 42635.00
1020.220, 42560.00
1021.331, 42740.00
1022.441, 42659.00
1023.551, 42938.00
1024.661, 42800.00
1025.770, 42944.00
1026.880, 42889.00
1027.989, 43231.00
1029.098, 43216.00
1030.207, 43208.00
1031.316, 43175.00
1032.425, 43042.00
1033.533, 43193.00
1034.642, 43221.00
1035.750, 43119.00
1036.858, 43260.10
1037.966, 43020.00
1039.073, 43313.00
1040.181, 43431.00
1041.288, 43291.00
1042.396, 43574.00
1043.503, 43706.00
1044.610, 43416.00
1045.716, 43408.00
1046.823, 43597.00
1047.929, 43804.00
1049.036, 43547.00
1050.142, 43669.00
1051.248, 43858.00
1052.353, 43997.00
1053.459, 43901.00
1054.564, 43966.00
1055.670, 43930.00
1056.775, 44167.00
1057.880, 44220.00
1058.985, 44027.00
1060.089, 44211.00
1061.194, 44121.00
1062.298, 44528.00
1063.402, 44562.00
1064.506, 44258.00
1065.610, 44099.00
1066.713, 44455.00
1067.817, 44585.00
1068.920, 44498.00
1070.023, 44893.00
1071.126, 44631.00
1072.229, 44562.00
1073.332, 44543.00
1074.435, 44972.00
1075.537, 44738.00
1076.639, 44731.00
1077.741, 45161.00
1078.843, 45046.00
1079.945, 45129.00
1081.046, 45076.00
1082.148, 45174.00
1083.249, 45303.00
1084.350, 45239.00
1085.451, 45441.00
1086.551, 45160.00
1087.652, 45497.00
1088.752, 45519.00
1089.853, 45767.00
1090.953, 45720.00
1092.053, 45654.00
1093.152, 45417.00
1094.252, 45399.00
1095.351, 45816.00
1096.451, 45644.00
1097.550, 45838.00
1098.649, 45651.00
1099.748, 45787.00
1100.846, 45727.00
1101.945, 45646.00
1103.043, 45927.00
1104.141, 45962.00
1105.239, 45829.00
1106.337, 46003.00
1107.434, 45933.00
1108.532, 46293.00
1109.629, 46252.00
1110.726, 46391.00
1111.823, 46456.25
1112.920, 46479.28
1114.017, 46442.00
1115.113, 46461.00
1116.210, 46374.00
1117.306, 46139.00
1118.402, 46231.90
1119.498, 46519.00
1120.593, 46266.00
1121.689, 46499.00
1122.784, 46497.00
1123.879, 46662.00
1124.974, 46373.00
1126.069, 46838.00
1127.164, 46664.00
1128.259, 46532.00
1129.353, 46835.00
1130.447, 46453.00
1131.541, 46540.00
1132.635, 46501.00
1133.729, 46540.00
1134.822, 46840.00
1135.916, 46750.00
1137.009, 46869.15
1138.102, 46794.00
1139.195, 46913.00
1140.288, 46751.00
1141.380, 46683.00
1142.473, 47137.00
1143.565, 47021.00
1144.657, 46860.00
1145.749, 46703.00
1146.841, 46738.00
1147.932, 46846.00
1149.024, 47195.00
1150.115, 47192.00
1151.206, 47086.00
1152.297, 46901.00
1153.388, 47230.00
1154.479, 47295.00
1155.569, 47208.00
1156.659, 47646.00
1157.750, 46979.00
1158.839, 47105.00
1159.929, 47166.00
1161.019, 47132.00
1162.108, 47222.68
1163.198, 47206.00
1164.287, 47340.00
1165.376, 47429.00
1166.465, 47582.00
1167.553, 47585.00
1168.642, 47630.77
1169.730, 47531.00
1170.818, 47644.00
1171.906, 47686.00
1172.994, 47733.00
1174.082, 47829.66
1175.170, 47688.00
1176.257, 47869.00
1177.344, 47765.00
1178.431, 47503.00
1179.518, 48018.00
1180.605, 48044.00
1181.691, 48355.00
1182.778, 47799.00
1183.864, 47927.00
1184.950, 48037.00
1186.036, 48185.00
1187.122, 48327.00
1188.207, 48126.00
1189.292, 48506.00
1190.378, 48191.00
1191.463, 48348.00
1192.548, 48373.00
1193.632, 48344.00
1194.717, 48231.00
1195.801, 48610.00
1196.886, 48589.00
1197.970, 48632.00
1199.054, 48824.00
1200.137, 48704.00
1201.221, 48789.00
1202.305, 48624.00
1203.388, 48906.00
1204.471, 48793.00
1205.554, 48850.00
1206.637, 48984.00
1207.719, 48920.00
1208.802, 48844.00
1209.884, 48947.92
1210.966, 48942.26
1212.048, 49075.00
1213.130, 49033.00
1214.212, 49126.00
1215.293, 49086.00
1216.374, 49152.74
1217.456, 49177.89
1218.536, 49228.00
1219.617, 49238.00
1220.698, 49179.00
1221.778, 49208.00
1222.859, 49258.30
1223.939, 49462.00
1225.019, 49429.00
1226.099, 49631.00
1227.178, 49777.00
1228.258, 49724.00
1229.337, 49840.00
1230.417, 49722.00
1231.496, 49690.00
1232.574, 49626.00
1233.653, 49836.00
1234.732, 49821.00
1235.810, 49742.00
1236.888, 49988.00
1237.966, 49952.00
1239.044, 50006.00
1240.122, 50178.00
1241.199, 49917.00
1242.277, 49954.00
1243.354, 50139.00
1244.431, 50247.00
1245.508, 50383.00
1246.585, 50090.00
1247.661, 50605.00
1248.738, 50058.00
1249.814, 50397.00
1250.890, 50370.00
1251.966, 50276.00
1253.042, 50286.00
1254.117, 50278.24
1255.193, 50610.00
1256.268, 50373.00
1257.343, 50564.00
1258.418, 50746.00
1259.493, 50604.00
1260.567, 50804.00
1261.642, 50770.00
1262.716, 51041.00
1263.790, 51037.00
1264.864, 50733.00
1265.938, 50877.00
1267.011, 50981.00
1268.085, 50772.00
1269.158, 51211.00
1270.231, 51141.00
1271.304, 50993.00
1272.377, 51091.00
