##NAMES=Polylithionite
##RRUFFID=R050132
##IDEAL CHEMISTRY=KLi_2_AlSi_4_O_10_F_2_
##LOCALITY=Brown Derby mine, Ohio City, Gunnison County, Colorado, USA
##OWNER=RRUFF
##SOURCE=Dave Bunk Minerals
##DESCRIPTION=Purple scaly aggregate, polytype 2M1
##STATUS=The identification of this mineral has been confirmed by X-ray diffraction and chemical analysis
##URL=rruff.info/R050132
##MEASURED CHEMISTRY=(K_0.90_Rb_0.10_)(Li_0.62_Al_0.38_)_3_(Si_0.93_Al_0.07_)_4_O_10_(F_0.69_(OH)_0.31_)_2_
##PIN_ID=L01426
##ORIENTATION=Laser parallel to -a* (-1 0 0). Fiducial mark perpendicular to laser is parallel to -b [0 -1 0]
157.4550, 14954.00
158.6810, 15128.00
159.9080, 15333.00
161.1340, 15869.00
162.3590, 16132.00
163.5850, 16893.00
164.8110, 17401.00
166.0360, 18232.00
167.2610, 18898.00
168.4860, 19490.00
169.7110, 20493.00
170.9360, 21728.00
172.1610, 22915.00
173.3850, 24299.00
174.6100, 25870.00
175.8340, 27550.00
177.0580, 29349.00
178.2820, 30653.00
179.5050, 32049.00
180.7290, 32988.00
181.9520, 33493.00
183.1760, 33922.00
184.3990, 33783.00
185.6220, 33198.00
186.8450, 32555.00
188.0670, 32027.00
189.2900, 31561.00
190.5120, 31072.00
191.7340, 30901.00
192.9560, 30845.00
194.1780, 30605.00
195.4000, 30324.00
196.6220, 29724.00
197.8430, 28945.00
199.0640, 28319.00
200.2860, 27456.00
201.5070, 26529.00
202.7270, 25647.00
203.9480, 24918.00
205.1690, 24349.00
206.3890, 23582.00
207.6090, 23517.00
208.8290, 23222.00
210.0490, 23024.00
211.2690, 23222.00
212.4890, 23240.00
213.7080, 23425.00
214.9280, 23201.00
216.1470, 23025.00
217.3660, 22812.00
218.5850, 22728.49
219.8030, 22651.00
221.0220, 22609.00
222.2400, 22682.00
223.4590, 22676.00
224.6770, 22867.96
225.8950, 23088.97
227.1120, 23368.00
228.3300, 23784.00
229.5480, 24196.00
230.7650, 24771.00
231.9820, 25244.00
233.1990, 25750.10
234.4160, 26428.00
235.6330, 26816.00
236.8490, 27505.00
238.0660, 28134.00
239.2820, 28877.00
240.4980, 29384.00
241.7140, 30035.00
242.9300, 30935.00
244.1460, 31259.00
245.3610, 32130.00
246.5770, 32753.00
247.7920, 33190.00
249.0070, 34083.00
250.2220, 34691.00
251.4370, 35907.00
252.6510, 36851.00
253.8660, 37939.00
255.0800, 39896.00
256.2940, 41630.00
257.5080, 43569.00
258.7220, 46177.00
259.9360, 48079.00
261.1490, 49458.00
262.3630, 50206.00
263.5760, 49837.00
264.7890, 48705.00
266.0020, 45709.00
267.2150, 42977.00
268.4270, 39830.00
269.6400, 36273.00
270.8520, 33282.00
272.0640, 31036.00
273.2760, 28811.00
274.4880, 26956.00
275.7000, 25420.00
276.9120, 24148.00
278.1230, 23202.00
279.3340, 22492.00
280.5450, 21911.00
281.7560, 21419.00
282.9670, 21078.00
284.1780, 20602.00
285.3880, 20288.00
286.5980, 20012.00
287.8090, 19743.00
289.0190, 19566.00
290.2290, 19362.13
291.4380, 19144.00
292.6480, 19103.00
293.8570, 19044.00
295.0670, 19050.00
296.2760, 18952.15
297.4850, 18889.00
298.6930, 18731.00
299.9020, 18781.00
301.1110, 18571.00
302.3190, 18591.00
303.5270, 18714.00
304.7350, 18620.00
305.9430, 18390.00
307.1510, 18400.00
308.3580, 18217.00
309.5660, 18134.00
310.7730, 18129.00
311.9800, 18079.00
313.1870, 17756.00
314.3940, 17963.00
315.6010, 17629.00
316.8070, 17645.00
318.0130, 17689.00
319.2200, 18121.00
320.4260, 18666.00
321.6310, 18548.00
322.8370, 17340.00
324.0430, 17465.00
325.2480, 17567.00
326.4540, 17455.00
327.6590, 17159.00
328.8640, 17505.00
330.0680, 17563.00
331.2730, 17222.00
332.4780, 17301.00
333.6820, 17361.00
334.8860, 17456.00
336.0900, 17433.00
337.2940, 17425.81
338.4980, 17518.00
339.7010, 17349.00
340.9050, 17258.00
342.1080, 17275.00
343.3110, 17333.00
344.5140, 17353.00
345.7170, 17403.00
346.9200, 17258.00
348.1220, 17224.00
349.3240, 17320.00
350.5270, 17176.00
351.7290, 17464.00
352.9310, 17312.00
354.1320, 17338.00
355.3340, 17385.00
356.5350, 17501.00
357.7370, 17597.00
358.9380, 17575.00
360.1390, 17777.00
361.3400, 17827.00
362.5400, 17887.00
363.7410, 17753.00
364.9410, 17996.00
366.1410, 17976.00
367.3410, 18024.00
368.5410, 18255.00
369.7410, 18329.00
370.9400, 18435.00
372.1400, 18578.80
373.3390, 18547.00
374.5380, 18759.00
375.7370, 18899.00
376.9360, 18897.00
378.1350, 18950.00
379.3330, 19029.00
380.5310, 19322.00
381.7300, 19281.00
382.9280, 19474.00
384.1260, 19554.00
385.3230, 19672.00
386.5210, 19776.00
387.7180, 19967.00
388.9160, 20008.00
390.1130, 20193.00
391.3100, 20322.00
392.5060, 20580.00
393.7030, 20489.00
394.9000, 20952.00
396.0960, 20937.00
397.2920, 21010.00
398.4880, 21341.00
399.6840, 21473.00
400.8800, 21725.00
402.0750, 21777.00
403.2710, 21883.00
404.4660, 22039.00
405.6610, 21953.00
406.8560, 21856.00
408.0510, 21800.00
409.2450, 21720.00
410.4400, 21808.00
411.6340, 21569.00
412.8280, 21295.00
414.0220, 21250.00
415.2160, 20929.00
416.4100, 20687.00
417.6030, 20553.00
418.7970, 20412.00
419.9900, 20270.00
421.1830, 20004.00
422.3760, 19892.00
423.5690, 19690.00
424.7610, 19621.00
425.9540, 19559.00
427.1460, 19520.00
428.3380, 19496.27
429.5300, 19737.00
430.7220, 19491.00
431.9140, 19631.00
433.1050, 19664.00
434.2970, 19550.00
435.4880, 19683.00
436.6790, 19522.00
437.8700, 19666.00
439.0610, 19795.00
440.2510, 19616.00
441.4420, 19812.00
442.6320, 19752.00
443.8220, 19741.00
445.0120, 19641.00
446.2020, 19724.00
447.3910, 19544.00
448.5810, 19928.00
449.7700, 19811.00
450.9600, 19997.00
452.1490, 19917.00
453.3370, 20019.00
454.5260, 20056.00
455.7150, 19956.00
456.9030, 19912.00
458.0910, 20048.00
459.2800, 19977.00
460.4670, 19936.00
461.6550, 20193.00
462.8430, 20113.00
464.0300, 19967.00
465.2180, 20202.00
466.4050, 20098.00
467.5920, 20391.00
468.7790, 20189.00
469.9650, 20256.00
471.1520, 20389.00
472.3380, 20488.00
473.5250, 20354.00
474.7110, 20432.00
475.8970, 20416.00
477.0820, 20464.00
478.2680, 20504.00
479.4540, 20379.00
480.6390, 20433.00
481.8240, 20392.00
483.0090, 20239.00
484.1940, 20208.00
485.3780, 20179.64
486.5630, 20277.00
487.7470, 20183.00
488.9320, 20163.00
490.1160, 20191.00
491.3000, 20021.00
492.4830, 20018.00
493.6670, 19826.00
494.8500, 19897.00
496.0340, 19912.00
497.2170, 19900.00
498.4000, 20044.00
499.5820, 19800.00
500.7650, 19920.00
501.9480, 19940.00
503.1300, 20035.00
504.3120, 20155.00
505.4940, 20011.00
506.6760, 20076.00
507.8580, 20258.00
509.0390, 20366.00
510.2210, 20261.00
511.4020, 20262.00
512.5830, 20389.00
513.7640, 20677.00
514.9450, 20766.00
516.1250, 20836.00
517.3060, 20697.00
518.4860, 20875.00
519.6660, 20885.00
520.8460, 21166.00
522.0260, 21027.00
523.2060, 21081.00
524.3850, 21088.00
525.5650, 21368.00
526.7440, 21503.00
527.9230, 21330.00
529.1020, 21664.00
530.2810, 21546.00
531.4590, 21787.00
532.6380, 21697.00
533.8160, 21897.00
534.9940, 21736.00
536.1720, 21817.00
537.3500, 21665.00
538.5270, 21899.00
539.7050, 21955.00
540.8820, 22060.00
542.0590, 22136.72
543.2360, 22189.00
544.4130, 22267.00
545.5900, 22332.00
546.7660, 22515.00
547.9430, 22654.00
549.1190, 22671.00
550.2950, 22893.00
551.4710, 23063.00
552.6470, 23219.00
553.8220, 23485.00
554.9980, 23620.00
556.1730, 24046.00
557.3480, 24123.00
558.5230, 24366.00
559.6980, 24120.00
560.8730, 24349.00
562.0470, 24316.00
563.2220, 24722.00
564.3960, 24656.00
565.5700, 24416.00
566.7440, 24590.00
567.9170, 24213.00
569.0910, 24021.00
570.2640, 24013.00
571.4380, 23853.00
572.6110, 23516.00
573.7840, 23313.00
574.9570, 23095.00
576.1290, 23063.00
577.3020, 22808.00
578.4740, 22884.00
579.6460, 22775.00
580.8180, 22372.00
581.9900, 22548.00
583.1620, 22427.00
584.3330, 22174.00
585.5040, 22232.00
586.6760, 22223.69
587.8470, 22195.00
589.0180, 22347.00
590.1880, 22296.00
591.3590, 22208.00
592.5290, 22269.00
593.7000, 22369.00
594.8700, 22501.00
596.0400, 22514.00
597.2090, 22581.00
598.3790, 22529.00
599.5490, 22495.00
600.7180, 22641.00
601.8870, 22679.00
603.0560, 22841.00
604.2250, 22954.00
605.3940, 23075.00
606.5620, 23109.00
607.7300, 23347.00
608.8990, 23358.00
610.0670, 23433.00
611.2350, 23378.00
612.4020, 23515.00
613.5700, 23573.00
614.7370, 23578.00
615.9050, 23825.00
617.0720, 23657.00
618.2390, 23865.00
619.4060, 23692.00
620.5720, 23922.00
621.7390, 23708.00
622.9050, 23873.00
624.0710, 24042.00
625.2370, 23985.00
626.4030, 24186.00
627.5690, 24121.00
628.7340, 24268.00
629.9000, 24191.00
631.0650, 24315.00
632.2300, 24075.00
633.3950, 24078.00
634.5600, 24239.00
635.7240, 24089.00
636.8890, 24261.00
638.0530, 24117.00
639.2170, 24203.00
640.3810, 23852.00
641.5450, 23805.00
642.7080, 23929.00
643.8720, 23859.00
645.0350, 23784.00
646.1980, 23634.00
647.3610, 23692.00
648.5240, 23674.00
649.6870, 23716.00
650.8490, 23795.00
652.0120, 24066.00
653.1740, 24138.00
654.3360, 24123.00
655.4980, 24471.00
656.6600, 24272.00
657.8210, 24710.00
658.9830, 24688.00
660.1440, 24878.00
661.3050, 24862.00
662.4660, 24903.00
663.6270, 25063.00
664.7870, 25130.00
665.9480, 25262.00
667.1080, 25267.00
668.2680, 25282.00
669.4280, 25221.00
670.5880, 25269.00
671.7480, 25485.00
672.9070, 25647.00
674.0670, 25857.00
675.2260, 25988.00
676.3850, 25956.00
677.5440, 26260.00
678.7030, 26566.00
679.8610, 26729.00
681.0200, 27095.00
682.1780, 27366.00
683.3360, 27925.00
684.4940, 28131.00
685.6520, 28774.00
686.8090, 29372.00
687.9670, 29914.00
689.1240, 30181.00
690.2810, 31216.00
691.4380, 32043.00
692.5950, 32742.00
693.7520, 33871.00
694.9080, 34873.00
696.0650, 36183.00
697.2210, 37644.00
698.3770, 38975.00
699.5330, 40829.00
700.6880, 42612.00
701.8440, 44929.00
702.9990, 47340.00
704.1550, 49801.00
705.3100, 52772.00
706.4650, 55747.00
707.6190, 58202.00
708.7740, 60798.00
709.9290, 62669.00
711.0830, 63357.00
712.2370, 63061.00
713.3910, 61457.00
714.5450, 58309.00
715.6980, 54648.00
716.8520, 50491.00
718.0050, 46632.00
719.1580, 42933.00
720.3110, 39945.00
721.4640, 37604.00
722.6170, 35470.00
723.7700, 33813.00
724.9220, 32382.00
726.0740, 31091.00
727.2260, 30475.00
728.3780, 29828.00
729.5300, 29028.00
730.6810, 28652.00
731.8330, 27956.00
732.9840, 27709.00
734.1350, 27281.00
735.2860, 27141.00
736.4370, 27111.00
737.5880, 27165.00
738.7380, 27084.00
739.8880, 27219.00
741.0390, 27154.00
742.1890, 27293.00
743.3380, 27571.00
744.4880, 27493.00
745.6380, 27707.00
746.7870, 27774.00
747.9360, 27796.04
749.0850, 27922.00
750.2340, 27963.00
751.3830, 28007.00
752.5310, 28274.00
753.6800, 28029.00
754.8280, 28150.00
755.9760, 27888.00
757.1240, 27816.00
758.2720, 27542.00
759.4190, 27536.00
760.5670, 27242.00
761.7140, 26954.00
762.8610, 26820.00
764.0080, 26558.00
765.1550, 26386.00
766.3020, 26252.00
767.4480, 26262.00
768.5950, 25867.00
769.7410, 25576.00
770.8870, 25517.00
772.0330, 25623.00
773.1780, 25366.00
774.3240, 25354.00
775.4690, 25418.00
776.6140, 25241.00
777.7590, 25398.00
778.9040, 25371.00
780.0490, 25275.00
781.1940, 25353.00
782.3380, 25322.32
783.4820, 25237.00
784.6260, 25377.00
785.7700, 25359.00
786.9140, 25419.00
788.0580, 25399.00
789.2010, 25383.77
790.3450, 25341.00
791.4880, 25285.00
792.6310, 25322.00
793.7730, 25188.00
794.9160, 24887.00
796.0590, 25023.00
797.2010, 24821.00
798.3430, 24942.00
799.4850, 24817.00
800.6270, 24727.00
801.7690, 24929.00
802.9100, 24777.00
804.0520, 24883.00
805.1930, 24912.00
806.3340, 24580.00
807.4750, 24749.00
808.6160, 24849.00
809.7560, 24524.00
810.8970, 24893.00
812.0370, 24608.00
813.1770, 24676.00
814.3170, 24593.00
815.4570, 24637.00
816.5960, 24507.00
817.7360, 24770.00
818.8750, 24898.00
820.0140, 24747.00
821.1530, 24749.00
822.2920, 24709.00
823.4310, 24600.00
824.5690, 24567.00
825.7070, 24537.00
826.8460, 24497.00
827.9840, 24816.00
829.1220, 24939.00
830.2590, 24838.00
831.3970, 24643.00
832.5340, 24655.00
833.6710, 25012.00
834.8080, 25029.00
835.9450, 24938.00
837.0820, 24948.00
838.2190, 24851.00
839.3550, 24694.00
840.4910, 24996.00
841.6270, 24965.00
842.7630, 25101.00
843.8990, 25028.00
845.0350, 25072.00
846.1700, 25149.00
847.3060, 25213.00
848.4410, 25226.00
849.5760, 25228.00
850.7100, 25175.00
851.8450, 25098.00
852.9800, 25315.00
854.1140, 25416.00
855.2480, 25198.00
856.3820, 25260.00
857.5160, 25598.00
858.6500, 25467.00
859.7830, 25609.00
860.9170, 25487.00
862.0500, 25262.00
863.1830, 25401.00
864.3160, 25458.00
865.4480, 25554.00
866.5810, 25548.16
867.7130, 25549.00
868.8460, 25530.00
869.9780, 25559.00
871.1100, 25630.00
872.2410, 25769.00
873.3730, 25506.00
874.5050, 25876.00
875.6360, 25624.00
876.7670, 25929.00
877.8980, 25684.00
879.0290, 25777.00
880.1590, 25751.00
881.2900, 25802.00
882.4200, 25732.00
883.5500, 25874.00
884.6800, 25914.00
885.8100, 25872.00
886.9400, 26130.00
888.0690, 25880.00
889.1990, 25899.00
890.3280, 25992.00
891.4570, 25979.00
892.5860, 25947.00
893.7140, 26033.02
894.8430, 25940.00
895.9710, 26098.00
897.1000, 26131.00
898.2280, 26060.00
899.3560, 26357.00
900.4830, 26081.00
901.6110, 26211.00
902.7380, 26062.00
903.8660, 26540.00
904.9930, 26186.00
906.1200, 26469.00
907.2460, 26427.00
908.3730, 26353.00
909.5000, 26401.00
910.6260, 26549.00
911.7520, 26318.00
912.8780, 26458.00
914.0040, 26637.00
915.1290, 26570.00
916.2550, 26399.00
917.3800, 26710.00
918.5050, 26453.00
919.6300, 26515.00
920.7550, 26707.00
921.8800, 26538.00
923.0040, 26700.00
924.1290, 26776.00
925.2530, 26805.00
926.3770, 27086.00
927.5010, 26926.00
928.6250, 26964.00
929.7480, 26941.00
930.8720, 27096.00
931.9950, 26898.00
933.1180, 27168.00
934.2410, 27010.00
935.3640, 27222.00
936.4860, 27285.00
937.6090, 27163.00
938.7310, 27148.00
939.8530, 27322.00
940.9750, 27177.00
942.0970, 27238.00
943.2180, 27354.00
944.3400, 27433.00
945.4610, 27479.55
946.5820, 27535.70
947.7030, 27543.00
948.8240, 27610.00
949.9450, 27598.00
951.0650, 27667.00
952.1860, 27696.06
953.3060, 27716.50
954.4260, 27776.00
955.5460, 27805.00
956.6650, 27853.00
957.7850, 27975.00
958.9040, 27968.00
960.0230, 28087.00
961.1420, 28257.00
962.2610, 28143.00
963.3800, 28178.00
964.4990, 28301.00
965.6170, 28265.00
966.7350, 28347.00
967.8530, 28268.00
968.9710, 28304.70
970.0890, 28547.00
971.2070, 28350.00
972.3240, 28400.00
973.4410, 28477.02
974.5580, 28735.00
975.6750, 28734.00
976.7920, 28785.00
977.9090, 28731.00
979.0250, 28773.00
980.1410, 29024.00
981.2580, 29028.00
982.3740, 29109.00
983.4890, 29196.66
984.6050, 28883.00
985.7200, 29240.00
986.8360, 29199.00
987.9510, 29116.00
989.0660, 29319.00
990.1810, 29128.00
991.2950, 29271.00
992.4100, 29271.00
993.5240, 29548.00
994.6390, 29624.00
995.7530, 29512.00
996.8660, 29612.00
997.9800, 29816.00
999.0940, 29893.00
1000.207, 29768.00
1001.320, 29808.00
1002.433, 29930.00
1003.546, 29790.00
1004.659, 29876.00
1005.772, 29753.00
1006.884, 29806.00
1007.996, 29875.13
1009.108, 30024.00
1010.220, 30018.00
1011.332, 30136.00
1012.444, 30135.00
1013.555, 30184.83
1014.666, 30261.00
1015.777, 30293.00
1016.888, 30299.00
1017.999, 30417.00
1019.110, 30649.00
1020.220, 30507.00
1021.331, 30638.00
1022.441, 30566.00
1023.551, 30743.00
1024.661, 30599.00
1025.770, 30938.00
1026.880, 30868.00
1027.989, 30794.00
1029.098, 30788.00
1030.207, 30787.00
1031.316, 30919.00
1032.425, 30993.00
1033.533, 30935.00
1034.642, 31055.46
1035.750, 31059.00
1036.858, 31217.00
1037.966, 31257.00
1039.073, 31433.00
1040.181, 31522.00
1041.288, 31702.00
1042.396, 31902.00
1043.503, 32102.99
1044.610, 32385.00
1045.716, 32621.00
1046.823, 32881.00
1047.929, 33217.00
1049.036, 33310.00
1050.142, 33937.00
1051.248, 34096.00
1052.353, 34316.00
1053.459, 34400.00
1054.564, 34662.00
1055.670, 35099.00
1056.775, 35116.00
1057.880, 35491.00
1058.985, 35282.00
1060.089, 35302.00
1061.194, 35584.00
1062.298, 35239.00
1063.402, 35540.00
1064.506, 35276.00
1065.610, 35158.00
1066.713, 34961.00
1067.817, 34867.00
1068.920, 34606.00
1070.023, 34458.00
1071.126, 34288.00
1072.229, 34280.00
1073.332, 34131.00
1074.435, 34280.00
1075.537, 34083.00
1076.639, 33904.00
1077.741, 34131.00
1078.843, 34042.00
1079.945, 34119.00
1081.046, 34125.00
1082.148, 33882.00
1083.249, 33940.00
1084.350, 34004.00
1085.451, 33953.00
1086.551, 34165.00
1087.652, 33928.00
1088.752, 34039.00
1089.853, 34201.00
1090.953, 33826.00
1092.053, 33832.00
1093.152, 33913.00
1094.252, 33935.00
1095.351, 34104.00
1096.451, 34299.00
1097.550, 34313.00
1098.649, 34454.00
1099.748, 34532.16
1100.846, 34549.00
1101.945, 34753.00
1103.043, 34757.00
1104.141, 35022.00
1105.239, 34843.00
1106.337, 35109.00
1107.434, 35345.00
1108.532, 35012.00
1109.629, 35567.00
1110.726, 35466.00
1111.823, 35781.00
1112.920, 35656.00
1114.017, 35980.00
1115.113, 36241.00
1116.210, 36316.00
1117.306, 36577.00
1118.402, 36534.00
1119.498, 36891.00
1120.593, 36844.00
1121.689, 37287.00
1122.784, 37589.00
1123.879, 37988.00
1124.974, 38083.00
1126.069, 38016.00
1127.164, 38597.00
1128.259, 38438.00
1129.353, 38879.00
1130.447, 39305.00
1131.541, 39372.00
1132.635, 39660.00
1133.729, 39954.00
1134.822, 40203.00
1135.916, 40281.00
1137.009, 40129.00
1138.102, 40067.00
1139.195, 39803.00
1140.288, 39179.00
1141.380, 38505.00
1142.473, 38124.00
1143.565, 37417.00
1144.657, 36694.00
1145.749, 35587.00
1146.841, 35080.00
1147.932, 34791.00
1149.024, 34386.00
1150.115, 33945.00
1151.206, 33440.00
1152.297, 33281.00
1153.388, 33375.00
1154.479, 32971.00
1155.569, 32918.00
1156.659, 32743.00
1157.750, 32840.00
1158.839, 32454.00
1159.929, 32564.00
1161.019, 32466.00
1162.108, 32457.00
1163.198, 32394.00
1164.287, 32366.00
1165.376, 32405.00
1166.465, 32344.67
1167.553, 32279.00
1168.642, 32267.00
1169.730, 32363.00
1170.818, 32288.00
1171.906, 32297.00
1172.994, 32220.00
1174.082, 32327.00
1175.170, 32252.00
1176.257, 32065.00
1177.344, 32238.00
1178.431, 32244.00
1179.518, 32416.00
1180.605, 32482.00
1181.691, 32693.00
1182.778, 32613.00
1183.864, 32623.00
1184.950, 32487.00
1186.036, 32458.00
1187.122, 32717.00
1188.207, 32687.00
1189.292, 32570.00
1190.378, 32721.00
1191.463, 32501.00
1192.548, 32801.00
1193.632, 32716.00
1194.717, 32795.00
1195.801, 32831.00
1196.886, 32582.00
1197.970, 32623.00
1199.054, 32733.00
1200.137, 32901.00
1201.221, 32643.00
1202.305, 32874.00
1203.388, 32653.00
1204.471, 32779.00
1205.554, 32972.00
1206.637, 32928.00
1207.719, 33016.00
1208.802, 33043.00
1209.884, 33105.00
1210.966, 32959.00
1212.048, 33191.00
1213.130, 33081.00
1214.212, 33087.00
1215.293, 33161.00
1216.374, 33124.00
1217.456, 33156.00
1218.536, 33174.00
1219.617, 33077.00
1220.698, 33333.00
1221.778, 33365.00
1222.859, 33577.00
1223.939, 33345.00
1225.019, 33565.00
1226.099, 33382.00
1227.178, 33416.00
1228.258, 33278.00
1229.337, 33426.00
1230.417, 33461.00
1231.496, 33454.00
1232.574, 33728.00
1233.653, 33717.00
1234.732, 33579.00
1235.810, 33425.00
1236.888, 33661.00
1237.966, 33675.00
1239.044, 33835.00
1240.122, 33527.00
1241.199, 33641.00
1242.277, 33759.00
1243.354, 33725.00
1244.431, 33855.00
1245.508, 33872.00
1246.585, 33767.00
1247.661, 33969.00
1248.738, 33940.00
1249.814, 33738.00
1250.890, 33646.00
1251.966, 33703.00
1253.042, 33946.00
1254.117, 33784.00
1255.193, 33993.00
1256.268, 33841.00
1257.343, 33933.00
1258.418, 33906.00
1259.493, 34165.00
1260.567, 34072.00
1261.642, 34056.00
1262.716, 34079.00
1263.790, 34028.00
1264.864, 34309.00
1265.938, 34154.00
1267.011, 34244.00
1268.085, 34051.00
1269.158, 34295.00
1270.231, 34295.00
1271.304, 34484.00
1272.377, 34317.00
1273.450, 34325.00
1274.522, 34292.00
1275.594, 34163.00
1276.666, 34224.00
1277.738, 34253.34
1278.810, 34431.00
1279.882, 34482.00
1280.953, 34637.00
1282.025, 34636.25
1283.096, 34675.05
1284.167, 34600.00
1285.238, 34679.00
1286.308, 34638.00
1287.379, 34640.00
1288.449, 34602.00
1289.519, 34791.00
1290.589, 34793.00
1291.659, 34795.00
1292.729, 34766.00
1293.798, 34809.25
1294.868, 34788.16
1295.937, 34880.00
1297.006, 34865.00
1298.075, 34889.00
1299.143, 35110.00
1300.212, 35123.00
1301.280, 35131.00
1302.348, 35238.00
1303.416, 35048.00
1304.484, 35040.00
1305.552, 35164.00
1306.620, 35082.00
1307.687, 35556.00
1308.754, 35159.00
1309.821, 35255.00
1310.888, 35647.00
1311.955, 35177.00
1313.021, 35353.00
1314.088, 35252.00
1315.154, 35392.00
1316.220, 35472.00
1317.286, 35619.00
1318.352, 35685.00
1319.417, 35439.00
1320.483, 35598.00
1321.548, 35601.00
1322.613, 35829.00
1323.678, 35585.00
1324.743, 35503.00
1325.807, 35692.00
