##NAMES=Polylithionite
##RRUFFID=R050132
##IDEAL CHEMISTRY=KLi_2_AlSi_4_O_10_F_2_
##LOCALITY=Brown Derby mine, Ohio City, Gunnison County, Colorado, USA
##OWNER=RRUFF
##SOURCE=Dave Bunk Minerals
##DESCRIPTION=Purple scaly aggregate, polytype 2M1
##STATUS=The identification of this mineral has been confirmed by X-ray diffraction and chemical analysis
##URL=rruff.info/R050132
##MEASURED CHEMISTRY=(K_0.90_Rb_0.10_)(Li_0.62_Al_0.38_)_3_(Si_0.93_Al_0.07_)_4_O_10_(F_0.69_(OH)_0.31_)_2_
##PIN_ID=L00606
##ORIENTATION=Laser parallel to (1 0 1). Fiducial mark perpendicular to laser is parallel to -b [0 -1 0]
157.4550, 16959.00
158.6810, 16811.00
159.9080, 16946.00
161.1340, 16925.00
162.3590, 17221.00
163.5850, 17364.00
164.8110, 17326.00
166.0360, 17695.00
167.2610, 17695.00
168.4860, 17970.00
169.7110, 18424.00
170.9360, 18824.00
172.1610, 18831.00
173.3850, 19399.00
174.6100, 19751.00
175.8340, 19965.00
177.0580, 20478.00
178.2820, 20632.00
179.5050, 20940.00
180.7290, 21009.00
181.9520, 21060.00
183.1760, 20944.00
184.3990, 20929.00
185.6220, 20755.79
186.8450, 20466.00
188.0670, 20349.00
189.2900, 20143.00
190.5120, 20066.85
191.7340, 20036.81
192.9560, 20028.00
194.1780, 20104.00
195.4000, 20210.00
196.6220, 20350.00
197.8430, 20427.00
199.0640, 20320.00
200.2860, 20213.00
201.5070, 20102.00
202.7270, 19981.00
203.9480, 19744.00
205.1690, 19605.00
206.3890, 19415.00
207.6090, 19321.00
208.8290, 19524.00
210.0490, 19521.00
211.2690, 19576.00
212.4890, 19604.00
213.7080, 19670.00
214.9280, 19601.00
216.1470, 19374.00
217.3660, 19080.00
218.5850, 19022.00
219.8030, 18806.00
221.0220, 18558.00
222.2400, 18660.00
223.4590, 18595.00
224.6770, 18245.00
225.8950, 18541.00
227.1120, 18458.00
228.3300, 18491.00
229.5480, 18609.00
230.7650, 18680.00
231.9820, 18846.00
233.1990, 19132.00
234.4160, 19241.00
235.6330, 19550.00
236.8490, 19559.00
238.0660, 19975.00
239.2820, 20171.00
240.4980, 20588.00
241.7140, 20880.00
242.9300, 21001.00
244.1460, 21419.00
245.3610, 21720.00
246.5770, 22351.00
247.7920, 22718.00
249.0070, 23189.00
250.2220, 23528.00
251.4370, 24365.00
252.6510, 24823.00
253.8660, 26043.00
255.0800, 26682.00
256.2940, 28385.00
257.5080, 29700.00
258.7220, 31310.00
259.9360, 32808.00
261.1490, 33054.00
262.3630, 33617.00
263.5760, 33354.00
264.7890, 32739.00
266.0020, 31598.00
267.2150, 30294.00
268.4270, 28583.00
269.6400, 27257.00
270.8520, 26005.00
272.0640, 24662.00
273.2760, 23630.00
274.4880, 22935.00
275.7000, 22157.00
276.9120, 21675.00
278.1230, 21299.00
279.3340, 20771.00
280.5450, 20524.00
281.7560, 20258.00
282.9670, 20065.00
284.1780, 19927.26
285.3880, 19757.00
286.5980, 19694.00
287.8090, 19704.00
289.0190, 19529.00
290.2290, 19564.00
291.4380, 19600.00
292.6480, 19425.00
293.8570, 19573.00
295.0670, 19521.00
296.2760, 19482.00
297.4850, 19556.00
298.6930, 19630.00
299.9020, 19475.00
301.1110, 19468.00
302.3190, 19333.00
303.5270, 19373.00
304.7350, 19512.00
305.9430, 19489.00
307.1510, 19420.00
308.3580, 19360.00
309.5660, 19321.00
310.7730, 19397.00
311.9800, 19460.00
313.1870, 19235.00
314.3940, 19528.00
315.6010, 19454.00
316.8070, 19348.00
318.0130, 19431.00
319.2200, 19375.00
320.4260, 19363.00
321.6310, 19413.67
322.8370, 19450.00
324.0430, 19475.00
325.2480, 19464.00
326.4540, 19476.00
327.6590, 19369.00
328.8640, 19504.00
330.0680, 19346.00
331.2730, 19392.00
332.4780, 19483.00
333.6820, 19399.00
334.8860, 19524.00
336.0900, 19245.00
337.2940, 19291.00
338.4980, 19269.00
339.7010, 19418.00
340.9050, 19157.00
342.1080, 19172.00
343.3110, 19162.00
344.5140, 19165.00
345.7170, 19280.00
346.9200, 19078.00
348.1220, 19295.00
349.3240, 19173.00
350.5270, 19234.00
351.7290, 19297.00
352.9310, 19373.00
354.1320, 19400.00
355.3340, 19407.00
356.5350, 19439.00
357.7370, 19530.00
358.9380, 19552.52
360.1390, 19727.00
361.3400, 19734.00
362.5400, 19823.00
363.7410, 20085.00
364.9410, 19893.00
366.1410, 20258.00
367.3410, 20327.00
368.5410, 20458.00
369.7410, 20532.00
370.9400, 20603.00
372.1400, 20825.00
373.3390, 21116.00
374.5380, 21199.00
375.7370, 21403.00
376.9360, 21593.00
378.1350, 21800.00
379.3330, 21869.00
380.5310, 21979.00
381.7300, 22144.00
382.9280, 22435.00
384.1260, 22419.00
385.3230, 22609.00
386.5210, 22682.00
387.7180, 22809.71
388.9160, 23001.56
390.1130, 23127.00
391.3100, 23377.00
392.5060, 23602.00
393.7030, 23791.00
394.9000, 23838.00
396.0960, 24073.00
397.2920, 24251.07
398.4880, 24492.00
399.6840, 24647.00
400.8800, 24984.00
402.0750, 25111.00
403.2710, 25190.00
404.4660, 25189.00
405.6610, 25181.74
406.8560, 25134.00
408.0510, 24969.00
409.2450, 24737.00
410.4400, 24434.00
411.6340, 24383.00
412.8280, 24089.00
414.0220, 23521.00
415.2160, 23426.00
416.4100, 23283.00
417.6030, 22829.00
418.7970, 22916.00
419.9900, 22426.00
421.1830, 22323.00
422.3760, 22244.00
423.5690, 22106.00
424.7610, 22082.00
425.9540, 22083.00
427.1460, 21996.00
428.3380, 22092.00
429.5300, 21970.00
430.7220, 22070.00
431.9140, 22093.00
433.1050, 22277.00
434.2970, 22069.00
435.4880, 21978.00
436.6790, 22122.00
437.8700, 22156.00
439.0610, 22262.00
440.2510, 22231.00
441.4420, 22212.45
442.6320, 22075.00
443.8220, 22067.00
445.0120, 22053.00
446.2020, 21934.00
447.3910, 21958.00
448.5810, 21815.00
449.7700, 21952.00
450.9600, 21884.00
452.1490, 21881.00
453.3370, 21897.00
454.5260, 21856.38
455.7150, 21885.00
456.9030, 21854.00
458.0910, 21824.00
459.2800, 21888.00
460.4670, 21864.50
461.6550, 22074.00
462.8430, 21910.00
464.0300, 21995.00
465.2180, 22068.00
466.4050, 21945.00
467.5920, 22097.00
468.7790, 22074.00
469.9650, 22125.00
471.1520, 22343.00
472.3380, 22362.00
473.5250, 22339.00
474.7110, 22372.00
475.8970, 22379.63
477.0820, 22347.00
478.2680, 22397.00
479.4540, 22361.71
480.6390, 22450.00
481.8240, 22291.00
483.0090, 22245.00
484.1940, 22135.00
485.3780, 21993.00
486.5630, 22090.00
487.7470, 22087.00
488.9320, 21782.00
490.1160, 21765.00
491.3000, 21950.00
492.4830, 21972.00
493.6670, 21678.00
494.8500, 21612.00
496.0340, 21517.00
497.2170, 21437.00
498.4000, 21518.00
499.5820, 21481.13
500.7650, 21533.93
501.9480, 21564.00
503.1300, 21659.00
504.3120, 21741.00
505.4940, 21819.40
506.6760, 21820.86
507.8580, 21825.00
509.0390, 21814.00
510.2210, 21651.00
511.4020, 21682.00
512.5830, 21803.00
513.7640, 21922.00
514.9450, 21793.00
516.1250, 21987.00
517.3060, 21941.00
518.4860, 22158.00
519.6660, 22176.00
520.8460, 21988.00
522.0260, 22283.00
523.2060, 22079.00
524.3850, 22265.00
525.5650, 22307.00
526.7440, 22503.00
527.9230, 22400.00
529.1020, 22391.00
530.2810, 22317.00
531.4590, 22610.00
532.6380, 22624.00
533.8160, 22855.00
534.9940, 22667.00
536.1720, 22822.00
537.3500, 22871.00
538.5270, 22844.00
539.7050, 22862.00
540.8820, 22994.00
542.0590, 23255.00
543.2360, 23129.00
544.4130, 23360.00
545.5900, 23408.00
546.7660, 23496.00
547.9430, 23814.00
549.1190, 23699.00
550.2950, 23985.00
551.4710, 23946.00
552.6470, 24279.00
553.8220, 24313.00
554.9980, 24397.00
556.1730, 24867.00
557.3480, 24933.00
558.5230, 24922.00
559.6980, 24886.00
560.8730, 24936.00
562.0470, 25060.00
563.2220, 25073.00
564.3960, 25201.00
565.5700, 25256.00
566.7440, 25152.00
567.9170, 25025.00
569.0910, 24830.00
570.2640, 24688.00
571.4380, 24822.00
572.6110, 24570.00
573.7840, 24407.00
574.9570, 24439.00
576.1290, 24136.00
577.3020, 24134.00
578.4740, 24005.00
579.6460, 23790.00
580.8180, 23648.00
581.9900, 23672.00
583.1620, 23527.00
584.3330, 23695.00
585.5040, 23716.00
586.6760, 23835.00
587.8470, 23774.00
589.0180, 23627.00
590.1880, 23568.00
591.3590, 23525.00
592.5290, 23552.00
593.7000, 23584.00
594.8700, 23624.39
596.0400, 23693.39
597.2090, 23744.00
598.3790, 23849.00
599.5490, 23880.00
600.7180, 23951.00
601.8870, 24003.00
603.0560, 24225.00
604.2250, 24070.00
605.3940, 24235.00
606.5620, 24383.00
607.7300, 24332.00
608.8990, 24498.00
610.0670, 24629.00
611.2350, 24658.00
612.4020, 24663.00
613.5700, 24623.00
614.7370, 24804.00
615.9050, 24827.00
617.0720, 24891.00
618.2390, 24923.00
619.4060, 24910.00
620.5720, 24981.00
621.7390, 25016.00
622.9050, 25058.00
624.0710, 25200.00
625.2370, 25275.00
626.4030, 25326.00
627.5690, 25619.00
628.7340, 25401.00
629.9000, 25531.00
631.0650, 25406.00
632.2300, 25579.00
633.3950, 25604.00
634.5600, 25558.00
635.7240, 25421.00
636.8890, 25400.00
638.0530, 25378.00
639.2170, 25239.00
640.3810, 25190.47
641.5450, 25111.54
642.7080, 25020.00
643.8720, 24963.00
645.0350, 24925.00
646.1980, 24865.00
647.3610, 24658.00
648.5240, 24853.00
649.6870, 24642.00
650.8490, 24838.00
652.0120, 24818.00
653.1740, 24708.00
654.3360, 24753.00
655.4980, 24885.00
656.6600, 24842.00
657.8210, 24860.00
658.9830, 25060.00
660.1440, 25024.00
661.3050, 24970.00
662.4660, 25157.00
663.6270, 25388.00
664.7870, 25463.00
665.9480, 25446.00
667.1080, 25439.00
668.2680, 25443.00
669.4280, 25527.00
670.5880, 25329.00
671.7480, 25720.00
672.9070, 25844.00
674.0670, 26192.00
675.2260, 25935.00
676.3850, 26393.00
677.5440, 26453.00
678.7030, 26841.00
679.8610, 27088.00
681.0200, 27177.00
682.1780, 27484.00
683.3360, 27675.00
684.4940, 27976.00
685.6520, 28493.00
686.8090, 28921.00
687.9670, 29430.00
689.1240, 30025.16
690.2810, 30712.00
691.4380, 31315.00
692.5950, 32050.00
693.7520, 32826.00
694.9080, 33842.00
696.0650, 34889.00
697.2210, 36041.39
698.3770, 37330.00
699.5330, 38736.00
700.6880, 40207.00
701.8440, 41941.00
702.9990, 44071.00
704.1550, 46370.00
705.3100, 47984.00
706.4650, 50301.00
707.6190, 52465.00
708.7740, 53873.00
709.9290, 55113.00
711.0830, 55060.00
712.2370, 54178.00
713.3910, 52406.00
714.5450, 49798.00
715.6980, 47162.00
716.8520, 44384.00
718.0050, 41508.00
719.1580, 39108.00
720.3110, 37042.00
721.4640, 35251.00
722.6170, 33883.00
723.7700, 32629.00
724.9220, 31831.00
726.0740, 30770.00
727.2260, 30203.00
728.3780, 29676.00
729.5300, 29458.00
730.6810, 29032.19
731.8330, 28732.00
732.9840, 28506.00
734.1350, 28279.00
735.2860, 28116.00
736.4370, 27909.00
737.5880, 27839.00
738.7380, 27767.00
739.8880, 27994.00
741.0390, 27948.00
742.1890, 28017.00
743.3380, 28127.00
744.4880, 28205.00
745.6380, 28295.42
746.7870, 28509.00
747.9360, 28502.00
749.0850, 28590.00
750.2340, 28751.00
751.3830, 28705.00
752.5310, 28668.48
753.6800, 28442.00
754.8280, 28445.00
755.9760, 28222.00
757.1240, 28109.78
758.2720, 28212.00
759.4190, 27980.00
760.5670, 28013.00
761.7140, 27915.00
762.8610, 27762.00
764.0080, 27557.00
765.1550, 27492.00
766.3020, 27436.00
767.4480, 27148.00
768.5950, 27125.00
769.7410, 27022.00
770.8870, 27032.00
772.0330, 26930.00
773.1780, 26673.00
774.3240, 26773.00
775.4690, 26700.00
776.6140, 27002.00
777.7590, 26808.00
778.9040, 26844.00
780.0490, 26527.00
781.1940, 26830.00
782.3380, 26835.00
783.4820, 26839.00
784.6260, 26784.00
785.7700, 26887.00
786.9140, 26873.00
788.0580, 26815.00
789.2010, 26904.00
790.3450, 26805.00
791.4880, 26996.00
792.6310, 26642.00
793.7730, 26863.00
794.9160, 26757.00
796.0590, 26730.00
797.2010, 26676.00
798.3430, 26581.00
799.4850, 26584.00
800.6270, 26532.00
801.7690, 26660.00
802.9100, 26512.00
804.0520, 26542.00
805.1930, 26564.00
806.3340, 26408.00
807.4750, 26488.00
808.6160, 26391.00
809.7560, 26365.39
810.8970, 26455.00
812.0370, 26339.00
813.1770, 26517.00
814.3170, 26575.00
815.4570, 26565.96
816.5960, 26560.00
817.7360, 26550.00
818.8750, 26602.00
820.0140, 26473.00
821.1530, 26637.00
822.2920, 26482.00
823.4310, 26432.00
824.5690, 26738.00
825.7070, 26601.00
826.8460, 26645.00
827.9840, 26787.00
829.1220, 26716.00
830.2590, 26737.00
831.3970, 26736.00
832.5340, 26582.00
833.6710, 26826.00
834.8080, 27046.00
835.9450, 26781.00
837.0820, 26807.00
838.2190, 26732.00
839.3550, 27022.00
840.4910, 27067.00
841.6270, 27017.00
842.7630, 26749.00
843.8990, 27031.00
845.0350, 26998.00
846.1700, 27015.00
847.3060, 27041.00
848.4410, 27013.00
849.5760, 26972.00
850.7100, 27080.00
851.8450, 27107.00
852.9800, 27072.00
854.1140, 27077.00
855.2480, 27303.00
856.3820, 27211.00
857.5160, 27576.00
858.6500, 27379.00
859.7830, 27385.00
860.9170, 27433.00
862.0500, 27367.00
863.1830, 27442.00
864.3160, 27494.00
865.4480, 27423.00
866.5810, 27380.00
867.7130, 27403.00
868.8460, 27512.00
869.9780, 27476.00
871.1100, 27471.00
872.2410, 27539.00
873.3730, 27531.00
874.5050, 27606.00
875.6360, 27606.62
876.7670, 27620.93
877.8980, 27629.00
879.0290, 27652.00
880.1590, 27682.00
881.2900, 27737.00
882.4200, 27585.00
883.5500, 28038.00
884.6800, 27642.00
885.8100, 27805.00
886.9400, 27633.00
888.0690, 27762.00
889.1990, 27974.00
890.3280, 28136.00
891.4570, 28076.00
892.5860, 28244.00
893.7140, 28181.00
894.8430, 27907.00
895.9710, 28148.00
897.1000, 28108.00
898.2280, 28277.00
899.3560, 28349.00
900.4830, 28285.00
901.6110, 28482.00
902.7380, 28513.00
903.8660, 28584.00
904.9930, 28691.00
906.1200, 28843.00
907.2460, 28788.00
908.3730, 28877.00
909.5000, 29008.00
910.6260, 29232.00
911.7520, 29152.00
912.8780, 29032.00
914.0040, 28953.00
915.1290, 29272.00
916.2550, 29329.00
917.3800, 29431.00
918.5050, 29388.00
919.6300, 29489.00
920.7550, 29308.00
921.8800, 29265.00
923.0040, 29205.00
924.1290, 29201.00
925.2530, 29147.00
926.3770, 29237.67
927.5010, 29422.00
928.6250, 29462.00
929.7480, 29516.00
930.8720, 29664.00
931.9950, 29301.00
933.1180, 29270.00
934.2410, 29417.00
935.3640, 29445.00
936.4860, 29479.00
937.6090, 29509.00
938.7310, 29521.00
939.8530, 29628.00
940.9750, 29595.00
942.0970, 29622.00
943.2180, 29664.00
944.3400, 29774.00
945.4610, 29700.00
946.5820, 29924.00
947.7030, 29792.00
948.8240, 29886.00
949.9450, 30152.00
951.0650, 30084.00
952.1860, 30168.00
953.3060, 30259.00
954.4260, 30455.00
955.5460, 30270.00
956.6650, 30259.00
957.7850, 30306.00
958.9040, 30151.00
960.0230, 30377.00
961.1420, 30262.00
962.2610, 30419.00
963.3800, 30488.00
964.4990, 30648.00
965.6170, 30419.00
966.7350, 30485.00
967.8530, 30416.06
968.9710, 30725.00
970.0890, 30350.00
971.2070, 30414.00
972.3240, 30547.00
973.4410, 30422.00
974.5580, 30670.00
975.6750, 30657.00
976.7920, 30584.00
977.9090, 30744.00
979.0250, 30606.00
980.1410, 30887.00
981.2580, 30612.00
982.3740, 30801.00
983.4890, 30759.00
984.6050, 30911.00
985.7200, 31159.00
986.8360, 31014.00
987.9510, 31093.00
989.0660, 31066.00
990.1810, 31137.00
991.2950, 30952.00
992.4100, 31212.00
993.5240, 31213.00
994.6390, 31414.00
995.7530, 31318.00
996.8660, 31293.00
997.9800, 31263.00
999.0940, 31254.44
1000.207, 31569.00
1001.320, 31335.00
1002.433, 31492.00
1003.546, 31651.00
1004.659, 31439.00
1005.772, 31529.00
1006.884, 31481.00
1007.996, 31591.00
1009.108, 31626.69
1010.220, 31773.00
1011.332, 31780.00
1012.444, 31788.00
1013.555, 31937.00
1014.666, 31770.00
1015.777, 32054.00
1016.888, 31904.00
1017.999, 32188.00
1019.110, 31858.00
1020.220, 31894.00
1021.331, 31921.00
1022.441, 31825.00
1023.551, 31904.00
1024.661, 31849.09
1025.770, 31922.00
1026.880, 31795.00
1027.989, 31861.00
1029.098, 31837.00
1030.207, 31871.00
1031.316, 31875.27
1032.425, 31905.12
1033.533, 31846.00
1034.642, 31957.00
1035.750, 31892.00
1036.858, 31859.00
1037.966, 32061.00
1039.073, 31900.00
1040.181, 31968.00
1041.288, 32101.00
1042.396, 31959.00
1043.503, 32016.00
1044.610, 32235.00
1045.716, 32123.00
1046.823, 32253.00
1047.929, 32164.00
1049.036, 32372.00
1050.142, 32609.00
1051.248, 32913.00
1052.353, 32655.00
1053.459, 32653.00
1054.564, 32650.00
1055.670, 32650.00
1056.775, 33135.00
1057.880, 33000.00
1058.985, 33079.00
1060.089, 33110.00
1061.194, 33002.00
1062.298, 33019.00
1063.402, 33089.00
1064.506, 33043.49
1065.610, 33152.00
1066.713, 33127.00
1067.817, 33089.00
1068.920, 33272.00
1070.023, 33388.00
1071.126, 33343.00
1072.229, 33641.00
1073.332, 33536.00
1074.435, 33582.00
1075.537, 33729.00
1076.639, 33836.00
1077.741, 33756.00
1078.843, 34190.00
1079.945, 34123.00
1081.046, 34311.00
1082.148, 34598.00
1083.249, 34292.00
1084.350, 34371.00
1085.451, 34837.00
1086.551, 34423.00
1087.652, 34409.00
1088.752, 34401.00
1089.853, 34701.00
1090.953, 34377.00
1092.053, 34601.00
1093.152, 34520.00
1094.252, 34478.00
1095.351, 34464.00
1096.451, 34511.05
1097.550, 34611.00
1098.649, 34715.00
1099.748, 34744.59
1100.846, 34929.00
1101.945, 34808.00
1103.043, 34799.00
1104.141, 34938.00
1105.239, 34838.00
1106.337, 35073.00
1107.434, 35167.00
1108.532, 35230.00
1109.629, 34972.00
1110.726, 34941.00
1111.823, 35307.00
1112.920, 35108.00
1114.017, 35395.00
1115.113, 35433.00
1116.210, 35573.00
1117.306, 35438.00
1118.402, 35543.00
1119.498, 35681.00
1120.593, 35739.00
1121.689, 35794.42
1122.784, 35873.00
1123.879, 35796.00
1124.974, 35761.00
1126.069, 35647.00
1127.164, 35431.00
1128.259, 35434.00
1129.353, 35408.00
1130.447, 35502.00
1131.541, 35595.00
1132.635, 35250.00
1133.729, 35352.00
1134.822, 35502.00
1135.916, 34897.00
1137.009, 35107.00
1138.102, 35061.00
1139.195, 35070.00
1140.288, 34945.00
1141.380, 34832.00
1142.473, 34694.00
1143.565, 34445.00
1144.657, 34593.00
1145.749, 34429.00
1146.841, 34614.00
1147.932, 34406.00
1149.024, 34318.00
1150.115, 34091.00
1151.206, 34258.00
1152.297, 34201.00
1153.388, 34343.00
1154.479, 34336.00
1155.569, 34281.00
1156.659, 34152.00
1157.750, 34274.00
1158.839, 34197.00
1159.929, 34291.00
1161.019, 34283.00
1162.108, 34222.00
1163.198, 34143.00
1164.287, 34415.00
1165.376, 34221.00
1166.465, 34360.00
1167.553, 34390.00
1168.642, 34337.00
1169.730, 34409.00
1170.818, 34376.00
1171.906, 34387.00
1172.994, 34416.00
1174.082, 34579.00
1175.170, 34491.00
1176.257, 34447.00
1177.344, 34672.00
1178.431, 34416.00
1179.518, 34662.00
1180.605, 34661.00
1181.691, 34613.00
1182.778, 34752.00
1183.864, 34667.00
1184.950, 34604.00
1186.036, 34702.00
1187.122, 34720.00
1188.207, 34694.00
1189.292, 34753.00
1190.378, 34587.00
1191.463, 34860.00
1192.548, 34776.00
1193.632, 34936.00
1194.717, 34855.00
1195.801, 35048.00
1196.886, 34857.00
1197.970, 34981.00
1199.054, 35171.00
1200.137, 35092.00
1201.221, 35274.00
1202.305, 35146.00
1203.388, 35187.00
1204.471, 35289.00
1205.554, 34944.00
1206.637, 35291.00
1207.719, 35126.00
1208.802, 35184.00
1209.884, 35235.00
1210.966, 35345.00
1212.048, 35327.00
1213.130, 35465.00
1214.212, 35503.00
1215.293, 35583.00
1216.374, 35525.00
1217.456, 35508.00
1218.536, 35544.00
1219.617, 35698.00
1220.698, 35525.00
1221.778, 35628.00
1222.859, 35503.00
1223.939, 35666.00
1225.019, 35715.00
1226.099, 35671.00
1227.178, 35902.00
1228.258, 35817.00
1229.337, 36055.00
1230.417, 35878.00
1231.496, 35986.00
1232.574, 36042.00
1233.653, 35854.00
1234.732, 36001.00
1235.810, 36065.00
1236.888, 36010.00
1237.966, 36180.00
1239.044, 35901.00
1240.122, 36134.00
1241.199, 36105.00
1242.277, 36227.00
1243.354, 36268.00
1244.431, 36148.00
1245.508, 36257.00
1246.585, 36079.00
1247.661, 36136.12
1248.738, 36062.00
1249.814, 36155.00
1250.890, 36244.00
1251.966, 36211.00
1253.042, 36373.00
1254.117, 36105.00
1255.193, 36020.00
1256.268, 36085.00
1257.343, 36061.00
1258.418, 36191.00
1259.493, 36290.19
1260.567, 36490.00
1261.642, 36504.00
1262.716, 36657.00
1263.790, 36614.00
1264.864, 36814.00
1265.938, 36714.00
1267.011, 36653.00
1268.085, 36791.00
1269.158, 36680.00
1270.231, 36579.00
1271.304, 36750.00
1272.377, 36753.00
1273.450, 36805.00
1274.522, 36903.00
1275.594, 36902.67
1276.666, 36930.00
1277.738, 36937.00
1278.810, 36981.00
1279.882, 36960.00
1280.953, 37030.61
1282.025, 37034.00
1283.096, 37124.00
1284.167, 37258.00
1285.238, 37244.00
1286.308, 37302.00
1287.379, 37209.00
1288.449, 37398.00
1289.519, 37360.00
1290.589, 37449.00
1291.659, 37385.00
1292.729, 37442.00
1293.798, 37477.00
1294.868, 37459.00
1295.937, 37838.00
1297.006, 37575.00
1298.075, 37976.00
1299.143, 37923.00
1300.212, 37728.00
1301.280, 37943.00
1302.348, 37725.00
1303.416, 37829.00
1304.484, 37820.00
1305.552, 37978.00
1306.620, 38081.00
1307.687, 37948.00
1308.754, 37847.00
1309.821, 37918.00
1310.888, 37609.00
1311.955, 38048.00
1313.021, 38026.00
1314.088, 37910.00
1315.154, 38210.00
1316.220, 37874.00
1317.286, 38025.00
1318.352, 38444.00
1319.417, 38135.00
1320.483, 38113.00
1321.548, 38129.00
1322.613, 38357.00
1323.678, 38292.00
1324.743, 38302.00
1325.807, 38366.00
