##NAMES=Polylithionite
##RRUFFID=R050132
##IDEAL CHEMISTRY=KLi_2_AlSi_4_O_10_F_2_
##LOCALITY=Brown Derby mine, Ohio City, Gunnison County, Colorado, USA
##OWNER=RRUFF
##SOURCE=Dave Bunk Minerals
##DESCRIPTION=Purple scaly aggregate, polytype 2M1
##STATUS=The identification of this mineral has been confirmed by X-ray diffraction and chemical analysis
##URL=rruff.info/R050132
##MEASURED CHEMISTRY=(K_0.90_Rb_0.10_)(Li_0.62_Al_0.38_)_3_(Si_0.93_Al_0.07_)_4_O_10_(F_0.69_(OH)_0.31_)_2_
##PIN_ID=L00606
##ORIENTATION=Laser parallel to (1 0 1). Fiducial mark perpendicular to laser is parallel to -b [0 -1 0]
51.43100, 598.0000
52.67100, 597.0000
53.91000, 602.0000
55.14900, 614.0000
56.38700, 629.0000
57.62600, 649.0000
58.86400, 688.0000
60.10300, 697.0000
61.34100, 811.0000
62.57900, 871.0000
63.81700, 970.0000
65.05400, 1105.000
66.29200, 1255.000
67.52900, 1407.000
68.76700, 1666.000
70.00400, 1980.000
71.24100, 2356.000
72.47700, 2646.000
73.71400, 3006.000
74.95100, 3507.000
76.18700, 3870.000
77.42300, 4291.000
78.65900, 4725.000
79.89500, 5209.000
81.13100, 5921.179
82.36700, 6631.000
83.60200, 7581.000
84.83700, 8511.000
86.07200, 9610.000
87.30800, 10897.00
88.54200, 12355.00
89.77700, 13986.00
91.01200, 15884.00
92.24600, 17395.00
93.48000, 19035.00
94.71400, 20189.00
95.94800, 21232.00
97.18200, 21309.00
98.41600, 21487.00
99.64900, 21198.00
100.8830, 20008.00
102.1160, 18858.00
103.3490, 17578.00
104.5820, 16549.37
105.8150, 15375.00
107.0470, 14554.00
108.2800, 13602.61
109.5120, 12828.75
110.7440, 12210.00
111.9760, 11411.00
113.2080, 11117.00
114.4400, 10830.00
115.6710, 10830.00
116.9030, 10540.00
118.1340, 10343.00
119.3650, 10140.00
120.5960, 9944.567
121.8270, 9811.000
123.0580, 9646.000
124.2880, 9536.000
125.5190, 9465.000
126.7490, 9626.000
127.9790, 9868.000
129.2090, 10060.00
130.4390, 10320.00
131.6680, 10588.00
132.8980, 11142.00
134.1270, 11540.00
135.3560, 12170.00
136.5850, 12921.00
137.8140, 13924.00
139.0430, 15245.00
140.2710, 16133.00
141.5000, 16313.00
142.7280, 16059.00
143.9560, 14978.00
145.1840, 13932.00
146.4120, 13217.00
147.6390, 12524.64
148.8670, 11943.00
150.0940, 11592.00
151.3210, 11428.00
152.5490, 11193.00
153.7750, 11073.00
155.0020, 11205.00
156.2290, 11339.00
157.4550, 11433.00
158.6810, 11652.00
159.9080, 11984.00
161.1340, 12322.00
162.3590, 13006.00
163.5850, 13538.00
164.8110, 14468.00
166.0360, 15047.00
167.2610, 16236.00
168.4860, 17154.00
169.7110, 18482.00
170.9360, 19816.00
172.1610, 21346.00
173.3850, 22838.00
174.6100, 24308.00
175.8340, 25433.00
177.0580, 26841.00
178.2820, 27679.00
179.5050, 28140.00
180.7290, 28163.00
181.9520, 27959.00
183.1760, 27562.00
184.3990, 26840.00
185.6220, 26272.00
186.8450, 25676.00
188.0670, 25267.00
189.2900, 25001.00
190.5120, 24802.00
191.7340, 24280.00
192.9560, 23981.00
194.1780, 23651.00
195.4000, 22940.00
196.6220, 22562.00
197.8430, 21824.43
199.0640, 20905.00
200.2860, 20382.00
201.5070, 19870.00
202.7270, 19269.00
203.9480, 18905.00
205.1690, 18653.00
206.3890, 18301.00
207.6090, 18333.00
208.8290, 18098.00
210.0490, 18181.00
211.2690, 17979.00
212.4890, 17987.00
213.7080, 17751.00
214.9280, 17789.00
216.1470, 17613.00
217.3660, 17434.00
218.5850, 17408.00
219.8030, 17337.00
221.0220, 17568.00
222.2400, 17755.00
223.4590, 17875.00
224.6770, 18056.00
225.8950, 18560.00
227.1120, 19002.00
228.3300, 19555.00
229.5480, 20079.00
230.7650, 20514.00
231.9820, 21237.00
233.1990, 21643.00
234.4160, 22047.00
235.6330, 22829.00
236.8490, 23096.00
238.0660, 23907.00
239.2820, 24563.00
240.4980, 25195.00
241.7140, 25797.00
242.9300, 26540.00
244.1460, 27075.00
245.3610, 27723.00
246.5770, 28352.00
247.7920, 29076.00
249.0070, 29895.00
250.2220, 30966.00
251.4370, 32350.00
252.6510, 33968.00
253.8660, 35557.00
255.0800, 37359.00
256.2940, 39245.00
257.5080, 40865.00
258.7220, 42278.00
259.9360, 43097.00
261.1490, 42896.00
262.3630, 41687.00
263.5760, 39587.00
264.7890, 37026.00
266.0020, 34178.00
267.2150, 31299.00
268.4270, 28723.00
269.6400, 25877.00
270.8520, 24004.00
272.0640, 22116.00
273.2760, 20396.00
274.4880, 19155.00
275.7000, 18133.00
276.9120, 17242.00
278.1230, 16621.00
279.3340, 16151.00
280.5450, 15667.00
281.7560, 15278.58
282.9670, 14934.69
284.1780, 14642.00
285.3880, 14363.00
286.5980, 14112.00
287.8090, 13871.00
289.0190, 13828.00
290.2290, 13761.00
291.4380, 13649.00
292.6480, 13604.96
293.8570, 13425.00
295.0670, 13491.00
296.2760, 13310.00
297.4850, 13281.00
298.6930, 13203.00
299.9020, 13049.00
301.1110, 13051.00
302.3190, 13057.00
303.5270, 12981.00
304.7350, 12906.00
305.9430, 12631.00
307.1510, 12627.00
308.3580, 12410.00
309.5660, 12544.00
310.7730, 12471.00
311.9800, 12317.00
313.1870, 12364.00
314.3940, 12171.00
315.6010, 12189.00
316.8070, 12099.00
318.0130, 12040.00
319.2200, 12107.00
320.4260, 11985.00
321.6310, 11914.00
322.8370, 11863.00
324.0430, 11839.72
325.2480, 11822.21
326.4540, 11880.00
327.6590, 11843.00
328.8640, 11915.00
330.0680, 11960.00
331.2730, 11919.00
332.4780, 11741.00
333.6820, 11773.00
334.8860, 11885.00
336.0900, 11573.00
337.2940, 11744.00
338.4980, 11619.75
339.7010, 11767.00
340.9050, 11593.00
342.1080, 11512.00
343.3110, 11710.00
344.5140, 11562.00
345.7170, 11495.00
346.9200, 11519.00
348.1220, 11573.00
349.3240, 11622.00
350.5270, 11700.00
351.7290, 11630.00
352.9310, 11719.00
354.1320, 11674.00
355.3340, 11845.00
356.5350, 11724.00
357.7370, 11954.00
358.9380, 11915.00
360.1390, 11993.00
361.3400, 11914.00
362.5400, 11999.00
363.7410, 12067.00
364.9410, 12152.00
366.1410, 12192.00
367.3410, 12284.00
368.5410, 12419.00
369.7410, 12583.00
370.9400, 12627.00
372.1400, 12641.00
373.3390, 12930.00
374.5380, 12976.00
375.7370, 13055.00
376.9360, 12991.00
378.1350, 13144.00
379.3330, 13239.51
380.5310, 13361.00
381.7300, 13561.00
382.9280, 13711.00
384.1260, 13925.00
385.3230, 13998.00
386.5210, 14156.00
387.7180, 14186.00
388.9160, 14390.00
390.1130, 14599.00
391.3100, 14619.00
392.5060, 14764.00
393.7030, 14940.00
394.9000, 15103.00
396.0960, 15234.00
397.2920, 15317.00
398.4880, 15475.00
399.6840, 15648.00
400.8800, 15654.00
402.0750, 15800.00
403.2710, 15593.00
404.4660, 15810.00
405.6610, 15763.00
406.8560, 15549.00
408.0510, 15321.00
409.2450, 15212.00
410.4400, 15043.00
411.6340, 14868.00
412.8280, 14719.00
414.0220, 14446.00
415.2160, 14213.00
416.4100, 13942.00
417.6030, 13899.00
418.7970, 13669.00
419.9900, 13454.00
421.1830, 13514.00
422.3760, 13383.00
423.5690, 13318.00
424.7610, 13265.00
425.9540, 13267.00
427.1460, 13280.00
428.3380, 13182.00
429.5300, 13187.00
430.7220, 13341.00
431.9140, 13261.00
433.1050, 13285.00
434.2970, 13389.00
435.4880, 13294.00
436.6790, 13251.00
437.8700, 13379.00
439.0610, 13343.00
440.2510, 13531.00
441.4420, 13489.17
442.6320, 13272.00
443.8220, 13409.00
445.0120, 13351.00
446.2020, 13197.00
447.3910, 13221.00
448.5810, 13234.00
449.7700, 13372.00
450.9600, 13325.00
452.1490, 13443.00
453.3370, 13537.00
454.5260, 13394.00
455.7150, 13540.00
456.9030, 13591.00
458.0910, 13433.00
459.2800, 13407.00
460.4670, 13455.00
461.6550, 13513.00
462.8430, 13525.14
464.0300, 13535.00
465.2180, 13593.00
466.4050, 13556.00
467.5920, 13575.00
468.7790, 13603.00
469.9650, 13492.00
471.1520, 13559.02
472.3380, 13506.00
473.5250, 13596.00
474.7110, 13644.00
475.8970, 13643.00
477.0820, 13721.00
478.2680, 13641.00
479.4540, 13702.00
480.6390, 13529.00
481.8240, 13651.00
483.0090, 13606.00
484.1940, 13333.00
485.3780, 13487.00
486.5630, 13334.00
487.7470, 13295.00
488.9320, 13155.00
490.1160, 13082.00
491.3000, 13255.00
492.4830, 13151.00
493.6670, 13201.00
494.8500, 13146.00
496.0340, 13189.00
497.2170, 13230.00
498.4000, 13070.00
499.5820, 13004.00
500.7650, 13071.00
501.9480, 13172.00
503.1300, 13185.00
504.3120, 13283.00
505.4940, 13419.00
506.6760, 13465.00
507.8580, 13403.00
509.0390, 13688.00
510.2210, 13855.00
511.4020, 13785.00
512.5830, 13782.00
513.7640, 14051.00
514.9450, 13973.00
516.1250, 14179.00
517.3060, 14153.00
518.4860, 14197.00
519.6660, 14238.00
520.8460, 14335.00
522.0260, 14371.00
523.2060, 14425.00
524.3850, 14469.00
525.5650, 14406.00
526.7440, 14565.00
527.9230, 14531.00
529.1020, 14655.00
530.2810, 14599.00
531.4590, 14661.00
532.6380, 14534.00
533.8160, 14655.00
534.9940, 14657.00
536.1720, 14646.00
537.3500, 14629.00
538.5270, 14706.00
539.7050, 14799.00
540.8820, 14762.00
542.0590, 14839.00
543.2360, 14880.00
544.4130, 15007.00
545.5900, 15116.00
546.7660, 15252.00
547.9430, 15403.00
549.1190, 15609.00
550.2950, 15812.48
551.4710, 16003.00
552.6470, 16286.90
553.8220, 16432.00
554.9980, 16669.00
556.1730, 16743.00
557.3480, 16875.00
558.5230, 16924.00
559.6980, 16935.00
560.8730, 17056.00
562.0470, 17227.00
563.2220, 17209.00
564.3960, 17154.93
565.5700, 17015.00
566.7440, 16850.00
567.9170, 16687.00
569.0910, 16461.00
570.2640, 16243.00
571.4380, 16010.00
572.6110, 15775.00
573.7840, 15653.00
574.9570, 15469.30
576.1290, 15335.00
577.3020, 15264.00
578.4740, 15159.00
579.6460, 15202.00
580.8180, 14947.00
581.9900, 15004.00
583.1620, 14958.00
584.3330, 14840.00
585.5040, 14699.00
586.6760, 14799.00
587.8470, 14853.00
589.0180, 14910.00
590.1880, 14832.00
591.3590, 14890.23
592.5290, 14900.33
593.7000, 14940.00
594.8700, 14937.00
596.0400, 15027.00
597.2090, 15015.00
598.3790, 15202.00
599.5490, 15255.00
600.7180, 15187.00
601.8870, 15436.00
603.0560, 15402.00
604.2250, 15649.00
605.3940, 15568.00
606.5620, 15584.00
607.7300, 15640.00
608.8990, 15654.75
610.0670, 15741.20
611.2350, 15775.00
612.4020, 15941.00
613.5700, 16003.00
614.7370, 16150.00
615.9050, 16168.00
617.0720, 16243.00
618.2390, 16230.00
619.4060, 16220.00
620.5720, 16199.00
621.7390, 16348.00
622.9050, 16277.00
624.0710, 16365.00
625.2370, 16550.00
626.4030, 16596.00
627.5690, 16645.00
628.7340, 16756.00
629.9000, 16820.00
631.0650, 16671.00
632.2300, 16731.00
633.3950, 16681.00
634.5600, 16809.00
635.7240, 16677.00
636.8890, 16610.00
638.0530, 16776.00
639.2170, 16585.00
640.3810, 16508.00
641.5450, 16123.00
642.7080, 16303.00
643.8720, 16010.00
645.0350, 16093.00
646.1980, 16037.00
647.3610, 15971.00
648.5240, 16036.00
649.6870, 16079.15
650.8490, 16115.90
652.0120, 16179.75
653.1740, 16266.00
654.3360, 16311.00
655.4980, 16411.00
656.6600, 16518.00
657.8210, 16605.00
658.9830, 16696.06
660.1440, 16778.02
661.3050, 16851.95
662.4660, 16932.00
663.6270, 16983.76
664.7870, 17051.00
665.9480, 17098.00
667.1080, 17171.00
668.2680, 17232.00
669.4280, 17304.34
670.5880, 17339.00
671.7480, 17562.00
672.9070, 17680.00
674.0670, 17971.00
675.2260, 18123.00
676.3850, 17938.00
677.5440, 18366.00
678.7030, 18627.00
679.8610, 18801.00
681.0200, 19441.00
682.1780, 19764.00
683.3360, 20071.00
684.4940, 20571.00
685.6520, 21037.00
686.8090, 21674.00
687.9670, 22248.00
689.1240, 22823.00
690.2810, 23736.00
691.4380, 24519.00
692.5950, 25558.00
693.7520, 26564.00
694.9080, 27857.00
696.0650, 29296.00
697.2210, 30871.00
698.3770, 32812.00
699.5330, 34913.00
700.6880, 36989.00
701.8440, 39560.00
702.9990, 42371.00
704.1550, 45428.00
705.3100, 48220.00
706.4650, 50882.00
707.6190, 53316.00
708.7740, 54907.00
709.9290, 55089.00
711.0830, 54495.00
712.2370, 52185.00
713.3910, 48884.00
714.5450, 45337.00
715.6980, 41576.00
716.8520, 37759.00
718.0050, 34476.00
719.1580, 31468.00
720.3110, 28968.69
721.4640, 26954.00
722.6170, 25112.00
723.7700, 23905.00
724.9220, 22876.00
726.0740, 21760.00
727.2260, 21150.00
728.3780, 20447.00
729.5300, 20046.00
730.6810, 19488.00
731.8330, 19225.00
732.9840, 18867.00
734.1350, 18738.00
735.2860, 18501.00
736.4370, 18555.00
737.5880, 18616.00
738.7380, 18463.00
739.8880, 18693.00
741.0390, 18547.00
742.1890, 18700.00
743.3380, 18869.00
744.4880, 18803.00
745.6380, 18961.89
746.7870, 19045.00
747.9360, 19128.00
749.0850, 19307.00
750.2340, 19429.00
751.3830, 19217.00
752.5310, 19304.00
753.6800, 19089.00
754.8280, 18966.00
755.9760, 18774.00
757.1240, 18596.00
758.2720, 18414.00
759.4190, 18346.00
760.5670, 18047.00
761.7140, 17839.00
762.8610, 17723.00
764.0080, 17461.00
765.1550, 17420.00
766.3020, 17152.00
767.4480, 16830.00
768.5950, 16918.00
769.7410, 16665.00
770.8870, 16724.00
772.0330, 16607.00
773.1780, 16573.00
774.3240, 16493.00
775.4690, 16376.00
776.6140, 16314.00
777.7590, 16346.00
778.9040, 16401.00
780.0490, 16257.00
781.1940, 16420.00
782.3380, 16591.00
783.4820, 16348.00
784.6260, 16319.00
785.7700, 16408.00
786.9140, 16317.00
788.0580, 16371.00
789.2010, 16351.00
790.3450, 16353.00
791.4880, 16170.00
792.6310, 16081.00
793.7730, 16139.00
794.9160, 16080.00
796.0590, 16131.00
797.2010, 15893.00
798.3430, 15985.00
799.4850, 15892.00
800.6270, 15636.00
801.7690, 15783.00
802.9100, 15729.00
804.0520, 15642.00
805.1930, 15694.00
806.3340, 15639.00
807.4750, 15585.00
808.6160, 15577.83
809.7560, 15586.00
810.8970, 15548.00
812.0370, 15427.00
813.1770, 15497.00
814.3170, 15636.00
815.4570, 15375.00
816.5960, 15510.00
817.7360, 15372.00
818.8750, 15590.00
820.0140, 15297.00
821.1530, 15605.00
822.2920, 15416.00
823.4310, 15609.00
824.5690, 15551.00
825.7070, 15662.00
826.8460, 15521.00
827.9840, 15665.00
829.1220, 15780.00
830.2590, 15698.00
831.3970, 15660.00
832.5340, 15702.00
833.6710, 15607.00
834.8080, 15489.00
835.9450, 15579.00
837.0820, 15793.00
838.2190, 15632.00
839.3550, 15653.00
840.4910, 15597.00
841.6270, 15622.00
842.7630, 15726.00
843.8990, 15747.00
845.0350, 15783.00
846.1700, 15797.68
847.3060, 15825.44
848.4410, 15789.00
849.5760, 15848.00
850.7100, 15866.00
851.8450, 15823.00
852.9800, 15900.79
854.1140, 16046.00
855.2480, 16012.00
856.3820, 15927.00
857.5160, 15999.00
858.6500, 15880.00
859.7830, 15927.00
860.9170, 15867.00
862.0500, 15864.00
863.1830, 16136.00
864.3160, 16261.00
865.4480, 15966.00
866.5810, 16031.00
867.7130, 15922.00
868.8460, 16048.00
869.9780, 16109.00
871.1100, 16016.00
872.2410, 15945.00
873.3730, 16173.00
874.5050, 16161.00
875.6360, 15998.00
876.7670, 16200.00
877.8980, 16193.00
879.0290, 16097.00
880.1590, 16095.00
881.2900, 16231.00
882.4200, 16094.00
883.5500, 16209.00
884.6800, 16258.00
885.8100, 16212.00
886.9400, 16324.00
888.0690, 16233.00
889.1990, 16080.00
890.3280, 16242.00
891.4570, 16349.00
892.5860, 16200.00
893.7140, 16286.00
894.8430, 16357.00
895.9710, 16312.00
897.1000, 16461.00
898.2280, 16475.00
899.3560, 16422.00
900.4830, 16294.00
901.6110, 16332.00
902.7380, 16413.00
903.8660, 16632.00
904.9930, 16639.00
906.1200, 16543.00
907.2460, 16665.00
908.3730, 16656.00
909.5000, 16706.00
910.6260, 16700.00
911.7520, 16724.00
912.8780, 16625.00
914.0040, 16723.00
915.1290, 16623.00
916.2550, 16805.00
917.3800, 16755.00
918.5050, 16831.00
919.6300, 16740.00
920.7550, 16868.00
921.8800, 16829.00
923.0040, 16817.00
924.1290, 16868.00
925.2530, 16800.00
926.3770, 17045.00
927.5010, 17016.00
928.6250, 17086.00
929.7480, 17002.00
930.8720, 17123.00
931.9950, 16967.00
933.1180, 17042.00
934.2410, 17264.00
935.3640, 16939.00
936.4860, 17178.00
937.6090, 17080.00
938.7310, 17076.00
939.8530, 17098.00
940.9750, 17251.00
942.0970, 17332.00
943.2180, 17336.00
944.3400, 17467.00
945.4610, 17547.00
946.5820, 17466.00
947.7030, 17318.00
948.8240, 17351.00
949.9450, 17511.00
951.0650, 17514.00
952.1860, 17561.00
953.3060, 17447.00
954.4260, 17777.00
955.5460, 17651.00
956.6650, 17845.00
957.7850, 17806.00
958.9040, 18053.00
960.0230, 17929.00
961.1420, 17806.00
962.2610, 17934.00
963.3800, 17910.00
964.4990, 17994.00
965.6170, 17995.00
966.7350, 17900.00
967.8530, 18041.00
968.9710, 18015.52
970.0890, 18335.00
971.2070, 18089.00
972.3240, 18252.00
973.4410, 18291.00
974.5580, 18592.00
975.6750, 18515.00
976.7920, 18520.00
977.9090, 18520.00
979.0250, 18622.00
980.1410, 18526.00
981.2580, 18510.00
982.3740, 18700.00
983.4890, 18754.00
984.6050, 18732.00
985.7200, 18734.00
986.8360, 18857.00
987.9510, 18934.00
989.0660, 19011.00
990.1810, 18878.00
991.2950, 19139.00
992.4100, 18887.00
993.5240, 19139.00
994.6390, 19042.00
995.7530, 18920.00
996.8660, 19134.00
997.9800, 19181.00
999.0940, 19355.00
1000.207, 19280.00
1001.320, 19427.00
1002.433, 19429.00
1003.546, 19392.00
1004.659, 19389.00
1005.772, 19390.00
1006.884, 19425.55
1007.996, 19496.00
1009.108, 19537.00
1010.220, 19539.00
1011.332, 19601.00
1012.444, 19623.00
1013.555, 19754.00
1014.666, 19797.00
1015.777, 19828.00
1016.888, 19796.00
1017.999, 19826.00
1019.110, 19775.00
1020.220, 19812.00
1021.331, 19925.00
1022.441, 19812.00
1023.551, 19979.00
1024.661, 19993.00
1025.770, 20057.00
1026.880, 20019.00
1027.989, 20110.00
1029.098, 20028.00
1030.207, 20065.00
1031.316, 20080.00
1032.425, 20180.00
1033.533, 20036.00
1034.642, 20113.00
1035.750, 20342.00
1036.858, 20392.00
1037.966, 20629.00
1039.073, 20510.00
1040.181, 20835.00
1041.288, 20981.00
1042.396, 21248.00
1043.503, 21344.00
1044.610, 21527.00
1045.716, 21776.00
1046.823, 22015.00
1047.929, 22218.97
1049.036, 22338.00
1050.142, 22678.00
1051.248, 22789.00
1052.353, 23065.00
1053.459, 23338.00
1054.564, 23487.00
1055.670, 23634.00
1056.775, 24016.00
1057.880, 23790.00
1058.985, 24161.00
1060.089, 24115.00
1061.194, 24017.75
1062.298, 23829.00
1063.402, 23825.00
1064.506, 23598.00
1065.610, 23558.00
1066.713, 23323.00
1067.817, 23232.00
1068.920, 23172.00
1070.023, 23204.00
1071.126, 23125.00
1072.229, 23058.00
1073.332, 22983.00
1074.435, 22762.00
1075.537, 22979.00
1076.639, 22692.00
1077.741, 22784.00
1078.843, 22796.00
1079.945, 22842.00
1081.046, 23041.00
1082.148, 23007.00
1083.249, 23330.00
1084.350, 23251.00
1085.451, 23557.00
1086.551, 23657.00
1087.652, 23143.00
1088.752, 23050.00
1089.853, 23079.00
1090.953, 22871.00
1092.053, 22964.00
1093.152, 22944.00
1094.252, 22993.00
1095.351, 23016.00
1096.451, 23030.00
1097.550, 23005.00
1098.649, 23076.80
1099.748, 23356.00
1100.846, 23229.00
1101.945, 23400.00
1103.043, 23547.00
1104.141, 23548.00
1105.239, 23851.00
1106.337, 23815.00
1107.434, 23955.00
1108.532, 24246.00
1109.629, 24320.00
1110.726, 24330.00
1111.823, 24331.00
1112.920, 24638.00
1114.017, 24920.00
1115.113, 24947.00
1116.210, 25216.00
1117.306, 25166.00
1118.402, 25541.00
1119.498, 25717.00
1120.593, 25731.00
1121.689, 26124.00
1122.784, 26482.00
1123.879, 26826.00
1124.974, 26807.00
1126.069, 26872.00
1127.164, 27205.00
1128.259, 27548.00
1129.353, 27674.00
1130.447, 27981.00
1131.541, 28190.00
1132.635, 28285.00
1133.729, 28421.00
1134.822, 28318.62
1135.916, 28199.85
1137.009, 27889.00
1138.102, 27663.00
1139.195, 27165.00
1140.288, 26690.00
1141.380, 26181.00
1142.473, 25396.00
1143.565, 24664.00
1144.657, 23892.00
1145.749, 23188.00
1146.841, 22604.00
1147.932, 22101.00
1149.024, 21887.00
1150.115, 21593.00
1151.206, 21316.00
1152.297, 21164.00
1153.388, 20979.00
1154.479, 20862.51
1155.569, 20754.06
1156.659, 20686.00
1157.750, 20589.00
1158.839, 20475.00
1159.929, 20398.00
1161.019, 20470.00
1162.108, 20499.00
1163.198, 20421.00
1164.287, 20325.00
1165.376, 20476.00
1166.465, 20427.00
1167.553, 20552.00
1168.642, 20338.00
1169.730, 20525.00
1170.818, 20288.00
1171.906, 20488.00
1172.994, 20343.00
1174.082, 20391.00
1175.170, 20291.00
1176.257, 20433.00
1177.344, 20486.00
1178.431, 20374.00
1179.518, 20389.00
1180.605, 20314.00
1181.691, 20436.00
1182.778, 20326.00
1183.864, 20459.00
1184.950, 20523.00
1186.036, 20487.00
1187.122, 20467.00
1188.207, 20459.22
1189.292, 20451.00
1190.378, 20418.83
1191.463, 20462.00
1192.548, 20497.00
1193.632, 20606.00
1194.717, 20611.00
1195.801, 20589.00
1196.886, 20507.00
1197.970, 20524.00
1199.054, 20516.06
1200.137, 20591.00
1201.221, 20568.00
1202.305, 20636.00
1203.388, 20700.00
1204.471, 20762.00
1205.554, 20668.00
1206.637, 20791.00
1207.719, 20872.00
1208.802, 20637.00
1209.884, 20836.00
1210.966, 20715.00
1212.048, 20733.00
1213.130, 20818.00
1214.212, 20806.00
1215.293, 20842.64
1216.374, 20868.87
1217.456, 20898.00
1218.536, 20861.00
1219.617, 20930.00
1220.698, 20841.93
1221.778, 20959.00
1222.859, 20802.00
1223.939, 20955.00
1225.019, 20986.00
1226.099, 21090.00
1227.178, 21098.79
1228.258, 21133.76
1229.337, 21139.91
1230.417, 21137.00
1231.496, 21095.00
1232.574, 21033.00
1233.653, 20980.00
