##NAMES=Polylithionite
##RRUFFID=R050132
##IDEAL CHEMISTRY=KLi_2_AlSi_4_O_10_F_2_
##LOCALITY=Brown Derby mine, Ohio City, Gunnison County, Colorado, USA
##OWNER=RRUFF
##SOURCE=Dave Bunk Minerals
##DESCRIPTION=Purple scaly aggregate, polytype 2M1
##STATUS=The identification of this mineral has been confirmed by X-ray diffraction and chemical analysis
##URL=rruff.info/R050132
##MEASURED CHEMISTRY=(K_0.90_Rb_0.10_)(Li_0.62_Al_0.38_)_3_(Si_0.93_Al_0.07_)_4_O_10_(F_0.69_(OH)_0.31_)_2_
##PIN_ID=L00606
##ORIENTATION=Laser parallel to (1 0 1). Fiducial mark perpendicular to laser is parallel to -b [0 -1 0]
157.4550, 14919.00
158.6810, 14958.00
159.9080, 14973.00
161.1340, 15049.00
162.3590, 15327.00
163.5850, 15751.00
164.8110, 16005.00
166.0360, 16502.00
167.2610, 17055.00
168.4860, 17555.00
169.7110, 18211.00
170.9360, 18997.00
172.1610, 19768.00
173.3850, 20997.00
174.6100, 21706.00
175.8340, 22783.00
177.0580, 23518.00
178.2820, 23992.00
179.5050, 24443.00
180.7290, 24624.00
181.9520, 24564.00
183.1760, 24187.00
184.3990, 23834.00
185.6220, 23407.00
186.8450, 23056.00
188.0670, 22737.00
189.2900, 22488.54
190.5120, 22422.00
191.7340, 22175.00
192.9560, 22154.00
194.1780, 22190.00
195.4000, 21771.00
196.6220, 21348.00
197.8430, 20826.00
199.0640, 20399.00
200.2860, 20089.00
201.5070, 19721.00
202.7270, 19480.00
203.9480, 19029.00
205.1690, 18685.00
206.3890, 18476.00
207.6090, 18437.00
208.8290, 18510.00
210.0490, 18353.00
211.2690, 18440.00
212.4890, 18503.00
213.7080, 18336.00
214.9280, 18166.00
216.1470, 18186.00
217.3660, 17944.00
218.5850, 17932.00
219.8030, 17729.00
221.0220, 17743.00
222.2400, 17760.00
223.4590, 17841.00
224.6770, 17972.94
225.8950, 18156.29
227.1120, 18369.00
228.3300, 18664.00
229.5480, 18987.48
230.7650, 19323.00
231.9820, 19675.00
233.1990, 19825.00
234.4160, 20179.00
235.6330, 20507.00
236.8490, 20895.04
238.0660, 21457.00
239.2820, 21799.00
240.4980, 22376.00
241.7140, 22844.00
242.9300, 23327.00
244.1460, 23571.00
245.3610, 24254.00
246.5770, 24607.00
247.7920, 25310.00
249.0070, 25996.00
250.2220, 26800.00
251.4370, 27741.00
252.6510, 28755.91
253.8660, 29897.50
255.0800, 31167.00
256.2940, 32559.00
257.5080, 34103.00
258.7220, 35848.00
259.9360, 36589.00
261.1490, 36901.00
262.3630, 36354.00
263.5760, 35208.00
264.7890, 33998.00
266.0020, 32141.00
267.2150, 29964.00
268.4270, 27890.00
269.6400, 26126.00
270.8520, 24395.00
272.0640, 23013.53
273.2760, 21602.00
274.4880, 20714.00
275.7000, 19931.00
276.9120, 19108.00
278.1230, 18712.00
279.3340, 18094.00
280.5450, 17908.00
281.7560, 17478.00
282.9670, 16960.00
284.1780, 16982.00
285.3880, 16627.00
286.5980, 16582.00
287.8090, 16364.00
289.0190, 16137.00
290.2290, 16139.00
291.4380, 15915.00
292.6480, 15997.00
293.8570, 15953.00
295.0670, 15807.00
296.2760, 15893.00
297.4850, 15870.00
298.6930, 15705.00
299.9020, 15747.00
301.1110, 15882.00
302.3190, 15602.00
303.5270, 15707.00
304.7350, 15826.00
305.9430, 15485.00
307.1510, 15578.00
308.3580, 15436.00
309.5660, 15501.00
310.7730, 15440.00
311.9800, 15303.00
313.1870, 15292.00
314.3940, 15308.00
315.6010, 15325.00
316.8070, 15248.00
318.0130, 15241.00
319.2200, 15376.00
320.4260, 15239.00
321.6310, 15365.00
322.8370, 15375.00
324.0430, 15427.00
325.2480, 15301.00
326.4540, 15383.00
327.6590, 15430.00
328.8640, 15249.00
330.0680, 15223.00
331.2730, 15181.00
332.4780, 15183.00
333.6820, 15143.00
334.8860, 15000.00
336.0900, 15127.00
337.2940, 15002.00
338.4980, 14997.00
339.7010, 14776.00
340.9050, 14852.00
342.1080, 14905.00
343.3110, 14971.00
344.5140, 14917.00
345.7170, 14761.00
346.9200, 14783.00
348.1220, 14829.00
349.3240, 14805.00
350.5270, 14846.00
351.7290, 14776.00
352.9310, 14819.86
354.1320, 14922.00
355.3340, 14873.00
356.5350, 14968.00
357.7370, 15008.00
358.9380, 15077.00
360.1390, 15282.00
361.3400, 15207.00
362.5400, 15343.00
363.7410, 15289.00
364.9410, 15391.00
366.1410, 15649.00
367.3410, 15596.00
368.5410, 15876.00
369.7410, 16083.00
370.9400, 16066.00
372.1400, 16235.00
373.3390, 16370.00
374.5380, 16376.00
375.7370, 16605.00
376.9360, 16695.00
378.1350, 16918.00
379.3330, 17104.00
380.5310, 17272.00
381.7300, 17320.00
382.9280, 17586.00
384.1260, 17724.00
385.3230, 17968.00
386.5210, 18165.00
387.7180, 18310.00
388.9160, 18513.00
390.1130, 18609.00
391.3100, 18787.00
392.5060, 18823.00
393.7030, 19093.00
394.9000, 18994.00
396.0960, 19204.00
397.2920, 19433.00
398.4880, 19604.00
399.6840, 19489.00
400.8800, 19562.00
402.0750, 19618.00
403.2710, 19568.89
404.4660, 19576.00
405.6610, 19481.00
406.8560, 19439.00
408.0510, 19239.00
409.2450, 19018.00
410.4400, 18808.00
411.6340, 18582.00
412.8280, 18428.00
414.0220, 18089.00
415.2160, 17851.00
416.4100, 17695.00
417.6030, 17486.00
418.7970, 17376.00
419.9900, 17218.25
421.1830, 17008.00
422.3760, 16977.00
423.5690, 16853.00
424.7610, 16783.00
425.9540, 16770.00
427.1460, 16680.00
428.3380, 16822.00
429.5300, 16557.00
430.7220, 16890.00
431.9140, 16612.00
433.1050, 16713.00
434.2970, 16723.00
435.4880, 16811.00
436.6790, 16827.94
437.8700, 16837.88
439.0610, 16863.00
440.2510, 16778.00
441.4420, 16792.00
442.6320, 16781.30
443.8220, 16759.50
445.0120, 16757.00
446.2020, 16772.00
447.3910, 16715.00
448.5810, 16754.00
449.7700, 16761.98
450.9600, 16831.00
452.1490, 16770.00
453.3370, 16746.00
454.5260, 16644.00
455.7150, 16841.00
456.9030, 16642.00
458.0910, 16657.00
459.2800, 16828.00
460.4670, 16774.00
461.6550, 16788.00
462.8430, 16879.00
464.0300, 16905.00
465.2180, 16873.00
466.4050, 16815.00
467.5920, 16841.00
468.7790, 16826.00
469.9650, 16930.00
471.1520, 17049.00
472.3380, 16967.00
473.5250, 16926.00
474.7110, 17148.00
475.8970, 17066.00
477.0820, 17081.00
478.2680, 17115.00
479.4540, 17047.00
480.6390, 16891.00
481.8240, 17069.00
483.0090, 16862.00
484.1940, 16729.00
485.3780, 16786.00
486.5630, 16692.00
487.7470, 16662.00
488.9320, 16544.00
490.1160, 16526.05
491.3000, 16573.00
492.4830, 16476.00
493.6670, 16476.00
494.8500, 16464.56
496.0340, 16411.00
497.2170, 16505.00
498.4000, 16542.00
499.5820, 16575.00
500.7650, 16502.00
501.9480, 16705.00
503.1300, 16591.00
504.3120, 16684.00
505.4940, 16838.00
506.6760, 16959.00
507.8580, 17139.00
509.0390, 17038.00
510.2210, 17145.00
511.4020, 17269.00
512.5830, 17404.00
513.7640, 17341.00
514.9450, 17390.00
516.1250, 17505.00
517.3060, 17538.00
518.4860, 17649.00
519.6660, 17604.00
520.8460, 17664.17
522.0260, 17587.00
523.2060, 17651.00
524.3850, 17745.00
525.5650, 17622.00
526.7440, 17520.00
527.9230, 17672.00
529.1020, 17655.00
530.2810, 17704.00
531.4590, 17727.00
532.6380, 17619.00
533.8160, 17906.00
534.9940, 17748.00
536.1720, 17860.00
537.3500, 17793.00
538.5270, 17949.00
539.7050, 17945.00
540.8820, 17937.00
542.0590, 17960.00
543.2360, 18044.00
544.4130, 18087.16
545.5900, 18170.00
546.7660, 18266.00
547.9430, 18384.00
549.1190, 18523.00
550.2950, 18766.00
551.4710, 18834.00
552.6470, 19063.00
553.8220, 19157.00
554.9980, 19336.00
556.1730, 19474.00
557.3480, 19588.00
558.5230, 19848.00
559.6980, 19787.00
560.8730, 19863.00
562.0470, 19811.00
563.2220, 19945.00
564.3960, 19857.00
565.5700, 19641.00
566.7440, 19849.00
567.9170, 19551.00
569.0910, 19383.00
570.2640, 19271.00
571.4380, 19082.89
572.6110, 19083.00
573.7840, 18695.00
574.9570, 18846.00
576.1290, 18387.00
577.3020, 18452.00
578.4740, 18381.00
579.6460, 18312.00
580.8180, 18209.00
581.9900, 18205.00
583.1620, 17974.00
584.3330, 18050.00
585.5040, 18001.00
586.6760, 17859.00
587.8470, 17899.00
589.0180, 17831.00
590.1880, 18028.00
591.3590, 17897.00
592.5290, 17985.00
593.7000, 18248.00
594.8700, 18169.00
596.0400, 18139.00
597.2090, 18189.00
598.3790, 18248.00
599.5490, 18494.00
600.7180, 18508.00
601.8870, 18585.00
603.0560, 18628.00
604.2250, 18658.00
605.3940, 18556.00
606.5620, 18752.00
607.7300, 18970.00
608.8990, 18851.00
610.0670, 19188.00
611.2350, 19065.00
612.4020, 19213.00
613.5700, 19199.00
614.7370, 19331.00
615.9050, 19446.00
617.0720, 19522.01
618.2390, 19648.52
619.4060, 19710.00
620.5720, 19847.00
621.7390, 19869.00
622.9050, 19924.00
624.0710, 20135.00
625.2370, 20170.00
626.4030, 20375.00
627.5690, 20412.00
628.7340, 20434.00
629.9000, 20632.00
631.0650, 20684.00
632.2300, 21000.00
633.3950, 20936.00
634.5600, 21044.00
635.7240, 20949.00
636.8890, 20928.00
638.0530, 20983.00
639.2170, 20690.00
640.3810, 20390.00
641.5450, 20479.00
642.7080, 20313.00
643.8720, 19849.00
645.0350, 20058.00
646.1980, 19785.00
647.3610, 19662.00
648.5240, 19525.00
649.6870, 19614.00
650.8490, 19463.00
652.0120, 19765.00
653.1740, 19421.00
654.3360, 19769.00
655.4980, 19620.00
656.6600, 19548.00
657.8210, 19555.00
658.9830, 19721.00
660.1440, 19782.00
661.3050, 19866.00
662.4660, 20042.00
663.6270, 19792.00
664.7870, 20104.00
665.9480, 19968.00
667.1080, 20128.00
668.2680, 20119.00
669.4280, 20089.00
670.5880, 20206.00
671.7480, 20305.00
672.9070, 20354.00
674.0670, 20621.00
675.2260, 20714.00
676.3850, 20817.00
677.5440, 20902.00
678.7030, 21347.00
679.8610, 21512.00
681.0200, 21816.00
682.1780, 22146.00
683.3360, 22468.00
684.4940, 22849.84
685.6520, 23094.00
686.8090, 23700.00
687.9670, 24181.00
689.1240, 24746.00
690.2810, 25467.27
691.4380, 26021.00
692.5950, 26989.00
693.7520, 27938.00
694.9080, 28801.00
696.0650, 30034.00
697.2210, 31493.00
698.3770, 32813.00
699.5330, 34413.00
700.6880, 36201.00
701.8440, 38326.00
702.9990, 40341.00
704.1550, 42956.00
705.3100, 45143.00
706.4650, 47955.00
707.6190, 49775.00
708.7740, 51308.00
709.9290, 52273.00
711.0830, 52173.00
712.2370, 50853.00
713.3910, 48596.00
714.5450, 45466.00
715.6980, 42198.00
716.8520, 39141.00
718.0050, 36382.00
719.1580, 33830.96
720.3110, 31403.00
721.4640, 29604.00
722.6170, 27859.00
723.7700, 26619.00
724.9220, 25691.00
726.0740, 24862.00
727.2260, 24151.00
728.3780, 23603.00
729.5300, 23056.12
730.6810, 22751.00
731.8330, 22251.00
732.9840, 22124.00
734.1350, 21849.00
735.2860, 21686.00
736.4370, 21597.00
737.5880, 21531.00
738.7380, 21591.00
739.8880, 21709.00
741.0390, 21603.00
742.1890, 21689.00
743.3380, 21970.00
744.4880, 21983.00
745.6380, 22206.00
746.7870, 22158.00
747.9360, 22067.00
749.0850, 22210.00
750.2340, 22246.00
751.3830, 22290.00
752.5310, 22256.00
753.6800, 22187.00
754.8280, 22111.00
755.9760, 21855.00
757.1240, 21874.00
758.2720, 21695.00
759.4190, 21851.00
760.5670, 21436.00
761.7140, 21266.00
762.8610, 21011.00
764.0080, 21244.00
765.1550, 20772.00
766.3020, 20784.00
767.4480, 20620.00
768.5950, 20405.00
769.7410, 20359.00
770.8870, 20487.00
772.0330, 20023.00
773.1780, 20185.00
774.3240, 20095.00
775.4690, 19912.00
776.6140, 20071.00
777.7590, 19945.00
778.9040, 19982.00
780.0490, 20025.00
781.1940, 20009.00
782.3380, 19936.00
783.4820, 20049.00
784.6260, 20143.00
785.7700, 20041.00
786.9140, 19835.00
788.0580, 19989.00
789.2010, 19980.00
790.3450, 20114.00
791.4880, 20058.00
792.6310, 20036.00
793.7730, 19874.00
794.9160, 19859.85
796.0590, 19754.00
797.2010, 19751.00
798.3430, 19731.00
799.4850, 19676.00
800.6270, 19706.00
801.7690, 19622.37
802.9100, 19572.00
804.0520, 19545.00
805.1930, 19471.00
806.3340, 19555.00
807.4750, 19525.00
808.6160, 19586.00
809.7560, 19496.00
810.8970, 19503.00
812.0370, 19295.00
813.1770, 19515.00
814.3170, 19390.00
815.4570, 19474.00
816.5960, 19331.00
817.7360, 19328.00
818.8750, 19394.00
820.0140, 19399.00
821.1530, 19554.00
822.2920, 19577.00
823.4310, 19576.99
824.5690, 19587.29
825.7070, 19502.00
826.8460, 19531.00
827.9840, 19416.00
829.1220, 19449.00
830.2590, 19617.00
831.3970, 19474.00
832.5340, 19710.00
833.6710, 19537.00
834.8080, 19700.00
835.9450, 19635.00
837.0820, 19657.00
838.2190, 19588.00
839.3550, 19640.00
840.4910, 19708.00
841.6270, 19713.00
842.7630, 19848.00
843.8990, 19845.93
845.0350, 19776.00
846.1700, 19851.00
847.3060, 19887.00
848.4410, 19798.00
849.5760, 20065.00
850.7100, 20054.00
851.8450, 20080.00
852.9800, 20146.38
854.1140, 20038.00
855.2480, 20114.00
856.3820, 20047.00
857.5160, 19968.00
858.6500, 20122.00
859.7830, 20061.00
860.9170, 20021.00
862.0500, 19942.00
863.1830, 20052.00
864.3160, 20218.00
865.4480, 19996.00
866.5810, 20217.00
867.7130, 20166.00
868.8460, 20135.00
869.9780, 20189.00
871.1100, 20399.00
872.2410, 20139.00
873.3730, 20056.00
874.5050, 20253.00
875.6360, 20178.00
876.7670, 20240.00
877.8980, 20362.00
879.0290, 20271.00
880.1590, 20291.00
881.2900, 20250.00
882.4200, 20367.00
883.5500, 20391.00
884.6800, 20460.00
885.8100, 20377.00
886.9400, 20324.00
888.0690, 20300.00
889.1990, 20499.00
890.3280, 20485.00
891.4570, 20558.00
892.5860, 20486.00
893.7140, 20617.00
894.8430, 20685.00
895.9710, 20519.00
897.1000, 20598.00
898.2280, 20804.00
899.3560, 20517.00
900.4830, 20749.00
901.6110, 20717.00
902.7380, 20841.00
903.8660, 20842.00
904.9930, 20862.00
906.1200, 21090.00
907.2460, 21115.00
908.3730, 21207.00
909.5000, 21120.00
910.6260, 21235.00
911.7520, 21125.00
912.8780, 21161.00
914.0040, 21322.00
915.1290, 21492.00
916.2550, 21155.00
917.3800, 21330.00
918.5050, 21283.00
919.6300, 21304.00
920.7550, 21459.00
921.8800, 21530.00
923.0040, 21489.00
924.1290, 21338.00
925.2530, 21583.00
926.3770, 21522.00
927.5010, 21288.00
928.6250, 21467.00
929.7480, 21287.00
930.8720, 21599.00
931.9950, 21454.00
933.1180, 21678.00
934.2410, 21674.00
935.3640, 21712.00
936.4860, 21477.00
937.6090, 21576.00
938.7310, 21544.00
939.8530, 21602.00
940.9750, 21533.00
942.0970, 21756.00
943.2180, 21699.00
944.3400, 21745.00
945.4610, 21677.00
946.5820, 21920.00
947.7030, 21812.00
948.8240, 21846.00
949.9450, 21746.00
951.0650, 21786.00
952.1860, 22020.00
953.3060, 22023.00
954.4260, 22222.00
955.5460, 22212.00
956.6650, 22273.00
957.7850, 22270.00
958.9040, 22429.00
960.0230, 22424.00
961.1420, 22352.00
962.2610, 22445.00
963.3800, 22637.00
964.4990, 22538.00
965.6170, 22377.00
966.7350, 22518.00
967.8530, 22437.00
968.9710, 22623.00
970.0890, 22613.00
971.2070, 22726.00
972.3240, 22664.00
973.4410, 22798.00
974.5580, 22836.00
975.6750, 22833.00
976.7920, 22902.16
977.9090, 22892.00
979.0250, 22976.00
980.1410, 23015.00
981.2580, 23100.00
982.3740, 23035.00
983.4890, 23148.00
984.6050, 23353.00
985.7200, 23602.00
986.8360, 23563.00
987.9510, 23639.00
989.0660, 23521.00
990.1810, 23490.00
991.2950, 23627.00
992.4100, 23566.00
993.5240, 23513.00
994.6390, 23352.00
995.7530, 23670.00
996.8660, 23648.00
997.9800, 23873.00
999.0940, 23439.00
1000.207, 23644.00
1001.320, 23765.00
1002.433, 23745.00
1003.546, 23899.00
1004.659, 23943.00
1005.772, 23758.00
1006.884, 24046.00
1007.996, 23860.00
1009.108, 23907.00
1010.220, 23956.00
1011.332, 23958.00
1012.444, 23944.00
1013.555, 23918.00
1014.666, 24149.00
1015.777, 24096.00
1016.888, 24251.00
1017.999, 24309.00
1019.110, 24197.00
1020.220, 24225.00
1021.331, 24420.00
1022.441, 24116.00
1023.551, 24255.00
1024.661, 24098.00
1025.770, 24321.00
1026.880, 24356.00
1027.989, 24291.00
1029.098, 24168.00
1030.207, 24307.00
1031.316, 24359.00
1032.425, 24377.00
1033.533, 24413.00
1034.642, 24441.00
1035.750, 24402.00
1036.858, 24393.00
1037.966, 24462.00
1039.073, 24494.00
1040.181, 24588.96
1041.288, 24730.00
1042.396, 24767.00
1043.503, 24964.00
1044.610, 24968.00
1045.716, 25252.00
1046.823, 25346.00
1047.929, 25217.00
1049.036, 25573.00
1050.142, 25923.00
1051.248, 25817.00
1052.353, 26253.00
1053.459, 26276.00
1054.564, 26409.00
1055.670, 26719.00
1056.775, 26763.00
1057.880, 26819.00
1058.985, 26752.00
1060.089, 26823.00
1061.194, 26760.00
1062.298, 26894.00
1063.402, 26732.00
1064.506, 26563.00
1065.610, 26736.00
1066.713, 26724.00
1067.817, 26418.00
1068.920, 26552.00
1070.023, 26399.00
1071.126, 26509.00
1072.229, 26593.00
1073.332, 26470.00
1074.435, 26538.00
1075.537, 26499.00
1076.639, 26637.00
1077.741, 26604.00
1078.843, 26647.00
1079.945, 26965.00
1081.046, 27063.00
1082.148, 27578.00
1083.249, 27724.00
1084.350, 28343.00
1085.451, 28273.98
1086.551, 28857.00
1087.652, 28049.00
1088.752, 27626.00
1089.853, 27189.00
1090.953, 27074.00
1092.053, 26960.00
1093.152, 27019.00
1094.252, 26908.00
1095.351, 27026.00
1096.451, 27129.00
1097.550, 27118.00
1098.649, 27185.00
1099.748, 27236.41
1100.846, 26961.00
1101.945, 27306.00
1103.043, 27322.00
1104.141, 27288.00
1105.239, 27541.00
1106.337, 27557.00
1107.434, 27599.00
1108.532, 27835.00
1109.629, 28034.00
1110.726, 28134.00
1111.823, 27907.00
1112.920, 28242.00
1114.017, 28148.00
1115.113, 28516.00
1116.210, 28556.00
1117.306, 28477.00
1118.402, 28822.00
1119.498, 28817.00
1120.593, 28933.00
1121.689, 29355.00
1122.784, 29603.00
1123.879, 29376.00
1124.974, 29605.00
1126.069, 29602.00
1127.164, 29615.00
1128.259, 29827.00
1129.353, 29831.00
1130.447, 30194.00
1131.541, 30065.00
1132.635, 30178.00
1133.729, 30070.00
1134.822, 30160.00
1135.916, 30266.00
1137.009, 30012.00
1138.102, 30029.00
1139.195, 29596.00
1140.288, 29420.00
1141.380, 28884.00
1142.473, 28470.00
1143.565, 27843.00
1144.657, 27642.00
1145.749, 27138.00
1146.841, 26917.00
1147.932, 26653.00
1149.024, 26249.00
1150.115, 26204.00
1151.206, 26064.00
1152.297, 25730.00
1153.388, 25736.23
1154.479, 25631.70
1155.569, 25673.00
1156.659, 25594.00
1157.750, 25764.00
1158.839, 25741.00
1159.929, 25667.00
1161.019, 25587.00
1162.108, 25498.00
1163.198, 25549.00
1164.287, 25486.00
1165.376, 25578.00
1166.465, 25522.00
1167.553, 25731.00
1168.642, 25366.00
1169.730, 25494.00
1170.818, 25484.00
1171.906, 25764.00
1172.994, 25562.00
1174.082, 25487.00
1175.170, 25512.00
1176.257, 25659.00
1177.344, 25698.00
1178.431, 25613.00
1179.518, 25787.00
1180.605, 25676.00
1181.691, 25671.00
1182.778, 25674.00
1183.864, 25779.00
1184.950, 25648.00
1186.036, 25622.00
1187.122, 25721.00
1188.207, 25650.00
1189.292, 25837.00
1190.378, 25817.98
1191.463, 25871.00
1192.548, 25814.00
1193.632, 25882.00
1194.717, 25762.00
1195.801, 25828.00
1196.886, 26028.00
1197.970, 25918.00
1199.054, 26027.33
1200.137, 25958.00
1201.221, 26055.00
1202.305, 26036.00
1203.388, 25986.00
1204.471, 26022.00
1205.554, 26156.00
1206.637, 26027.00
1207.719, 26291.00
1208.802, 26101.00
1209.884, 26173.00
1210.966, 26403.00
1212.048, 26294.00
1213.130, 26263.00
1214.212, 26361.00
1215.293, 26296.00
1216.374, 26328.00
1217.456, 26512.00
1218.536, 26386.00
1219.617, 26286.00
1220.698, 26607.00
1221.778, 26547.00
1222.859, 26502.00
1223.939, 26476.00
1225.019, 26513.85
1226.099, 26634.00
1227.178, 26635.00
1228.258, 26702.00
1229.337, 26764.00
1230.417, 26666.00
1231.496, 26769.00
1232.574, 26661.00
1233.653, 26664.00
1234.732, 26930.00
1235.810, 26656.00
1236.888, 26812.00
1237.966, 26770.00
1239.044, 26960.00
1240.122, 26889.00
1241.199, 26872.00
1242.277, 26790.00
1243.354, 26965.00
1244.431, 26870.00
1245.508, 27036.00
1246.585, 27100.00
1247.661, 26906.00
1248.738, 27042.00
1249.814, 27097.00
1250.890, 27057.00
1251.966, 26931.00
1253.042, 26878.00
1254.117, 27030.00
1255.193, 26926.00
1256.268, 27001.00
1257.343, 27259.00
1258.418, 27327.00
1259.493, 27367.36
1260.567, 27418.29
1261.642, 27325.00
1262.716, 27399.00
1263.790, 27278.00
1264.864, 27325.00
1265.938, 27470.00
1267.011, 27377.00
1268.085, 27171.00
1269.158, 27506.00
1270.231, 27254.00
1271.304, 27481.00
1272.377, 27409.00
1273.450, 27436.00
1274.522, 27441.00
1275.594, 27333.00
1276.666, 27383.00
1277.738, 27562.00
1278.810, 27501.00
1279.882, 27557.00
1280.953, 27446.00
1282.025, 27658.00
1283.096, 27625.00
1284.167, 27658.00
1285.238, 27699.00
1286.308, 28123.00
1287.379, 27793.00
1288.449, 28013.00
1289.519, 27947.00
1290.589, 27900.00
1291.659, 28055.00
1292.729, 27987.00
1293.798, 28150.00
1294.868, 27934.00
1295.937, 28102.00
1297.006, 28187.00
1298.075, 28063.00
1299.143, 28155.00
1300.212, 28169.00
1301.280, 28192.00
1302.348, 28250.00
1303.416, 28518.00
1304.484, 28441.00
1305.552, 28548.13
1306.620, 28640.00
1307.687, 28588.00
1308.754, 28432.00
1309.821, 28397.00
1310.888, 28345.00
1311.955, 28588.00
1313.021, 28529.00
1314.088, 28450.00
1315.154, 28574.00
1316.220, 28510.00
1317.286, 28505.00
1318.352, 28652.00
1319.417, 28610.53
1320.483, 28680.00
1321.548, 28697.00
1322.613, 28649.00
1323.678, 28743.00
1324.743, 28680.00
1325.807, 28627.00
