##NAMES=Polylithionite
##RRUFFID=R050132
##IDEAL CHEMISTRY=KLi_2_AlSi_4_O_10_F_2_
##LOCALITY=Brown Derby mine, Ohio City, Gunnison County, Colorado, USA
##OWNER=RRUFF
##SOURCE=Dave Bunk Minerals
##DESCRIPTION=Purple scaly aggregate, polytype 2M1
##STATUS=The identification of this mineral has been confirmed by X-ray diffraction and chemical analysis
##URL=rruff.info/R050132
##MEASURED CHEMISTRY=(K_0.90_Rb_0.10_)(Li_0.62_Al_0.38_)_3_(Si_0.93_Al_0.07_)_4_O_10_(F_0.69_(OH)_0.31_)_2_
##PIN_ID=M00149
##ORIENTATION=Laser parallel to -b* (0 -1 0). Fiducial mark perpendicular to laser is parallel to -c [0 0 -1]
126.7490, 26363.00
127.9790, 26547.00
129.2090, 26396.00
130.4390, 26704.00
131.6680, 26356.00
132.8980, 26657.00
134.1270, 26685.00
135.3560, 26529.00
136.5850, 26531.00
137.8140, 26867.00
139.0430, 26980.00
140.2710, 26876.00
141.5000, 26979.00
142.7280, 26962.00
143.9560, 27121.00
145.1840, 27247.00
146.4120, 27157.00
147.6390, 27311.00
148.8670, 27248.00
150.0940, 27426.00
151.3210, 27496.00
152.5490, 27635.00
153.7750, 27739.12
155.0020, 28037.00
156.2290, 27952.00
157.4550, 28090.00
158.6810, 28236.00
159.9080, 28604.00
161.1340, 28771.00
162.3590, 29430.00
163.5850, 29808.00
164.8110, 30092.00
166.0360, 30623.00
167.2610, 31027.00
168.4860, 31655.00
169.7110, 32298.00
170.9360, 33138.00
172.1610, 33782.00
173.3850, 34525.00
174.6100, 35503.00
175.8340, 35793.00
177.0580, 36363.00
178.2820, 36758.00
179.5050, 37006.00
180.7290, 37139.00
181.9520, 37186.06
183.1760, 36913.00
184.3990, 36932.00
185.6220, 36550.00
186.8450, 36152.00
188.0670, 35784.00
189.2900, 35657.00
190.5120, 35266.00
191.7340, 35288.00
192.9560, 35166.00
194.1780, 34764.00
195.4000, 34557.00
196.6220, 34132.00
197.8430, 33826.00
199.0640, 33523.00
200.2860, 33385.00
201.5070, 32868.00
202.7270, 32842.00
203.9480, 32797.00
205.1690, 32316.00
206.3890, 32455.00
207.6090, 32121.00
208.8290, 32148.00
210.0490, 32335.00
211.2690, 32357.00
212.4890, 32513.00
213.7080, 32299.00
214.9280, 32425.00
216.1470, 32422.00
217.3660, 32271.00
218.5850, 32384.00
219.8030, 32098.00
221.0220, 32167.00
222.2400, 32505.00
223.4590, 32335.00
224.6770, 32332.00
225.8950, 32851.00
227.1120, 32908.00
228.3300, 32980.00
229.5480, 33501.00
230.7650, 33550.00
231.9820, 33954.00
233.1990, 34634.00
234.4160, 34853.00
235.6330, 35086.00
236.8490, 35563.00
238.0660, 36034.00
239.2820, 36354.00
240.4980, 36689.00
241.7140, 37044.00
242.9300, 37174.00
244.1460, 37753.00
245.3610, 38191.00
246.5770, 38413.00
247.7920, 39007.00
249.0070, 39496.00
250.2220, 40274.00
251.4370, 40888.00
252.6510, 42162.00
253.8660, 43098.00
255.0800, 44038.00
256.2940, 44976.00
257.5080, 46047.00
258.7220, 47137.00
259.9360, 47289.00
261.1490, 46944.00
262.3630, 46065.00
263.5760, 44883.00
264.7890, 43705.00
266.0020, 42250.00
267.2150, 40837.00
268.4270, 39118.00
269.6400, 37955.00
270.8520, 36782.00
272.0640, 35823.00
273.2760, 34985.75
274.4880, 34160.00
275.7000, 33666.00
276.9120, 33317.00
278.1230, 32941.00
279.3340, 32645.13
280.5450, 32409.00
281.7560, 32188.00
282.9670, 31954.00
284.1780, 31822.00
285.3880, 31829.00
286.5980, 31455.00
287.8090, 31609.00
289.0190, 31486.00
290.2290, 31548.00
291.4380, 31261.00
292.6480, 31515.00
293.8570, 31338.00
295.0670, 31290.00
296.2760, 31349.00
297.4850, 31240.17
298.6930, 31226.00
299.9020, 31221.00
301.1110, 31274.00
302.3190, 31376.00
303.5270, 31214.00
304.7350, 31154.00
305.9430, 31341.00
307.1510, 31203.00
308.3580, 31203.00
309.5660, 31391.00
310.7730, 30947.00
311.9800, 31149.00
313.1870, 31156.00
314.3940, 31047.00
315.6010, 30977.00
316.8070, 31024.08
318.0130, 30963.00
319.2200, 31156.00
320.4260, 31164.00
321.6310, 31327.00
322.8370, 31117.00
324.0430, 31420.00
325.2480, 31155.00
326.4540, 31221.00
327.6590, 31387.00
328.8640, 31327.00
330.0680, 31208.00
331.2730, 31171.00
332.4780, 31194.00
333.6820, 31109.00
334.8860, 31125.00
336.0900, 31213.00
337.2940, 30936.00
338.4980, 31147.00
339.7010, 31308.00
340.9050, 30989.00
342.1080, 31133.00
343.3110, 30841.00
344.5140, 31135.00
345.7170, 31051.00
346.9200, 31195.00
348.1220, 31388.00
349.3240, 31011.00
350.5270, 31115.00
351.7290, 31187.00
352.9310, 31197.00
354.1320, 31212.00
355.3340, 31311.00
356.5350, 31315.20
357.7370, 31439.00
358.9380, 31473.00
360.1390, 31433.00
361.3400, 31691.00
362.5400, 31664.00
363.7410, 31856.00
364.9410, 31940.00
366.1410, 31885.00
367.3410, 31799.00
368.5410, 32337.00
369.7410, 32038.00
370.9400, 32351.00
372.1400, 32246.00
373.3390, 32761.00
374.5380, 32768.00
375.7370, 32733.00
376.9360, 32884.00
378.1350, 32887.00
379.3330, 33012.00
380.5310, 33259.00
381.7300, 33169.00
382.9280, 33155.00
384.1260, 33444.00
385.3230, 33604.00
386.5210, 33483.00
387.7180, 33687.00
388.9160, 33615.00
390.1130, 33770.00
391.3100, 34274.00
392.5060, 34126.00
393.7030, 34192.00
394.9000, 34120.00
396.0960, 34768.00
397.2920, 34603.00
398.4880, 34592.00
399.6840, 34838.00
400.8800, 34760.00
402.0750, 35119.00
403.2710, 34943.00
404.4660, 34904.00
405.6610, 34659.00
406.8560, 34917.00
408.0510, 34771.00
409.2450, 34795.00
410.4400, 34754.00
411.6340, 34352.00
412.8280, 33982.00
414.0220, 34118.00
415.2160, 34064.00
416.4100, 33724.00
417.6030, 34026.00
418.7970, 33740.00
419.9900, 33676.00
421.1830, 33477.00
422.3760, 33536.00
423.5690, 33617.00
424.7610, 33496.00
425.9540, 33531.00
427.1460, 33548.00
428.3380, 33475.00
429.5300, 33503.00
430.7220, 33521.00
431.9140, 33247.00
433.1050, 33427.00
434.2970, 33443.00
435.4880, 33308.00
436.6790, 33566.00
437.8700, 33347.00
439.0610, 33519.00
440.2510, 33438.00
441.4420, 33186.00
442.6320, 33410.00
443.8220, 33518.00
445.0120, 33511.00
446.2020, 33527.00
447.3910, 33658.00
448.5810, 33660.00
449.7700, 33553.00
450.9600, 33544.00
452.1490, 33759.00
453.3370, 33578.00
454.5260, 33752.00
455.7150, 33784.00
456.9030, 33725.00
458.0910, 33786.00
459.2800, 34151.00
460.4670, 33912.00
461.6550, 34046.00
462.8430, 33894.00
464.0300, 34066.00
465.2180, 34237.00
466.4050, 34024.00
467.5920, 34304.00
468.7790, 34303.00
469.9650, 34336.00
471.1520, 34375.00
472.3380, 34479.00
473.5250, 34433.00
474.7110, 34383.00
475.8970, 34553.00
477.0820, 34475.00
478.2680, 34521.00
479.4540, 34163.00
480.6390, 34377.00
481.8240, 34656.00
483.0090, 34197.00
484.1940, 34022.00
485.3780, 34140.00
486.5630, 34294.00
487.7470, 34399.00
488.9320, 33966.00
490.1160, 34093.00
491.3000, 34028.00
492.4830, 34333.00
493.6670, 34156.00
494.8500, 34274.00
496.0340, 34174.00
497.2170, 34362.00
498.4000, 34349.00
499.5820, 33920.00
500.7650, 34199.00
501.9480, 34153.00
503.1300, 34118.00
504.3120, 34406.00
505.4940, 34618.00
506.6760, 34712.00
507.8580, 34445.00
509.0390, 34702.00
510.2210, 34664.00
511.4020, 34489.00
512.5830, 34761.00
513.7640, 34739.00
514.9450, 34913.00
516.1250, 34925.00
517.3060, 34991.00
518.4860, 34918.00
519.6660, 35049.75
520.8460, 35054.00
522.0260, 35239.00
523.2060, 35261.00
524.3850, 35297.00
525.5650, 35267.00
526.7440, 35289.00
527.9230, 35472.00
529.1020, 35440.00
530.2810, 35429.00
531.4590, 35795.00
532.6380, 35628.00
533.8160, 35560.00
534.9940, 35721.00
536.1720, 35883.00
537.3500, 35863.00
538.5270, 36147.00
539.7050, 35964.00
540.8820, 36283.00
542.0590, 36085.00
543.2360, 36209.00
544.4130, 36460.00
545.5900, 36567.00
546.7660, 36474.00
547.9430, 36713.00
549.1190, 36693.00
550.2950, 37064.00
551.4710, 36992.00
552.6470, 37404.00
553.8220, 37384.00
554.9980, 37488.00
556.1730, 37544.00
557.3480, 37697.00
558.5230, 37675.00
559.6980, 37883.00
560.8730, 37697.00
562.0470, 37966.00
563.2220, 38002.00
564.3960, 38096.00
565.5700, 37772.00
566.7440, 37479.00
567.9170, 37645.00
569.0910, 37502.00
570.2640, 37496.00
571.4380, 37394.00
572.6110, 37127.00
573.7840, 37218.00
574.9570, 37012.00
576.1290, 37347.00
577.3020, 37144.00
578.4740, 36876.00
579.6460, 36925.00
580.8180, 36641.00
581.9900, 36973.00
583.1620, 36773.00
584.3330, 36977.00
585.5040, 37065.00
586.6760, 36849.00
587.8470, 36844.00
589.0180, 36880.00
590.1880, 37031.00
591.3590, 36961.00
592.5290, 37019.00
593.7000, 37259.00
594.8700, 37156.00
596.0400, 37236.00
597.2090, 37289.00
598.3790, 37499.00
599.5490, 37508.00
600.7180, 37529.00
601.8870, 37562.00
603.0560, 37741.00
604.2250, 37656.00
605.3940, 37725.00
606.5620, 37940.00
607.7300, 38008.00
608.8990, 37993.00
610.0670, 37922.00
611.2350, 38038.00
612.4020, 38356.00
613.5700, 38231.00
614.7370, 38167.00
615.9050, 38605.00
617.0720, 38388.00
618.2390, 38718.00
619.4060, 39006.00
620.5720, 38874.00
621.7390, 39096.00
622.9050, 39213.00
624.0710, 39335.00
625.2370, 38990.00
626.4030, 39122.00
627.5690, 39090.00
628.7340, 39210.00
629.9000, 38689.00
631.0650, 38737.00
632.2300, 38994.00
633.3950, 38695.00
634.5600, 38877.00
635.7240, 38821.00
636.8890, 38838.00
638.0530, 38639.00
639.2170, 38722.00
640.3810, 38754.00
641.5450, 38640.00
642.7080, 38832.00
643.8720, 39027.00
645.0350, 38978.00
646.1980, 39142.00
647.3610, 38928.00
648.5240, 39126.00
649.6870, 38862.00
650.8490, 39105.00
652.0120, 39385.00
653.1740, 39184.00
654.3360, 38962.00
655.4980, 39077.00
656.6600, 39257.00
657.8210, 39245.00
658.9830, 39214.00
660.1440, 39162.00
661.3050, 39177.27
662.4660, 39186.26
663.6270, 39202.00
664.7870, 39325.00
665.9480, 39370.00
667.1080, 39461.70
668.2680, 39488.00
669.4280, 39639.00
670.5880, 39782.00
671.7480, 39849.00
672.9070, 40048.00
674.0670, 40015.00
675.2260, 40213.07
676.3850, 40348.13
677.5440, 40564.00
678.7030, 40693.00
679.8610, 40949.00
681.0200, 41163.00
682.1780, 41348.00
683.3360, 41587.00
684.4940, 42072.00
685.6520, 42516.00
686.8090, 42933.00
687.9670, 43195.00
689.1240, 43903.00
690.2810, 44300.00
691.4380, 45119.00
692.5950, 45867.39
693.7520, 46816.00
694.9080, 47673.00
696.0650, 48652.00
697.2210, 49812.00
698.3770, 51045.00
699.5330, 52379.00
700.6880, 53869.00
701.8440, 55412.00
702.9990, 57114.00
704.1550, 58683.00
705.3100, 60065.00
706.4650, 61575.00
707.6190, 62668.00
708.7740, 62892.00
709.9290, 62870.00
711.0830, 62093.00
712.2370, 60596.00
713.3910, 58515.00
714.5450, 56552.00
715.6980, 54390.00
716.8520, 52177.00
718.0050, 50670.00
719.1580, 49070.00
720.3110, 47574.00
721.4640, 46364.00
722.6170, 45230.00
723.7700, 44770.00
724.9220, 44248.00
726.0740, 43519.00
727.2260, 43257.00
728.3780, 42763.00
729.5300, 42607.00
730.6810, 42518.00
731.8330, 41925.00
732.9840, 41981.00
734.1350, 41970.00
735.2860, 41790.00
736.4370, 41775.00
737.5880, 42024.00
738.7380, 42112.00
739.8880, 42024.00
741.0390, 41901.00
742.1890, 42085.00
743.3380, 42363.00
744.4880, 42105.00
745.6380, 42450.00
746.7870, 42228.00
747.9360, 42418.00
749.0850, 42336.00
750.2340, 42373.00
751.3830, 42499.00
752.5310, 42439.00
753.6800, 42485.00
754.8280, 42267.00
755.9760, 42284.00
757.1240, 42327.00
758.2720, 42033.00
759.4190, 42101.00
760.5670, 41912.00
761.7140, 41875.00
762.8610, 41862.00
764.0080, 41603.00
765.1550, 41516.00
766.3020, 41652.00
767.4480, 41310.00
768.5950, 41523.00
769.7410, 41426.00
770.8870, 41298.00
772.0330, 41382.00
773.1780, 41399.00
774.3240, 41247.00
775.4690, 41372.00
776.6140, 41254.00
777.7590, 41514.00
778.9040, 41501.00
780.0490, 41418.00
781.1940, 41631.00
782.3380, 41212.00
783.4820, 41424.00
784.6260, 41550.00
785.7700, 41362.00
786.9140, 41403.00
788.0580, 41415.00
789.2010, 41419.00
790.3450, 41613.00
791.4880, 41783.00
792.6310, 41393.00
793.7730, 41590.00
794.9160, 41474.00
796.0590, 41394.00
797.2010, 41186.00
798.3430, 41583.00
799.4850, 41311.00
800.6270, 41585.00
801.7690, 41625.00
802.9100, 41324.00
804.0520, 41701.00
805.1930, 41441.00
806.3340, 41551.00
807.4750, 41504.00
808.6160, 41712.00
809.7560, 41620.00
810.8970, 41736.00
812.0370, 41540.00
813.1770, 41822.00
814.3170, 41735.00
815.4570, 41605.00
816.5960, 41481.00
817.7360, 41761.00
818.8750, 41589.00
820.0140, 41892.00
821.1530, 41970.00
822.2920, 41721.00
823.4310, 41897.00
824.5690, 41979.00
825.7070, 41904.00
826.8460, 42127.00
827.9840, 41924.00
829.1220, 41957.00
830.2590, 42082.00
831.3970, 41936.00
832.5340, 42307.00
833.6710, 42116.00
834.8080, 42226.00
835.9450, 42305.00
837.0820, 42343.00
838.2190, 42386.00
839.3550, 42490.00
840.4910, 42465.00
841.6270, 42529.45
842.7630, 42606.23
843.8990, 42598.00
845.0350, 42775.00
846.1700, 42831.00
847.3060, 42933.00
848.4410, 43100.00
849.5760, 43044.00
850.7100, 43374.00
851.8450, 43247.00
852.9800, 43344.00
854.1140, 43298.00
855.2480, 43354.00
856.3820, 43444.36
857.5160, 43712.00
858.6500, 43691.00
859.7830, 43706.00
860.9170, 43932.00
862.0500, 43771.00
863.1830, 43928.00
864.3160, 43534.00
865.4480, 43760.00
866.5810, 43386.00
867.7130, 43462.00
868.8460, 43441.00
869.9780, 43594.00
871.1100, 43495.00
872.2410, 43433.00
873.3730, 43433.00
874.5050, 43389.00
875.6360, 43674.00
876.7670, 43818.00
877.8980, 43751.00
879.0290, 43543.00
880.1590, 43564.00
881.2900, 43620.00
882.4200, 43617.00
883.5500, 43664.47
884.6800, 43663.00
885.8100, 43740.00
886.9400, 43824.00
888.0690, 43872.36
889.1990, 43694.00
890.3280, 43951.00
891.4570, 43735.00
892.5860, 43725.00
893.7140, 43962.00
894.8430, 43863.00
895.9710, 44128.00
897.1000, 44176.00
898.2280, 44410.00
899.3560, 44185.00
900.4830, 44552.00
901.6110, 44146.00
902.7380, 44410.00
903.8660, 44136.00
904.9930, 44322.00
906.1200, 44345.00
907.2460, 44422.00
908.3730, 44403.00
909.5000, 44568.00
910.6260, 44667.00
911.7520, 44843.00
912.8780, 44829.49
914.0040, 45005.00
915.1290, 44751.00
916.2550, 44758.00
917.3800, 44644.00
918.5050, 44578.46
919.6300, 44752.00
920.7550, 44630.00
921.8800, 44713.00
923.0040, 44998.00
924.1290, 44856.00
925.2530, 44767.00
926.3770, 45026.00
927.5010, 44650.00
928.6250, 44912.00
929.7480, 44916.00
930.8720, 45011.00
931.9950, 44942.00
933.1180, 45081.00
934.2410, 44774.00
935.3640, 45003.00
936.4860, 45018.00
937.6090, 45037.00
938.7310, 45158.18
939.8530, 45334.00
940.9750, 45326.00
942.0970, 45322.00
943.2180, 45482.00
944.3400, 45423.00
945.4610, 45622.00
946.5820, 45691.00
947.7030, 45663.00
948.8240, 45411.00
949.9450, 45541.00
951.0650, 45626.00
952.1860, 45848.00
953.3060, 45870.00
954.4260, 45969.00
955.5460, 46243.00
956.6650, 45968.00
957.7850, 46297.00
958.9040, 46294.00
960.0230, 46060.00
961.1420, 46052.00
962.2610, 46149.00
963.3800, 45925.00
964.4990, 46452.00
965.6170, 46125.00
966.7350, 46365.00
967.8530, 46238.00
968.9710, 46214.00
970.0890, 46092.00
971.2070, 45946.00
972.3240, 46584.00
973.4410, 46566.00
974.5580, 46605.00
975.6750, 46675.00
976.7920, 46382.00
977.9090, 46712.00
979.0250, 46522.00
980.1410, 46645.00
981.2580, 46747.00
982.3740, 47028.00
983.4890, 46992.00
984.6050, 46671.00
985.7200, 47081.00
986.8360, 46709.00
987.9510, 46706.00
989.0660, 46948.00
990.1810, 47263.00
991.2950, 47245.00
992.4100, 47309.00
993.5240, 47103.00
994.6390, 47308.00
995.7530, 47392.00
996.8660, 47582.00
997.9800, 47558.00
999.0940, 47882.00
1000.207, 48149.00
1001.320, 48026.00
1002.433, 47981.00
1003.546, 47890.00
1004.659, 48023.00
1005.772, 48134.00
1006.884, 47758.00
1007.996, 48008.00
1009.108, 47900.00
1010.220, 47931.00
1011.332, 47931.00
1012.444, 47953.00
1013.555, 48303.00
1014.666, 48296.00
1015.777, 48155.00
1016.888, 48397.00
1017.999, 48281.00
1019.110, 48302.00
1020.220, 48477.00
1021.331, 48442.00
1022.441, 48407.00
1023.551, 48461.00
1024.661, 48513.00
1025.770, 48244.00
1026.880, 48621.00
1027.989, 48648.00
1029.098, 48219.00
1030.207, 48311.00
1031.316, 48333.00
1032.425, 48251.00
1033.533, 48354.00
1034.642, 48543.00
1035.750, 48537.00
1036.858, 48553.00
1037.966, 48813.00
1039.073, 48780.00
1040.181, 48831.00
1041.288, 48909.00
1042.396, 48963.00
1043.503, 49081.62
1044.610, 49271.00
1045.716, 49396.00
1046.823, 49499.00
1047.929, 49797.00
1049.036, 50025.00
1050.142, 50021.00
1051.248, 49904.00
1052.353, 50221.00
1053.459, 50222.00
1054.564, 50412.00
1055.670, 50642.00
1056.775, 50495.00
1057.880, 50576.00
1058.985, 50809.00
1060.089, 50760.00
1061.194, 50706.00
1062.298, 50642.00
1063.402, 50857.00
1064.506, 50690.00
1065.610, 50774.00
1066.713, 50786.00
1067.817, 50584.00
1068.920, 50784.00
1070.023, 50616.00
1071.126, 50517.00
1072.229, 50501.00
1073.332, 50674.00
1074.435, 50431.00
1075.537, 50853.00
1076.639, 50891.00
1077.741, 50760.00
1078.843, 50958.00
1079.945, 51171.00
1081.046, 51242.00
1082.148, 51392.00
1083.249, 50949.00
1084.350, 51299.00
1085.451, 51426.00
1086.551, 51152.00
1087.652, 51394.00
1088.752, 51379.00
1089.853, 51369.00
1090.953, 51212.00
1092.053, 51500.00
1093.152, 51369.00
1094.252, 51465.00
1095.351, 51339.00
1096.451, 51362.00
1097.550, 51596.00
1098.649, 51260.00
1099.748, 51746.00
1100.846, 51862.00
1101.945, 52180.00
1103.043, 52209.00
1104.141, 52058.00
1105.239, 52389.00
1106.337, 51888.00
1107.434, 52337.00
1108.532, 52531.00
1109.629, 52491.00
1110.726, 52418.00
1111.823, 52611.00
1112.920, 52625.00
1114.017, 52752.00
1115.113, 52736.00
1116.210, 52871.00
1117.306, 52892.00
1118.402, 53018.00
1119.498, 53109.87
1120.593, 53474.00
1121.689, 53320.00
1122.784, 53595.00
1123.879, 53729.00
1124.974, 53654.00
1126.069, 53834.00
1127.164, 53876.00
1128.259, 53896.00
1129.353, 53996.00
1130.447, 54211.00
1131.541, 54358.00
1132.635, 54263.00
1133.729, 54562.00
1134.822, 54406.00
1135.916, 54447.00
1137.009, 54079.00
1138.102, 53766.00
1139.195, 53695.00
1140.288, 53870.00
1141.380, 53032.00
1142.473, 53078.00
1143.565, 52778.00
1144.657, 52354.00
1145.749, 51990.00
1146.841, 51924.00
1147.932, 51786.00
1149.024, 51555.00
1150.115, 51571.00
1151.206, 51445.00
1152.297, 51444.00
1153.388, 51422.00
1154.479, 51346.00
1155.569, 51183.00
1156.659, 51321.00
1157.750, 51263.00
1158.839, 51091.00
1159.929, 51425.00
1161.019, 51157.00
1162.108, 51483.00
1163.198, 51320.00
1164.287, 51601.00
1165.376, 51442.00
1166.465, 51377.00
1167.553, 51420.00
1168.642, 51524.00
1169.730, 51393.00
1170.818, 51625.00
1171.906, 51432.00
1172.994, 51430.00
1174.082, 51444.00
1175.170, 51661.00
1176.257, 51791.00
1177.344, 51785.00
1178.431, 51403.00
1179.518, 51455.00
1180.605, 51331.00
1181.691, 51443.00
1182.778, 51360.00
1183.864, 51902.00
1184.950, 51485.00
1186.036, 51957.00
1187.122, 51697.00
1188.207, 51759.00
1189.292, 51817.00
1190.378, 51638.00
1191.463, 51905.00
1192.548, 51713.00
1193.632, 51703.00
1194.717, 51829.00
1195.801, 51838.00
1196.886, 51960.00
1197.970, 52150.00
1199.054, 52090.00
1200.137, 52049.00
1201.221, 52158.00
1202.305, 52241.00
1203.388, 52171.00
1204.471, 52222.00
1205.554, 51929.00
1206.637, 52330.00
1207.719, 52225.00
1208.802, 52020.00
1209.884, 52277.00
1210.966, 52461.00
1212.048, 52292.00
1213.130, 52613.00
1214.212, 52702.00
1215.293, 52702.00
1216.374, 52709.00
1217.456, 52700.00
1218.536, 52455.00
1219.617, 52539.00
1220.698, 52773.00
1221.778, 52607.00
1222.859, 52951.00
1223.939, 52724.00
1225.019, 52774.00
1226.099, 52663.00
1227.178, 52802.00
1228.258, 53107.00
1229.337, 52698.00
1230.417, 52750.00
1231.496, 53019.00
1232.574, 53269.00
1233.653, 53140.00
1234.732, 52895.00
1235.810, 53176.00
1236.888, 53052.00
1237.966, 53565.00
1239.044, 53146.00
1240.122, 53511.00
1241.199, 53306.00
1242.277, 53402.00
1243.354, 53535.00
1244.431, 53362.00
1245.508, 53569.00
1246.585, 53583.00
1247.661, 53470.00
1248.738, 53647.00
1249.814, 53848.00
1250.890, 53999.00
1251.966, 53485.00
1253.042, 53361.00
1254.117, 53669.00
1255.193, 53513.00
1256.268, 53902.00
1257.343, 53617.00
1258.418, 53624.00
1259.493, 53673.00
1260.567, 53694.00
1261.642, 53860.08
1262.716, 54510.00
1263.790, 54157.00
1264.864, 54450.00
1265.938, 54453.00
1267.011, 54105.00
1268.085, 54349.00
1269.158, 54284.00
1270.231, 54521.00
1271.304, 54409.00
1272.377, 54616.00
1273.450, 54421.00
1274.522, 54504.00
1275.594, 54494.00
1276.666, 54498.00
1277.738, 54334.00
1278.810, 54209.00
1279.882, 54352.00
1280.953, 54245.62
1282.025, 54553.00
1283.096, 54304.00
1284.167, 54535.00
1285.238, 54673.00
1286.308, 54339.00
1287.379, 54550.00
1288.449, 54532.00
1289.519, 54606.00
1290.589, 54676.00
1291.659, 54685.00
1292.729, 55050.00
1293.798, 54696.00
1294.868, 54995.00
1295.937, 54751.00
1297.006, 55017.00
1298.075, 54977.00
1299.143, 55067.00
