##NAMES=Polylithionite
##RRUFFID=R050132
##IDEAL CHEMISTRY=KLi_2_AlSi_4_O_10_F_2_
##LOCALITY=Brown Derby mine, Ohio City, Gunnison County, Colorado, USA
##OWNER=RRUFF
##SOURCE=Dave Bunk Minerals
##DESCRIPTION=Purple scaly aggregate, polytype 2M1
##STATUS=The identification of this mineral has been confirmed by X-ray diffraction and chemical analysis
##URL=rruff.info/R050132
##MEASURED CHEMISTRY=(K_0.90_Rb_0.10_)(Li_0.62_Al_0.38_)_3_(Si_0.93_Al_0.07_)_4_O_10_(F_0.69_(OH)_0.31_)_2_
##PIN_ID=L00606
##ORIENTATION=Laser parallel to (1 0 1). Fiducial mark perpendicular to laser is parallel to -b [0 -1 0]
157.4550, 22082.00
158.6810, 21928.92
159.9080, 22307.00
161.1340, 21934.00
162.3590, 22433.00
163.5850, 22584.00
164.8110, 22870.00
166.0360, 23296.00
167.2610, 23394.00
168.4860, 23923.00
169.7110, 24232.00
170.9360, 24701.00
172.1610, 25358.00
173.3850, 25759.00
174.6100, 26578.00
175.8340, 27133.00
177.0580, 27580.00
178.2820, 27918.00
179.5050, 27934.00
180.7290, 28017.00
181.9520, 27873.00
183.1760, 27735.00
184.3990, 27365.00
185.6220, 27254.00
186.8450, 26972.00
188.0670, 26568.00
189.2900, 26430.00
190.5120, 26387.00
191.7340, 26392.00
192.9560, 26323.00
194.1780, 26303.00
195.4000, 26075.00
196.6220, 26350.00
197.8430, 26053.00
199.0640, 25813.00
200.2860, 25742.00
201.5070, 25403.00
202.7270, 25414.00
203.9480, 25130.00
205.1690, 24610.00
206.3890, 24529.00
207.6090, 24462.00
208.8290, 24540.00
210.0490, 24608.00
211.2690, 24489.00
212.4890, 24518.00
213.7080, 24419.00
214.9280, 24419.00
216.1470, 23981.00
217.3660, 23846.00
218.5850, 23730.00
219.8030, 23531.00
221.0220, 23429.00
222.2400, 23540.00
223.4590, 23340.00
224.6770, 23569.00
225.8950, 23329.00
227.1120, 23457.00
228.3300, 23817.00
229.5480, 23866.00
230.7650, 24047.00
231.9820, 24254.00
233.1990, 24730.00
234.4160, 25014.00
235.6330, 25239.00
236.8490, 25426.00
238.0660, 25861.00
239.2820, 25995.00
240.4980, 26235.00
241.7140, 26791.00
242.9300, 27323.00
244.1460, 27687.00
245.3610, 27914.00
246.5770, 28479.00
247.7920, 28850.00
249.0070, 29563.00
250.2220, 29975.00
251.4370, 31190.00
252.6510, 31853.00
253.8660, 33194.00
255.0800, 34248.00
256.2940, 35806.00
257.5080, 37194.00
258.7220, 38833.00
259.9360, 39795.00
261.1490, 39500.00
262.3630, 39304.00
263.5760, 38393.00
264.7890, 36947.00
266.0020, 35582.00
267.2150, 33720.00
268.4270, 32546.00
269.6400, 30806.00
270.8520, 29246.00
272.0640, 28092.00
273.2760, 27142.00
274.4880, 26419.00
275.7000, 25883.00
276.9120, 25430.00
278.1230, 25028.00
279.3340, 24515.00
280.5450, 24280.37
281.7560, 24297.00
282.9670, 23922.00
284.1780, 23796.00
285.3880, 23876.00
286.5980, 23575.00
287.8090, 23404.00
289.0190, 23350.00
290.2290, 23355.00
291.4380, 23406.00
292.6480, 23144.00
293.8570, 23184.00
295.0670, 23125.00
296.2760, 23290.00
297.4850, 23252.89
298.6930, 23245.00
299.9020, 23261.00
301.1110, 23315.00
302.3190, 23273.00
303.5270, 23256.00
304.7350, 23209.00
305.9430, 23242.00
307.1510, 22934.00
308.3580, 23158.00
309.5660, 23025.00
310.7730, 23072.00
311.9800, 23157.00
313.1870, 23080.00
314.3940, 23042.00
315.6010, 23132.00
316.8070, 23095.00
318.0130, 23015.00
319.2200, 23202.00
320.4260, 23268.00
321.6310, 23049.00
322.8370, 23252.00
324.0430, 23187.00
325.2480, 23264.00
326.4540, 23315.00
327.6590, 23282.00
328.8640, 23173.00
330.0680, 23189.00
331.2730, 22935.00
332.4780, 23026.00
333.6820, 22910.00
334.8860, 22837.00
336.0900, 22917.00
337.2940, 22973.00
338.4980, 22652.00
339.7010, 22673.00
340.9050, 22836.00
342.1080, 22550.00
343.3110, 22544.00
344.5140, 22636.00
345.7170, 22484.00
346.9200, 22499.00
348.1220, 22631.00
349.3240, 22441.00
350.5270, 22762.00
351.7290, 22598.00
352.9310, 22588.00
354.1320, 22793.00
355.3340, 22578.00
356.5350, 22856.00
357.7370, 22711.00
358.9380, 22672.00
360.1390, 23021.00
361.3400, 23034.00
362.5400, 22952.00
363.7410, 23386.00
364.9410, 23200.00
366.1410, 23306.00
367.3410, 23576.00
368.5410, 23929.00
369.7410, 23695.00
370.9400, 24030.00
372.1400, 24239.00
373.3390, 24363.00
374.5380, 24521.00
375.7370, 24652.00
376.9360, 25050.00
378.1350, 25160.00
379.3330, 25281.00
380.5310, 25274.00
381.7300, 25422.00
382.9280, 25489.00
384.1260, 25616.00
385.3230, 25806.00
386.5210, 25864.00
387.7180, 26152.00
388.9160, 26062.00
390.1130, 26270.00
391.3100, 26472.00
392.5060, 26621.00
393.7030, 26796.61
394.9000, 26904.00
396.0960, 27066.00
397.2920, 27332.00
398.4880, 27408.00
399.6840, 27641.00
400.8800, 27582.00
402.0750, 27663.00
403.2710, 27531.00
404.4660, 27524.91
405.6610, 27486.20
406.8560, 27377.00
408.0510, 27325.00
409.2450, 27145.00
410.4400, 26928.00
411.6340, 26866.00
412.8280, 26480.00
414.0220, 26200.00
415.2160, 26038.00
416.4100, 25722.00
417.6030, 25448.00
418.7970, 25308.00
419.9900, 25081.00
421.1830, 24853.00
422.3760, 24985.00
423.5690, 25003.00
424.7610, 25083.00
425.9540, 24848.00
427.1460, 24655.00
428.3380, 24869.00
429.5300, 24679.00
430.7220, 24969.00
431.9140, 24651.00
433.1050, 24883.00
434.2970, 24909.00
435.4880, 24735.00
436.6790, 24786.00
437.8700, 24933.00
439.0610, 24635.00
440.2510, 24773.00
441.4420, 24837.00
442.6320, 24872.00
443.8220, 24647.00
445.0120, 24765.00
446.2020, 24965.00
447.3910, 24649.00
448.5810, 24553.00
449.7700, 24640.00
450.9600, 24747.00
452.1490, 24607.00
453.3370, 24512.00
454.5260, 24728.00
455.7150, 24549.00
456.9030, 24592.00
458.0910, 24597.00
459.2800, 24722.00
460.4670, 24462.00
461.6550, 24700.00
462.8430, 24509.00
464.0300, 24789.00
465.2180, 24847.00
466.4050, 24826.00
467.5920, 24642.00
468.7790, 24829.00
469.9650, 24952.00
471.1520, 24893.00
472.3380, 25101.00
473.5250, 24833.00
474.7110, 24963.00
475.8970, 25278.00
477.0820, 25076.00
478.2680, 24976.00
479.4540, 24986.00
480.6390, 25137.00
481.8240, 24859.00
483.0090, 24960.00
484.1940, 24865.00
485.3780, 24802.00
486.5630, 24640.00
487.7470, 24531.00
488.9320, 24554.00
490.1160, 24465.00
491.3000, 24311.00
492.4830, 24312.00
493.6670, 24044.00
494.8500, 24528.00
496.0340, 24220.00
497.2170, 24393.00
498.4000, 24226.00
499.5820, 24324.00
500.7650, 24314.00
501.9480, 24264.00
503.1300, 24350.19
504.3120, 24372.00
505.4940, 24449.00
506.6760, 24411.00
507.8580, 24461.00
509.0390, 24436.00
510.2210, 24643.00
511.4020, 24656.00
512.5830, 24788.00
513.7640, 24763.00
514.9450, 24864.00
516.1250, 24955.00
517.3060, 24885.00
518.4860, 25098.00
519.6660, 25122.00
520.8460, 25142.00
522.0260, 25040.00
523.2060, 25241.00
524.3850, 25270.00
525.5650, 25387.00
526.7440, 25407.00
527.9230, 25492.00
529.1020, 25478.00
530.2810, 25518.00
531.4590, 25680.00
532.6380, 25508.00
533.8160, 25580.00
534.9940, 25575.00
536.1720, 25699.00
537.3500, 25731.00
538.5270, 25877.00
539.7050, 25865.00
540.8820, 26033.00
542.0590, 25895.00
543.2360, 26117.00
544.4130, 26214.00
545.5900, 26556.00
546.7660, 26324.00
547.9430, 26593.00
549.1190, 26735.00
550.2950, 26694.00
551.4710, 26827.00
552.6470, 27128.00
553.8220, 27479.00
554.9980, 27378.00
556.1730, 27643.00
557.3480, 27915.00
558.5230, 28191.00
559.6980, 27779.00
560.8730, 27767.00
562.0470, 27982.00
563.2220, 28187.00
564.3960, 28124.00
565.5700, 28036.00
566.7440, 27881.00
567.9170, 27785.45
569.0910, 27687.91
570.2640, 27491.00
571.4380, 27487.00
572.6110, 27275.00
573.7840, 27122.00
574.9570, 27009.00
576.1290, 26816.00
577.3020, 26962.00
578.4740, 26850.00
579.6460, 26742.00
580.8180, 26426.00
581.9900, 26525.00
583.1620, 26220.00
584.3330, 26498.00
585.5040, 26541.00
586.6760, 26287.00
587.8470, 26557.00
589.0180, 26490.00
590.1880, 26324.00
591.3590, 26502.00
592.5290, 26383.00
593.7000, 26547.00
594.8700, 26552.00
596.0400, 26914.00
597.2090, 26812.00
598.3790, 27288.00
599.5490, 27001.00
600.7180, 27328.00
601.8870, 27125.00
603.0560, 27264.00
604.2250, 27418.00
605.3940, 27416.00
606.5620, 27389.00
607.7300, 27277.00
608.8990, 27659.00
610.0670, 27722.00
611.2350, 27556.00
612.4020, 27559.00
613.5700, 27593.22
614.7370, 27786.00
615.9050, 27714.00
617.0720, 27808.00
618.2390, 27935.00
619.4060, 27859.00
620.5720, 28082.00
621.7390, 27820.00
622.9050, 28002.00
624.0710, 28112.00
625.2370, 28143.00
626.4030, 28072.00
627.5690, 28207.00
628.7340, 28350.00
629.9000, 28597.00
631.0650, 28353.00
632.2300, 28343.00
633.3950, 28605.00
634.5600, 28433.00
635.7240, 28689.00
636.8890, 28430.00
638.0530, 28377.00
639.2170, 28329.00
640.3810, 28249.00
641.5450, 28196.00
642.7080, 27958.00
643.8720, 27638.00
645.0350, 27867.00
646.1980, 27821.00
647.3610, 27506.00
648.5240, 27865.00
649.6870, 27625.00
650.8490, 27663.00
652.0120, 27686.00
653.1740, 27837.00
654.3360, 27820.00
655.4980, 27886.00
656.6600, 27926.00
657.8210, 28070.00
658.9830, 27981.00
660.1440, 28056.00
661.3050, 28288.00
662.4660, 28162.00
663.6270, 28388.00
664.7870, 28336.00
665.9480, 28472.00
667.1080, 28741.00
668.2680, 28675.00
669.4280, 28710.00
670.5880, 28586.00
671.7480, 28968.00
672.9070, 29213.00
674.0670, 29057.00
675.2260, 29527.00
676.3850, 29538.00
677.5440, 29831.00
678.7030, 30058.00
679.8610, 30290.00
681.0200, 30578.67
682.1780, 30831.45
683.3360, 31183.00
684.4940, 31462.00
685.6520, 31875.00
686.8090, 32361.00
687.9670, 33023.00
689.1240, 33561.00
690.2810, 34112.00
691.4380, 35210.00
692.5950, 35657.00
693.7520, 36694.00
694.9080, 37672.00
696.0650, 38921.00
697.2210, 40423.00
698.3770, 41727.00
699.5330, 43184.00
700.6880, 45249.00
701.8440, 47116.00
702.9990, 49228.00
704.1550, 51605.00
705.3100, 53754.00
706.4650, 56285.00
707.6190, 57919.00
708.7740, 59263.00
709.9290, 59627.00
711.0830, 59265.00
712.2370, 57674.00
713.3910, 55354.00
714.5450, 52438.00
715.6980, 49456.00
716.8520, 46302.00
718.0050, 43927.00
719.1580, 41205.00
720.3110, 39573.00
721.4640, 38016.00
722.6170, 36477.00
723.7700, 35295.00
724.9220, 34326.00
726.0740, 33738.00
727.2260, 33169.00
728.3780, 32290.00
729.5300, 32348.00
730.6810, 31719.00
731.8330, 31662.00
732.9840, 31442.00
734.1350, 31330.00
735.2860, 31042.00
736.4370, 31009.00
737.5880, 30934.00
738.7380, 31223.00
739.8880, 31198.00
741.0390, 31268.00
742.1890, 31438.00
743.3380, 31315.00
744.4880, 31680.00
745.6380, 31627.00
746.7870, 31751.00
747.9360, 31756.00
749.0850, 31871.00
750.2340, 31898.00
751.3830, 31936.00
752.5310, 31958.00
753.6800, 31760.00
754.8280, 31734.53
755.9760, 31745.00
757.1240, 31494.00
758.2720, 31460.00
759.4190, 31338.00
760.5670, 31105.00
761.7140, 30967.00
762.8610, 30723.00
764.0080, 30624.00
765.1550, 30681.00
766.3020, 30453.00
767.4480, 30367.00
768.5950, 30080.00
769.7410, 30133.00
770.8870, 29994.00
772.0330, 29715.00
773.1780, 29763.00
774.3240, 30057.00
775.4690, 29706.00
776.6140, 29845.00
777.7590, 29812.00
778.9040, 29818.00
780.0490, 30016.00
781.1940, 29839.00
782.3380, 30100.00
783.4820, 29838.00
784.6260, 29934.00
785.7700, 29655.00
786.9140, 30038.00
788.0580, 30100.00
789.2010, 29858.00
790.3450, 29988.00
791.4880, 29889.00
792.6310, 29984.00
793.7730, 29757.00
794.9160, 29805.00
796.0590, 29961.00
797.2010, 29686.00
798.3430, 29780.00
799.4850, 29789.00
800.6270, 29842.00
801.7690, 29628.00
802.9100, 29783.00
804.0520, 29722.00
805.1930, 29786.00
806.3340, 29504.00
807.4750, 29478.00
808.6160, 29548.00
809.7560, 29438.00
810.8970, 29692.00
812.0370, 29460.00
813.1770, 29562.00
814.3170, 29712.00
815.4570, 29755.00
816.5960, 29641.00
817.7360, 29520.00
818.8750, 29471.00
820.0140, 29557.00
821.1530, 29644.00
822.2920, 29610.00
823.4310, 29645.00
824.5690, 29830.00
825.7070, 29780.00
826.8460, 29848.00
827.9840, 29697.00
829.1220, 30002.00
830.2590, 29717.00
831.3970, 30009.00
832.5340, 29958.00
833.6710, 29941.00
834.8080, 29816.00
835.9450, 29902.00
837.0820, 29966.00
838.2190, 30072.00
839.3550, 29939.00
840.4910, 29932.00
841.6270, 30208.00
842.7630, 30072.00
843.8990, 30205.00
845.0350, 30109.00
846.1700, 30363.00
847.3060, 30383.00
848.4410, 30318.00
849.5760, 30405.00
850.7100, 30351.00
851.8450, 30525.00
852.9800, 30307.00
854.1140, 30437.00
855.2480, 30424.00
856.3820, 30642.00
857.5160, 30471.00
858.6500, 30539.00
859.7830, 30550.00
860.9170, 30701.00
862.0500, 30775.00
863.1830, 30557.00
864.3160, 30460.00
865.4480, 30579.00
866.5810, 30724.00
867.7130, 30815.00
868.8460, 30778.00
869.9780, 30812.00
871.1100, 30838.00
872.2410, 30831.00
873.3730, 30856.11
874.5050, 30855.79
875.6360, 30884.00
876.7670, 30855.00
877.8980, 30882.00
879.0290, 30876.00
880.1590, 31114.00
881.2900, 30952.00
882.4200, 31163.00
883.5500, 31284.00
884.6800, 31170.00
885.8100, 31164.00
886.9400, 31364.00
888.0690, 30982.00
889.1990, 31282.00
890.3280, 31338.00
891.4570, 31361.00
892.5860, 31592.00
893.7140, 31581.00
894.8430, 31351.00
895.9710, 31684.00
897.1000, 31516.00
898.2280, 31457.00
899.3560, 31499.00
900.4830, 31667.00
901.6110, 31845.00
902.7380, 31899.61
903.8660, 31884.00
904.9930, 31997.00
906.1200, 32130.00
907.2460, 32023.00
908.3730, 32116.00
909.5000, 32143.00
910.6260, 32298.00
911.7520, 32336.66
912.8780, 32613.00
914.0040, 32457.00
915.1290, 32650.00
916.2550, 32698.00
917.3800, 32440.00
918.5050, 32400.00
919.6300, 32848.00
920.7550, 32582.00
921.8800, 32776.00
923.0040, 32672.00
924.1290, 32575.00
925.2530, 32951.00
926.3770, 32663.00
927.5010, 32616.00
928.6250, 32842.00
929.7480, 32894.00
930.8720, 32892.00
931.9950, 32634.00
933.1180, 32711.00
934.2410, 32793.00
935.3640, 32958.00
936.4860, 33021.67
937.6090, 32991.00
938.7310, 33111.00
939.8530, 33069.00
940.9750, 32892.00
942.0970, 33078.00
943.2180, 33298.00
944.3400, 33173.00
945.4610, 33201.00
946.5820, 33297.00
947.7030, 33519.00
948.8240, 33386.00
949.9450, 33557.46
951.0650, 33570.00
952.1860, 33707.00
953.3060, 33786.00
954.4260, 33857.00
955.5460, 33716.00
956.6650, 33926.00
957.7850, 33988.00
958.9040, 34148.00
960.0230, 34366.00
961.1420, 33976.00
962.2610, 34203.00
963.3800, 34182.00
964.4990, 34492.00
965.6170, 34799.00
966.7350, 34235.00
967.8530, 34245.00
968.9710, 34157.00
970.0890, 34277.00
971.2070, 34542.00
972.3240, 34460.00
973.4410, 34373.00
974.5580, 34519.00
975.6750, 34410.00
976.7920, 34790.00
977.9090, 34615.00
979.0250, 34591.00
980.1410, 34873.00
981.2580, 34778.00
982.3740, 34812.00
983.4890, 34711.00
984.6050, 34727.77
985.7200, 34927.00
986.8360, 34835.00
987.9510, 35157.00
989.0660, 35434.00
990.1810, 35203.00
991.2950, 35504.00
992.4100, 35403.00
993.5240, 35197.00
994.6390, 35297.00
995.7530, 35420.00
996.8660, 35759.00
997.9800, 35361.00
999.0940, 35609.00
1000.207, 35502.00
1001.320, 35524.00
1002.433, 35716.00
1003.546, 35841.00
1004.659, 35944.00
1005.772, 35830.00
1006.884, 36091.00
1007.996, 35750.00
1009.108, 35635.00
1010.220, 36127.00
1011.332, 35945.00
1012.444, 36025.00
1013.555, 36144.00
1014.666, 36079.00
1015.777, 36227.08
1016.888, 36195.00
1017.999, 36326.00
1019.110, 36195.00
1020.220, 36023.00
1021.331, 36356.00
1022.441, 36283.00
1023.551, 36143.00
1024.661, 36203.00
1025.770, 36434.00
1026.880, 36070.00
1027.989, 36265.00
1029.098, 36138.00
1030.207, 36286.00
1031.316, 36082.00
1032.425, 36144.00
1033.533, 36209.00
1034.642, 36460.00
1035.750, 36261.00
1036.858, 36157.00
1037.966, 36303.00
1039.073, 36205.00
1040.181, 36211.00
1041.288, 36314.00
1042.396, 36490.00
1043.503, 36478.00
1044.610, 36595.00
1045.716, 36659.00
1046.823, 36873.00
1047.929, 37079.00
1049.036, 37032.00
1050.142, 37222.00
1051.248, 37174.00
1052.353, 37563.00
1053.459, 37439.00
1054.564, 37752.00
1055.670, 37589.00
1056.775, 37757.00
1057.880, 37790.00
1058.985, 37932.00
1060.089, 38011.00
1061.194, 37990.00
1062.298, 37960.00
1063.402, 38011.17
1064.506, 38066.00
1065.610, 37947.00
1066.713, 37997.59
1067.817, 37993.00
1068.920, 37988.00
1070.023, 38051.00
1071.126, 38088.00
1072.229, 37937.00
1073.332, 38110.00
1074.435, 38203.00
1075.537, 38415.00
1076.639, 38256.00
1077.741, 38415.00
1078.843, 38649.00
1079.945, 38505.00
1081.046, 38808.80
1082.148, 38800.80
1083.249, 39024.00
1084.350, 39004.00
1085.451, 38707.00
1086.551, 39005.00
1087.652, 39322.00
1088.752, 39092.00
1089.853, 38986.00
1090.953, 39123.00
1092.053, 38993.00
1093.152, 38936.00
1094.252, 38943.00
1095.351, 39155.00
1096.451, 39279.00
1097.550, 39228.00
1098.649, 39230.00
1099.748, 39092.00
1100.846, 39320.00
1101.945, 39255.00
1103.043, 39242.00
1104.141, 39569.00
1105.239, 39505.00
1106.337, 39588.00
1107.434, 39945.00
1108.532, 39860.00
1109.629, 39880.00
1110.726, 40137.00
1111.823, 40080.00
1112.920, 40036.00
1114.017, 40296.00
1115.113, 40439.00
1116.210, 40420.00
1117.306, 40538.00
1118.402, 40851.00
1119.498, 40744.00
1120.593, 40834.00
1121.689, 41127.00
1122.784, 41079.00
1123.879, 41058.00
1124.974, 41279.00
1126.069, 41022.00
1127.164, 41047.00
1128.259, 41012.00
1129.353, 40794.00
1130.447, 40997.00
1131.541, 40958.00
1132.635, 40989.00
1133.729, 40930.00
1134.822, 40887.00
1135.916, 40932.00
1137.009, 40877.00
1138.102, 40761.00
1139.195, 40394.00
1140.288, 40473.00
1141.380, 40022.00
1142.473, 39753.00
1143.565, 39585.00
1144.657, 39108.00
1145.749, 39348.00
1146.841, 38824.00
1147.932, 38965.00
1149.024, 39026.00
1150.115, 38747.00
1151.206, 38548.00
1152.297, 38349.00
1153.388, 38473.00
1154.479, 38478.00
1155.569, 38611.00
1156.659, 38480.00
1157.750, 38242.00
1158.839, 38439.00
1159.929, 38553.00
1161.019, 38226.00
1162.108, 38436.00
1163.198, 38684.00
1164.287, 38430.00
1165.376, 38612.00
1166.465, 38488.00
1167.553, 38619.00
1168.642, 38502.00
1169.730, 38469.00
1170.818, 38682.00
1171.906, 38581.00
1172.994, 38544.00
1174.082, 38675.00
1175.170, 38855.00
1176.257, 38793.00
1177.344, 38996.00
1178.431, 38516.00
1179.518, 38760.00
1180.605, 38885.00
1181.691, 38591.00
1182.778, 38788.00
1183.864, 38990.00
1184.950, 38818.00
1186.036, 39021.00
1187.122, 38932.00
1188.207, 39079.00
1189.292, 39100.00
1190.378, 38928.00
1191.463, 39075.00
1192.548, 38885.00
1193.632, 39177.00
1194.717, 39147.00
1195.801, 39193.00
1196.886, 39442.00
1197.970, 39229.00
1199.054, 39186.00
1200.137, 39293.00
1201.221, 39494.00
1202.305, 39299.00
1203.388, 39473.00
1204.471, 39517.00
1205.554, 39527.00
1206.637, 39618.00
1207.719, 39512.00
1208.802, 39713.00
1209.884, 39574.00
1210.966, 39811.00
1212.048, 39672.00
1213.130, 39396.00
1214.212, 39742.00
1215.293, 39696.00
1216.374, 39812.00
1217.456, 39868.00
1218.536, 40107.00
1219.617, 40126.00
1220.698, 39854.00
1221.778, 39833.00
1222.859, 40181.00
1223.939, 40158.00
1225.019, 40327.00
1226.099, 40281.00
1227.178, 40234.00
1228.258, 39935.00
1229.337, 40203.00
1230.417, 40166.00
1231.496, 40395.00
1232.574, 40159.00
1233.653, 40163.00
1234.732, 40509.00
1235.810, 40331.00
1236.888, 40461.00
1237.966, 40528.00
1239.044, 40466.00
1240.122, 40504.00
1241.199, 40506.00
1242.277, 40511.00
1243.354, 40696.00
1244.431, 40645.00
1245.508, 40584.00
1246.585, 40708.00
1247.661, 40500.00
1248.738, 40621.00
1249.814, 40676.00
1250.890, 40584.00
1251.966, 40542.00
1253.042, 40620.00
1254.117, 40567.00
1255.193, 40472.00
1256.268, 40510.00
1257.343, 40650.00
1258.418, 40729.00
1259.493, 40659.00
1260.567, 41010.00
1261.642, 41198.00
1262.716, 41147.00
1263.790, 41317.00
1264.864, 41230.00
1265.938, 41307.00
1267.011, 41399.00
1268.085, 40982.00
1269.158, 40956.00
1270.231, 41160.00
1271.304, 41314.00
1272.377, 41389.00
1273.450, 41431.00
1274.522, 41187.00
1275.594, 41340.00
1276.666, 41524.00
1277.738, 41500.00
1278.810, 41807.00
1279.882, 41558.00
1280.953, 41585.00
1282.025, 41653.00
1283.096, 41416.00
1284.167, 41624.00
1285.238, 41739.00
1286.308, 41631.00
1287.379, 41735.00
1288.449, 41854.00
1289.519, 42081.00
1290.589, 41966.00
1291.659, 41883.00
1292.729, 41912.00
1293.798, 41910.00
1294.868, 42191.00
1295.937, 42176.00
1297.006, 42065.00
1298.075, 42036.00
1299.143, 41862.00
1300.212, 42239.00
1301.280, 42458.00
1302.348, 42209.00
1303.416, 42437.00
1304.484, 42266.00
1305.552, 42426.00
1306.620, 42222.00
1307.687, 42279.00
1308.754, 42578.00
1309.821, 42444.00
1310.888, 42656.00
1311.955, 42649.00
1313.021, 42517.00
1314.088, 42547.00
1315.154, 42947.00
1316.220, 42873.00
1317.286, 42928.00
1318.352, 42874.00
1319.417, 42998.00
1320.483, 42958.00
1321.548, 42767.00
1322.613, 42929.00
1323.678, 42791.00
1324.743, 42910.00
1325.807, 43272.00
