##NAMES=Polylithionite
##RRUFFID=R050132
##IDEAL CHEMISTRY=KLi_2_AlSi_4_O_10_F_2_
##LOCALITY=Brown Derby mine, Ohio City, Gunnison County, Colorado, USA
##OWNER=RRUFF
##SOURCE=Dave Bunk Minerals
##DESCRIPTION=Purple scaly aggregate, polytype 2M1
##STATUS=The identification of this mineral has been confirmed by X-ray diffraction and chemical analysis
##URL=rruff.info/R050132
##MEASURED CHEMISTRY=(K_0.90_Rb_0.10_)(Li_0.62_Al_0.38_)_3_(Si_0.93_Al_0.07_)_4_O_10_(F_0.69_(OH)_0.31_)_2_
##PIN_ID=M00149
##ORIENTATION=Laser parallel to -b* (0 -1 0). Fiducial mark perpendicular to laser is parallel to -c [0 0 -1]
126.7490, 20782.00
127.9790, 20821.00
129.2090, 21023.00
130.4390, 21138.00
131.6680, 21104.00
132.8980, 21203.00
134.1270, 20868.00
135.3560, 20947.00
136.5850, 20864.00
137.8140, 20983.00
139.0430, 21215.00
140.2710, 21444.00
141.5000, 21445.00
142.7280, 21007.00
143.9560, 21342.00
145.1840, 21340.00
146.4120, 21384.00
147.6390, 21626.00
148.8670, 21391.00
150.0940, 21672.00
151.3210, 21844.00
152.5490, 21953.00
153.7750, 21981.00
155.0020, 22215.00
156.2290, 22396.00
157.4550, 22631.00
158.6810, 22829.00
159.9080, 22994.00
161.1340, 23289.00
162.3590, 23885.00
163.5850, 24490.00
164.8110, 25039.00
166.0360, 25318.00
167.2610, 26222.00
168.4860, 27015.00
169.7110, 27810.00
170.9360, 28830.00
172.1610, 29643.00
173.3850, 30393.00
174.6100, 31487.00
175.8340, 32541.00
177.0580, 33333.00
178.2820, 33981.00
179.5050, 34580.00
180.7290, 34663.00
181.9520, 34876.00
183.1760, 34712.00
184.3990, 34805.00
185.6220, 34350.00
186.8450, 34058.00
188.0670, 33633.00
189.2900, 33320.00
190.5120, 33248.00
191.7340, 32747.00
192.9560, 32525.00
194.1780, 32200.00
195.4000, 31608.00
196.6220, 31082.00
197.8430, 30784.00
199.0640, 29903.00
200.2860, 29575.00
201.5070, 29191.00
202.7270, 28759.00
203.9480, 28501.00
205.1690, 28196.00
206.3890, 27688.00
207.6090, 27670.00
208.8290, 27783.00
210.0490, 27499.00
211.2690, 27643.00
212.4890, 27530.00
213.7080, 27496.00
214.9280, 27539.00
216.1470, 27523.00
217.3660, 27453.00
218.5850, 27477.00
219.8030, 27506.00
221.0220, 27702.00
222.2400, 27696.00
223.4590, 27973.00
224.6770, 27874.00
225.8950, 28127.00
227.1120, 28382.00
228.3300, 28914.00
229.5480, 29310.00
230.7650, 29640.16
231.9820, 29984.00
233.1990, 30402.00
234.4160, 30751.53
235.6330, 31100.00
236.8490, 31542.00
238.0660, 31963.00
239.2820, 32417.00
240.4980, 32494.00
241.7140, 33405.00
242.9300, 33691.00
244.1460, 34105.00
245.3610, 34800.00
246.5770, 35225.00
247.7920, 35888.00
249.0070, 36370.00
250.2220, 37147.00
251.4370, 38116.00
252.6510, 39420.00
253.8660, 40298.00
255.0800, 41452.00
256.2940, 42619.00
257.5080, 43650.00
258.7220, 45148.00
259.9360, 44927.00
261.1490, 44449.00
262.3630, 43918.00
263.5760, 42589.00
264.7890, 41133.00
266.0020, 39294.00
267.2150, 37278.00
268.4270, 35555.00
269.6400, 33813.00
270.8520, 32314.00
272.0640, 30772.00
273.2760, 29817.00
274.4880, 29187.00
275.7000, 28155.00
276.9120, 27553.00
278.1230, 26885.00
279.3340, 26687.00
280.5450, 26222.00
281.7560, 26218.00
282.9670, 25902.00
284.1780, 25617.00
285.3880, 25340.00
286.5980, 25234.00
287.8090, 25114.00
289.0190, 25073.00
290.2290, 25048.00
291.4380, 24960.51
292.6480, 24718.00
293.8570, 24804.00
295.0670, 24775.00
296.2760, 24626.00
297.4850, 24759.00
298.6930, 24569.00
299.9020, 24756.00
301.1110, 24681.00
302.3190, 24536.00
303.5270, 24344.00
304.7350, 24431.00
305.9430, 24425.00
307.1510, 24563.00
308.3580, 24302.00
309.5660, 24372.00
310.7730, 24097.00
311.9800, 24181.00
313.1870, 24428.00
314.3940, 24134.00
315.6010, 24112.00
316.8070, 24192.00
318.0130, 24192.00
319.2200, 24194.00
320.4260, 24241.00
321.6310, 24066.00
322.8370, 24124.00
324.0430, 24117.00
325.2480, 24119.00
326.4540, 24206.00
327.6590, 24262.00
328.8640, 24126.00
330.0680, 24173.00
331.2730, 24251.00
332.4780, 24215.00
333.6820, 23989.00
334.8860, 23973.00
336.0900, 24064.00
337.2940, 23990.00
338.4980, 24251.00
339.7010, 24096.00
340.9050, 24078.00
342.1080, 24309.00
343.3110, 24192.00
344.5140, 24203.00
345.7170, 24271.00
346.9200, 24297.00
348.1220, 24345.00
349.3240, 24382.00
350.5270, 24345.00
351.7290, 24482.00
352.9310, 24427.00
354.1320, 24424.00
355.3340, 24799.00
356.5350, 24763.00
357.7370, 24747.00
358.9380, 24629.00
360.1390, 24919.00
361.3400, 24775.00
362.5400, 24906.00
363.7410, 24740.00
364.9410, 24951.00
366.1410, 24887.00
367.3410, 25160.00
368.5410, 25163.00
369.7410, 25049.00
370.9400, 25066.00
372.1400, 25427.00
373.3390, 25341.00
374.5380, 25424.00
375.7370, 25689.00
376.9360, 25609.00
378.1350, 25600.00
379.3330, 25627.00
380.5310, 25716.00
381.7300, 25883.00
382.9280, 25989.00
384.1260, 25988.00
385.3230, 26105.00
386.5210, 26082.00
387.7180, 26326.00
388.9160, 26348.00
390.1130, 26432.00
391.3100, 26433.00
392.5060, 26572.01
393.7030, 26688.00
394.9000, 26805.00
396.0960, 26932.11
397.2920, 27023.00
398.4880, 27175.22
399.6840, 27273.00
400.8800, 27394.00
402.0750, 27388.00
403.2710, 27456.00
404.4660, 27738.00
405.6610, 27308.00
406.8560, 27415.00
408.0510, 27398.00
409.2450, 27076.00
410.4400, 27099.00
411.6340, 26920.00
412.8280, 27035.00
414.0220, 26805.00
415.2160, 26699.00
416.4100, 26502.00
417.6030, 26321.00
418.7970, 26322.00
419.9900, 26433.00
421.1830, 26284.00
422.3760, 26419.00
423.5690, 26152.00
424.7610, 26134.00
425.9540, 26083.00
427.1460, 26208.00
428.3380, 26282.00
429.5300, 26252.00
430.7220, 26208.00
431.9140, 26261.00
433.1050, 26605.00
434.2970, 26497.06
435.4880, 26437.00
436.6790, 26445.00
437.8700, 26311.00
439.0610, 26311.98
440.2510, 26310.00
441.4420, 26286.00
442.6320, 26187.00
443.8220, 26240.00
445.0120, 26311.00
446.2020, 26105.00
447.3910, 26338.00
448.5810, 26524.00
449.7700, 26637.00
450.9600, 26436.00
452.1490, 26230.00
453.3370, 26540.00
454.5260, 26513.00
455.7150, 26594.00
456.9030, 26390.00
458.0910, 26561.00
459.2800, 26774.00
460.4670, 26583.00
461.6550, 26724.00
462.8430, 26935.00
464.0300, 26930.00
465.2180, 26766.00
466.4050, 26944.00
467.5920, 26868.00
468.7790, 27037.00
469.9650, 26850.00
471.1520, 27001.00
472.3380, 27050.00
473.5250, 27070.00
474.7110, 27103.00
475.8970, 27137.00
477.0820, 26896.00
478.2680, 27201.00
479.4540, 27001.00
480.6390, 27128.00
481.8240, 26905.00
483.0090, 27097.00
484.1940, 26891.00
485.3780, 26911.00
486.5630, 27090.00
487.7470, 26838.00
488.9320, 27057.00
490.1160, 26868.00
491.3000, 27006.00
492.4830, 26939.00
493.6670, 26968.00
494.8500, 26742.00
496.0340, 26858.79
497.2170, 26967.00
498.4000, 27025.00
499.5820, 27123.00
500.7650, 27284.00
501.9480, 27126.00
503.1300, 27298.00
504.3120, 27223.00
505.4940, 27151.00
506.6760, 27466.00
507.8580, 27336.00
509.0390, 27528.00
510.2210, 27459.00
511.4020, 27197.00
512.5830, 27352.00
513.7640, 27428.00
514.9450, 27707.00
516.1250, 27566.00
517.3060, 27644.00
518.4860, 27713.00
519.6660, 27722.00
520.8460, 27776.00
522.0260, 27763.00
523.2060, 27806.84
524.3850, 27807.00
525.5650, 27895.00
526.7440, 27922.00
527.9230, 28014.00
529.1020, 28144.00
530.2810, 28158.00
531.4590, 28079.00
532.6380, 28334.00
533.8160, 28044.00
534.9940, 28271.00
536.1720, 28339.00
537.3500, 28396.00
538.5270, 28231.00
539.7050, 28493.00
540.8820, 28427.00
542.0590, 28530.00
543.2360, 28637.00
544.4130, 28692.00
545.5900, 28954.00
546.7660, 29168.00
547.9430, 29016.00
549.1190, 29033.00
550.2950, 29460.00
551.4710, 29706.00
552.6470, 29647.00
553.8220, 29495.00
554.9980, 29560.00
556.1730, 29976.00
557.3480, 29996.00
558.5230, 30292.00
559.6980, 30337.00
560.8730, 30291.00
562.0470, 30148.00
563.2220, 30223.00
564.3960, 30190.00
565.5700, 30313.00
566.7440, 29797.00
567.9170, 29805.00
569.0910, 29819.00
570.2640, 29617.00
571.4380, 29562.00
572.6110, 29523.00
573.7840, 29511.00
574.9570, 29329.00
576.1290, 29167.00
577.3020, 29390.00
578.4740, 29174.00
579.6460, 29142.00
580.8180, 29106.00
581.9900, 28781.00
583.1620, 29031.00
584.3330, 29202.00
585.5040, 28742.00
586.6760, 29135.00
587.8470, 29048.00
589.0180, 29073.00
590.1880, 29209.00
591.3590, 29010.00
592.5290, 29102.00
593.7000, 29442.00
594.8700, 29310.00
596.0400, 29319.00
597.2090, 29154.00
598.3790, 29487.00
599.5490, 29693.00
600.7180, 29527.00
601.8870, 29817.00
603.0560, 29606.00
604.2250, 29688.00
605.3940, 29773.00
606.5620, 29799.00
607.7300, 29906.00
608.8990, 29878.00
610.0670, 30054.00
611.2350, 30108.00
612.4020, 30112.00
613.5700, 30339.00
614.7370, 30388.71
615.9050, 30496.00
617.0720, 30482.00
618.2390, 30525.00
619.4060, 30577.96
620.5720, 30578.00
621.7390, 30730.00
622.9050, 30639.00
624.0710, 30849.00
625.2370, 30898.00
626.4030, 30675.00
627.5690, 30785.00
628.7340, 30660.00
629.9000, 30587.00
631.0650, 30663.00
632.2300, 30723.00
633.3950, 30560.00
634.5600, 30531.00
635.7240, 30462.00
636.8890, 30352.00
638.0530, 30739.00
639.2170, 30532.00
640.3810, 30545.00
641.5450, 30617.18
642.7080, 30415.00
643.8720, 30563.00
645.0350, 30712.00
646.1980, 30621.00
647.3610, 30697.18
648.5240, 30914.00
649.6870, 30733.00
650.8490, 30715.00
652.0120, 30902.00
653.1740, 30923.00
654.3360, 31073.00
655.4980, 31167.00
656.6600, 31056.00
657.8210, 31160.00
658.9830, 31149.00
660.1440, 31110.00
661.3050, 31126.00
662.4660, 31362.00
663.6270, 31317.00
664.7870, 31313.00
665.9480, 31412.00
667.1080, 31326.00
668.2680, 31515.00
669.4280, 31499.00
670.5880, 31499.00
671.7480, 31809.00
672.9070, 31864.00
674.0670, 31940.00
675.2260, 32254.00
676.3850, 32251.00
677.5440, 32636.00
678.7030, 32883.00
679.8610, 32982.00
681.0200, 33107.00
682.1780, 33360.00
683.3360, 33587.00
684.4940, 34109.00
685.6520, 34346.00
686.8090, 35047.00
687.9670, 35500.00
689.1240, 35757.00
690.2810, 36624.00
691.4380, 37126.00
692.5950, 37839.00
693.7520, 38522.00
694.9080, 39387.00
696.0650, 40452.00
697.2210, 41576.00
698.3770, 43313.00
699.5330, 44359.00
700.6880, 46114.00
701.8440, 47431.00
702.9990, 49309.00
704.1550, 50921.00
705.3100, 52514.00
706.4650, 54125.00
707.6190, 55377.00
708.7740, 55634.00
709.9290, 55645.00
711.0830, 55001.00
712.2370, 53642.00
713.3910, 51884.00
714.5450, 49449.00
715.6980, 47442.00
716.8520, 45145.00
718.0050, 42702.00
719.1580, 40923.00
720.3110, 39639.00
721.4640, 38253.00
722.6170, 37496.00
723.7700, 36372.00
724.9220, 35893.00
726.0740, 35106.00
727.2260, 34750.00
728.3780, 34534.00
729.5300, 34248.00
730.6810, 33888.00
731.8330, 33635.00
732.9840, 33314.00
734.1350, 33425.00
735.2860, 33440.00
736.4370, 33526.00
737.5880, 33444.00
738.7380, 33519.00
739.8880, 33450.00
741.0390, 33721.00
742.1890, 33602.00
743.3380, 33540.00
744.4880, 33789.00
745.6380, 33985.00
746.7870, 33862.00
747.9360, 33914.00
749.0850, 33860.00
750.2340, 34041.00
751.3830, 33869.00
752.5310, 34102.00
753.6800, 34167.00
754.8280, 33951.00
755.9760, 33886.00
757.1240, 33773.00
758.2720, 33669.00
759.4190, 33551.00
760.5670, 33437.00
761.7140, 33347.00
762.8610, 33266.00
764.0080, 32936.00
765.1550, 33042.00
766.3020, 32777.00
767.4480, 32847.00
768.5950, 32581.00
769.7410, 32605.00
770.8870, 32655.00
772.0330, 32740.00
773.1780, 32530.00
774.3240, 32417.00
775.4690, 32601.00
776.6140, 32736.00
777.7590, 32615.00
778.9040, 32541.00
780.0490, 32594.00
781.1940, 32525.00
782.3380, 32528.00
783.4820, 32689.00
784.6260, 32457.00
785.7700, 32532.00
786.9140, 32732.00
788.0580, 33001.00
789.2010, 32695.00
790.3450, 32556.00
791.4880, 32689.00
792.6310, 32915.00
793.7730, 32776.00
794.9160, 32639.00
796.0590, 32596.00
797.2010, 32591.08
798.3430, 32636.00
799.4850, 32676.00
800.6270, 32630.00
801.7690, 32644.00
802.9100, 32608.00
804.0520, 32530.00
805.1930, 32718.00
806.3340, 32392.00
807.4750, 32708.00
808.6160, 32787.00
809.7560, 32534.00
810.8970, 32781.00
812.0370, 32872.00
813.1770, 32728.00
814.3170, 32785.00
815.4570, 32602.00
816.5960, 32618.00
817.7360, 32616.00
818.8750, 32473.00
820.0140, 32752.00
821.1530, 32812.00
822.2920, 32706.00
823.4310, 32833.00
824.5690, 32812.00
825.7070, 32797.00
826.8460, 32737.00
827.9840, 33029.00
829.1220, 32893.00
830.2590, 32994.00
831.3970, 33181.00
832.5340, 32951.00
833.6710, 32702.00
834.8080, 33189.00
835.9450, 32938.00
837.0820, 33146.00
838.2190, 33252.00
839.3550, 33235.00
840.4910, 33447.00
841.6270, 33318.00
842.7630, 33364.00
843.8990, 33381.00
845.0350, 33446.00
846.1700, 33562.00
847.3060, 33559.00
848.4410, 33780.00
849.5760, 33822.00
850.7100, 33787.00
851.8450, 33971.47
852.9800, 34114.00
854.1140, 34142.00
855.2480, 34308.00
856.3820, 34273.00
857.5160, 34320.00
858.6500, 34428.00
859.7830, 34572.00
860.9170, 34391.00
862.0500, 34428.00
863.1830, 34271.00
864.3160, 34133.00
865.4480, 34318.00
866.5810, 33890.00
867.7130, 34204.00
868.8460, 34352.00
869.9780, 34101.00
871.1100, 33744.00
872.2410, 34061.00
873.3730, 34090.00
874.5050, 33946.00
875.6360, 34108.00
876.7670, 34227.00
877.8980, 33879.00
879.0290, 33963.00
880.1590, 34285.00
881.2900, 34169.00
882.4200, 33979.00
883.5500, 34418.00
884.6800, 34060.00
885.8100, 34185.00
886.9400, 34143.00
888.0690, 33963.00
889.1990, 33857.00
890.3280, 34243.00
891.4570, 34084.00
892.5860, 34188.00
893.7140, 34283.00
894.8430, 34250.00
895.9710, 34476.00
897.1000, 34314.00
898.2280, 34410.00
899.3560, 34312.00
900.4830, 34322.00
901.6110, 34409.00
902.7380, 34383.00
903.8660, 34246.00
904.9930, 34497.00
906.1200, 34429.00
907.2460, 34353.00
908.3730, 34725.00
909.5000, 34744.00
910.6260, 34663.00
911.7520, 34800.00
912.8780, 34609.00
914.0040, 34609.00
915.1290, 34298.00
916.2550, 34633.00
917.3800, 34649.00
918.5050, 34794.00
919.6300, 34666.00
920.7550, 34740.00
921.8800, 34677.00
923.0040, 34775.00
924.1290, 34877.00
925.2530, 34830.00
926.3770, 34830.00
927.5010, 34859.00
928.6250, 34789.00
929.7480, 35003.00
930.8720, 35028.00
931.9950, 35079.00
933.1180, 34972.00
934.2410, 35079.76
935.3640, 34995.00
936.4860, 35187.00
937.6090, 35167.00
938.7310, 35164.00
939.8530, 35149.00
940.9750, 35317.00
942.0970, 35194.00
943.2180, 35372.00
944.3400, 35077.00
945.4610, 35368.00
946.5820, 35560.00
947.7030, 35434.00
948.8240, 35446.00
949.9450, 35594.00
951.0650, 35678.00
952.1860, 35625.00
953.3060, 35710.00
954.4260, 35842.00
955.5460, 35632.00
956.6650, 35759.21
957.7850, 35703.94
958.9040, 35803.00
960.0230, 35744.00
961.1420, 35786.00
962.2610, 36004.00
963.3800, 35822.00
964.4990, 36215.00
965.6170, 36138.00
966.7350, 36220.00
967.8530, 36139.00
968.9710, 36068.00
970.0890, 36007.00
971.2070, 36360.00
972.3240, 36112.00
973.4410, 36253.00
974.5580, 36162.00
975.6750, 36506.00
976.7920, 36311.00
977.9090, 36253.00
979.0250, 36615.00
980.1410, 36247.00
981.2580, 36412.00
982.3740, 36620.00
983.4890, 36841.00
984.6050, 36842.00
985.7200, 36890.00
986.8360, 36770.00
987.9510, 36880.00
989.0660, 36927.00
990.1810, 36761.00
991.2950, 37184.00
992.4100, 37400.00
993.5240, 37322.00
994.6390, 37359.00
995.7530, 37354.00
996.8660, 37319.00
997.9800, 37484.00
999.0940, 37729.00
1000.207, 37965.00
1001.320, 38028.00
1002.433, 37804.00
1003.546, 38092.00
1004.659, 37763.00
1005.772, 37965.00
1006.884, 37844.00
1007.996, 38041.00
1009.108, 37788.00
1010.220, 37645.00
1011.332, 37986.00
1012.444, 38154.00
1013.555, 38127.00
1014.666, 37902.00
1015.777, 38139.00
1016.888, 38290.00
1017.999, 38125.00
1019.110, 38191.00
1020.220, 38510.00
1021.331, 38370.00
1022.441, 38764.00
1023.551, 38261.00
1024.661, 38556.00
1025.770, 38645.00
1026.880, 38439.00
1027.989, 38697.00
1029.098, 38537.00
1030.207, 38592.00
1031.316, 38627.00
1032.425, 38717.00
1033.533, 38930.00
1034.642, 38633.00
1035.750, 38756.00
1036.858, 38927.00
1037.966, 39179.00
1039.073, 39085.00
1040.181, 39272.00
1041.288, 39616.00
1042.396, 39368.00
1043.503, 39693.00
1044.610, 39817.00
1045.716, 39849.00
1046.823, 40042.00
1047.929, 40051.00
1049.036, 40458.00
1050.142, 40764.00
1051.248, 40958.00
1052.353, 41062.00
1053.459, 41191.00
1054.564, 41369.00
1055.670, 41356.00
1056.775, 41457.00
1057.880, 41413.00
1058.985, 41499.00
1060.089, 41699.00
1061.194, 41358.00
1062.298, 41266.00
1063.402, 41477.00
1064.506, 41226.00
1065.610, 41327.00
1066.713, 41215.00
1067.817, 41120.00
1068.920, 41014.00
1070.023, 41338.00
1071.126, 40638.00
1072.229, 41024.00
1073.332, 40771.00
1074.435, 41028.00
1075.537, 40991.00
1076.639, 40893.00
1077.741, 41067.00
1078.843, 41012.00
1079.945, 41058.00
1081.046, 40985.00
1082.148, 41022.00
1083.249, 41067.00
1084.350, 40898.00
1085.451, 40869.00
1086.551, 40742.00
1087.652, 41013.00
1088.752, 41035.00
1089.853, 41146.00
1090.953, 41232.95
1092.053, 41275.00
1093.152, 41226.00
1094.252, 41266.00
1095.351, 41306.12
1096.451, 41225.00
1097.550, 41394.00
1098.649, 41462.00
1099.748, 41464.00
1100.846, 41091.00
1101.945, 41452.00
1103.043, 41597.00
1104.141, 41697.00
1105.239, 42077.00
1106.337, 42118.00
1107.434, 41985.00
1108.532, 42227.00
1109.629, 42347.00
1110.726, 42261.00
1111.823, 42544.00
1112.920, 42607.00
1114.017, 42904.00
1115.113, 42757.00
1116.210, 43092.00
1117.306, 42758.00
1118.402, 43046.00
1119.498, 43115.00
1120.593, 43274.00
1121.689, 43397.00
1122.784, 43369.00
1123.879, 43908.00
1124.974, 44018.00
1126.069, 43817.00
1127.164, 44454.00
1128.259, 44725.00
1129.353, 44559.00
1130.447, 44501.00
1131.541, 44887.00
1132.635, 45130.00
1133.729, 45141.00
1134.822, 44985.00
1135.916, 45142.00
1137.009, 44853.00
1138.102, 44705.91
1139.195, 44421.00
1140.288, 44229.00
1141.380, 43639.00
1142.473, 43405.00
1143.565, 42751.00
1144.657, 42310.00
1145.749, 42027.00
1146.841, 41441.00
1147.932, 41543.00
1149.024, 41026.00
1150.115, 40924.00
1151.206, 40868.00
1152.297, 40284.00
1153.388, 40304.00
1154.479, 40426.00
1155.569, 40356.00
1156.659, 40364.00
1157.750, 40180.00
1158.839, 40367.00
1159.929, 40126.00
1161.019, 40631.00
1162.108, 40494.00
1163.198, 40273.00
1164.287, 40269.00
1165.376, 40185.00
1166.465, 40226.00
1167.553, 40394.00
1168.642, 40511.00
1169.730, 40429.00
1170.818, 40658.00
1171.906, 40487.00
1172.994, 40428.00
1174.082, 40420.00
1175.170, 40284.00
1176.257, 40339.00
1177.344, 40280.58
1178.431, 40243.00
1179.518, 40212.00
1180.605, 40204.00
1181.691, 40112.00
1182.778, 40375.00
1183.864, 40162.00
1184.950, 40273.00
1186.036, 40192.00
1187.122, 40076.00
1188.207, 40153.68
1189.292, 40180.00
1190.378, 40201.00
1191.463, 40142.00
1192.548, 40171.00
1193.632, 40248.00
1194.717, 40234.00
1195.801, 40343.00
1196.886, 40400.00
1197.970, 40193.00
1199.054, 40315.00
1200.137, 40496.00
1201.221, 40499.00
1202.305, 40302.00
1203.388, 40386.00
1204.471, 40392.27
1205.554, 40459.00
1206.637, 40537.00
1207.719, 40531.00
1208.802, 40610.00
1209.884, 40599.34
1210.966, 40552.00
1212.048, 40573.00
1213.130, 40877.00
1214.212, 40867.00
1215.293, 40830.00
1216.374, 40804.00
1217.456, 40803.00
1218.536, 40800.08
1219.617, 40794.46
1220.698, 40836.00
1221.778, 40791.00
1222.859, 40825.52
1223.939, 40813.00
1225.019, 40902.00
1226.099, 40954.00
1227.178, 40994.00
1228.258, 41004.00
1229.337, 41104.00
1230.417, 41202.00
1231.496, 41367.00
1232.574, 41041.00
1233.653, 41453.00
1234.732, 41437.00
1235.810, 41293.00
1236.888, 41499.00
1237.966, 41321.00
1239.044, 41619.00
1240.122, 41523.00
1241.199, 41447.00
1242.277, 41641.00
1243.354, 41562.00
1244.431, 41415.00
1245.508, 41705.00
1246.585, 41771.00
1247.661, 41614.00
1248.738, 41750.00
1249.814, 41790.00
1250.890, 41691.00
1251.966, 41551.00
1253.042, 41825.00
1254.117, 41798.00
1255.193, 41950.00
1256.268, 41633.00
1257.343, 41770.00
1258.418, 42035.00
1259.493, 41755.00
1260.567, 41806.00
1261.642, 41927.00
1262.716, 41907.00
1263.790, 41994.00
1264.864, 42138.00
1265.938, 42246.00
1267.011, 42175.00
1268.085, 42461.00
1269.158, 42475.00
1270.231, 42216.00
1271.304, 42299.00
1272.377, 42425.00
1273.450, 42481.00
1274.522, 42562.00
1275.594, 42528.00
1276.666, 42446.00
1277.738, 42289.00
1278.810, 42471.00
1279.882, 42251.00
1280.953, 42556.00
1282.025, 42623.00
1283.096, 42443.00
1284.167, 42606.00
1285.238, 42864.00
1286.308, 42493.00
1287.379, 42494.00
1288.449, 42623.00
1289.519, 42445.00
1290.589, 42876.00
1291.659, 42861.00
1292.729, 42989.00
1293.798, 43007.00
1294.868, 43245.00
1295.937, 42933.00
1297.006, 43156.00
1298.075, 43325.00
1299.143, 43173.00
