##NAMES=Polylithionite
##RRUFFID=R050132
##IDEAL CHEMISTRY=KLi_2_AlSi_4_O_10_F_2_
##LOCALITY=Brown Derby mine, Ohio City, Gunnison County, Colorado, USA
##OWNER=RRUFF
##SOURCE=Dave Bunk Minerals
##DESCRIPTION=Purple scaly aggregate, polytype 2M1
##STATUS=The identification of this mineral has been confirmed by X-ray diffraction and chemical analysis
##URL=rruff.info/R050132
##MEASURED CHEMISTRY=(K_0.90_Rb_0.10_)(Li_0.62_Al_0.38_)_3_(Si_0.93_Al_0.07_)_4_O_10_(F_0.69_(OH)_0.31_)_2_
##PIN_ID=L01426
##ORIENTATION=Laser parallel to -a* (-1 0 0). Fiducial mark perpendicular to laser is parallel to -b [0 -1 0]
157.4550, 20406.00
158.6810, 20691.00
159.9080, 20760.00
161.1340, 21209.00
162.3590, 21292.00
163.5850, 21688.00
164.8110, 22162.00
166.0360, 22612.00
167.2610, 23031.00
168.4860, 23747.00
169.7110, 24442.00
170.9360, 25012.00
172.1610, 25828.00
173.3850, 26607.00
174.6100, 27328.00
175.8340, 28369.00
177.0580, 29208.00
178.2820, 29948.00
179.5050, 30190.00
180.7290, 30714.00
181.9520, 30990.00
183.1760, 31247.00
184.3990, 30914.00
185.6220, 30603.00
186.8450, 30204.00
188.0670, 29752.00
189.2900, 29798.00
190.5120, 29469.00
191.7340, 29327.00
192.9560, 29261.00
194.1780, 29233.00
195.4000, 29074.00
196.6220, 28840.00
197.8430, 28606.00
199.0640, 28302.57
200.2860, 27877.00
201.5070, 27507.00
202.7270, 27220.00
203.9480, 26567.00
205.1690, 26291.00
206.3890, 26027.00
207.6090, 25817.00
208.8290, 25779.00
210.0490, 25716.00
211.2690, 25703.50
212.4890, 25696.76
213.7080, 25750.00
214.9280, 25735.00
216.1470, 25687.00
217.3660, 25737.00
218.5850, 25236.00
219.8030, 25186.00
221.0220, 25150.00
222.2400, 24978.00
223.4590, 25110.00
224.6770, 25252.00
225.8950, 25256.00
227.1120, 25419.00
228.3300, 25695.00
229.5480, 25965.00
230.7650, 26299.00
231.9820, 26600.00
233.1990, 26934.00
234.4160, 27303.00
235.6330, 27646.89
236.8490, 27825.00
238.0660, 28365.00
239.2820, 28734.00
240.4980, 29050.00
241.7140, 29649.00
242.9300, 29941.00
244.1460, 30452.00
245.3610, 30815.00
246.5770, 31088.00
247.7920, 31886.00
249.0070, 32169.00
250.2220, 32988.00
251.4370, 33872.00
252.6510, 34572.00
253.8660, 35428.00
255.0800, 36746.00
256.2940, 37936.00
257.5080, 39509.00
258.7220, 41088.00
259.9360, 42666.00
261.1490, 43001.00
262.3630, 43236.00
263.5760, 42445.00
264.7890, 41498.00
266.0020, 39755.00
267.2150, 37920.00
268.4270, 35788.00
269.6400, 33817.00
270.8520, 32296.00
272.0640, 30673.00
273.2760, 29586.00
274.4880, 28652.00
275.7000, 27747.00
276.9120, 26921.00
278.1230, 26379.00
279.3340, 26044.00
280.5450, 25716.00
281.7560, 25390.00
282.9670, 25079.00
284.1780, 25010.00
285.3880, 24681.00
286.5980, 24375.00
287.8090, 24381.00
289.0190, 24321.00
290.2290, 24247.00
291.4380, 24151.00
292.6480, 24198.00
293.8570, 24086.00
295.0670, 24170.00
296.2760, 24120.00
297.4850, 24237.00
298.6930, 23920.00
299.9020, 23984.00
301.1110, 23878.00
302.3190, 23981.00
303.5270, 24030.00
304.7350, 24057.00
305.9430, 23888.00
307.1510, 23821.00
308.3580, 23736.00
309.5660, 23771.00
310.7730, 23713.00
311.9800, 23699.00
313.1870, 23760.00
314.3940, 23730.00
315.6010, 23660.00
316.8070, 23773.00
318.0130, 23574.00
319.2200, 23705.00
320.4260, 23535.00
321.6310, 23764.00
322.8370, 23775.00
324.0430, 23636.00
325.2480, 23700.00
326.4540, 23871.00
327.6590, 23536.00
328.8640, 23663.00
330.0680, 23694.00
331.2730, 23941.00
332.4780, 23689.00
333.6820, 23790.00
334.8860, 23794.00
336.0900, 23623.00
337.2940, 23817.00
338.4980, 23605.00
339.7010, 23684.00
340.9050, 23526.00
342.1080, 23622.00
343.3110, 23671.00
344.5140, 23773.00
345.7170, 23554.00
346.9200, 23515.00
348.1220, 23486.00
349.3240, 23603.00
350.5270, 23564.00
351.7290, 23680.00
352.9310, 23927.00
354.1320, 23970.00
355.3340, 24081.03
356.5350, 23972.00
357.7370, 24054.00
358.9380, 24127.00
360.1390, 24096.76
361.3400, 24232.00
362.5400, 24165.00
363.7410, 24215.00
364.9410, 24330.00
366.1410, 24496.00
367.3410, 24650.00
368.5410, 24739.00
369.7410, 24866.00
370.9400, 24993.00
372.1400, 24959.00
373.3390, 25375.00
374.5380, 25303.00
375.7370, 25594.00
376.9360, 25422.00
378.1350, 25833.00
379.3330, 25838.00
380.5310, 25961.00
381.7300, 26070.00
382.9280, 26228.00
384.1260, 26354.32
385.3230, 26506.79
386.5210, 26631.00
387.7180, 26856.00
388.9160, 26985.70
390.1130, 27236.00
391.3100, 27175.00
392.5060, 27379.00
393.7030, 27359.00
394.9000, 27560.00
396.0960, 28075.00
397.2920, 28074.00
398.4880, 28300.00
399.6840, 28309.00
400.8800, 28682.00
402.0750, 28741.00
403.2710, 28656.00
404.4660, 28839.00
405.6610, 28849.00
406.8560, 28715.00
408.0510, 28640.00
409.2450, 28534.00
410.4400, 28320.82
411.6340, 28377.00
412.8280, 27930.00
414.0220, 27679.00
415.2160, 27597.00
416.4100, 27517.00
417.6030, 27102.00
418.7970, 27006.00
419.9900, 26931.00
421.1830, 26785.00
422.3760, 26599.00
423.5690, 26744.00
424.7610, 26361.00
425.9540, 26429.00
427.1460, 26247.00
428.3380, 26369.00
429.5300, 26309.00
430.7220, 26466.00
431.9140, 26509.00
433.1050, 26469.00
434.2970, 26640.00
435.4880, 26464.00
436.6790, 26632.00
437.8700, 26437.00
439.0610, 26577.00
440.2510, 26544.00
441.4420, 26732.00
442.6320, 26611.00
443.8220, 26778.00
445.0120, 26793.00
446.2020, 26842.00
447.3910, 26786.00
448.5810, 26766.00
449.7700, 26740.00
450.9600, 26910.00
452.1490, 26674.00
453.3370, 26869.00
454.5260, 26622.00
455.7150, 26623.00
456.9030, 26706.00
458.0910, 26592.00
459.2800, 26917.00
460.4670, 26687.00
461.6550, 26856.00
462.8430, 26677.00
464.0300, 26968.00
465.2180, 26965.00
466.4050, 26927.00
467.5920, 26674.00
468.7790, 27004.00
469.9650, 27070.00
471.1520, 27003.00
472.3380, 27145.00
473.5250, 27238.00
474.7110, 27064.00
475.8970, 27375.00
477.0820, 27364.00
478.2680, 27157.00
479.4540, 27268.00
480.6390, 27323.00
481.8240, 26975.00
483.0090, 27023.00
484.1940, 26948.00
485.3780, 27089.00
486.5630, 27035.00
487.7470, 27249.00
488.9320, 26611.00
490.1160, 27049.00
491.3000, 26820.00
492.4830, 27024.00
493.6670, 26877.00
494.8500, 26660.00
496.0340, 26661.00
497.2170, 26820.00
498.4000, 26852.00
499.5820, 26828.00
500.7650, 26600.00
501.9480, 26721.00
503.1300, 26878.00
504.3120, 26810.00
505.4940, 27020.00
506.6760, 26900.00
507.8580, 26932.00
509.0390, 27135.00
510.2210, 27204.00
511.4020, 27243.00
512.5830, 27111.00
513.7640, 27259.53
514.9450, 27441.00
516.1250, 27390.00
517.3060, 27646.00
518.4860, 27623.00
519.6660, 27625.00
520.8460, 27549.00
522.0260, 27704.11
523.2060, 28115.00
524.3850, 27989.00
525.5650, 28130.00
526.7440, 28222.00
527.9230, 28259.00
529.1020, 28153.00
530.2810, 28232.00
531.4590, 28409.00
532.6380, 28309.00
533.8160, 28412.00
534.9940, 28269.00
536.1720, 28689.00
537.3500, 28353.00
538.5270, 28573.00
539.7050, 28798.00
540.8820, 28808.00
542.0590, 28820.00
543.2360, 28791.00
544.4130, 28931.00
545.5900, 29108.00
546.7660, 29326.00
547.9430, 29368.00
549.1190, 29646.00
550.2950, 29540.00
551.4710, 29856.00
552.6470, 30141.00
553.8220, 30142.00
554.9980, 30279.00
556.1730, 30420.15
557.3480, 30454.38
558.5230, 30611.00
559.6980, 30661.00
560.8730, 30669.00
562.0470, 30918.00
563.2220, 31008.00
564.3960, 31082.00
565.5700, 31019.56
566.7440, 30530.00
567.9170, 30784.00
569.0910, 30417.00
570.2640, 30378.00
571.4380, 30211.00
572.6110, 30290.00
573.7840, 30227.00
574.9570, 30051.00
576.1290, 29669.00
577.3020, 29733.00
578.4740, 29692.00
579.6460, 29442.00
580.8180, 29493.00
581.9900, 29399.00
583.1620, 29283.00
584.3330, 29335.00
585.5040, 29296.00
586.6760, 29081.00
587.8470, 29291.00
589.0180, 29112.00
590.1880, 29219.00
591.3590, 29080.00
592.5290, 29391.00
593.7000, 29393.00
594.8700, 29428.00
596.0400, 29266.00
597.2090, 29627.00
598.3790, 29498.00
599.5490, 29633.00
600.7180, 29705.00
601.8870, 29835.00
603.0560, 29818.00
604.2250, 29914.00
605.3940, 29993.05
606.5620, 30062.00
607.7300, 30182.00
608.8990, 30240.00
610.0670, 30377.00
611.2350, 30217.00
612.4020, 30615.00
613.5700, 30576.00
614.7370, 30307.00
615.9050, 30555.00
617.0720, 30599.00
618.2390, 30591.00
619.4060, 30766.00
620.5720, 30881.00
621.7390, 30973.00
622.9050, 31055.00
624.0710, 31085.00
625.2370, 31093.00
626.4030, 31131.00
627.5690, 31041.00
628.7340, 31277.00
629.9000, 31088.00
631.0650, 31179.36
632.2300, 31411.00
633.3950, 31315.00
634.5600, 31357.00
635.7240, 31612.00
636.8890, 31278.00
638.0530, 31362.00
639.2170, 31355.00
640.3810, 31321.00
641.5450, 31248.00
642.7080, 31119.00
643.8720, 31002.00
645.0350, 31103.00
646.1980, 30859.00
647.3610, 30704.00
648.5240, 30749.00
649.6870, 30914.00
650.8490, 31038.00
652.0120, 31001.00
653.1740, 31366.00
654.3360, 31465.00
655.4980, 31356.00
656.6600, 31379.00
657.8210, 31411.00
658.9830, 31680.00
660.1440, 31478.00
661.3050, 31680.00
662.4660, 31787.00
663.6270, 31713.00
664.7870, 31699.00
665.9480, 31663.00
667.1080, 31728.22
668.2680, 31791.00
669.4280, 31951.00
670.5880, 32200.00
671.7480, 32429.00
672.9070, 32367.00
674.0670, 32765.00
675.2260, 32699.00
676.3850, 33072.00
677.5440, 32833.00
678.7030, 33234.00
679.8610, 33424.00
681.0200, 33974.00
682.1780, 34122.00
683.3360, 34525.17
684.4940, 34800.00
685.6520, 35222.00
686.8090, 35571.00
687.9670, 35887.00
689.1240, 36458.00
690.2810, 36994.72
691.4380, 37865.00
692.5950, 38439.00
693.7520, 39401.00
694.9080, 40467.00
696.0650, 41355.00
697.2210, 42320.00
698.3770, 43705.00
699.5330, 45435.00
700.6880, 46858.00
701.8440, 48609.00
702.9990, 50584.00
704.1550, 52566.00
705.3100, 54691.00
706.4650, 56704.00
707.6190, 58418.00
708.7740, 59580.00
709.9290, 60964.00
711.0830, 60941.00
712.2370, 60580.00
713.3910, 58270.00
714.5450, 55907.00
715.6980, 53249.00
716.8520, 50548.00
718.0050, 47601.00
719.1580, 45191.00
720.3110, 42855.00
721.4640, 41391.00
722.6170, 39765.00
723.7700, 38579.00
724.9220, 37911.00
726.0740, 36705.00
727.2260, 36581.00
728.3780, 36039.00
729.5300, 35747.00
730.6810, 35272.00
731.8330, 35067.00
732.9840, 34662.00
734.1350, 34673.00
735.2860, 34360.00
736.4370, 34657.00
737.5880, 34509.00
738.7380, 34333.00
739.8880, 34596.00
741.0390, 34503.00
742.1890, 34491.00
743.3380, 34877.00
744.4880, 34555.00
745.6380, 35245.00
746.7870, 35179.00
747.9360, 35387.00
749.0850, 35291.00
750.2340, 35408.00
751.3830, 35581.00
752.5310, 35591.00
753.6800, 35340.00
754.8280, 35332.00
755.9760, 35319.00
757.1240, 35031.00
758.2720, 35277.00
759.4190, 34967.00
760.5670, 34817.00
761.7140, 34737.00
762.8610, 34366.00
764.0080, 34443.00
765.1550, 34405.00
766.3020, 34090.00
767.4480, 33991.00
768.5950, 34161.00
769.7410, 33769.00
770.8870, 33732.00
772.0330, 33745.00
773.1780, 33540.00
774.3240, 33659.00
775.4690, 33514.00
776.6140, 33640.00
777.7590, 33458.00
778.9040, 33615.00
780.0490, 33430.00
781.1940, 33580.00
782.3380, 33659.00
783.4820, 33585.00
784.6260, 33728.00
785.7700, 33552.00
786.9140, 33683.00
788.0580, 33519.00
789.2010, 33777.00
790.3450, 33797.00
791.4880, 33493.00
792.6310, 33765.00
793.7730, 33527.00
794.9160, 33460.00
796.0590, 33350.00
797.2010, 33584.00
798.3430, 33406.00
799.4850, 33341.00
800.6270, 33784.00
801.7690, 33408.00
802.9100, 33493.00
804.0520, 33180.00
805.1930, 33344.00
806.3340, 33402.00
807.4750, 33498.00
808.6160, 33468.00
809.7560, 33392.00
810.8970, 33307.00
812.0370, 33492.00
813.1770, 33259.00
814.3170, 33288.00
815.4570, 33448.00
816.5960, 33378.00
817.7360, 33404.00
818.8750, 33371.00
820.0140, 33473.00
821.1530, 33487.00
822.2920, 33498.00
823.4310, 33469.04
824.5690, 33519.00
825.7070, 33401.00
826.8460, 33550.00
827.9840, 33666.00
829.1220, 33462.00
830.2590, 33588.00
831.3970, 33514.00
832.5340, 33726.00
833.6710, 33856.00
834.8080, 33497.00
835.9450, 33657.00
837.0820, 33901.00
838.2190, 33685.00
839.3550, 33706.00
840.4910, 33836.00
841.6270, 33727.00
842.7630, 33771.00
843.8990, 33918.00
845.0350, 33895.44
846.1700, 33998.23
847.3060, 34025.00
848.4410, 34152.00
849.5760, 34251.00
850.7100, 34365.00
851.8450, 34197.00
852.9800, 34292.00
854.1140, 34406.00
855.2480, 34233.00
856.3820, 34378.00
857.5160, 34389.00
858.6500, 34330.00
859.7830, 34617.00
860.9170, 34429.00
862.0500, 34488.00
863.1830, 34717.00
864.3160, 34588.00
865.4480, 34594.00
866.5810, 34737.00
867.7130, 34655.00
868.8460, 34766.00
869.9780, 34907.00
871.1100, 34703.00
872.2410, 34828.00
873.3730, 34796.00
874.5050, 34657.00
875.6360, 34700.00
876.7670, 34720.90
877.8980, 34991.00
879.0290, 34892.00
880.1590, 34977.00
881.2900, 35118.00
882.4200, 35058.00
883.5500, 35050.00
884.6800, 35078.00
885.8100, 35084.00
886.9400, 35156.54
888.0690, 35081.00
889.1990, 35335.00
890.3280, 35287.00
891.4570, 35396.00
892.5860, 35261.00
893.7140, 35357.00
894.8430, 35602.00
895.9710, 35493.00
897.1000, 35449.00
898.2280, 35597.00
899.3560, 35778.00
900.4830, 35473.00
901.6110, 35888.00
902.7380, 35747.00
903.8660, 36039.00
904.9930, 35922.00
906.1200, 36087.00
907.2460, 36264.00
908.3730, 36063.00
909.5000, 36328.00
910.6260, 35992.00
911.7520, 36391.00
912.8780, 36420.00
914.0040, 36000.00
915.1290, 36319.00
916.2550, 36465.00
917.3800, 36335.00
918.5050, 36252.00
919.6300, 36506.00
920.7550, 36153.00
921.8800, 36547.00
923.0040, 36650.00
924.1290, 36479.00
925.2530, 36613.00
926.3770, 36578.00
927.5010, 36341.00
928.6250, 36695.00
929.7480, 36801.00
930.8720, 36614.00
931.9950, 36546.00
933.1180, 36923.00
934.2410, 36613.00
935.3640, 36754.00
936.4860, 36855.00
937.6090, 36872.00
938.7310, 37166.00
939.8530, 36687.00
940.9750, 37191.00
942.0970, 36832.00
943.2180, 37382.00
944.3400, 37163.00
945.4610, 37202.00
946.5820, 37380.00
947.7030, 37510.00
948.8240, 37603.00
949.9450, 37411.00
951.0650, 37502.00
952.1860, 37419.00
953.3060, 37464.00
954.4260, 37604.00
955.5460, 37533.00
956.6650, 37643.26
957.7850, 37720.00
958.9040, 37789.00
960.0230, 37890.00
961.1420, 38021.00
962.2610, 37956.00
963.3800, 38254.00
964.4990, 37992.00
965.6170, 38256.00
966.7350, 38144.00
967.8530, 38323.00
968.9710, 38457.00
970.0890, 38375.00
971.2070, 38487.00
972.3240, 38379.00
973.4410, 38559.00
974.5580, 38512.00
975.6750, 38351.00
976.7920, 38533.00
977.9090, 38840.00
979.0250, 38814.00
980.1410, 38823.00
981.2580, 38807.00
982.3740, 38975.00
983.4890, 38875.00
984.6050, 38861.00
985.7200, 39080.00
986.8360, 39011.00
987.9510, 39065.00
989.0660, 39198.00
990.1810, 39132.00
991.2950, 39181.00
992.4100, 39140.00
993.5240, 39174.00
994.6390, 39235.00
995.7530, 39361.00
996.8660, 39290.00
997.9800, 39325.00
999.0940, 39645.00
1000.207, 39625.00
1001.320, 39478.00
1002.433, 39880.00
1003.546, 39878.00
1004.659, 39470.00
1005.772, 39613.00
1006.884, 40060.00
1007.996, 39813.00
1009.108, 39898.00
1010.220, 39740.00
1011.332, 39811.00
1012.444, 40181.00
1013.555, 40100.00
1014.666, 40326.00
1015.777, 40397.85
1016.888, 40253.00
1017.999, 40405.00
1019.110, 40370.00
1020.220, 40148.00
1021.331, 40296.00
1022.441, 40474.00
1023.551, 40588.00
1024.661, 40309.00
1025.770, 40311.00
1026.880, 40309.00
1027.989, 40257.11
1029.098, 40529.00
1030.207, 40332.00
1031.316, 40586.00
1032.425, 40659.00
1033.533, 40753.00
1034.642, 40638.00
1035.750, 40629.00
1036.858, 40630.00
1037.966, 40946.00
1039.073, 40841.00
1040.181, 41242.00
1041.288, 41319.00
1042.396, 41110.00
1043.503, 41475.00
1044.610, 41679.00
1045.716, 41662.00
1046.823, 42057.00
1047.929, 41849.00
1049.036, 42048.00
1050.142, 42386.00
1051.248, 42394.00
1052.353, 42599.00
1053.459, 42895.00
1054.564, 42625.00
1055.670, 43347.00
1056.775, 43451.00
1057.880, 43259.00
1058.985, 43590.00
1060.089, 43530.00
1061.194, 43433.00
1062.298, 43115.00
1063.402, 43258.00
1064.506, 43319.00
1065.610, 43325.00
1066.713, 43266.00
1067.817, 43081.00
1068.920, 43231.00
1070.023, 43489.00
1071.126, 43243.00
1072.229, 43005.00
1073.332, 43359.00
1074.435, 43166.00
1075.537, 43174.00
1076.639, 43299.00
1077.741, 43144.00
1078.843, 43376.00
1079.945, 43150.00
1081.046, 43426.00
1082.148, 43484.00
1083.249, 43620.00
1084.350, 43500.00
1085.451, 43515.00
1086.551, 43545.00
1087.652, 43439.00
1088.752, 43513.00
1089.853, 43522.00
1090.953, 43541.00
1092.053, 43434.00
1093.152, 43539.00
1094.252, 43553.00
1095.351, 43820.00
1096.451, 44059.00
1097.550, 44054.27
1098.649, 44102.00
1099.748, 44131.00
1100.846, 43949.00
1101.945, 43984.00
1103.043, 44198.00
1104.141, 44388.00
1105.239, 44170.00
1106.337, 44430.00
1107.434, 44470.00
1108.532, 44414.00
1109.629, 44888.00
1110.726, 44639.00
1111.823, 44811.00
1112.920, 44913.00
1114.017, 44946.00
1115.113, 45153.00
1116.210, 45361.00
1117.306, 45318.00
1118.402, 45735.00
1119.498, 45858.00
1120.593, 46163.00
1121.689, 46273.00
1122.784, 46120.00
1123.879, 46168.00
1124.974, 46172.09
1126.069, 46483.00
1127.164, 46174.00
1128.259, 46443.00
1129.353, 46424.00
1130.447, 46780.00
1131.541, 46995.00
1132.635, 46953.00
1133.729, 47132.00
1134.822, 47060.00
1135.916, 47062.00
1137.009, 47060.00
1138.102, 47057.00
1139.195, 46850.00
1140.288, 46586.00
1141.380, 46180.00
1142.473, 45732.00
1143.565, 45793.00
1144.657, 44948.00
1145.749, 44341.00
1146.841, 44381.00
1147.932, 44738.00
1149.024, 45202.00
1150.115, 43766.00
1151.206, 43582.00
1152.297, 43519.00
1153.388, 43721.00
1154.479, 43437.00
1155.569, 43507.00
1156.659, 43444.00
1157.750, 43170.00
1158.839, 43321.00
1159.929, 43289.00
1161.019, 43334.00
1162.108, 43319.00
1163.198, 43692.00
1164.287, 43487.00
1165.376, 43467.13
1166.465, 43767.00
1167.553, 43315.00
1168.642, 43312.00
1169.730, 43583.00
1170.818, 43439.00
1171.906, 43661.00
1172.994, 43572.00
1174.082, 43697.00
1175.170, 43646.00
1176.257, 43676.00
1177.344, 43871.00
1178.431, 43646.00
1179.518, 43559.00
1180.605, 43862.00
1181.691, 43798.00
1182.778, 43761.00
1183.864, 44099.00
1184.950, 43579.00
1186.036, 44024.00
1187.122, 44107.00
1188.207, 43700.00
1189.292, 44054.00
1190.378, 44062.00
1191.463, 43698.00
1192.548, 44264.00
1193.632, 43823.00
1194.717, 44224.00
1195.801, 43909.00
1196.886, 44064.00
1197.970, 44484.00
1199.054, 44034.00
1200.137, 44037.00
1201.221, 44433.00
1202.305, 44245.00
1203.388, 44333.00
1204.471, 44361.00
1205.554, 44345.99
1206.637, 44447.00
1207.719, 44464.00
1208.802, 44354.00
1209.884, 44474.00
1210.966, 44501.00
1212.048, 44614.00
1213.130, 44638.00
1214.212, 44620.00
1215.293, 44814.00
1216.374, 44751.00
1217.456, 44756.00
1218.536, 44883.00
1219.617, 45044.00
1220.698, 44904.00
1221.778, 44961.00
1222.859, 45110.00
1223.939, 44818.00
1225.019, 44770.00
1226.099, 45006.00
1227.178, 45216.00
1228.258, 44780.00
1229.337, 45172.00
1230.417, 45064.00
1231.496, 45249.00
1232.574, 45218.00
1233.653, 45344.00
1234.732, 45383.00
1235.810, 45359.00
1236.888, 45262.00
1237.966, 45268.00
1239.044, 45220.00
1240.122, 45203.00
1241.199, 45378.00
1242.277, 45535.00
1243.354, 45495.00
1244.431, 45545.00
1245.508, 45787.00
1246.585, 45468.00
1247.661, 45602.00
1248.738, 45703.00
1249.814, 45635.00
1250.890, 45648.00
1251.966, 45897.00
1253.042, 45655.00
1254.117, 45929.00
1255.193, 45794.00
1256.268, 45946.00
1257.343, 45595.00
1258.418, 46026.00
1259.493, 46030.19
1260.567, 46016.00
1261.642, 46273.00
1262.716, 46272.00
1263.790, 46167.00
1264.864, 46244.00
1265.938, 46075.00
1267.011, 46185.00
1268.085, 46006.00
1269.158, 46208.00
1270.231, 46142.00
1271.304, 46269.00
1272.377, 46689.00
1273.450, 46362.00
1274.522, 46627.00
1275.594, 46320.00
1276.666, 46182.00
1277.738, 46783.00
1278.810, 46570.00
1279.882, 46356.00
1280.953, 46605.00
1282.025, 46477.00
1283.096, 46603.00
1284.167, 46392.00
1285.238, 46703.00
1286.308, 46407.00
1287.379, 46745.00
1288.449, 46741.00
1289.519, 46866.00
1290.589, 46788.00
1291.659, 46730.00
1292.729, 47091.00
1293.798, 46752.00
1294.868, 46977.00
1295.937, 47219.00
1297.006, 47146.00
1298.075, 47754.00
1299.143, 47017.00
1300.212, 46829.00
1301.280, 47466.00
1302.348, 47362.00
1303.416, 47294.00
1304.484, 47495.00
1305.552, 47652.00
1306.620, 47403.00
1307.687, 47557.00
1308.754, 47670.00
1309.821, 47704.00
1310.888, 47840.00
1311.955, 47826.00
1313.021, 47762.00
1314.088, 47780.00
1315.154, 47927.00
1316.220, 47905.00
1317.286, 47612.00
1318.352, 47684.00
1319.417, 47872.00
1320.483, 48204.00
1321.548, 48081.00
1322.613, 47924.00
1323.678, 48013.00
1324.743, 48077.00
1325.807, 47992.00
