##NAMES=Pyromorphite
##RRUFFID=R060285
##IDEAL CHEMISTRY=Pb^2+^_5_(PO_4_)_3_Cl
##LOCALITY=Les Farges mine, Correze Ussel, France
##OWNER=RRUFF
##SOURCE=Herb Obodda
##DESCRIPTION=Aggregate of green hexagonal prisms
##STATUS=The identification of this mineral has been confirmed by X-ray diffraction and chemical analysis
##URL=rruff.info/R060285
##MEASURED CHEMISTRY=Pb_5.00_((P_0.99_As_0.01_)_Î£=1_O_4_)_3_Cl_1.00_
##PIN_ID=M01948
##ORIENTATION=Laser parallel to a* (1 0 0). Fiducial mark perpendicular to laser is parallel to c [0 0 1]
60.30500, 144765.0
61.54600, 148950.0
62.78700, 150221.0
64.02800, 154495.0
65.26900, 157141.0
66.51000, 159729.0
67.75000, 164494.0
68.99100, 168063.0
70.23100, 169570.0
71.47100, 171723.0
72.71100, 174999.0
73.95000, 178681.0
75.19000, 180893.0
76.42900, 183254.0
77.66800, 185582.0
78.90700, 188814.0
80.14600, 192675.0
81.38500, 194958.0
82.62400, 197274.0
83.86200, 197237.0
85.10000, 196772.0
86.33800, 197045.0
87.57600, 197074.0
88.81400, 195839.3
90.05200, 194781.0
91.28900, 192804.0
92.52600, 190838.0
93.76300, 188200.0
95.00000, 186670.0
96.23700, 186644.0
97.47400, 185501.0
98.71000, 185893.0
99.94700, 186303.0
101.1830, 186945.0
102.4190, 187475.0
103.6550, 188926.0
104.8900, 189915.0
106.1260, 189240.0
107.3610, 186554.0
108.5970, 183527.0
109.8320, 180810.0
111.0660, 178804.0
112.3010, 175802.0
113.5360, 173736.0
114.7700, 172973.0
116.0040, 170075.0
117.2390, 168911.0
118.4730, 169073.0
119.7060, 169372.0
120.9400, 168351.0
122.1730, 166482.0
123.4070, 165070.0
124.6400, 163602.0
125.8730, 162925.0
127.1060, 162860.0
128.3380, 162860.0
129.5710, 162178.0
130.8030, 161948.0
132.0350, 162344.0
133.2670, 163461.0
134.4990, 163263.0
135.7310, 164056.0
136.9620, 163855.0
138.1940, 164393.0
139.4250, 165394.0
140.6560, 166486.0
141.8870, 165712.0
143.1180, 165728.0
144.3480, 166135.0
145.5790, 166789.0
146.8090, 166716.0
148.0390, 167430.0
149.2690, 167889.0
150.4990, 168423.0
151.7290, 169239.0
152.9580, 168893.0
154.1870, 168763.0
155.4170, 169489.0
156.6460, 170091.0
157.8740, 170126.0
159.1030, 169974.0
160.3320, 170264.0
161.5600, 170417.6
162.7880, 170723.0
164.0160, 170841.0
165.2440, 171907.0
166.4720, 171833.0
167.6990, 172720.0
168.9270, 172225.0
170.1540, 172581.0
171.3810, 172456.0
172.6080, 173304.0
173.8350, 173406.0
175.0610, 173914.0
176.2880, 172967.0
177.5140, 173266.0
178.7400, 173484.0
179.9660, 174330.0
181.1920, 174982.0
182.4170, 174181.0
183.6430, 173995.0
184.8680, 173523.0
186.0930, 173827.0
187.3180, 173526.0
188.5430, 173534.0
189.7680, 173012.0
190.9920, 173766.0
192.2170, 172888.0
193.4410, 172780.0
194.6650, 173577.0
195.8890, 173121.0
197.1130, 172517.0
198.3360, 172305.0
199.5600, 171354.0
200.7830, 171175.0
202.0060, 170956.0
203.2290, 170642.0
204.4510, 169813.0
205.6740, 170736.0
206.8970, 169285.0
208.1190, 169615.0
209.3410, 169879.0
210.5630, 169289.0
211.7850, 169152.0
213.0060, 169308.0
214.2280, 169365.0
215.4490, 169736.0
216.6700, 170146.0
217.8910, 169468.0
219.1120, 170370.0
220.3330, 170436.0
221.5530, 169661.0
222.7740, 169946.0
223.9940, 170439.0
225.2140, 170123.0
226.4340, 170662.0
227.6530, 170129.0
228.8730, 170568.0
230.0920, 170294.0
231.3120, 169655.0
232.5310, 171012.0
233.7500, 170696.0
234.9680, 171455.0
236.1870, 170332.0
237.4050, 170229.0
238.6240, 171279.0
239.8420, 171459.0
241.0600, 171521.0
242.2770, 171370.0
243.4950, 171868.0
244.7120, 172054.0
245.9300, 171004.0
247.1470, 172533.0
248.3640, 171705.0
249.5810, 172104.0
250.7970, 172083.0
252.0140, 172818.0
253.2300, 172779.0
254.4460, 172472.0
255.6620, 172886.0
256.8780, 173071.0
258.0940, 173556.0
259.3100, 173350.0
260.5250, 174051.0
261.7400, 173769.0
262.9550, 174191.0
264.1700, 174061.0
265.3850, 174366.0
266.5990, 175015.0
267.8140, 175667.0
269.0280, 175465.0
270.2420, 175930.9
271.4560, 175821.0
272.6700, 176000.0
273.8830, 176411.0
275.0970, 176072.0
276.3100, 176548.0
277.5230, 176529.0
278.7360, 176661.0
279.9490, 176930.2
281.1620, 176960.0
282.3740, 177303.0
283.5870, 177539.0
284.7990, 177685.0
286.0110, 177801.0
287.2230, 178619.0
288.4340, 178418.0
289.6460, 178826.0
290.8570, 178721.0
292.0680, 179087.0
293.2790, 179244.0
294.4900, 179701.0
295.7010, 179941.0
296.9120, 179619.0
298.1220, 180383.0
299.3320, 180564.0
300.5420, 180472.0
301.7520, 180877.0
302.9620, 180994.0
304.1720, 181040.0
305.3810, 181479.0
306.5900, 181706.0
307.7990, 182070.0
309.0080, 182286.0
310.2170, 182370.0
311.4260, 183016.0
312.6340, 184121.0
313.8420, 184016.0
315.0510, 185479.0
316.2590, 185958.0
317.4660, 186458.0
318.6740, 185104.0
319.8820, 185763.0
321.0890, 186265.0
322.2960, 186478.0
323.5030, 186736.0
324.7100, 187285.0
325.9170, 187265.0
327.1230, 187207.0
328.3300, 187812.0
329.5360, 187713.0
330.7420, 188556.0
331.9480, 188514.0
333.1530, 188272.0
334.3590, 189176.0
335.5640, 189326.0
336.7700, 188558.0
337.9750, 189862.0
339.1800, 189837.0
340.3840, 190589.0
341.5890, 190944.0
342.7940, 190721.0
343.9980, 191139.0
345.2020, 191514.0
346.4060, 191080.0
347.6100, 192013.0
348.8130, 192122.0
350.0170, 192796.0
351.2200, 192512.0
352.4230, 192492.0
353.6260, 192534.0
354.8290, 193149.0
356.0320, 193625.0
357.2340, 194217.0
358.4370, 194669.0
359.6390, 194945.7
360.8410, 194574.0
362.0430, 195195.0
363.2440, 195608.0
364.4460, 195324.0
365.6470, 195835.0
366.8480, 196768.0
368.0500, 197128.0
369.2500, 197214.0
370.4510, 197587.0
371.6520, 198220.0
372.8520, 198585.0
374.0520, 199310.0
375.2530, 199920.0
376.4520, 200729.0
377.6520, 201804.0
378.8520, 201800.0
380.0510, 202513.0
381.2510, 203412.0
382.4500, 205030.0
383.6490, 205468.0
384.8470, 207378.0
386.0460, 207973.0
387.2450, 209020.0
388.4430, 210218.0
389.6410, 210633.0
390.8390, 211066.0
392.0370, 211688.0
393.2340, 211583.0
394.4320, 211815.7
395.6290, 211709.0
396.8270, 211701.0
398.0240, 211404.0
399.2200, 211174.0
400.4170, 211168.0
401.6140, 211303.0
402.8100, 212535.0
404.0060, 212784.0
405.2020, 213294.0
406.3980, 214011.0
407.5940, 214441.0
408.7890, 214998.0
409.9850, 215083.0
411.1800, 215174.0
412.3750, 214730.0
413.5700, 215458.0
414.7650, 214494.0
415.9590, 214467.0
417.1540, 213744.0
418.3480, 214387.0
419.5420, 213632.0
420.7360, 213573.0
421.9300, 212660.0
423.1240, 212572.0
424.3170, 212434.0
425.5100, 212461.0
426.7040, 212505.0
427.8970, 212270.0
429.0890, 212620.0
430.2820, 211921.0
431.4750, 213018.0
432.6670, 213423.0
433.8590, 213098.0
435.0510, 213305.0
436.2430, 213983.0
437.4350, 213919.0
438.6260, 213570.0
439.8180, 214422.0
441.0090, 214137.0
442.2000, 215392.0
443.3910, 214765.0
444.5810, 215444.0
445.7720, 215904.0
446.9620, 216413.0
448.1530, 215923.0
449.3430, 216652.0
450.5330, 216679.0
451.7220, 216747.0
452.9120, 218090.0
454.1010, 217388.0
455.2910, 217570.0
456.4800, 218252.0
457.6690, 218106.0
458.8570, 219310.0
460.0460, 219397.0
461.2340, 219585.0
462.4230, 219908.0
463.6110, 220518.0
464.7990, 220246.0
465.9870, 220975.0
467.1740, 221151.0
468.3620, 221362.0
469.5490, 221916.0
470.7360, 221808.0
471.9230, 222149.0
473.1100, 222727.0
474.2970, 223262.0
475.4830, 223440.0
476.6700, 223922.0
477.8560, 224168.0
479.0420, 224180.0
480.2280, 224317.0
481.4130, 224668.0
482.5990, 225042.0
483.7840, 225367.1
484.9700, 225836.0
486.1550, 226083.0
487.3400, 226763.0
488.5240, 226957.0
489.7090, 227601.0
490.8930, 227953.0
492.0780, 228663.0
493.2620, 228877.8
494.4460, 229394.0
495.6290, 229370.0
496.8130, 229655.0
497.9960, 229962.9
499.1800, 230057.0
500.3630, 230537.0
501.5460, 231165.0
502.7280, 232341.0
503.9110, 232530.0
505.0940, 232307.0
506.2760, 231881.0
507.4580, 233325.0
508.6400, 233017.0
509.8220, 233401.0
511.0030, 233829.0
512.1850, 234109.0
513.3660, 234558.0
514.5470, 234563.0
515.7280, 235708.0
516.9090, 235475.0
518.0900, 236562.0
519.2700, 236566.0
520.4510, 236534.0
521.6310, 237574.0
522.8110, 237264.0
523.9910, 238001.0
525.1710, 238650.0
526.3500, 238846.0
527.5300, 239717.0
528.7090, 239964.0
529.8880, 240654.0
531.0670, 241071.0
532.2450, 241069.0
533.4240, 241554.0
534.6020, 242304.0
535.7810, 242748.0
536.9590, 242272.0
538.1370, 242845.0
539.3140, 243527.0
540.4920, 244283.0
541.6690, 244755.8
542.8470, 245618.0
544.0240, 245877.0
545.2010, 246168.0
546.3780, 246926.0
547.5540, 246804.0
548.7310, 246949.0
549.9070, 248098.0
551.0830, 248509.0
552.2590, 248925.0
553.4350, 248379.0
554.6110, 249751.0
555.7860, 248793.0
556.9610, 250071.0
558.1370, 250555.0
559.3120, 250373.0
560.4860, 250261.0
561.6610, 250990.0
562.8360, 252745.0
564.0100, 251490.0
565.1840, 252169.0
566.3580, 253393.0
567.5320, 253235.0
568.7060, 254236.0
569.8790, 254813.0
571.0530, 255252.0
572.2260, 255815.0
573.3990, 256177.0
574.5720, 255881.0
575.7440, 255876.0
576.9170, 256225.0
578.0890, 256761.0
579.2620, 256462.0
580.4340, 256629.0
581.6060, 256310.0
582.7770, 256572.0
583.9490, 256764.0
585.1200, 257191.0
586.2920, 257655.0
587.4630, 256738.0
588.6340, 258362.0
589.8050, 258210.0
590.9750, 257740.0
592.1460, 259637.0
593.3160, 259421.0
594.4860, 260143.0
595.6560, 259921.0
596.8260, 260349.0
597.9950, 260816.0
599.1650, 261288.0
600.3340, 261644.0
601.5030, 262201.5
602.6720, 262130.0
603.8410, 263111.0
605.0100, 263195.0
606.1780, 263302.0
607.3470, 263872.0
608.5150, 264772.0
609.6830, 265053.0
610.8510, 265863.0
612.0180, 266314.0
613.1860, 266643.1
614.3530, 266854.0
615.5210, 267334.0
616.6880, 267168.0
617.8540, 267617.0
619.0210, 268371.0
620.1880, 268527.0
621.3540, 268333.0
622.5200, 268012.0
623.6860, 269574.0
624.8520, 269699.0
626.0180, 270244.0
627.1840, 270295.0
628.3490, 270847.8
629.5140, 271370.5
630.6790, 271748.0
631.8440, 272488.0
633.0090, 272696.0
634.1740, 273029.0
635.3380, 273154.0
636.5020, 273772.0
637.6670, 273936.4
638.8300, 274239.0
639.9940, 274349.0
641.1580, 274747.7
642.3210, 275185.0
643.4850, 275573.0
644.6480, 276165.0
645.8110, 276710.0
646.9740, 276960.0
648.1360, 277384.0
649.2990, 277660.9
650.4610, 277968.0
651.6230, 278227.0
652.7850, 278551.0
653.9470, 278997.0
655.1090, 279202.0
656.2700, 280178.0
657.4320, 280039.0
658.5930, 280610.0
659.7540, 281747.0
660.9150, 280840.0
662.0750, 282166.0
663.2360, 282033.0
664.3960, 281968.0
665.5560, 283085.0
666.7160, 283629.0
667.8760, 284366.0
669.0360, 284372.0
670.1960, 284930.0
671.3550, 284972.0
672.5140, 285478.0
673.6730, 285938.0
674.8320, 285764.0
675.9910, 286654.0
677.1490, 287447.0
678.3080, 287660.0
679.4660, 288446.0
680.6240, 288707.0
681.7820, 288874.0
682.9400, 289527.5
684.0970, 289700.0
685.2550, 290149.0
686.4120, 290772.0
687.5690, 290311.0
688.7260, 291863.0
689.8830, 292547.0
691.0400, 292780.0
692.1960, 292475.0
693.3520, 292604.0
694.5090, 294887.0
695.6650, 293346.0
696.8200, 295339.0
697.9760, 294945.0
699.1310, 295293.0
700.2870, 295610.0
701.4420, 296479.0
702.5970, 296881.6
703.7520, 297472.0
704.9060, 297944.0
706.0610, 298572.0
707.2150, 298778.0
708.3690, 299226.0
709.5230, 299815.0
710.6770, 299875.0
711.8310, 300692.0
712.9850, 300834.0
714.1380, 301064.0
715.2910, 302361.0
716.4440, 302391.0
717.5970, 302456.0
718.7500, 303135.0
719.9020, 303087.0
721.0550, 304700.0
722.2070, 304353.0
723.3590, 304646.0
724.5110, 303922.0
725.6630, 304344.0
726.8140, 304375.0
727.9650, 304327.0
729.1170, 304860.0
730.2680, 304637.0
731.4190, 304595.0
732.5690, 305558.0
733.7200, 306470.0
734.8700, 306059.0
736.0210, 306397.0
737.1710, 306351.0
738.3210, 307341.0
739.4710, 307779.0
740.6200, 307623.0
741.7700, 309407.0
742.9190, 309066.0
744.0680, 309709.0
745.2170, 310564.0
746.3660, 310636.0
747.5140, 311347.0
748.6630, 311623.0
749.8110, 312147.0
750.9590, 312171.0
752.1070, 312666.8
753.2550, 313918.0
754.4030, 313780.0
755.5500, 314131.0
756.6980, 315398.0
757.8450, 316449.0
758.9920, 316419.0
760.1390, 317329.0
761.2850, 317135.0
762.4320, 318424.0
763.5780, 318704.0
764.7240, 319849.0
765.8700, 320695.0
767.0160, 321089.0
768.1620, 322073.0
769.3070, 321905.0
770.4530, 323297.0
771.5980, 323189.0
772.7430, 324655.0
773.8880, 325759.0
775.0330, 326850.0
776.1770, 327854.0
777.3220, 328715.0
778.4660, 330351.0
779.6100, 331114.0
780.7540, 333408.0
781.8970, 334838.0
783.0410, 336628.0
784.1840, 338721.0
785.3280, 340150.0
786.4710, 342925.0
787.6140, 343567.0
788.7560, 347196.0
789.8990, 348128.0
791.0410, 350861.0
792.1840, 352551.0
793.3260, 353483.0
794.4680, 355494.0
795.6100, 356165.0
796.7510, 356967.0
797.8930, 357782.0
799.0340, 357000.0
800.1750, 356702.0
801.3160, 357082.0
802.4570, 355966.0
803.5970, 355998.0
804.7380, 354853.0
805.8780, 354367.0
807.0180, 353144.0
808.1580, 352178.0
809.2980, 352297.0
810.4380, 352628.0
811.5770, 351989.0
812.7170, 352507.0
813.8560, 353668.0
814.9950, 353423.0
816.1340, 353619.0
817.2720, 355040.0
818.4110, 354976.0
819.5490, 355079.0
820.6870, 355304.0
821.8250, 354092.0
822.9630, 354278.0
824.1010, 353398.0
825.2380, 353308.0
826.3760, 354045.0
827.5130, 353703.0
828.6500, 352865.0
829.7870, 353903.0
830.9240, 352770.0
832.0600, 352812.0
833.1960, 353128.0
834.3330, 353596.0
835.4690, 353485.0
836.6050, 353599.0
837.7400, 353452.0
838.8760, 353805.0
840.0110, 354563.0
841.1470, 354527.0
842.2820, 355574.0
843.4170, 355474.0
844.5510, 357322.0
845.6860, 356024.0
846.8200, 357538.0
847.9550, 358218.0
849.0890, 358647.0
850.2230, 358524.0
851.3560, 358521.0
852.4900, 358063.0
853.6230, 357855.0
854.7570, 357335.0
855.8900, 356919.0
857.0230, 356860.0
858.1560, 356466.0
859.2880, 356964.0
860.4210, 357263.0
861.5530, 356818.0
862.6850, 358296.0
863.8170, 357051.0
864.9490, 358292.0
866.0810, 358451.0
867.2120, 359067.0
868.3430, 359962.0
869.4740, 360775.0
870.6050, 360087.0
871.7360, 359897.0
872.8670, 362795.0
873.9970, 361714.0
875.1280, 362722.0
876.2580, 362060.0
877.3880, 363053.0
878.5180, 364565.0
879.6470, 363963.0
880.7770, 364900.0
881.9060, 365886.0
883.0350, 366443.0
884.1650, 366546.0
885.2930, 366999.0
886.4220, 367456.0
887.5510, 368992.0
888.6790, 368840.0
889.8070, 369032.0
890.9350, 370822.0
892.0630, 371490.0
893.1910, 371381.0
894.3180, 373267.0
895.4460, 372278.0
896.5730, 373928.0
897.7000, 374458.0
898.8270, 374964.0
899.9540, 375657.0
901.0800, 377526.0
902.2070, 379159.0
903.3330, 379672.0
904.4590, 382785.0
905.5850, 382432.0
906.7110, 385703.0
907.8360, 389391.0
908.9620, 391695.0
910.0870, 396977.0
911.2120, 401012.0
912.3370, 406512.0
913.4620, 411150.0
914.5860, 417642.0
915.7110, 422674.0
916.8350, 427305.0
917.9590, 431945.0
919.0830, 432285.0
920.2070, 431804.0
921.3310, 428575.0
922.4540, 424456.0
923.5770, 422040.0
924.7000, 416910.0
925.8230, 414612.0
926.9460, 410302.0
928.0690, 409194.0
929.1910, 406789.0
930.3140, 406867.0
931.4360, 407611.0
932.5580, 407849.0
933.6800, 408703.0
934.8010, 410090.0
935.9230, 413674.0
937.0440, 416942.0
938.1650, 420674.0
939.2860, 423086.0
940.4070, 426520.0
941.5280, 429143.0
942.6480, 431397.0
943.7690, 432280.0
944.8890, 433475.0
946.0090, 432216.0
947.1290, 432568.0
948.2480, 430108.0
949.3680, 427445.0
950.4870, 424901.0
951.6060, 422678.0
952.7260, 419475.0
953.8440, 418041.0
954.9630, 415037.0
956.0820, 413325.0
957.2000, 411883.2
958.3180, 411593.0
959.4360, 409703.0
960.5540, 409738.0
961.6720, 409612.0
962.7900, 408808.0
963.9070, 407741.0
965.0240, 408247.0
966.1410, 408425.0
967.2580, 408764.0
968.3750, 409412.0
969.4910, 409247.0
970.6080, 409378.0
971.7240, 409229.0
972.8400, 410304.0
973.9560, 410473.0
975.0720, 411087.0
976.1880, 411052.0
977.3030, 411069.0
978.4180, 409880.0
979.5330, 410418.0
980.6480, 410801.0
981.7630, 408989.0
982.8780, 409401.0
983.9920, 410082.0
985.1060, 409824.0
986.2210, 409416.0
987.3340, 409482.0
988.4480, 409586.0
989.5620, 409619.0
990.6750, 410243.0
991.7890, 410427.0
992.9020, 410470.0
994.0150, 411326.0
995.1280, 410717.0
996.2400, 411879.0
997.3530, 411549.0
998.4650, 412220.0
999.5770, 413465.0
1000.689, 413174.0
1001.801, 414314.0
1002.913, 415027.0
1004.024, 416140.0
1005.136, 416741.6
1006.247, 417386.0
1007.358, 417909.0
1008.469, 418253.0
1009.579, 418774.0
1010.690, 419586.0
1011.800, 420070.0
1012.910, 420863.0
1014.020, 421461.0
1015.130, 421457.0
1016.240, 421781.0
1017.349, 422373.0
1018.459, 423262.0
1019.568, 422985.0
1020.677, 424593.0
1021.786, 423601.0
1022.895, 424971.0
1024.003, 424257.0
1025.112, 424848.0
1026.220, 424389.0
1027.328, 425349.0
1028.436, 425289.0
1029.544, 425835.0
1030.651, 425911.0
1031.759, 426456.5
1032.866, 427115.0
1033.973, 427669.0
1035.080, 428413.0
1036.186, 429173.0
1037.293, 428490.0
1038.400, 431307.0
1039.506, 431088.0
1040.612, 431897.0
1041.718, 434180.0
1042.824, 433478.0
1043.929, 434787.0
1045.035, 435558.0
1046.140, 436743.0
1047.245, 436756.0
1048.350, 438933.0
1049.455, 439579.0
1050.559, 440229.0
1051.664, 440147.0
1052.768, 439360.0
1053.872, 441121.0
1054.976, 441306.0
1056.080, 441463.0
1057.184, 442977.0
1058.287, 443274.6
1059.390, 444476.0
1060.493, 445061.0
1061.596, 445739.0
1062.699, 446984.0
1063.802, 446817.7
1064.904, 446067.0
1066.007, 447252.0
1067.109, 447171.0
1068.211, 448452.0
1069.313, 448646.0
1070.414, 449754.0
1071.516, 449698.0
1072.617, 450812.0
1073.718, 450179.0
1074.819, 451552.0
1075.920, 451081.0
1077.021, 452393.0
1078.121, 452509.0
1079.222, 452016.0
1080.322, 453884.0
1081.422, 454296.0
1082.522, 454099.0
1083.622, 454625.0
1084.721, 454904.0
1085.820, 455295.0
1086.920, 455621.8
1088.019, 456144.3
1089.118, 456399.0
1090.216, 456997.0
1091.315, 457825.0
1092.413, 457732.0
1093.511, 458592.0
1094.609, 458386.0
1095.707, 460188.0
1096.805, 460098.0
1097.903, 459241.0
1099.000, 462026.0
1100.097, 460731.0
1101.194, 462116.0
1102.291, 462320.0
1103.388, 463292.0
1104.485, 463098.0
1105.581, 464263.0
1106.677, 463990.0
1107.773, 465028.0
1108.869, 465099.0
1109.965, 464581.0
1111.061, 466171.0
1112.156, 466315.0
1113.251, 467894.0
1114.346, 467129.0
1115.441, 467039.0
1116.536, 467536.0
1117.631, 469145.0
1118.725, 469242.0
1119.819, 470208.0
1120.914, 470408.0
1122.008, 470990.0
1123.101, 471871.0
1124.195, 471484.0
1125.288, 472464.0
1126.382, 473372.0
1127.475, 473990.0
1128.568, 473530.0
1129.661, 474845.0
1130.753, 475730.0
1131.846, 475233.0
1132.938, 476528.0
1134.030, 476663.0
1135.122, 477116.0
1136.214, 477105.0
1137.306, 478022.0
1138.397, 478955.0
1139.489, 479490.0
1140.580, 480630.0
1141.671, 481443.0
1142.762, 481472.0
1143.852, 481719.0
1144.943, 481682.0
1146.033, 482197.0
1147.123, 482793.0
1148.213, 482837.0
1149.303, 484993.0
1150.393, 483182.0
1151.482, 485885.0
1152.572, 485261.0
1153.661, 484785.0
1154.750, 485762.0
1155.839, 487364.0
1156.927, 487659.0
1158.016, 488210.0
1159.104, 487965.0
1160.193, 489158.0
1161.281, 488648.0
1162.369, 489900.0
1163.456, 489255.0
1164.544, 490736.0
1165.631, 490857.0
1166.718, 490721.0
1167.805, 492003.0
1168.892, 491494.0
1169.979, 492646.0
1171.066, 491964.0
1172.152, 494432.0
1173.238, 493573.0
1174.324, 495527.0
1175.410, 496058.0
1176.496, 494634.0
1177.582, 495233.0
1178.667, 497612.0
1179.752, 497430.0
1180.837, 498655.0
1181.922, 498576.0
1183.007, 499527.0
1184.092, 499751.0
1185.176, 499513.0
1186.260, 500280.0
1187.344, 501001.0
1188.428, 501954.0
1189.512, 502265.0
1190.596, 503241.0
1191.679, 502741.0
1192.763, 503885.0
1193.846, 503921.0
1194.929, 503635.0
1196.011, 504901.0
1197.094, 504985.0
1198.177, 506763.0
1199.259, 507737.0
1200.341, 507419.0
1201.423, 508430.0
1202.505, 507820.0
1203.586, 509533.0
1204.668, 510117.0
1205.749, 509315.0
1206.830, 510958.0
1207.911, 511401.0
1208.992, 511989.0
1210.073, 512880.0
1211.153, 513442.0
1212.234, 515266.0
1213.314, 513938.0
1214.394, 514542.0
1215.474, 515386.0
1216.553, 517117.0
1217.633, 516080.0
1218.712, 516297.0
1219.791, 518550.0
1220.870, 518796.0
1221.949, 518800.0
1223.028, 519078.0
1224.106, 520004.0
1225.185, 522287.0
1226.263, 520724.0
1227.341, 522265.0
1228.419, 522761.0
1229.497, 522421.0
1230.574, 523431.0
1231.651, 523483.0
1232.729, 525022.0
1233.806, 525426.0
1234.883, 526198.0
1235.959, 527108.6
1237.036, 526521.0
1238.112, 528476.0
1239.188, 527763.0
1240.265, 528114.0
1241.340, 528614.0
1242.416, 530033.0
1243.492, 529975.0
1244.567, 530188.0
1245.642, 531196.0
