##NAMES=Quartz
##RRUFFID=R060604
##IDEAL CHEMISTRY=SiO_2_
##LOCALITY=Piedras Parada, Veracruz, Mexico
##OWNER=RRUFF
##SOURCE=Michael Scott
##DESCRIPTION=Purple hexagonal prisms, variety amethyst
##STATUS=The identification of this mineral has been confirmed by X-ray diffraction and chemical analysis
##URL=rruff.info/R060604
##MEASURED CHEMISTRY=Si_1.00_O_2_
62.16800, 1248.000
63.41100, 1315.000
64.65300, 1474.000
65.89600, 1663.000
67.13800, 1829.000
68.38000, 2072.000
69.62200, 2345.000
70.86300, 2496.000
72.10500, 2693.000
73.34600, 3010.000
74.58700, 3301.000
75.82800, 3489.000
77.06900, 3776.000
78.30900, 3982.000
79.55000, 4108.000
80.79000, 4306.000
82.03000, 4558.000
83.27000, 4777.000
84.51000, 5071.000
85.74900, 5336.000
86.98900, 5340.000
88.22800, 5438.000
89.46700, 5549.000
90.70600, 5725.000
91.94400, 5798.000
93.18300, 6015.000
94.42100, 6028.000
95.65900, 6107.000
96.89700, 6357.000
98.13500, 6239.000
99.37300, 6390.416
100.6100, 6667.000
101.8480, 6493.000
103.0850, 6600.000
104.3220, 6619.000
105.5590, 6638.000
106.7950, 6779.000
108.0320, 6872.000
109.2680, 7008.000
110.5040, 7081.000
111.7400, 7014.000
112.9760, 7014.000
114.2120, 7226.000
115.4470, 7393.000
116.6820, 7547.000
117.9170, 7682.000
119.1520, 7619.000
120.3870, 7963.000
121.6220, 8297.000
122.8560, 8788.000
124.0900, 9819.000
125.3240, 11219.00
126.5580, 12364.00
127.7920, 13886.00
129.0260, 14761.00
130.2590, 14719.00
131.4920, 13853.00
132.7250, 12580.00
133.9580, 11342.00
135.1910, 10213.00
136.4230, 9414.000
137.6560, 9000.000
138.8880, 8732.000
140.1200, 8713.000
141.3520, 8747.000
142.5830, 8751.000
143.8150, 8883.000
145.0460, 8665.000
146.2770, 8664.000
147.5080, 8421.000
148.7390, 8383.000
149.9700, 8291.000
151.2000, 8194.000
152.4310, 8113.000
153.6610, 8099.346
154.8910, 8112.000
156.1210, 8069.000
157.3500, 7929.000
158.5800, 7832.000
159.8090, 7842.000
161.0380, 7866.000
162.2670, 7754.000
163.4960, 7829.000
164.7240, 7908.000
165.9530, 8054.000
167.1810, 7999.000
168.4090, 8081.493
169.6370, 8086.000
170.8650, 8153.000
172.0920, 8153.000
173.3200, 8244.000
174.5470, 8278.834
175.7740, 8311.000
177.0010, 8389.000
178.2280, 8483.000
179.4540, 8561.000
180.6810, 8721.000
181.9070, 8655.000
183.1330, 8998.000
184.3590, 8990.000
185.5850, 9373.000
186.8100, 9402.000
188.0350, 9679.000
189.2610, 9879.000
190.4860, 10198.00
191.7110, 10556.00
192.9350, 11074.00
194.1600, 11592.00
195.3840, 12038.69
196.6080, 12670.00
197.8320, 12982.00
199.0560, 13558.00
200.2800, 13954.00
201.5030, 14572.00
202.7270, 14953.00
203.9500, 15408.00
205.1730, 15713.85
206.3950, 15954.00
207.6180, 16059.00
208.8410, 16048.00
210.0630, 15890.00
211.2850, 15461.00
212.5070, 15180.00
213.7290, 14830.00
214.9500, 14210.00
216.1720, 13683.00
217.3930, 13142.00
218.6140, 12680.00
219.8350, 12119.00
221.0560, 11709.00
222.2770, 11279.00
223.4970, 10985.00
224.7170, 10693.00
225.9370, 10532.00
227.1570, 10156.00
228.3770, 9977.000
229.5970, 9731.000
230.8160, 9694.000
232.0350, 9518.000
233.2540, 9333.000
234.4730, 9281.000
235.6920, 9144.000
236.9110, 9068.000
238.1290, 8931.000
239.3470, 8924.000
240.5650, 8785.000
241.7830, 8852.000
243.0010, 8807.000
244.2180, 8754.000
245.4360, 8650.000
246.6530, 8661.000
247.8700, 8607.849
249.0870, 8578.733
250.3040, 8581.000
251.5200, 8528.000
252.7370, 8545.000
253.9530, 8498.000
255.1690, 8446.000
256.3850, 8609.000
257.6000, 8500.000
258.8160, 8525.000
260.0310, 8442.000
261.2460, 8642.000
262.4610, 8662.000
263.6760, 8741.000
264.8910, 8748.000
266.1050, 8645.000
267.3200, 8611.000
268.5340, 8505.000
269.7480, 8512.000
270.9620, 8421.000
272.1750, 8462.000
273.3890, 8298.000
274.6020, 8361.000
275.8150, 8366.000
277.0280, 8244.000
278.2410, 8427.000
279.4540, 8466.000
280.6660, 8384.000
281.8790, 8515.000
283.0910, 8479.000
284.3030, 8390.000
285.5140, 8421.000
286.7260, 8419.000
287.9380, 8351.000
289.1490, 8421.000
290.3600, 8403.000
291.5710, 8382.142
292.7820, 8282.000
293.9920, 8364.000
295.2030, 8332.000
296.4130, 8364.000
297.6230, 8412.000
298.8330, 8393.000
300.0430, 8323.000
301.2520, 8443.000
302.4620, 8334.000
303.6710, 8374.000
304.8800, 8279.000
306.0890, 8329.000
307.2980, 8348.000
308.5070, 8249.000
309.7150, 8407.000
310.9230, 8425.000
312.1310, 8230.000
313.3390, 8373.000
314.5470, 8317.000
315.7550, 8390.000
316.9620, 8290.000
318.1690, 8400.000
319.3760, 8446.000
320.5830, 8552.000
321.7900, 8518.000
322.9960, 8547.246
324.2030, 8458.000
325.4090, 8523.000
326.6150, 8398.000
327.8210, 8377.000
329.0270, 8323.000
330.2320, 8446.000
331.4380, 8505.000
332.6430, 8500.000
333.8480, 8628.000
335.0530, 8631.000
336.2580, 8639.831
337.4620, 8797.000
338.6670, 8578.000
339.8710, 8704.000
341.0750, 8587.000
342.2790, 8703.000
343.4820, 8558.000
344.6860, 8775.000
345.8890, 8751.000
347.0920, 8979.000
348.2960, 8950.000
349.4980, 9047.000
350.7010, 9192.000
351.9040, 9505.000
353.1060, 9986.000
354.3080, 10394.00
355.5100, 10767.00
356.7120, 10881.00
357.9140, 10500.00
359.1150, 10057.00
360.3170, 9715.000
361.5180, 9379.000
362.7190, 9300.000
363.9200, 9214.000
365.1200, 9173.000
366.3210, 9077.494
367.5210, 8964.000
368.7210, 8946.000
369.9210, 8822.000
371.1210, 8824.000
372.3210, 8820.000
373.5200, 8901.000
374.7200, 8893.000
375.9190, 8922.000
377.1180, 8893.000
378.3170, 8952.000
379.5150, 9043.000
380.7140, 9087.000
381.9120, 9142.711
383.1110, 9034.000
384.3090, 9172.000
385.5060, 9244.000
386.7040, 9133.000
387.9020, 9224.000
389.0990, 9432.000
390.2960, 9499.000
391.4930, 9818.000
392.6900, 10233.00
393.8860, 10623.00
395.0830, 10750.00
396.2790, 10837.00
397.4750, 10563.00
398.6710, 10153.00
399.8670, 9893.000
401.0630, 9567.000
402.2580, 9534.000
403.4540, 9394.000
404.6490, 9348.000
405.8440, 9317.000
407.0390, 9312.000
408.2330, 9329.000
409.4280, 9291.000
410.6220, 9312.739
411.8160, 9303.000
413.0100, 9336.000
414.2040, 9363.000
415.3980, 9386.000
416.5910, 9351.000
417.7850, 9482.000
418.9780, 9408.000
420.1710, 9446.000
421.3640, 9504.000
422.5560, 9407.000
423.7490, 9409.000
424.9410, 9480.000
426.1330, 9471.000
427.3250, 9635.000
428.5170, 9587.000
429.7090, 9570.000
430.9000, 9622.000
432.0910, 9778.000
433.2820, 9680.000
434.4730, 9776.000
435.6640, 9852.000
436.8550, 9869.000
438.0450, 9824.000
439.2360, 9846.000
440.4260, 9934.000
441.6160, 10024.52
442.8060, 10142.92
443.9950, 10318.00
445.1850, 10486.00
446.3740, 10638.00
447.5630, 10923.00
448.7520, 11264.00
449.9410, 11503.00
451.1300, 12079.00
452.3180, 12368.00
453.5060, 13092.00
454.6950, 13856.00
455.8830, 14794.00
457.0700, 16251.00
458.2580, 18473.00
459.4450, 21419.00
460.6330, 25521.00
461.8200, 30581.00
463.0070, 36518.00
464.1940, 41459.00
465.3800, 44304.00
466.5670, 44226.00
467.7530, 41589.00
468.9390, 36838.00
470.1250, 31712.00
471.3110, 26711.00
472.4970, 22966.00
473.6820, 20046.00
474.8680, 18024.00
476.0530, 16361.00
477.2380, 15346.00
478.4230, 14364.00
479.6070, 13780.00
480.7920, 13177.00
481.9760, 12772.00
483.1600, 12475.00
484.3440, 12259.00
485.5280, 12037.00
486.7120, 11966.00
487.8950, 11740.00
489.0780, 11364.00
490.2620, 11563.00
491.4450, 11283.00
492.6270, 11163.00
493.8100, 11156.00
494.9920, 11009.79
496.1750, 11126.00
497.3570, 10898.00
498.5390, 10920.00
499.7210, 10864.00
500.9020, 10966.00
502.0840, 11006.00
503.2650, 10885.00
504.4460, 10870.00
505.6270, 10922.00
506.8080, 10817.00
507.9890, 10737.00
509.1690, 10867.00
510.3500, 10758.00
511.5300, 10730.00
512.7100, 10644.00
513.8900, 10646.00
515.0690, 10628.98
516.2490, 10657.00
517.4280, 10689.00
518.6070, 10642.00
519.7860, 10657.98
520.9650, 10608.00
522.1440, 10642.00
523.3220, 10610.00
524.5010, 10626.00
525.6790, 10549.00
526.8570, 10562.07
528.0350, 10526.00
529.2130, 10558.00
530.3900, 10508.00
531.5670, 10518.00
532.7450, 10596.00
533.9220, 10575.00
535.0980, 10617.00
536.2750, 10581.00
537.4520, 10602.28
538.6280, 10569.00
539.8040, 10628.00
540.9800, 10666.00
542.1560, 10690.00
543.3320, 10691.97
544.5070, 10633.00
545.6830, 10684.00
546.8580, 10620.00
548.0330, 10658.00
549.2080, 10656.00
550.3830, 10636.00
551.5570, 10669.00
552.7310, 10644.00
553.9060, 10733.00
555.0800, 10689.00
556.2540, 10767.00
557.4270, 10667.00
558.6010, 10669.00
559.7740, 10766.00
560.9470, 10655.00
562.1210, 10623.00
563.2930, 10692.00
564.4660, 10666.00
565.6390, 10637.00
566.8110, 10701.00
567.9830, 10655.00
569.1550, 10764.00
570.3270, 10817.00
571.4990, 10711.00
572.6710, 10764.00
573.8420, 10852.00
575.0130, 10798.00
576.1840, 10936.00
577.3550, 10944.00
578.5260, 10795.00
579.6970, 10637.00
580.8670, 10898.00
582.0370, 10959.00
583.2070, 10847.00
584.3770, 11047.00
585.5470, 10978.00
586.7170, 11024.00
587.8860, 10910.00
589.0550, 10936.00
590.2240, 10909.00
591.3930, 10897.65
592.5620, 10880.63
593.7310, 10898.63
594.8990, 10907.00
596.0670, 10963.00
597.2350, 10988.28
598.4030, 11052.00
599.5710, 11030.00
600.7390, 11081.00
601.9060, 11042.00
603.0740, 11021.00
604.2410, 11058.00
605.4080, 11095.00
606.5740, 11074.00
607.7410, 11078.00
608.9080, 11102.00
610.0740, 11051.00
611.2400, 11236.00
612.4060, 11136.00
613.5720, 11147.00
614.7370, 11224.00
615.9030, 11130.00
617.0680, 11244.00
618.2330, 11193.00
619.3980, 11175.00
620.5630, 11276.00
621.7280, 11278.00
622.8920, 11245.00
624.0570, 11353.00
625.2210, 11280.00
626.3850, 11296.00
627.5490, 11259.00
628.7120, 11267.00
629.8760, 11329.00
631.0390, 11360.00
632.2020, 11391.03
633.3650, 11387.48
634.5280, 11387.54
635.6910, 11356.00
636.8530, 11362.00
638.0160, 11359.00
639.1780, 11364.00
640.3400, 11380.00
641.5020, 11324.00
642.6640, 11406.00
643.8250, 11422.00
644.9870, 11505.00
646.1480, 11539.00
647.3090, 11516.44
648.4700, 11559.85
649.6300, 11425.00
650.7910, 11556.00
651.9510, 11464.00
653.1120, 11414.00
654.2720, 11539.00
655.4320, 11502.00
656.5910, 11483.00
657.7510, 11532.00
658.9100, 11537.00
660.0690, 11436.00
661.2290, 11477.00
662.3880, 11451.00
663.5460, 11474.00
664.7050, 11504.00
665.8630, 11603.00
667.0220, 11540.00
668.1800, 11698.00
669.3380, 11818.00
670.4950, 11755.00
671.6530, 11714.00
672.8100, 11725.00
673.9680, 11917.00
675.1250, 12004.00
676.2820, 12122.00
677.4390, 11983.00
678.5950, 12035.00
679.7520, 11984.00
680.9080, 12006.00
682.0640, 11920.00
683.2200, 11899.00
684.3760, 11873.00
685.5320, 11903.00
686.6870, 11920.00
687.8420, 11948.00
688.9980, 11861.00
690.1530, 12085.00
691.3070, 12017.00
692.4620, 12016.00
693.6170, 12278.00
694.7710, 12432.00
695.9250, 12472.00
697.0790, 12508.00
698.2330, 12480.25
699.3870, 12400.00
700.5400, 12307.00
701.6940, 12184.00
702.8470, 12047.00
704.0000, 12104.00
705.1530, 12163.00
706.3050, 12014.00
707.4580, 12004.00
708.6100, 11958.00
709.7630, 12025.00
710.9150, 12108.00
712.0660, 12170.00
713.2180, 12063.00
714.3700, 12265.00
715.5210, 12056.00
716.6720, 12128.00
717.8240, 12102.00
718.9740, 12174.00
720.1250, 12189.00
721.2760, 12259.00
722.4260, 12162.00
723.5770, 12082.00
724.7270, 12105.00
725.8770, 12218.00
727.0260, 12212.00
728.1760, 12146.00
729.3250, 12306.00
730.4750, 12057.00
731.6240, 12098.00
732.7730, 12340.00
733.9220, 12249.00
735.0700, 12258.00
736.2190, 12259.00
737.3670, 12281.00
738.5150, 12247.00
739.6630, 12235.00
740.8110, 12331.00
741.9590, 12343.00
743.1060, 12321.00
744.2540, 12336.00
745.4010, 12326.00
746.5480, 12439.00
747.6950, 12407.00
748.8410, 12425.00
749.9880, 12477.00
751.1340, 12462.00
752.2800, 12478.00
753.4260, 12520.00
754.5720, 12517.00
755.7180, 12484.00
756.8640, 12511.00
758.0090, 12470.00
759.1540, 12436.00
760.2990, 12360.00
761.4440, 12554.00
762.5890, 12572.00
763.7340, 12678.00
764.8780, 12667.00
766.0220, 12624.00
767.1660, 12587.00
768.3100, 12617.00
769.4540, 12627.36
770.5980, 12835.00
771.7410, 12707.00
772.8840, 12708.00
774.0280, 12730.00
775.1700, 12610.00
776.3130, 12705.00
777.4560, 12676.00
778.5980, 12573.00
779.7410, 12858.00
780.8830, 12705.00
782.0250, 12694.00
783.1670, 12698.00
784.3080, 12791.00
785.4500, 12825.00
786.5910, 12828.00
787.7320, 12877.00
788.8730, 12816.00
790.0140, 13067.00
791.1550, 13098.00
792.2950, 13136.00
793.4360, 13086.00
794.5760, 13132.00
795.7160, 13270.00
796.8560, 13301.00
797.9960, 13267.00
799.1350, 13294.00
800.2750, 13219.00
801.4140, 13209.00
802.5530, 13231.00
803.6920, 13148.00
804.8310, 13242.00
805.9690, 13147.00
807.1080, 13181.00
808.2460, 13103.00
809.3840, 13112.00
810.5220, 13147.00
811.6600, 13258.00
812.7970, 13211.00
813.9350, 13256.15
815.0720, 13264.00
816.2090, 13233.00
817.3460, 13343.00
818.4830, 13275.00
819.6200, 13354.00
820.7560, 13264.00
821.8930, 13211.00
823.0290, 13262.00
824.1650, 13453.00
825.3010, 13269.00
826.4360, 13253.00
827.5720, 13408.00
828.7070, 13341.00
829.8420, 13238.00
830.9770, 13307.00
832.1120, 13335.00
833.2470, 13217.00
834.3820, 13378.00
835.5160, 13418.00
836.6500, 13435.00
837.7840, 13452.00
838.9180, 13445.62
840.0520, 13528.00
841.1860, 13406.00
842.3190, 13494.00
843.4520, 13471.00
844.5850, 13615.00
845.7180, 13630.00
846.8510, 13578.00
847.9840, 13563.00
849.1160, 13624.00
850.2490, 13643.00
851.3810, 13599.00
852.5130, 13672.21
853.6450, 13691.00
854.7760, 13749.00
855.9080, 13770.78
857.0390, 13858.30
858.1700, 13803.00
859.3010, 13789.00
860.4320, 13792.00
861.5630, 13707.00
862.6930, 13778.00
863.8240, 13887.00
864.9540, 13913.00
866.0840, 13902.00
867.2140, 13856.00
868.3440, 13804.00
869.4730, 13886.00
870.6030, 13835.00
871.7320, 13784.00
872.8610, 13967.00
873.9900, 13882.00
875.1190, 13738.00
876.2470, 13898.00
877.3760, 13886.00
878.5040, 14069.00
879.6320, 13927.00
880.7600, 14113.00
881.8880, 13879.00
883.0150, 14045.00
884.1430, 13952.00
885.2700, 14015.00
886.3970, 14269.00
887.5240, 13958.00
888.6510, 13927.00
889.7780, 13974.00
890.9040, 14126.00
892.0310, 14117.00
893.1570, 14234.00
894.2830, 14159.00
895.4090, 14216.00
896.5350, 14110.00
897.6600, 14282.00
898.7860, 14288.00
899.9110, 14160.00
901.0360, 14308.00
902.1610, 14272.00
903.2860, 14291.00
904.4100, 14219.00
905.5350, 14251.00
906.6590, 14379.00
907.7830, 14456.00
908.9070, 14333.00
910.0310, 14448.00
911.1540, 14438.00
912.2780, 14410.00
913.4010, 14455.00
914.5240, 14384.00
915.6470, 14533.00
916.7700, 14436.00
917.8930, 14589.00
919.0150, 14618.00
920.1380, 14448.00
921.2600, 14358.00
922.3820, 14572.00
923.5040, 14584.00
924.6260, 14521.00
925.7470, 14527.00
926.8690, 14546.00
927.9900, 14490.00
929.1110, 14538.34
930.2320, 14588.00
931.3530, 14594.00
932.4730, 14559.00
933.5940, 14578.00
934.7140, 14631.00
935.8340, 14757.00
936.9540, 14546.00
938.0740, 14711.00
939.1930, 14660.00
940.3130, 14537.00
941.4320, 14647.00
942.5510, 14525.00
943.6700, 14617.00
944.7890, 14790.00
945.9080, 14670.00
947.0260, 14820.00
948.1450, 14725.00
949.2630, 14759.00
950.3810, 14813.00
951.4990, 14879.00
952.6170, 14953.00
953.7340, 14838.00
954.8520, 14932.00
955.9690, 15096.00
957.0860, 14923.00
958.2030, 14919.00
959.3200, 14864.00
960.4360, 14961.00
961.5530, 14866.00
962.6690, 14899.00
963.7850, 14903.00
964.9010, 15035.00
966.0170, 14902.00
967.1330, 15013.00
968.2480, 14956.00
969.3630, 14984.00
970.4790, 15092.00
971.5940, 14976.00
972.7080, 15159.00
973.8230, 15086.00
974.9380, 14977.00
976.0520, 14960.00
977.1660, 14980.29
978.2800, 15073.00
979.3940, 15122.00
980.5080, 15206.00
981.6220, 15331.00
982.7350, 15310.65
983.8480, 15207.00
984.9610, 15345.00
986.0740, 15084.00
987.1870, 15182.00
988.3000, 15351.00
989.4120, 15307.00
990.5250, 15221.00
991.6370, 15113.00
992.7490, 15250.00
993.8610, 15391.00
994.9720, 15361.00
996.0840, 15382.00
997.1950, 15301.00
998.3060, 15361.00
999.4170, 15401.96
1000.528, 15329.00
1001.639, 15552.00
1002.750, 15545.00
1003.860, 15615.00
1004.970, 15535.00
1006.080, 15445.00
1007.190, 15657.00
1008.300, 15591.00
1009.410, 15601.00
1010.519, 15516.00
1011.628, 15549.00
1012.738, 15474.00
1013.846, 15497.00
1014.955, 15606.00
1016.064, 15470.00
1017.172, 15580.00
1018.281, 15546.00
1019.389, 15540.00
1020.497, 15585.93
1021.605, 15593.96
1022.713, 15635.00
1023.820, 15692.00
1024.928, 15746.00
1026.035, 15842.00
1027.142, 15750.00
1028.249, 15801.00
1029.356, 15934.00
1030.462, 15788.00
1031.569, 15749.00
1032.675, 15927.00
1033.781, 15836.00
1034.887, 15997.00
1035.993, 16112.00
1037.098, 15979.00
1038.204, 16068.00
1039.309, 16355.00
1040.415, 16209.00
1041.520, 16378.00
1042.624, 16534.00
1043.729, 16556.00
1044.834, 16606.00
1045.938, 16703.00
1047.042, 16783.00
1048.146, 16804.00
1049.250, 16772.00
1050.354, 16618.00
1051.458, 16387.00
1052.561, 16312.00
1053.664, 16355.00
1054.767, 16402.00
1055.870, 16386.00
1056.973, 16320.00
1058.076, 16277.00
1059.178, 16277.00
1060.281, 16535.00
1061.383, 16278.00
1062.485, 16508.00
1063.587, 16386.00
1064.688, 16583.00
1065.790, 16706.00
1066.891, 16821.00
1067.993, 16622.00
1069.094, 16542.00
1070.195, 16518.00
1071.295, 16470.00
1072.396, 16503.00
1073.496, 16466.00
1074.597, 16410.00
1075.697, 16605.00
1076.797, 16666.00
1077.897, 16522.00
1078.996, 16432.00
1080.096, 16479.00
1081.195, 16744.00
1082.294, 16708.00
1083.393, 16901.00
1084.492, 16931.00
1085.591, 17372.00
1086.689, 17719.00
1087.788, 17779.00
1088.886, 17298.00
1089.984, 16766.00
1091.082, 16938.00
1092.180, 16761.00
1093.277, 16719.00
1094.375, 16622.00
1095.472, 16589.00
1096.569, 16774.00
1097.666, 16794.00
1098.763, 16663.00
1099.860, 16708.00
1100.956, 16582.00
1102.053, 16632.00
1103.149, 16767.00
1104.245, 16822.00
1105.341, 16899.00
1106.436, 16796.00
1107.532, 16863.00
1108.627, 16968.00
1109.723, 16757.00
1110.818, 16886.00
1111.913, 16816.00
1113.007, 16976.00
1114.102, 16895.00
1115.197, 16990.00
1116.291, 16862.00
1117.385, 16843.00
1118.479, 16961.00
1119.573, 16974.00
1120.666, 16915.00
1121.760, 16981.00
1122.853, 17265.00
1123.947, 17202.00
1125.040, 17359.00
1126.132, 17150.00
1127.225, 17218.00
1128.318, 17181.00
1129.410, 17364.00
1130.502, 17336.00
1131.595, 17164.00
1132.687, 17293.00
1133.778, 17288.00
1134.870, 17193.00
1135.961, 17159.00
1137.053, 17227.00
1138.144, 17205.00
1139.235, 17249.00
1140.326, 17279.22
1141.416, 17327.00
1142.507, 17320.00
1143.597, 17401.00
1144.688, 17379.00
1145.778, 17424.00
1146.868, 17427.00
1147.957, 17523.00
1149.047, 17594.00
1150.136, 17598.00
1151.226, 17692.00
1152.315, 17655.00
1153.404, 17559.00
1154.493, 17792.00
1155.581, 17786.00
1156.670, 18041.00
1157.758, 18384.00
1158.846, 18580.00
1159.934, 18685.00
1161.022, 19026.00
1162.110, 19108.00
1163.198, 18930.00
1164.285, 18664.00
1165.372, 18521.00
1166.459, 18406.00
1167.546, 18153.00
1168.633, 18155.00
1169.720, 18000.06
1170.806, 17847.00
1171.892, 17822.00
1172.979, 17835.00
1174.065, 17777.00
1175.150, 17754.00
1176.236, 17838.00
1177.322, 17839.00
1178.407, 17765.00
1179.492, 17715.00
1180.577, 17718.00
1181.662, 17766.00
1182.747, 17816.00
1183.832, 17785.00
1184.916, 17820.00
1186.000, 17822.00
1187.084, 17815.00
1188.168, 17816.90
1189.252, 17894.00
1190.336, 17799.00
1191.419, 17870.00
1192.503, 17883.00
1193.586, 17839.00
1194.669, 18060.00
1195.752, 18030.00
1196.835, 18091.00
1197.917, 17958.00
1199.000, 17973.16
1200.082, 18021.00
1201.164, 17930.00
1202.246, 18059.00
1203.328, 18096.00
1204.409, 18028.00
1205.491, 18062.00
1206.572, 18123.00
1207.653, 17986.00
1208.734, 18246.00
1209.815, 18187.00
1210.896, 18165.00
1211.976, 18258.00
1213.057, 18197.00
1214.137, 18187.00
1215.217, 18230.37
1216.297, 18313.00
1217.377, 18258.00
1218.456, 18274.00
1219.536, 18243.00
1220.615, 18262.29
1221.694, 18440.00
1222.773, 18364.00
1223.852, 18173.00
1224.931, 18312.00
1226.009, 18436.00
1227.088, 18307.00
1228.166, 18352.00
1229.244, 18464.00
1230.322, 18506.00
1231.400, 18519.00
1232.477, 18616.00
1233.555, 18460.00
1234.632, 18405.00
1235.709, 18662.00
1236.786, 18608.00
1237.863, 18750.00
1238.939, 18570.00
1240.016, 18677.00
1241.092, 18715.00
1242.168, 18669.00
1243.245, 18513.00
1244.320, 18765.00
1245.396, 18539.00
1246.472, 18704.00
1247.547, 18735.00
1248.622, 18700.00
1249.697, 18736.00
1250.772, 18742.05
1251.847, 18753.00
1252.922, 18793.00
1253.996, 18772.00
1255.071, 18837.00
1256.145, 18764.00
