##NAMES=Riebeckite
##RRUFFID=R050082
##IDEAL CHEMISTRY=[box]Na_2_(Fe^2+^_3_Fe^3+^_2_)Si_8_O_22_(OH)_2_
##LOCALITY=Mt. Malosa, Zomba, Chilwa, Alkaline Area, Malawi
##OWNER=RRUFF
##SOURCE=Rock Currier
##DESCRIPTION=Black elongated prisms
##STATUS=The identification of this mineral has been confirmed by X-ray diffraction and chemical analysis
##URL=rruff.info/R050082
##MEASURED CHEMISTRY=([box]_0.63_Na_0.19_K_0.18_)(Na_1.58_Ca_0.42_)_Σ=2_Fe^2+^_3.00_(Fe^3+^_1.30_Fe^2+^_0.45_Mn_0.15_Mg_0.05_Ti_0.05_)_Σ=2_(Si_0.98_Al_0.02_)_8_O_22_(OH)_2_
##PIN_ID=L00547
##ORIENTATION=Laser parallel to -a* (-1 0 0). Fiducial mark perpendicular to laser is parallel to -b [0 -1 0]
133.7780, 33880.00
135.0140, 33638.00
136.2500, 33954.00
137.4850, 34511.00
138.7200, 34072.50
139.9550, 34268.00
141.1900, 33655.00
142.4250, 33271.00
143.6600, 33266.00
144.8940, 33360.00
146.1280, 33821.00
147.3620, 33955.00
148.5960, 33613.00
149.8300, 34328.00
151.0630, 35174.00
152.2960, 34518.00
153.5300, 34637.00
154.7620, 35214.00
155.9950, 34618.00
157.2280, 34667.00
158.4600, 34907.00
159.6920, 35320.00
160.9250, 35971.00
162.1560, 36724.00
163.3880, 37650.00
164.6200, 37780.58
165.8510, 38145.00
167.0820, 38167.00
168.3130, 38175.00
169.5440, 38542.00
170.7750, 38492.00
172.0050, 38559.00
173.2350, 38862.00
174.4650, 39641.00
175.6950, 40616.00
176.9250, 41671.00
178.1550, 43305.00
179.3840, 45592.00
180.6130, 47404.00
181.8420, 49291.00
183.0710, 51237.00
184.3000, 52267.00
185.5280, 54227.00
186.7570, 56095.00
187.9850, 58293.00
189.2130, 60220.00
190.4400, 63542.00
191.6680, 63972.00
192.8960, 63939.00
194.1230, 62660.00
195.3500, 60179.00
196.5770, 56392.00
197.8030, 53186.00
199.0300, 50601.00
200.2560, 49071.00
201.4830, 47394.00
202.7090, 45026.00
203.9340, 42198.00
205.1600, 39203.00
206.3860, 38083.00
207.6110, 37071.00
208.8360, 36679.00
210.0610, 36888.00
211.2860, 36817.00
212.5100, 36687.00
213.7350, 36756.00
214.9590, 36182.09
216.1830, 35184.00
217.4070, 34988.00
218.6310, 34397.00
219.8540, 33709.00
221.0780, 33755.00
222.3010, 33353.00
223.5240, 34006.00
224.7470, 33646.00
225.9690, 33495.00
227.1920, 33271.00
228.4140, 33264.00
229.6360, 33205.00
230.8580, 33345.57
232.0800, 33509.00
233.3020, 33850.00
234.5230, 33921.00
235.7440, 34332.00
236.9650, 34185.00
238.1860, 34472.00
239.4070, 34684.00
240.6280, 34504.00
241.8480, 34767.00
243.0680, 34918.00
244.2880, 34682.00
245.5080, 34706.00
246.7280, 34187.00
247.9470, 34360.00
249.1660, 34107.00
250.3860, 34186.00
251.6040, 33973.00
252.8230, 33882.00
254.0420, 33753.00
255.2600, 34043.00
256.4790, 34954.00
257.6970, 36061.00
258.9150, 35611.45
260.1320, 35662.42
261.3500, 35072.00
262.5670, 34698.00
263.7840, 34736.00
265.0010, 34783.00
266.2180, 35387.00
267.4350, 35297.00
268.6510, 35171.00
269.8680, 35221.00
271.0840, 34937.00
272.3000, 34884.00
273.5160, 34854.00
274.7310, 34697.88
275.9470, 34386.75
277.1620, 34343.00
278.3770, 33858.00
279.5920, 33245.00
280.8070, 33481.00
282.0210, 33648.00
283.2360, 33192.00
284.4500, 33232.00
285.6640, 33235.00
286.8780, 33142.00
288.0920, 33105.00
289.3050, 33014.00
290.5180, 32924.00
291.7320, 32771.00
292.9450, 32748.85
294.1570, 32612.00
295.3700, 32692.00
296.5830, 32806.00
297.7950, 32825.00
299.0070, 32757.00
300.2190, 32803.00
301.4310, 32711.00
302.6420, 32825.71
303.8540, 32672.00
305.0650, 33026.00
306.2760, 33132.00
307.4870, 33188.00
308.6980, 33149.00
309.9080, 33253.24
311.1190, 33322.79
312.3290, 33435.00
313.5390, 33584.00
314.7490, 33821.00
315.9580, 34074.00
317.1680, 34221.00
318.3770, 34721.00
319.5860, 34689.00
320.7950, 35199.00
322.0040, 35286.00
323.2130, 35636.00
324.4210, 35644.00
325.6290, 36257.00
326.8380, 36214.00
328.0460, 36698.00
329.2530, 36160.00
330.4610, 36233.00
331.6680, 35979.00
332.8760, 35897.00
334.0830, 35720.00
335.2890, 35526.00
336.4960, 35420.00
337.7030, 35529.00
338.9090, 35560.00
340.1150, 35332.00
341.3210, 35707.00
342.5270, 35856.00
343.7330, 36409.00
344.9380, 36908.00
346.1440, 37510.77
347.3490, 38658.00
348.5540, 39201.00
349.7590, 39927.00
350.9630, 41292.00
352.1680, 42335.00
353.3720, 43021.00
354.5760, 44123.00
355.7800, 45491.00
356.9840, 46562.00
358.1870, 47259.00
359.3910, 48037.00
360.5940, 48404.00
361.7970, 48031.00
363.0000, 47209.00
364.2030, 45859.00
365.4050, 44399.00
366.6080, 43789.00
367.8100, 42416.00
369.0120, 40790.00
370.2140, 40069.00
371.4150, 39514.00
372.6170, 38610.00
373.8180, 38213.80
375.0190, 37850.00
376.2200, 37353.00
377.4210, 37032.00
378.6220, 36696.00
379.8220, 36261.00
381.0230, 36134.00
382.2230, 35712.00
383.4230, 35680.00
384.6220, 35670.00
385.8220, 35584.00
387.0220, 35470.00
388.2210, 35349.00
389.4200, 35165.00
390.6190, 35027.42
391.8180, 34795.00
393.0160, 34727.00
394.2150, 34592.00
395.4130, 34509.00
396.6110, 34404.35
397.8090, 34279.88
399.0060, 34227.00
400.2040, 34070.00
401.4010, 34042.00
402.5980, 34011.00
403.7950, 33830.00
404.9920, 34086.00
406.1890, 33920.00
407.3860, 33867.00
408.5820, 33784.00
409.7780, 33823.00
410.9740, 33817.00
412.1700, 33731.00
413.3650, 33921.00
414.5610, 34015.00
415.7560, 33900.00
416.9510, 33876.00
418.1460, 33913.00
419.3410, 33967.00
420.5360, 33958.00
421.7300, 33940.00
422.9240, 34371.00
424.1180, 34229.82
425.3120, 34498.00
426.5060, 34288.00
427.7000, 34611.00
428.8930, 34764.00
430.0860, 34683.00
431.2790, 34767.00
432.4720, 34847.00
433.6650, 34669.00
434.8580, 34931.00
436.0500, 34540.00
437.2420, 34647.00
438.4340, 34626.00
439.6260, 34663.00
440.8180, 34431.00
442.0090, 34334.00
443.2010, 34295.00
444.3920, 34353.00
445.5830, 34359.83
446.7740, 34435.00
447.9640, 34415.00
449.1550, 34577.00
450.3450, 34440.00
451.5350, 34540.00
452.7250, 34676.00
453.9150, 34719.00
455.1050, 34836.00
456.2940, 34654.00
457.4830, 34901.00
458.6720, 34987.00
459.8610, 34768.00
461.0500, 35208.00
462.2390, 35334.00
463.4270, 35418.00
464.6150, 35419.00
465.8040, 35536.00
466.9910, 35447.00
468.1790, 35740.00
469.3670, 35832.00
470.5540, 35736.68
471.7410, 35713.38
472.9280, 35566.00
474.1150, 35427.00
475.3020, 35364.00
476.4890, 35363.00
477.6750, 35381.00
478.8610, 35139.00
480.0470, 35318.00
481.2330, 34985.00
482.4190, 35253.00
483.6040, 35521.00
484.7900, 35430.00
485.9750, 35332.00
487.1600, 35322.00
488.3450, 35592.00
489.5290, 35668.00
490.7140, 35666.00
491.8980, 35731.00
493.0820, 35694.00
494.2660, 35701.00
495.4500, 35760.00
496.6340, 35698.00
497.8170, 36047.00
499.0010, 35989.00
500.1840, 36181.00
501.3670, 36038.00
502.5500, 36293.00
503.7320, 36352.00
504.9150, 36351.00
506.0970, 36405.00
507.2790, 36524.00
508.4610, 36849.00
509.6430, 37213.00
510.8250, 37287.00
512.0060, 37285.00
513.1870, 37215.00
514.3680, 37519.00
515.5490, 37251.00
516.7300, 37522.00
517.9110, 37817.00
519.0910, 38174.00
520.2710, 38493.68
521.4510, 38754.00
522.6310, 39208.00
523.8110, 39707.00
524.9910, 40091.00
526.1700, 41010.00
527.3490, 41550.00
528.5280, 42502.00
529.7070, 43302.00
530.8860, 44088.00
532.0650, 45054.00
533.2430, 45937.00
534.4210, 46796.00
535.5990, 47669.00
536.7770, 48199.00
537.9550, 49033.00
539.1320, 49132.00
540.3100, 49241.00
541.4870, 49592.00
542.6640, 48716.23
543.8410, 47985.00
545.0170, 46778.00
546.1940, 46048.00
547.3700, 44830.00
548.5470, 44180.00
549.7230, 43417.00
550.8980, 42989.00
552.0740, 42476.00
553.2500, 42209.22
554.4250, 41896.77
555.6000, 41898.00
556.7750, 41430.00
557.9500, 41294.00
559.1250, 41029.00
560.2990, 40895.51
561.4730, 40821.35
562.6480, 40724.00
563.8220, 40835.00
564.9950, 40698.00
566.1690, 40916.00
567.3430, 40943.00
568.5160, 40881.00
569.6890, 41040.00
570.8620, 41147.00
572.0350, 40898.00
573.2070, 40892.00
574.3800, 40983.00
575.5520, 40900.00
576.7240, 40570.00
577.8960, 40553.00
579.0680, 40235.00
580.2400, 39593.00
581.4110, 39158.00
582.5830, 38822.00
583.7540, 38536.00
584.9250, 37641.00
586.0950, 37630.00
587.2660, 37027.00
588.4370, 37184.00
589.6070, 36735.00
590.7770, 36692.00
591.9470, 36529.00
593.1170, 36576.00
594.2860, 36607.00
595.4560, 36444.00
596.6250, 36263.00
597.7940, 36272.02
598.9630, 36552.00
600.1320, 36113.00
601.3000, 36529.00
602.4690, 36321.00
603.6370, 35973.00
604.8050, 36089.00
605.9730, 36017.00
607.1410, 36079.00
608.3090, 36030.00
609.4760, 35900.00
610.6430, 36149.00
611.8100, 36080.00
612.9770, 35959.00
614.1440, 36131.00
615.3110, 35782.00
616.4770, 36089.00
617.6430, 35989.00
618.8090, 36103.00
619.9750, 36200.00
621.1410, 36292.00
622.3070, 36181.00
623.4720, 35922.00
624.6370, 36209.00
625.8020, 36437.00
626.9670, 36380.00
628.1320, 36123.00
629.2970, 36384.00
630.4610, 36323.00
631.6250, 36517.00
632.7890, 36601.00
633.9530, 36556.00
635.1170, 36656.00
636.2810, 36566.00
637.4440, 36625.00
638.6070, 36810.00
639.7700, 36862.71
640.9330, 37017.00
642.0960, 37145.00
643.2590, 37272.00
644.4210, 37381.00
645.5830, 37646.00
646.7450, 38009.00
647.9070, 38135.00
649.0690, 38296.00
650.2310, 38847.00
651.3920, 39006.00
652.5530, 39548.00
653.7140, 40000.00
654.8750, 40393.00
656.0360, 40878.00
657.1970, 41026.00
658.3570, 41424.00
659.5170, 41254.00
660.6770, 41576.00
661.8370, 41409.00
662.9970, 41143.00
664.1570, 41142.00
665.3160, 40685.00
666.4750, 40287.00
667.6340, 39832.00
668.7930, 39502.92
669.9520, 39168.00
671.1110, 38861.00
672.2690, 38555.71
673.4270, 38296.48
674.5850, 37992.00
675.7430, 37882.00
676.9010, 37664.00
678.0590, 37613.00
679.2160, 37358.00
680.3730, 37209.00
681.5300, 37187.00
682.6870, 36913.00
683.8440, 37170.00
685.0010, 37399.00
686.1570, 37068.00
687.3130, 36890.00
688.4690, 36966.00
689.6250, 36764.00
690.7810, 37006.00
691.9370, 37055.00
693.0920, 37187.00
694.2470, 36996.00
695.4020, 36893.00
696.5570, 36928.00
697.7120, 36506.00
698.8670, 36991.00
700.0210, 36717.00
701.1750, 36528.00
702.3290, 36740.00
703.4830, 36715.00
704.6370, 36711.00
705.7910, 36708.00
706.9440, 36593.00
708.0970, 37155.00
709.2510, 36716.00
710.4030, 36974.00
711.5560, 36781.00
712.7090, 37146.00
713.8610, 36777.00
715.0140, 36882.00
716.1660, 36736.00
717.3180, 36979.00
718.4690, 36877.00
719.6210, 37002.00
720.7730, 37053.00
721.9240, 37065.00
723.0750, 37237.00
724.2260, 37393.00
725.3770, 37395.94
726.5270, 37363.00
727.6780, 37392.00
728.8280, 37427.00
729.9780, 37293.00
731.1280, 37497.00
732.2780, 37524.36
733.4280, 37490.00
734.5770, 37706.00
735.7260, 37803.00
736.8760, 37782.00
738.0250, 37492.00
739.1730, 37789.00
740.3220, 37530.00
741.4700, 37413.00
742.6190, 37539.00
743.7670, 37563.00
744.9150, 37369.00
746.0630, 37441.77
747.2100, 37345.57
748.3580, 37438.00
749.5050, 37343.00
750.6520, 37481.00
751.7990, 37465.63
752.9460, 37549.68
754.0930, 37541.00
755.2390, 37619.00
756.3860, 37744.00
757.5320, 37509.00
758.6780, 37619.00
759.8240, 37944.00
760.9690, 37653.00
762.1150, 37812.00
763.2600, 37941.00
764.4060, 37620.00
765.5510, 37762.00
766.6950, 37751.16
767.8400, 38063.00
768.9850, 37744.00
770.1290, 38174.00
771.2730, 37974.00
772.4170, 37991.00
773.5610, 37842.00
774.7050, 37899.00
775.8480, 37685.00
776.9920, 37777.00
778.1350, 37603.00
779.2780, 37448.00
780.4210, 37826.00
781.5640, 37639.00
782.7060, 37649.00
783.8490, 37704.00
784.9910, 37509.00
786.1330, 37471.00
787.2750, 37568.00
788.4170, 37369.00
789.5580, 37530.00
790.7000, 37336.00
791.8410, 38021.00
792.9820, 37553.00
794.1230, 37657.00
795.2640, 37683.00
796.4040, 37406.00
797.5450, 37372.00
798.6850, 37289.00
799.8250, 37643.00
800.9650, 37413.00
802.1050, 37697.00
803.2450, 37460.00
804.3840, 37380.00
805.5230, 37894.00
806.6630, 37644.00
807.8020, 37442.00
808.9400, 37776.00
810.0790, 37492.00
811.2170, 37751.00
812.3560, 37776.00
813.4940, 38107.00
814.6320, 37848.00
815.7700, 37873.00
816.9070, 37765.00
818.0450, 38029.00
819.1820, 37921.00
820.3190, 38081.00
821.4560, 37878.00
822.5930, 37968.33
823.7300, 37868.59
824.8670, 38062.00
826.0030, 37803.00
827.1390, 37869.00
828.2750, 38134.00
829.4110, 37921.00
830.5470, 38185.00
831.6820, 38054.00
832.8180, 38123.00
833.9530, 38173.00
835.0880, 38143.00
836.2230, 38327.00
837.3580, 38331.00
838.4920, 38131.00
839.6270, 38265.00
840.7610, 38207.29
841.8950, 38281.51
843.0290, 38342.00
844.1630, 38386.00
845.2960, 38437.02
846.4300, 38509.00
847.5630, 38541.00
848.6960, 38509.00
849.8290, 38610.00
850.9620, 38724.00
852.0940, 38639.43
853.2270, 39541.00
854.3590, 38850.00
855.4910, 39118.00
856.6230, 39954.00
857.7550, 39318.00
858.8870, 39542.26
860.0180, 39125.00
861.1500, 39194.00
862.2810, 39374.00
863.4120, 39380.00
864.5430, 39640.00
865.6730, 39895.00
866.8040, 39842.00
867.9340, 40021.00
869.0640, 40389.00
870.1940, 40454.00
871.3240, 40671.00
872.4540, 41038.00
873.5830, 41112.00
874.7130, 41173.00
875.8420, 41578.00
876.9710, 41760.00
878.1000, 42100.00
879.2290, 42537.00
880.3570, 43045.00
881.4860, 43190.00
882.6140, 43519.00
883.7420, 43801.00
884.8700, 44026.00
885.9980, 44211.00
887.1250, 44342.00
888.2530, 44367.00
889.3800, 44212.70
890.5070, 43807.00
891.6340, 43725.00
892.7610, 43201.00
893.8880, 42950.00
895.0140, 43029.00
896.1400, 42493.00
897.2670, 42001.00
898.3930, 41818.00
899.5180, 41754.00
900.6440, 41398.64
901.7700, 41276.33
902.8950, 41092.00
904.0200, 40843.00
905.1450, 41017.00
906.2700, 40751.00
907.3950, 40714.32
908.5190, 40514.00
909.6440, 40414.00
910.7680, 40371.77
911.8920, 40280.00
913.0160, 40375.00
914.1400, 40298.00
915.2630, 40473.00
916.3870, 40611.00
917.5100, 40286.00
918.6330, 40872.00
919.7560, 40442.00
920.8790, 40410.00
922.0010, 40612.00
923.1240, 40295.00
924.2460, 40382.00
925.3680, 40666.00
926.4900, 40417.00
927.6120, 40491.00
928.7340, 40561.44
929.8550, 40406.64
930.9760, 40661.00
932.0980, 40381.00
933.2190, 40390.00
934.3390, 40661.00
935.4600, 40403.00
936.5810, 40600.00
937.7010, 40791.00
938.8210, 40599.00
939.9410, 40693.00
941.0610, 40823.00
942.1810, 40813.00
943.3010, 40667.00
944.4200, 40978.00
945.5390, 40842.00
946.6580, 41043.00
947.7770, 41227.00
948.8960, 41273.71
950.0150, 41445.00
951.1330, 41557.00
952.2510, 41825.00
953.3690, 42014.00
954.4870, 42479.00
955.6050, 42707.00
956.7230, 43547.00
957.8400, 43847.00
958.9580, 44956.00
960.0750, 45311.00
961.1920, 46409.00
962.3090, 47346.00
963.4250, 48277.00
964.5420, 48878.09
965.6580, 49381.84
966.7740, 49661.00
967.8900, 49808.00
969.0060, 49693.00
970.1220, 49387.00
971.2380, 48817.00
972.3530, 48099.00
973.4680, 47651.00
974.5830, 46995.00
975.6980, 45930.00
976.8130, 45302.00
977.9280, 44953.00
979.0420, 44588.00
980.1560, 43970.00
981.2710, 43983.00
982.3850, 43822.00
983.4980, 43581.00
984.6120, 43208.00
985.7260, 43397.00
986.8390, 43052.00
987.9520, 42926.00
989.0650, 42729.00
990.1780, 42567.00
991.2910, 42347.00
992.4030, 42261.59
993.5160, 42160.00
994.6280, 42126.00
995.7400, 41934.00
996.8520, 41933.00
997.9640, 41722.00
999.0750, 41707.00
1000.187, 41705.00
1001.298, 41465.00
1002.409, 41789.00
1003.520, 41515.00
1004.631, 41475.00
1005.741, 41583.00
1006.852, 41441.96
1007.962, 41495.00
1009.072, 41401.00
1010.182, 41464.00
1011.292, 41453.00
1012.402, 41544.00
1013.511, 41268.00
1014.621, 41403.00
1015.730, 41197.00
1016.839, 41097.00
1017.948, 41280.00
1019.056, 41464.00
1020.165, 41039.00
1021.273, 40962.00
1022.382, 41146.00
1023.490, 41387.00
1024.598, 41615.00
1025.706, 41346.00
1026.813, 41083.00
1027.921, 41219.00
1029.028, 41206.00
1030.135, 41666.00
1031.242, 41583.00
1032.349, 41613.00
1033.456, 41526.00
1034.562, 41659.00
1035.668, 41502.00
1036.775, 41526.00
1037.881, 41435.00
1038.987, 41435.47
1040.092, 41502.00
1041.198, 41539.00
1042.303, 41507.00
1043.408, 41711.00
1044.514, 42030.00
1045.618, 42529.00
1046.723, 42031.00
1047.828, 41850.00
1048.932, 41589.00
1050.037, 41856.00
1051.141, 41749.00
1052.245, 41831.00
1053.349, 41785.00
1054.452, 41977.00
1055.556, 42027.00
1056.659, 41840.00
1057.762, 42137.00
1058.865, 42118.00
1059.968, 42285.00
1061.071, 42101.00
1062.174, 42641.00
1063.276, 42192.00
1064.378, 42202.00
1065.480, 42548.00
1066.582, 42552.00
1067.684, 42713.00
1068.786, 42792.00
1069.887, 42791.00
1070.988, 43022.00
1072.090, 43084.06
1073.191, 42883.00
1074.291, 43333.00
1075.392, 43391.00
1076.493, 43489.00
1077.593, 44009.00
1078.693, 43973.00
1079.793, 44050.00
1080.893, 44444.00
1081.993, 44516.00
1083.092, 44871.00
1084.192, 44803.00
1085.291, 44672.00
1086.390, 44582.00
1087.489, 44077.00
1088.588, 43913.00
1089.686, 43612.00
1090.785, 43460.00
1091.883, 43201.00
1092.981, 43098.65
1094.079, 43361.00
1095.177, 42923.00
1096.275, 43059.00
1097.373, 42982.00
1098.470, 42869.00
1099.567, 42870.00
1100.664, 42819.00
1101.761, 42729.00
1102.858, 42539.00
1103.954, 42374.00
1105.051, 42359.00
1106.147, 42714.00
1107.243, 42697.00
1108.339, 43156.00
1109.435, 42510.00
1110.531, 43090.00
1111.626, 42433.00
1112.722, 42391.00
1113.817, 42302.00
1114.912, 42206.00
1116.007, 42342.00
1117.101, 42393.00
1118.196, 42446.00
1119.290, 42420.37
1120.385, 42297.00
1121.479, 42296.00
1122.573, 42009.00
1123.666, 41931.00
1124.760, 41834.00
1125.853, 41985.00
1126.947, 41980.00
1128.040, 41748.00
1129.133, 41845.00
1130.226, 41441.00
1131.318, 41591.00
1132.411, 41488.00
1133.503, 41344.00
1134.596, 41436.00
1135.688, 41355.00
1136.780, 41205.00
1137.871, 41226.00
1138.963, 41195.00
1140.054, 40812.00
1141.146, 40940.00
1142.237, 40980.00
1143.328, 40684.00
1144.419, 40709.00
1145.509, 40632.00
1146.600, 40455.00
1147.690, 40453.00
1148.780, 40485.00
1149.870, 40414.00
1150.960, 40551.00
1152.050, 40611.00
1153.139, 40641.00
1154.229, 40507.00
1155.318, 40322.00
1156.407, 40341.00
1157.496, 40338.00
1158.585, 40242.03
1159.674, 40584.00
1160.762, 40184.00
1161.850, 40219.81
1162.939, 40290.70
1164.027, 39991.00
1165.114, 40201.00
1166.202, 39977.00
1167.290, 39942.00
1168.377, 40192.00
1169.464, 40082.00
1170.551, 40211.00
1171.638, 40279.70
1172.725, 40223.57
1173.812, 40315.00
1174.898, 40159.00
1175.984, 39978.00
1177.071, 39889.00
1178.157, 39757.00
1179.242, 39838.00
1180.328, 39999.00
1181.414, 39963.00
1182.499, 39983.58
1183.584, 40082.00
1184.669, 39964.00
1185.754, 39978.00
1186.839, 40117.00
1187.924, 40148.00
1189.008, 39897.00
1190.092, 39874.00
1191.177, 39846.00
1192.260, 39882.00
1193.344, 39884.35
1194.428, 39894.00
1195.512, 39941.00
1196.595, 39854.00
1197.678, 39873.00
1198.761, 39784.00
1199.844, 39817.16
1200.927, 39848.00
1202.009, 39859.00
1203.092, 39835.00
1204.174, 39811.00
1205.256, 39730.00
1206.338, 39924.00
1207.420, 39959.00
1208.502, 39914.00
1209.583, 39881.00
1210.665, 39848.00
1211.746, 39786.00
1212.827, 39830.00
1213.908, 39542.00
1214.988, 40081.00
1216.069, 39647.00
1217.149, 39786.00
1218.230, 39964.00
1219.310, 39897.00
1220.390, 39739.00
1221.470, 39658.00
1222.549, 40004.00
1223.629, 39796.00
1224.708, 39890.00
1225.787, 39918.00
1226.866, 39682.00
1227.945, 39619.00
1229.024, 39581.00
1230.103, 39697.00
1231.181, 39986.00
1232.259, 39620.00
1233.337, 40065.00
1234.415, 39916.00
1235.493, 39901.00
1236.571, 39938.00
1237.648, 39851.00
1238.726, 40009.00
1239.803, 39634.00
1240.880, 39793.00
1241.957, 39711.00
1243.034, 40008.00
1244.110, 39862.00
1245.187, 39788.00
1246.263, 39687.00
1247.339, 39903.00
1248.415, 39847.44
1249.491, 40425.00
1250.566, 39790.00
1251.642, 40135.00
1252.717, 39756.84
1253.793, 40274.00
1254.868, 39776.00
1255.943, 40012.00
1257.017, 40017.00
1258.092, 39773.00
1259.166, 39859.00
1260.241, 39876.00
1261.315, 39722.00
1262.389, 39822.00
1263.462, 40006.00
1264.536, 39975.00
1265.610, 39988.00
1266.683, 39803.00
1267.756, 40031.00
1268.829, 39758.00
1269.902, 39944.00
1270.975, 40037.00
1272.048, 39764.00
1273.120, 39920.00
1274.192, 40059.00
1275.264, 40076.00
1276.336, 39925.00
1277.408, 40171.00
1278.480, 39836.00
1279.551, 40070.00
1280.623, 40255.00
1281.694, 39886.00
1282.765, 39902.00
1283.836, 40083.00
1284.907, 39894.00
1285.977, 39962.00
1287.048, 39912.00
1288.118, 39805.00
1289.188, 39843.00
1290.258, 39809.72
1291.328, 39907.00
1292.398, 39870.00
1293.467, 40138.00
1294.537, 40273.00
1295.606, 39965.00
1296.675, 39875.00
1297.744, 40073.00
1298.813, 40018.00
1299.882, 40055.00
1300.950, 40078.00
1302.018, 39827.00
