##NAMES=Riebeckite
##RRUFFID=R050082
##IDEAL CHEMISTRY=[box]Na_2_(Fe^2+^_3_Fe^3+^_2_)Si_8_O_22_(OH)_2_
##LOCALITY=Mt. Malosa, Zomba, Chilwa, Alkaline Area, Malawi
##OWNER=RRUFF
##SOURCE=Rock Currier
##DESCRIPTION=Black elongated prisms
##STATUS=The identification of this mineral has been confirmed by X-ray diffraction and chemical analysis
##URL=rruff.info/R050082
##MEASURED CHEMISTRY=([box]_0.63_Na_0.19_K_0.18_)(Na_1.58_Ca_0.42_)_Σ=2_Fe^2+^_3.00_(Fe^3+^_1.30_Fe^2+^_0.45_Mn_0.15_Mg_0.05_Ti_0.05_)_Σ=2_(Si_0.98_Al_0.02_)_8_O_22_(OH)_2_
##PIN_ID=L00462
##ORIENTATION=Laser parallel to c* (0 0 1). Fiducial mark perpendicular to laser is parallel to a [1 0 0]
158.4600, 38796.00
159.6920, 39296.00
160.9250, 39310.00
162.1560, 39955.00
163.3880, 40583.00
164.6200, 40819.00
165.8510, 40798.00
167.0820, 41197.00
168.3130, 40858.00
169.5440, 41008.00
170.7750, 40723.00
172.0050, 40152.00
173.2350, 40048.00
174.4650, 40250.00
175.6950, 40008.00
176.9250, 40079.00
178.1550, 40124.00
179.3840, 40523.00
180.6130, 40716.22
181.8420, 40933.00
183.0710, 41557.00
184.3000, 41951.00
185.5280, 42745.00
186.7570, 43684.00
187.9850, 44193.00
189.2130, 44826.00
190.4400, 45175.00
191.6680, 45640.50
192.8960, 46186.00
194.1230, 46272.00
195.3500, 46650.00
196.5770, 46688.00
197.8030, 46658.00
199.0300, 47273.00
200.2560, 47994.00
201.4830, 48347.00
202.7090, 48398.00
203.9340, 47564.00
205.1600, 46087.00
206.3860, 45772.00
207.6110, 46230.00
208.8360, 46489.00
210.0610, 46820.00
211.2860, 47131.00
212.5100, 47582.00
213.7350, 47525.00
214.9590, 47675.00
216.1830, 47190.00
217.4070, 47153.00
218.6310, 46911.00
219.8540, 46488.00
221.0780, 46076.00
222.3010, 45489.00
223.5240, 45497.00
224.7470, 45596.00
225.9690, 45518.00
227.1920, 44923.00
228.4140, 45071.00
229.6360, 44873.00
230.8580, 44437.00
232.0800, 44447.00
233.3020, 43867.00
234.5230, 43663.00
235.7440, 42937.00
236.9650, 42827.00
238.1860, 42345.00
239.4070, 41150.00
240.6280, 40510.00
241.8480, 39762.00
243.0680, 39268.00
244.2880, 38465.00
245.5080, 38080.00
246.7280, 37593.00
247.9470, 37330.00
249.1660, 37094.00
250.3860, 36213.43
251.6040, 36645.14
252.8230, 36874.47
254.0420, 36912.30
255.2600, 36185.14
256.4790, 36445.82
257.6970, 36310.63
258.9150, 36159.21
260.1320, 36558.98
261.3500, 35943.09
262.5670, 36334.12
263.7840, 36323.22
265.0010, 36496.27
266.2180, 36592.00
267.4350, 36221.00
268.6510, 36237.00
269.8680, 36226.00
271.0840, 36109.00
272.3000, 36225.00
273.5160, 36185.00
274.7310, 36094.89
275.9470, 35936.00
277.1620, 35833.00
278.3770, 35589.00
279.5920, 35297.00
280.8070, 35369.00
282.0210, 35065.00
283.2360, 34956.00
284.4500, 34822.00
285.6640, 34711.00
286.8780, 34660.28
288.0920, 34575.16
289.3050, 34587.00
290.5180, 34468.00
291.7320, 34439.00
292.9450, 34380.00
294.1570, 34406.00
295.3700, 34339.00
296.5830, 34158.00
297.7950, 34544.00
299.0070, 34387.87
300.2190, 35213.00
301.4310, 34506.00
302.6420, 34889.00
303.8540, 35151.00
305.0650, 34839.00
306.2760, 35113.00
307.4870, 35010.00
308.6980, 35107.00
309.9080, 35150.00
311.1190, 35030.00
312.3290, 35351.00
313.5390, 35161.00
314.7490, 35212.00
315.9580, 35426.00
317.1680, 35339.00
318.3770, 35257.00
319.5860, 35471.00
320.7950, 35368.00
322.0040, 35089.00
323.2130, 35318.00
324.4210, 35196.00
325.6290, 35278.00
326.8380, 35183.00
328.0460, 35092.00
329.2530, 35139.00
330.4610, 35440.00
331.6680, 35289.00
332.8760, 35210.00
334.0830, 34924.00
335.2890, 35118.00
336.4960, 35248.00
337.7030, 35632.00
338.9090, 35625.00
340.1150, 35564.00
341.3210, 35741.00
342.5270, 35828.00
343.7330, 36149.00
344.9380, 36035.00
346.1440, 36294.00
347.3490, 36050.00
348.5540, 36331.00
349.7590, 36508.00
350.9630, 36430.00
352.1680, 36506.00
353.3720, 36718.00
354.5760, 36452.00
355.7800, 36558.00
356.9840, 36472.00
358.1870, 36481.00
359.3910, 36284.00
360.5940, 36034.00
361.7970, 36246.00
363.0000, 36287.00
364.2030, 36022.00
365.4050, 36020.00
366.6080, 35781.00
367.8100, 35569.00
369.0120, 35549.00
370.2140, 35648.00
371.4150, 35177.00
372.6170, 34873.00
373.8180, 34979.00
375.0190, 34812.00
376.2200, 34593.00
377.4210, 34302.00
378.6220, 34122.00
379.8220, 33890.46
381.0230, 33996.00
382.2230, 33609.00
383.4230, 33429.00
384.6220, 33574.00
385.8220, 33477.00
387.0220, 33171.00
388.2210, 32954.00
389.4200, 32971.00
390.6190, 32648.00
391.8180, 32668.00
393.0160, 32418.00
394.2150, 32297.00
395.4130, 32328.00
396.6110, 32187.00
397.8090, 32258.00
399.0060, 32191.31
400.2040, 31945.00
401.4010, 32097.00
402.5980, 31993.00
403.7950, 31893.00
404.9920, 31664.00
406.1890, 31849.00
407.3860, 32161.00
408.5820, 32184.00
409.7780, 32023.00
410.9740, 32105.00
412.1700, 32168.00
413.3650, 32247.00
414.5610, 32400.58
415.7560, 32812.00
416.9510, 32750.00
418.1460, 33201.00
419.3410, 33443.00
420.5360, 33662.00
421.7300, 33934.79
422.9240, 34056.13
424.1180, 34260.00
425.3120, 34224.00
426.5060, 34213.00
427.7000, 34126.00
428.8930, 34389.00
430.0860, 34186.00
431.2790, 34035.00
432.4720, 34146.00
433.6650, 33806.00
434.8580, 33594.00
436.0500, 33431.00
437.2420, 33386.00
438.4340, 33092.00
439.6260, 32968.00
440.8180, 32711.00
442.0090, 32636.00
443.2010, 32626.00
444.3920, 32559.00
445.5830, 32475.00
446.7740, 32431.00
447.9640, 32459.00
449.1550, 32354.00
450.3450, 32393.70
451.5350, 32635.00
452.7250, 32424.00
453.9150, 32433.00
455.1050, 32444.00
456.2940, 32249.00
457.4830, 32375.00
458.6720, 32553.00
459.8610, 32433.00
461.0500, 32492.00
462.2390, 32655.00
463.4270, 32634.00
464.6150, 32558.00
465.8040, 32517.00
466.9910, 32624.00
468.1790, 32752.00
469.3670, 32741.00
470.5540, 32661.00
471.7410, 32443.00
472.9280, 32613.00
474.1150, 32685.00
475.3020, 32567.00
476.4890, 32710.00
477.6750, 32757.22
478.8610, 32762.09
480.0470, 33015.00
481.2330, 32884.00
482.4190, 33111.00
483.6040, 33282.00
484.7900, 33453.00
485.9750, 33621.45
487.1600, 33759.09
488.3450, 33871.00
489.5290, 34009.00
490.7140, 34027.00
491.8980, 34110.00
493.0820, 34253.00
494.2660, 34450.00
495.4500, 34829.00
496.6340, 34613.00
497.8170, 35441.00
499.0010, 35205.00
500.1840, 35447.00
501.3670, 35432.00
502.5500, 35495.00
503.7320, 35506.00
504.9150, 35582.02
506.0970, 35645.00
507.2790, 35750.00
508.4610, 35881.00
509.6430, 35967.00
510.8250, 36275.00
512.0060, 36187.00
513.1870, 36094.00
514.3680, 36351.00
515.5490, 36548.00
516.7300, 36712.00
517.9110, 36833.00
519.0910, 37067.00
520.2710, 37291.79
521.4510, 37516.00
522.6310, 37863.00
523.8110, 38330.00
524.9910, 38719.00
526.1700, 39027.00
527.3490, 39436.00
528.5280, 39655.00
529.7070, 40054.00
530.8860, 40147.00
532.0650, 40383.00
533.2430, 40479.00
534.4210, 40388.00
535.5990, 40387.00
536.7770, 40616.00
537.9550, 40482.00
539.1320, 40373.00
540.3100, 40499.00
541.4870, 40215.00
542.6640, 39913.00
543.8410, 39556.00
545.0170, 39153.00
546.1940, 39082.00
547.3700, 38765.00
548.5470, 38924.00
549.7230, 38640.00
550.8980, 38707.00
552.0740, 38625.00
553.2500, 38226.00
554.4250, 38471.00
555.6000, 38285.00
556.7750, 38574.00
557.9500, 38763.00
559.1250, 38626.00
560.2990, 38787.00
561.4730, 38933.00
562.6480, 38965.00
563.8220, 38995.00
564.9950, 38850.00
566.1690, 38797.00
567.3430, 38649.00
568.5160, 38510.00
569.6890, 38316.00
570.8620, 37630.00
572.0350, 37081.00
573.2070, 36719.00
574.3800, 35716.00
575.5520, 35497.00
576.7240, 35034.00
577.8960, 34435.00
579.0680, 34074.00
580.2400, 33664.00
581.4110, 33287.00
582.5830, 32930.00
583.7540, 32609.00
584.9250, 32319.88
586.0950, 32066.87
587.2660, 31915.00
588.4370, 31710.00
589.6070, 31761.00
590.7770, 31786.00
591.9470, 31806.00
593.1170, 31485.00
594.2860, 31781.00
595.4560, 31564.00
596.6250, 31635.00
597.7940, 31753.00
598.9630, 31660.00
600.1320, 31646.00
601.3000, 31515.00
602.4690, 31706.00
603.6370, 31707.00
604.8050, 31887.00
605.9730, 31788.00
607.1410, 31908.00
608.3090, 31875.00
609.4760, 31981.00
610.6430, 31990.00
611.8100, 32079.00
612.9770, 32208.00
614.1440, 32120.00
615.3110, 32495.00
616.4770, 32504.00
617.6430, 32645.00
618.8090, 33010.00
619.9750, 32906.00
621.1410, 32903.00
622.3070, 33346.00
623.4720, 33647.00
624.6370, 33542.00
625.8020, 33981.00
626.9670, 33886.00
628.1320, 34264.00
629.2970, 34566.00
630.4610, 34511.00
631.6250, 35118.00
632.7890, 35446.00
633.9530, 35840.00
635.1170, 36284.00
636.2810, 36703.00
637.4440, 37054.00
638.6070, 37541.07
639.7700, 37796.00
640.9330, 38451.00
642.0960, 39210.00
643.2590, 39659.00
644.4210, 41050.00
645.5830, 41656.00
646.7450, 42723.00
647.9070, 44008.00
649.0690, 45754.00
650.2310, 47298.00
651.3920, 49147.00
652.5530, 51177.00
653.7140, 53001.00
654.8750, 55250.00
656.0360, 57832.00
657.1970, 59671.00
658.3570, 61645.00
659.5170, 63181.00
660.6770, 64761.00
661.8370, 65432.00
662.9970, 65535.00
664.1570, 65535.00
665.3160, 64872.00
666.4750, 63787.00
667.6340, 62044.00
668.7930, 59819.00
669.9520, 57310.00
671.1110, 55006.00
672.2690, 52012.00
673.4270, 49483.00
674.5850, 47094.00
675.7430, 44992.00
676.9010, 43223.42
678.0590, 41600.00
679.2160, 40506.00
680.3730, 39531.00
681.5300, 38984.00
682.6870, 37580.00
683.8440, 37355.00
685.0010, 36587.00
686.1570, 36318.00
687.3130, 35795.00
688.4690, 35712.00
689.6250, 35258.00
690.7810, 35246.00
691.9370, 34878.00
693.0920, 34815.00
694.2470, 34858.00
695.4020, 34688.00
696.5570, 34523.00
697.7120, 34492.00
698.8670, 34405.75
700.0210, 34410.00
701.1750, 34315.00
702.3290, 34226.00
703.4830, 34088.00
704.6370, 34118.00
705.7910, 34312.00
706.9440, 34159.00
708.0970, 34066.00
709.2510, 34147.79
710.4030, 33958.00
711.5560, 34035.00
712.7090, 34210.00
713.8610, 33848.00
715.0140, 33718.00
716.1660, 34170.00
717.3180, 33823.00
718.4690, 34054.00
719.6210, 33902.00
720.7730, 33674.00
721.9240, 33615.00
723.0750, 33729.00
724.2260, 33837.00
725.3770, 33584.00
726.5270, 33746.00
727.6780, 33464.00
728.8280, 33653.00
729.9780, 33936.00
731.1280, 33424.00
732.2780, 33570.00
733.4280, 33429.00
734.5770, 33468.00
735.7260, 33157.00
736.8760, 33372.00
738.0250, 33349.00
739.1730, 33377.00
740.3220, 33520.00
741.4700, 33314.00
742.6190, 32993.00
743.7670, 33142.00
744.9150, 33195.00
746.0630, 33142.00
747.2100, 33388.00
748.3580, 32899.00
749.5050, 32836.00
750.6520, 32872.00
751.7990, 32989.00
752.9460, 33013.00
754.0930, 32656.00
755.2390, 33839.00
756.3860, 33256.20
757.5320, 33507.00
758.6780, 32913.00
759.8240, 32898.00
760.9690, 32726.00
762.1150, 32802.00
763.2600, 33032.00
764.4060, 32944.00
765.5510, 33026.00
766.6950, 32941.00
767.8400, 32984.00
768.9850, 33087.00
770.1290, 32908.00
771.2730, 32800.00
772.4170, 32854.00
773.5610, 32912.00
774.7050, 32860.19
775.8480, 32788.51
776.9920, 32872.00
778.1350, 32676.00
779.2780, 32733.05
780.4210, 32997.00
781.5640, 32663.00
782.7060, 32826.00
783.8490, 32720.00
784.9910, 32801.00
786.1330, 32783.00
787.2750, 32732.00
788.4170, 32759.00
789.5580, 32809.00
790.7000, 32769.00
791.8410, 32934.00
792.9820, 32857.00
794.1230, 32975.00
795.2640, 32984.23
796.4040, 33002.00
797.5450, 32893.00
798.6850, 32998.00
799.8250, 32715.00
800.9650, 32708.00
802.1050, 32687.00
803.2450, 32798.00
804.3840, 32827.00
805.5230, 33009.00
806.6630, 32604.00
807.8020, 32848.00
808.9400, 32609.00
810.0790, 32780.00
811.2170, 32778.00
812.3560, 32906.00
813.4940, 32664.00
814.6320, 32865.00
815.7700, 32606.00
816.9070, 32655.00
818.0450, 32818.00
819.1820, 32739.00
820.3190, 32664.00
821.4560, 32694.00
822.5930, 32807.00
823.7300, 32691.00
824.8670, 32830.00
826.0030, 32559.00
827.1390, 32743.00
828.2750, 32607.00
829.4110, 32704.00
830.5470, 32759.00
831.6820, 32859.00
832.8180, 32783.00
833.9530, 32929.00
835.0880, 33181.00
836.2230, 33141.00
837.3580, 32914.00
838.4920, 32931.00
839.6270, 33123.00
840.7610, 33142.00
841.8950, 33278.00
843.0290, 32982.00
844.1630, 33303.00
845.2960, 33326.00
846.4300, 33359.00
847.5630, 33562.00
848.6960, 33439.00
849.8290, 33497.00
850.9620, 33357.00
852.0940, 33554.00
853.2270, 33464.00
854.3590, 33836.00
855.4910, 33740.00
856.6230, 33959.00
857.7550, 34048.00
858.8870, 33941.00
860.0180, 34286.00
861.1500, 34293.00
862.2810, 34408.00
863.4120, 34391.00
864.5430, 34538.00
865.6730, 34773.00
866.8040, 34840.00
867.9340, 34936.01
869.0640, 34662.00
870.1940, 35041.00
871.3240, 34897.00
872.4540, 34963.00
873.5830, 35463.00
874.7130, 35201.00
875.8420, 35433.00
876.9710, 35514.00
878.1000, 35439.00
879.2290, 35633.00
880.3570, 35745.00
881.4860, 35662.00
882.6140, 36323.00
883.7420, 36586.00
884.8700, 35875.00
885.9980, 36384.00
887.1250, 37106.00
888.2530, 36234.00
889.3800, 36448.00
890.5070, 36598.00
891.6340, 36637.00
892.7610, 36677.00
893.8880, 36690.00
895.0140, 37057.00
896.1400, 37002.00
897.2670, 37021.00
898.3930, 37467.00
899.5180, 37287.00
900.6440, 37473.00
901.7700, 37554.00
902.8950, 37691.00
904.0200, 37765.00
905.1450, 37851.00
906.2700, 37858.00
907.3950, 37933.00
908.5190, 38147.00
909.6440, 38061.00
910.7680, 38556.00
911.8920, 38345.00
913.0160, 38679.00
914.1400, 38536.00
915.2630, 38742.00
916.3870, 38589.00
917.5100, 38639.00
918.6330, 38706.00
919.7560, 39019.00
920.8790, 38907.00
922.0010, 39000.00
923.1240, 38911.00
924.2460, 39217.00
925.3680, 39204.00
926.4900, 39267.00
927.6120, 39110.00
928.7340, 39327.00
929.8550, 39128.00
930.9760, 39454.00
932.0980, 39267.00
933.2190, 39211.00
934.3390, 39676.00
935.4600, 39786.00
936.5810, 39655.00
937.7010, 39986.00
938.8210, 40043.00
939.9410, 40627.00
941.0610, 40773.00
942.1810, 40859.00
943.3010, 41264.00
944.4200, 41433.00
945.5390, 41981.00
946.6580, 42030.00
947.7770, 42313.00
948.8960, 42803.00
950.0150, 43259.00
951.1330, 43535.00
952.2510, 44290.00
953.3690, 44748.00
954.4870, 45205.00
955.6050, 45678.97
956.7230, 45624.00
957.8400, 46299.00
958.9580, 46703.00
960.0750, 46730.00
961.1920, 47369.00
962.3090, 47458.00
963.4250, 47496.63
964.5420, 47962.00
965.6580, 47465.00
966.7740, 47602.00
967.8900, 47691.00
969.0060, 47617.00
970.1220, 47504.00
971.2380, 47433.00
972.3530, 47035.00
973.4680, 46945.00
974.5830, 46947.00
975.6980, 46398.00
976.8130, 46343.00
977.9280, 45905.00
979.0420, 45610.00
980.1560, 45312.00
981.2710, 45269.00
982.3850, 44713.00
983.4980, 44229.00
984.6120, 44364.00
985.7260, 43891.00
986.8390, 43673.00
987.9520, 43359.00
989.0650, 43102.00
990.1780, 43064.00
991.2910, 42887.00
992.4030, 42892.00
993.5160, 42549.00
994.6280, 42410.00
995.7400, 42476.00
996.8520, 42622.00
997.9640, 42226.00
999.0750, 42366.00
1000.187, 42494.00
1001.298, 42416.00
1002.409, 42467.24
1003.520, 42514.00
1004.631, 42432.00
1005.741, 42635.00
1006.852, 42728.00
1007.962, 42562.00
1009.072, 42645.00
1010.182, 42754.00
1011.292, 42771.00
1012.402, 43057.00
1013.511, 42981.00
1014.621, 43431.00
1015.730, 43379.00
1016.839, 43621.00
1017.948, 43772.00
1019.056, 44042.00
1020.165, 44103.00
1021.273, 44247.00
1022.382, 44441.00
1023.490, 45047.00
1024.598, 45131.00
1025.706, 45736.00
1026.813, 45738.00
1027.921, 46010.00
1029.028, 46366.00
1030.135, 46623.00
1031.242, 46965.00
1032.349, 47089.00
1033.456, 47326.00
1034.562, 47629.00
1035.668, 47891.00
1036.775, 48128.00
1037.881, 48049.00
1038.987, 48076.00
1040.092, 47805.00
1041.198, 48061.00
1042.303, 47969.00
1043.408, 47637.00
1044.514, 47845.00
1045.618, 47773.00
1046.723, 47457.00
1047.828, 47289.00
1048.932, 47165.29
1050.037, 46990.00
1051.141, 46925.00
1052.245, 46769.00
1053.349, 46671.00
1054.452, 46317.00
1055.556, 46483.00
1056.659, 46129.00
1057.762, 46358.00
1058.865, 45659.00
1059.968, 46142.00
1061.071, 45338.00
1062.174, 45552.00
1063.276, 45352.00
1064.378, 45482.00
1065.480, 45399.00
1066.582, 44899.00
1067.684, 44734.00
1068.786, 44767.00
1069.887, 44762.00
1070.988, 44367.00
1072.090, 44088.00
1073.191, 43896.00
1074.291, 43774.00
1075.392, 43778.00
1076.493, 43389.00
1077.593, 43370.00
1078.693, 42676.00
1079.793, 42366.00
1080.893, 42220.00
1081.993, 42275.00
1083.092, 42003.00
1084.192, 41735.00
1085.291, 41454.00
1086.390, 41138.00
1087.489, 40988.73
1088.588, 40854.00
1089.686, 40749.00
1090.785, 40485.00
1091.883, 40484.00
1092.981, 40326.00
1094.079, 40039.00
1095.177, 40022.00
1096.275, 39942.00
1097.373, 40013.00
1098.470, 39854.00
1099.567, 39644.00
1100.664, 39708.00
1101.761, 39376.00
1102.858, 39548.00
1103.954, 39376.00
1105.051, 39458.00
1106.147, 39318.00
1107.243, 39343.00
1108.339, 39425.00
1109.435, 39280.00
1110.531, 39296.21
1111.626, 39189.00
1112.722, 39209.00
1113.817, 39031.00
1114.912, 39035.00
1116.007, 38890.00
1117.101, 38886.00
1118.196, 38808.00
1119.290, 38680.00
1120.385, 38734.00
1121.479, 38446.00
1122.573, 38651.00
1123.666, 38782.00
1124.760, 38321.00
1125.853, 37904.00
1126.947, 38091.00
1128.040, 37882.00
1129.133, 37580.00
1130.226, 37440.00
1131.318, 37226.00
1132.411, 37266.00
1133.503, 37308.00
1134.596, 37143.00
1135.688, 36892.00
1136.780, 37068.00
1137.871, 36829.00
1138.963, 36650.00
1140.054, 36636.00
1141.146, 36544.00
1142.237, 36322.00
1143.328, 36229.00
1144.419, 36215.00
1145.509, 35880.00
1146.600, 36061.00
1147.690, 36017.00
1148.780, 35674.00
1149.870, 35638.00
1150.960, 35735.00
1152.050, 35957.00
1153.139, 35732.00
1154.229, 35738.00
1155.318, 35567.00
1156.407, 35776.00
1157.496, 35510.00
1158.585, 35668.00
1159.674, 35681.00
1160.762, 35522.00
1161.850, 35422.00
1162.939, 35238.00
1164.027, 35307.00
1165.114, 35493.00
1166.202, 35660.00
1167.290, 35302.00
1168.377, 35364.00
1169.464, 35340.00
1170.551, 35596.00
1171.638, 35736.00
1172.725, 35450.00
1173.812, 35481.00
1174.898, 35588.00
1175.984, 35492.00
1177.071, 35654.00
1178.157, 35394.00
1179.242, 35410.00
1180.328, 35427.00
1181.414, 35624.00
1182.499, 35368.00
1183.584, 35465.00
1184.669, 35523.00
1185.754, 35532.00
1186.839, 35591.22
1187.924, 35606.01
1189.008, 35602.00
1190.092, 35590.00
1191.177, 35494.05
1192.260, 35514.05
1193.344, 35501.86
1194.428, 35511.00
1195.512, 35532.00
1196.595, 35568.00
1197.678, 35592.36
1198.761, 35367.00
1199.844, 35518.00
1200.927, 35498.00
1202.009, 35361.00
1203.092, 35534.00
1204.174, 35543.00
1205.256, 35525.00
1206.338, 35811.00
1207.420, 35737.00
1208.502, 35802.00
1209.583, 35695.00
1210.665, 35766.00
1211.746, 35842.00
1212.827, 35771.41
1213.908, 35689.00
1214.988, 35721.00
1216.069, 35554.00
1217.149, 35526.00
1218.230, 35637.00
1219.310, 35607.00
1220.390, 35718.00
1221.470, 35882.00
1222.549, 35710.00
1223.629, 35772.00
1224.708, 35901.00
1225.787, 35601.00
1226.866, 35702.00
1227.945, 35732.00
1229.024, 35771.00
1230.103, 35868.00
1231.181, 35964.00
1232.259, 35689.00
1233.337, 35990.00
1234.415, 35653.00
1235.493, 35994.00
1236.571, 35746.00
1237.648, 35826.00
1238.726, 35899.00
1239.803, 35922.00
1240.880, 35996.00
1241.957, 35713.00
1243.034, 35825.00
1244.110, 35635.00
1245.187, 35797.00
1246.263, 35763.00
1247.339, 35782.00
1248.415, 35766.00
1249.491, 35819.28
1250.566, 35817.83
1251.642, 35941.00
1252.717, 35832.00
1253.793, 35872.00
1254.868, 35850.00
1255.943, 35759.00
1257.017, 35804.00
1258.092, 35944.00
1259.166, 36084.00
1260.241, 35958.00
1261.315, 36059.00
1262.389, 35992.00
1263.462, 36213.00
1264.536, 36062.00
1265.610, 36191.00
1266.683, 35968.00
1267.756, 36171.00
1268.829, 35866.00
1269.902, 35975.00
1270.975, 35862.00
1272.048, 36241.00
1273.120, 36092.00
1274.192, 36182.00
1275.264, 36555.00
1276.336, 36512.00
1277.408, 36503.00
1278.480, 36410.00
1279.551, 36378.00
1280.623, 36345.00
1281.694, 36324.91
1282.765, 36297.13
1283.836, 36324.00
1284.907, 36259.00
1285.977, 36245.00
1287.048, 36242.00
1288.118, 36306.00
1289.188, 36487.00
1290.258, 36354.00
1291.328, 36341.00
1292.398, 36398.00
1293.467, 36210.00
1294.537, 36138.00
1295.606, 36267.00
1296.675, 36306.00
1297.744, 36203.00
1298.813, 36601.00
1299.882, 36423.00
1300.950, 36538.00
1302.018, 36482.00
1303.086, 36734.00
1304.155, 36296.00
1305.222, 36297.00
1306.290, 36291.00
1307.358, 36734.00
1308.425, 36519.00
1309.492, 37215.00
1310.559, 36874.00
1311.626, 36683.00
1312.693, 36631.00
1313.760, 36943.00
1314.826, 36473.97
1315.893, 36944.16
1316.959, 37211.97
1318.025, 37288.29
1319.091, 36599.59
1320.157, 36898.76
1321.222, 36802.03
1322.288, 36689.07
1323.353, 37127.27
