##NAMES=Riebeckite
##RRUFFID=R050082
##IDEAL CHEMISTRY=[box]Na_2_(Fe^2+^_3_Fe^3+^_2_)Si_8_O_22_(OH)_2_
##LOCALITY=Mt. Malosa, Zomba, Chilwa, Alkaline Area, Malawi
##OWNER=RRUFF
##SOURCE=Rock Currier
##DESCRIPTION=Black elongated prisms
##STATUS=The identification of this mineral has been confirmed by X-ray diffraction and chemical analysis
##URL=rruff.info/R050082
##MEASURED CHEMISTRY=([box]_0.63_Na_0.19_K_0.18_)(Na_1.58_Ca_0.42_)_Σ=2_Fe^2+^_3.00_(Fe^3+^_1.30_Fe^2+^_0.45_Mn_0.15_Mg_0.05_Ti_0.05_)_Σ=2_(Si_0.98_Al_0.02_)_8_O_22_(OH)_2_
##PIN_ID=L00434
##ORIENTATION=Laser parallel to b* (0 1 0). Fiducial mark perpendicular to laser is parallel to c [0 0 1]
153.5300, 31493.00
154.7620, 31499.00
155.9950, 31381.15
157.2280, 31473.82
158.4600, 31448.00
159.6920, 32075.00
160.9250, 32565.00
162.1560, 33524.00
163.3880, 34321.00
164.6200, 34774.00
165.8510, 35151.00
167.0820, 34999.00
168.3130, 34945.00
169.5440, 34564.00
170.7750, 34444.00
172.0050, 33735.00
173.2350, 33901.00
174.4650, 33784.00
175.6950, 33802.00
176.9250, 33916.00
178.1550, 33841.00
179.3840, 34154.00
180.6130, 34326.00
181.8420, 34617.00
183.0710, 34980.00
184.3000, 35351.00
185.5280, 36394.00
186.7570, 37087.00
187.9850, 37904.00
189.2130, 38275.00
190.4400, 38471.00
191.6680, 38844.00
192.8960, 39061.09
194.1230, 39249.00
195.3500, 39476.00
196.5770, 39442.00
197.8030, 39544.00
199.0300, 39238.00
200.2560, 39339.00
201.4830, 39331.00
202.7090, 39277.00
203.9340, 38022.00
205.1600, 37427.00
206.3860, 36996.00
207.6110, 37383.00
208.8360, 37889.00
210.0610, 38527.00
211.2860, 38909.91
212.5100, 39115.62
213.7350, 39542.00
214.9590, 39248.00
216.1830, 38902.00
217.4070, 38783.00
218.6310, 38061.00
219.8540, 37888.00
221.0780, 38020.00
222.3010, 37437.00
223.5240, 36861.00
224.7470, 37305.00
225.9690, 37311.00
227.1920, 37550.00
228.4140, 37563.00
229.6360, 37599.00
230.8580, 37537.00
232.0800, 37723.00
233.3020, 37493.00
234.5230, 36969.00
235.7440, 36426.00
236.9650, 35794.00
238.1860, 35261.00
239.4070, 34806.00
240.6280, 34192.30
241.8480, 33768.00
243.0680, 33096.00
244.2880, 32471.00
245.5080, 31977.00
246.7280, 31518.00
247.9470, 31219.00
249.1660, 30944.00
250.3860, 30633.71
251.6040, 30452.55
252.8230, 30265.00
254.0420, 30210.00
255.2600, 30321.00
256.4790, 30451.00
257.6970, 31576.00
258.9150, 31017.75
260.1320, 31042.70
261.3500, 30768.00
262.5670, 30365.00
263.7840, 30854.00
265.0010, 30876.00
266.2180, 30347.00
267.4350, 30675.00
268.6510, 30267.00
269.8680, 30207.00
271.0840, 30028.00
272.3000, 29959.00
273.5160, 30263.00
274.7310, 29916.00
275.9470, 29793.00
277.1620, 29907.00
278.3770, 29456.00
279.5920, 29222.00
280.8070, 29174.60
282.0210, 28874.56
283.2360, 28951.00
284.4500, 28666.00
285.6640, 28507.00
286.8780, 28672.00
288.0920, 28478.00
289.3050, 28679.00
290.5180, 28814.00
291.7320, 28624.00
292.9450, 28798.00
294.1570, 29130.00
295.3700, 29094.00
296.5830, 29859.00
297.7950, 29674.18
299.0070, 29719.00
300.2190, 29770.00
301.4310, 29513.00
302.6420, 29875.00
303.8540, 30279.00
305.0650, 30113.00
306.2760, 30592.29
307.4870, 30845.46
308.6980, 31054.00
309.9080, 31389.00
311.1190, 31362.00
312.3290, 31571.69
313.5390, 31526.00
314.7490, 31721.00
315.9580, 31676.00
317.1680, 31621.00
318.3770, 31397.00
319.5860, 31246.00
320.7950, 31025.00
322.0040, 30978.00
323.2130, 30868.00
324.4210, 30655.88
325.6290, 30563.04
326.8380, 30314.00
328.0460, 30171.00
329.2530, 30122.00
330.4610, 29735.00
331.6680, 29443.00
332.8760, 29306.00
334.0830, 29281.00
335.2890, 29038.00
336.4960, 29060.00
337.7030, 29034.00
338.9090, 29000.00
340.1150, 29116.00
341.3210, 29130.00
342.5270, 29177.16
343.7330, 29163.00
344.9380, 29326.00
346.1440, 29279.29
347.3490, 29447.00
348.5540, 29452.00
349.7590, 29639.00
350.9630, 29956.00
352.1680, 29958.00
353.3720, 30086.00
354.5760, 29976.00
355.7800, 29842.00
356.9840, 29714.00
358.1870, 29720.07
359.3910, 29808.00
360.5940, 29696.00
361.7970, 29747.00
363.0000, 29609.00
364.2030, 29549.00
365.4050, 29512.00
366.6080, 29492.00
367.8100, 29463.00
369.0120, 29316.00
370.2140, 29306.00
371.4150, 29290.00
372.6170, 29412.00
373.8180, 29207.00
375.0190, 29254.00
376.2200, 29105.00
377.4210, 28727.00
378.6220, 28795.00
379.8220, 28677.00
381.0230, 28726.00
382.2230, 28353.00
383.4230, 28349.00
384.6220, 28292.00
385.8220, 28610.00
387.0220, 28157.00
388.2210, 28184.00
389.4200, 28173.00
390.6190, 28000.00
391.8180, 27986.67
393.0160, 27750.63
394.2150, 27775.00
395.4130, 27355.00
396.6110, 27137.00
397.8090, 27117.00
399.0060, 26968.00
400.2040, 26949.00
401.4010, 26842.90
402.5980, 26655.00
403.7950, 26704.00
404.9920, 26634.00
406.1890, 26678.44
407.3860, 26587.00
408.5820, 26659.00
409.7780, 26590.00
410.9740, 26468.00
412.1700, 26630.00
413.3650, 26959.00
414.5610, 27145.00
415.7560, 26995.00
416.9510, 27130.00
418.1460, 27044.00
419.3410, 27402.00
420.5360, 27671.00
421.7300, 27829.00
422.9240, 28055.61
424.1180, 28100.00
425.3120, 28329.00
426.5060, 28449.00
427.7000, 28523.93
428.8930, 28448.00
430.0860, 28491.00
431.2790, 28373.00
432.4720, 28165.00
433.6650, 28029.00
434.8580, 27928.00
436.0500, 27683.00
437.2420, 27617.00
438.4340, 27655.00
439.6260, 27428.00
440.8180, 27592.00
442.0090, 27351.00
443.2010, 27249.00
444.3920, 27023.00
445.5830, 27223.00
446.7740, 27392.00
447.9640, 27429.00
449.1550, 27373.00
450.3450, 27134.00
451.5350, 27115.00
452.7250, 26971.00
453.9150, 27379.00
455.1050, 27266.00
456.2940, 27262.00
457.4830, 27400.00
458.6720, 27234.00
459.8610, 27294.00
461.0500, 27240.00
462.2390, 27311.00
463.4270, 27124.00
464.6150, 27353.00
465.8040, 27265.00
466.9910, 27146.00
468.1790, 27279.00
469.3670, 27283.00
470.5540, 27310.00
471.7410, 27448.00
472.9280, 27483.00
474.1150, 27364.00
475.3020, 27287.00
476.4890, 27291.00
477.6750, 27301.60
478.8610, 27374.94
480.0470, 27445.00
481.2330, 27694.00
482.4190, 27807.00
483.6040, 27942.21
484.7900, 27971.00
485.9750, 28163.00
487.1600, 28250.00
488.3450, 28272.13
489.5290, 28443.01
490.7140, 28513.00
491.8980, 28679.00
493.0820, 28924.00
494.2660, 29033.00
495.4500, 29101.00
496.6340, 29078.00
497.8170, 29198.50
499.0010, 29064.00
500.1840, 29449.00
501.3670, 29460.00
502.5500, 29774.00
503.7320, 29872.00
504.9150, 29609.00
506.0970, 30109.00
507.2790, 30126.00
508.4610, 30955.00
509.6430, 30362.00
510.8250, 30235.00
512.0060, 30719.00
513.1870, 30509.00
514.3680, 30879.00
515.5490, 30597.00
516.7300, 30943.00
517.9110, 31344.00
519.0910, 31636.00
520.2710, 32083.00
521.4510, 32057.00
522.6310, 32056.00
523.8110, 32407.00
524.9910, 32908.00
526.1700, 33261.00
527.3490, 34100.00
528.5280, 34229.00
529.7070, 34666.00
530.8860, 34953.00
532.0650, 35172.00
533.2430, 35630.00
534.4210, 35905.00
535.5990, 35821.00
536.7770, 35599.00
537.9550, 35858.00
539.1320, 35466.00
540.3100, 35213.00
541.4870, 35030.00
542.6640, 34669.00
543.8410, 34591.00
545.0170, 34515.00
546.1940, 34087.00
547.3700, 34038.00
548.5470, 33718.89
549.7230, 33474.02
550.8980, 33258.00
552.0740, 33082.00
553.2500, 33083.00
554.4250, 33110.00
555.6000, 32881.00
556.7750, 32988.00
557.9500, 32824.00
559.1250, 33024.00
560.2990, 33139.00
561.4730, 33284.00
562.6480, 33076.00
563.8220, 33610.00
564.9950, 33151.00
566.1690, 33820.00
567.3430, 33399.00
568.5160, 33758.00
569.6890, 33559.00
570.8620, 32607.00
572.0350, 31970.00
573.2070, 31232.00
574.3800, 30707.00
575.5520, 30219.00
576.7240, 29681.68
577.8960, 29249.87
579.0680, 28803.00
580.2400, 28418.00
581.4110, 28048.00
582.5830, 27700.00
583.7540, 27387.00
584.9250, 27198.00
586.0950, 26997.00
587.2660, 26807.99
588.4370, 26529.00
589.6070, 26608.00
590.7770, 26489.00
591.9470, 26615.00
593.1170, 26500.00
594.2860, 26416.00
595.4560, 26313.00
596.6250, 26424.00
597.7940, 26625.00
598.9630, 26602.00
600.1320, 26447.00
601.3000, 26438.00
602.4690, 26374.00
603.6370, 26524.00
604.8050, 26517.00
605.9730, 26528.00
607.1410, 26632.00
608.3090, 26664.00
609.4760, 26613.00
610.6430, 26699.00
611.8100, 26650.00
612.9770, 26763.00
614.1440, 26829.00
615.3110, 26856.00
616.4770, 27106.00
617.6430, 26927.00
618.8090, 26861.00
619.9750, 27234.00
621.1410, 27215.00
622.3070, 27335.00
623.4720, 27419.00
624.6370, 27462.00
625.8020, 27645.00
626.9670, 27885.00
628.1320, 27966.00
629.2970, 28143.61
630.4610, 28249.00
631.6250, 28451.00
632.7890, 28597.00
633.9530, 28854.00
635.1170, 29076.83
636.2810, 29465.00
637.4440, 29654.00
638.6070, 30021.00
639.7700, 30463.00
640.9330, 30647.00
642.0960, 31123.00
643.2590, 31534.00
644.4210, 32306.00
645.5830, 32960.00
646.7450, 33556.00
647.9070, 34562.00
649.0690, 35575.02
650.2310, 36752.00
651.3920, 38101.00
652.5530, 39607.64
653.7140, 41268.14
654.8750, 43074.00
656.0360, 45086.00
657.1970, 47133.00
658.3570, 49461.00
659.5170, 51456.00
660.6770, 53664.00
661.8370, 55141.00
662.9970, 56181.00
664.1570, 56501.00
665.3160, 56487.00
666.4750, 55444.00
667.6340, 53565.00
668.7930, 51020.00
669.9520, 48370.00
671.1110, 45526.00
672.2690, 43168.00
673.4270, 40535.00
674.5850, 38487.00
675.7430, 36816.00
676.9010, 35458.00
678.0590, 34445.00
679.2160, 33283.00
680.3730, 32739.00
681.5300, 32041.00
682.6870, 31516.00
683.8440, 31000.00
685.0010, 30933.00
686.1570, 30438.00
687.3130, 30412.00
688.4690, 29994.00
689.6250, 30001.00
690.7810, 30038.00
691.9370, 29813.00
693.0920, 29899.00
694.2470, 29707.00
695.4020, 29609.00
696.5570, 29683.00
697.7120, 29747.00
698.8670, 29451.00
700.0210, 29704.00
701.1750, 29460.00
702.3290, 29449.00
703.4830, 29610.00
704.6370, 29610.00
705.7910, 29750.00
706.9440, 30041.00
708.0970, 29681.00
709.2510, 29558.00
710.4030, 29528.00
711.5560, 29738.00
712.7090, 29525.00
713.8610, 29744.00
715.0140, 29620.00
716.1660, 29587.00
717.3180, 29426.00
718.4690, 29375.00
719.6210, 29307.00
720.7730, 29278.00
721.9240, 29346.00
723.0750, 29232.00
724.2260, 29481.00
725.3770, 29676.00
726.5270, 29473.00
727.6780, 28993.00
728.8280, 29044.00
729.9780, 29046.00
731.1280, 28919.00
732.2780, 28717.00
733.4280, 28639.00
734.5770, 28522.10
735.7260, 28419.56
736.8760, 28390.00
738.0250, 28292.00
739.1730, 28307.00
740.3220, 28315.00
741.4700, 28306.00
742.6190, 28238.00
743.7670, 28229.00
744.9150, 28055.00
746.0630, 28171.00
747.2100, 28010.31
748.3580, 28352.00
749.5050, 27755.00
750.6520, 27773.00
751.7990, 27566.00
752.9460, 27962.00
754.0930, 27718.00
755.2390, 27998.00
756.3860, 27764.00
757.5320, 27745.00
758.6780, 27718.00
759.8240, 27643.00
760.9690, 27599.00
762.1150, 27793.00
763.2600, 27712.00
764.4060, 27832.00
765.5510, 27833.00
766.6950, 27840.00
767.8400, 27849.00
768.9850, 27795.00
770.1290, 27645.00
771.2730, 27660.00
772.4170, 27425.00
773.5610, 27645.00
774.7050, 27561.00
775.8480, 27678.00
776.9920, 27531.00
778.1350, 27570.00
779.2780, 27562.00
780.4210, 27454.00
781.5640, 27489.17
782.7060, 27333.00
783.8490, 27417.00
784.9910, 27383.00
786.1330, 27242.00
787.2750, 27385.00
788.4170, 27444.00
789.5580, 27439.00
790.7000, 27470.00
791.8410, 27368.00
792.9820, 27454.00
794.1230, 27403.00
795.2640, 27439.00
796.4040, 27606.00
797.5450, 27236.00
798.6850, 27529.00
799.8250, 27390.00
800.9650, 27551.00
802.1050, 27283.00
803.2450, 27227.00
804.3840, 27447.00
805.5230, 27327.00
806.6630, 27193.00
807.8020, 27403.00
808.9400, 27289.00
810.0790, 27385.00
811.2170, 27108.00
812.3560, 27275.00
813.4940, 27013.00
814.6320, 27023.00
815.7700, 27108.00
816.9070, 27069.00
818.0450, 27113.00
819.1820, 27110.33
820.3190, 27137.00
821.4560, 27072.00
822.5930, 27183.00
823.7300, 27129.00
824.8670, 27053.00
826.0030, 27292.00
827.1390, 27229.00
828.2750, 27249.00
829.4110, 27253.00
830.5470, 27257.00
831.6820, 27185.00
832.8180, 27286.00
833.9530, 27271.80
835.0880, 27354.83
836.2230, 27353.00
837.3580, 27453.00
838.4920, 27537.00
839.6270, 27385.00
840.7610, 27486.00
841.8950, 27459.89
843.0290, 27651.00
844.1630, 27509.00
845.2960, 27606.00
846.4300, 27723.00
847.5630, 27938.00
848.6960, 27815.00
849.8290, 27726.00
850.9620, 27889.00
852.0940, 27971.00
853.2270, 28138.00
854.3590, 28179.00
855.4910, 28190.00
856.6230, 28280.00
857.7550, 28572.00
858.8870, 28491.00
860.0180, 28685.00
861.1500, 28643.00
862.2810, 28931.00
863.4120, 28849.00
864.5430, 29197.00
865.6730, 29253.00
866.8040, 29607.00
867.9340, 29274.00
869.0640, 29323.00
870.1940, 29644.00
871.3240, 29801.00
872.4540, 29893.00
873.5830, 29827.00
874.7130, 29933.00
875.8420, 30126.00
876.9710, 30275.00
878.1000, 30157.00
879.2290, 30322.00
880.3570, 30470.00
881.4860, 30190.00
882.6140, 30232.00
883.7420, 30196.00
884.8700, 30206.00
885.9980, 30270.00
887.1250, 30351.00
888.2530, 30237.00
889.3800, 30065.00
890.5070, 30285.00
891.6340, 30161.28
892.7610, 30191.00
893.8880, 30132.00
895.0140, 30320.00
896.1400, 29980.57
897.2670, 30368.12
898.3930, 30604.15
899.5180, 30696.80
900.6440, 30216.84
901.7700, 30476.35
902.8950, 30439.47
904.0200, 30390.44
905.1450, 30753.98
906.2700, 30357.27
907.3950, 30714.27
908.5190, 30770.36
909.6440, 30431.00
910.7680, 30731.00
911.8920, 30875.00
913.0160, 30778.00
914.1400, 30572.00
915.2630, 30953.00
916.3870, 30768.00
917.5100, 31028.00
918.6330, 30967.00
919.7560, 31029.00
920.8790, 31074.00
922.0010, 31325.00
923.1240, 31339.00
924.2460, 31331.00
925.3680, 31205.00
926.4900, 31032.00
927.6120, 31388.00
928.7340, 31289.00
929.8550, 31189.00
930.9760, 31306.00
932.0980, 31272.00
933.2190, 31525.00
934.3390, 31314.00
935.4600, 31503.00
936.5810, 31584.00
937.7010, 31529.00
938.8210, 31711.00
939.9410, 31945.00
941.0610, 31949.00
942.1810, 32108.00
943.3010, 32231.00
944.4200, 32158.00
945.5390, 32683.00
946.6580, 32534.00
947.7770, 32887.00
948.8960, 33019.44
950.0150, 33169.00
951.1330, 33192.00
952.2510, 33424.88
953.3690, 33336.18
954.4870, 33628.00
955.6050, 33636.00
956.7230, 33755.00
957.8400, 33939.00
958.9580, 34058.00
960.0750, 34088.00
961.1920, 34456.00
962.3090, 34099.00
963.4250, 34486.00
964.5420, 34457.00
965.6580, 34384.00
966.7740, 34307.00
967.8900, 34120.00
969.0060, 34195.00
970.1220, 34151.00
971.2380, 33973.00
972.3530, 34044.00
973.4680, 33800.00
974.5830, 33815.00
975.6980, 33509.00
976.8130, 33531.87
977.9280, 33368.76
979.0420, 33535.00
980.1560, 33171.00
981.2710, 33186.00
982.3850, 33234.00
983.4980, 33037.48
984.6120, 33054.00
985.7260, 32858.00
986.8390, 33013.00
987.9520, 32922.00
989.0650, 32770.00
990.1780, 32879.00
991.2910, 32742.00
992.4030, 32974.00
993.5160, 32756.00
994.6280, 33046.00
995.7400, 32735.00
996.8520, 33095.00
997.9640, 32921.00
999.0750, 32675.00
1000.187, 33068.00
1001.298, 33113.00
1002.409, 32908.00
1003.520, 33120.00
1004.631, 33190.00
1005.741, 33162.00
1006.852, 33336.00
1007.962, 33191.00
1009.072, 33388.00
1010.182, 33658.00
1011.292, 33242.00
1012.402, 33508.00
1013.511, 33605.00
1014.621, 33705.00
1015.730, 33879.52
1016.839, 33878.00
1017.948, 34087.00
1019.056, 34180.00
1020.165, 34172.00
1021.273, 34323.00
1022.382, 34504.00
1023.490, 34534.00
1024.598, 34731.00
1025.706, 34829.00
1026.813, 35320.00
1027.921, 35492.00
1029.028, 35699.00
1030.135, 35801.00
1031.242, 36035.68
1032.349, 36221.00
1033.456, 36474.00
1034.562, 36601.00
1035.668, 36848.00
1036.775, 37066.00
1037.881, 36942.00
1038.987, 37209.00
1040.092, 36962.00
1041.198, 37060.00
1042.303, 37239.00
1043.408, 37067.00
1044.514, 36781.00
1045.618, 36602.00
1046.723, 36728.00
1047.828, 36728.00
1048.932, 36557.00
1050.037, 36294.00
1051.141, 36335.00
1052.245, 36371.00
1053.349, 36072.00
1054.452, 36088.00
1055.556, 36154.00
1056.659, 36238.00
1057.762, 35951.00
1058.865, 36085.00
1059.968, 35968.00
1061.071, 36118.00
1062.174, 35998.00
1063.276, 35977.00
1064.378, 35746.00
1065.480, 35983.00
1066.582, 35954.00
1067.684, 35939.00
1068.786, 35757.00
1069.887, 35588.00
1070.988, 35487.00
1072.090, 35450.00
1073.191, 35558.00
1074.291, 35424.52
1075.392, 35275.00
1076.493, 35241.00
1077.593, 35064.00
1078.693, 34873.00
1079.793, 34718.00
1080.893, 34527.00
1081.993, 34491.00
1083.092, 34281.00
1084.192, 34207.00
1085.291, 33710.00
1086.390, 33626.00
1087.489, 33394.00
1088.588, 33246.00
1089.686, 33042.00
1090.785, 33182.00
1091.883, 32917.00
1092.981, 32739.00
1094.079, 32742.00
1095.177, 32468.00
1096.275, 32407.00
1097.373, 32219.00
1098.470, 32531.00
1099.567, 32250.00
1100.664, 32116.00
1101.761, 32348.00
1102.858, 32036.00
1103.954, 32275.00
1105.051, 32051.00
1106.147, 32299.00
1107.243, 31983.00
1108.339, 31789.00
1109.435, 32125.00
1110.531, 32076.00
1111.626, 31926.00
1112.722, 31723.00
1113.817, 31804.00
1114.912, 31696.47
1116.007, 31714.14
1117.101, 31695.00
1118.196, 31789.00
1119.290, 31828.00
1120.385, 31878.00
1121.479, 31842.61
1122.573, 31808.75
1123.666, 31669.00
1124.760, 31618.00
1125.853, 31413.00
1126.947, 31208.00
1128.040, 31148.08
1129.133, 31083.00
1130.226, 30987.00
1131.318, 30677.00
1132.411, 30631.00
1133.503, 30561.00
1134.596, 30445.00
1135.688, 30399.85
1136.780, 30494.00
1137.871, 30312.00
1138.963, 30234.00
1140.054, 30288.00
1141.146, 30005.00
1142.237, 29986.00
1143.328, 30030.00
1144.419, 29934.00
1145.509, 29855.00
1146.600, 29623.00
1147.690, 29615.00
1148.780, 29415.00
1149.870, 29491.00
1150.960, 29485.00
1152.050, 29641.00
1153.139, 29453.00
1154.229, 29290.00
1155.318, 29456.00
1156.407, 29267.00
1157.496, 29335.00
1158.585, 29294.00
1159.674, 29332.00
1160.762, 29212.00
1161.850, 29357.00
1162.939, 29308.00
1164.027, 29257.00
1165.114, 29351.00
1166.202, 29222.00
1167.290, 29167.00
1168.377, 29116.00
1169.464, 29221.00
1170.551, 29337.00
1171.638, 29250.00
1172.725, 29379.00
1173.812, 29172.00
1174.898, 29368.00
1175.984, 29329.00
1177.071, 29221.00
1178.157, 29408.00
1179.242, 29354.49
1180.328, 29251.83
1181.414, 29353.00
1182.499, 29148.00
1183.584, 28954.00
1184.669, 29231.00
1185.754, 29194.00
1186.839, 29396.00
1187.924, 29232.00
1189.008, 29457.00
1190.092, 29320.87
1191.177, 29155.00
1192.260, 29250.00
1193.344, 29167.00
1194.428, 29456.00
1195.512, 29213.00
1196.595, 29494.00
1197.678, 29366.00
1198.761, 29319.99
1199.844, 29229.00
1200.927, 29122.00
1202.009, 29432.00
1203.092, 29215.00
1204.174, 29336.00
1205.256, 29465.00
1206.338, 29270.00
1207.420, 29445.00
1208.502, 29305.00
1209.583, 29233.00
1210.665, 29246.00
1211.746, 29173.00
1212.827, 29323.00
1213.908, 29432.00
1214.988, 29377.00
1216.069, 29298.00
1217.149, 29359.00
1218.230, 29407.00
1219.310, 29218.00
1220.390, 29295.00
1221.470, 29346.00
1222.549, 29519.00
1223.629, 29449.00
1224.708, 29477.00
1225.787, 29295.00
1226.866, 29541.00
1227.945, 29318.00
1229.024, 29490.00
1230.103, 29384.00
1231.181, 29510.00
1232.259, 29361.00
1233.337, 29580.00
1234.415, 29610.00
1235.493, 29319.00
1236.571, 29649.00
1237.648, 29430.00
1238.726, 29462.00
1239.803, 29536.00
1240.880, 29306.00
1241.957, 29338.00
1243.034, 29410.00
1244.110, 29741.00
1245.187, 29557.00
1246.263, 29622.00
1247.339, 29389.00
1248.415, 29481.00
1249.491, 29542.00
1250.566, 29558.00
1251.642, 29418.00
1252.717, 29679.00
1253.793, 29433.00
1254.868, 29671.00
1255.943, 29564.00
1257.017, 29564.00
1258.092, 29608.00
1259.166, 29455.00
1260.241, 29546.00
1261.315, 29639.00
1262.389, 29524.00
1263.462, 29603.00
1264.536, 29572.00
1265.610, 29658.00
1266.683, 29514.00
1267.756, 29553.00
1268.829, 29726.00
1269.902, 29592.00
1270.975, 29587.00
1272.048, 29756.00
1273.120, 29927.00
1274.192, 29352.00
1275.264, 29712.00
1276.336, 29607.00
1277.408, 29554.62
1278.480, 29777.00
1279.551, 29548.00
1280.623, 29791.00
1281.694, 29641.00
1282.765, 29755.00
1283.836, 29717.00
1284.907, 29648.00
1285.977, 29813.00
1287.048, 29768.00
1288.118, 29814.00
1289.188, 29664.86
1290.258, 29895.96
1291.328, 30026.07
1292.398, 30060.63
1293.467, 29713.42
1294.537, 29859.18
1295.606, 29807.38
1296.675, 29747.48
1297.744, 29962.62
1298.813, 29670.94
1299.882, 29881.72
1300.950, 29891.93
1302.018, 29993.94
1303.086, 29897.16
1304.155, 29861.79
1305.222, 30025.25
1306.290, 30078.62
1307.358, 29958.96
1308.425, 30066.80
1309.492, 29768.17
1310.559, 30016.00
1311.626, 29994.00
1312.693, 29917.00
1313.760, 29967.00
1314.826, 30018.00
1315.893, 30073.00
1316.959, 29993.00
1318.025, 30061.00
1319.091, 30175.00
