##NAMES=Riebeckite
##RRUFFID=R050082
##IDEAL CHEMISTRY=[box]Na_2_(Fe^2+^_3_Fe^3+^_2_)Si_8_O_22_(OH)_2_
##LOCALITY=Mt. Malosa, Zomba, Chilwa, Alkaline Area, Malawi
##OWNER=RRUFF
##SOURCE=Rock Currier
##DESCRIPTION=Black elongated prisms
##STATUS=The identification of this mineral has been confirmed by X-ray diffraction and chemical analysis
##URL=rruff.info/R050082
##MEASURED CHEMISTRY=([box]_0.63_Na_0.19_K_0.18_)(Na_1.58_Ca_0.42_)_Σ=2_Fe^2+^_3.00_(Fe^3+^_1.30_Fe^2+^_0.45_Mn_0.15_Mg_0.05_Ti_0.05_)_Σ=2_(Si_0.98_Al_0.02_)_8_O_22_(OH)_2_
##PIN_ID=L00416
##ORIENTATION=Laser parallel to (-1 0 -1). Fiducial mark perpendicular to laser is parallel to b [0 1 0]
154.7620, 35548.00
155.9950, 35389.00
157.2280, 35219.00
158.4600, 35263.00
159.6920, 35738.00
160.9250, 36452.00
162.1560, 36750.00
163.3880, 37821.00
164.6200, 38497.00
165.8510, 38694.00
167.0820, 38757.00
168.3130, 38866.00
169.5440, 38863.00
170.7750, 38758.88
172.0050, 38794.00
173.2350, 38507.00
174.4650, 38529.00
175.6950, 38552.00
176.9250, 38964.00
178.1550, 39303.00
179.3840, 39880.00
180.6130, 40132.00
181.8420, 40589.00
183.0710, 41153.00
184.3000, 42224.00
185.5280, 43426.00
186.7570, 44647.00
187.9850, 46186.00
189.2130, 47229.00
190.4400, 48493.00
191.6680, 49390.00
192.8960, 50022.00
194.1230, 50238.00
195.3500, 50309.00
196.5770, 50048.00
197.8030, 49478.00
199.0300, 48970.00
200.2560, 48893.00
201.4830, 48672.00
202.7090, 48272.00
203.9340, 46291.00
205.1600, 44423.00
206.3860, 42836.00
207.6110, 42473.00
208.8360, 42288.00
210.0610, 42815.00
211.2860, 42891.00
212.5100, 43229.00
213.7350, 43116.96
214.9590, 43137.00
216.1830, 42524.00
217.4070, 42180.00
218.6310, 41411.00
219.8540, 40932.00
221.0780, 40655.00
222.3010, 40063.00
223.5240, 39702.00
224.7470, 39785.00
225.9690, 39352.00
227.1920, 39267.00
228.4140, 38975.00
229.6360, 39287.00
230.8580, 39155.00
232.0800, 39233.00
233.3020, 38930.00
234.5230, 38550.00
235.7440, 38396.00
236.9650, 38035.00
238.1860, 37555.00
239.4070, 37188.00
240.6280, 36947.00
241.8480, 36220.00
243.0680, 35971.00
244.2880, 35438.00
245.5080, 35221.00
246.7280, 35054.00
247.9470, 34771.00
249.1660, 34651.00
250.3860, 34805.00
251.6040, 34833.00
252.8230, 34659.00
254.0420, 34021.25
255.2600, 34392.65
256.4790, 34606.04
257.6970, 34669.89
258.9150, 34136.36
260.1320, 34374.22
261.3500, 34302.94
262.5670, 34218.98
263.7840, 34565.41
265.0010, 34118.76
266.2180, 34769.00
267.4350, 34365.00
268.6510, 34460.00
269.8680, 34249.00
271.0840, 34391.00
272.3000, 34143.00
273.5160, 34221.00
274.7310, 33960.00
275.9470, 33983.00
277.1620, 33947.00
278.3770, 33820.00
279.5920, 33484.00
280.8070, 33372.00
282.0210, 33339.00
283.2360, 33095.00
284.4500, 33024.00
285.6640, 32912.00
286.8780, 32816.00
288.0920, 32615.00
289.3050, 32619.73
290.5180, 32531.37
291.7320, 32643.00
292.9450, 32472.00
294.1570, 32589.00
295.3700, 32586.00
296.5830, 32690.00
297.7950, 32696.00
299.0070, 32718.00
300.2190, 32714.00
301.4310, 32824.16
302.6420, 32921.00
303.8540, 33012.00
305.0650, 33107.00
306.2760, 33100.00
307.4870, 33238.18
308.6980, 33296.00
309.9080, 33499.00
311.1190, 33575.00
312.3290, 33802.00
313.5390, 33875.62
314.7490, 33938.00
315.9580, 34006.00
317.1680, 33983.00
318.3770, 33946.00
319.5860, 34075.00
320.7950, 34213.00
322.0040, 34040.00
323.2130, 34182.00
324.4210, 34462.00
325.6290, 34308.00
326.8380, 34767.00
328.0460, 34615.00
329.2530, 34810.00
330.4610, 34896.00
331.6680, 34982.00
332.8760, 35115.00
334.0830, 35041.00
335.2890, 35512.00
336.4960, 35788.00
337.7030, 35806.00
338.9090, 36001.00
340.1150, 36459.00
341.3210, 36929.00
342.5270, 37409.66
343.7330, 37951.39
344.9380, 38473.00
346.1440, 38938.00
347.3490, 39272.00
348.5540, 39466.00
349.7590, 39700.00
350.9630, 40312.00
352.1680, 40240.00
353.3720, 40210.00
354.5760, 40490.00
355.7800, 40265.00
356.9840, 40214.00
358.1870, 40225.00
359.3910, 39794.00
360.5940, 39841.00
361.7970, 39730.00
363.0000, 39776.00
364.2030, 39510.00
365.4050, 39466.00
366.6080, 39420.00
367.8100, 39320.00
369.0120, 39164.00
370.2140, 39047.00
371.4150, 38857.59
372.6170, 38593.00
373.8180, 38359.00
375.0190, 38287.00
376.2200, 37828.00
377.4210, 37594.00
378.6220, 37099.00
379.8220, 36827.00
381.0230, 36295.00
382.2230, 36088.00
383.4230, 35649.00
384.6220, 35265.00
385.8220, 35043.00
387.0220, 34775.00
388.2210, 34494.00
389.4200, 34315.00
390.6190, 34166.00
391.8180, 33764.00
393.0160, 33703.00
394.2150, 33511.00
395.4130, 33144.00
396.6110, 33263.00
397.8090, 32801.00
399.0060, 32684.00
400.2040, 32847.00
401.4010, 32469.00
402.5980, 32438.00
403.7950, 32251.00
404.9920, 32187.48
406.1890, 32185.71
407.3860, 32148.00
408.5820, 32219.00
409.7780, 32163.00
410.9740, 32179.00
412.1700, 32320.00
413.3650, 32636.00
414.5610, 32848.00
415.7560, 32650.00
416.9510, 32941.00
418.1460, 32895.00
419.3410, 32742.00
420.5360, 33224.00
421.7300, 33234.00
422.9240, 33479.00
424.1180, 33391.00
425.3120, 33723.00
426.5060, 33530.00
427.7000, 33478.00
428.8930, 33686.00
430.0860, 33447.00
431.2790, 33385.00
432.4720, 33329.00
433.6650, 33254.00
434.8580, 33054.00
436.0500, 32921.00
437.2420, 32864.00
438.4340, 32555.00
439.6260, 32325.00
440.8180, 32445.00
442.0090, 32306.00
443.2010, 32369.00
444.3920, 32323.00
445.5830, 31953.00
446.7740, 31893.00
447.9640, 32150.00
449.1550, 31876.00
450.3450, 31995.00
451.5350, 32219.00
452.7250, 32084.00
453.9150, 32035.00
455.1050, 32175.00
456.2940, 32274.00
457.4830, 32090.00
458.6720, 32194.00
459.8610, 31951.00
461.0500, 32284.00
462.2390, 32141.00
463.4270, 32322.00
464.6150, 32229.00
465.8040, 32335.00
466.9910, 32378.00
468.1790, 32286.00
469.3670, 32375.00
470.5540, 32491.00
471.7410, 32364.00
472.9280, 32491.00
474.1150, 32490.00
475.3020, 32598.00
476.4890, 32569.14
477.6750, 32544.00
478.8610, 32643.00
480.0470, 32351.00
481.2330, 32673.00
482.4190, 32773.00
483.6040, 33450.00
484.7900, 32786.00
485.9750, 33496.00
487.1600, 33440.00
488.3450, 33047.00
489.5290, 33138.00
490.7140, 33214.00
491.8980, 33392.00
493.0820, 33474.78
494.2660, 33619.71
495.4500, 33725.00
496.6340, 33872.00
497.8170, 34037.00
499.0010, 34108.00
500.1840, 34229.32
501.3670, 34305.00
502.5500, 34323.00
503.7320, 34614.00
504.9150, 34506.00
506.0970, 34617.00
507.2790, 34772.00
508.4610, 34694.00
509.6430, 34877.00
510.8250, 35050.00
512.0060, 35028.00
513.1870, 35284.00
514.3680, 35618.00
515.5490, 35698.00
516.7300, 35580.00
517.9110, 36127.00
519.0910, 36038.00
520.2710, 36461.00
521.4510, 36706.00
522.6310, 36895.00
523.8110, 37019.00
524.9910, 37486.00
526.1700, 37563.00
527.3490, 37964.00
528.5280, 38376.00
529.7070, 38391.00
530.8860, 38507.00
532.0650, 39078.00
533.2430, 39188.00
534.4210, 39191.00
535.5990, 39293.00
536.7770, 39411.00
537.9550, 39505.00
539.1320, 39646.00
540.3100, 39374.00
541.4870, 39477.00
542.6640, 39348.00
543.8410, 39074.00
545.0170, 39128.00
546.1940, 38831.00
547.3700, 38923.00
548.5470, 38805.89
549.7230, 38985.00
550.8980, 38673.00
552.0740, 38611.00
553.2500, 38549.00
554.4250, 38414.00
555.6000, 38497.00
556.7750, 38037.00
557.9500, 38363.00
559.1250, 38189.00
560.2990, 37924.00
561.4730, 37932.00
562.6480, 37830.00
563.8220, 37628.00
564.9950, 38059.00
566.1690, 37614.11
567.3430, 37231.00
568.5160, 37171.00
569.6890, 36587.00
570.8620, 36567.00
572.0350, 36357.00
573.2070, 35759.00
574.3800, 35382.00
575.5520, 35086.00
576.7240, 34702.00
577.8960, 34895.00
579.0680, 34168.00
580.2400, 34138.00
581.4110, 33839.00
582.5830, 33457.00
583.7540, 33244.00
584.9250, 33428.00
586.0950, 34037.00
587.2660, 33634.00
588.4370, 33362.00
589.6070, 33775.00
590.7770, 32950.00
591.9470, 32918.00
593.1170, 32958.00
594.2860, 33340.00
595.4560, 33073.00
596.6250, 33115.60
597.7940, 33049.48
598.9630, 32928.00
600.1320, 32763.00
601.3000, 32806.00
602.4690, 32675.00
603.6370, 32701.46
604.8050, 32966.00
605.9730, 32717.00
607.1410, 32907.00
608.3090, 32836.00
609.4760, 32888.00
610.6430, 33007.22
611.8100, 33133.00
612.9770, 33275.00
614.1440, 33389.18
615.3110, 33475.51
616.4770, 33596.00
617.6430, 33641.00
618.8090, 33792.53
619.9750, 33777.00
621.1410, 34083.00
622.3070, 34160.00
623.4720, 34327.00
624.6370, 34573.00
625.8020, 34557.00
626.9670, 34984.66
628.1320, 34962.00
629.2970, 35560.00
630.4610, 35839.00
631.6250, 35722.53
632.7890, 36105.72
633.9530, 36108.00
635.1170, 36464.00
636.2810, 36752.00
637.4440, 37095.00
638.6070, 37489.00
639.7700, 37904.00
640.9330, 38234.00
642.0960, 38695.00
643.2590, 39269.00
644.4210, 39859.00
645.5830, 40593.00
646.7450, 41109.00
647.9070, 42323.00
649.0690, 43213.00
650.2310, 44150.00
651.3920, 45584.00
652.5530, 47316.00
653.7140, 48506.00
654.8750, 50351.00
656.0360, 52252.00
657.1970, 54008.00
658.3570, 56221.00
659.5170, 58344.00
660.6770, 60325.00
661.8370, 62824.00
662.9970, 63292.00
664.1570, 64171.00
665.3160, 65300.00
666.4750, 63909.00
667.6340, 62673.00
668.7930, 61069.00
669.9520, 58541.00
671.1110, 55829.00
672.2690, 53461.00
673.4270, 51180.00
674.5850, 48230.00
675.7430, 45952.00
676.9010, 44542.00
678.0590, 43583.00
679.2160, 42127.00
680.3730, 41032.00
681.5300, 40388.00
682.6870, 39722.00
683.8440, 39368.00
685.0010, 38831.00
686.1570, 38553.00
687.3130, 38069.00
688.4690, 38098.00
689.6250, 37949.00
690.7810, 37954.00
691.9370, 37845.00
693.0920, 37618.00
694.2470, 37358.00
695.4020, 37401.00
696.5570, 37630.00
697.7120, 37776.00
698.8670, 37613.00
700.0210, 37717.00
701.1750, 37550.00
702.3290, 37681.00
703.4830, 37567.00
704.6370, 37878.00
705.7910, 37694.00
706.9440, 37970.00
708.0970, 37863.00
709.2510, 37993.00
710.4030, 37906.24
711.5560, 37654.00
712.7090, 37704.00
713.8610, 37728.00
715.0140, 37738.00
716.1660, 37706.00
717.3180, 37657.00
718.4690, 37563.00
719.6210, 37451.00
720.7730, 37775.00
721.9240, 37600.00
723.0750, 37341.00
724.2260, 37493.00
725.3770, 36871.00
726.5270, 37372.00
727.6780, 37091.00
728.8280, 36914.00
729.9780, 36905.00
731.1280, 36777.00
732.2780, 36684.00
733.4280, 36445.00
734.5770, 36304.00
735.7260, 36338.00
736.8760, 36151.00
738.0250, 35874.00
739.1730, 35885.00
740.3220, 35665.10
741.4700, 35798.00
742.6190, 35394.00
743.7670, 35510.00
744.9150, 35398.00
746.0630, 35036.00
747.2100, 35147.00
748.3580, 35211.00
749.5050, 35126.00
750.6520, 34919.00
751.7990, 34978.00
752.9460, 34771.00
754.0930, 34554.00
755.2390, 34645.00
756.3860, 34637.00
757.5320, 34662.00
758.6780, 34800.00
759.8240, 34711.14
760.9690, 34715.77
762.1150, 34572.00
763.2600, 34539.00
764.4060, 34389.00
765.5510, 34165.00
766.6950, 34546.00
767.8400, 34328.00
768.9850, 34264.00
770.1290, 34420.00
771.2730, 34365.00
772.4170, 34259.00
773.5610, 34038.00
774.7050, 33931.00
775.8480, 34060.00
776.9920, 34129.00
778.1350, 34257.00
779.2780, 34129.00
780.4210, 33916.00
781.5640, 34012.00
782.7060, 33979.00
783.8490, 33874.00
784.9910, 33877.00
786.1330, 33907.00
787.2750, 33920.00
788.4170, 33825.00
789.5580, 33886.00
790.7000, 33839.00
791.8410, 33733.00
792.9820, 33729.00
794.1230, 33737.00
795.2640, 33773.00
796.4040, 33735.53
797.5450, 33824.00
798.6850, 33637.22
799.8250, 33680.07
800.9650, 33550.00
802.1050, 33701.00
803.2450, 33578.00
804.3840, 33497.00
805.5230, 33736.00
806.6630, 33331.00
807.8020, 33473.00
808.9400, 33242.00
810.0790, 33344.00
811.2170, 33343.00
812.3560, 33450.00
813.4940, 33594.00
814.6320, 33612.00
815.7700, 33368.00
816.9070, 33508.00
818.0450, 33411.00
819.1820, 33456.00
820.3190, 33335.00
821.4560, 33410.00
822.5930, 33547.00
823.7300, 33740.00
824.8670, 33387.00
826.0030, 33632.00
827.1390, 33503.00
828.2750, 33561.00
829.4110, 33433.00
830.5470, 33626.00
831.6820, 33585.00
832.8180, 33793.00
833.9530, 33983.00
835.0880, 33732.00
836.2230, 33978.00
837.3580, 33930.00
838.4920, 33692.00
839.6270, 34135.00
840.7610, 34154.00
841.8950, 34274.00
843.0290, 34258.00
844.1630, 34548.00
845.2960, 34605.20
846.4300, 34591.00
847.5630, 34814.00
848.6960, 34782.00
849.8290, 34744.00
850.9620, 35228.00
852.0940, 35251.00
853.2270, 35541.00
854.3590, 35531.00
855.4910, 36059.00
856.6230, 36131.00
857.7550, 36519.00
858.8870, 36861.00
860.0180, 37051.00
861.1500, 37292.00
862.2810, 37517.00
863.4120, 38069.00
864.5430, 38249.47
865.6730, 38442.00
866.8040, 38857.00
867.9340, 39047.00
869.0640, 39399.00
870.1940, 39952.00
871.3240, 40524.00
872.4540, 40946.00
873.5830, 40772.00
874.7130, 41129.00
875.8420, 41186.93
876.9710, 41659.00
878.1000, 41464.00
879.2290, 41392.00
880.3570, 41746.00
881.4860, 41518.00
882.6140, 41650.00
883.7420, 41609.00
884.8700, 41658.00
885.9980, 41505.00
887.1250, 41380.00
888.2530, 41150.00
889.3800, 41152.00
890.5070, 40889.00
891.6340, 40792.00
892.7610, 40387.00
893.8880, 40256.00
895.0140, 40358.00
896.1400, 39981.00
897.2670, 40356.00
898.3930, 39749.00
899.5180, 40005.00
900.6440, 39721.00
901.7700, 39331.00
902.8950, 39671.00
904.0200, 39325.00
905.1450, 39341.00
906.2700, 39327.00
907.3950, 39493.00
908.5190, 39172.00
909.6440, 39075.00
910.7680, 39001.00
911.8920, 39060.00
913.0160, 38669.00
914.1400, 38867.00
915.2630, 38732.00
916.3870, 39036.00
917.5100, 38738.00
918.6330, 38623.00
919.7560, 38581.00
920.8790, 38655.00
922.0010, 38624.00
923.1240, 38531.00
924.2460, 38740.00
925.3680, 38280.00
926.4900, 38486.00
927.6120, 38331.00
928.7340, 38225.00
929.8550, 38495.00
930.9760, 38211.00
932.0980, 38440.00
933.2190, 38362.00
934.3390, 38388.00
935.4600, 38213.00
936.5810, 38359.00
937.7010, 38560.00
938.8210, 38978.00
939.9410, 39015.00
941.0610, 38895.00
942.1810, 39275.00
943.3010, 39346.01
944.4200, 39497.00
945.5390, 39730.00
946.6580, 39635.00
947.7770, 39646.00
948.8960, 39797.00
950.0150, 40160.00
951.1330, 40150.00
952.2510, 40413.00
953.3690, 40781.00
954.4870, 40970.00
955.6050, 40919.00
956.7230, 41120.00
957.8400, 41126.00
958.9580, 41410.00
960.0750, 41595.00
961.1920, 41704.00
962.3090, 41574.00
963.4250, 41604.00
964.5420, 41438.00
965.6580, 41732.00
966.7740, 41565.00
967.8900, 41572.00
969.0060, 41643.00
970.1220, 41413.00
971.2380, 41439.00
972.3530, 41426.00
973.4680, 41180.00
974.5830, 41256.00
975.6980, 41001.00
976.8130, 40784.00
977.9280, 41081.00
979.0420, 40977.00
980.1560, 40640.00
981.2710, 41210.00
982.3850, 40852.00
983.4980, 40341.00
984.6120, 40465.00
985.7260, 40621.00
986.8390, 40620.00
987.9520, 40762.00
989.0650, 40742.00
990.1780, 40969.00
991.2910, 41322.00
992.4030, 41018.00
993.5160, 40938.00
994.6280, 41237.00
995.7400, 41542.00
996.8520, 41427.00
997.9640, 41701.00
999.0750, 41485.00
1000.187, 41861.00
1001.298, 42087.00
1002.409, 42067.00
1003.520, 42077.00
1004.631, 42503.00
1005.741, 42521.00
1006.852, 42655.00
1007.962, 42765.00
1009.072, 42844.00
1010.182, 42906.00
1011.292, 43003.00
1012.402, 42756.00
1013.511, 42992.00
1014.621, 43161.00
1015.730, 42781.00
1016.839, 43362.00
1017.948, 42977.00
1019.056, 43044.00
1020.165, 43412.00
1021.273, 43251.00
1022.382, 43316.00
1023.490, 43369.00
1024.598, 43449.00
1025.706, 43560.61
1026.813, 43640.00
1027.921, 43780.00
1029.028, 43763.00
1030.135, 43795.00
1031.242, 44098.00
1032.349, 44355.00
1033.456, 44528.00
1034.562, 44421.00
1035.668, 44337.00
1036.775, 44757.00
1037.881, 45110.00
1038.987, 45056.00
1040.092, 45004.00
1041.198, 44842.00
1042.303, 44840.00
1043.408, 44745.98
1044.514, 44623.32
1045.618, 44631.00
1046.723, 44420.00
1047.828, 44373.00
1048.932, 44350.00
1050.037, 44146.00
1051.141, 43926.00
1052.245, 43640.00
1053.349, 43734.00
1054.452, 43478.00
1055.556, 43367.00
1056.659, 43379.00
1057.762, 42988.00
1058.865, 43221.00
1059.968, 43251.00
1061.071, 42940.00
1062.174, 42670.00
1063.276, 42719.00
1064.378, 42617.00
1065.480, 42400.00
1066.582, 42326.00
1067.684, 42235.00
1068.786, 42080.00
1069.887, 41917.00
1070.988, 41828.00
1072.090, 41680.00
1073.191, 41446.36
1074.291, 41502.53
1075.392, 41479.57
1076.493, 41381.84
1077.593, 40985.54
1078.693, 40974.94
1079.793, 40809.77
1080.893, 40638.26
1081.993, 40681.93
1083.092, 40329.18
1084.192, 40369.45
1085.291, 40252.90
1086.390, 40208.17
1087.489, 40007.92
1088.588, 39855.70
1089.686, 39859.18
1090.785, 39497.00
1091.883, 39451.00
1092.981, 39467.00
1094.079, 39183.00
1095.177, 39000.00
1096.275, 39016.00
1097.373, 39059.00
1098.470, 38938.13
1099.567, 38842.00
1100.664, 38749.00
1101.761, 38766.00
1102.858, 38538.00
1103.954, 38461.00
1105.051, 38487.00
1106.147, 38332.54
1107.243, 38502.00
1108.339, 38056.00
1109.435, 38274.00
1110.531, 37893.00
1111.626, 37956.00
1112.722, 37786.00
1113.817, 37734.00
1114.912, 37598.00
1116.007, 37642.00
1117.101, 37451.00
1118.196, 37439.36
1119.290, 37550.00
1120.385, 37348.00
1121.479, 37337.00
1122.573, 37294.00
1123.666, 37152.00
1124.760, 37002.00
1125.853, 36711.00
1126.947, 36714.00
1128.040, 36380.00
1129.133, 36338.00
1130.226, 36136.00
1131.318, 36244.00
1132.411, 36119.51
1133.503, 36125.00
1134.596, 36021.00
1135.688, 35932.00
1136.780, 35897.00
1137.871, 35863.00
1138.963, 35734.00
1140.054, 35691.96
1141.146, 35431.00
1142.237, 35493.00
1143.328, 35392.00
1144.419, 35198.00
1145.509, 35215.00
1146.600, 35070.00
1147.690, 35284.00
1148.780, 35046.00
1149.870, 35038.00
1150.960, 35023.00
1152.050, 34880.00
1153.139, 34916.00
1154.229, 34804.00
1155.318, 34966.00
1156.407, 34781.00
1157.496, 34844.00
1158.585, 34734.00
1159.674, 34594.00
1160.762, 34933.00
1161.850, 34939.00
1162.939, 34708.00
1164.027, 34795.00
1165.114, 34504.00
1166.202, 34899.00
1167.290, 34651.00
1168.377, 34640.00
1169.464, 34523.00
1170.551, 34792.00
1171.638, 34780.00
1172.725, 34776.00
1173.812, 34849.00
1174.898, 34797.00
1175.984, 34454.00
1177.071, 34629.00
1178.157, 34476.00
1179.242, 34757.00
1180.328, 34604.00
1181.414, 34600.00
1182.499, 34544.00
1183.584, 34686.00
1184.669, 34510.00
1185.754, 34232.00
1186.839, 34562.00
1187.924, 34502.00
1189.008, 34631.00
1190.092, 34447.00
1191.177, 34557.00
1192.260, 34351.00
1193.344, 34688.00
1194.428, 34439.00
1195.512, 34522.00
1196.595, 34343.00
1197.678, 34558.00
1198.761, 34555.00
1199.844, 34462.51
1200.927, 34479.43
1202.009, 34347.00
1203.092, 34413.00
1204.174, 34466.00
1205.256, 34672.00
1206.338, 34680.88
1207.420, 34835.00
1208.502, 34699.00
1209.583, 34674.00
1210.665, 34477.00
1211.746, 34635.00
1212.827, 34856.00
1213.908, 34680.54
1214.988, 34714.00
1216.069, 34664.00
1217.149, 34484.00
1218.230, 34757.00
1219.310, 34679.00
1220.390, 34468.00
1221.470, 34596.00
1222.549, 34518.00
1223.629, 34627.00
1224.708, 34574.00
1225.787, 34424.00
1226.866, 34303.00
1227.945, 34209.00
1229.024, 34221.05
1230.103, 34273.68
1231.181, 34350.00
1232.259, 34486.00
1233.337, 34626.00
1234.415, 34677.00
1235.493, 34548.00
1236.571, 34457.00
1237.648, 34425.00
1238.726, 34562.00
1239.803, 34493.00
1240.880, 34676.00
1241.957, 34801.00
1243.034, 34627.00
1244.110, 34375.00
1245.187, 34799.00
1246.263, 34745.00
1247.339, 34612.00
1248.415, 34981.00
1249.491, 34581.00
1250.566, 34564.00
1251.642, 34597.00
1252.717, 34508.00
1253.793, 34624.00
1254.868, 34644.00
1255.943, 34581.00
1257.017, 34619.00
1258.092, 34523.00
1259.166, 34495.00
1260.241, 34608.00
1261.315, 34615.00
1262.389, 34605.00
1263.462, 34537.00
1264.536, 34722.00
1265.610, 34574.00
1266.683, 34536.00
1267.756, 34413.00
1268.829, 34672.00
1269.902, 34676.00
1270.975, 34844.00
1272.048, 34986.00
1273.120, 34539.00
1274.192, 34879.00
1275.264, 34930.00
1276.336, 34665.00
1277.408, 34796.00
1278.480, 34743.00
1279.551, 34718.00
1280.623, 34732.00
1281.694, 34800.00
1282.765, 34560.00
1283.836, 34645.00
1284.907, 34593.00
1285.977, 34672.00
1287.048, 34584.00
1288.118, 34502.00
1289.188, 34575.00
1290.258, 34711.00
1291.328, 34668.00
1292.398, 34913.00
1293.467, 34711.00
1294.537, 34883.00
1295.606, 34850.00
1296.675, 34930.00
1297.744, 34666.83
1298.813, 34842.84
1299.882, 34939.85
1300.950, 34962.09
1302.018, 34685.64
1303.086, 34794.89
1304.155, 34749.56
1305.222, 34697.91
1306.290, 34861.44
1307.358, 34628.43
1308.425, 34788.56
1309.492, 34791.75
1310.559, 34866.77
1311.626, 34786.27
1312.693, 34753.80
1313.760, 34876.90
1314.826, 34913.86
1315.893, 34815.45
1316.959, 34680.00
1318.025, 34589.00
1319.091, 34873.00
1320.157, 34746.00
