##NAMES=Riebeckite
##RRUFFID=R050082
##IDEAL CHEMISTRY=[box]Na_2_(Fe^2+^_3_Fe^3+^_2_)Si_8_O_22_(OH)_2_
##LOCALITY=Mt. Malosa, Zomba, Chilwa, Alkaline Area, Malawi
##OWNER=RRUFF
##SOURCE=Rock Currier
##DESCRIPTION=Black elongated prisms
##STATUS=The identification of this mineral has been confirmed by X-ray diffraction and chemical analysis
##URL=rruff.info/R050082
##MEASURED CHEMISTRY=([box]_0.63_Na_0.19_K_0.18_)(Na_1.58_Ca_0.42_)_Σ=2_Fe^2+^_3.00_(Fe^3+^_1.30_Fe^2+^_0.45_Mn_0.15_Mg_0.05_Ti_0.05_)_Σ=2_(Si_0.98_Al_0.02_)_8_O_22_(OH)_2_
##PIN_ID=L00462
##ORIENTATION=Laser parallel to c* (0 0 1). Fiducial mark perpendicular to laser is parallel to a [1 0 0]
151.0630, 35666.00
152.2960, 35431.00
153.5300, 35420.00
154.7620, 35777.00
155.9950, 35367.00
157.2280, 35591.00
158.4600, 35943.00
159.6920, 36011.00
160.9250, 36270.00
162.1560, 37115.00
163.3880, 37662.00
164.6200, 37757.00
165.8510, 37569.00
167.0820, 37742.00
168.3130, 37352.00
169.5440, 37396.00
170.7750, 37282.00
172.0050, 36771.00
173.2350, 36505.00
174.4650, 36373.00
175.6950, 36461.00
176.9250, 36256.00
178.1550, 36334.00
179.3840, 36363.00
180.6130, 36708.00
181.8420, 37022.74
183.0710, 37210.00
184.3000, 37976.00
185.5280, 38544.00
186.7570, 39138.00
187.9850, 39463.00
189.2130, 40409.00
190.4400, 40414.00
191.6680, 41043.00
192.8960, 41547.00
194.1230, 41555.00
195.3500, 42394.00
196.5770, 41844.00
197.8030, 41787.00
199.0300, 42196.00
200.2560, 42886.00
201.4830, 42685.00
202.7090, 42431.00
203.9340, 41158.00
205.1600, 39874.00
206.3860, 39799.00
207.6110, 39720.00
208.8360, 40018.00
210.0610, 40286.00
211.2860, 40721.00
212.5100, 40750.00
213.7350, 40853.00
214.9590, 40795.97
216.1830, 40360.00
217.4070, 40403.00
218.6310, 40119.00
219.8540, 39825.00
221.0780, 39831.00
222.3010, 39756.00
223.5240, 39909.00
224.7470, 39664.00
225.9690, 39681.00
227.1920, 39741.00
228.4140, 39895.00
229.6360, 39756.00
230.8580, 39504.00
232.0800, 39401.00
233.3020, 39179.00
234.5230, 38707.00
235.7440, 38499.00
236.9650, 37990.72
238.1860, 37656.00
239.4070, 37046.00
240.6280, 36387.00
241.8480, 36013.00
243.0680, 35383.84
244.2880, 35050.00
245.5080, 34472.00
246.7280, 34267.00
247.9470, 34183.00
249.1660, 33565.00
250.3860, 33579.00
251.6040, 33534.00
252.8230, 33400.00
254.0420, 32846.60
255.2600, 33253.87
256.4790, 33509.50
257.6970, 33621.55
258.9150, 33160.17
260.1320, 33439.21
261.3500, 33421.55
262.5670, 33391.67
263.7840, 33678.00
265.0010, 33677.00
266.2180, 34331.00
267.4350, 34045.00
268.6510, 33998.00
269.8680, 33771.00
271.0840, 33564.00
272.3000, 33731.00
273.5160, 33869.00
274.7310, 33858.00
275.9470, 33712.00
277.1620, 33462.00
278.3770, 33401.00
279.5920, 33185.00
280.8070, 33082.00
282.0210, 32826.00
283.2360, 32718.00
284.4500, 32493.00
285.6640, 32136.00
286.8780, 32132.00
288.0920, 31956.00
289.3050, 31966.00
290.5180, 31841.00
291.7320, 31546.00
292.9450, 31693.00
294.1570, 31644.00
295.3700, 31627.00
296.5830, 31733.00
297.7950, 31648.00
299.0070, 31610.00
300.2190, 31657.00
301.4310, 31666.00
302.6420, 31935.00
303.8540, 31825.00
305.0650, 32148.00
306.2760, 32167.00
307.4870, 32224.00
308.6980, 32091.00
309.9080, 32116.00
311.1190, 32306.00
312.3290, 32369.00
313.5390, 32271.00
314.7490, 32394.00
315.9580, 32281.00
317.1680, 32439.00
318.3770, 32445.98
319.5860, 32456.77
320.7950, 32511.00
322.0040, 32529.00
323.2130, 32511.00
324.4210, 32584.00
325.6290, 32751.00
326.8380, 32799.00
328.0460, 33133.00
329.2530, 33063.00
330.4610, 33068.00
331.6680, 33010.00
332.8760, 33466.00
334.0830, 33830.00
335.2890, 33854.57
336.4960, 34052.00
337.7030, 34137.00
338.9090, 34107.00
340.1150, 34382.00
341.3210, 34728.00
342.5270, 34686.00
343.7330, 34879.00
344.9380, 34667.00
346.1440, 35116.00
347.3490, 35076.00
348.5540, 35068.93
349.7590, 35513.00
350.9630, 35071.00
352.1680, 34829.00
353.3720, 34925.00
354.5760, 34823.00
355.7800, 34935.00
356.9840, 35273.00
358.1870, 34426.00
359.3910, 34552.00
360.5940, 34339.00
361.7970, 34768.00
363.0000, 33901.00
364.2030, 33662.00
365.4050, 33693.88
366.6080, 33517.00
367.8100, 33528.00
369.0120, 33096.00
370.2140, 32857.00
371.4150, 32556.00
372.6170, 32566.00
373.8180, 33022.00
375.0190, 32643.00
376.2200, 32298.00
377.4210, 31928.00
378.6220, 31460.00
379.8220, 31052.00
381.0230, 30932.00
382.2230, 30821.00
383.4230, 30860.00
384.6220, 30416.00
385.8220, 30348.00
387.0220, 30315.00
388.2210, 30016.46
389.4200, 29906.24
390.6190, 29658.00
391.8180, 29582.00
393.0160, 29456.00
394.2150, 29317.51
395.4130, 29219.72
396.6110, 29113.00
397.8090, 28992.00
399.0060, 28911.00
400.2040, 28807.00
401.4010, 28779.63
402.5980, 28818.00
403.7950, 28747.00
404.9920, 28752.00
406.1890, 28735.00
407.3860, 28738.89
408.5820, 28859.00
409.7780, 28846.00
410.9740, 29149.00
412.1700, 29366.00
413.3650, 29484.00
414.5610, 29490.00
415.7560, 29597.11
416.9510, 29803.00
418.1460, 29754.00
419.3410, 30006.00
420.5360, 30305.00
421.7300, 30300.00
422.9240, 30556.00
424.1180, 30836.00
425.3120, 30864.00
426.5060, 30890.00
427.7000, 30886.00
428.8930, 30838.00
430.0860, 30853.00
431.2790, 30824.00
432.4720, 30581.00
433.6650, 30587.00
434.8580, 30391.00
436.0500, 30022.00
437.2420, 30036.00
438.4340, 29944.00
439.6260, 29966.00
440.8180, 29877.11
442.0090, 29765.00
443.2010, 29669.00
444.3920, 29624.00
445.5830, 29427.00
446.7740, 29606.00
447.9640, 29557.00
449.1550, 29481.00
450.3450, 29348.00
451.5350, 29457.00
452.7250, 29457.00
453.9150, 29415.00
455.1050, 29701.00
456.2940, 29481.00
457.4830, 29528.00
458.6720, 29730.00
459.8610, 29615.00
461.0500, 29709.00
462.2390, 29711.00
463.4270, 29751.00
464.6150, 29888.00
465.8040, 29655.00
466.9910, 29633.00
468.1790, 29676.00
469.3670, 29767.00
470.5540, 29636.00
471.7410, 29686.00
472.9280, 29504.00
474.1150, 29623.00
475.3020, 29972.00
476.4890, 29649.00
477.6750, 29638.00
478.8610, 30047.00
480.0470, 29889.00
481.2330, 30189.00
482.4190, 30170.00
483.6040, 30354.00
484.7900, 30470.00
485.9750, 30650.00
487.1600, 30768.40
488.3450, 30824.00
489.5290, 31038.00
490.7140, 31154.00
491.8980, 31353.00
493.0820, 31395.00
494.2660, 31679.00
495.4500, 31703.00
496.6340, 31904.00
497.8170, 32095.00
499.0010, 32142.00
500.1840, 32115.00
501.3670, 32439.00
502.5500, 32477.00
503.7320, 32515.50
504.9150, 32874.00
506.0970, 32470.00
507.2790, 32735.00
508.4610, 32578.00
509.6430, 32913.00
510.8250, 32757.00
512.0060, 32973.00
513.1870, 32997.00
514.3680, 33379.00
515.5490, 33324.00
516.7300, 33380.00
517.9110, 33695.00
519.0910, 33687.00
520.2710, 33856.00
521.4510, 34351.00
522.6310, 34477.00
523.8110, 34559.00
524.9910, 34971.00
526.1700, 35289.00
527.3490, 35403.00
528.5280, 35670.00
529.7070, 35935.00
530.8860, 35947.00
532.0650, 36064.00
533.2430, 36149.00
534.4210, 36103.00
535.5990, 36322.00
536.7770, 36375.00
537.9550, 36354.00
539.1320, 35928.00
540.3100, 35931.00
541.4870, 35563.00
542.6640, 35585.00
543.8410, 35288.00
545.0170, 34887.00
546.1940, 35061.00
547.3700, 35071.00
548.5470, 34996.00
549.7230, 34981.00
550.8980, 34520.00
552.0740, 34756.00
553.2500, 34443.00
554.4250, 34666.00
555.6000, 34611.00
556.7750, 34500.00
557.9500, 34861.00
559.1250, 34850.00
560.2990, 34566.00
561.4730, 34613.00
562.6480, 34545.00
563.8220, 34682.00
564.9950, 34597.00
566.1690, 34398.00
567.3430, 34402.00
568.5160, 33879.00
569.6890, 33661.00
570.8620, 33385.00
572.0350, 32706.00
573.2070, 32400.00
574.3800, 31968.00
575.5520, 31743.00
576.7240, 31305.00
577.8960, 30949.00
579.0680, 30516.00
580.2400, 30225.00
581.4110, 29812.00
582.5830, 29351.00
583.7540, 29053.00
584.9250, 28743.00
586.0950, 28475.00
587.2660, 28357.27
588.4370, 28225.00
589.6070, 28257.00
590.7770, 28239.00
591.9470, 28330.00
593.1170, 28264.00
594.2860, 28254.00
595.4560, 28296.00
596.6250, 28230.00
597.7940, 28249.00
598.9630, 28251.00
600.1320, 28314.00
601.3000, 28352.00
602.4690, 28207.00
603.6370, 28381.00
604.8050, 28311.00
605.9730, 28535.00
607.1410, 28478.00
608.3090, 28347.00
609.4760, 28449.00
610.6430, 28591.00
611.8100, 28517.00
612.9770, 28803.00
614.1440, 28853.00
615.3110, 29118.00
616.4770, 28992.00
617.6430, 29239.00
618.8090, 29484.00
619.9750, 29385.00
621.1410, 29683.00
622.3070, 29714.00
623.4720, 29988.00
624.6370, 30009.00
625.8020, 30310.00
626.9670, 30429.00
628.1320, 30549.00
629.2970, 30885.00
630.4610, 31098.00
631.6250, 31206.00
632.7890, 31761.00
633.9530, 31769.00
635.1170, 32116.00
636.2810, 32613.00
637.4440, 32701.00
638.6070, 33068.00
639.7700, 33502.00
640.9330, 33933.00
642.0960, 34384.00
643.2590, 35234.00
644.4210, 35792.00
645.5830, 36312.00
646.7450, 37258.00
647.9070, 38353.00
649.0690, 39453.00
650.2310, 40601.00
651.3920, 41924.00
652.5530, 43631.00
653.7140, 45212.00
654.8750, 47191.00
656.0360, 48555.14
657.1970, 50045.00
658.3570, 51286.00
659.5170, 52734.00
660.6770, 53772.00
661.8370, 54290.00
662.9970, 54607.00
664.1570, 54251.46
665.3160, 53654.00
666.4750, 52481.00
667.6340, 51168.00
668.7930, 49498.00
669.9520, 47681.00
671.1110, 45661.00
672.2690, 43393.00
673.4270, 41644.00
674.5850, 39891.00
675.7430, 38493.00
676.9010, 37100.00
678.0590, 36110.00
679.2160, 35097.00
680.3730, 34309.00
681.5300, 33643.00
682.6870, 33080.00
683.8440, 32680.00
685.0010, 32189.00
686.1570, 31724.00
687.3130, 31633.00
688.4690, 31345.50
689.6250, 31189.00
690.7810, 31148.00
691.9370, 30906.00
693.0920, 30879.00
694.2470, 30652.00
695.4020, 30550.00
696.5570, 30608.00
697.7120, 30295.00
698.8670, 30603.00
700.0210, 30444.00
701.1750, 30326.00
702.3290, 30206.00
703.4830, 30184.00
704.6370, 30164.37
705.7910, 30218.00
706.9440, 30214.00
708.0970, 30252.00
709.2510, 30261.00
710.4030, 30179.00
711.5560, 30182.00
712.7090, 30293.00
713.8610, 29986.00
715.0140, 30109.00
716.1660, 30057.00
717.3180, 29915.00
718.4690, 29980.00
719.6210, 30001.00
720.7730, 30188.00
721.9240, 29782.00
723.0750, 29832.00
724.2260, 30187.00
725.3770, 29606.00
726.5270, 30013.00
727.6780, 29863.87
728.8280, 29793.18
729.9780, 29841.00
731.1280, 29794.00
732.2780, 29908.00
733.4280, 29953.00
734.5770, 29921.00
735.7260, 29744.00
736.8760, 29809.00
738.0250, 29720.00
739.1730, 29646.00
740.3220, 29690.00
741.4700, 29619.00
742.6190, 29479.00
743.7670, 29514.00
744.9150, 29495.00
746.0630, 29417.00
747.2100, 29627.00
748.3580, 29231.00
749.5050, 29652.00
750.6520, 29421.00
751.7990, 29257.00
752.9460, 29297.00
754.0930, 29219.00
755.2390, 29244.00
756.3860, 29079.00
757.5320, 29242.00
758.6780, 29145.00
759.8240, 29122.00
760.9690, 29162.00
762.1150, 29454.00
763.2600, 29136.00
764.4060, 29298.00
765.5510, 29275.00
766.6950, 29097.00
767.8400, 29216.00
768.9850, 29146.00
770.1290, 29291.00
771.2730, 29167.00
772.4170, 29268.00
773.5610, 28971.00
774.7050, 29169.00
775.8480, 28950.00
776.9920, 28999.00
778.1350, 29174.00
779.2780, 29019.00
780.4210, 28988.00
781.5640, 29052.00
782.7060, 28893.00
783.8490, 29259.00
784.9910, 28967.00
786.1330, 29083.00
787.2750, 28941.00
788.4170, 29123.00
789.5580, 28922.00
790.7000, 29218.00
791.8410, 29302.00
792.9820, 28896.00
794.1230, 29140.00
795.2640, 28940.00
796.4040, 28977.00
797.5450, 28815.99
798.6850, 29148.92
799.8250, 29330.16
800.9650, 29367.86
802.1050, 28832.13
803.2450, 29036.87
804.3840, 28944.88
805.5230, 28840.72
806.6630, 29149.68
807.8020, 28697.37
808.9400, 28999.80
810.0790, 29000.94
811.2170, 29139.99
812.3560, 28688.00
813.4940, 28750.00
814.6320, 28692.00
815.7700, 28778.00
816.9070, 28738.00
818.0450, 28986.00
819.1820, 28716.00
820.3190, 28746.00
821.4560, 28862.00
822.5930, 28698.53
823.7300, 28743.79
824.8670, 28702.00
826.0030, 28699.00
827.1390, 28953.00
828.2750, 29024.00
829.4110, 28863.00
830.5470, 29150.00
831.6820, 28978.00
832.8180, 29111.00
833.9530, 29096.00
835.0880, 28986.00
836.2230, 29057.00
837.3580, 28900.00
838.4920, 29216.00
839.6270, 29092.00
840.7610, 29175.00
841.8950, 29412.00
843.0290, 29166.00
844.1630, 29592.00
845.2960, 29295.00
846.4300, 29360.00
847.5630, 29515.00
848.6960, 29685.00
849.8290, 29968.00
850.9620, 29904.95
852.0940, 29818.00
853.2270, 29805.00
854.3590, 30070.00
855.4910, 30028.00
856.6230, 30256.00
857.7550, 30308.00
858.8870, 30077.00
860.0180, 30441.00
861.1500, 30731.00
862.2810, 30414.00
863.4120, 30469.25
864.5430, 30920.14
865.6730, 31219.25
866.8040, 31374.93
867.9340, 30957.08
869.0640, 31279.70
870.1940, 31305.57
871.3240, 31319.28
872.4540, 31746.12
873.5830, 31411.58
874.7130, 31831.87
875.8420, 31950.79
876.9710, 32207.60
878.1000, 32178.79
879.2290, 32139.00
880.3570, 32278.00
881.4860, 32640.00
882.6140, 32489.00
883.7420, 32438.00
884.8700, 32437.00
885.9980, 32820.00
887.1250, 33058.00
888.2530, 33161.00
889.3800, 33375.00
890.5070, 33180.00
891.6340, 33341.00
892.7610, 33645.00
893.8880, 33467.00
895.0140, 33916.00
896.1400, 33900.00
897.2670, 34067.00
898.3930, 34053.00
899.5180, 34369.00
900.6440, 34262.00
901.7700, 34594.00
902.8950, 34602.00
904.0200, 34617.00
905.1450, 34847.00
906.2700, 34737.00
907.3950, 35005.00
908.5190, 35067.00
909.6440, 35184.00
910.7680, 35253.00
911.8920, 35303.40
913.0160, 35499.00
914.1400, 35414.00
915.2630, 35541.00
916.3870, 35658.00
917.5100, 35501.00
918.6330, 35721.00
919.7560, 35899.00
920.8790, 35816.00
922.0010, 36000.00
923.1240, 36104.00
924.2460, 36101.00
925.3680, 35833.00
926.4900, 36169.00
927.6120, 36155.00
928.7340, 36204.00
929.8550, 36448.00
930.9760, 36615.00
932.0980, 36596.00
933.2190, 36909.00
934.3390, 37194.00
935.4600, 37396.00
936.5810, 37718.00
937.7010, 38033.00
938.8210, 38408.00
939.9410, 38932.00
941.0610, 39320.00
942.1810, 39649.00
943.3010, 40235.00
944.4200, 40641.00
945.5390, 41199.00
946.6580, 41989.00
947.7770, 42278.00
948.8960, 43181.00
950.0150, 43740.00
951.1330, 44517.00
952.2510, 45072.00
953.3690, 45643.00
954.4870, 46593.00
955.6050, 46941.00
956.7230, 47682.00
957.8400, 48260.00
958.9580, 48621.00
960.0750, 49001.00
961.1920, 49311.00
962.3090, 49635.00
963.4250, 49751.04
964.5420, 49579.00
965.6580, 49803.00
966.7740, 49437.00
967.8900, 49223.00
969.0060, 48976.00
970.1220, 48900.00
971.2380, 48614.00
972.3530, 48147.00
973.4680, 47569.00
974.5830, 47528.00
975.6980, 46789.25
976.8130, 45947.00
977.9280, 45533.00
979.0420, 45171.00
980.1560, 44431.00
981.2710, 44100.00
982.3850, 43485.00
983.4980, 42908.00
984.6120, 42326.00
985.7260, 41921.00
986.8390, 41395.00
987.9520, 41158.00
989.0650, 40831.00
990.1780, 40380.00
991.2910, 39964.00
992.4030, 39870.00
993.5160, 39570.00
994.6280, 39106.00
995.7400, 39439.00
996.8520, 39265.00
997.9640, 38919.00
999.0750, 38757.00
1000.187, 39070.00
1001.298, 38797.00
1002.409, 39002.00
1003.520, 38740.00
1004.631, 38861.00
1005.741, 38668.00
1006.852, 38876.00
1007.962, 38804.00
1009.072, 38931.00
1010.182, 38884.00
1011.292, 38915.20
1012.402, 39043.00
1013.511, 38992.00
1014.621, 39158.00
1015.730, 39283.00
1016.839, 39137.00
1017.948, 39460.00
1019.056, 39586.00
1020.165, 39607.00
1021.273, 39702.00
1022.382, 40044.00
1023.490, 40371.00
1024.598, 40411.00
1025.706, 40711.00
1026.813, 41081.00
1027.921, 41306.00
1029.028, 41399.00
1030.135, 41722.00
1031.242, 42012.00
1032.349, 42067.32
1033.456, 42367.00
1034.562, 42211.00
1035.668, 42314.00
1036.775, 42327.00
1037.881, 42315.00
1038.987, 42553.00
1040.092, 42491.00
1041.198, 42598.00
1042.303, 42425.00
1043.408, 42477.22
1044.514, 42182.00
1045.618, 42450.00
1046.723, 42027.00
1047.828, 41928.00
1048.932, 41692.00
1050.037, 41512.00
1051.141, 41246.00
1052.245, 41195.80
1053.349, 41144.00
1054.452, 40931.00
1055.556, 40879.00
1056.659, 40803.04
1057.762, 40753.00
1058.865, 40684.00
1059.968, 40317.00
1061.071, 40202.00
1062.174, 40014.00
1063.276, 39809.00
1064.378, 39793.00
1065.480, 39778.00
1066.582, 39235.00
1067.684, 39334.00
1068.786, 39077.00
1069.887, 38748.00
1070.988, 38616.00
1072.090, 38660.00
1073.191, 38264.00
1074.291, 38360.00
1075.392, 37988.00
1076.493, 37645.00
1077.593, 37559.00
1078.693, 37570.00
1079.793, 37007.00
1080.893, 37117.00
1081.993, 36822.00
1083.092, 36746.00
1084.192, 36531.00
1085.291, 36115.00
1086.390, 36262.00
1087.489, 35850.00
1088.588, 35628.00
1089.686, 35492.00
1090.785, 35535.00
1091.883, 35195.00
1092.981, 35100.00
1094.079, 35104.00
1095.177, 34976.00
1096.275, 34911.00
1097.373, 34910.00
1098.470, 34843.00
1099.567, 34477.00
1100.664, 34690.00
1101.761, 34336.00
1102.858, 34217.00
1103.954, 34518.00
1105.051, 34317.00
1106.147, 34277.00
1107.243, 34390.00
1108.339, 33975.00
1109.435, 34037.00
1110.531, 34007.00
1111.626, 33990.00
1112.722, 33948.00
1113.817, 33724.00
1114.912, 33563.00
1116.007, 33447.00
1117.101, 33378.97
1118.196, 33442.00
1119.290, 33390.00
1120.385, 33303.00
1121.479, 33406.00
1122.573, 33180.00
1123.666, 33128.00
1124.760, 33051.00
1125.853, 32624.00
1126.947, 32792.00
1128.040, 32369.00
1129.133, 32280.00
1130.226, 32164.00
1131.318, 32044.00
1132.411, 32021.00
1133.503, 32207.00
1134.596, 31751.00
1135.688, 31846.00
1136.780, 31733.00
1137.871, 31501.00
1138.963, 31365.00
1140.054, 31304.00
1141.146, 31135.00
1142.237, 31291.00
1143.328, 30927.00
1144.419, 30955.00
1145.509, 30760.00
1146.600, 30901.00
1147.690, 30766.00
1148.780, 30852.00
1149.870, 30640.00
1150.960, 30684.00
1152.050, 30496.00
1153.139, 30667.00
1154.229, 30385.00
1155.318, 30546.00
1156.407, 30445.00
1157.496, 30347.00
1158.585, 30381.55
1159.674, 30496.00
1160.762, 30400.00
1161.850, 30312.00
1162.939, 30504.00
1164.027, 30482.00
1165.114, 30423.00
1166.202, 30426.00
1167.290, 30429.00
1168.377, 30335.00
1169.464, 30466.00
1170.551, 30207.00
1171.638, 30256.00
1172.725, 30326.00
1173.812, 30150.00
1174.898, 30255.12
1175.984, 30486.00
1177.071, 30270.00
1178.157, 30261.00
1179.242, 30188.00
1180.328, 30148.02
1181.414, 30433.00
1182.499, 30232.00
1183.584, 30190.00
1184.669, 30402.00
1185.754, 30257.00
1186.839, 30414.00
1187.924, 30347.00
1189.008, 30440.00
1190.092, 30442.00
1191.177, 29959.00
1192.260, 30070.00
1193.344, 30066.00
1194.428, 30142.00
1195.512, 30109.00
1196.595, 30503.00
1197.678, 30439.00
1198.761, 30183.00
1199.844, 30540.00
1200.927, 30200.00
1202.009, 30397.00
1203.092, 30555.00
1204.174, 30227.00
1205.256, 30222.00
1206.338, 30172.00
1207.420, 30213.00
1208.502, 30228.71
1209.583, 30197.00
1210.665, 30309.00
1211.746, 30291.00
1212.827, 30315.00
1213.908, 30327.00
1214.988, 30169.00
1216.069, 30550.00
1217.149, 30194.00
1218.230, 30398.00
1219.310, 30176.00
1220.390, 30214.00
1221.470, 30465.00
1222.549, 30466.00
1223.629, 30513.00
1224.708, 30439.00
1225.787, 30502.00
1226.866, 30534.00
1227.945, 30230.00
1229.024, 30649.00
1230.103, 30356.00
1231.181, 30492.00
1232.259, 30549.00
1233.337, 30686.00
1234.415, 30375.00
1235.493, 30556.00
1236.571, 30437.56
1237.648, 30432.00
1238.726, 30360.00
1239.803, 30373.00
1240.880, 30437.00
1241.957, 30526.00
1243.034, 30414.00
1244.110, 30576.00
1245.187, 30369.00
1246.263, 30411.00
1247.339, 30688.00
1248.415, 30605.00
1249.491, 30584.00
1250.566, 30541.00
1251.642, 30737.00
1252.717, 30891.00
1253.793, 30715.00
1254.868, 30806.62
1255.943, 30504.00
1257.017, 30736.00
1258.092, 30591.00
1259.166, 30621.00
1260.241, 30272.00
1261.315, 30526.00
1262.389, 30680.00
1263.462, 30425.00
1264.536, 30649.00
1265.610, 30597.00
1266.683, 30780.00
1267.756, 30635.00
1268.829, 30637.00
1269.902, 30584.00
1270.975, 30545.29
1272.048, 30577.22
1273.120, 30564.00
1274.192, 30602.00
1275.264, 30721.00
1276.336, 30667.00
1277.408, 30565.00
1278.480, 30871.00
1279.551, 30611.00
1280.623, 30856.00
1281.694, 30854.00
1282.765, 30813.00
1283.836, 30629.00
1284.907, 30807.00
1285.977, 30601.00
1287.048, 30832.00
1288.118, 30920.00
1289.188, 30850.00
1290.258, 30700.00
1291.328, 30584.00
1292.398, 30997.00
1293.467, 30739.00
1294.537, 30973.00
1295.606, 30696.00
1296.675, 30674.00
1297.744, 30753.00
1298.813, 30869.00
1299.882, 30683.00
1300.950, 30808.00
1302.018, 30870.00
1303.086, 30687.00
1304.155, 30831.00
1305.222, 31014.00
1306.290, 30962.00
1307.358, 30903.00
1308.425, 31093.00
1309.492, 31009.00
1310.559, 30637.00
1311.626, 30818.00
1312.693, 30839.00
1313.760, 31064.00
1314.826, 30867.00
1315.893, 30810.00
1316.959, 30853.00
