##NAMES=Riebeckite
##RRUFFID=R050082
##IDEAL CHEMISTRY=[box]Na_2_(Fe^2+^_3_Fe^3+^_2_)Si_8_O_22_(OH)_2_
##LOCALITY=Mt. Malosa, Zomba, Chilwa, Alkaline Area, Malawi
##OWNER=RRUFF
##SOURCE=Rock Currier
##DESCRIPTION=Black elongated prisms
##STATUS=The identification of this mineral has been confirmed by X-ray diffraction and chemical analysis
##URL=rruff.info/R050082
##MEASURED CHEMISTRY=([box]_0.63_Na_0.19_K_0.18_)(Na_1.58_Ca_0.42_)_Σ=2_Fe^2+^_3.00_(Fe^3+^_1.30_Fe^2+^_0.45_Mn_0.15_Mg_0.05_Ti_0.05_)_Σ=2_(Si_0.98_Al_0.02_)_8_O_22_(OH)_2_
##PIN_ID=L00434
##ORIENTATION=Laser parallel to b* (0 1 0). Fiducial mark perpendicular to laser is parallel to c [0 0 1]
123.8850, 37336.69
125.1230, 37414.00
126.3600, 37647.00
127.5960, 39331.00
128.8330, 40376.00
130.0700, 39816.00
131.3060, 40759.00
132.5420, 40939.00
133.7780, 42137.00
135.0140, 43909.00
136.2500, 45588.00
137.4850, 48254.00
138.7200, 47979.55
139.9550, 48893.00
141.1900, 47291.00
142.4250, 45681.00
143.6600, 44545.00
144.8940, 43450.00
146.1280, 42834.00
147.3620, 42122.00
148.5960, 41625.30
149.8300, 40739.00
151.0630, 40913.00
152.2960, 40670.00
153.5300, 40329.00
154.7620, 40702.00
155.9950, 40098.00
157.2280, 40009.00
158.4600, 40274.00
159.6920, 41185.00
160.9250, 40990.00
162.1560, 42148.00
163.3880, 42963.00
164.6200, 43112.00
165.8510, 43243.00
167.0820, 43462.00
168.3130, 43714.00
169.5440, 43397.82
170.7750, 43419.00
172.0050, 42969.00
173.2350, 42934.88
174.4650, 42606.00
175.6950, 42807.00
176.9250, 43151.00
178.1550, 43292.00
179.3840, 43647.00
180.6130, 44121.97
181.8420, 44520.00
183.0710, 45248.00
184.3000, 45947.00
185.5280, 46671.00
186.7570, 48060.00
187.9850, 48541.00
189.2130, 49883.00
190.4400, 50328.95
191.6680, 50630.77
192.8960, 50926.00
194.1230, 50817.00
195.3500, 50387.00
196.5770, 50294.00
197.8030, 50018.00
199.0300, 50038.00
200.2560, 50290.00
201.4830, 50640.00
202.7090, 49300.00
203.9340, 47448.00
205.1600, 45809.00
206.3860, 45001.00
207.6110, 45120.00
208.8360, 45019.00
210.0610, 45710.00
211.2860, 45854.00
212.5100, 46393.00
213.7350, 46417.00
214.9590, 46078.00
216.1830, 45284.00
217.4070, 45117.00
218.6310, 44257.00
219.8540, 44022.00
221.0780, 43351.00
222.3010, 43418.00
223.5240, 42895.00
224.7470, 42693.00
225.9690, 42630.30
227.1920, 42505.00
228.4140, 42597.00
229.6360, 42236.00
230.8580, 42477.00
232.0800, 42721.00
233.3020, 42411.00
234.5230, 42080.00
235.7440, 41681.00
236.9650, 41345.00
238.1860, 41007.00
239.4070, 40548.00
240.6280, 39805.00
241.8480, 39843.00
243.0680, 39003.00
244.2880, 38946.00
245.5080, 38331.00
246.7280, 38181.00
247.9470, 38091.00
249.1660, 38306.00
250.3860, 37733.00
251.6040, 37884.00
252.8230, 37727.00
254.0420, 38007.00
255.2600, 38058.00
256.4790, 38269.00
257.6970, 39693.00
258.9150, 39354.36
260.1320, 39546.17
261.3500, 39063.00
262.5670, 39408.00
263.7840, 38257.00
265.0010, 38721.00
266.2180, 38272.42
267.4350, 38088.00
268.6510, 37941.00
269.8680, 37679.00
271.0840, 37626.77
272.3000, 37711.00
273.5160, 37506.00
274.7310, 37588.00
275.9470, 37583.00
277.1620, 37409.18
278.3770, 37435.00
279.5920, 37062.00
280.8070, 36906.00
282.0210, 36599.00
283.2360, 36753.00
284.4500, 36453.00
285.6640, 36528.00
286.8780, 36672.00
288.0920, 36439.00
289.3050, 36315.00
290.5180, 36578.00
291.7320, 36645.00
292.9450, 36681.00
294.1570, 36841.70
295.3700, 36925.04
296.5830, 37021.00
297.7950, 37159.00
299.0070, 37226.00
300.2190, 37303.00
301.4310, 37476.00
302.6420, 37517.00
303.8540, 37835.00
305.0650, 38072.00
306.2760, 38213.00
307.4870, 38566.00
308.6980, 38500.00
309.9080, 38834.00
311.1190, 39018.00
312.3290, 39063.00
313.5390, 39223.00
314.7490, 39438.00
315.9580, 39646.00
317.1680, 39672.00
318.3770, 39867.83
319.5860, 39830.68
320.7950, 39875.14
322.0040, 39749.00
323.2130, 39883.00
324.4210, 39866.00
325.6290, 39904.00
326.8380, 39754.00
328.0460, 39827.00
329.2530, 39719.00
330.4610, 39719.00
331.6680, 39565.00
332.8760, 39398.00
334.0830, 39412.00
335.2890, 39618.00
336.4960, 39556.00
337.7030, 39488.00
338.9090, 39931.00
340.1150, 39896.00
341.3210, 40478.00
342.5270, 40411.00
343.7330, 40638.00
344.9380, 40894.00
346.1440, 41095.00
347.3490, 41542.00
348.5540, 41776.84
349.7590, 41910.00
350.9630, 42208.00
352.1680, 42350.00
353.3720, 42139.00
354.5760, 42142.00
355.7800, 42249.00
356.9840, 41795.00
358.1870, 41946.00
359.3910, 41837.00
360.5940, 41567.00
361.7970, 41505.00
363.0000, 41643.00
364.2030, 41562.00
365.4050, 41532.00
366.6080, 41438.00
367.8100, 41352.00
369.0120, 41137.00
370.2140, 41251.00
371.4150, 40967.00
372.6170, 40917.00
373.8180, 40774.00
375.0190, 40590.00
376.2200, 40432.00
377.4210, 40018.00
378.6220, 39828.00
379.8220, 39830.00
381.0230, 39421.00
382.2230, 39436.00
383.4230, 39026.00
384.6220, 38617.00
385.8220, 38586.00
387.0220, 38556.00
388.2210, 38240.00
389.4200, 37971.00
390.6190, 37690.00
391.8180, 37480.82
393.0160, 37520.00
394.2150, 37213.00
395.4130, 37119.00
396.6110, 37235.00
397.8090, 36985.00
399.0060, 36709.00
400.2040, 36756.40
401.4010, 36651.00
402.5980, 36637.00
403.7950, 36353.00
404.9920, 36217.00
406.1890, 35968.00
407.3860, 36173.00
408.5820, 36136.00
409.7780, 36028.00
410.9740, 36220.00
412.1700, 36095.00
413.3650, 36205.00
414.5610, 36299.00
415.7560, 36572.00
416.9510, 36549.00
418.1460, 36573.00
419.3410, 36477.00
420.5360, 36964.00
421.7300, 37251.00
422.9240, 37210.00
424.1180, 37459.00
425.3120, 37464.00
426.5060, 37430.00
427.7000, 37565.67
428.8930, 37582.00
430.0860, 37601.00
431.2790, 37391.00
432.4720, 37220.00
433.6650, 37423.00
434.8580, 36980.00
436.0500, 36901.00
437.2420, 36594.00
438.4340, 36776.00
439.6260, 36528.05
440.8180, 36833.00
442.0090, 36359.00
443.2010, 36534.00
444.3920, 36694.00
445.5830, 36294.00
446.7740, 36417.00
447.9640, 36325.00
449.1550, 36491.00
450.3450, 36453.00
451.5350, 36315.00
452.7250, 36689.00
453.9150, 36440.00
455.1050, 36393.00
456.2940, 36707.00
457.4830, 36638.00
458.6720, 36774.00
459.8610, 36979.00
461.0500, 36929.00
462.2390, 37204.00
463.4270, 37324.00
464.6150, 37228.00
465.8040, 37094.00
466.9910, 37369.00
468.1790, 37310.00
469.3670, 36958.00
470.5540, 37063.00
471.7410, 37106.00
472.9280, 37046.00
474.1150, 36933.00
475.3020, 36996.38
476.4890, 36699.00
477.6750, 37009.00
478.8610, 36821.00
480.0470, 36729.00
481.2330, 36957.00
482.4190, 37112.00
483.6040, 36848.00
484.7900, 37060.00
485.9750, 36850.00
487.1600, 37009.00
488.3450, 37179.00
489.5290, 37368.00
490.7140, 37263.00
491.8980, 37515.00
493.0820, 37632.00
494.2660, 37721.00
495.4500, 37944.00
496.6340, 38112.00
497.8170, 38173.00
499.0010, 38254.00
500.1840, 38323.00
501.3670, 38559.00
502.5500, 38427.00
503.7320, 38505.00
504.9150, 38607.00
506.0970, 38983.00
507.2790, 38697.00
508.4610, 39275.00
509.6430, 39126.00
510.8250, 39480.00
512.0060, 39291.00
513.1870, 39900.00
514.3680, 39780.00
515.5490, 39777.00
516.7300, 39752.00
517.9110, 40211.00
519.0910, 40234.00
520.2710, 40583.00
521.4510, 41049.00
522.6310, 41171.30
523.8110, 41310.00
524.9910, 41676.00
526.1700, 41835.00
527.3490, 42109.00
528.5280, 42589.00
529.7070, 43138.00
530.8860, 43426.00
532.0650, 43585.00
533.2430, 44099.00
534.4210, 44056.00
535.5990, 44168.00
536.7770, 44154.00
537.9550, 44215.00
539.1320, 43886.00
540.3100, 44034.00
541.4870, 43703.00
542.6640, 43528.00
543.8410, 43379.00
545.0170, 43420.00
546.1940, 43050.00
547.3700, 42614.00
548.5470, 42592.00
549.7230, 42616.00
550.8980, 42386.00
552.0740, 42352.00
553.2500, 42084.00
554.4250, 42197.00
555.6000, 42197.00
556.7750, 41950.00
557.9500, 42133.00
559.1250, 41871.00
560.2990, 41925.00
561.4730, 42072.00
562.6480, 42047.00
563.8220, 41694.00
564.9950, 41662.00
566.1690, 41646.00
567.3430, 41480.00
568.5160, 41356.00
569.6890, 40844.00
570.8620, 40566.00
572.0350, 40316.00
573.2070, 39541.00
574.3800, 39172.00
575.5520, 38831.00
576.7240, 38292.00
577.8960, 38496.00
579.0680, 38097.96
580.2400, 38343.00
581.4110, 37680.00
582.5830, 37244.00
583.7540, 36851.00
584.9250, 36686.00
586.0950, 36502.00
587.2660, 36513.00
588.4370, 36387.00
589.6070, 36501.00
590.7770, 36244.00
591.9470, 36461.00
593.1170, 36228.00
594.2860, 36802.00
595.4560, 36647.73
596.6250, 36596.55
597.7940, 36685.00
598.9630, 36359.00
600.1320, 36411.00
601.3000, 36359.00
602.4690, 36487.00
603.6370, 36220.00
604.8050, 36351.00
605.9730, 36463.00
607.1410, 36370.00
608.3090, 36660.00
609.4760, 36658.47
610.6430, 36737.05
611.8100, 36773.00
612.9770, 36915.00
614.1440, 36865.00
615.3110, 37018.00
616.4770, 37230.00
617.6430, 37052.00
618.8090, 37323.90
619.9750, 37174.00
621.1410, 37638.00
622.3070, 37550.00
623.4720, 37696.00
624.6370, 38101.00
625.8020, 38032.00
626.9670, 38234.00
628.1320, 38349.00
629.2970, 38511.00
630.4610, 38591.00
631.6250, 38832.00
632.7890, 38796.00
633.9530, 39171.00
635.1170, 39609.00
636.2810, 40719.00
637.4440, 41169.00
638.6070, 41920.00
639.7700, 41020.00
640.9330, 41001.00
642.0960, 41709.00
643.2590, 41909.00
644.4210, 42399.00
645.5830, 42845.00
646.7450, 43444.00
647.9070, 44481.00
649.0690, 45207.00
650.2310, 46398.00
651.3920, 47331.00
652.5530, 48490.00
653.7140, 50016.00
654.8750, 51594.00
656.0360, 53314.00
657.1970, 55408.00
658.3570, 56964.00
659.5170, 58599.00
660.6770, 60106.00
661.8370, 61275.00
662.9970, 62325.00
664.1570, 63101.00
665.3160, 62502.00
666.4750, 61755.00
667.6340, 60384.00
668.7930, 58204.00
669.9520, 56398.00
671.1110, 54344.00
672.2690, 52086.00
673.4270, 50021.00
674.5850, 48321.00
675.7430, 46701.00
676.9010, 45191.00
678.0590, 44265.00
679.2160, 43339.00
680.3730, 42799.00
681.5300, 42478.00
682.6870, 41796.00
683.8440, 41167.00
685.0010, 41182.00
686.1570, 40907.00
687.3130, 40712.00
688.4690, 40809.00
689.6250, 40680.00
690.7810, 40544.00
691.9370, 40386.00
693.0920, 40707.00
694.2470, 40613.00
695.4020, 40519.00
696.5570, 40402.00
697.7120, 40436.00
698.8670, 40659.00
700.0210, 40349.00
701.1750, 40803.00
702.3290, 40709.29
703.4830, 40487.00
704.6370, 40770.00
705.7910, 40720.00
706.9440, 40707.00
708.0970, 40692.00
709.2510, 40973.00
710.4030, 40933.00
711.5560, 40963.49
712.7090, 40909.21
713.8610, 40921.00
715.0140, 40650.00
716.1660, 40608.00
717.3180, 40518.00
718.4690, 40613.00
719.6210, 40521.05
720.7730, 40625.00
721.9240, 40482.00
723.0750, 40360.00
724.2260, 40420.00
725.3770, 40414.00
726.5270, 40119.00
727.6780, 40078.00
728.8280, 39638.00
729.9780, 39656.18
731.1280, 39387.00
732.2780, 39657.00
733.4280, 39656.02
734.5770, 39821.00
735.7260, 39659.00
736.8760, 39421.00
738.0250, 39269.00
739.1730, 39322.00
740.3220, 39296.00
741.4700, 39165.30
742.6190, 39015.00
743.7670, 38968.00
744.9150, 38691.00
746.0630, 38648.00
747.2100, 38809.00
748.3580, 38356.00
749.5050, 38363.00
750.6520, 38608.00
751.7990, 38413.00
752.9460, 38473.00
754.0930, 38293.00
755.2390, 38203.00
756.3860, 38290.00
757.5320, 38028.00
758.6780, 38117.00
759.8240, 38248.00
760.9690, 38197.00
762.1150, 38077.00
763.2600, 38215.00
764.4060, 38077.00
765.5510, 38138.00
766.6950, 38183.00
767.8400, 38111.85
768.9850, 38114.00
770.1290, 38110.00
771.2730, 38039.00
772.4170, 38148.00
773.5610, 38047.00
774.7050, 37923.00
775.8480, 37746.00
776.9920, 37819.00
778.1350, 37775.00
779.2780, 37599.00
780.4210, 37590.82
781.5640, 37806.86
782.7060, 37925.53
783.8490, 37952.07
784.9910, 37610.53
786.1330, 37744.29
787.2750, 37687.57
788.4170, 37623.04
789.5580, 37823.71
790.7000, 37535.70
791.8410, 37732.16
792.9820, 37735.24
794.1230, 37826.82
795.2640, 37726.75
796.4040, 37685.88
797.5450, 37836.71
798.6850, 37881.41
799.8250, 37759.28
800.9650, 37627.00
802.1050, 37490.00
803.2450, 37772.00
804.3840, 37500.00
805.5230, 37223.00
806.6630, 37393.00
807.8020, 37526.00
808.9400, 37332.00
810.0790, 37568.00
811.2170, 37624.00
812.3560, 37423.00
813.4940, 37442.00
814.6320, 37399.22
815.7700, 37781.00
816.9070, 37348.00
818.0450, 37531.00
819.1820, 37529.00
820.3190, 37310.00
821.4560, 37460.00
822.5930, 37326.00
823.7300, 37470.00
824.8670, 37512.00
826.0030, 37396.00
827.1390, 37511.00
828.2750, 37448.27
829.4110, 37499.00
830.5470, 37437.00
831.6820, 37551.00
832.8180, 37632.00
833.9530, 37843.00
835.0880, 37880.35
836.2230, 37967.14
837.3580, 38008.00
838.4920, 38019.00
839.6270, 38056.00
840.7610, 37977.00
841.8950, 37958.00
843.0290, 38086.00
844.1630, 38224.00
845.2960, 38389.00
846.4300, 38475.81
847.5630, 38574.52
848.6960, 38629.00
849.8290, 38800.00
850.9620, 38810.00
852.0940, 39099.00
853.2270, 39046.00
854.3590, 39429.00
855.4910, 39766.00
856.6230, 39862.00
857.7550, 40000.00
858.8870, 40485.00
860.0180, 40432.00
861.1500, 40863.00
862.2810, 41248.00
863.4120, 41319.93
864.5430, 41675.00
865.6730, 41632.00
866.8040, 42043.00
867.9340, 42156.00
869.0640, 42679.00
870.1940, 42879.00
871.3240, 42913.00
872.4540, 43276.00
873.5830, 43377.00
874.7130, 43414.00
875.8420, 43845.00
876.9710, 43722.00
878.1000, 44198.00
879.2290, 43938.00
880.3570, 43976.00
881.4860, 44250.00
882.6140, 44165.00
883.7420, 44021.00
884.8700, 44084.00
885.9980, 43795.00
887.1250, 43776.99
888.2530, 43899.00
889.3800, 43610.00
890.5070, 43601.00
891.6340, 43550.00
892.7610, 43282.00
893.8880, 43089.00
895.0140, 43194.00
896.1400, 43135.00
897.2670, 42632.00
898.3930, 42618.00
899.5180, 42753.00
900.6440, 42428.00
901.7700, 42647.00
902.8950, 42656.00
904.0200, 42088.00
905.1450, 43004.00
906.2700, 43149.00
907.3950, 42246.00
908.5190, 42163.00
909.6440, 42615.00
910.7680, 42442.00
911.8920, 42497.00
913.0160, 42434.00
914.1400, 42381.00
915.2630, 42856.00
916.3870, 42673.00
917.5100, 42665.00
918.6330, 42416.00
919.7560, 42648.00
920.8790, 42329.00
922.0010, 42358.00
923.1240, 42785.00
924.2460, 42472.00
925.3680, 42418.00
926.4900, 42676.00
927.6120, 42677.00
928.7340, 42822.00
929.8550, 42671.00
930.9760, 42851.00
932.0980, 42795.00
933.2190, 43000.00
934.3390, 43045.00
935.4600, 43207.00
936.5810, 43572.00
937.7010, 43252.00
938.8210, 43996.00
939.9410, 44128.00
941.0610, 43981.00
942.1810, 44168.00
943.3010, 44356.00
944.4200, 44543.00
945.5390, 44809.00
946.6580, 45054.00
947.7770, 45068.00
948.8960, 45998.00
950.0150, 45640.00
951.1330, 46226.00
952.2510, 46108.00
953.3690, 46435.00
954.4870, 46848.00
955.6050, 46715.00
956.7230, 47098.00
957.8400, 47103.00
958.9580, 47034.00
960.0750, 47433.00
961.1920, 47446.00
962.3090, 47595.00
963.4250, 47727.00
964.5420, 47437.00
965.6580, 47491.00
966.7740, 47365.00
967.8900, 47224.00
969.0060, 47239.00
970.1220, 47053.00
971.2380, 46824.00
972.3530, 46603.00
973.4680, 46344.00
974.5830, 46307.00
975.6980, 46079.97
976.8130, 46076.00
977.9280, 45808.00
979.0420, 45750.00
980.1560, 45697.00
981.2710, 45787.00
982.3850, 45543.70
983.4980, 45470.00
984.6120, 45130.00
985.7260, 45231.00
986.8390, 45076.00
987.9520, 45061.00
989.0650, 45212.00
990.1780, 45247.00
991.2910, 45323.00
992.4030, 45350.00
993.5160, 45339.00
994.6280, 45747.00
995.7400, 45478.00
996.8520, 45594.00
997.9640, 45791.00
999.0750, 45687.00
1000.187, 46148.00
1001.298, 45590.00
1002.409, 46034.00
1003.520, 46156.00
1004.631, 46115.00
1005.741, 46100.00
1006.852, 45988.00
1007.962, 45855.00
1009.072, 46227.00
1010.182, 46212.00
1011.292, 46154.00
1012.402, 46210.00
1013.511, 45937.00
1014.621, 45992.00
1015.730, 46007.32
1016.839, 46207.00
1017.948, 46244.00
1019.056, 46047.00
1020.165, 46378.00
1021.273, 46247.00
1022.382, 46168.00
1023.490, 46561.00
1024.598, 46306.00
1025.706, 46723.00
1026.813, 46849.00
1027.921, 46856.00
1029.028, 46844.00
1030.135, 47221.00
1031.242, 47384.00
1032.349, 47554.00
1033.456, 47847.00
1034.562, 47678.00
1035.668, 47936.00
1036.775, 48126.00
1037.881, 48188.00
1038.987, 47959.00
1040.092, 48201.00
1041.198, 48207.00
1042.303, 47923.00
1043.408, 48070.00
1044.514, 48197.00
1045.618, 47851.00
1046.723, 47677.00
1047.828, 47671.36
1048.932, 47513.61
1050.037, 47407.00
1051.141, 47273.44
1052.245, 46998.00
1053.349, 46939.00
1054.452, 46783.00
1055.556, 46595.00
1056.659, 46764.00
1057.762, 46722.00
1058.865, 46755.00
1059.968, 46507.00
1061.071, 46597.00
1062.174, 46508.00
1063.276, 46700.00
1064.378, 46444.00
1065.480, 46417.00
1066.582, 46189.00
1067.684, 46161.00
1068.786, 46259.00
1069.887, 46271.00
1070.988, 46345.00
1072.090, 46203.00
1073.191, 45981.00
1074.291, 45936.00
1075.392, 45723.00
1076.493, 45631.00
1077.593, 45471.00
1078.693, 45295.00
1079.793, 45450.00
1080.893, 45262.00
1081.993, 45091.00
1083.092, 45093.00
1084.192, 44684.00
1085.291, 44360.00
1086.390, 44376.00
1087.489, 44184.00
1088.588, 44170.00
1089.686, 43802.00
1090.785, 43787.00
1091.883, 43363.00
1092.981, 43571.00
1094.079, 43316.00
1095.177, 43211.00
1096.275, 43086.00
1097.373, 43036.00
1098.470, 42939.00
1099.567, 42846.82
1100.664, 42848.00
1101.761, 42756.00
1102.858, 42755.76
1103.954, 42682.00
1105.051, 42739.00
1106.147, 42643.00
1107.243, 42607.00
1108.339, 42564.64
1109.435, 42536.00
1110.531, 42469.00
1111.626, 42370.00
1112.722, 42390.00
1113.817, 41992.00
1114.912, 42023.00
1116.007, 42097.00
1117.101, 41905.00
1118.196, 42101.00
1119.290, 41913.00
1120.385, 41762.00
1121.479, 41829.00
1122.573, 41912.00
1123.666, 41655.00
1124.760, 41667.00
1125.853, 41350.00
1126.947, 41274.00
1128.040, 41238.00
1129.133, 41016.00
1130.226, 40996.00
1131.318, 40602.00
1132.411, 40635.00
1133.503, 40329.00
1134.596, 40359.00
1135.688, 40566.00
1136.780, 40434.00
1137.871, 40256.00
1138.963, 40135.00
1140.054, 40165.00
1141.146, 39894.00
1142.237, 39866.00
1143.328, 39674.00
1144.419, 39551.00
1145.509, 39584.00
1146.600, 39491.00
1147.690, 39620.00
1148.780, 39558.00
1149.870, 39642.00
1150.960, 39505.38
1152.050, 39387.00
1153.139, 39161.00
1154.229, 39359.00
1155.318, 39146.00
1156.407, 39044.00
1157.496, 39120.00
1158.585, 38919.00
1159.674, 39232.00
1160.762, 39025.00
1161.850, 39166.00
1162.939, 38858.00
1164.027, 38978.48
1165.114, 39308.00
1166.202, 38972.00
1167.290, 39197.00
1168.377, 38903.00
1169.464, 38776.00
1170.551, 38852.00
1171.638, 39038.00
1172.725, 39094.00
1173.812, 39023.00
1174.898, 39050.20
1175.984, 38833.00
1177.071, 38886.00
1178.157, 38912.00
1179.242, 38772.00
1180.328, 39037.00
1181.414, 38740.00
1182.499, 38851.00
1183.584, 38892.00
1184.669, 38948.00
1185.754, 38919.29
1186.839, 38922.00
1187.924, 38823.00
1189.008, 38786.00
1190.092, 38770.00
1191.177, 38936.00
1192.260, 38850.00
1193.344, 38606.00
1194.428, 38837.00
1195.512, 38719.00
1196.595, 38778.00
1197.678, 38731.00
1198.761, 38830.00
1199.844, 38615.00
1200.927, 38816.00
1202.009, 38589.00
1203.092, 38880.00
1204.174, 38540.00
1205.256, 38519.00
1206.338, 38830.00
1207.420, 38783.00
1208.502, 38885.00
1209.583, 38850.00
1210.665, 38840.41
1211.746, 38945.00
1212.827, 38804.00
1213.908, 38866.00
1214.988, 38883.00
1216.069, 38692.00
1217.149, 38759.00
1218.230, 38670.00
1219.310, 38832.00
1220.390, 38588.00
1221.470, 38609.00
1222.549, 38861.00
1223.629, 38754.00
1224.708, 38788.00
1225.787, 38620.00
1226.866, 38588.00
1227.945, 38927.00
1229.024, 38688.00
1230.103, 38895.00
1231.181, 38822.00
1232.259, 38568.00
1233.337, 38905.00
1234.415, 38690.00
1235.493, 38897.12
1236.571, 38902.00
1237.648, 38737.00
1238.726, 38796.49
1239.803, 38785.00
1240.880, 38831.00
1241.957, 38629.00
1243.034, 38982.00
1244.110, 39096.00
1245.187, 38896.00
1246.263, 38787.00
1247.339, 38978.00
1248.415, 38840.00
1249.491, 38876.00
1250.566, 38842.00
1251.642, 38800.18
1252.717, 38634.00
1253.793, 38769.00
1254.868, 38745.00
1255.943, 38746.00
1257.017, 38954.00
1258.092, 39009.00
1259.166, 38956.00
1260.241, 39018.00
1261.315, 38796.00
1262.389, 38936.00
1263.462, 38682.00
1264.536, 38784.29
1265.610, 39008.00
1266.683, 39038.00
1267.756, 38695.00
1268.829, 39020.00
1269.902, 38752.00
1270.975, 38786.00
1272.048, 39104.00
1273.120, 38909.00
1274.192, 38890.00
1275.264, 38791.00
1276.336, 38949.00
1277.408, 39024.00
1278.480, 38729.00
1279.551, 39086.00
1280.623, 39193.00
1281.694, 38939.00
1282.765, 38720.00
1283.836, 38891.00
1284.907, 38828.00
1285.977, 38946.00
1287.048, 38767.00
1288.118, 38813.00
1289.188, 38825.00
1290.258, 39163.00
1291.328, 38952.00
1292.398, 38909.00
1293.467, 39252.00
