##NAMES=Riebeckite
##RRUFFID=R050082
##IDEAL CHEMISTRY=[box]Na_2_(Fe^2+^_3_Fe^3+^_2_)Si_8_O_22_(OH)_2_
##LOCALITY=Mt. Malosa, Zomba, Chilwa, Alkaline Area, Malawi
##OWNER=RRUFF
##SOURCE=Rock Currier
##DESCRIPTION=Black elongated prisms
##STATUS=The identification of this mineral has been confirmed by X-ray diffraction and chemical analysis
##URL=rruff.info/R050082
##MEASURED CHEMISTRY=([box]_0.63_Na_0.19_K_0.18_)(Na_1.58_Ca_0.42_)_Σ=2_Fe^2+^_3.00_(Fe^3+^_1.30_Fe^2+^_0.45_Mn_0.15_Mg_0.05_Ti_0.05_)_Σ=2_(Si_0.98_Al_0.02_)_8_O_22_(OH)_2_
##PIN_ID=L00416
##ORIENTATION=Laser parallel to (-1 0 -1). Fiducial mark perpendicular to laser is parallel to b [0 1 0]
154.7620, 42996.00
155.9950, 43088.00
157.2280, 42671.00
158.4600, 42780.00
159.6920, 43680.00
160.9250, 44708.00
162.1560, 44966.00
163.3880, 45965.00
164.6200, 46509.00
165.8510, 46794.00
167.0820, 47399.00
168.3130, 46721.00
169.5440, 46493.00
170.7750, 47125.00
172.0050, 46392.00
173.2350, 45597.00
174.4650, 45281.00
175.6950, 45257.00
176.9250, 45311.00
178.1550, 45398.00
179.3840, 45579.00
180.6130, 45541.00
181.8420, 46207.00
183.0710, 46300.00
184.3000, 47204.00
185.5280, 48643.00
186.7570, 49191.87
187.9850, 50344.00
189.2130, 51137.00
190.4400, 51992.00
191.6680, 52956.00
192.8960, 53574.00
194.1230, 53894.00
195.3500, 53864.00
196.5770, 54128.00
197.8030, 52819.00
199.0300, 51923.00
200.2560, 51836.00
201.4830, 51925.00
202.7090, 51716.00
203.9340, 49450.00
205.1600, 47105.00
206.3860, 44984.00
207.6110, 44157.00
208.8360, 43844.00
210.0610, 44241.00
211.2860, 44236.00
212.5100, 44576.00
213.7350, 44666.00
214.9590, 44527.00
216.1830, 43708.00
217.4070, 43518.00
218.6310, 43501.00
219.8540, 43104.00
221.0780, 42779.00
222.3010, 42504.00
223.5240, 42500.00
224.7470, 42105.00
225.9690, 42244.00
227.1920, 42437.00
228.4140, 42535.00
229.6360, 42418.00
230.8580, 42546.00
232.0800, 42237.00
233.3020, 42196.00
234.5230, 41862.00
235.7440, 41798.00
236.9650, 41473.00
238.1860, 40991.00
239.4070, 40782.00
240.6280, 40407.00
241.8480, 40258.00
243.0680, 39945.00
244.2880, 39615.00
245.5080, 39326.00
246.7280, 39103.47
247.9470, 38903.00
249.1660, 38774.00
250.3860, 38490.00
251.6040, 38466.52
252.8230, 38512.00
254.0420, 38177.50
255.2600, 38389.83
256.4790, 38521.07
257.6970, 38575.54
258.9150, 38323.39
260.1320, 38467.15
261.3500, 38452.26
262.5670, 38430.84
263.7840, 38630.34
265.0010, 38422.75
266.2180, 38618.74
267.4350, 38653.63
268.6510, 38626.00
269.8680, 38529.00
271.0840, 38416.00
272.3000, 38371.34
273.5160, 38324.64
274.7310, 38239.16
275.9470, 38317.00
277.1620, 38313.39
278.3770, 38373.00
279.5920, 38201.00
280.8070, 38018.00
282.0210, 37769.00
283.2360, 37692.22
284.4500, 37628.52
285.6640, 37513.00
286.8780, 37681.00
288.0920, 37621.00
289.3050, 37748.00
290.5180, 37813.00
291.7320, 37511.00
292.9450, 37584.00
294.1570, 37479.00
295.3700, 37736.00
296.5830, 37466.00
297.7950, 37792.00
299.0070, 37844.00
300.2190, 37681.00
301.4310, 37534.00
302.6420, 37873.00
303.8540, 37524.00
305.0650, 37876.00
306.2760, 37857.00
307.4870, 37878.00
308.6980, 37926.00
309.9080, 37960.64
311.1190, 37946.00
312.3290, 38180.00
313.5390, 38249.50
314.7490, 38574.00
315.9580, 38202.00
317.1680, 38449.91
318.3770, 38210.00
319.5860, 38435.00
320.7950, 38511.00
322.0040, 38192.00
323.2130, 38197.00
324.4210, 38531.00
325.6290, 38331.00
326.8380, 38576.00
328.0460, 38571.00
329.2530, 38467.00
330.4610, 38620.00
331.6680, 38935.00
332.8760, 38682.00
334.0830, 38834.00
335.2890, 38956.27
336.4960, 39519.00
337.7030, 39269.00
338.9090, 39744.00
340.1150, 40041.00
341.3210, 40048.00
342.5270, 40567.00
343.7330, 40768.71
344.9380, 41401.00
346.1440, 41485.00
347.3490, 41507.00
348.5540, 42007.00
349.7590, 42052.00
350.9630, 42650.00
352.1680, 42501.00
353.3720, 42512.00
354.5760, 42780.00
355.7800, 42411.19
356.9840, 42562.88
358.1870, 42633.49
359.3910, 42627.33
360.5940, 42314.57
361.7970, 42397.74
363.0000, 42322.25
364.2030, 42403.00
365.4050, 41751.00
366.6080, 41915.00
367.8100, 42027.00
369.0120, 41789.00
370.2140, 41778.00
371.4150, 41567.00
372.6170, 41440.78
373.8180, 41471.00
375.0190, 41180.00
376.2200, 40922.00
377.4210, 40819.00
378.6220, 40719.00
379.8220, 40671.00
381.0230, 40311.00
382.2230, 39951.00
383.4230, 39707.00
384.6220, 39463.23
385.8220, 39398.00
387.0220, 39183.00
388.2210, 39093.00
389.4200, 39158.00
390.6190, 38898.00
391.8180, 38499.00
393.0160, 38451.00
394.2150, 38490.00
395.4130, 37789.00
396.6110, 37959.00
397.8090, 37728.00
399.0060, 37493.00
400.2040, 37342.00
401.4010, 37398.00
402.5980, 37299.00
403.7950, 37068.00
404.9920, 37352.00
406.1890, 37078.00
407.3860, 37351.00
408.5820, 37480.72
409.7780, 37734.00
410.9740, 37781.00
412.1700, 37393.00
413.3650, 37292.00
414.5610, 37402.00
415.7560, 37903.00
416.9510, 37525.00
418.1460, 37989.00
419.3410, 38462.00
420.5360, 38732.00
421.7300, 38555.00
422.9240, 39102.00
424.1180, 39111.00
425.3120, 39227.16
426.5060, 39450.00
427.7000, 39425.00
428.8930, 39296.00
430.0860, 39354.00
431.2790, 39588.00
432.4720, 39560.00
433.6650, 39117.00
434.8580, 38818.00
436.0500, 38564.00
437.2420, 38926.00
438.4340, 38343.00
439.6260, 38116.00
440.8180, 38075.00
442.0090, 37665.00
443.2010, 37767.00
444.3920, 37761.00
445.5830, 37650.00
446.7740, 37699.00
447.9640, 37605.00
449.1550, 37531.00
450.3450, 37525.00
451.5350, 37635.00
452.7250, 37486.00
453.9150, 37554.00
455.1050, 37413.00
456.2940, 37419.00
457.4830, 37337.00
458.6720, 37137.00
459.8610, 37496.00
461.0500, 37670.00
462.2390, 37284.00
463.4270, 37657.00
464.6150, 37413.00
465.8040, 37271.00
466.9910, 37446.00
468.1790, 37364.00
469.3670, 37681.00
470.5540, 37566.00
471.7410, 37759.00
472.9280, 37580.00
474.1150, 37591.00
475.3020, 37396.00
476.4890, 37668.00
477.6750, 37269.00
478.8610, 37867.00
480.0470, 38031.00
481.2330, 37933.00
482.4190, 38168.00
483.6040, 38421.00
484.7900, 38480.00
485.9750, 38663.00
487.1600, 38715.00
488.3450, 39051.00
489.5290, 39125.00
490.7140, 39459.00
491.8980, 39331.00
493.0820, 39653.00
494.2660, 40032.00
495.4500, 39965.00
496.6340, 40234.00
497.8170, 40606.00
499.0010, 40657.00
500.1840, 40781.00
501.3670, 40856.00
502.5500, 40922.99
503.7320, 41101.00
504.9150, 40968.00
506.0970, 41114.00
507.2790, 40957.00
508.4610, 41067.00
509.6430, 41125.00
510.8250, 41119.00
512.0060, 41288.00
513.1870, 41473.00
514.3680, 41484.00
515.5490, 41824.00
516.7300, 41794.00
517.9110, 41881.00
519.0910, 41943.00
520.2710, 42234.00
521.4510, 42360.00
522.6310, 42751.00
523.8110, 43131.00
524.9910, 43172.00
526.1700, 43396.00
527.3490, 43937.00
528.5280, 43784.00
529.7070, 44608.00
530.8860, 44495.00
532.0650, 44678.00
533.2430, 44964.00
534.4210, 45114.00
535.5990, 45256.00
536.7770, 45341.10
537.9550, 45308.00
539.1320, 45332.00
540.3100, 45202.84
541.4870, 45043.00
542.6640, 44974.00
543.8410, 44782.00
545.0170, 44769.00
546.1940, 44577.32
547.3700, 44355.00
548.5470, 44321.00
549.7230, 44101.00
550.8980, 44132.00
552.0740, 44226.00
553.2500, 44095.00
554.4250, 44109.68
555.6000, 43869.00
556.7750, 43955.00
557.9500, 43852.59
559.1250, 43686.93
560.2990, 43693.00
561.4730, 43588.00
562.6480, 43532.00
563.8220, 43644.00
564.9950, 43725.00
566.1690, 43616.00
567.3430, 43383.00
568.5160, 43089.00
569.6890, 42886.00
570.8620, 42532.00
572.0350, 41957.00
573.2070, 41260.00
574.3800, 41086.00
575.5520, 40991.00
576.7240, 40640.00
577.8960, 39941.00
579.0680, 39342.00
580.2400, 39355.00
581.4110, 38746.00
582.5830, 38819.00
583.7540, 38340.00
584.9250, 37705.00
586.0950, 37957.00
587.2660, 37637.00
588.4370, 37367.00
589.6070, 37336.00
590.7770, 37664.00
591.9470, 37251.00
593.1170, 37313.00
594.2860, 37116.00
595.4560, 37095.00
596.6250, 37139.39
597.7940, 37101.77
598.9630, 37206.00
600.1320, 37251.00
601.3000, 37196.00
602.4690, 37397.00
603.6370, 37373.00
604.8050, 37625.00
605.9730, 38049.00
607.1410, 37477.00
608.3090, 37528.00
609.4760, 37582.00
610.6430, 37853.00
611.8100, 37723.00
612.9770, 37671.00
614.1440, 37768.00
615.3110, 37688.00
616.4770, 38023.00
617.6430, 37946.00
618.8090, 38089.00
619.9750, 38091.00
621.1410, 38403.00
622.3070, 38451.00
623.4720, 38463.00
624.6370, 38511.00
625.8020, 38744.00
626.9670, 38846.03
628.1320, 39055.00
629.2970, 39150.00
630.4610, 39600.00
631.6250, 39614.00
632.7890, 40259.00
633.9530, 40143.00
635.1170, 40582.00
636.2810, 40875.00
637.4440, 40859.00
638.6070, 41174.00
639.7700, 41405.00
640.9330, 41801.00
642.0960, 41967.00
643.2590, 42611.00
644.4210, 42704.00
645.5830, 43841.00
646.7450, 44077.00
647.9070, 44758.00
649.0690, 45664.00
650.2310, 46412.00
651.3920, 47519.00
652.5530, 48604.00
653.7140, 50078.00
654.8750, 51631.00
656.0360, 53444.00
657.1970, 54865.00
658.3570, 56596.00
659.5170, 58182.21
660.6770, 60221.00
661.8370, 61241.00
662.9970, 62658.00
664.1570, 63908.00
665.3160, 63779.00
666.4750, 63395.00
667.6340, 62715.00
668.7930, 61214.00
669.9520, 59345.00
671.1110, 57121.00
672.2690, 54907.00
673.4270, 52820.00
674.5850, 50949.00
675.7430, 48875.00
676.9010, 47991.00
678.0590, 47163.00
679.2160, 46057.00
680.3730, 44610.00
681.5300, 43778.00
682.6870, 43456.00
683.8440, 42617.00
685.0010, 42433.00
686.1570, 42491.00
687.3130, 42218.00
688.4690, 41744.00
689.6250, 41560.00
690.7810, 41491.00
691.9370, 41084.00
693.0920, 41165.00
694.2470, 41068.00
695.4020, 41159.00
696.5570, 41054.00
697.7120, 41171.00
698.8670, 41067.00
700.0210, 40865.00
701.1750, 41183.00
702.3290, 40922.00
703.4830, 41272.00
704.6370, 40731.00
705.7910, 41021.00
706.9440, 41046.00
708.0970, 41069.00
709.2510, 40867.00
710.4030, 41194.00
711.5560, 41072.00
712.7090, 41249.00
713.8610, 40879.00
715.0140, 41235.00
716.1660, 41122.00
717.3180, 41177.00
718.4690, 41107.00
719.6210, 41040.00
720.7730, 41210.00
721.9240, 41241.00
723.0750, 41094.00
724.2260, 41104.00
725.3770, 41243.00
726.5270, 41243.00
727.6780, 41005.00
728.8280, 41155.00
729.9780, 40965.00
731.1280, 41132.00
732.2780, 40963.00
733.4280, 40808.00
734.5770, 40802.00
735.7260, 41030.00
736.8760, 40566.00
738.0250, 41120.00
739.1730, 41225.00
740.3220, 40785.00
741.4700, 40615.00
742.6190, 40670.00
743.7670, 40578.00
744.9150, 40491.00
746.0630, 40228.00
747.2100, 40361.00
748.3580, 40237.00
749.5050, 40008.00
750.6520, 40000.00
751.7990, 40073.00
752.9460, 39572.00
754.0930, 39521.00
755.2390, 39415.00
756.3860, 39471.00
757.5320, 39514.00
758.6780, 39346.00
759.8240, 39179.00
760.9690, 39343.00
762.1150, 39263.00
763.2600, 39223.00
764.4060, 39215.00
765.5510, 39185.00
766.6950, 39167.24
767.8400, 39194.00
768.9850, 39135.00
770.1290, 39040.00
771.2730, 39018.65
772.4170, 39178.00
773.5610, 38991.00
774.7050, 38990.00
775.8480, 39027.00
776.9920, 38783.00
778.1350, 39138.00
779.2780, 38943.00
780.4210, 39097.00
781.5640, 38645.00
782.7060, 38904.00
783.8490, 38878.00
784.9910, 39114.00
786.1330, 38912.00
787.2750, 38730.00
788.4170, 38884.00
789.5580, 38677.00
790.7000, 38764.00
791.8410, 38609.00
792.9820, 38889.00
794.1230, 38757.00
795.2640, 38618.00
796.4040, 38671.00
797.5450, 38403.00
798.6850, 38675.00
799.8250, 38551.00
800.9650, 38557.00
802.1050, 38073.00
803.2450, 38595.00
804.3840, 38499.00
805.5230, 38564.00
806.6630, 38762.00
807.8020, 38643.00
808.9400, 38553.00
810.0790, 38369.00
811.2170, 38437.00
812.3560, 38378.00
813.4940, 38601.00
814.6320, 38719.00
815.7700, 38707.00
816.9070, 38602.00
818.0450, 38698.31
819.1820, 38640.00
820.3190, 38835.00
821.4560, 38396.00
822.5930, 38579.00
823.7300, 38411.00
824.8670, 38380.00
826.0030, 38608.00
827.1390, 38488.12
828.2750, 38549.00
829.4110, 38569.00
830.5470, 38720.00
831.6820, 38901.00
832.8180, 38982.00
833.9530, 38645.00
835.0880, 39220.00
836.2230, 39062.00
837.3580, 38822.00
838.4920, 39044.00
839.6270, 38959.15
840.7610, 39007.19
841.8950, 39260.00
843.0290, 39128.00
844.1630, 39569.00
845.2960, 39635.00
846.4300, 39524.00
847.5630, 39619.00
848.6960, 39534.00
849.8290, 39839.00
850.9620, 39725.00
852.0940, 39951.00
853.2270, 40033.00
854.3590, 40185.00
855.4910, 40263.00
856.6230, 40434.60
857.7550, 40657.00
858.8870, 40772.00
860.0180, 41002.00
861.1500, 41170.00
862.2810, 41362.06
863.4120, 41598.53
864.5430, 41756.00
865.6730, 42023.00
866.8040, 42201.00
867.9340, 42318.00
869.0640, 42606.00
870.1940, 42488.00
871.3240, 42708.00
872.4540, 42842.00
873.5830, 42841.00
874.7130, 43079.00
875.8420, 43037.00
876.9710, 43373.00
878.1000, 43497.00
879.2290, 43378.00
880.3570, 43270.00
881.4860, 43477.00
882.6140, 43377.00
883.7420, 43422.00
884.8700, 43613.00
885.9980, 43900.00
887.1250, 43654.00
888.2530, 43491.00
889.3800, 43189.00
890.5070, 43406.00
891.6340, 43380.00
892.7610, 43153.00
893.8880, 43231.00
895.0140, 43641.00
896.1400, 43914.00
897.2670, 43473.00
898.3930, 43181.00
899.5180, 43061.00
900.6440, 43125.00
901.7700, 43047.00
902.8950, 43157.00
904.0200, 43007.00
905.1450, 43015.41
906.2700, 43313.00
907.3950, 42973.00
908.5190, 43070.00
909.6440, 43132.00
910.7680, 43370.00
911.8920, 43155.00
913.0160, 43041.00
914.1400, 43217.00
915.2630, 43373.00
916.3870, 43393.00
917.5100, 43168.00
918.6330, 43386.00
919.7560, 43332.00
920.8790, 43462.00
922.0010, 43330.00
923.1240, 43606.00
924.2460, 43279.29
925.3680, 43517.95
926.4900, 43675.50
927.6120, 43756.30
928.7340, 43530.48
929.8550, 43700.54
930.9760, 43711.94
932.0980, 43716.88
933.2190, 43942.68
934.3390, 43761.35
935.4600, 43983.65
936.5810, 44044.84
937.7010, 44179.72
938.8210, 44154.95
939.9410, 44179.48
941.0610, 44354.12
942.1810, 44290.00
943.3010, 44594.00
944.4200, 44678.00
945.5390, 44933.00
946.6580, 44935.00
947.7770, 45260.00
948.8960, 45690.00
950.0150, 45752.00
951.1330, 46183.00
952.2510, 46475.00
953.3690, 46825.00
954.4870, 47014.00
955.6050, 47136.00
956.7230, 47435.00
957.8400, 47958.00
958.9580, 48071.00
960.0750, 48436.00
961.1920, 48797.00
962.3090, 48755.00
963.4250, 49019.00
964.5420, 48969.00
965.6580, 49128.00
966.7740, 49217.00
967.8900, 49426.00
969.0060, 49151.00
970.1220, 48927.00
971.2380, 49035.00
972.3530, 48745.00
973.4680, 48662.00
974.5830, 48741.00
975.6980, 48406.00
976.8130, 48210.00
977.9280, 47911.00
979.0420, 47878.00
980.1560, 47744.00
981.2710, 47538.00
982.3850, 47630.00
983.4980, 46997.00
984.6120, 46878.00
985.7260, 46873.00
986.8390, 46997.00
987.9520, 46755.72
989.0650, 46632.00
990.1780, 46460.00
991.2910, 46452.00
992.4030, 46480.00
993.5160, 46604.00
994.6280, 46299.00
995.7400, 46545.00
996.8520, 46492.00
997.9640, 46364.00
999.0750, 46587.00
1000.187, 47170.00
1001.298, 47355.00
1002.409, 46562.00
1003.520, 46877.00
1004.631, 47656.00
1005.741, 46957.00
1006.852, 47242.00
1007.962, 47099.00
1009.072, 47149.00
1010.182, 47239.00
1011.292, 47180.00
1012.402, 47126.00
1013.511, 47267.00
1014.621, 47273.00
1015.730, 47312.00
1016.839, 47610.00
1017.948, 47370.00
1019.056, 47650.00
1020.165, 47420.00
1021.273, 47993.00
1022.382, 47919.00
1023.490, 48740.00
1024.598, 48706.00
1025.706, 48091.00
1026.813, 48562.00
1027.921, 48709.00
1029.028, 48910.00
1030.135, 49357.00
1031.242, 49032.00
1032.349, 49638.00
1033.456, 49979.00
1034.562, 50079.00
1035.668, 49995.00
1036.775, 50081.00
1037.881, 50270.00
1038.987, 50277.82
1040.092, 50268.00
1041.198, 50458.00
1042.303, 50447.00
1043.408, 50517.00
1044.514, 50448.00
1045.618, 50160.00
1046.723, 50052.00
1047.828, 49915.00
1048.932, 49853.44
1050.037, 49785.28
1051.141, 49654.00
1052.245, 49572.88
1053.349, 49463.36
1054.452, 49338.00
1055.556, 49248.00
1056.659, 49093.00
1057.762, 48988.00
1058.865, 49134.00
1059.968, 49085.00
1061.071, 48882.00
1062.174, 49039.00
1063.276, 48490.00
1064.378, 48611.00
1065.480, 48480.00
1066.582, 48266.46
1067.684, 48322.85
1068.786, 48298.12
1069.887, 48196.77
1070.988, 47788.78
1072.090, 47776.62
1073.191, 47605.90
1074.291, 47428.80
1075.392, 47472.49
1076.493, 47109.09
1077.593, 47228.00
1078.693, 47070.00
1079.793, 47080.23
1080.893, 47033.89
1081.993, 47009.00
1083.092, 46843.00
1084.192, 46793.00
1085.291, 46344.00
1086.390, 46275.00
1087.489, 46078.00
1088.588, 45851.00
1089.686, 45650.00
1090.785, 45542.10
1091.883, 45470.00
1092.981, 45392.00
1094.079, 45335.32
1095.177, 45341.00
1096.275, 45225.00
1097.373, 44835.00
1098.470, 44629.00
1099.567, 44660.00
1100.664, 44611.00
1101.761, 44690.00
1102.858, 44592.00
1103.954, 44340.00
1105.051, 44174.00
1106.147, 44073.00
1107.243, 43913.56
1108.339, 44049.00
1109.435, 43760.00
1110.531, 43596.97
1111.626, 43687.08
1112.722, 43695.98
1113.817, 43628.23
1114.912, 43253.86
1116.007, 43275.43
1117.101, 43138.41
1118.196, 42994.78
1119.290, 43072.16
1120.385, 42742.39
1121.479, 42816.26
1122.573, 42729.04
1123.666, 42715.64
1124.760, 42542.49
1125.853, 42418.75
1126.947, 42454.62
1128.040, 42402.15
1129.133, 42210.71
1130.226, 42202.00
1131.318, 41866.91
1132.411, 41818.20
1133.503, 41893.18
1134.596, 41709.78
1135.688, 41704.07
1136.780, 41630.71
1137.871, 41250.03
1138.963, 41403.88
1140.054, 41326.62
1141.146, 41011.87
1142.237, 41147.49
1143.328, 40865.55
1144.419, 40732.67
1145.509, 40712.02
1146.600, 40574.37
1147.690, 40493.00
1148.780, 40635.00
1149.870, 40390.00
1150.960, 40332.00
1152.050, 40260.00
1153.139, 40389.00
1154.229, 40386.00
1155.318, 40240.00
1156.407, 40352.00
1157.496, 40319.00
1158.585, 40163.00
1159.674, 40010.00
1160.762, 40291.00
1161.850, 40115.20
1162.939, 40101.00
1164.027, 40089.00
1165.114, 40097.00
1166.202, 40103.00
1167.290, 40030.00
1168.377, 40073.05
1169.464, 40100.00
1170.551, 40046.00
1171.638, 39968.00
1172.725, 39812.00
1173.812, 39878.36
1174.898, 40192.00
1175.984, 40021.00
1177.071, 39973.00
1178.157, 40137.00
1179.242, 39882.00
1180.328, 39853.00
1181.414, 39746.00
1182.499, 39962.00
1183.584, 40089.00
1184.669, 39987.00
1185.754, 39981.00
1186.839, 39761.00
1187.924, 39981.00
1189.008, 39847.00
1190.092, 39810.00
1191.177, 39870.00
1192.260, 39891.00
1193.344, 39740.00
1194.428, 39865.00
1195.512, 39727.00
1196.595, 39982.00
1197.678, 40149.00
1198.761, 39790.00
1199.844, 39899.00
1200.927, 39932.00
1202.009, 39826.00
1203.092, 39799.00
1204.174, 39870.00
1205.256, 39790.00
1206.338, 39847.12
1207.420, 39944.72
1208.502, 39943.00
1209.583, 40005.00
1210.665, 40123.00
1211.746, 39766.00
1212.827, 39789.00
1213.908, 39758.00
1214.988, 39784.00
1216.069, 39956.00
1217.149, 39752.00
1218.230, 39671.00
1219.310, 39820.00
1220.390, 39680.00
1221.470, 39918.00
1222.549, 39596.00
1223.629, 39754.00
1224.708, 39773.97
1225.787, 39701.62
1226.866, 39863.00
1227.945, 39669.34
1229.024, 39866.94
1230.103, 39983.42
1231.181, 40023.14
1232.259, 39756.23
1233.337, 39885.27
1234.415, 39855.64
1235.493, 39819.50
1236.571, 40004.26
1237.648, 39781.95
1238.726, 39963.21
1239.803, 40016.00
1240.880, 40052.00
1241.957, 40004.00
1243.034, 40070.00
1244.110, 39813.00
1245.187, 40090.00
1246.263, 39795.00
1247.339, 39947.00
1248.415, 39968.00
1249.491, 39765.00
1250.566, 39727.00
1251.642, 39720.00
1252.717, 39901.00
1253.793, 39665.00
1254.868, 39930.00
1255.943, 40128.00
1257.017, 40132.00
1258.092, 39926.00
1259.166, 40051.00
1260.241, 39916.00
1261.315, 40020.00
1262.389, 39884.00
1263.462, 39934.00
1264.536, 40003.00
1265.610, 39885.03
1266.683, 40068.55
1267.756, 40170.97
1268.829, 40196.63
1269.902, 39915.67
1270.975, 40030.66
1272.048, 39986.96
1273.120, 39936.76
1274.192, 40107.47
1275.264, 39871.11
1276.336, 40038.32
1277.408, 40044.43
1278.480, 40124.27
1279.551, 40044.46
1280.623, 40013.96
1281.694, 40143.16
1282.765, 40183.94
1283.836, 40085.75
1284.907, 40170.27
1285.977, 39928.34
1287.048, 39972.88
1288.118, 40141.03
1289.188, 40050.87
1290.258, 40138.32
1291.328, 40158.12
1292.398, 39878.00
1293.467, 40282.00
1294.537, 40078.00
1295.606, 40137.00
1296.675, 40229.00
1297.744, 40110.00
1298.813, 40058.37
1299.882, 40245.20
1300.950, 40350.91
1302.018, 40379.88
1303.086, 40102.23
1304.155, 40220.52
1305.222, 40180.12
1306.290, 40133.23
1307.358, 40307.24
1308.425, 40074.18
1309.492, 40244.69
1310.559, 40254.10
1311.626, 40337.24
1312.693, 40260.73
1313.760, 40233.53
1314.826, 40366.03
1315.893, 40410.11
1316.959, 40315.21
1318.025, 40403.04
1319.091, 40164.40
1320.157, 40212.24
