##NAMES=Rutile
##RRUFFID=R040049
##IDEAL CHEMISTRY=Ti^4+^O_2_
##LOCALITY=Graves Mountain, Lincoln County, Georgia, USA
##OWNER=RRUFF
##SOURCE=University of Arizona Mineral Museum
##DESCRIPTION=Reddish-black fragments
##STATUS=The identification of this mineral has been confirmed by X-ray diffraction and chemical analysis
##URL=rruff.info/R040049
##MEASURED CHEMISTRY=(Ti_1.00_Fe_0.01_)O_2_
##PIN_ID=L01614
##ORIENTATION=Laser parallel to -a* (-1 0 0). Fiducial mark perpendicular to laser is parallel to c [0 0 1]
64.13000, 11687.00
65.37400, 12801.00
66.61700, 13925.00
67.86000, 15232.00
69.10300, 16585.00
70.34600, 18369.00
71.58900, 20514.00
72.83100, 23044.00
74.07400, 25973.00
75.31600, 28066.00
76.55800, 30751.00
77.80000, 33957.00
79.04100, 35963.00
80.28300, 37822.00
81.52400, 39188.00
82.76500, 40515.00
84.00600, 42050.00
85.24700, 43252.88
86.48700, 44568.53
87.72700, 45787.00
88.96800, 47143.00
90.20800, 48487.00
91.44800, 50010.00
92.68700, 51599.00
93.92700, 52435.00
95.16600, 53274.00
96.40500, 54264.00
97.64400, 54806.00
98.88300, 55459.95
100.1210, 55964.00
101.3600, 56336.00
102.5980, 56787.00
103.8360, 57173.73
105.0740, 57392.69
106.3120, 57911.80
107.5490, 58345.50
108.7870, 58698.89
110.0240, 58730.09
111.2610, 59176.99
112.4980, 59457.30
113.7340, 59730.52
114.9710, 60120.00
116.2070, 60731.00
117.4430, 61507.00
118.6790, 61268.00
119.9150, 61224.00
121.1510, 60479.00
122.3860, 60498.00
123.6210, 60560.00
124.8560, 60129.00
126.0910, 60022.00
127.3260, 59372.00
128.5600, 59541.00
129.7950, 59681.00
131.0290, 60135.00
132.2630, 59998.00
133.4970, 59925.00
134.7300, 59910.00
135.9640, 59960.00
137.1970, 59948.00
138.4300, 60035.00
139.6630, 60319.00
140.8960, 61107.00
142.1290, 61498.00
143.3610, 62353.00
144.5930, 62109.00
145.8250, 61720.00
147.0570, 61012.00
148.2890, 60314.37
149.5210, 58980.24
150.7520, 58507.73
151.9830, 57954.65
153.2140, 57079.65
154.4450, 56620.34
155.6760, 55994.44
156.9060, 55408.00
158.1370, 55258.00
159.3670, 55013.00
160.5970, 54331.00
161.8270, 53955.00
163.0560, 53578.00
164.2860, 53472.00
165.5150, 53542.00
166.7440, 53038.00
167.9730, 53084.00
169.2020, 52824.00
170.4300, 52980.00
171.6590, 52911.00
172.8870, 52834.00
174.1150, 52861.00
175.3430, 52937.00
176.5700, 52909.00
177.7980, 52963.00
179.0250, 52991.00
180.2520, 53147.00
181.4790, 53586.00
182.7060, 53756.00
183.9330, 53913.00
185.1590, 54596.00
186.3860, 54790.00
187.6120, 54965.00
188.8380, 55004.00
190.0630, 55462.00
191.2890, 56037.00
192.5150, 56523.00
193.7400, 56753.00
194.9650, 57364.00
196.1900, 57652.00
197.4140, 58200.00
198.6390, 58638.00
199.8630, 59051.00
201.0880, 59442.00
202.3120, 60033.00
203.5350, 60603.00
204.7590, 60855.00
205.9830, 61425.00
207.2060, 61692.00
208.4290, 62184.00
209.6520, 62706.00
210.8750, 63167.00
212.0970, 63822.00
213.3200, 63828.00
214.5420, 64411.00
215.7640, 64928.00
216.9860, 65492.00
218.2080, 66311.00
219.4300, 66717.00
220.6510, 67251.48
221.8720, 67334.00
223.0930, 68051.00
224.3140, 68169.00
225.5350, 68410.00
226.7550, 68856.00
227.9760, 69178.00
229.1960, 69442.00
230.4160, 69868.00
231.6360, 70117.05
232.8550, 70374.00
234.0750, 70679.45
235.2940, 70808.01
236.5130, 71035.48
237.7320, 71057.00
238.9510, 71316.00
240.1700, 71415.00
241.3880, 71429.00
242.6070, 71089.00
243.8250, 71135.00
245.0430, 70966.00
246.2600, 71005.00
247.4780, 71109.00
248.6950, 70498.00
249.9120, 70537.00
251.1300, 70170.00
252.3460, 69481.00
253.5630, 69472.00
254.7800, 69244.00
255.9960, 68919.00
257.2120, 68209.00
258.4280, 67870.00
259.6440, 67659.00
260.8600, 67173.00
262.0750, 67059.00
263.2910, 66376.00
264.5060, 66000.00
265.7210, 65622.00
266.9360, 65301.91
268.1500, 64915.00
269.3650, 64853.00
270.5790, 64694.00
271.7930, 64418.00
273.0070, 64067.00
274.2210, 63675.00
275.4340, 63458.00
276.6480, 63621.00
277.8610, 63059.00
279.0740, 62678.00
280.2870, 62472.00
281.5000, 61911.00
282.7120, 61888.00
283.9250, 61047.00
285.1370, 61031.00
286.3490, 60884.00
287.5610, 60172.00
288.7720, 60119.00
289.9840, 59589.00
291.1950, 59425.00
292.4060, 59059.00
293.6170, 58755.00
294.8280, 58857.00
296.0390, 58482.00
297.2490, 58270.00
298.4600, 58193.00
299.6700, 57906.00
300.8800, 57915.00
302.0890, 57628.00
303.2990, 57526.00
304.5080, 57591.00
305.7180, 57415.00
306.9270, 57718.00
308.1360, 57737.00
309.3450, 57476.00
310.5530, 57647.00
311.7620, 57591.00
312.9700, 57810.00
314.1780, 57729.00
315.3860, 57821.54
316.5930, 57935.00
317.8010, 57926.00
319.0080, 58210.00
320.2150, 58260.00
321.4230, 58611.00
322.6290, 58559.70
323.8360, 58575.00
325.0430, 58620.00
326.2490, 58438.00
327.4550, 58716.00
328.6610, 58633.00
329.8670, 58881.00
331.0730, 59059.00
332.2780, 58614.00
333.4830, 58632.00
334.6880, 59122.00
335.8930, 58837.00
337.0980, 58875.00
338.3030, 59341.00
339.5070, 59314.00
340.7110, 59223.00
341.9160, 59213.00
343.1200, 59723.00
344.3230, 59700.74
345.5270, 60012.89
346.7300, 60243.54
347.9340, 60397.46
349.1370, 60233.11
350.3390, 60488.08
351.5420, 60580.32
352.7450, 60669.47
353.9470, 60994.17
355.1490, 60895.25
356.3510, 61223.75
357.5530, 61386.87
358.7550, 61631.13
359.9560, 61711.38
361.1580, 61847.28
362.3590, 62154.44
363.5600, 62372.50
364.7610, 62448.39
365.9610, 62719.70
367.1620, 62652.14
368.3620, 62888.93
369.5620, 63259.21
370.7620, 63362.02
371.9620, 63655.04
373.1620, 63880.76
374.3610, 63787.29
375.5610, 64259.01
376.7600, 64491.54
377.9590, 64478.55
379.1570, 64941.84
380.3560, 64970.64
381.5550, 65159.65
382.7530, 65469.94
383.9510, 65661.19
385.1490, 65885.05
386.3470, 66420.70
387.5440, 66870.91
388.7420, 67240.83
389.9390, 67288.54
391.1360, 67751.94
392.3330, 68048.76
393.5290, 68338.45
394.7260, 68860.37
395.9220, 68954.61
397.1190, 69472.84
398.3150, 69821.66
399.5110, 70799.00
400.7060, 71474.00
401.9020, 72194.00
403.0970, 73110.00
404.2920, 73832.00
405.4870, 75021.00
406.6820, 75914.00
407.8770, 77379.00
409.0710, 78630.00
410.2660, 79047.00
411.4600, 80602.00
412.6540, 81689.00
413.8480, 83091.00
415.0410, 85230.00
416.2350, 86447.00
417.4280, 87571.00
418.6210, 89652.00
419.8140, 91592.00
421.0070, 93790.00
422.2000, 95331.00
423.3920, 98135.00
424.5840, 99917.00
425.7770, 102517.0
426.9690, 104920.0
428.1600, 106964.0
429.3520, 109603.0
430.5430, 112239.0
431.7350, 114886.0
432.9260, 117477.0
434.1170, 120266.0
435.3070, 122168.0
436.4980, 125143.0
437.6880, 127463.0
438.8790, 130469.0
440.0690, 132575.0
441.2590, 133604.0
442.4480, 135480.0
443.6380, 137295.0
444.8270, 138832.0
446.0170, 139503.0
447.2060, 140359.0
448.3950, 140471.0
449.5830, 139684.0
450.7720, 138657.0
451.9600, 137278.0
453.1480, 135288.0
454.3360, 132521.0
455.5240, 129520.0
456.7120, 126889.0
457.9000, 123210.0
459.0870, 120005.0
460.2740, 115496.0
461.4610, 111973.1
462.6480, 108628.0
463.8350, 104435.0
465.0210, 100631.0
466.2070, 97377.00
467.3940, 93958.00
468.5800, 90423.00
469.7660, 88102.00
470.9510, 84743.00
472.1370, 82061.00
473.3220, 79947.00
474.5070, 77335.00
475.6920, 75365.00
476.8770, 73882.00
478.0620, 72128.00
479.2460, 70726.00
480.4300, 68991.00
481.6150, 68096.00
482.7980, 66474.00
483.9820, 65851.00
485.1660, 64755.00
486.3490, 63851.00
487.5330, 62979.00
488.7160, 62362.00
489.8990, 61876.00
491.0820, 61296.00
492.2640, 60644.00
493.4470, 59981.00
494.6290, 59459.00
495.8110, 59020.00
496.9930, 59024.00
498.1750, 58707.00
499.3560, 58176.00
500.5380, 58345.00
501.7190, 57494.00
502.9000, 57756.00
504.0810, 57715.00
505.2620, 57537.00
506.4420, 57547.00
507.6230, 57136.00
508.8030, 56897.00
509.9830, 57129.00
511.1630, 56934.00
512.3430, 57059.00
513.5220, 57286.00
514.7020, 57317.00
515.8810, 57154.00
517.0600, 57255.00
518.2390, 57172.00
519.4180, 57239.00
520.5960, 57390.00
521.7750, 57247.00
522.9530, 57056.00
524.1310, 57625.00
525.3090, 57637.00
526.4870, 57660.00
527.6640, 57354.00
528.8420, 57254.00
530.0190, 57556.00
531.1960, 57516.00
532.3730, 57676.00
533.5490, 57872.00
534.7260, 57448.00
535.9020, 57957.00
537.0790, 57599.00
538.2550, 58051.00
539.4310, 58148.88
540.6060, 58516.61
541.7820, 58799.33
542.9570, 59001.34
544.1320, 58881.43
545.3070, 59177.20
546.4820, 59306.39
547.6570, 59428.74
548.8310, 59782.88
550.0060, 59709.79
551.1800, 60100.00
552.3540, 60493.00
553.5280, 60795.00
554.7020, 60990.00
555.8750, 61530.00
557.0480, 61724.00
558.2220, 62356.00
559.3950, 62752.00
560.5680, 63319.55
561.7400, 63810.00
562.9130, 64569.00
564.0850, 65257.00
565.2570, 65916.00
566.4290, 66528.00
567.6010, 67340.00
568.7730, 68028.00
569.9440, 68781.00
571.1160, 69880.00
572.2870, 70690.00
573.4580, 71691.00
574.6290, 73008.00
575.7990, 73789.00
576.9700, 74775.00
578.1400, 75732.00
579.3100, 76938.24
580.4800, 78133.00
581.6500, 79610.00
582.8200, 81058.00
583.9890, 82596.00
585.1590, 83713.00
586.3280, 85459.00
587.4970, 86758.00
588.6660, 88828.00
589.8340, 90612.00
591.0030, 92716.00
592.1710, 94727.00
593.3390, 96512.00
594.5070, 99056.00
595.6750, 100630.0
596.8430, 103322.0
598.0100, 105857.0
599.1780, 108239.0
600.3450, 110382.0
601.5120, 113007.0
602.6790, 115347.0
603.8450, 117965.0
605.0120, 120257.0
606.1780, 122465.0
607.3440, 124598.0
608.5100, 125795.0
609.6760, 127565.0
610.8420, 128732.0
612.0070, 128618.0
613.1730, 128675.0
614.3380, 128586.0
615.5030, 127751.0
616.6680, 126505.0
617.8320, 124914.0
618.9970, 124005.0
620.1610, 121651.4
621.3250, 118588.0
622.4890, 116630.0
623.6530, 113293.0
624.8170, 109848.0
625.9800, 107137.0
627.1440, 104300.0
628.3070, 100900.0
629.4700, 98651.00
630.6330, 95764.00
631.7950, 93451.00
632.9580, 90292.00
634.1200, 88583.00
635.2820, 85794.00
636.4440, 83661.00
637.6060, 81873.00
638.7680, 79504.00
639.9290, 78192.00
641.0900, 76414.00
642.2520, 74766.00
643.4130, 73018.00
644.5730, 71911.00
645.7340, 70680.00
646.8950, 69707.00
648.0550, 68261.00
649.2150, 67596.00
650.3750, 66478.00
651.5350, 65805.00
652.6950, 64982.00
653.8540, 63994.00
655.0140, 63435.16
656.1730, 62894.00
657.3320, 62164.00
658.4910, 61645.00
659.6490, 61023.00
660.8080, 60613.00
661.9660, 60098.00
663.1240, 59960.00
664.2820, 59321.00
665.4400, 59200.00
666.5980, 58739.00
667.7550, 58571.00
668.9130, 58129.00
670.0700, 58139.00
671.2270, 57765.62
672.3840, 57849.80
673.5400, 57848.93
674.6970, 57767.39
675.8530, 57364.02
677.0090, 57376.35
678.1650, 57222.09
679.3210, 57060.99
680.4770, 57131.82
681.6330, 56775.28
682.7880, 56842.52
683.9430, 56740.64
685.0980, 56716.16
686.2530, 56524.07
687.4080, 56383.75
688.5620, 56029.00
689.7170, 56143.00
690.8710, 55952.00
692.0250, 56035.00
693.1790, 55874.00
694.3320, 55687.00
695.4860, 55395.00
696.6390, 55373.00
697.7930, 55135.00
698.9460, 54939.00
700.0980, 54934.81
701.2510, 54961.66
702.4040, 54903.36
703.5560, 54764.62
704.7080, 54303.97
705.8600, 54259.01
707.0120, 54047.45
708.1640, 53829.07
709.3160, 53842.61
710.4670, 53428.93
711.6180, 53438.94
712.7690, 53279.82
713.9200, 53198.10
715.0710, 52948.77
716.2220, 52751.21
717.3720, 52721.46
718.5220, 52598.89
719.6720, 52330.40
720.8220, 52253.75
721.9720, 51834.36
723.1220, 51715.73
724.2710, 51727.02
725.4200, 51467.11
726.5690, 51259.00
727.7180, 51317.00
728.8670, 51261.00
730.0160, 50625.00
731.1640, 50535.00
732.3120, 50578.00
733.4600, 50268.00
734.6080, 50386.00
735.7560, 50233.00
736.9040, 49834.00
738.0510, 49900.00
739.1980, 49573.00
740.3460, 49649.00
741.4930, 49136.30
742.6390, 49319.09
743.7860, 49416.72
744.9320, 49433.78
746.0790, 49128.91
747.2250, 49239.74
748.3710, 49183.98
749.5170, 49121.39
750.6620, 49290.75
751.8080, 49032.71
752.9530, 49198.38
754.0980, 49194.92
755.2430, 49268.87
756.3880, 49175.20
757.5330, 49133.29
758.6770, 49259.08
759.8220, 48884.37
760.9660, 49197.14
762.1100, 49424.74
763.2540, 49571.78
764.3970, 49396.79
765.5410, 49637.60
766.6840, 49711.71
767.8270, 49778.99
768.9700, 50078.20
770.1130, 49950.03
771.2560, 50245.56
772.3980, 50371.86
773.5410, 50575.66
774.6830, 50684.00
775.8250, 50869.00
776.9670, 51048.04
778.1080, 51250.20
779.2500, 51372.00
780.3910, 51458.06
781.5330, 51871.13
782.6740, 52198.85
783.8150, 52446.00
784.9550, 52371.04
786.0960, 52711.95
787.2360, 52886.09
788.3770, 53053.59
789.5170, 53452.83
790.6570, 53424.68
791.7960, 53820.05
792.9360, 53811.00
794.0750, 53888.00
795.2150, 53983.00
796.3540, 54504.00
797.4930, 54056.00
798.6310, 54824.00
799.7700, 54720.00
800.9080, 54483.00
802.0470, 54335.00
803.1850, 54145.63
804.3230, 54138.13
805.4610, 54026.71
806.5980, 53816.16
807.7360, 53264.73
808.8730, 53110.47
810.0100, 52770.88
811.1470, 52405.75
812.2840, 52253.78
813.4200, 51656.04
814.5570, 51462.94
815.6930, 51082.34
816.8290, 50760.45
817.9650, 50252.21
819.1010, 49823.18
820.2370, 49564.71
821.3720, 48865.42
822.5080, 48575.61
823.6430, 48103.24
824.7780, 47694.47
825.9130, 47104.27
827.0480, 46552.05
828.1820, 46154.13
829.3160, 45622.00
830.4510, 45043.00
831.5850, 44691.00
832.7190, 44188.00
833.8520, 43824.00
834.9860, 43025.60
836.1190, 42799.49
837.2520, 42497.84
838.3860, 42124.88
839.5180, 41440.30
840.6510, 41180.68
841.7840, 40764.09
842.9160, 40350.59
844.0480, 40178.63
845.1810, 39588.57
846.3120, 39432.41
847.4440, 39116.43
848.5760, 38887.44
849.7070, 38500.70
850.8390, 38175.04
851.9700, 38026.91
853.1010, 37795.50
854.2310, 37428.02
855.3620, 37261.71
856.4930, 36762.23
857.6230, 36573.31
858.7530, 36783.00
859.8830, 36384.00
861.0130, 35822.00
862.1430, 35873.00
863.2720, 35503.00
864.4010, 35371.00
865.5310, 35339.00
866.6600, 35050.00
867.7880, 35202.00
868.9170, 34584.00
870.0460, 34698.00
871.1740, 34604.00
872.3020, 34467.00
873.4300, 34581.00
874.5580, 34374.00
875.6860, 34078.00
876.8130, 33917.00
877.9410, 33710.00
879.0680, 33652.00
880.1950, 33475.00
881.3220, 33483.00
882.4490, 33463.00
883.5750, 33446.00
884.7020, 33376.00
885.8280, 33157.00
886.9540, 33063.00
888.0800, 33103.00
889.2060, 32892.00
890.3320, 33091.00
891.4570, 33093.00
892.5820, 32650.00
893.7070, 32754.00
894.8320, 32577.00
895.9570, 32614.00
897.0820, 32579.00
898.2060, 32469.00
899.3310, 32182.71
900.4550, 32337.37
901.5790, 32406.87
902.7030, 32395.79
903.8260, 32062.84
904.9500, 32145.54
906.0730, 32061.68
907.1960, 31970.99
908.3200, 32112.19
909.4420, 31826.10
910.5650, 31963.66
911.6880, 31932.09
912.8100, 31977.96
913.9320, 31856.21
915.0540, 31786.24
916.1760, 31883.94
917.2980, 31888.80
918.4200, 31747.76
919.5410, 31798.58
920.6620, 31506.67
921.7830, 31515.51
922.9040, 32036.00
924.0250, 31895.00
925.1460, 31727.00
926.2660, 31749.00
927.3870, 31612.45
928.5070, 31304.00
929.6270, 31463.00
930.7470, 31411.00
931.8660, 31323.00
932.9860, 31480.00
934.1050, 31358.00
935.2240, 31188.00
936.3430, 31183.00
937.4620, 31149.94
938.5810, 31237.00
939.6990, 31277.00
940.8180, 31283.00
941.9360, 31491.00
943.0540, 31382.00
944.1720, 31445.00
945.2900, 31157.00
946.4070, 31198.00
947.5250, 30909.00
948.6420, 31108.00
949.7590, 31066.00
950.8760, 31021.00
951.9930, 30943.00
953.1090, 30836.00
954.2260, 30701.00
955.3420, 30783.00
956.4580, 30896.00
957.5740, 30966.00
958.6900, 30876.00
959.8060, 30787.00
960.9210, 30771.00
962.0360, 30760.00
963.1520, 30936.00
964.2670, 30704.00
965.3810, 30613.00
966.4960, 30868.00
967.6110, 30610.00
968.7250, 30715.00
969.8390, 30475.00
970.9530, 30535.00
972.0670, 30214.00
973.1810, 30495.00
974.2940, 30389.00
975.4080, 30577.00
976.5210, 30359.00
977.6340, 30283.00
978.7470, 30714.00
979.8600, 30452.00
980.9730, 30308.00
982.0850, 30431.00
983.1970, 30072.00
984.3090, 30346.00
985.4210, 30428.00
986.5330, 30324.00
987.6450, 30128.00
988.7560, 30126.00
989.8680, 30051.08
990.9790, 30061.00
992.0900, 30020.00
993.2010, 30002.00
994.3110, 29999.00
995.4220, 30177.00
996.5320, 29914.00
997.6430, 30108.00
998.7530, 30023.00
999.8630, 29666.00
1000.972, 30184.00
1002.082, 29862.00
1003.191, 29938.00
1004.301, 29784.00
1005.410, 29873.00
1006.519, 29842.00
1007.627, 29930.00
1008.736, 29905.99
1009.844, 29915.77
1010.953, 29858.00
1012.061, 29875.00
1013.169, 29833.00
1014.277, 29730.00
1015.384, 29812.00
1016.492, 29599.00
1017.599, 29765.00
1018.706, 29819.00
1019.813, 29760.00
1020.920, 29632.00
1022.027, 29862.00
1023.134, 29501.00
1024.240, 29631.00
1025.346, 29573.00
1026.452, 29576.00
1027.558, 29508.47
1028.664, 29695.18
1029.770, 29796.73
1030.875, 29817.71
1031.980, 29516.78
1033.086, 29631.52
1034.190, 29579.70
1035.295, 29521.03
1036.400, 29694.29
1037.504, 29440.18
1038.609, 29609.77
1039.713, 29610.22
1040.817, 29688.09
1041.921, 29598.34
1043.025, 29560.36
1044.128, 29690.05
1045.231, 29726.91
1046.335, 29617.86
1047.438, 29700.66
1048.541, 29440.70
1049.643, 29481.52
1050.746, 29652.10
1051.848, 29551.49
1052.951, 29637.35
1054.053, 29652.19
1055.155, 29344.29
1056.257, 29597.68
1057.358, 29608.34
1058.460, 29369.74
1059.561, 29297.00
1060.662, 29441.00
1061.763, 29256.00
1062.864, 29398.00
1063.965, 29273.00
1065.065, 29272.00
1066.166, 29412.00
1067.266, 29492.00
1068.366, 29300.00
1069.466, 29195.00
1070.566, 29126.00
1071.665, 29342.00
1072.765, 29298.00
1073.864, 29401.00
1074.963, 29351.00
1076.062, 29220.00
1077.161, 29252.00
1078.259, 29152.00
1079.358, 29400.00
1080.456, 29397.00
1081.554, 29145.00
1082.652, 29228.00
1083.750, 28953.00
1084.848, 29128.00
1085.945, 29064.00
1087.043, 29211.00
1088.140, 29116.00
1089.237, 29025.00
1090.334, 29031.00
1091.431, 28964.62
1092.527, 28985.00
1093.624, 28949.06
1094.720, 28978.00
1095.816, 28950.99
1096.912, 29000.00
1098.008, 28915.00
1099.104, 28893.00
1100.199, 28886.18
1101.294, 29036.00
1102.390, 28987.00
1103.485, 28767.00
1104.579, 28946.00
1105.674, 28764.00
1106.769, 28625.00
1107.863, 28998.00
1108.957, 28887.00
1110.051, 28952.00
1111.145, 28748.00
1112.239, 28843.00
1113.333, 28928.00
1114.426, 29146.00
1115.519, 28674.00
1116.612, 28759.00
1117.705, 28534.00
1118.798, 29031.00
1119.891, 28995.00
1120.983, 28822.00
1122.076, 28702.00
1123.168, 28693.00
1124.260, 28821.00
1125.352, 28610.00
1126.443, 28652.00
1127.535, 28657.00
1128.626, 28617.00
1129.718, 28662.00
1130.809, 28510.00
1131.900, 28635.00
1132.990, 28477.00
1134.081, 28600.00
1135.171, 28589.00
1136.262, 28581.00
1137.352, 28510.00
1138.442, 28619.00
1139.532, 28662.00
1140.621, 28611.00
1141.711, 28548.00
1142.800, 28693.00
1143.890, 28359.00
1144.979, 28499.00
1146.067, 28720.00
1147.156, 28464.00
1148.245, 28709.00
1149.333, 28362.40
1150.421, 28553.93
1151.510, 28660.31
1152.597, 28686.12
1153.685, 28390.01
1154.773, 28509.59
1155.860, 28462.58
1156.948, 28408.74
1158.035, 28586.83
1159.122, 28337.54
1160.209, 28511.95
1161.295, 28517.23
1162.382, 28599.92
1163.468, 28514.99
1164.555, 28481.82
1165.641, 28616.34
1166.727, 28658.01
1167.812, 28553.79
1168.898, 28641.39
1169.983, 28386.26
1171.069, 28431.89
1172.154, 28607.28
1173.239, 28511.49
1174.324, 28602.16
1175.408, 28621.82
1176.493, 28318.73
1177.577, 28576.93
1178.661, 28592.40
1179.745, 28358.62
1180.829, 28597.59
1181.913, 28398.17
1182.997, 28355.23
1184.080, 28430.05
1185.163, 28382.12
1186.246, 28527.72
1187.329, 28486.88
1188.412, 28429.37
1189.495, 28444.56
1190.577, 28253.75
1191.660, 28445.12
1192.742, 28375.43
1193.824, 28435.51
1194.906, 28525.00
1195.987, 28389.27
1197.069, 28491.98
1198.150, 28224.93
1199.232, 28267.27
1200.313, 28276.29
1201.394, 28483.08
1202.474, 28217.83
1203.555, 28251.58
1204.635, 28412.64
1205.716, 28292.00
1206.796, 28222.00
1207.876, 28425.00
1208.956, 28306.00
1210.035, 28277.00
1211.115, 28176.00
1212.194, 28164.27
1213.274, 28193.66
1214.353, 28185.00
1215.432, 28319.00
1216.510, 28412.00
1217.589, 28511.00
1218.667, 28425.00
1219.746, 28526.90
1220.824, 28254.00
1221.902, 28611.00
1222.980, 28437.00
1224.057, 28488.00
1225.135, 28230.00
1226.212, 28379.00
1227.289, 28385.00
1228.366, 28298.00
1229.443, 28292.00
1230.520, 28525.00
1231.597, 28471.00
1232.673, 28291.00
1233.749, 28494.00
1234.825, 28117.00
1235.901, 28164.00
1236.977, 28309.00
1238.053, 28474.00
1239.128, 28435.00
1240.204, 28494.00
1241.279, 28404.00
1242.354, 28248.00
1243.429, 28173.00
1244.503, 28287.00
1245.578, 28476.00
1246.652, 28246.00
1247.727, 28362.00
1248.801, 28614.00
