##NAMES=Rutile
##RRUFFID=R050417
##IDEAL CHEMISTRY=Ti^4+^O_2_
##LOCALITY=Champion mine, Mono County, California, USA
##OWNER=RRUFF
##SOURCE=Marcus Origlieri
##DESCRIPTION=Reddish black equant crystals
##STATUS=The identification of this mineral has been confirmed by X-ray diffraction and chemical analysis
##URL=rruff.info/R050417
##MEASURED CHEMISTRY=TiO_2_
##PIN_ID=L01119
##ORIENTATION=Laser parallel to a* (1 0 0). Fiducial mark perpendicular to laser is parallel to c [0 0 1]
62.16800, 2670.000
63.41100, 2785.000
64.65300, 2992.000
65.89600, 3196.000
67.13800, 3523.000
68.38000, 3860.000
69.62200, 4405.000
70.86300, 4945.000
72.10500, 5164.000
73.34600, 5058.000
74.58700, 4967.000
75.82800, 5346.000
77.06900, 5778.000
78.30900, 6208.000
79.55000, 6539.000
80.79000, 6983.000
82.03000, 7586.000
83.27000, 7473.121
84.51000, 7998.000
85.74900, 7391.000
86.98900, 7173.000
88.22800, 7317.000
89.46700, 7487.000
90.70600, 7618.000
91.94400, 7754.000
93.18300, 7993.000
94.42100, 7951.000
95.65900, 8124.000
96.89700, 8224.000
98.13500, 8197.000
99.37300, 8380.000
100.6100, 8425.000
101.8480, 8451.000
103.0850, 8455.000
104.3220, 8461.000
105.5590, 8481.000
106.7950, 8702.000
108.0320, 8907.000
109.2680, 8938.000
110.5040, 8764.000
111.7400, 9015.000
112.9760, 8963.000
114.2120, 9166.000
115.4470, 9351.000
116.6820, 9408.000
117.9170, 9395.000
119.1520, 9533.000
120.3870, 9534.000
121.6220, 9504.000
122.8560, 9619.000
124.0900, 9345.000
125.3240, 9334.000
126.5580, 9149.000
127.7920, 9190.000
129.0260, 9231.000
130.2590, 9201.000
131.4920, 9153.000
132.7250, 9292.000
133.9580, 9140.000
135.1910, 9314.000
136.4230, 9310.000
137.6560, 9667.000
138.8880, 9852.000
140.1200, 10339.00
141.3520, 10721.00
142.5830, 11170.00
143.8150, 11297.00
145.0460, 11448.00
146.2770, 11503.00
147.5080, 11164.00
148.7390, 10415.00
149.9700, 9805.000
151.2000, 9428.000
152.4310, 9168.000
153.6610, 9056.000
154.8910, 8848.000
156.1210, 8695.000
157.3500, 8663.000
158.5800, 8582.000
159.8090, 8408.000
161.0380, 8307.000
162.2670, 8301.000
163.4960, 8206.396
164.7240, 8189.918
165.9530, 8161.000
167.1810, 8186.000
168.4090, 8218.000
169.6370, 8293.000
170.8650, 8303.000
172.0920, 8338.312
173.3200, 8331.000
174.5470, 8367.000
175.7740, 8427.000
177.0010, 8418.000
178.2280, 8582.000
179.4540, 8553.000
180.6810, 8806.000
181.9070, 8836.000
183.1330, 8900.000
184.3590, 8996.000
185.5850, 9123.000
186.8100, 9212.000
188.0350, 9301.665
189.2610, 9395.438
190.4860, 9462.000
191.7110, 9568.221
192.9350, 9646.000
194.1600, 9751.000
195.3840, 9856.000
196.6080, 10091.00
197.8320, 10032.00
199.0560, 10165.00
200.2800, 10065.00
201.5030, 10303.00
202.7270, 10269.00
203.9500, 10491.00
205.1730, 10571.00
206.3950, 10515.00
207.6180, 10659.00
208.8410, 10746.00
210.0630, 10823.00
211.2850, 10920.00
212.5070, 10986.00
213.7290, 11056.00
214.9500, 11227.00
216.1720, 11415.00
217.3930, 11391.00
218.6140, 11479.00
219.8350, 11585.00
221.0560, 11588.00
222.2770, 11714.00
223.4970, 11792.00
224.7170, 12052.00
225.9370, 12051.00
227.1570, 12076.00
228.3770, 12315.00
229.5970, 12357.00
230.8160, 12288.00
232.0350, 12468.00
233.2540, 12431.79
234.4730, 12615.00
235.6920, 12513.00
236.9110, 12671.00
238.1290, 12798.00
239.3470, 12821.00
240.5650, 12731.00
241.7830, 12620.00
243.0010, 12690.00
244.2180, 12689.00
245.4360, 12600.00
246.6530, 12493.00
247.8700, 12499.00
249.0870, 12470.00
250.3040, 12226.00
251.5200, 11964.00
252.7370, 12009.00
253.9530, 11971.00
255.1690, 11730.00
256.3850, 11740.00
257.6000, 11409.00
258.8160, 11384.00
260.0310, 11328.00
261.2460, 11067.00
262.4610, 11180.00
263.6760, 11012.00
264.8910, 10972.00
266.1050, 10782.00
267.3200, 10813.00
268.5340, 10706.00
269.7480, 10724.00
270.9620, 10617.00
272.1750, 10578.44
273.3890, 10437.00
274.6020, 10454.00
275.8150, 10383.00
277.0280, 10268.00
278.2410, 10209.00
279.4540, 10194.00
280.6660, 10112.00
281.8790, 10144.00
283.0910, 10081.00
284.3030, 9865.000
285.5140, 9896.000
286.7260, 9754.000
287.9380, 9888.000
289.1490, 9667.000
290.3600, 9635.000
291.5710, 9572.000
292.7820, 9551.000
293.9920, 9473.000
295.2030, 9361.000
296.4130, 9339.000
297.6230, 9301.099
298.8330, 9403.000
300.0430, 9303.000
301.2520, 9272.000
302.4620, 9303.000
303.6710, 9220.000
304.8800, 9245.408
306.0890, 9301.000
307.2980, 9250.000
308.5070, 9283.000
309.7150, 9284.000
310.9230, 9290.000
312.1310, 9411.000
313.3390, 9337.000
314.5470, 9387.000
315.7550, 9562.000
316.9620, 9493.000
318.1690, 9497.000
319.3760, 9431.000
320.5830, 9506.000
321.7900, 9571.000
322.9960, 9510.000
324.2030, 9542.000
325.4090, 9607.000
326.6150, 9544.000
327.8210, 9640.000
329.0270, 9664.000
330.2320, 9474.000
331.4380, 9573.000
332.6430, 9510.000
333.8480, 9434.000
335.0530, 9437.000
336.2580, 9521.000
337.4620, 9397.000
338.6670, 9535.000
339.8710, 9461.000
341.0750, 9436.000
342.2790, 9458.000
343.4820, 9547.000
344.6860, 9547.000
345.8890, 9480.000
347.0920, 9448.000
348.2960, 9411.000
349.4980, 9581.000
350.7010, 9683.000
351.9040, 9615.000
353.1060, 9680.000
354.3080, 9664.000
355.5100, 9725.000
356.7120, 9703.000
357.9140, 9665.000
359.1150, 9744.000
360.3170, 9682.000
361.5180, 9755.000
362.7190, 9763.000
363.9200, 9632.000
365.1200, 9713.000
366.3210, 9634.000
367.5210, 9693.000
368.7210, 9694.000
369.9210, 9614.000
371.1210, 9693.000
372.3210, 9724.000
373.5200, 9428.000
374.7200, 9633.000
375.9190, 9458.000
377.1180, 9604.000
378.3170, 9622.000
379.5150, 9608.000
380.7140, 9669.000
381.9120, 9590.000
383.1110, 9493.000
384.3090, 9441.000
385.5060, 9523.000
386.7040, 9432.000
387.9020, 9445.013
389.0990, 9507.000
390.2960, 9435.000
391.4930, 9502.000
392.6900, 9547.000
393.8860, 9506.000
395.0830, 9641.000
396.2790, 9576.000
397.4750, 9664.000
398.6710, 9575.000
399.8670, 9642.000
401.0630, 9696.000
402.2580, 9584.000
403.4540, 9707.000
404.6490, 9729.000
405.8440, 9661.000
407.0390, 9658.000
408.2330, 9671.000
409.4280, 9731.000
410.6220, 9783.000
411.8160, 9772.000
413.0100, 9859.426
414.2040, 9992.000
415.3980, 9980.000
416.5910, 10104.00
417.7850, 10145.00
418.9780, 10123.00
420.1710, 10304.00
421.3640, 10319.00
422.5560, 10441.00
423.7490, 10490.00
424.9410, 10673.00
426.1330, 10750.98
427.3250, 10726.00
428.5170, 10938.00
429.7090, 11008.00
430.9000, 11041.00
432.0910, 11057.00
433.2820, 11209.00
434.4730, 11352.00
435.6640, 11460.00
436.8550, 11435.00
438.0450, 11612.00
439.2360, 11669.00
440.4260, 11794.00
441.6160, 11870.00
442.8060, 11837.00
443.9950, 11961.00
445.1850, 12012.00
446.3740, 12071.00
447.5630, 12030.00
448.7520, 12014.00
449.9410, 11907.00
451.1300, 11922.00
452.3180, 11789.00
453.5060, 11815.00
454.6950, 11664.00
455.8830, 11563.67
457.0700, 11564.00
458.2580, 11314.00
459.4450, 11124.00
460.6330, 11011.00
461.8200, 10816.00
463.0070, 10694.00
464.1940, 10615.00
465.3800, 10549.00
466.5670, 10427.00
467.7530, 10317.00
468.9390, 10175.00
470.1250, 10080.00
471.3110, 9932.000
472.4970, 9861.000
473.6820, 9771.438
474.8680, 9793.000
476.0530, 9660.000
477.2380, 9646.000
478.4230, 9662.000
479.6070, 9513.000
480.7920, 9537.000
481.9760, 9472.000
483.1600, 9457.000
484.3440, 9539.000
485.5280, 9415.000
486.7120, 9380.000
487.8950, 9410.000
489.0780, 9300.000
490.2620, 9345.000
491.4450, 9341.000
492.6270, 9335.000
493.8100, 9296.000
494.9920, 9344.000
496.1750, 9358.000
497.3570, 9396.000
498.5390, 9362.000
499.7210, 9388.105
500.9020, 9291.000
502.0840, 9374.000
503.2650, 9413.000
504.4460, 9353.000
505.6270, 9434.000
506.8080, 9507.000
507.9890, 9442.000
509.1690, 9477.000
510.3500, 9651.000
511.5300, 9733.000
512.7100, 9661.000
513.8900, 9658.000
515.0690, 9769.000
516.2490, 9767.000
517.4280, 9823.000
518.6070, 9907.000
519.7860, 9892.000
520.9650, 9939.000
522.1440, 9924.000
523.3220, 9989.000
524.5010, 10140.00
525.6790, 10174.00
526.8570, 10266.00
528.0350, 10389.00
529.2130, 10303.00
530.3900, 10355.00
531.5670, 10507.00
532.7450, 10485.00
533.9220, 10501.00
535.0980, 10666.00
536.2750, 10710.00
537.4520, 10818.40
538.6280, 10873.00
539.8040, 11048.00
540.9800, 11060.00
542.1560, 11204.00
543.3320, 11252.00
544.5070, 11390.00
545.6830, 11541.00
546.8580, 11695.00
548.0330, 11827.00
549.2080, 11993.00
550.3830, 12205.00
551.5570, 12262.00
552.7310, 12396.00
553.9060, 12619.23
555.0800, 12940.00
556.2540, 13099.00
557.4270, 13411.00
558.6010, 13739.00
559.7740, 13907.00
560.9470, 14327.00
562.1210, 14423.00
563.2930, 14820.00
564.4660, 15204.00
565.6390, 15424.00
566.8110, 15832.00
567.9830, 16235.00
569.1550, 16606.00
570.3270, 17143.00
571.4990, 17696.00
572.6710, 17992.00
573.8420, 18557.00
575.0130, 19173.00
576.1840, 19481.00
577.3550, 20193.00
578.5260, 20630.00
579.6970, 21300.00
580.8670, 21914.00
582.0370, 22525.00
583.2070, 23039.00
584.3770, 23843.00
585.5470, 24710.00
586.7170, 25329.00
587.8860, 26174.00
589.0550, 26888.00
590.2240, 27772.36
591.3930, 28854.00
592.5620, 29753.00
593.7310, 30791.00
594.8990, 32109.00
596.0670, 32948.00
597.2350, 34281.00
598.4030, 35105.00
599.5710, 36427.00
600.7390, 37621.00
601.9060, 38651.00
603.0740, 40219.00
604.2410, 41061.00
605.4080, 42465.00
606.5740, 43269.00
607.7410, 44427.00
608.9080, 44882.00
610.0740, 45530.00
611.2400, 46143.00
612.4060, 46303.00
613.5720, 46286.00
614.7370, 46150.48
615.9030, 45796.00
617.0680, 45201.00
618.2330, 44151.00
619.3980, 43255.00
620.5630, 42066.00
621.7280, 41014.00
622.8920, 39635.00
624.0570, 38613.00
625.2210, 37300.00
626.3850, 35743.00
627.5490, 34511.00
628.7120, 33206.00
629.8760, 31913.00
631.0390, 30720.00
632.2020, 29485.00
633.3650, 28303.00
634.5280, 27377.00
635.6910, 26335.00
636.8530, 25500.00
638.0160, 24664.00
639.1780, 23831.00
640.3400, 23042.00
641.5020, 22300.00
642.6640, 21712.00
643.8250, 21062.00
644.9870, 20693.00
646.1480, 19851.00
647.3090, 19529.00
648.4700, 19019.00
649.6300, 18367.00
650.7910, 18229.00
651.9510, 17846.00
653.1120, 17377.00
654.2720, 17025.00
655.4320, 16914.00
656.5910, 16401.00
657.7510, 16297.00
658.9100, 16085.00
660.0690, 15644.00
661.2290, 15663.00
662.3880, 15401.00
663.5460, 15158.00
664.7050, 15053.00
665.8630, 14837.00
667.0220, 14600.00
668.1800, 14390.00
669.3380, 14295.00
670.4950, 14190.00
671.6530, 14083.00
672.8100, 13959.00
673.9680, 13842.00
675.1250, 13717.00
676.2820, 13670.00
677.4390, 13596.59
678.5950, 13394.00
679.7520, 13361.00
680.9080, 13325.00
682.0640, 13052.00
683.2200, 12963.00
684.3760, 12993.00
685.5320, 12774.00
686.6870, 12763.00
687.8420, 12702.00
688.9980, 12492.00
690.1530, 12479.00
691.3070, 12261.00
692.4620, 12318.00
693.6170, 12261.00
694.7710, 12242.00
695.9250, 12063.00
697.0790, 12066.00
698.2330, 11935.00
699.3870, 11750.00
700.5400, 11819.00
701.6940, 11589.00
702.8470, 11541.00
704.0000, 11533.00
705.1530, 11380.00
706.3050, 11229.00
707.4580, 11245.00
708.6100, 11207.00
709.7630, 11086.00
710.9150, 11109.00
712.0660, 11037.00
713.2180, 11040.00
714.3700, 10944.85
715.5210, 10707.00
716.6720, 10753.00
717.8240, 10615.00
718.9740, 10542.00
720.1250, 10473.00
721.2760, 10346.65
722.4260, 10259.00
723.5770, 10150.00
724.7270, 10058.00
725.8770, 10011.00
727.0260, 9912.328
728.1760, 9860.700
729.3250, 9778.000
730.4750, 9727.000
731.6240, 9705.000
732.7730, 9596.000
733.9220, 9655.000
735.0700, 9689.000
736.2190, 9426.000
737.3670, 9474.000
738.5150, 9404.000
739.6630, 9405.000
740.8110, 9378.000
741.9590, 9213.000
743.1060, 9165.000
744.2540, 9187.000
745.4010, 9090.000
746.5480, 9172.000
747.6950, 9133.000
748.8410, 9008.000
749.9880, 8942.000
751.1340, 9095.000
752.2800, 9063.000
753.4260, 8944.000
754.5720, 8895.000
755.7180, 8876.000
756.8640, 8819.479
758.0090, 8909.000
759.1540, 8815.000
760.2990, 8806.000
761.4440, 8894.000
762.5890, 8900.000
763.7340, 8900.000
764.8780, 8904.000
766.0220, 8867.000
767.1660, 8875.000
768.3100, 8934.000
769.4540, 8853.000
770.5980, 8889.000
771.7410, 8801.000
772.8840, 8849.000
774.0280, 8879.000
775.1700, 8801.000
776.3130, 8873.000
777.4560, 8810.000
778.5980, 8898.000
779.7410, 8841.000
780.8830, 8953.000
782.0250, 8890.000
783.1670, 8996.000
784.3080, 8939.000
785.4500, 8923.000
786.5910, 8919.000
787.7320, 8989.000
788.8730, 8966.000
790.0140, 9071.000
791.1550, 9130.000
792.2950, 9103.000
793.4360, 9111.000
794.5760, 9121.000
795.7160, 9166.000
796.8560, 9232.000
797.9960, 9113.000
799.1350, 9056.000
800.2750, 9210.000
801.4140, 9083.000
802.5530, 9205.000
803.6920, 9105.000
804.8310, 9205.000
805.9690, 9020.000
807.1080, 8992.000
808.2460, 8983.000
809.3840, 9037.000
810.5220, 9034.000
811.6600, 8978.000
812.7970, 8979.000
813.9350, 8931.000
815.0720, 8886.000
816.2090, 8849.000
817.3460, 8800.000
818.4830, 8800.000
819.6200, 8789.000
820.7560, 8750.606
821.8930, 8737.000
823.0290, 8683.000
824.1650, 8686.000
825.3010, 8643.000
826.4360, 8698.000
827.5720, 8477.000
828.7070, 8466.000
829.8420, 8405.000
830.9770, 8215.000
832.1120, 8431.000
833.2470, 8249.000
834.3820, 8314.000
835.5160, 8231.000
836.6500, 8175.000
837.7840, 8088.000
838.9180, 8024.000
840.0520, 8020.000
841.1860, 8015.000
842.3190, 7875.000
843.4520, 7945.000
844.5850, 7859.000
845.7180, 7756.000
846.8510, 7698.000
847.9840, 7753.000
849.1160, 7704.000
850.2490, 7702.000
851.3810, 7500.000
852.5130, 7648.000
853.6450, 7565.000
854.7760, 7500.000
855.9080, 7593.000
857.0390, 7524.000
858.1700, 7566.000
859.3010, 7404.000
860.4320, 7392.000
861.5630, 7432.000
862.6930, 7342.000
863.8240, 7387.000
864.9540, 7390.000
866.0840, 7300.000
867.2140, 7295.000
868.3440, 7323.000
869.4730, 7283.000
870.6030, 7316.000
871.7320, 7255.000
872.8610, 7156.000
873.9900, 7172.000
875.1190, 7209.000
876.2470, 7215.000
877.3760, 7077.000
878.5040, 7173.000
879.6320, 7140.000
880.7600, 7126.000
881.8880, 7165.000
883.0150, 7148.000
884.1430, 7131.000
885.2700, 7162.000
886.3970, 6996.000
887.5240, 7087.000
888.6510, 7093.000
889.7780, 7010.000
890.9040, 7067.000
892.0310, 7031.000
893.1570, 6988.000
894.2830, 7036.000
895.4090, 6928.000
896.5350, 7028.000
897.6600, 7061.000
898.7860, 6999.000
899.9110, 6941.000
901.0360, 6889.000
902.1610, 7003.000
903.2860, 6993.000
904.4100, 6957.000
905.5350, 6998.000
906.6590, 6934.000
907.7830, 6968.000
908.9070, 7008.000
910.0310, 6977.000
911.1540, 7019.000
912.2780, 7013.589
913.4010, 6963.000
914.5240, 7018.000
915.6470, 7012.000
916.7700, 7018.000
917.8930, 7018.327
919.0150, 7002.000
920.1380, 6983.000
921.2600, 6993.000
922.3820, 6965.000
923.5040, 7035.000
924.6260, 7021.000
925.7470, 7001.000
926.8690, 7031.000
927.9900, 6945.000
929.1110, 7012.000
930.2320, 6924.000
931.3530, 7000.000
932.4730, 6991.000
933.5940, 7058.000
934.7140, 7001.000
935.8340, 7002.000
936.9540, 6933.000
938.0740, 7051.000
939.1930, 6969.000
940.3130, 6906.000
941.4320, 7008.000
942.5510, 6948.000
943.6700, 6982.000
944.7890, 6952.000
945.9080, 7028.000
947.0260, 6980.000
948.1450, 6995.000
949.2630, 6912.000
950.3810, 6915.000
951.4990, 6880.508
952.6170, 6955.000
953.7340, 6880.000
954.8520, 6902.000
955.9690, 7030.000
957.0860, 6974.000
958.2030, 6946.000
959.3200, 6944.000
960.4360, 6971.000
961.5530, 7025.000
962.6690, 7013.000
963.7850, 6951.000
964.9010, 7031.000
966.0170, 7006.100
967.1330, 6885.000
968.2480, 7011.000
969.3630, 7041.000
970.4790, 6988.000
971.5940, 7005.000
972.7080, 6936.000
973.8230, 7010.000
974.9380, 6928.000
976.0520, 6983.000
977.1660, 6990.000
978.2800, 7014.000
979.3940, 6935.000
980.5080, 7052.000
981.6220, 6953.000
982.7350, 6987.000
983.8480, 7011.000
984.9610, 7012.000
986.0740, 7054.000
987.1870, 7067.000
988.3000, 7034.000
989.4120, 6968.000
990.5250, 6978.000
991.6370, 7016.000
992.7490, 6891.000
993.8610, 7114.000
994.9720, 7030.000
996.0840, 7095.000
997.1950, 7047.000
998.3060, 7055.000
999.4170, 7019.000
1000.528, 7055.000
1001.639, 7025.460
1002.750, 7106.000
1003.860, 7013.000
1004.970, 7058.000
1006.080, 7102.000
1007.190, 7003.000
1008.300, 7093.000
1009.410, 7064.000
1010.519, 7096.000
1011.628, 7106.000
1012.738, 7020.000
1013.846, 6961.000
1014.955, 7017.000
1016.064, 7059.000
1017.172, 7013.000
1018.281, 7105.000
1019.389, 7028.000
1020.497, 7065.000
1021.605, 7110.000
1022.713, 7069.000
1023.820, 7107.872
1024.928, 7000.000
1026.035, 7103.000
1027.142, 7102.000
1028.249, 7050.000
1029.356, 7126.000
1030.462, 6950.000
1031.569, 7079.000
1032.675, 7038.000
1033.781, 7088.000
1034.887, 7018.000
1035.993, 7080.000
1037.098, 7110.000
1038.204, 7117.000
1039.309, 7115.000
1040.415, 7075.000
1041.520, 7023.000
1042.624, 7154.000
1043.729, 7032.000
1044.834, 7118.000
1045.938, 7050.000
1047.042, 7054.000
1048.146, 7146.000
1049.250, 7135.000
1050.354, 7075.000
1051.458, 7058.000
1052.561, 7205.000
1053.664, 7182.000
1054.767, 7138.000
1055.870, 7033.000
1056.973, 7147.000
1058.076, 7137.000
1059.178, 7178.000
1060.281, 7191.000
1061.383, 7177.000
1062.485, 7103.000
1063.587, 7103.000
1064.688, 7016.000
1065.790, 7223.000
1066.891, 7203.000
1067.993, 7212.000
1069.094, 7193.000
1070.195, 7152.000
1071.295, 7145.000
1072.396, 7131.000
1073.496, 7134.000
1074.597, 7147.000
1075.697, 7158.985
1076.797, 7222.000
1077.897, 7207.000
1078.996, 7271.000
1080.096, 7305.000
1081.195, 7285.000
1082.294, 7222.000
1083.393, 7338.000
1084.492, 7220.000
1085.591, 7443.000
1086.689, 7532.000
1087.788, 7528.000
1088.886, 7470.000
1089.984, 7429.000
1091.082, 7379.000
1092.180, 7331.000
1093.277, 7300.215
1094.375, 7267.000
1095.472, 7263.000
1096.569, 7223.000
1097.666, 7255.000
1098.763, 7217.000
1099.860, 7184.000
1100.956, 7286.000
1102.053, 7162.000
1103.149, 7278.000
1104.245, 7145.000
1105.341, 7215.000
1106.436, 7259.000
1107.532, 7229.000
1108.627, 7330.000
1109.723, 7225.000
1110.818, 7207.000
1111.913, 7171.000
1113.007, 7268.000
1114.102, 7216.000
1115.197, 7255.000
1116.291, 7247.000
1117.385, 7191.000
1118.479, 7289.000
1119.573, 7304.000
1120.666, 7190.000
1121.760, 7306.000
1122.853, 7344.000
1123.947, 7275.000
1125.040, 7404.000
1126.132, 7326.000
1127.225, 7293.000
1128.318, 7349.000
1129.410, 7381.000
1130.502, 7325.000
1131.595, 7425.000
1132.687, 7313.000
1133.778, 7330.000
1134.870, 7341.000
1135.961, 7310.000
1137.053, 7334.000
1138.144, 7280.000
1139.235, 7418.000
1140.326, 7389.000
1141.416, 7388.000
1142.507, 7288.000
1143.597, 7472.000
1144.688, 7479.000
1145.778, 7424.000
1146.868, 7393.000
1147.957, 7455.000
1149.047, 7440.000
1150.136, 7433.000
1151.226, 7358.000
1152.315, 7380.000
1153.404, 7469.000
1154.493, 7393.000
1155.581, 7487.000
1156.670, 7530.000
1157.758, 7434.000
1158.846, 7451.000
1159.934, 7482.000
1161.022, 7493.000
1162.110, 7478.000
1163.198, 7452.000
1164.285, 7447.000
1165.372, 7444.000
1166.459, 7448.648
1167.546, 7451.000
1168.633, 7476.000
1169.720, 7514.000
1170.806, 7530.000
1171.892, 7509.000
1172.979, 7479.000
1174.065, 7408.000
1175.150, 7561.000
1176.236, 7628.000
1177.322, 7627.000
1178.407, 7488.000
1179.492, 7421.000
1180.577, 7492.000
1181.662, 7562.000
1182.747, 7582.000
1183.832, 7562.000
1184.916, 7489.000
1186.000, 7659.000
1187.084, 7716.000
1188.168, 7660.000
1189.252, 7581.000
1190.336, 7551.000
1191.419, 7524.000
1192.503, 7518.727
1193.586, 7546.742
1194.669, 7566.000
1195.752, 7613.000
1196.835, 7675.000
1197.917, 7663.000
1199.000, 7610.000
1200.082, 7722.000
1201.164, 7783.000
1202.246, 7625.000
1203.328, 7594.000
1204.409, 7814.000
1205.491, 7734.006
1206.572, 7731.167
1207.653, 7822.000
1208.734, 7664.000
1209.815, 7669.000
1210.896, 7747.000
1211.976, 7706.000
1213.057, 7699.000
1214.137, 7793.000
1215.217, 7665.000
1216.297, 7722.000
1217.377, 7695.000
1218.456, 7773.000
1219.536, 7826.000
1220.615, 7718.000
1221.694, 7853.000
1222.773, 7778.000
1223.852, 7876.000
1224.931, 7771.000
1226.009, 7844.000
1227.088, 7746.000
1228.166, 7857.000
1229.244, 7797.000
1230.322, 7990.000
1231.400, 7817.000
1232.477, 7870.000
1233.555, 7929.000
1234.632, 7948.000
1235.709, 7923.000
1236.786, 7792.000
1237.863, 7796.000
1238.939, 7849.000
1240.016, 7883.000
1241.092, 7896.000
1242.168, 7820.000
1243.245, 7853.000
1244.320, 7897.000
1245.396, 7969.000
1246.472, 7838.000
1247.547, 7946.000
1248.622, 7858.000
1249.697, 7868.000
