##NAMES=Rutile
##RRUFFID=R040049
##IDEAL CHEMISTRY=Ti^4+^O_2_
##LOCALITY=Graves Mountain, Lincoln County, Georgia, USA
##OWNER=RRUFF
##SOURCE=University of Arizona Mineral Museum
##DESCRIPTION=Reddish-black fragments
##STATUS=The identification of this mineral has been confirmed by X-ray diffraction and chemical analysis
##URL=rruff.info/R040049
##MEASURED CHEMISTRY=(Ti_1.00_Fe_0.01_)O_2_
##PIN_ID=L00223
##ORIENTATION=Laser parallel to c* (0 0 1). Fiducial mark perpendicular to laser is parallel to -a [-1 0 0]
93.38900, 50129.00
94.62900, 50934.00
95.86800, 51445.00
97.10700, 51687.00
98.34600, 51847.00
99.58500, 52279.00
100.8230, 52872.00
102.0620, 53028.00
103.3000, 54055.00
104.5380, 53967.00
105.7760, 54497.75
107.0140, 55368.52
108.2510, 56138.64
109.4890, 56814.54
110.7260, 57111.38
111.9630, 57897.03
113.2000, 58453.00
114.4360, 58894.00
115.6730, 59262.00
116.9090, 60449.00
118.1450, 61501.00
119.3810, 61916.00
120.6170, 62162.49
121.8530, 63209.46
123.0880, 63811.57
124.3230, 63975.00
125.5590, 63415.65
126.7930, 63001.80
128.0280, 62047.81
129.2630, 60741.86
130.4970, 60714.00
131.7310, 60781.00
132.9650, 61241.00
134.1990, 61346.00
135.4330, 61337.00
136.6670, 62323.00
137.9000, 62492.00
139.1330, 62781.00
140.3660, 63419.00
141.5990, 63190.00
142.8320, 63168.00
144.0640, 62557.00
145.2960, 61329.00
146.5290, 60687.00
147.7610, 59653.00
148.9920, 58119.00
150.2240, 57499.00
151.4550, 55989.00
152.6870, 55228.00
153.9180, 54553.00
155.1490, 54080.00
156.3800, 53553.00
157.6100, 53139.00
158.8400, 52328.00
160.0710, 52195.00
161.3010, 52042.00
162.5310, 51363.00
163.7600, 51526.00
164.9900, 51062.00
166.2190, 51214.00
167.4480, 50937.00
168.6770, 50822.00
169.9060, 50913.00
171.1350, 51203.00
172.3630, 51357.00
173.5920, 51468.00
174.8200, 51647.00
176.0480, 51896.00
177.2760, 52088.00
178.5030, 52984.00
179.7310, 53554.00
180.9580, 53880.00
182.1850, 54519.04
183.4120, 54902.00
184.6390, 55469.00
185.8650, 56274.00
187.0920, 56891.00
188.3180, 57380.00
189.5440, 57909.00
190.7700, 58223.00
191.9960, 58860.00
193.2210, 59394.00
194.4470, 60107.00
195.6720, 60438.00
196.8970, 60931.00
198.1220, 61397.00
199.3460, 61960.00
200.5710, 62133.00
201.7950, 62617.00
203.0190, 63648.00
204.2430, 64131.00
205.4670, 64390.00
206.6910, 64816.00
207.9140, 65432.00
209.1370, 65894.00
210.3610, 66488.96
211.5840, 66736.00
212.8060, 67734.00
214.0290, 67910.00
215.2510, 68599.00
216.4740, 69076.00
217.6960, 69852.00
218.9180, 70537.00
220.1390, 71021.00
221.3610, 71702.00
222.5820, 72510.00
223.8030, 73036.00
225.0240, 73770.00
226.2450, 74407.00
227.4660, 74692.00
228.6870, 75509.00
229.9070, 76049.00
231.1270, 76700.00
232.3470, 77149.98
233.5670, 77944.76
234.7870, 78545.74
236.0060, 78958.05
237.2250, 78898.32
238.4440, 79233.88
239.6630, 79280.05
240.8820, 79224.70
242.1010, 79348.54
243.3190, 78876.53
244.5380, 78809.12
245.7560, 78449.68
246.9740, 78087.90
248.1910, 77436.16
249.4090, 76751.54
250.6260, 76171.37
251.8440, 75388.12
253.0610, 74340.73
254.2780, 73656.00
255.4940, 72306.00
256.7110, 71685.00
257.9270, 71032.00
259.1430, 69768.00
260.3600, 69414.00
261.5750, 68807.00
262.7910, 68168.00
264.0070, 67295.00
265.2220, 67223.00
266.4370, 66492.00
267.6520, 65695.00
268.8670, 65567.00
270.0820, 65120.00
271.2960, 64868.00
272.5100, 64471.00
273.7250, 63646.00
274.9390, 63402.00
276.1520, 62839.00
277.3660, 62812.00
278.5790, 62112.00
279.7930, 61847.00
281.0060, 61577.00
282.2190, 61095.00
283.4320, 60839.02
284.6440, 60234.00
285.8570, 60025.00
287.0690, 59696.00
288.2810, 58978.00
289.4930, 58261.00
290.7050, 58031.00
291.9160, 57532.00
293.1270, 57481.00
294.3390, 57183.00
295.5500, 57069.26
296.7610, 56787.23
297.9710, 56789.00
299.1820, 56374.00
300.3920, 55877.00
301.6020, 56028.00
302.8120, 55953.00
304.0220, 55692.00
305.2320, 55763.00
306.4410, 55770.00
307.6510, 55951.00
308.8600, 56068.00
310.0690, 56204.00
311.2780, 56074.00
312.4860, 56568.00
313.6950, 56497.00
314.9030, 56312.00
316.1110, 56936.00
317.3190, 56685.00
318.5270, 56664.00
319.7350, 56597.00
320.9420, 56624.00
322.1490, 56570.00
323.3570, 56503.00
324.5630, 56568.00
325.7700, 56429.86
326.9770, 56161.00
328.1830, 56231.00
329.3900, 55878.00
330.5960, 55771.00
331.8020, 55579.41
333.0070, 55750.77
334.2130, 55821.95
335.4180, 55798.43
336.6230, 55396.37
337.8290, 55483.07
339.0330, 55373.97
340.2380, 55256.79
341.4430, 55412.33
342.6470, 55065.38
343.8510, 55216.64
345.0550, 55169.02
346.2590, 55212.42
347.4630, 55058.73
348.6660, 54965.96
349.8700, 54969.37
351.0730, 55287.00
352.2760, 55030.00
353.4790, 54898.00
354.6810, 55038.00
355.8840, 54522.00
357.0860, 54771.00
358.2880, 54794.00
359.4900, 54956.00
360.6920, 54697.00
361.8940, 54785.00
363.0950, 54838.00
364.2960, 54650.00
365.4980, 54668.71
366.6990, 54461.07
367.8990, 54462.00
369.1000, 54017.00
370.3000, 53811.00
371.5010, 53555.00
372.7010, 53676.00
373.9010, 53424.00
375.1010, 53370.00
376.3000, 53033.00
377.5000, 53444.00
378.6990, 53038.00
379.8980, 52744.00
381.0970, 52882.00
382.2960, 52496.00
383.4940, 52430.00
384.6920, 52157.00
385.8910, 52431.00
387.0890, 52323.00
388.2870, 52066.00
389.4840, 52003.00
390.6820, 51904.00
391.8790, 51631.00
393.0770, 51953.00
394.2740, 51586.00
395.4700, 51803.00
396.6670, 51531.00
397.8640, 51481.00
399.0600, 51403.00
400.2560, 51437.00
401.4520, 51149.00
402.6480, 51241.00
403.8440, 51232.00
405.0390, 51083.00
406.2350, 51240.00
407.4300, 51048.00
408.6250, 51257.00
409.8200, 51084.00
411.0140, 51214.00
412.2090, 51370.00
413.4030, 51276.00
414.5970, 51398.00
415.7910, 51337.00
416.9850, 51342.00
418.1790, 51979.00
419.3720, 51724.00
420.5660, 52148.00
421.7590, 51961.00
422.9520, 51959.00
424.1440, 52493.00
425.3370, 52865.00
426.5300, 52851.00
427.7220, 52455.00
428.9140, 52689.00
430.1060, 53053.00
431.2980, 53079.00
432.4890, 53623.00
433.6810, 53762.00
434.8720, 53674.00
436.0630, 53717.00
437.2540, 53667.00
438.4450, 53979.00
439.6350, 54244.00
440.8260, 54407.00
442.0160, 54541.12
443.2060, 54317.00
444.3960, 54649.00
445.5860, 54498.00
446.7750, 54490.00
447.9650, 54624.00
449.1540, 54148.00
450.3430, 54065.00
451.5320, 54210.00
452.7210, 53798.00
453.9090, 53933.00
455.0980, 53813.00
456.2860, 53814.00
457.4740, 53489.00
458.6620, 53346.00
459.8500, 52906.00
461.0370, 53016.00
462.2250, 52846.00
463.4120, 52486.00
464.5990, 52599.00
465.7860, 52445.00
466.9720, 52446.00
468.1590, 52108.00
469.3450, 52084.00
470.5320, 51748.00
471.7180, 51644.00
472.9030, 51720.00
474.0890, 51311.00
475.2750, 51036.00
476.4600, 50884.00
477.6450, 50828.00
478.8300, 50628.00
480.0150, 50442.00
481.2000, 50321.00
482.3840, 50424.00
483.5690, 50162.00
484.7530, 50140.00
485.9370, 50088.00
487.1210, 49940.00
488.3040, 50085.00
489.4880, 49738.00
490.6710, 50141.00
491.8540, 50024.00
493.0370, 49596.00
494.2200, 49711.00
495.4030, 50050.00
496.5850, 49944.00
497.7680, 50004.00
498.9500, 50115.00
500.1320, 50178.00
501.3140, 50370.00
502.4950, 50500.00
503.6770, 50495.00
504.8580, 50724.00
506.0390, 50905.00
507.2200, 51244.00
508.4010, 51368.00
509.5820, 51759.00
510.7620, 51982.00
511.9420, 52402.00
513.1230, 52200.00
514.3030, 52889.00
515.4820, 52928.00
516.6620, 53600.00
517.8420, 54041.00
519.0210, 54044.00
520.2000, 54318.00
521.3790, 54895.00
522.5580, 55159.00
523.7360, 55422.00
524.9150, 55953.00
526.0930, 56352.00
527.2710, 56865.00
528.4490, 57033.00
529.6270, 57333.00
530.8050, 57987.00
531.9820, 58660.00
533.1590, 58689.00
534.3360, 59540.00
535.5130, 60244.00
536.6900, 60436.00
537.8670, 61031.00
539.0430, 61865.00
540.2200, 62143.00
541.3960, 63236.00
542.5720, 63712.00
543.7470, 64729.00
544.9230, 65717.00
546.0980, 66491.00
547.2740, 67628.00
548.4490, 68461.00
549.6240, 69580.00
550.7990, 71106.00
551.9730, 72510.00
553.1480, 73893.85
554.3220, 75464.43
555.4960, 76831.00
556.6700, 78588.00
557.8440, 80134.00
559.0170, 81774.00
560.1910, 83367.00
561.3640, 85924.00
562.5370, 88027.00
563.7100, 90222.00
564.8830, 92794.00
566.0550, 95419.00
567.2280, 97605.00
568.4000, 100446.0
569.5720, 103925.0
570.7440, 106406.0
571.9160, 109662.0
573.0870, 112880.0
574.2590, 116259.6
575.4300, 120174.0
576.6010, 123863.0
577.7720, 128181.0
578.9430, 132734.0
580.1140, 136470.0
581.2840, 141061.0
582.4540, 146489.0
583.6240, 150769.0
584.7940, 156257.0
585.9640, 161648.0
587.1340, 167341.0
588.3030, 172770.0
589.4720, 179681.0
590.6410, 185942.0
591.8100, 191507.0
592.9790, 199167.0
594.1480, 206395.0
595.3160, 214275.0
596.4840, 221485.0
597.6520, 229237.0
598.8200, 237665.0
599.9880, 245159.0
601.1560, 253191.0
602.3230, 261220.0
603.4900, 268269.0
604.6570, 275187.0
605.8240, 281394.0
606.9910, 287261.0
608.1580, 292931.0
609.3240, 295741.0
610.4900, 298157.0
611.6570, 299365.0
612.8230, 299532.0
613.9880, 298437.0
615.1540, 295619.0
616.3190, 292862.0
617.4850, 287891.0
618.6500, 281451.0
619.8150, 275692.0
620.9790, 268452.0
622.1440, 260032.0
623.3080, 251771.0
624.4730, 243000.0
625.6370, 234703.0
626.8010, 225921.0
627.9640, 217269.0
629.1280, 209048.0
630.2910, 200937.0
631.4550, 193341.0
632.6180, 185533.0
633.7810, 178748.0
634.9440, 171444.0
636.1060, 164587.0
637.2690, 159110.0
638.4310, 152880.0
639.5930, 147881.0
640.7550, 142759.0
641.9170, 137957.0
643.0780, 133398.0
644.2400, 129218.2
645.4010, 125214.6
646.5620, 121673.0
647.7230, 118252.0
648.8840, 115085.0
650.0450, 112637.0
651.2050, 109052.0
652.3650, 107184.0
653.5250, 104769.0
654.6850, 102353.0
655.8450, 100458.0
657.0050, 98316.00
658.1640, 97109.00
659.3230, 94910.00
660.4830, 93665.00
661.6420, 92261.00
662.8000, 90589.00
663.9590, 89187.00
665.1170, 88279.00
666.2760, 87098.00
667.4340, 85475.00
668.5920, 85037.00
669.7500, 83630.00
670.9070, 82583.00
672.0650, 81788.00
673.2220, 80800.00
674.3790, 80341.00
675.5360, 79427.00
676.6930, 78787.00
677.8500, 77586.00
679.0060, 77223.00
680.1620, 76365.00
681.3190, 75833.00
682.4750, 75488.00
683.6300, 74405.00
684.7860, 74211.00
685.9420, 73457.00
687.0970, 72577.00
688.2520, 72480.00
689.4070, 71622.00
690.5620, 71216.00
691.7170, 70366.00
692.8710, 70071.00
694.0250, 69350.00
695.1800, 68627.00
696.3340, 67852.00
697.4870, 67578.00
698.6410, 66971.00
699.7950, 66506.00
700.9480, 65628.00
702.1010, 65151.00
703.2540, 64636.00
704.4070, 64012.00
705.5600, 63431.00
706.7120, 62799.19
707.8640, 62274.00
709.0170, 61538.62
710.1690, 60935.00
711.3210, 60407.00
712.4720, 59730.00
713.6240, 59311.00
714.7750, 58748.00
715.9260, 58169.00
717.0770, 57783.00
718.2280, 57222.00
719.3790, 56504.00
720.5290, 56378.00
721.6800, 55756.00
722.8300, 55222.00
723.9800, 54278.00
725.1300, 54219.00
726.2800, 53694.00
727.4290, 53507.00
728.5790, 52848.00
729.7280, 52489.00
730.8770, 52146.00
732.0260, 51953.00
733.1750, 51276.00
734.3230, 51162.00
735.4720, 50455.00
736.6200, 50293.00
737.7680, 50135.00
738.9160, 50049.00
740.0640, 50042.00
741.2110, 49027.00
742.3590, 49389.00
743.5060, 48801.00
744.6530, 48535.00
745.8000, 48668.00
746.9470, 48239.00
748.0930, 48128.00
749.2400, 48038.00
750.3860, 47633.00
751.5320, 47856.00
752.6780, 47651.00
753.8240, 47630.23
754.9690, 47592.00
756.1150, 47678.00
757.2600, 47394.00
758.4050, 47499.00
759.5500, 47248.00
760.6950, 47428.00
761.8400, 47636.00
762.9840, 47701.00
764.1280, 47815.00
765.2730, 47801.00
766.4170, 47762.00
767.5600, 47764.00
768.7040, 47939.46
769.8470, 48512.00
770.9910, 48367.00
772.1340, 48598.00
773.2770, 48832.00
774.4200, 48839.00
775.5620, 48811.00
776.7050, 49453.00
777.8470, 49694.00
778.9890, 49749.00
780.1310, 50196.00
781.2730, 50442.75
782.4150, 50810.01
783.5570, 51136.32
784.6980, 51423.62
785.8390, 51556.07
786.9800, 51888.47
788.1210, 52140.75
789.2620, 52389.75
790.4020, 52750.05
791.5430, 52905.04
792.6830, 53263.57
793.8230, 53540.76
794.9630, 53554.00
796.1020, 53450.90
797.2420, 53724.71
798.3810, 53901.85
799.5210, 53984.73
800.6600, 53857.13
801.7990, 53873.97
802.9370, 53755.25
804.0760, 53577.66
805.2140, 53456.30
806.3530, 53073.66
807.4910, 52839.62
808.6290, 52524.00
809.7660, 52434.00
810.9040, 52087.00
812.0420, 51493.00
813.1790, 51195.00
814.3160, 50629.00
815.4530, 50129.88
816.5900, 49622.00
817.7260, 49127.00
818.8630, 48629.00
819.9990, 48231.00
821.1350, 47887.00
822.2710, 47441.00
823.4070, 46791.00
824.5430, 46469.00
825.6780, 45708.00
826.8130, 45166.00
827.9490, 44492.00
829.0840, 44138.00
830.2180, 44051.00
831.3530, 43291.00
832.4880, 42735.00
833.6220, 41933.00
834.7560, 41536.00
835.8900, 40851.99
837.0240, 40540.00
838.1580, 39674.00
839.2910, 38999.00
840.4250, 38456.00
841.5580, 37722.00
842.6910, 37414.00
843.8240, 36999.00
844.9560, 36305.25
846.0890, 35723.00
847.2210, 35153.00
848.3540, 34595.00
849.4860, 34300.00
850.6180, 33720.00
851.7490, 33438.00
852.8810, 33079.00
854.0120, 32485.00
855.1440, 32109.00
856.2750, 31689.00
857.4060, 31421.00
858.5360, 31046.38
859.6670, 30696.00
860.7980, 30391.00
861.9280, 30022.00
863.0580, 29689.00
864.1880, 29445.00
865.3180, 29132.00
866.4470, 28715.00
867.5770, 28738.00
868.7060, 28243.00
869.8350, 28235.00
870.9640, 27809.00
872.0930, 27835.00
873.2220, 27547.00
874.3500, 27209.00
875.4790, 27071.00
876.6070, 26856.00
877.7350, 26742.00
878.8630, 26409.00
879.9900, 26313.00
881.1180, 26239.00
882.2450, 25916.00
883.3730, 25980.00
884.5000, 25739.00
885.6260, 25626.00
886.7530, 25455.00
887.8800, 25392.00
889.0060, 25131.00
890.1320, 25244.00
891.2580, 25129.00
892.3840, 24865.00
893.5100, 24896.00
894.6360, 24722.00
895.7610, 24635.00
896.8860, 24599.00
898.0120, 24663.00
899.1360, 24416.00
900.2610, 24519.00
901.3860, 24096.00
902.5100, 24212.00
903.6350, 23913.00
904.7590, 23927.00
905.8830, 23686.00
907.0070, 23771.00
908.1300, 24019.00
909.2540, 23740.00
910.3770, 23828.00
911.5000, 23413.00
912.6230, 23675.00
913.7460, 23520.00
914.8690, 23339.00
915.9910, 23375.00
917.1140, 23342.03
918.2360, 23262.00
919.3580, 23305.00
920.4800, 23299.00
921.6020, 23224.94
922.7230, 23076.00
923.8440, 23059.00
924.9660, 23001.00
926.0870, 22846.00
927.2080, 22805.00
928.3280, 22760.49
929.4490, 22705.00
930.5700, 22689.00
931.6900, 22672.00
932.8100, 22572.00
933.9300, 22679.00
935.0500, 22257.00
936.1690, 22339.00
937.2890, 22495.00
938.4080, 22258.00
939.5270, 22325.00
940.6460, 22125.00
941.7650, 22250.00
942.8840, 22134.00
944.0020, 22290.00
945.1200, 22045.00
946.2390, 22145.00
947.3570, 21941.00
948.4750, 21988.00
949.5920, 21758.00
950.7100, 21749.00
951.8270, 21661.00
952.9440, 21697.00
954.0610, 21781.00
955.1780, 21691.00
956.2950, 21650.00
957.4120, 21545.00
958.5280, 21644.00
959.6440, 21743.00
960.7600, 21309.00
961.8760, 21711.00
962.9920, 21446.00
964.1080, 21430.23
965.2230, 21570.00
966.3380, 21340.00
967.4540, 21383.00
968.5690, 21309.00
969.6830, 21340.00
970.7980, 21265.00
971.9120, 21384.00
973.0270, 21324.33
974.1410, 21257.66
975.2550, 21261.00
976.3690, 21112.00
977.4820, 21025.00
978.5960, 21033.00
979.7090, 21079.00
980.8230, 21033.00
981.9360, 20981.00
983.0490, 20964.62
984.1610, 20954.00
985.2740, 20869.00
986.3860, 20820.00
987.4980, 20762.00
988.6110, 20781.00
989.7220, 20763.00
990.8340, 20680.00
991.9460, 20536.00
993.0570, 20513.00
994.1690, 20471.00
995.2800, 20623.00
996.3910, 20508.00
997.5010, 20402.00
998.6120, 20610.00
999.7230, 20401.00
1000.833, 20232.00
1001.943, 20404.00
1003.053, 20206.00
1004.163, 20391.00
1005.273, 20489.00
1006.382, 20183.00
1007.492, 20367.00
1008.601, 20146.00
1009.710, 20137.00
1010.819, 20080.00
1011.927, 20118.00
1013.036, 19997.00
1014.144, 20023.00
1015.253, 20047.00
1016.361, 20071.00
1017.469, 20083.00
1018.576, 20108.00
1019.684, 20085.00
1020.791, 20058.37
1021.899, 19954.00
1023.006, 19992.00
1024.113, 19943.00
1025.220, 19967.00
1026.326, 19840.00
1027.433, 19768.00
1028.539, 19632.00
1029.645, 19682.65
1030.751, 19728.00
1031.857, 19773.00
1032.963, 19939.00
1034.068, 19926.00
1035.174, 19828.00
1036.279, 19667.00
1037.384, 19615.00
1038.489, 19604.00
1039.594, 19716.00
1040.698, 19716.00
1041.803, 19779.00
1042.907, 19706.00
1044.011, 19703.00
1045.115, 19529.00
1046.219, 19584.00
1047.323, 19515.00
1048.426, 19481.00
1049.529, 19473.00
1050.632, 19451.32
1051.735, 19441.00
1052.838, 19437.00
1053.941, 19472.00
1055.043, 19432.00
1056.146, 19482.00
1057.248, 19348.00
1058.350, 19493.00
1059.452, 19489.00
1060.554, 19352.00
1061.655, 19325.00
1062.757, 19356.00
1063.858, 19433.00
1064.959, 19422.00
1066.060, 19219.00
1067.161, 19259.00
1068.261, 19127.00
1069.362, 19230.00
1070.462, 19302.00
1071.562, 19076.00
1072.662, 19256.00
1073.762, 19275.00
1074.862, 19142.00
1075.961, 18993.00
1077.061, 19236.00
1078.160, 19115.00
1079.259, 19023.00
1080.358, 19083.00
1081.456, 19256.00
1082.555, 19007.00
1083.653, 18980.00
1084.751, 18864.00
1085.850, 18740.00
1086.947, 19039.00
1088.045, 18831.00
1089.143, 18822.00
1090.240, 18923.00
1091.338, 18565.47
1092.435, 18726.46
1093.532, 18812.42
1094.628, 18827.39
1095.725, 18558.51
1096.822, 18656.30
1097.918, 18607.24
1099.014, 18552.23
1100.110, 18701.82
1101.206, 18474.57
1102.302, 18621.04
1103.397, 18618.43
1104.493, 18684.14
1105.588, 18602.11
1106.683, 18565.79
1107.778, 18677.41
1108.873, 18707.22
1109.967, 18608.43
1111.062, 18678.88
1112.156, 18447.13
1113.250, 18480.69
1114.344, 18628.76
1115.438, 18537.73
1116.531, 18611.22
1117.625, 18622.13
1118.718, 18348.48
1119.811, 18569.91
1120.904, 18577.33
1121.997, 18365.00
1123.090, 18569.66
1124.183, 18387.76
1125.275, 18343.93
1126.367, 18404.03
1127.459, 18355.92
1128.551, 18478.57
1129.643, 18436.84
1130.735, 18380.49
1131.826, 18388.32
1132.917, 18214.54
1134.008, 18377.88
1135.099, 18311.04
1136.190, 18358.71
1137.281, 18432.39
1138.371, 18307.51
1139.462, 18392.98
1140.552, 18152.41
1141.642, 18184.77
1142.732, 18187.80
1143.821, 18365.32
1144.911, 18126.60
1146.000, 18151.64
1147.090, 18289.01
1148.179, 18269.36
1149.268, 18315.45
1150.356, 18167.16
1151.445, 18201.60
1152.533, 18185.76
1153.622, 18343.97
1154.710, 18364.89
1155.798, 18220.22
1156.886, 18076.31
1157.973, 18247.31
1159.061, 18119.96
1160.148, 18153.67
1161.235, 18021.18
1162.322, 18032.30
1163.409, 18041.22
1164.496, 18123.79
1165.583, 17983.28
1166.669, 18132.29
1167.755, 18114.07
1168.841, 18145.20
1169.927, 18170.90
1171.013, 17972.16
1172.099, 17957.53
1173.184, 18206.31
1174.269, 18053.54
1175.355, 17981.89
1176.440, 17967.93
1177.524, 18225.99
1178.609, 18231.33
1179.694, 17934.60
1180.778, 18180.86
1181.862, 18093.16
1182.946, 18104.79
1184.030, 18080.27
1185.114, 18066.54
1186.197, 17916.51
1187.281, 17946.23
1188.364, 18122.13
1189.447, 18049.00
1190.530, 18145.19
1191.613, 17932.99
1192.696, 17903.94
1193.778, 17923.56
1194.860, 17960.97
1195.943, 17856.81
1197.025, 18035.96
1198.107, 18026.58
1199.188, 17853.84
1200.270, 17938.00
1201.351, 17942.00
1202.432, 17995.00
1203.514, 17855.00
1204.594, 17953.00
1205.675, 17873.00
1206.756, 17974.00
1207.836, 17949.00
1208.917, 18111.00
1209.997, 17898.00
1211.077, 17895.00
1212.157, 17755.00
1213.236, 18011.00
1214.316, 18023.00
1215.395, 17992.00
1216.474, 18000.00
1217.553, 18041.00
1218.632, 17912.00
1219.711, 17812.00
1220.790, 17869.00
1221.868, 18004.00
1222.946, 17741.00
1224.024, 18012.00
1225.102, 17807.00
1226.180, 17836.00
1227.258, 17769.00
1228.335, 17934.00
1229.413, 18074.00
1230.490, 17867.00
1231.567, 17711.00
1232.644, 17755.37
1233.720, 17723.97
1234.797, 17808.00
1235.873, 17761.00
1236.950, 17808.71
1238.026, 17773.00
1239.102, 17845.00
1240.177, 17925.00
1241.253, 17883.00
1242.328, 17851.00
1243.404, 17876.00
1244.479, 17938.00
1245.554, 17826.00
1246.629, 17853.37
1247.703, 17811.00
1248.778, 17777.00
1249.852, 17798.00
1250.926, 17725.00
1252.001, 17732.00
1253.074, 17739.00
1254.148, 17687.00
1255.222, 17672.00
1256.295, 17718.00
1257.369, 17709.00
1258.442, 17739.00
1259.515, 17591.00
1260.587, 17700.00
1261.660, 17654.00
1262.733, 17702.00
1263.805, 17567.00
1264.877, 17487.00
1265.949, 17503.00
1267.021, 17505.00
1268.093, 17533.02
1269.164, 17595.25
1270.236, 17593.00
1271.307, 17661.00
1272.378, 17579.00
1273.449, 17419.00
1274.520, 17459.00
