##NAMES=Rutile
##RRUFFID=R040049
##IDEAL CHEMISTRY=Ti^4+^O_2_
##LOCALITY=Graves Mountain, Lincoln County, Georgia, USA
##OWNER=RRUFF
##SOURCE=University of Arizona Mineral Museum
##DESCRIPTION=Reddish-black fragments
##STATUS=The identification of this mineral has been confirmed by X-ray diffraction and chemical analysis
##URL=rruff.info/R040049
##MEASURED CHEMISTRY=(Ti_1.00_Fe_0.01_)O_2_
##PIN_ID=L01614
##ORIENTATION=Laser parallel to -a* (-1 0 0). Fiducial mark perpendicular to laser is parallel to c [0 0 1]
64.13000, 10228.00
65.37400, 10750.00
66.61700, 11524.00
67.86000, 12421.00
69.10300, 13619.00
70.34600, 14896.00
71.58900, 16797.00
72.83100, 19225.00
74.07400, 21908.00
75.31600, 23390.00
76.55800, 26068.00
77.80000, 28605.00
79.04100, 30746.00
80.28300, 31696.00
81.52400, 32488.00
82.76500, 33697.00
84.00600, 35956.00
85.24700, 37908.00
86.48700, 39225.00
87.72700, 40028.00
88.96800, 41312.00
90.20800, 42228.00
91.44800, 43795.00
92.68700, 45621.00
93.92700, 46506.00
95.16600, 47876.00
96.40500, 49725.00
97.64400, 49225.00
98.88300, 49712.00
100.1210, 51538.00
101.3600, 51615.00
102.5980, 52343.00
103.8360, 52991.00
105.0740, 53559.00
106.3120, 54698.00
107.5490, 55428.00
108.7870, 56276.18
110.0240, 57322.00
111.2610, 57644.00
112.4980, 58590.00
113.7340, 59219.53
114.9710, 59359.00
116.2070, 60501.00
117.4430, 60978.00
118.6790, 61529.00
119.9150, 61702.00
121.1510, 60906.00
122.3860, 60777.00
123.6210, 61309.00
124.8560, 62011.00
126.0910, 61993.00
127.3260, 62374.00
128.5600, 62162.00
129.7950, 62594.00
131.0290, 63080.00
132.2630, 63511.00
133.4970, 63146.00
134.7300, 63667.00
135.9640, 63787.00
137.1970, 64796.00
138.4300, 64750.00
139.6630, 66484.00
140.8960, 66942.00
142.1290, 71466.00
143.3610, 71617.00
144.5930, 72456.00
145.8250, 71751.00
147.0570, 69291.00
148.2890, 67706.00
149.5210, 65902.00
150.7520, 64608.00
151.9830, 61470.00
153.2140, 59898.00
154.4450, 59046.24
155.6760, 59052.00
156.9060, 57919.00
158.1370, 57338.00
159.3670, 56921.00
160.5970, 56517.00
161.8270, 55940.00
163.0560, 55466.00
164.2860, 55203.00
165.5150, 55256.00
166.7440, 54756.00
167.9730, 54689.00
169.2020, 54514.00
170.4300, 54258.00
171.6590, 54520.00
172.8870, 54740.00
174.1150, 54676.00
175.3430, 54883.00
176.5700, 55145.00
177.7980, 55355.99
179.0250, 55695.15
180.2520, 55992.00
181.4790, 56409.00
182.7060, 56717.00
183.9330, 57107.00
185.1590, 58181.00
186.3860, 58304.00
187.6120, 58825.00
188.8380, 59303.00
190.0630, 59650.00
191.2890, 60284.00
192.5150, 60722.57
193.7400, 61310.00
194.9650, 61705.00
196.1900, 62383.00
197.4140, 62796.00
198.6390, 63216.00
199.8630, 63678.00
201.0880, 64053.00
202.3120, 64397.00
203.5350, 65440.00
204.7590, 65855.00
205.9830, 66193.00
207.2060, 66396.00
208.4290, 67136.00
209.6520, 67094.00
210.8750, 67795.00
212.0970, 68462.00
213.3200, 69070.00
214.5420, 69639.77
215.7640, 69984.00
216.9860, 70806.00
218.2080, 71272.00
219.4300, 72102.00
220.6510, 73149.00
221.8720, 73455.00
223.0930, 74341.00
224.3140, 74502.00
225.5350, 75213.00
226.7550, 75628.00
227.9760, 76804.00
229.1960, 76907.00
230.4160, 77681.48
231.6360, 78671.00
232.8550, 78866.00
234.0750, 79227.00
235.2940, 79852.00
236.5130, 80346.00
237.7320, 80743.00
238.9510, 80763.00
240.1700, 81203.00
241.3880, 81228.32
242.6070, 81380.00
243.8250, 81438.00
245.0430, 81275.58
246.2600, 81064.00
247.4780, 80747.00
248.6950, 80107.00
249.9120, 79507.00
251.1300, 79314.00
252.3460, 78150.00
253.5630, 77756.00
254.7800, 76595.00
255.9960, 75607.00
257.2120, 74997.00
258.4280, 74096.00
259.6440, 73369.00
260.8600, 73105.00
262.0750, 72192.00
263.2910, 71314.00
264.5060, 71073.00
265.7210, 70315.00
266.9360, 69873.00
268.1500, 69211.00
269.3650, 68919.00
270.5790, 68667.00
271.7930, 67916.00
273.0070, 67645.00
274.2210, 67505.00
275.4340, 67171.00
276.6480, 66670.00
277.8610, 66559.00
279.0740, 66131.00
280.2870, 65822.00
281.5000, 65553.00
282.7120, 65217.00
283.9250, 64535.00
285.1370, 64355.00
286.3490, 63967.00
287.5610, 64373.00
288.7720, 63407.00
289.9840, 63255.00
291.1950, 63647.00
292.4060, 62356.00
293.6170, 62263.00
294.8280, 61494.00
296.0390, 61425.00
297.2490, 60914.00
298.4600, 60774.00
299.6700, 60542.00
300.8800, 60329.56
302.0890, 60338.00
303.2990, 60091.00
304.5080, 60504.00
305.7180, 60485.00
306.9270, 60405.00
308.1360, 60369.00
309.3450, 60425.33
310.5530, 60532.00
311.7620, 60627.00
312.9700, 60818.00
314.1780, 61063.00
315.3860, 60920.00
316.5930, 61279.00
317.8010, 61220.00
319.0080, 61278.71
320.2150, 61419.00
321.4230, 61517.00
322.6290, 61555.45
323.8360, 61565.51
325.0430, 61602.00
326.2490, 61427.00
327.4550, 61373.00
328.6610, 61165.00
329.8670, 61202.00
331.0730, 61059.00
332.2780, 61058.00
333.4830, 61018.00
334.6880, 61139.00
335.8930, 61023.30
337.0980, 60997.00
338.3030, 60851.00
339.5070, 60632.00
340.7110, 60502.00
341.9160, 60715.00
343.1200, 60277.00
344.3230, 60383.00
345.5270, 60001.00
346.7300, 60427.00
347.9340, 60505.00
349.1370, 60634.00
350.3390, 60789.00
351.5420, 60683.00
352.7450, 60832.00
353.9470, 60859.00
355.1490, 60987.00
356.3510, 61298.00
357.5530, 61159.00
358.7550, 61355.00
359.9560, 60930.00
361.1580, 61495.00
362.3590, 61296.00
363.5600, 61303.00
364.7610, 61346.00
365.9610, 61272.58
367.1620, 61156.91
368.3620, 61239.00
369.5620, 60964.00
370.7620, 60859.00
371.9620, 61069.00
373.1620, 60576.00
374.3610, 60314.00
375.5610, 60387.00
376.7600, 60204.00
377.9590, 60240.00
379.1570, 59809.00
380.3560, 59926.00
381.5550, 59939.00
382.7530, 59544.00
383.9510, 59686.00
385.1490, 59546.97
386.3470, 59381.00
387.5440, 59402.00
388.7420, 59334.00
389.9390, 59137.00
391.1360, 59120.69
392.3330, 59013.82
393.5290, 59001.00
394.7260, 58842.00
395.9220, 58893.00
397.1190, 58756.00
398.3150, 58516.00
399.5110, 58678.00
400.7060, 58621.00
401.9020, 58656.00
403.0970, 58683.00
404.2920, 58569.00
405.4870, 58768.00
406.6820, 58835.00
407.8770, 58584.00
409.0710, 58794.00
410.2660, 58826.00
411.4600, 59223.00
412.6540, 58983.00
413.8480, 59538.00
415.0410, 59689.00
416.2350, 59622.00
417.4280, 59945.00
418.6210, 60254.00
419.8140, 60438.00
421.0070, 60322.00
422.2000, 60784.61
423.3920, 61011.03
424.5840, 61531.00
425.7770, 61722.00
426.9690, 62202.00
428.1600, 62444.00
429.3520, 62961.00
430.5430, 63116.00
431.7350, 63862.00
432.9260, 64103.00
434.1170, 64726.00
435.3070, 64878.00
436.4980, 65372.00
437.6880, 65708.00
438.8790, 65990.00
440.0690, 66531.00
441.2590, 66566.00
442.4480, 66753.00
443.6380, 66918.00
444.8270, 67457.00
446.0170, 66989.00
447.2060, 67309.00
448.3950, 67538.00
449.5830, 67210.00
450.7720, 67481.00
451.9600, 67034.00
453.1480, 66790.00
454.3360, 66732.00
455.5240, 66102.00
456.7120, 65665.00
457.9000, 65350.00
459.0870, 64867.00
460.2740, 64743.00
461.4610, 64339.00
462.6480, 63740.68
463.8350, 63144.00
465.0210, 62499.00
466.2070, 61869.00
467.3940, 61341.00
468.5800, 61038.59
469.7660, 61124.00
470.9510, 60587.00
472.1370, 60196.00
473.3220, 59923.00
474.5070, 59405.00
475.6920, 58897.00
476.8770, 58832.00
478.0620, 58619.00
479.2460, 58641.00
480.4300, 58576.00
481.6150, 57836.00
482.7980, 57811.00
483.9820, 57744.00
485.1660, 57787.00
486.3490, 57724.00
487.5330, 57615.00
488.7160, 57277.00
489.8990, 57553.00
491.0820, 57180.00
492.2640, 57269.00
493.4470, 56944.00
494.6290, 57011.00
495.8110, 57147.00
496.9930, 57220.00
498.1750, 57064.00
499.3560, 57254.00
500.5380, 56929.00
501.7190, 56864.00
502.9000, 57200.00
504.0810, 57537.00
505.2620, 57948.00
506.4420, 57858.00
507.6230, 58210.00
508.8030, 58189.00
509.9830, 58385.00
511.1630, 58513.00
512.3430, 58706.00
513.5220, 59499.00
514.7020, 59704.05
515.8810, 60035.49
517.0600, 60421.00
518.2390, 60667.00
519.4180, 60615.00
520.5960, 61163.00
521.7750, 61189.00
522.9530, 62077.00
524.1310, 62548.00
525.3090, 62561.00
526.4870, 62661.00
527.6640, 63149.00
528.8420, 63526.00
530.0190, 64055.00
531.1960, 64740.00
532.3730, 64855.00
533.5490, 65459.00
534.7260, 66093.00
535.9020, 66033.00
537.0790, 66803.00
538.2550, 67307.00
539.4310, 68016.00
540.6060, 68637.00
541.7820, 69286.00
542.9570, 70060.00
544.1320, 70685.00
545.3070, 72128.00
546.4820, 72637.00
547.6570, 73519.00
548.8310, 74861.00
550.0060, 75719.66
551.1800, 76865.00
552.3540, 78136.00
553.5280, 79333.00
554.7020, 80793.00
555.8750, 82377.00
557.0480, 83674.00
558.2220, 85515.00
559.3950, 87564.00
560.5680, 89022.00
561.7400, 90970.00
562.9130, 93032.00
564.0850, 95227.00
565.2570, 96865.00
566.4290, 99735.00
567.6010, 102306.0
568.7730, 104723.9
569.9440, 107883.0
571.1160, 110348.0
572.2870, 113232.0
573.4580, 116711.0
574.6290, 120019.0
575.7990, 123463.0
576.9700, 126376.0
578.1400, 130196.0
579.3100, 134094.0
580.4800, 137941.0
581.6500, 142263.7
582.8200, 146457.0
583.9890, 151250.0
585.1590, 155818.0
586.3280, 160796.0
587.4970, 166025.0
588.6660, 171092.0
589.8340, 176929.0
591.0030, 182964.0
592.1710, 189734.0
593.3390, 195527.0
594.5070, 202841.0
595.6750, 209183.0
596.8430, 216960.0
598.0100, 224586.0
599.1780, 231671.0
600.3450, 239554.0
601.5120, 247021.0
602.6790, 254967.0
603.8450, 262710.0
605.0120, 270600.0
606.1780, 276324.0
607.3440, 282654.0
608.5100, 288376.0
609.6760, 293656.0
610.8420, 297214.0
612.0070, 299068.0
613.1730, 300795.0
614.3380, 301154.0
615.5030, 299562.0
616.6680, 296939.0
617.8320, 293746.0
618.9970, 288505.0
620.1610, 283973.0
621.3250, 277090.0
622.4890, 270576.0
623.6530, 262781.0
624.8170, 254403.0
625.9800, 246181.0
627.1440, 238024.0
628.3070, 228419.0
629.4700, 220967.0
630.6330, 212820.0
631.7950, 204390.0
632.9580, 197045.0
634.1200, 189858.0
635.2820, 182916.0
636.4440, 176439.0
637.6060, 169951.0
638.7680, 163994.0
639.9290, 158533.0
641.0900, 153117.0
642.2520, 148497.0
643.4130, 143483.0
644.5730, 139531.0
645.7340, 135081.0
646.8950, 131302.0
648.0550, 128169.0
649.2150, 124696.0
650.3750, 121412.0
651.5350, 119175.0
652.6950, 116107.0
653.8540, 113131.0
655.0140, 111645.0
656.1730, 109135.0
657.3320, 106905.0
658.4910, 104881.0
659.6490, 103333.0
660.8080, 101753.0
661.9660, 100260.0
663.1240, 98997.00
664.2820, 97654.41
665.4400, 96106.90
666.5980, 95182.00
667.7550, 93522.00
668.9130, 92133.00
670.0700, 91897.00
671.2270, 90615.00
672.3840, 89418.00
673.5400, 88816.00
674.6970, 87553.00
675.8530, 87465.00
677.0090, 86784.00
678.1650, 85938.00
679.3210, 85149.00
680.4770, 84341.57
681.6330, 83260.00
682.7880, 82706.00
683.9430, 81976.00
685.0980, 81247.00
686.2530, 81337.00
687.4080, 80463.00
688.5620, 80058.00
689.7170, 80294.00
690.8710, 78800.00
692.0250, 77973.00
693.1790, 77453.00
694.3320, 76717.00
695.4860, 76490.00
696.6390, 75727.00
697.7930, 75203.00
698.9460, 74336.00
700.0980, 74126.00
701.2510, 73545.00
702.4040, 72650.00
703.5560, 71754.00
704.7080, 71271.00
705.8600, 70986.00
707.0120, 70513.00
708.1640, 69685.00
709.3160, 69360.00
710.4670, 68834.00
711.6180, 67991.00
712.7690, 67841.00
713.9200, 66886.00
715.0710, 66707.00
716.2220, 66094.00
717.3720, 65326.00
718.5220, 65023.00
719.6720, 64414.00
720.8220, 63956.00
721.9720, 63629.00
723.1220, 63216.00
724.2710, 62694.00
725.4200, 62381.00
726.5690, 62000.00
727.7180, 61371.00
728.8670, 60717.00
730.0160, 60443.00
731.1640, 60132.00
732.3120, 60065.00
733.4600, 59328.00
734.6080, 58762.00
735.7560, 58876.00
736.9040, 58316.00
738.0510, 58227.00
739.1980, 58026.00
740.3460, 57561.00
741.4930, 57352.00
742.6390, 57373.00
743.7860, 57073.00
744.9320, 56964.74
746.0790, 56829.00
747.2250, 56637.00
748.3710, 56597.00
749.5170, 56456.00
750.6620, 56291.00
751.8080, 56400.00
752.9530, 55986.00
754.0980, 55629.00
755.2430, 55861.00
756.3880, 55702.00
757.5330, 55900.00
758.6770, 55888.05
759.8220, 55808.00
760.9660, 55931.00
762.1100, 55783.00
763.2540, 55847.00
764.3970, 55924.00
765.5410, 56089.00
766.6840, 56275.00
767.8270, 56322.27
768.9700, 56494.00
770.1130, 56558.00
771.2560, 56497.00
772.3980, 56708.24
773.5410, 57153.54
774.6830, 57513.45
775.8250, 57792.80
776.9670, 57750.22
778.1080, 58123.11
779.2500, 58329.64
780.3910, 58529.11
781.5330, 58960.74
782.6740, 58964.76
783.8150, 59392.48
784.9550, 59650.85
786.0960, 59981.00
787.2360, 60650.00
788.3770, 60809.75
789.5170, 60901.00
790.6570, 61405.00
791.7960, 61471.00
792.9360, 61725.00
794.0750, 61904.00
795.2150, 62079.00
796.3540, 62338.00
797.4930, 62515.00
798.6310, 62700.00
799.7700, 62776.15
800.9080, 62791.92
802.0470, 62811.00
803.1850, 62591.00
804.3230, 62494.00
805.4610, 62144.00
806.5980, 62013.00
807.7360, 61571.00
808.8730, 61368.00
810.0100, 61177.00
811.1470, 60602.00
812.2840, 60107.00
813.4200, 59792.00
814.5570, 59028.00
815.6930, 58874.00
816.8290, 58263.00
817.9650, 57952.00
819.1010, 57197.00
820.2370, 56628.00
821.3720, 56313.00
822.5080, 55359.00
823.6430, 54889.00
824.7780, 54268.00
825.9130, 53472.00
827.0480, 52827.00
828.1820, 52277.00
829.3160, 51684.00
830.4510, 51231.00
831.5850, 50347.00
832.7190, 49857.53
833.8520, 49577.00
834.9860, 48728.00
836.1190, 47841.00
837.2520, 47433.00
838.3860, 46590.00
839.5180, 46353.00
840.6510, 45733.00
841.7840, 45192.00
842.9160, 44752.00
844.0480, 43932.00
845.1810, 43499.00
846.3120, 43222.00
847.4440, 42541.00
848.5760, 42145.00
849.7070, 41754.00
850.8390, 41297.00
851.9700, 40618.00
853.1010, 40546.00
854.2310, 40068.00
855.3620, 39560.00
856.4930, 39420.00
857.6230, 38993.00
858.7530, 38714.00
859.8830, 38378.00
861.0130, 38080.12
862.1430, 37913.00
863.2720, 37476.00
864.4010, 37237.00
865.5310, 36809.00
866.6600, 36826.00
867.7880, 36484.03
868.9170, 36255.00
870.0460, 36006.00
871.1740, 35779.00
872.3020, 35499.00
873.4300, 35257.00
874.5580, 35352.00
875.6860, 34829.00
876.8130, 34928.00
877.9410, 34554.00
879.0680, 34335.00
880.1950, 34123.00
881.3220, 34162.00
882.4490, 33922.00
883.5750, 33719.00
884.7020, 33926.93
885.8280, 33613.41
886.9540, 33605.48
888.0800, 33222.00
889.2060, 33371.00
890.3320, 33062.00
891.4570, 32815.00
892.5820, 32951.00
893.7070, 32953.00
894.8320, 32455.00
895.9570, 32622.00
897.0820, 32566.00
898.2060, 32438.00
899.3310, 32283.00
900.4550, 32093.00
901.5790, 32238.00
902.7030, 31896.00
903.8260, 32156.00
904.9500, 32063.00
906.0730, 31887.00
907.1960, 32221.00
908.3200, 31878.00
909.4420, 31963.00
910.5650, 31737.00
911.6880, 31717.00
912.8100, 31668.00
913.9320, 31505.00
915.0540, 31515.85
916.1760, 31504.00
917.2980, 31432.00
918.4200, 31320.00
919.5410, 31235.00
920.6620, 31145.00
921.7830, 31042.00
922.9040, 31233.00
924.0250, 30860.00
925.1460, 31050.00
926.2660, 30823.00
927.3870, 31029.00
928.5070, 30796.00
929.6270, 30685.00
930.7470, 30818.00
931.8660, 30715.00
932.9860, 30712.00
934.1050, 30566.00
935.2240, 30606.00
936.3430, 30514.00
937.4620, 30430.00
938.5810, 30579.00
939.6990, 30448.00
940.8180, 30407.00
941.9360, 30369.87
943.0540, 30276.50
944.1720, 30215.00
945.2900, 30152.00
946.4070, 30110.00
947.5250, 30077.00
948.6420, 30313.00
949.7590, 30187.00
950.8760, 30229.00
951.9930, 30189.38
953.1090, 30077.00
954.2260, 30010.00
955.3420, 29893.00
956.4580, 29790.00
957.5740, 29847.00
958.6900, 29887.00
959.8060, 29882.00
960.9210, 29820.00
962.0360, 29768.00
963.1520, 29874.00
964.2670, 29747.00
965.3810, 29633.00
966.4960, 29728.00
967.6110, 29706.00
968.7250, 29618.00
969.8390, 29576.00
970.9530, 29570.00
972.0670, 29509.11
973.1810, 29400.00
974.2940, 29429.00
975.4080, 29588.00
976.5210, 29541.00
977.6340, 29438.00
978.7470, 29293.00
979.8600, 29227.00
980.9730, 29196.00
982.0850, 29169.00
983.1970, 29325.00
984.3090, 29128.00
985.4210, 28881.00
986.5330, 29274.00
987.6450, 29040.00
988.7560, 29083.00
989.8680, 28846.00
990.9790, 29123.00
992.0900, 28952.00
993.2010, 28899.00
994.3110, 28828.00
995.4220, 29040.00
996.5320, 28871.00
997.6430, 28861.19
998.7530, 28711.00
999.8630, 28679.00
1000.972, 28846.00
1002.082, 28748.00
1003.191, 28771.00
1004.301, 28751.00
1005.410, 28643.00
1006.519, 28619.00
1007.627, 28698.00
1008.736, 28789.00
1009.844, 28539.00
1010.953, 28461.00
1012.061, 28616.00
1013.169, 28724.00
1014.277, 28592.00
1015.384, 28508.00
1016.492, 28999.00
1017.599, 29193.00
1018.706, 28707.00
1019.813, 28434.00
1020.920, 28465.00
1022.027, 28358.00
1023.134, 28292.00
1024.240, 28249.44
1025.346, 28274.00
1026.452, 28208.00
1027.558, 28310.00
1028.664, 28494.00
1029.770, 28318.00
1030.875, 28304.00
1031.980, 28335.00
1033.086, 28137.00
1034.190, 28072.00
1035.295, 28265.00
1036.400, 28458.00
1037.504, 28284.00
1038.609, 28303.00
1039.713, 28147.00
1040.817, 28064.00
1041.921, 28171.00
1043.025, 28301.00
1044.128, 27950.00
1045.231, 28195.00
1046.335, 28040.00
1047.438, 27977.00
1048.541, 28063.00
1049.643, 27957.00
1050.746, 27803.00
1051.848, 28187.00
1052.951, 28159.00
1054.053, 28108.28
1055.155, 27745.00
1056.257, 27995.00
1057.358, 27969.00
1058.460, 28012.00
1059.561, 28162.00
1060.662, 28074.41
1061.763, 28105.65
1062.864, 27967.00
1063.965, 28008.00
1065.065, 27909.00
1066.166, 27800.00
1067.266, 27874.00
1068.366, 27653.00
1069.466, 27871.00
1070.566, 27954.00
1071.665, 28027.00
1072.765, 27848.00
1073.864, 27745.00
1074.963, 27714.00
1076.062, 27628.76
1077.161, 27669.00
1078.259, 27571.00
1079.358, 27656.00
1080.456, 27646.00
1081.554, 27707.00
1082.652, 27673.00
1083.750, 27797.00
1084.848, 27847.00
1085.945, 27631.00
1087.043, 27624.00
1088.140, 27841.00
1089.237, 27585.52
1090.334, 27910.00
1091.431, 27323.00
1092.527, 27366.00
1093.624, 27263.00
1094.720, 27379.00
1095.816, 27449.00
1096.912, 27591.00
1098.008, 27520.04
1099.104, 27467.00
1100.199, 27379.00
1101.294, 27334.00
1102.390, 27296.00
1103.485, 27135.00
1104.579, 27142.55
1105.674, 27390.00
1106.769, 27015.00
1107.863, 27294.00
1108.957, 27111.00
1110.051, 27213.00
1111.145, 27071.00
1112.239, 27262.00
1113.333, 27146.00
1114.426, 27231.00
1115.519, 26997.00
1116.612, 27101.00
1117.705, 27014.00
1118.798, 26953.00
1119.891, 27135.00
1120.983, 27099.00
1122.076, 26898.00
1123.168, 26950.00
1124.260, 26998.00
1125.352, 26920.00
1126.443, 26874.00
1127.535, 27067.00
1128.626, 26991.00
1129.718, 26943.00
1130.809, 26877.00
1131.900, 26902.00
1132.990, 26819.44
1134.081, 26823.27
1135.171, 26732.00
1136.262, 26805.00
1137.352, 26829.00
1138.442, 26819.00
1139.532, 26746.00
1140.621, 26768.00
1141.711, 26753.26
1142.800, 26921.00
1143.890, 26799.00
1144.979, 26853.37
1146.067, 26949.04
1147.156, 26825.00
1148.245, 27008.00
1149.333, 26910.00
1150.421, 26786.00
1151.510, 26805.00
1152.597, 26585.00
1153.685, 26681.00
1154.773, 26695.00
1155.860, 26569.00
1156.948, 26662.00
1158.035, 26919.00
1159.122, 26755.84
1160.209, 26915.00
1161.295, 26674.00
1162.382, 26709.00
1163.468, 26766.00
1164.555, 26712.00
1165.641, 26480.00
1166.727, 26583.00
1167.812, 26586.00
1168.898, 26750.00
1169.983, 26508.00
1171.069, 26830.00
1172.154, 26449.00
1173.239, 26675.00
1174.324, 26674.00
1175.408, 26562.14
1176.493, 26879.00
1177.577, 26535.00
1178.661, 26491.00
1179.745, 26574.00
1180.829, 26640.00
1181.913, 26697.89
1182.997, 26663.00
1184.080, 26762.00
1185.163, 26763.00
1186.246, 26536.00
1187.329, 26559.00
1188.412, 26524.00
1189.495, 26536.00
1190.577, 26541.19
1191.660, 26808.00
1192.742, 26622.00
1193.824, 26634.00
1194.906, 26812.00
1195.987, 26626.00
1197.069, 26602.00
1198.150, 26777.00
1199.232, 26593.00
1200.313, 26570.00
1201.394, 26699.00
1202.474, 26735.00
1203.555, 26421.00
1204.635, 26629.00
1205.716, 26590.00
1206.796, 26462.00
1207.876, 26605.00
1208.956, 26510.00
1210.035, 26608.00
1211.115, 26539.00
1212.194, 26577.00
1213.274, 26732.00
1214.353, 26381.00
1215.432, 26690.00
1216.510, 26666.00
1217.589, 26447.00
1218.667, 26446.00
1219.746, 26352.00
1220.824, 26552.00
1221.902, 26613.00
1222.980, 26623.00
1224.057, 26539.00
1225.135, 26689.00
1226.212, 26474.00
1227.289, 26667.00
1228.366, 26835.00
1229.443, 26648.00
1230.520, 26552.00
1231.597, 26764.00
1232.673, 26745.00
1233.749, 26558.00
1234.825, 26473.00
1235.901, 26588.00
1236.977, 26529.38
1238.053, 26517.49
1239.128, 26581.00
1240.204, 26593.00
1241.279, 26500.00
1242.354, 26548.70
1243.429, 26506.84
1244.503, 26571.00
1245.578, 26505.00
1246.652, 26570.00
1247.727, 26649.00
1248.801, 26616.00
