##NAMES=Scholzite
##RRUFFID=R050238
##IDEAL CHEMISTRY=CaZn^2+^_2_(PO_4_)_2_&#183;2H_2_O
##LOCALITY=near Blinman, South Australia, Australia
##OWNER=RRUFF
##SOURCE=Marcus Origlieri
##DESCRIPTION=Colorless bladed crystals
##STATUS=The identification of this mineral has been confirmed by X-ray diffraction and chemical analysis
##URL=rruff.info/R050238
##MEASURED CHEMISTRY=Ca_1.00_Zn_2.00_(P_1.00_O_4_)_2_Â·2H_2_O
##PIN_ID=M00184
##ORIENTATION=Laser parallel to -a* (-1 0 0). Fiducial mark perpendicular to laser is parallel to -b [0 -1 0]
135.3560, 20761.00
136.5850, 20628.00
137.8140, 20801.00
139.0430, 20802.00
140.2710, 20804.00
141.5000, 20917.00
142.7280, 20910.00
143.9560, 20980.78
145.1840, 21119.00
146.4120, 21073.00
147.6390, 21143.00
148.8670, 21139.00
150.0940, 21197.00
151.3210, 21878.00
152.5490, 21576.00
153.7750, 21971.00
155.0020, 21760.00
156.2290, 21748.00
157.4550, 21883.00
158.6810, 22122.00
159.9080, 22069.00
161.1340, 22246.00
162.3590, 22551.00
163.5850, 22815.00
164.8110, 22882.00
166.0360, 22865.00
167.2610, 22740.00
168.4860, 22792.00
169.7110, 22338.00
170.9360, 22218.00
172.1610, 22093.00
173.3850, 21859.00
174.6100, 21983.00
175.8340, 21725.00
177.0580, 21845.00
178.2820, 21782.00
179.5050, 21805.00
180.7290, 21889.00
181.9520, 21586.00
183.1760, 21859.00
184.3990, 21927.00
185.6220, 21733.00
186.8450, 22151.00
188.0670, 21768.00
189.2900, 21849.00
190.5120, 21934.00
191.7340, 21941.00
192.9560, 21969.00
194.1780, 22056.00
195.4000, 21882.00
196.6220, 22081.28
197.8430, 22300.00
199.0640, 22249.00
200.2860, 22527.00
201.5070, 22397.00
202.7270, 22515.00
203.9480, 22390.00
205.1690, 22240.00
206.3890, 22007.00
207.6090, 22053.00
208.8290, 21896.00
210.0490, 21904.00
211.2690, 22057.00
212.4890, 22162.00
213.7080, 22253.00
214.9280, 22380.00
216.1470, 22532.00
217.3660, 22556.00
218.5850, 22705.94
219.8030, 22859.00
221.0220, 22919.00
222.2400, 23102.00
223.4590, 23197.00
224.6770, 23516.00
225.8950, 23567.00
227.1120, 23599.00
228.3300, 23841.00
229.5480, 23757.00
230.7650, 23868.00
231.9820, 24026.00
233.1990, 24020.00
234.4160, 24515.00
235.6330, 24550.00
236.8490, 24811.00
238.0660, 24834.00
239.2820, 25131.00
240.4980, 24688.00
241.7140, 24754.00
242.9300, 24381.00
244.1460, 24233.00
245.3610, 24104.00
246.5770, 23987.00
247.7920, 23881.41
249.0070, 23847.00
250.2220, 23724.00
251.4370, 23732.00
252.6510, 23718.00
253.8660, 23621.00
255.0800, 23863.00
256.2940, 23669.00
257.5080, 24018.00
258.7220, 24340.00
259.9360, 24289.00
261.1490, 24057.00
262.3630, 23813.00
263.5760, 23957.00
264.7890, 24242.00
266.0020, 24299.00
267.2150, 24297.00
268.4270, 24819.00
269.6400, 24510.00
270.8520, 24997.00
272.0640, 24987.95
273.2760, 24959.00
274.4880, 25120.00
275.7000, 25111.00
276.9120, 25256.00
278.1230, 25278.53
279.3340, 25002.00
280.5450, 25323.00
281.7560, 25297.00
282.9670, 25295.00
284.1780, 25465.00
285.3880, 25394.00
286.5980, 25486.00
287.8090, 25617.00
289.0190, 25611.00
290.2290, 25588.43
291.4380, 25441.00
292.6480, 25382.00
293.8570, 25266.00
295.0670, 25059.00
296.2760, 24959.00
297.4850, 25023.00
298.6930, 24790.00
299.9020, 24992.00
301.1110, 24856.00
302.3190, 24873.00
303.5270, 24873.00
304.7350, 24901.00
305.9430, 24875.00
307.1510, 25045.00
308.3580, 24903.00
309.5660, 25136.00
310.7730, 25167.00
311.9800, 24863.00
313.1870, 25024.00
314.3940, 25075.00
315.6010, 25184.00
316.8070, 24887.00
318.0130, 24891.00
319.2200, 24859.00
320.4260, 24925.00
321.6310, 24821.00
322.8370, 25014.00
324.0430, 24813.00
325.2480, 24628.00
326.4540, 24835.00
327.6590, 24749.00
328.8640, 24720.00
330.0680, 24738.00
331.2730, 24704.00
332.4780, 24745.00
333.6820, 24697.00
334.8860, 24665.00
336.0900, 24673.00
337.2940, 24500.00
338.4980, 24798.00
339.7010, 24698.00
340.9050, 24549.00
342.1080, 24735.00
343.3110, 24629.00
344.5140, 24671.00
345.7170, 24709.00
346.9200, 24669.00
348.1220, 24671.00
349.3240, 24777.00
350.5270, 24555.00
351.7290, 24771.00
352.9310, 24646.00
354.1320, 24642.00
355.3340, 24660.00
356.5350, 24479.00
357.7370, 24780.00
358.9380, 24700.00
360.1390, 24494.00
361.3400, 24798.00
362.5400, 24761.00
363.7410, 24573.00
364.9410, 24962.00
366.1410, 24894.00
367.3410, 24820.00
368.5410, 24753.00
369.7410, 24740.00
370.9400, 24816.00
372.1400, 24703.00
373.3390, 24830.00
374.5380, 24915.00
375.7370, 24857.00
376.9360, 24775.00
378.1350, 24931.00
379.3330, 24965.00
380.5310, 25120.00
381.7300, 25124.00
382.9280, 25125.00
384.1260, 25248.00
385.3230, 25351.00
386.5210, 25228.00
387.7180, 25254.00
388.9160, 25232.00
390.1130, 25325.00
391.3100, 25567.00
392.5060, 25350.00
393.7030, 25627.00
394.9000, 25754.00
396.0960, 25555.00
397.2920, 25785.00
398.4880, 26078.00
399.6840, 25922.00
400.8800, 26322.00
402.0750, 26437.00
403.2710, 26538.00
404.4660, 26877.00
405.6610, 26980.00
406.8560, 27579.00
408.0510, 27715.00
409.2450, 28027.00
410.4400, 28106.00
411.6340, 28122.00
412.8280, 28117.00
414.0220, 27829.00
415.2160, 27513.00
416.4100, 27146.00
417.6030, 27053.00
418.7970, 26741.00
419.9900, 26867.00
421.1830, 26393.00
422.3760, 26304.00
423.5690, 26295.00
424.7610, 26065.00
425.9540, 26245.00
427.1460, 26176.00
428.3380, 25925.00
429.5300, 26094.00
430.7220, 26215.00
431.9140, 25761.00
433.1050, 26139.00
434.2970, 25888.00
435.4880, 25766.00
436.6790, 26012.00
437.8700, 25784.00
439.0610, 25938.00
440.2510, 25945.00
441.4420, 25729.00
442.6320, 25822.00
443.8220, 25799.23
445.0120, 26018.00
446.2020, 25962.00
447.3910, 26071.00
448.5810, 26328.00
449.7700, 26051.00
450.9600, 25925.00
452.1490, 26201.00
453.3370, 25995.00
454.5260, 26283.00
455.7150, 26205.00
456.9030, 26387.00
458.0910, 26172.00
459.2800, 26531.00
460.4670, 26110.00
461.6550, 26337.00
462.8430, 26267.00
464.0300, 26361.00
465.2180, 26479.00
466.4050, 26366.00
467.5920, 26261.00
468.7790, 26637.00
469.9650, 26460.00
471.1520, 26507.00
472.3380, 26739.00
473.5250, 26436.00
474.7110, 26639.00
475.8970, 26450.00
477.0820, 26443.00
478.2680, 26688.00
479.4540, 26479.00
480.6390, 26649.00
481.8240, 26958.00
483.0090, 26485.00
484.1940, 26728.00
485.3780, 26788.00
486.5630, 26716.00
487.7470, 26706.00
488.9320, 27201.00
490.1160, 26594.00
491.3000, 27053.00
492.4830, 26850.00
493.6670, 26887.00
494.8500, 26946.00
496.0340, 27143.00
497.2170, 26848.00
498.4000, 27186.00
499.5820, 26867.00
500.7650, 27137.00
501.9480, 27119.00
503.1300, 26910.00
504.3120, 27379.00
505.4940, 27170.00
506.6760, 27047.00
507.8580, 27377.00
509.0390, 27396.00
510.2210, 27187.00
511.4020, 27443.00
512.5830, 27263.00
513.7640, 27629.00
514.9450, 27837.00
516.1250, 27491.00
517.3060, 27431.00
518.4860, 27521.00
519.6660, 27472.00
520.8460, 27607.00
522.0260, 27567.00
523.2060, 27589.00
524.3850, 27772.00
525.5650, 27884.00
526.7440, 27822.00
527.9230, 27981.00
529.1020, 27792.00
530.2810, 28154.00
531.4590, 27998.00
532.6380, 27797.00
533.8160, 28158.00
534.9940, 27956.00
536.1720, 28144.00
537.3500, 28225.00
538.5270, 28368.00
539.7050, 28565.00
540.8820, 28798.00
542.0590, 28825.00
543.2360, 29617.00
544.4130, 29525.00
545.5900, 30191.00
546.7660, 30593.00
547.9430, 31081.00
549.1190, 31642.00
550.2950, 32762.00
551.4710, 33308.00
552.6470, 34028.00
553.8220, 34074.00
554.9980, 33375.00
556.1730, 32728.00
557.3480, 31464.00
558.5230, 30962.00
559.6980, 30196.00
560.8730, 29771.00
562.0470, 29532.00
563.2220, 29200.00
564.3960, 29115.00
565.5700, 28859.00
566.7440, 29075.00
567.9170, 28834.00
569.0910, 28721.00
570.2640, 28933.00
571.4380, 28713.00
572.6110, 28948.00
573.7840, 28661.00
574.9570, 28814.00
576.1290, 28830.00
577.3020, 28824.00
578.4740, 28649.00
579.6460, 28960.00
580.8180, 28873.00
581.9900, 28849.00
583.1620, 29112.00
584.3330, 28806.00
585.5040, 29164.00
586.6760, 28884.00
587.8470, 29298.00
589.0180, 29205.00
590.1880, 29421.00
591.3590, 29454.00
592.5290, 29305.00
593.7000, 29359.00
594.8700, 29468.00
596.0400, 29550.00
597.2090, 29318.00
598.3790, 29891.00
599.5490, 29620.00
600.7180, 29668.00
601.8870, 29371.00
603.0560, 29834.00
604.2250, 29707.00
605.3940, 29631.00
606.5620, 29781.00
607.7300, 29544.00
608.8990, 29876.00
610.0670, 29500.00
611.2350, 29737.00
612.4020, 29744.00
613.5700, 29672.00
614.7370, 29757.00
615.9050, 29709.00
617.0720, 29773.00
618.2390, 29793.00
619.4060, 29848.00
620.5720, 29838.66
621.7390, 29795.00
622.9050, 29853.00
624.0710, 29861.00
625.2370, 29964.00
626.4030, 29933.00
627.5690, 29970.00
628.7340, 30171.00
629.9000, 29856.00
631.0650, 29936.00
632.2300, 30115.00
633.3950, 29899.00
634.5600, 30010.00
635.7240, 30250.00
636.8890, 29595.00
638.0530, 30084.00
639.2170, 29895.00
640.3810, 29950.00
641.5450, 29963.00
642.7080, 30221.00
643.8720, 30128.00
645.0350, 30072.00
646.1980, 30124.00
647.3610, 30089.00
648.5240, 30217.00
649.6870, 30261.00
650.8490, 30334.00
652.0120, 30281.00
653.1740, 30345.00
654.3360, 30376.00
655.4980, 30283.00
656.6600, 30578.00
657.8210, 30533.00
658.9830, 30417.00
660.1440, 30383.00
661.3050, 30791.00
662.4660, 30370.00
663.6270, 30644.00
664.7870, 30743.00
665.9480, 30565.00
667.1080, 30672.00
668.2680, 30598.00
669.4280, 30561.00
670.5880, 30384.00
671.7480, 30489.00
672.9070, 30262.00
674.0670, 30769.00
675.2260, 30379.00
676.3850, 30445.00
677.5440, 30633.00
678.7030, 30387.00
679.8610, 30725.00
681.0200, 30573.00
682.1780, 30455.00
683.3360, 30607.00
684.4940, 30768.00
685.6520, 30691.00
686.8090, 30844.00
687.9670, 30649.00
689.1240, 30642.04
690.2810, 30854.00
691.4380, 30624.00
692.5950, 30675.00
693.7520, 30978.00
694.9080, 30932.00
696.0650, 30952.00
697.2210, 30965.00
698.3770, 30842.00
699.5330, 30803.00
700.6880, 31208.00
701.8440, 31017.00
702.9990, 31231.00
704.1550, 31146.00
705.3100, 31024.00
706.4650, 31361.00
707.6190, 31083.00
708.7740, 31293.00
709.9290, 31303.00
711.0830, 31202.00
712.2370, 30975.00
713.3910, 31350.00
714.5450, 31185.00
715.6980, 31204.00
716.8520, 31386.00
718.0050, 31181.00
719.1580, 31564.00
720.3110, 31485.00
721.4640, 31490.00
722.6170, 31621.00
723.7700, 31410.00
724.9220, 31443.00
726.0740, 31601.00
727.2260, 31669.00
728.3780, 31622.00
729.5300, 31745.00
730.6810, 31418.00
731.8330, 31831.00
732.9840, 31689.00
734.1350, 31731.00
735.2860, 32017.00
736.4370, 31873.00
737.5880, 31753.00
738.7380, 31826.00
739.8880, 31999.00
741.0390, 31778.00
742.1890, 32039.00
743.3380, 32116.00
744.4880, 31787.00
745.6380, 32233.00
746.7870, 31726.00
747.9360, 32095.00
749.0850, 32076.00
750.2340, 31964.00
751.3830, 32028.00
752.5310, 32262.00
753.6800, 32057.00
754.8280, 32181.00
755.9760, 32399.00
757.1240, 32220.00
758.2720, 32393.00
759.4190, 32284.00
760.5670, 32520.00
761.7140, 32386.00
762.8610, 32291.00
764.0080, 32234.00
765.1550, 32266.00
766.3020, 32269.18
767.4480, 32339.00
768.5950, 32510.00
769.7410, 32501.00
770.8870, 32571.97
772.0330, 32871.00
773.1780, 32558.00
774.3240, 32736.00
775.4690, 32603.00
776.6140, 32541.00
777.7590, 32669.00
778.9040, 32950.00
780.0490, 32652.00
781.1940, 32849.00
782.3380, 33011.00
783.4820, 32722.00
784.6260, 32985.00
785.7700, 32800.00
786.9140, 33066.00
788.0580, 33106.00
789.2010, 32835.00
790.3450, 33142.00
791.4880, 33191.00
792.6310, 32932.00
793.7730, 33016.00
794.9160, 33256.00
796.0590, 33108.00
797.2010, 32984.00
798.3430, 33359.00
799.4850, 33019.00
800.6270, 33187.00
801.7690, 33145.00
802.9100, 33413.00
804.0520, 33320.00
805.1930, 33407.00
806.3340, 33417.00
807.4750, 33827.00
808.6160, 33597.00
809.7560, 33343.00
810.8970, 33708.00
812.0370, 33666.00
813.1770, 33593.00
814.3170, 33854.00
815.4570, 33910.00
816.5960, 33955.00
817.7360, 34013.86
818.8750, 33972.00
820.0140, 33861.00
821.1530, 34030.00
822.2920, 33698.00
823.4310, 33796.00
824.5690, 33998.00
825.7070, 33903.00
826.8460, 34187.00
827.9840, 33936.00
829.1220, 33944.00
830.2590, 33995.00
831.3970, 33715.00
832.5340, 34148.00
833.6710, 34320.00
834.8080, 34113.00
835.9450, 34025.00
837.0820, 34427.00
838.2190, 33987.00
839.3550, 34338.00
840.4910, 34617.00
841.6270, 34124.00
842.7630, 34542.00
843.8990, 34482.00
845.0350, 34333.00
846.1700, 34488.00
847.3060, 34479.00
848.4410, 34595.00
849.5760, 34568.00
850.7100, 34630.23
851.8450, 34599.00
852.9800, 34744.00
854.1140, 34631.00
855.2480, 34729.00
856.3820, 34906.00
857.5160, 34924.00
858.6500, 35026.00
859.7830, 34875.00
860.9170, 35208.00
862.0500, 35064.00
863.1830, 35490.00
864.3160, 35063.00
865.4480, 34904.00
866.5810, 35100.00
867.7130, 35204.00
868.8460, 35315.00
869.9780, 35478.00
871.1100, 35088.00
872.2410, 35511.00
873.3730, 35143.00
874.5050, 35464.00
875.6360, 35163.00
876.7670, 35669.00
877.8980, 35309.00
879.0290, 35430.00
880.1590, 35496.00
881.2900, 35324.00
882.4200, 35570.00
883.5500, 35474.00
884.6800, 35386.00
885.8100, 35483.00
886.9400, 35714.00
888.0690, 35699.00
889.1990, 35759.00
890.3280, 35878.00
891.4570, 35739.00
892.5860, 36022.00
893.7140, 35588.00
894.8430, 36153.00
895.9710, 36011.00
897.1000, 35921.00
898.2280, 36136.00
899.3560, 35990.00
900.4830, 36263.00
901.6110, 36028.00
902.7380, 36395.00
903.8660, 35950.00
904.9930, 36060.00
906.1200, 36343.00
907.2460, 36345.00
908.3730, 36711.00
909.5000, 36420.00
910.6260, 36773.00
911.7520, 37036.00
912.8780, 36801.00
914.0040, 36707.00
915.1290, 36893.00
916.2550, 37311.00
917.3800, 37412.00
918.5050, 37948.00
919.6300, 38168.00
920.7550, 38344.00
921.8800, 38571.00
923.0040, 38745.61
924.1290, 38888.00
925.2530, 38925.00
926.3770, 39226.00
927.5010, 38945.00
928.6250, 38873.00
929.7480, 38795.00
930.8720, 38290.00
931.9950, 38217.00
933.1180, 37981.00
934.2410, 38032.00
935.3640, 38127.00
936.4860, 38055.00
937.6090, 38066.06
938.7310, 37939.54
939.8530, 37980.00
940.9750, 37725.00
942.0970, 37680.00
943.2180, 37801.00
944.3400, 37875.00
945.4610, 37894.00
946.5820, 37632.00
947.7030, 37973.00
948.8240, 37702.00
949.9450, 37894.00
951.0650, 37935.00
952.1860, 37974.00
953.3060, 38032.74
954.4260, 38108.00
955.5460, 38167.00
956.6650, 38176.00
957.7850, 38488.00
958.9040, 38463.57
960.0230, 38590.34
961.1420, 38557.00
962.2610, 38652.00
963.3800, 38615.00
964.4990, 38426.00
965.6170, 38581.00
966.7350, 38753.00
967.8530, 38427.00
968.9710, 38964.00
970.0890, 38809.00
971.2070, 39060.00
972.3240, 39172.00
973.4410, 39307.00
974.5580, 39547.00
975.6750, 39551.74
976.7920, 39709.00
977.9090, 39710.00
979.0250, 39899.00
980.1410, 40181.00
981.2580, 40476.00
982.3740, 40789.00
983.4890, 41325.00
984.6050, 41974.00
985.7200, 42050.00
986.8360, 43233.00
987.9510, 43473.00
989.0660, 44491.00
990.1810, 45689.00
991.2950, 46484.00
992.4100, 48001.00
993.5240, 49022.00
994.6390, 50442.00
995.7530, 51773.00
996.8660, 53637.00
997.9800, 54868.00
999.0940, 55994.00
1000.207, 57333.00
1001.320, 57848.00
1002.433, 57583.00
1003.546, 56761.00
1004.659, 55284.00
1005.772, 53003.00
1006.884, 51054.00
1007.996, 49237.00
1009.108, 47203.00
1010.220, 45615.00
1011.332, 44672.00
1012.444, 43774.00
1013.555, 42955.00
1014.666, 42498.00
1015.777, 42457.00
1016.888, 41644.00
1017.999, 41570.00
1019.110, 41816.00
1020.220, 41417.00
1021.331, 41592.00
1022.441, 41545.00
1023.551, 41711.00
1024.661, 41570.00
1025.770, 41481.00
1026.880, 41346.00
1027.989, 40948.00
1029.098, 41387.00
1030.207, 40835.00
1031.316, 40886.00
1032.425, 40920.00
1033.533, 40600.00
1034.642, 41086.00
1035.750, 40951.00
1036.858, 41116.00
1037.966, 40972.00
1039.073, 40866.00
1040.181, 41114.00
1041.288, 40762.00
1042.396, 41238.00
1043.503, 40899.00
1044.610, 41279.00
1045.716, 41411.00
1046.823, 41226.00
1047.929, 41335.00
1049.036, 41143.00
1050.142, 41752.00
1051.248, 41256.00
1052.353, 41669.00
1053.459, 41521.00
1054.564, 41662.00
1055.670, 42102.00
1056.775, 41323.00
1057.880, 41875.00
1058.985, 42046.00
1060.089, 41818.00
1061.194, 42063.00
1062.298, 42168.00
1063.402, 42036.00
1064.506, 41773.00
1065.610, 42213.00
1066.713, 42299.00
1067.817, 42205.00
1068.920, 42483.00
1070.023, 42249.00
1071.126, 42515.00
1072.229, 42501.00
1073.332, 42477.00
1074.435, 42885.00
1075.537, 42844.00
1076.639, 42905.00
1077.741, 42676.00
1078.843, 43080.00
1079.945, 42903.00
1081.046, 43363.00
1082.148, 43501.00
1083.249, 43176.00
1084.350, 43769.00
1085.451, 43233.00
1086.551, 43626.00
1087.652, 44004.00
1088.752, 43924.00
1089.853, 43823.00
1090.953, 43809.00
1092.053, 44088.00
1093.152, 43757.00
1094.252, 44057.00
1095.351, 43754.00
1096.451, 43785.68
1097.550, 43834.89
1098.649, 43668.00
1099.748, 43787.00
1100.846, 43552.00
1101.945, 43333.00
1103.043, 43559.00
1104.141, 43540.00
1105.239, 43759.00
1106.337, 43492.00
1107.434, 43642.00
1108.532, 43565.00
1109.629, 43823.00
1110.726, 43886.00
1111.823, 44094.00
1112.920, 43850.00
1114.017, 43915.00
1115.113, 44176.00
1116.210, 44455.00
1117.306, 44189.00
1118.402, 44271.00
1119.498, 44162.00
1120.593, 44606.00
1121.689, 44510.00
1122.784, 44256.00
1123.879, 44373.00
1124.974, 44039.00
1126.069, 44326.00
1127.164, 44107.00
1128.259, 44123.00
1129.353, 44078.00
1130.447, 44009.00
1131.541, 44115.00
1132.635, 43745.00
1133.729, 44067.00
1134.822, 44092.00
1135.916, 44391.00
1137.009, 44117.00
1138.102, 44043.00
1139.195, 44199.00
1140.288, 44151.56
1141.380, 44258.00
1142.473, 44422.00
1143.565, 44542.00
1144.657, 44796.00
1145.749, 44471.00
1146.841, 44682.00
1147.932, 44756.00
1149.024, 44519.00
1150.115, 44726.00
1151.206, 44908.00
1152.297, 44807.06
1153.388, 45030.00
1154.479, 44831.00
1155.569, 45184.00
1156.659, 45282.00
1157.750, 45027.00
1158.839, 45085.00
1159.929, 45257.00
1161.019, 45358.00
1162.108, 45265.00
1163.198, 45410.38
1164.287, 45469.83
1165.376, 45436.00
1166.465, 45803.00
1167.553, 45659.00
1168.642, 46080.00
1169.730, 45997.00
1170.818, 45991.00
1171.906, 46183.00
1172.994, 46247.00
1174.082, 46286.00
1175.170, 45998.00
1176.257, 46337.00
1177.344, 45820.00
1178.431, 46013.00
1179.518, 45935.00
1180.605, 45475.00
1181.691, 46320.00
1182.778, 45949.00
1183.864, 46214.00
1184.950, 46262.00
1186.036, 46100.00
1187.122, 45946.00
1188.207, 46068.00
1189.292, 46408.00
1190.378, 45844.00
1191.463, 46163.00
1192.548, 46364.00
1193.632, 46160.00
1194.717, 46641.00
1195.801, 46593.00
1196.886, 46456.00
1197.970, 46189.00
1199.054, 46430.00
1200.137, 46318.00
1201.221, 46512.00
1202.305, 46637.00
1203.388, 46417.00
1204.471, 46681.00
1205.554, 47041.00
1206.637, 46797.00
1207.719, 46892.00
1208.802, 46832.00
1209.884, 46850.00
1210.966, 46806.00
1212.048, 46885.00
1213.130, 47083.00
1214.212, 47054.35
1215.293, 47370.00
1216.374, 47132.00
1217.456, 47283.00
1218.536, 47314.00
1219.617, 47164.00
1220.698, 47439.00
1221.778, 47124.00
1222.859, 47571.00
1223.939, 47724.00
1225.019, 47667.00
1226.099, 47429.00
1227.178, 47451.00
1228.258, 47903.00
1229.337, 47592.00
1230.417, 47684.00
1231.496, 48221.00
1232.574, 47336.00
1233.653, 48013.00
1234.732, 47886.00
1235.810, 48205.00
1236.888, 47996.00
1237.966, 48050.00
1239.044, 48070.00
1240.122, 48487.00
1241.199, 48163.00
1242.277, 48509.00
1243.354, 48407.00
1244.431, 48737.00
1245.508, 48380.00
1246.585, 48553.00
1247.661, 48365.00
1248.738, 48521.00
1249.814, 48815.00
1250.890, 48764.00
1251.966, 48796.00
1253.042, 48785.00
1254.117, 49236.00
1255.193, 49118.00
1256.268, 49683.00
1257.343, 49504.60
1258.418, 48995.00
1259.493, 49202.00
1260.567, 49242.00
1261.642, 48983.00
1262.716, 49293.00
1263.790, 49379.00
1264.864, 49434.00
1265.938, 49533.00
1267.011, 49475.00
1268.085, 49515.00
1269.158, 49689.00
1270.231, 49777.00
1271.304, 49701.00
1272.377, 49694.00
1273.450, 49908.00
1274.522, 49664.00
1275.594, 50220.00
1276.666, 49744.00
1277.738, 50091.00
1278.810, 50142.00
1279.882, 49938.00
1280.953, 50442.00
1282.025, 50090.00
1283.096, 50035.00
1284.167, 50698.00
1285.238, 50011.00
1286.308, 50764.00
1287.379, 50272.00
1288.449, 50450.00
1289.519, 50645.00
1290.589, 50237.00
1291.659, 50329.00
1292.729, 50654.00
1293.798, 50531.00
1294.868, 50606.00
1295.937, 50606.00
1297.006, 50774.00
1298.075, 50491.00
1299.143, 51015.00
1300.212, 50883.00
1301.280, 51242.00
1302.348, 51170.00
1303.416, 51258.00
1304.484, 51181.00
1305.552, 51234.00
1306.620, 51272.00
1307.687, 51379.00
1308.754, 51050.00
1309.821, 51615.00
1310.888, 51152.00
