##NAMES=Scholzite
##RRUFFID=R050238
##IDEAL CHEMISTRY=CaZn^2+^_2_(PO_4_)_2_&#183;2H_2_O
##LOCALITY=near Blinman, South Australia, Australia
##OWNER=RRUFF
##SOURCE=Marcus Origlieri
##DESCRIPTION=Colorless bladed crystals
##STATUS=The identification of this mineral has been confirmed by X-ray diffraction and chemical analysis
##URL=rruff.info/R050238
##MEASURED CHEMISTRY=Ca_1.00_Zn_2.00_(P_1.00_O_4_)_2_Â·2H_2_O
##PIN_ID=M00305
##ORIENTATION=Laser parallel to b* (0 1 0). Fiducial mark perpendicular to laser is parallel to -b [0 -1 0]
100.8830, 10382.00
102.1160, 10744.00
103.3490, 10776.00
104.5820, 10979.00
105.8150, 10922.00
107.0470, 11009.00
108.2800, 10854.00
109.5120, 10682.00
110.7440, 10494.00
111.9760, 10419.00
113.2080, 10645.00
114.4400, 10793.00
115.6710, 11100.00
116.9030, 11447.00
118.1340, 12105.00
119.3650, 12637.00
120.5960, 13108.00
121.8270, 13096.00
123.0580, 13111.00
124.2880, 12444.00
125.5190, 12044.00
126.7490, 11413.00
127.9790, 11065.00
129.2090, 11063.00
130.4390, 10976.00
131.6680, 11262.00
132.8980, 11885.00
134.1270, 12570.00
135.3560, 13418.00
136.5850, 14260.00
137.8140, 15073.00
139.0430, 15869.00
140.2710, 16283.00
141.5000, 16409.00
142.7280, 16128.00
143.9560, 15563.00
145.1840, 14669.00
146.4120, 13584.00
147.6390, 12566.00
148.8670, 11754.00
150.0940, 11166.83
151.3210, 10664.00
152.5490, 10464.00
153.7750, 10355.00
155.0020, 10385.00
156.2290, 10661.00
157.4550, 11081.00
158.6810, 11594.00
159.9080, 12018.00
161.1340, 12356.00
162.3590, 12707.00
163.5850, 12699.00
164.8110, 12564.00
166.0360, 12215.00
167.2610, 11514.00
168.4860, 11072.00
169.7110, 10397.00
170.9360, 9794.000
172.1610, 9340.000
173.3850, 9085.000
174.6100, 8892.000
175.8340, 8621.000
177.0580, 8597.000
178.2820, 8532.000
179.5050, 8630.000
180.7290, 8693.000
181.9520, 8857.000
183.1760, 9074.000
184.3990, 9240.000
185.6220, 9469.000
186.8450, 9711.000
188.0670, 9883.000
189.2900, 9799.000
190.5120, 9919.000
191.7340, 9718.000
192.9560, 9502.000
194.1780, 9164.000
195.4000, 8918.000
196.6220, 8525.000
197.8430, 8216.000
199.0640, 7824.000
200.2860, 7581.000
201.5070, 7362.000
202.7270, 7071.000
203.9480, 7060.000
205.1690, 6753.000
206.3890, 6808.000
207.6090, 6886.000
208.8290, 7138.000
210.0490, 7603.000
211.2690, 8138.000
212.4890, 8842.000
213.7080, 9576.000
214.9280, 10502.00
216.1470, 11498.00
217.3660, 12541.00
218.5850, 13542.00
219.8030, 14110.00
221.0220, 14495.00
222.2400, 14482.00
223.4590, 14416.00
224.6770, 14637.00
225.8950, 12360.00
227.1120, 11401.00
228.3300, 10354.00
229.5480, 9620.000
230.7650, 8908.000
231.9820, 8347.000
233.1990, 7896.000
234.4160, 7549.000
235.6330, 7246.000
236.8490, 7084.000
238.0660, 6963.000
239.2820, 6876.000
240.4980, 6704.000
241.7140, 6546.000
242.9300, 6504.000
244.1460, 6402.000
245.3610, 6431.000
246.5770, 6354.000
247.7920, 6264.000
249.0070, 6378.000
250.2220, 6367.000
251.4370, 6424.812
252.6510, 6420.000
253.8660, 6558.000
255.0800, 6719.000
256.2940, 6768.000
257.5080, 7036.000
258.7220, 7439.000
259.9360, 7853.000
261.1490, 7932.000
262.3630, 8170.000
263.5760, 8633.000
264.7890, 9152.000
266.0020, 9517.000
267.2150, 9885.000
268.4270, 10268.00
269.6400, 10696.00
270.8520, 11021.00
272.0640, 11345.32
273.2760, 11623.00
274.4880, 11810.00
275.7000, 12067.00
276.9120, 12058.00
278.1230, 12358.00
279.3340, 12366.00
280.5450, 12402.00
281.7560, 12622.00
282.9670, 12946.00
284.1780, 12981.00
285.3880, 13192.00
286.5980, 13371.00
287.8090, 13465.00
289.0190, 13464.00
290.2290, 13524.00
291.4380, 13564.00
292.6480, 13556.00
293.8570, 13573.00
295.0670, 13569.00
296.2760, 13465.00
297.4850, 13386.00
298.6930, 13310.00
299.9020, 13226.00
301.1110, 13171.00
302.3190, 13073.87
303.5270, 13069.00
304.7350, 12897.00
305.9430, 12826.00
307.1510, 12749.00
308.3580, 12521.00
309.5660, 12212.00
310.7730, 11803.00
311.9800, 11575.00
313.1870, 11284.00
314.3940, 10569.00
315.6010, 10194.00
316.8070, 9766.000
318.0130, 9325.000
319.2200, 9073.000
320.4260, 8658.000
321.6310, 8409.000
322.8370, 8268.000
324.0430, 8098.000
325.2480, 7807.000
326.4540, 7796.000
327.6590, 7612.000
328.8640, 7533.000
330.0680, 7539.000
331.2730, 7524.000
332.4780, 7457.000
333.6820, 7453.000
334.8860, 7344.000
336.0900, 7412.000
337.2940, 7486.000
338.4980, 7468.000
339.7010, 7362.000
340.9050, 7331.000
342.1080, 7359.000
343.3110, 7321.000
344.5140, 7255.000
345.7170, 7213.000
346.9200, 7055.000
348.1220, 6865.000
349.3240, 6646.000
350.5270, 6578.000
351.7290, 6367.000
352.9310, 6424.000
354.1320, 6155.000
355.3340, 6042.000
356.5350, 5860.000
357.7370, 5765.000
358.9380, 5674.000
360.1390, 5663.000
361.3400, 5640.000
362.5400, 5561.000
363.7410, 5624.000
364.9410, 5593.000
366.1410, 5431.000
367.3410, 5477.000
368.5410, 5492.000
369.7410, 5484.000
370.9400, 5590.000
372.1400, 5587.000
373.3390, 5566.000
374.5380, 5524.000
375.7370, 5679.000
376.9360, 5782.000
378.1350, 5793.000
379.3330, 5920.136
380.5310, 5922.000
381.7300, 6056.000
382.9280, 6131.000
384.1260, 6152.000
385.3230, 6304.000
386.5210, 6474.000
387.7180, 6646.000
388.9160, 6891.461
390.1130, 7041.000
391.3100, 7426.000
392.5060, 7701.000
393.7030, 7993.000
394.9000, 8417.000
396.0960, 8994.000
397.2920, 9670.000
398.4880, 10406.00
399.6840, 11111.00
400.8800, 12113.00
402.0750, 13301.00
403.2710, 14313.00
404.4660, 15409.00
405.6610, 16596.00
406.8560, 17485.00
408.0510, 17872.00
409.2450, 18047.88
410.4400, 17924.00
411.6340, 17315.00
412.8280, 16351.00
414.0220, 15205.00
415.2160, 14003.00
416.4100, 12594.00
417.6030, 11373.00
418.7970, 10355.00
419.9900, 9438.000
421.1830, 8641.000
422.3760, 8123.000
423.5690, 7512.000
424.7610, 7383.000
425.9540, 6880.041
427.1460, 6655.000
428.3380, 6279.000
429.5300, 6082.000
430.7220, 5971.000
431.9140, 5838.000
433.1050, 5662.000
434.2970, 5640.000
435.4880, 5561.000
436.6790, 5448.000
437.8700, 5475.000
439.0610, 5359.000
440.2510, 5410.000
441.4420, 5365.000
442.6320, 5257.000
443.8220, 5290.000
445.0120, 5254.000
446.2020, 5264.000
447.3910, 5170.000
448.5810, 5150.000
449.7700, 5193.000
450.9600, 5075.000
452.1490, 5039.000
453.3370, 5133.000
454.5260, 5163.000
455.7150, 5057.000
456.9030, 5167.000
458.0910, 5109.000
459.2800, 5084.000
460.4670, 5070.000
461.6550, 5119.000
462.8430, 5185.000
464.0300, 5146.000
465.2180, 5192.000
466.4050, 5147.000
467.5920, 5143.000
468.7790, 5169.000
469.9650, 5189.000
471.1520, 5144.000
472.3380, 5185.000
473.5250, 5267.000
474.7110, 5218.000
475.8970, 5336.000
477.0820, 5300.000
478.2680, 5349.000
479.4540, 5332.000
480.6390, 5406.000
481.8240, 5419.000
483.0090, 5393.000
484.1940, 5532.000
485.3780, 5579.000
486.5630, 5632.000
487.7470, 5747.000
488.9320, 5852.261
490.1160, 5983.000
491.3000, 6140.000
492.4830, 6288.000
493.6670, 6463.000
494.8500, 6603.000
496.0340, 6751.000
497.2170, 6994.000
498.4000, 7070.000
499.5820, 7458.000
500.7650, 7475.000
501.9480, 7861.000
503.1300, 8071.000
504.3120, 8265.000
505.4940, 8508.000
506.6760, 8580.000
507.8580, 8735.000
509.0390, 8837.000
510.2210, 8819.000
511.4020, 8756.000
512.5830, 8729.000
513.7640, 8565.000
514.9450, 8479.000
516.1250, 8425.000
517.3060, 8236.000
518.4860, 8038.000
519.6660, 7872.000
520.8460, 7630.000
522.0260, 7596.000
523.2060, 7464.000
524.3850, 7278.000
525.5650, 7228.000
526.7440, 7172.000
527.9230, 7039.000
529.1020, 7013.000
530.2810, 7022.000
531.4590, 7072.000
532.6380, 7071.000
533.8160, 7228.000
534.9940, 7404.000
536.1720, 7635.000
537.3500, 8073.000
538.5270, 8475.000
539.7050, 9317.000
540.8820, 9947.000
542.0590, 11103.00
543.2360, 12292.00
544.4130, 13767.00
545.5900, 15220.00
546.7660, 16952.00
547.9430, 18617.00
549.1190, 20165.00
550.2950, 21212.00
551.4710, 21392.00
552.6470, 20774.00
553.8220, 19502.00
554.9980, 17801.00
556.1730, 15661.00
557.3480, 13856.00
558.5230, 12187.00
559.6980, 10746.00
560.8730, 9818.000
562.0470, 8910.000
563.2220, 8344.000
564.3960, 7831.000
565.5700, 7592.000
566.7440, 7192.000
567.9170, 7051.000
569.0910, 6935.000
570.2640, 6782.000
571.4380, 6650.000
572.6110, 6719.000
573.7840, 6424.000
574.9570, 6556.000
576.1290, 6548.000
577.3020, 6423.000
578.4740, 6471.000
579.6460, 6427.000
580.8180, 6477.000
581.9900, 6492.000
583.1620, 6555.000
584.3330, 6627.000
585.5040, 6522.000
586.6760, 6643.000
587.8470, 6620.000
589.0180, 6762.000
590.1880, 6782.000
591.3590, 7023.000
592.5290, 7005.000
593.7000, 7107.000
594.8700, 7133.000
596.0400, 7300.000
597.2090, 7301.000
598.3790, 7336.000
599.5490, 7354.000
600.7180, 7330.000
601.8870, 7386.000
603.0560, 7358.000
604.2250, 7163.000
605.3940, 7087.000
606.5620, 6883.000
607.7300, 6814.000
608.8990, 6710.000
610.0670, 6701.000
611.2350, 6537.000
612.4020, 6530.000
613.5700, 6500.000
614.7370, 6362.000
615.9050, 6356.000
617.0720, 6363.000
618.2390, 6436.000
619.4060, 6384.000
620.5720, 6443.000
621.7390, 6410.000
622.9050, 6652.000
624.0710, 6615.000
625.2370, 6575.000
626.4030, 6901.000
627.5690, 6926.000
628.7340, 7112.000
629.9000, 7210.000
631.0650, 7402.000
632.2300, 7515.000
633.3950, 7525.000
634.5600, 7517.000
635.7240, 7615.000
636.8890, 7531.000
638.0530, 7420.000
639.2170, 7414.000
640.3810, 7177.000
641.5450, 7107.000
642.7080, 6894.000
643.8720, 6817.000
645.0350, 6618.000
646.1980, 6533.000
647.3610, 6303.000
648.5240, 6236.454
649.6870, 6193.000
650.8490, 6111.000
652.0120, 6118.000
653.1740, 6136.000
654.3360, 6074.245
655.4980, 6039.000
656.6600, 5982.000
657.8210, 5950.000
658.9830, 5864.000
660.1440, 5927.000
661.3050, 5913.000
662.4660, 5916.000
663.6270, 5864.000
664.7870, 5812.000
665.9480, 5809.000
667.1080, 5846.000
668.2680, 5873.000
669.4280, 5759.000
670.5880, 5699.000
671.7480, 5722.000
672.9070, 5667.000
674.0670, 5721.000
675.2260, 5764.000
676.3850, 5703.000
677.5440, 5662.000
678.7030, 5648.000
679.8610, 5714.000
681.0200, 5698.000
682.1780, 5762.000
683.3360, 5674.000
684.4940, 5696.000
685.6520, 5665.000
686.8090, 5646.000
687.9670, 5746.000
689.1240, 5772.000
690.2810, 5783.144
691.4380, 5767.000
692.5950, 5794.000
693.7520, 5824.000
694.9080, 5802.000
696.0650, 5817.000
697.2210, 5807.000
698.3770, 5816.903
699.5330, 5901.000
700.6880, 5845.000
701.8440, 5948.000
702.9990, 5977.000
704.1550, 5958.000
705.3100, 6025.000
706.4650, 5966.000
707.6190, 6014.000
708.7740, 6044.000
709.9290, 6036.844
711.0830, 6020.000
712.2370, 6098.000
713.3910, 6091.000
714.5450, 6187.000
715.6980, 6227.000
716.8520, 6146.000
718.0050, 6226.000
719.1580, 6201.000
720.3110, 6294.000
721.4640, 6373.000
722.6170, 6370.000
723.7700, 6416.112
724.9220, 6321.000
726.0740, 6425.000
727.2260, 6352.000
728.3780, 6339.000
729.5300, 6349.000
730.6810, 6349.000
731.8330, 6320.000
732.9840, 6284.000
734.1350, 6299.000
735.2860, 6328.000
736.4370, 6244.000
737.5880, 6305.000
738.7380, 6253.000
739.8880, 6203.000
741.0390, 6310.000
742.1890, 6119.000
743.3380, 6104.000
744.4880, 6094.000
745.6380, 6227.000
746.7870, 6213.000
747.9360, 6205.000
749.0850, 6040.000
750.2340, 6111.000
751.3830, 6108.000
752.5310, 6074.000
753.6800, 6126.000
754.8280, 6035.000
755.9760, 6101.000
757.1240, 6016.000
758.2720, 6019.000
759.4190, 6108.000
760.5670, 6111.000
761.7140, 6030.000
762.8610, 6041.000
764.0080, 6059.000
765.1550, 6085.000
766.3020, 6062.000
767.4480, 5963.000
768.5950, 5986.000
769.7410, 6042.000
770.8870, 5949.000
772.0330, 5989.000
773.1780, 5922.000
774.3240, 5962.000
775.4690, 5978.000
776.6140, 5970.000
777.7590, 6022.000
778.9040, 5895.000
780.0490, 5934.000
781.1940, 5919.000
782.3380, 5940.000
783.4820, 5928.000
784.6260, 6022.000
785.7700, 5980.000
786.9140, 5940.000
788.0580, 6078.000
789.2010, 6042.000
790.3450, 6070.000
791.4880, 5998.000
792.6310, 6003.000
793.7730, 6039.000
794.9160, 6039.000
796.0590, 6051.000
797.2010, 6077.000
798.3430, 6055.174
799.4850, 6069.419
800.6270, 6028.000
801.7690, 6062.000
802.9100, 6067.000
804.0520, 6049.000
805.1930, 6113.000
806.3340, 6149.000
807.4750, 6164.000
808.6160, 6075.000
809.7560, 6158.000
810.8970, 6089.000
812.0370, 6094.000
813.1770, 6109.000
814.3170, 6051.000
815.4570, 6158.000
816.5960, 6235.000
817.7360, 6185.000
818.8750, 6133.000
820.0140, 6192.000
821.1530, 6139.000
822.2920, 6228.000
823.4310, 6075.000
824.5690, 6186.000
825.7070, 6104.000
826.8460, 6129.000
827.9840, 6110.000
829.1220, 6072.000
830.2590, 6115.000
831.3970, 6182.000
832.5340, 6199.000
833.6710, 6221.000
834.8080, 6248.352
835.9450, 6110.000
837.0820, 6270.000
838.2190, 6155.000
839.3550, 6142.000
840.4910, 6183.000
841.6270, 6191.000
842.7630, 6120.000
843.8990, 6110.000
845.0350, 6145.000
846.1700, 6057.000
847.3060, 6160.000
848.4410, 6115.000
849.5760, 6096.000
850.7100, 6161.000
851.8450, 6252.000
852.9800, 6145.000
854.1140, 6179.000
855.2480, 6162.000
856.3820, 6161.000
857.5160, 6173.832
858.6500, 6148.000
859.7830, 6185.000
860.9170, 6252.000
862.0500, 6263.000
863.1830, 6258.000
864.3160, 6190.000
865.4480, 6264.000
866.5810, 6134.000
867.7130, 6254.000
868.8460, 6248.000
869.9780, 6240.000
871.1100, 6233.000
872.2410, 6236.599
873.3730, 6184.000
874.5050, 6266.000
875.6360, 6209.000
876.7670, 6261.000
877.8980, 6296.000
879.0290, 6361.000
880.1590, 6351.000
881.2900, 6316.000
882.4200, 6310.000
883.5500, 6266.000
884.6800, 6404.000
885.8100, 6538.000
886.9400, 6305.000
888.0690, 6422.000
889.1990, 6392.000
890.3280, 6386.000
891.4570, 6437.000
892.5860, 6500.000
893.7140, 6537.000
894.8430, 6597.196
895.9710, 6657.000
897.1000, 6710.000
898.2280, 6720.000
899.3560, 6782.000
900.4830, 6805.000
901.6110, 6922.260
902.7380, 7083.000
903.8660, 7181.000
904.9930, 7343.000
906.1200, 7484.784
907.2460, 7629.000
908.3730, 7881.000
909.5000, 8178.000
910.6260, 8430.000
911.7520, 9020.000
912.8780, 9383.000
914.0040, 10117.00
915.1290, 11305.00
916.2550, 12014.00
917.3800, 13212.00
918.5050, 14326.00
919.6300, 15468.00
920.7550, 16387.00
921.8800, 17302.00
923.0040, 17753.00
924.1290, 17819.00
925.2530, 17478.00
926.3770, 17024.00
927.5010, 16312.00
928.6250, 15378.00
929.7480, 14593.00
930.8720, 13472.00
931.9950, 12779.00
933.1180, 12021.00
934.2410, 11534.00
935.3640, 10962.00
936.4860, 10511.00
937.6090, 10144.00
938.7310, 9955.000
939.8530, 9709.000
940.9750, 9351.000
942.0970, 9327.000
943.2180, 9173.000
944.3400, 9161.000
945.4610, 8924.000
946.5820, 8707.000
947.7030, 8662.000
948.8240, 8604.000
949.9450, 8509.000
951.0650, 8372.000
952.1860, 8365.000
953.3060, 8187.000
954.4260, 8252.000
955.5460, 8174.000
956.6650, 8136.000
957.7850, 8106.000
958.9040, 8120.667
960.0230, 8205.000
961.1420, 8209.000
962.2610, 8304.000
963.3800, 8381.000
964.4990, 8420.000
965.6170, 8469.000
966.7350, 8634.000
967.8530, 8723.000
968.9710, 8860.000
970.0890, 9040.000
971.2070, 9262.000
972.3240, 9431.000
973.4410, 9667.000
974.5580, 9972.000
975.6750, 10290.00
976.7920, 10593.00
977.9090, 11057.00
979.0250, 11650.00
980.1410, 12404.00
981.2580, 13076.00
982.3740, 14428.00
983.4890, 15894.00
984.6050, 17540.00
985.7200, 19661.00
986.8360, 22130.00
987.9510, 24627.00
989.0660, 27641.00
990.1810, 30831.09
991.2950, 34819.00
992.4100, 38148.00
993.5240, 42358.00
994.6390, 46849.00
995.7530, 50624.00
996.8660, 54593.00
997.9800, 57910.00
999.0940, 60118.00
1000.207, 61302.00
1001.320, 60740.00
1002.433, 58613.00
1003.546, 54420.00
1004.659, 49623.00
1005.772, 43847.00
1006.884, 38132.00
1007.996, 32411.00
1009.108, 27734.00
1010.220, 23821.00
1011.332, 20418.00
1012.444, 17878.00
1013.555, 16151.00
1014.666, 14590.00
1015.777, 13522.00
1016.888, 12684.00
1017.999, 12294.00
1019.110, 12017.00
1020.220, 11815.00
1021.331, 11648.00
1022.441, 11657.00
1023.551, 11559.00
1024.661, 11459.00
1025.770, 11001.00
1026.880, 10571.00
1027.989, 10310.00
1029.098, 9862.000
1030.207, 9682.000
1031.316, 9417.000
1032.425, 9106.000
1033.533, 9007.000
1034.642, 8939.000
1035.750, 8890.000
1036.858, 8723.000
1037.966, 8691.000
1039.073, 8683.000
1040.181, 8709.000
1041.288, 8583.000
1042.396, 8485.000
1043.503, 8487.000
1044.610, 8615.000
1045.716, 8548.000
1046.823, 8658.000
1047.929, 8593.000
1049.036, 8701.739
1050.142, 8938.000
1051.248, 8803.000
1052.353, 8932.000
1053.459, 8761.300
1054.564, 8939.000
1055.670, 9024.000
1056.775, 9023.000
1057.880, 8703.000
1058.985, 8623.000
1060.089, 8435.000
1061.194, 8353.000
1062.298, 8294.000
1063.402, 8299.000
1064.506, 8214.000
1065.610, 7965.000
1066.713, 8064.000
1067.817, 7902.000
1068.920, 7994.000
1070.023, 8037.000
1071.126, 7879.000
1072.229, 8023.000
1073.332, 7985.000
1074.435, 7976.000
1075.537, 7896.000
1076.639, 8033.000
1077.741, 7913.000
1078.843, 8015.000
1079.945, 7961.000
1081.046, 7905.000
1082.148, 8072.000
1083.249, 8117.000
1084.350, 8014.000
1085.451, 8188.000
1086.551, 8245.000
1087.652, 8235.000
1088.752, 8217.000
1089.853, 8249.000
1090.953, 8251.665
1092.053, 8204.000
1093.152, 8269.000
1094.252, 8215.000
1095.351, 8164.000
1096.451, 8159.000
1097.550, 8123.467
1098.649, 8126.000
1099.748, 8094.000
1100.846, 8105.000
1101.945, 8096.000
1103.043, 8147.000
1104.141, 8045.000
1105.239, 8104.000
1106.337, 8133.000
1107.434, 8223.000
1108.532, 8227.000
1109.629, 8326.273
1110.726, 8406.000
1111.823, 8509.000
1112.920, 8685.000
1114.017, 8794.000
1115.113, 8831.000
1116.210, 8878.000
1117.306, 8755.000
1118.402, 8911.000
1119.498, 8625.000
1120.593, 8516.000
1121.689, 8385.000
1122.784, 8375.000
1123.879, 8106.000
1124.974, 8164.000
1126.069, 7998.000
1127.164, 8161.000
1128.259, 7951.000
1129.353, 8025.000
1130.447, 7957.000
1131.541, 8029.000
1132.635, 8041.000
1133.729, 7978.000
1134.822, 7989.000
1135.916, 7976.000
1137.009, 8007.000
1138.102, 8045.000
1139.195, 7959.000
1140.288, 7905.000
1141.380, 7938.000
1142.473, 7978.000
1143.565, 7975.707
1144.657, 8006.513
1145.749, 8033.000
1146.841, 8056.000
1147.932, 8100.814
1149.024, 8164.002
1150.115, 8272.000
1151.206, 8406.000
1152.297, 8564.000
1153.388, 8755.000
1154.479, 8821.000
1155.569, 9070.000
1156.659, 9187.000
1157.750, 9548.000
1158.839, 9811.000
1159.929, 10086.00
1161.019, 10435.00
1162.108, 10973.00
1163.198, 11670.00
1164.287, 12604.08
1165.376, 13688.00
1166.465, 14996.00
1167.553, 16529.00
1168.642, 18146.00
1169.730, 19568.00
1170.818, 20888.00
1171.906, 21368.00
1172.994, 20842.00
1174.082, 19494.00
1175.170, 17763.00
1176.257, 15951.00
1177.344, 14273.00
1178.431, 12857.00
1179.518, 11693.00
1180.605, 10965.00
1181.691, 10239.00
1182.778, 10002.00
1183.864, 9372.000
1184.950, 9186.000
1186.036, 9083.000
1187.122, 8943.000
1188.207, 8791.969
1189.292, 8536.000
1190.378, 8544.000
1191.463, 8377.000
1192.548, 8333.000
1193.632, 8366.000
1194.717, 8118.000
1195.801, 8206.000
1196.886, 8175.000
1197.970, 8148.000
1199.054, 8125.000
1200.137, 8145.000
1201.221, 8033.000
1202.305, 8047.000
1203.388, 7985.000
1204.471, 8018.000
1205.554, 7954.000
1206.637, 7918.000
1207.719, 8035.000
1208.802, 7944.000
1209.884, 8001.000
1210.966, 7897.000
1212.048, 7959.000
1213.130, 7900.000
1214.212, 8080.000
1215.293, 8099.000
1216.374, 8016.000
1217.456, 7976.000
1218.536, 7975.804
1219.617, 7947.633
1220.698, 7963.000
1221.778, 7972.000
1222.859, 7973.000
1223.939, 8027.000
1225.019, 7991.000
1226.099, 8117.000
1227.178, 7961.000
1228.258, 7990.000
1229.337, 8085.000
1230.417, 7896.000
1231.496, 8027.000
1232.574, 8092.000
1233.653, 8022.000
1234.732, 7978.000
1235.810, 7921.000
1236.888, 8029.000
1237.966, 8055.000
1239.044, 7994.000
1240.122, 7958.000
1241.199, 8046.000
1242.277, 7998.000
1243.354, 7968.000
1244.431, 8069.000
1245.508, 8006.000
1246.585, 7966.000
1247.661, 8016.000
1248.738, 8187.000
1249.814, 8068.000
1250.890, 8048.000
1251.966, 8161.000
1253.042, 8020.000
1254.117, 7956.000
1255.193, 8066.000
1256.268, 7974.000
1257.343, 7996.000
1258.418, 8176.000
1259.493, 8004.000
1260.567, 8053.000
1261.642, 8076.000
1262.716, 7967.000
1263.790, 8089.000
1264.864, 7981.000
1265.938, 8102.000
1267.011, 8043.000
1268.085, 8062.000
1269.158, 8077.000
1270.231, 8118.000
1271.304, 8060.000
1272.377, 8192.000
1273.450, 8107.000
1274.522, 8104.000
1275.594, 8121.000
1276.666, 8084.000
1277.738, 8078.000
1278.810, 8130.000
1279.882, 8122.000
1280.953, 8027.000
