##NAMES=Scholzite
##RRUFFID=R050238
##IDEAL CHEMISTRY=CaZn^2+^_2_(PO_4_)_2_&#183;2H_2_O
##LOCALITY=near Blinman, South Australia, Australia
##OWNER=RRUFF
##SOURCE=Marcus Origlieri
##DESCRIPTION=Colorless bladed crystals
##STATUS=The identification of this mineral has been confirmed by X-ray diffraction and chemical analysis
##URL=rruff.info/R050238
##MEASURED CHEMISTRY=Ca_1.00_Zn_2.00_(P_1.00_O_4_)_2_Â·2H_2_O
##PIN_ID=M00218
##ORIENTATION=Laser parallel to c* (0 0 1). Fiducial mark perpendicular to laser is parallel to a [1 0 0]
135.3560, 10107.00
136.5850, 10211.00
137.8140, 10237.00
139.0430, 10292.13
140.2710, 10506.00
141.5000, 10337.00
142.7280, 10384.00
143.9560, 10410.00
145.1840, 10253.00
146.4120, 10493.00
147.6390, 10534.00
148.8670, 10506.00
150.0940, 10708.00
151.3210, 10790.16
152.5490, 10872.60
153.7750, 11085.00
155.0020, 11123.00
156.2290, 11214.00
157.4550, 11448.00
158.6810, 11713.00
159.9080, 11988.00
161.1340, 12204.00
162.3590, 12644.00
163.5850, 12841.00
164.8110, 13064.00
166.0360, 12955.00
167.2610, 12350.00
168.4860, 12223.00
169.7110, 11731.00
170.9360, 11253.00
172.1610, 10922.00
173.3850, 10408.00
174.6100, 10134.00
175.8340, 9921.000
177.0580, 9791.000
178.2820, 9727.000
179.5050, 9717.000
180.7290, 9514.000
181.9520, 9517.000
183.1760, 9633.000
184.3990, 9514.000
185.6220, 9568.000
186.8450, 9682.000
188.0670, 9579.000
189.2900, 9583.000
190.5120, 9697.000
191.7340, 9785.000
192.9560, 9697.000
194.1780, 9832.000
195.4000, 9709.000
196.6220, 9799.000
197.8430, 9695.000
199.0640, 9988.000
200.2860, 10118.00
201.5070, 10328.00
202.7270, 10283.00
203.9480, 10210.00
205.1690, 9504.000
206.3890, 9065.000
207.6090, 9040.000
208.8290, 9090.000
210.0490, 9206.000
211.2690, 9402.000
212.4890, 9704.000
213.7080, 10031.00
214.9280, 10358.00
216.1470, 10747.00
217.3660, 11163.00
218.5850, 11651.00
219.8030, 12050.00
221.0220, 12488.00
222.2400, 12885.00
223.4590, 13110.00
224.6770, 13259.00
225.8950, 13467.00
227.1120, 13610.82
228.3300, 13535.00
229.5480, 13936.00
230.7650, 14278.00
231.9820, 14555.79
233.1990, 15108.00
234.4160, 15463.00
235.6330, 15783.00
236.8490, 16008.00
238.0660, 15994.48
239.2820, 15923.93
240.4980, 15613.00
241.7140, 15302.00
242.9300, 14716.00
244.1460, 14019.00
245.3610, 13345.00
246.5770, 13173.00
247.7920, 12604.00
249.0070, 12348.00
250.2220, 12104.00
251.4370, 11908.00
252.6510, 11636.00
253.8660, 11410.00
255.0800, 11445.00
256.2940, 11181.00
257.5080, 11656.00
258.7220, 11411.66
259.9360, 12193.00
261.1490, 11338.00
262.3630, 11260.00
263.5760, 11356.00
264.7890, 11882.00
266.0020, 11724.00
267.2150, 12011.00
268.4270, 12093.00
269.6400, 12266.00
270.8520, 12407.00
272.0640, 12714.00
273.2760, 12819.00
274.4880, 13165.00
275.7000, 13154.00
276.9120, 13337.56
278.1230, 13489.13
279.3340, 13553.00
280.5450, 13727.00
281.7560, 13825.00
282.9670, 13915.00
284.1780, 14190.00
285.3880, 14378.00
286.5980, 14414.00
287.8090, 14306.00
289.0190, 14261.00
290.2290, 14099.00
291.4380, 13893.00
292.6480, 13723.00
293.8570, 13391.00
295.0670, 13117.00
296.2760, 13037.00
297.4850, 12804.00
298.6930, 12837.00
299.9020, 12745.00
301.1110, 12763.00
302.3190, 12752.00
303.5270, 12792.00
304.7350, 12816.00
305.9430, 12917.00
307.1510, 12930.00
308.3580, 13077.00
309.5660, 13091.00
310.7730, 12985.00
311.9800, 13116.00
313.1870, 12756.00
314.3940, 12567.00
315.6010, 12374.00
316.8070, 12334.00
318.0130, 12070.00
319.2200, 11827.00
320.4260, 11807.00
321.6310, 11641.00
322.8370, 11547.00
324.0430, 11423.00
325.2480, 11319.00
326.4540, 11067.00
327.6590, 11189.00
328.8640, 11099.00
330.0680, 10864.00
331.2730, 10949.00
332.4780, 10792.00
333.6820, 10762.00
334.8860, 10719.10
336.0900, 10560.00
337.2940, 10581.00
338.4980, 10480.00
339.7010, 10378.00
340.9050, 10246.00
342.1080, 10280.00
343.3110, 10148.00
344.5140, 10069.86
345.7170, 10064.00
346.9200, 9956.000
348.1220, 9825.000
349.3240, 9943.000
350.5270, 9894.000
351.7290, 9747.000
352.9310, 9696.000
354.1320, 9758.000
355.3340, 9651.000
356.5350, 9690.000
357.7370, 9542.000
358.9380, 9512.000
360.1390, 9603.000
361.3400, 9479.000
362.5400, 9531.000
363.7410, 9349.000
364.9410, 9350.000
366.1410, 9422.000
367.3410, 9429.000
368.5410, 9283.000
369.7410, 9314.000
370.9400, 9319.000
372.1400, 9436.000
373.3390, 9338.000
374.5380, 9394.000
375.7370, 9347.000
376.9360, 9261.000
378.1350, 9379.000
379.3330, 9456.000
380.5310, 9405.000
381.7300, 9445.156
382.9280, 9401.870
384.1260, 9399.000
385.3230, 9380.000
386.5210, 9368.000
387.7180, 9533.000
388.9160, 9417.000
390.1130, 9517.000
391.3100, 9415.000
392.5060, 9579.000
393.7030, 9503.000
394.9000, 9505.000
396.0960, 9665.000
397.2920, 9772.000
398.4880, 9752.000
399.6840, 9937.000
400.8800, 9990.000
402.0750, 10264.00
403.2710, 10219.00
404.4660, 10372.00
405.6610, 10653.00
406.8560, 10760.00
408.0510, 10924.00
409.2450, 11092.00
410.4400, 11112.00
411.6340, 11258.00
412.8280, 11201.00
414.0220, 11171.00
415.2160, 11208.00
416.4100, 10847.00
417.6030, 10664.00
418.7970, 10543.00
419.9900, 10349.83
421.1830, 10262.00
422.3760, 10112.00
423.5690, 10175.00
424.7610, 10042.00
425.9540, 10094.00
427.1460, 10082.00
428.3380, 9945.000
429.5300, 10045.00
430.7220, 9973.000
431.9140, 9973.000
433.1050, 10074.00
434.2970, 10059.00
435.4880, 9850.000
436.6790, 9926.000
437.8700, 10026.00
439.0610, 10168.00
440.2510, 10054.00
441.4420, 9928.000
442.6320, 9981.000
443.8220, 9999.000
445.0120, 9861.000
446.2020, 9944.000
447.3910, 9961.000
448.5810, 9889.000
449.7700, 9889.000
450.9600, 9897.000
452.1490, 9830.000
453.3370, 9992.000
454.5260, 9967.000
455.7150, 10027.00
456.9030, 10059.00
458.0910, 9967.000
459.2800, 10037.00
460.4670, 9973.000
461.6550, 9828.000
462.8430, 9961.000
464.0300, 9846.000
465.2180, 9937.000
466.4050, 9919.000
467.5920, 10017.00
468.7790, 9967.000
469.9650, 9984.000
471.1520, 9921.000
472.3380, 9949.000
473.5250, 10006.00
474.7110, 10067.00
475.8970, 10059.00
477.0820, 10087.00
478.2680, 10117.54
479.4540, 10124.96
480.6390, 10173.00
481.8240, 10160.00
483.0090, 10193.00
484.1940, 10210.77
485.3780, 10255.49
486.5630, 10224.00
487.7470, 10310.00
488.9320, 10371.00
490.1160, 10276.00
491.3000, 10261.00
492.4830, 10317.00
493.6670, 10331.00
494.8500, 10332.00
496.0340, 10500.00
497.2170, 10484.00
498.4000, 10371.00
499.5820, 10558.00
500.7650, 10540.00
501.9480, 10637.00
503.1300, 10703.00
504.3120, 10742.00
505.4940, 10732.00
506.6760, 10663.00
507.8580, 10782.00
509.0390, 10695.00
510.2210, 10798.00
511.4020, 10814.00
512.5830, 10590.00
513.7640, 10768.00
514.9450, 10746.00
516.1250, 10644.00
517.3060, 10803.00
518.4860, 10640.00
519.6660, 10701.00
520.8460, 10735.00
522.0260, 10931.00
523.2060, 10841.00
524.3850, 10886.00
525.5650, 10808.00
526.7440, 10763.00
527.9230, 10804.00
529.1020, 10878.00
530.2810, 10789.00
531.4590, 10833.00
532.6380, 10952.00
533.8160, 10858.00
534.9940, 11115.00
536.1720, 10981.00
537.3500, 11013.00
538.5270, 11081.00
539.7050, 11248.00
540.8820, 11343.00
542.0590, 11518.00
543.2360, 11642.00
544.4130, 11816.00
545.5900, 12038.00
546.7660, 12419.00
547.9430, 12626.00
549.1190, 13026.00
550.2950, 13448.00
551.4710, 13484.00
552.6470, 13623.00
553.8220, 13622.00
554.9980, 13414.00
556.1730, 12995.00
557.3480, 12688.00
558.5230, 12425.00
559.6980, 12078.00
560.8730, 11971.00
562.0470, 11896.00
563.2220, 11637.00
564.3960, 11752.00
565.5700, 11711.00
566.7440, 11715.00
567.9170, 11581.00
569.0910, 11736.00
570.2640, 11765.00
571.4380, 11693.00
572.6110, 11790.00
573.7840, 11873.00
574.9570, 11870.00
576.1290, 11948.92
577.3020, 11953.00
578.4740, 12003.00
579.6460, 12065.00
580.8180, 12030.00
581.9900, 12014.00
583.1620, 12117.00
584.3330, 12147.00
585.5040, 12179.00
586.6760, 12182.00
587.8470, 12295.00
589.0180, 12198.00
590.1880, 12339.00
591.3590, 12301.00
592.5290, 12495.00
593.7000, 12465.00
594.8700, 12455.00
596.0400, 12446.00
597.2090, 12440.00
598.3790, 12479.00
599.5490, 12528.00
600.7180, 12560.00
601.8870, 12521.00
603.0560, 12494.00
604.2250, 12407.00
605.3940, 12477.00
606.5620, 12508.00
607.7300, 12347.00
608.8990, 12142.00
610.0670, 12172.00
611.2350, 12142.00
612.4020, 12185.00
613.5700, 12123.00
614.7370, 12152.65
615.9050, 12084.72
617.0720, 12152.00
618.2390, 12039.00
619.4060, 11969.00
620.5720, 12147.00
621.7390, 12016.00
622.9050, 12006.00
624.0710, 12056.00
625.2370, 12005.00
626.4030, 12089.00
627.5690, 11979.00
628.7340, 11983.00
629.9000, 12026.00
631.0650, 12162.00
632.2300, 12074.00
633.3950, 11978.00
634.5600, 12144.00
635.7240, 12093.00
636.8890, 12221.00
638.0530, 12421.00
639.2170, 12297.00
640.3810, 12375.00
641.5450, 12263.00
642.7080, 12397.00
643.8720, 12293.00
645.0350, 12323.00
646.1980, 12239.00
647.3610, 12443.00
648.5240, 12298.00
649.6870, 12370.00
650.8490, 12469.00
652.0120, 12338.00
653.1740, 12261.00
654.3360, 12357.00
655.4980, 12318.00
656.6600, 12396.00
657.8210, 12566.00
658.9830, 12528.00
660.1440, 12442.00
661.3050, 12555.00
662.4660, 12467.67
663.6270, 12525.00
664.7870, 12468.00
665.9480, 12489.00
667.1080, 12622.00
668.2680, 12522.00
669.4280, 12533.00
670.5880, 12411.00
671.7480, 12562.00
672.9070, 12481.00
674.0670, 12439.00
675.2260, 12405.00
676.3850, 12379.00
677.5440, 12387.00
678.7030, 12443.00
679.8610, 12426.00
681.0200, 12513.00
682.1780, 12511.00
683.3360, 12538.00
684.4940, 12409.00
685.6520, 12639.00
686.8090, 12390.00
687.9670, 12442.00
689.1240, 12528.00
690.2810, 12597.00
691.4380, 12641.00
692.5950, 12593.00
693.7520, 12688.00
694.9080, 12473.00
696.0650, 12691.00
697.2210, 12662.00
698.3770, 12824.00
699.5330, 12714.00
700.6880, 12799.00
701.8440, 12722.00
702.9990, 12709.00
704.1550, 12750.00
705.3100, 12898.00
706.4650, 12694.00
707.6190, 12907.00
708.7740, 12833.00
709.9290, 12804.00
711.0830, 12742.00
712.2370, 12810.00
713.3910, 12862.00
714.5450, 12879.00
715.6980, 12738.00
716.8520, 12816.00
718.0050, 12912.00
719.1580, 12850.00
720.3110, 13072.00
721.4640, 12888.00
722.6170, 13008.00
723.7700, 12901.00
724.9220, 12901.00
726.0740, 13141.00
727.2260, 13051.00
728.3780, 13120.00
729.5300, 13100.00
730.6810, 13255.00
731.8330, 13231.00
732.9840, 13166.00
734.1350, 13334.00
735.2860, 13344.00
736.4370, 13258.00
737.5880, 13291.00
738.7380, 13390.00
739.8880, 13312.00
741.0390, 13478.00
742.1890, 13389.00
743.3380, 13277.00
744.4880, 13412.00
745.6380, 13229.00
746.7870, 13414.00
747.9360, 13372.00
749.0850, 13433.00
750.2340, 13411.00
751.3830, 13446.39
752.5310, 13467.72
753.6800, 13508.00
754.8280, 13502.00
755.9760, 13508.00
757.1240, 13510.00
758.2720, 13623.00
759.4190, 13577.00
760.5670, 13667.00
761.7140, 13611.00
762.8610, 13574.00
764.0080, 13707.00
765.1550, 13681.00
766.3020, 13781.00
767.4480, 13867.00
768.5950, 13597.00
769.7410, 13796.00
770.8870, 13832.00
772.0330, 13789.00
773.1780, 13897.00
774.3240, 13943.00
775.4690, 14007.00
776.6140, 14034.38
777.7590, 14001.00
778.9040, 14022.00
780.0490, 14008.00
781.1940, 13926.00
782.3380, 14081.00
783.4820, 14088.00
784.6260, 14020.00
785.7700, 13925.00
786.9140, 14114.00
788.0580, 14091.00
789.2010, 14158.00
790.3450, 14242.00
791.4880, 14339.00
792.6310, 14219.00
793.7730, 14226.00
794.9160, 14213.00
796.0590, 14224.00
797.2010, 14274.00
798.3430, 14237.00
799.4850, 14273.00
800.6270, 14345.00
801.7690, 14453.00
802.9100, 14444.00
804.0520, 14469.05
805.1930, 14428.00
806.3340, 14422.00
807.4750, 14649.00
808.6160, 14617.00
809.7560, 14620.33
810.8970, 14663.00
812.0370, 14544.00
813.1770, 14890.00
814.3170, 14906.00
815.4570, 14745.00
816.5960, 15215.00
817.7360, 15209.00
818.8750, 14811.00
820.0140, 14516.00
821.1530, 14641.00
822.2920, 14858.00
823.4310, 14753.00
824.5690, 14732.00
825.7070, 14857.00
826.8460, 14933.00
827.9840, 14712.00
829.1220, 14762.00
830.2590, 14794.00
831.3970, 14842.00
832.5340, 14791.00
833.6710, 14853.00
834.8080, 14899.00
835.9450, 14915.00
837.0820, 14975.30
838.2190, 14900.00
839.3550, 15049.00
840.4910, 15142.00
841.6270, 15145.00
842.7630, 15027.00
843.8990, 15139.00
845.0350, 15082.00
846.1700, 15076.00
847.3060, 15130.00
848.4410, 15292.00
849.5760, 15251.00
850.7100, 15435.00
851.8450, 15200.00
852.9800, 15267.00
854.1140, 15394.00
855.2480, 15439.00
856.3820, 15455.00
857.5160, 15553.00
858.6500, 15597.00
859.7830, 15568.00
860.9170, 15602.00
862.0500, 15830.00
863.1830, 15797.00
864.3160, 15734.00
865.4480, 15562.00
866.5810, 15630.00
867.7130, 15721.00
868.8460, 15648.00
869.9780, 15664.00
871.1100, 15819.00
872.2410, 15681.77
873.3730, 15690.00
874.5050, 15575.00
875.6360, 15708.00
876.7670, 15767.00
877.8980, 15887.00
879.0290, 15677.00
880.1590, 15723.87
881.2900, 15769.00
882.4200, 15599.00
883.5500, 15737.00
884.6800, 15699.00
885.8100, 15963.00
886.9400, 15874.00
888.0690, 15980.00
889.1990, 15958.00
890.3280, 16053.00
891.4570, 16251.00
892.5860, 15960.00
893.7140, 15975.00
894.8430, 16127.00
895.9710, 16072.39
897.1000, 16252.00
898.2280, 16254.00
899.3560, 16328.00
900.4830, 16424.00
901.6110, 16299.00
902.7380, 16240.00
903.8660, 16356.00
904.9930, 16535.00
906.1200, 16610.00
907.2460, 16773.00
908.3730, 16887.00
909.5000, 17104.00
910.6260, 17222.00
911.7520, 17294.00
912.8780, 17677.00
914.0040, 17746.00
915.1290, 18481.00
916.2550, 18532.00
917.3800, 19368.00
918.5050, 19866.00
919.6300, 20319.00
920.7550, 20770.00
921.8800, 21228.00
923.0040, 21702.00
924.1290, 21947.00
925.2530, 22040.00
926.3770, 21854.00
927.5010, 21710.00
928.6250, 21421.00
929.7480, 21241.00
930.8720, 21004.25
931.9950, 20715.00
933.1180, 20570.00
934.2410, 20275.00
935.3640, 20143.00
936.4860, 19963.00
937.6090, 19904.00
938.7310, 19618.49
939.8530, 19485.00
940.9750, 19077.00
942.0970, 19039.00
943.2180, 18785.00
944.3400, 18714.00
945.4610, 18596.00
946.5820, 18414.00
947.7030, 18246.00
948.8240, 18353.00
949.9450, 18202.00
951.0650, 18334.00
952.1860, 18321.00
953.3060, 17968.00
954.4260, 17965.00
955.5460, 18101.00
956.6650, 18059.00
957.7850, 18255.00
958.9040, 18043.00
960.0230, 17999.00
961.1420, 18209.00
962.2610, 18322.00
963.3800, 18322.00
964.4990, 18235.00
965.6170, 18407.00
966.7350, 18272.00
967.8530, 18648.00
968.9710, 18573.00
970.0890, 18796.00
971.2070, 19018.00
972.3240, 19029.00
973.4410, 19286.00
974.5580, 19320.00
975.6750, 19684.00
976.7920, 19885.00
977.9090, 20035.00
979.0250, 20522.00
980.1410, 20883.00
981.2580, 21639.00
982.3740, 22168.00
983.4890, 22862.00
984.6050, 23931.00
985.7200, 25213.00
986.8360, 26760.00
987.9510, 28204.00
989.0660, 30092.00
990.1810, 31903.00
991.2950, 33681.00
992.4100, 36042.00
993.5240, 38399.00
994.6390, 40492.00
995.7530, 43138.00
996.8660, 45325.00
997.9800, 48149.00
999.0940, 50187.00
1000.207, 51956.00
1001.320, 52216.00
1002.433, 51379.00
1003.546, 49883.00
1004.659, 46605.00
1005.772, 43484.00
1006.884, 39677.00
1007.996, 36004.00
1009.108, 32682.00
1010.220, 30066.00
1011.332, 27726.00
1012.444, 26191.00
1013.555, 24832.00
1014.666, 23931.00
1015.777, 23155.00
1016.888, 22688.00
1017.999, 22353.00
1019.110, 22081.00
1020.220, 21997.00
1021.331, 22233.00
1022.441, 22006.00
1023.551, 22241.00
1024.661, 22019.00
1025.770, 22066.00
1026.880, 21552.00
1027.989, 21352.00
1029.098, 20919.00
1030.207, 20926.00
1031.316, 20605.00
1032.425, 20245.00
1033.533, 20228.00
1034.642, 20100.00
1035.750, 20158.00
1036.858, 19994.00
1037.966, 20256.00
1039.073, 19937.00
1040.181, 20088.00
1041.288, 19818.00
1042.396, 20187.00
1043.503, 19852.00
1044.610, 20143.00
1045.716, 20043.00
1046.823, 20039.00
1047.929, 20073.00
1049.036, 19962.00
1050.142, 20041.49
1051.248, 20187.00
1052.353, 20176.00
1053.459, 20295.00
1054.564, 20467.00
1055.670, 20394.00
1056.775, 20696.00
1057.880, 20604.00
1058.985, 20564.93
1060.089, 20591.00
1061.194, 20421.00
1062.298, 20471.00
1063.402, 20545.00
1064.506, 20867.00
1065.610, 20787.23
1066.713, 20796.00
1067.817, 20837.00
1068.920, 20670.00
1070.023, 20785.00
1071.126, 20931.00
1072.229, 20847.00
1073.332, 21042.00
1074.435, 20989.00
1075.537, 21125.00
1076.639, 21179.00
1077.741, 21277.00
1078.843, 21341.00
1079.945, 21503.00
1081.046, 21589.00
1082.148, 21759.00
1083.249, 21656.00
1084.350, 21825.00
1085.451, 22048.00
1086.551, 22291.00
1087.652, 22069.00
1088.752, 22224.00
1089.853, 22336.00
1090.953, 22138.00
1092.053, 22347.00
1093.152, 22208.00
1094.252, 22105.00
1095.351, 22091.00
1096.451, 22087.00
1097.550, 22077.76
1098.649, 22150.00
1099.748, 22171.00
1100.846, 22109.00
1101.945, 22242.00
1103.043, 22241.80
1104.141, 22182.00
1105.239, 22369.00
1106.337, 22495.00
1107.434, 22844.19
1108.532, 23343.00
1109.629, 23816.00
1110.726, 24437.00
1111.823, 25181.00
1112.920, 26024.00
1114.017, 27132.00
1115.113, 27950.00
1116.210, 28103.00
1117.306, 27947.00
1118.402, 27290.00
1119.498, 26252.00
1120.593, 25035.00
1121.689, 24362.00
1122.784, 23579.00
1123.879, 23030.00
1124.974, 22453.00
1126.069, 22450.00
1127.164, 22112.00
1128.259, 21764.00
1129.353, 21888.00
1130.447, 21516.00
1131.541, 21625.00
1132.635, 21531.00
1133.729, 21590.00
1134.822, 21470.00
1135.916, 21561.00
1137.009, 21639.00
1138.102, 21698.00
1139.195, 21652.00
1140.288, 21444.00
1141.380, 21700.00
1142.473, 21526.00
1143.565, 21578.00
1144.657, 21700.00
1145.749, 21792.00
1146.841, 21751.00
1147.932, 21919.00
1149.024, 22179.00
1150.115, 21991.00
1151.206, 22029.00
1152.297, 21942.00
1153.388, 22278.00
1154.479, 22159.00
1155.569, 22421.00
1156.659, 22589.00
1157.750, 22631.00
1158.839, 22893.00
1159.929, 22944.00
1161.019, 23372.00
1162.108, 23392.00
1163.198, 23720.00
1164.287, 23776.00
1165.376, 24325.00
1166.465, 24781.00
1167.553, 25215.00
1168.642, 25936.00
1169.730, 26599.00
1170.818, 27050.00
1171.906, 27331.00
1172.994, 27063.00
1174.082, 26730.00
1175.170, 25818.00
1176.257, 25251.00
1177.344, 24756.00
1178.431, 24192.36
1179.518, 23832.00
1180.605, 23394.00
1181.691, 23308.00
1182.778, 23033.00
1183.864, 22840.00
1184.950, 22833.00
1186.036, 22752.00
1187.122, 22580.00
1188.207, 22650.00
1189.292, 22488.00
1190.378, 22588.00
1191.463, 22543.00
1192.548, 22495.00
1193.632, 22413.00
1194.717, 22430.78
1195.801, 22577.00
1196.886, 22459.00
1197.970, 22829.00
1199.054, 22880.00
1200.137, 22595.00
1201.221, 22725.00
1202.305, 22618.00
1203.388, 22730.00
1204.471, 22786.00
1205.554, 22693.00
1206.637, 22843.00
1207.719, 22708.00
1208.802, 22841.00
1209.884, 22723.00
1210.966, 22824.00
1212.048, 22829.00
1213.130, 22976.00
1214.212, 22913.00
1215.293, 22840.00
1216.374, 23009.00
1217.456, 22990.86
1218.536, 22930.00
1219.617, 23075.00
1220.698, 23068.00
1221.778, 22962.00
1222.859, 23026.00
1223.939, 23044.21
1225.019, 23159.00
1226.099, 23135.00
1227.178, 23218.00
1228.258, 23186.00
1229.337, 23285.00
1230.417, 23359.00
1231.496, 23231.00
1232.574, 23475.00
1233.653, 23424.00
1234.732, 23638.00
1235.810, 23753.00
1236.888, 23385.00
1237.966, 23400.00
1239.044, 23648.00
1240.122, 23585.00
1241.199, 23762.00
1242.277, 23819.00
1243.354, 23811.00
1244.431, 23691.00
1245.508, 23930.00
1246.585, 23872.98
1247.661, 23907.14
1248.738, 23991.00
1249.814, 23958.00
1250.890, 24064.00
1251.966, 24127.00
1253.042, 24013.00
1254.117, 24066.00
1255.193, 24094.00
1256.268, 24162.00
1257.343, 24242.00
1258.418, 24211.00
1259.493, 24404.00
1260.567, 24356.00
1261.642, 24174.00
1262.716, 24371.23
1263.790, 24338.88
1264.864, 24511.00
1265.938, 24563.00
1267.011, 24507.00
1268.085, 24735.00
1269.158, 24551.00
1270.231, 24693.00
1271.304, 24569.00
1272.377, 24559.00
1273.450, 24675.00
1274.522, 24525.00
1275.594, 24845.00
1276.666, 24711.00
1277.738, 24644.00
1278.810, 24682.00
1279.882, 24847.00
1280.953, 24702.00
1282.025, 24883.00
1283.096, 24807.00
1284.167, 24991.00
1285.238, 24858.00
1286.308, 24961.00
1287.379, 24982.00
1288.449, 24836.00
1289.519, 25289.00
1290.589, 24938.00
1291.659, 25086.00
1292.729, 25081.00
1293.798, 25356.00
1294.868, 25176.00
1295.937, 25218.00
1297.006, 25241.00
1298.075, 25555.00
1299.143, 25210.00
1300.212, 25403.00
1301.280, 25381.00
1302.348, 25232.00
1303.416, 25566.00
1304.484, 25713.00
1305.552, 25675.00
1306.620, 25510.00
1307.687, 25997.00
1308.754, 25747.00
1309.821, 26042.00
1310.888, 25815.00
