##NAMES=Senegalite
##RRUFFID=R050239
##IDEAL CHEMISTRY=Al_2_PO_4_(OH)_3_&#183;H_2_O
##LOCALITY=Kourondicko iron ore (magnetite) deposit, Faleme River Basin, Senegal
##OWNER=RRUFF
##SOURCE=Marcus Origlieri
##DESCRIPTION=Colorless prismatic crystals
##STATUS=The identification of this mineral has been confirmed by X-ray diffraction and chemical analysis
##URL=rruff.info/R050239
##MEASURED CHEMISTRY=Al_2.00_P_1.00_O_4_(OH)_3_Â·H_2_O
##PIN_ID=M00172
##ORIENTATION=Laser parallel to -a* (-1 0 0). Fiducial mark perpendicular to laser is parallel to b [0 1 0]
102.1160, 15936.00
103.3490, 16269.42
104.5820, 16581.00
105.8150, 16804.00
107.0470, 17017.00
108.2800, 17096.00
109.5120, 17189.00
110.7440, 17208.00
111.9760, 17094.00
113.2080, 17191.00
114.4400, 17386.00
115.6710, 17707.00
116.9030, 17463.00
118.1340, 17786.00
119.3650, 18027.00
120.5960, 17870.00
121.8270, 17964.00
123.0580, 18334.00
124.2880, 18330.00
125.5190, 18538.00
126.7490, 18812.00
127.9790, 19005.00
129.2090, 19108.00
130.4390, 19570.00
131.6680, 19867.00
132.8980, 20117.00
134.1270, 20111.00
135.3560, 20160.00
136.5850, 20107.00
137.8140, 19884.00
139.0430, 19873.00
140.2710, 19725.00
141.5000, 19590.00
142.7280, 19616.00
143.9560, 19428.00
145.1840, 19569.00
146.4120, 19746.00
147.6390, 19716.00
148.8670, 19726.00
150.0940, 19690.00
151.3210, 19911.00
152.5490, 19886.00
153.7750, 20017.00
155.0020, 19988.00
156.2290, 19924.00
157.4550, 20136.00
158.6810, 20323.00
159.9080, 20301.00
161.1340, 20545.00
162.3590, 20800.00
163.5850, 20971.00
164.8110, 21381.00
166.0360, 21565.00
167.2610, 21844.00
168.4860, 21691.00
169.7110, 21415.00
170.9360, 21197.00
172.1610, 21116.00
173.3850, 20778.00
174.6100, 20855.00
175.8340, 20668.00
177.0580, 20887.00
178.2820, 20865.00
179.5050, 20988.00
180.7290, 20977.00
181.9520, 20836.00
183.1760, 21214.00
184.3990, 21310.00
185.6220, 21203.00
186.8450, 21446.00
188.0670, 21526.00
189.2900, 21573.00
190.5120, 21657.00
191.7340, 21713.00
192.9560, 21951.00
194.1780, 22196.00
195.4000, 22343.00
196.6220, 22402.00
197.8430, 22758.00
199.0640, 22862.00
200.2860, 23209.00
201.5070, 23788.00
202.7270, 24331.00
203.9480, 24798.00
205.1690, 24943.00
206.3890, 24952.00
207.6090, 24494.00
208.8290, 23933.00
210.0490, 23558.00
211.2690, 22757.00
212.4890, 22416.00
213.7080, 22299.00
214.9280, 22292.00
216.1470, 22229.00
217.3660, 22075.00
218.5850, 22180.00
219.8030, 22307.00
221.0220, 22345.00
222.2400, 22303.00
223.4590, 22510.00
224.6770, 22412.00
225.8950, 22579.00
227.1120, 22651.00
228.3300, 22652.00
229.5480, 22843.00
230.7650, 22896.00
231.9820, 23039.00
233.1990, 23160.00
234.4160, 23058.00
235.6330, 23244.00
236.8490, 23360.00
238.0660, 23127.00
239.2820, 23102.00
240.4980, 23142.00
241.7140, 23036.00
242.9300, 23086.00
244.1460, 23015.70
245.3610, 23064.00
246.5770, 22934.00
247.7920, 23030.00
249.0070, 23070.00
250.2220, 22934.00
251.4370, 23114.00
252.6510, 23079.00
253.8660, 23068.00
255.0800, 23161.00
256.2940, 23048.00
257.5080, 23143.00
258.7220, 23445.00
259.9360, 23264.00
261.1490, 23472.00
262.3630, 23409.00
263.5760, 23536.00
264.7890, 23493.00
266.0020, 23797.00
267.2150, 23932.00
268.4270, 23880.00
269.6400, 24280.00
270.8520, 24322.00
272.0640, 24544.00
273.2760, 24850.00
274.4880, 25009.00
275.7000, 25409.00
276.9120, 25870.00
278.1230, 26187.00
279.3340, 26052.00
280.5450, 25888.00
281.7560, 25854.00
282.9670, 25987.31
284.1780, 26154.00
285.3880, 26537.00
286.5980, 26887.00
287.8090, 27454.00
289.0190, 27913.00
290.2290, 28841.00
291.4380, 29482.00
292.6480, 30132.00
293.8570, 30432.00
295.0670, 30373.00
296.2760, 29334.00
297.4850, 28739.00
298.6930, 27814.00
299.9020, 27124.00
301.1110, 26618.00
302.3190, 25985.00
303.5270, 25583.00
304.7350, 25746.00
305.9430, 25410.00
307.1510, 25519.00
308.3580, 25473.00
309.5660, 25334.00
310.7730, 25632.00
311.9800, 25486.00
313.1870, 25973.00
314.3940, 25910.00
315.6010, 26172.00
316.8070, 26281.00
318.0130, 26584.00
319.2200, 26938.64
320.4260, 27280.00
321.6310, 27772.00
322.8370, 28177.00
324.0430, 28637.00
325.2480, 29484.00
326.4540, 30050.00
327.6590, 30670.00
328.8640, 31266.00
330.0680, 31230.00
331.2730, 31058.00
332.4780, 30588.00
333.6820, 29783.00
334.8860, 29139.00
336.0900, 28608.00
337.2940, 27918.00
338.4980, 27513.95
339.7010, 27063.00
340.9050, 26797.00
342.1080, 26536.00
343.3110, 26407.00
344.5140, 26201.00
345.7170, 26214.00
346.9200, 26194.00
348.1220, 26115.00
349.3240, 26049.00
350.5270, 25993.00
351.7290, 26119.00
352.9310, 26152.00
354.1320, 26070.00
355.3340, 26122.00
356.5350, 26368.00
357.7370, 26229.00
358.9380, 26164.00
360.1390, 26381.00
361.3400, 26182.00
362.5400, 26332.00
363.7410, 26528.00
364.9410, 26485.00
366.1410, 26553.00
367.3410, 26489.00
368.5410, 26541.81
369.7410, 26584.00
370.9400, 26615.00
372.1400, 26547.00
373.3390, 26564.00
374.5380, 26566.00
375.7370, 26582.00
376.9360, 26433.00
378.1350, 26456.00
379.3330, 26539.00
380.5310, 26501.00
381.7300, 26648.00
382.9280, 26738.00
384.1260, 26640.00
385.3230, 26715.00
386.5210, 26458.00
387.7180, 26674.00
388.9160, 26583.00
390.1130, 26903.00
391.3100, 27046.00
392.5060, 26946.00
393.7030, 26856.00
394.9000, 27001.00
396.0960, 27073.00
397.2920, 27112.00
398.4880, 27240.00
399.6840, 27076.00
400.8800, 26922.00
402.0750, 27229.00
403.2710, 27093.00
404.4660, 27298.00
405.6610, 27450.00
406.8560, 27448.00
408.0510, 27427.00
409.2450, 27568.79
410.4400, 27499.00
411.6340, 27692.00
412.8280, 27744.00
414.0220, 27630.00
415.2160, 27866.00
416.4100, 28032.00
417.6030, 28316.00
418.7970, 28084.00
419.9900, 28066.00
421.1830, 27867.00
422.3760, 28334.00
423.5690, 28308.00
424.7610, 28428.00
425.9540, 28698.00
427.1460, 28541.00
428.3380, 29002.00
429.5300, 29195.00
430.7220, 29501.00
431.9140, 29560.00
433.1050, 30082.00
434.2970, 30328.00
435.4880, 30631.00
436.6790, 31072.00
437.8700, 31375.00
439.0610, 31781.00
440.2510, 32349.00
441.4420, 32770.00
442.6320, 32714.00
443.8220, 33086.00
445.0120, 32973.00
446.2020, 32777.00
447.3910, 32763.00
448.5810, 32451.00
449.7700, 32286.00
450.9600, 31975.00
452.1490, 31783.00
453.3370, 31446.00
454.5260, 31261.00
455.7150, 31066.00
456.9030, 31029.37
458.0910, 31399.00
459.2800, 31250.00
460.4670, 31528.00
461.6550, 32007.00
462.8430, 32285.00
464.0300, 32889.00
465.2180, 33811.00
466.4050, 34690.00
467.5920, 35420.00
468.7790, 36455.00
469.9650, 37315.00
471.1520, 38561.00
472.3380, 39366.00
473.5250, 39554.00
474.7110, 39633.00
475.8970, 39434.00
477.0820, 38937.00
478.2680, 38280.00
479.4540, 37961.00
480.6390, 37498.00
481.8240, 37300.00
483.0090, 36538.00
484.1940, 35718.00
485.3780, 35140.00
486.5630, 34068.00
487.7470, 33534.00
488.9320, 32720.00
490.1160, 32412.00
491.3000, 31908.00
492.4830, 31636.00
493.6670, 31171.00
494.8500, 30954.00
496.0340, 30771.00
497.2170, 30788.00
498.4000, 30422.00
499.5820, 30436.00
500.7650, 30235.00
501.9480, 30455.00
503.1300, 30293.00
504.3120, 30362.00
505.4940, 30311.00
506.6760, 30227.00
507.8580, 30181.00
509.0390, 30333.00
510.2210, 30273.00
511.4020, 30458.00
512.5830, 30483.00
513.7640, 30499.00
514.9450, 30585.00
516.1250, 30606.73
517.3060, 30565.00
518.4860, 30635.00
519.6660, 30629.00
520.8460, 30505.00
522.0260, 30570.00
523.2060, 30672.00
524.3850, 30655.00
525.5650, 30553.00
526.7440, 30641.00
527.9230, 30648.00
529.1020, 30578.00
530.2810, 30658.00
531.4590, 30687.00
532.6380, 30634.00
533.8160, 30676.00
534.9940, 30714.00
536.1720, 30735.42
537.3500, 30817.00
538.5270, 30817.00
539.7050, 30919.00
540.8820, 30929.00
542.0590, 30893.00
543.2360, 30980.00
544.4130, 30997.84
545.5900, 31121.00
546.7660, 31107.00
547.9430, 31169.00
549.1190, 31223.00
550.2950, 31536.00
551.4710, 31504.16
552.6470, 31517.30
553.8220, 31586.00
554.9980, 31471.00
556.1730, 31457.00
557.3480, 31622.00
558.5230, 31660.00
559.6980, 31617.00
560.8730, 31694.00
562.0470, 31793.00
563.2220, 31799.00
564.3960, 32128.00
565.5700, 31899.00
566.7440, 32258.00
567.9170, 32335.00
569.0910, 32332.00
570.2640, 32631.00
571.4380, 32532.00
572.6110, 33058.00
573.7840, 33057.00
574.9570, 33236.00
576.1290, 33539.00
577.3020, 33726.00
578.4740, 34109.00
579.6460, 34379.00
580.8180, 34698.00
581.9900, 35003.00
583.1620, 35206.18
584.3330, 35352.00
585.5040, 35584.00
586.6760, 35633.00
587.8470, 35763.00
589.0180, 35349.00
590.1880, 35304.00
591.3590, 35338.00
592.5290, 34953.00
593.7000, 35116.00
594.8700, 35079.00
596.0400, 34777.00
597.2090, 34793.74
598.3790, 34544.00
599.5490, 34639.00
600.7180, 34357.00
601.8870, 34541.00
603.0560, 34621.00
604.2250, 34496.00
605.3940, 34420.00
606.5620, 34445.00
607.7300, 34554.00
608.8990, 34758.00
610.0670, 34549.00
611.2350, 34920.00
612.4020, 34957.00
613.5700, 34962.00
614.7370, 35380.00
615.9050, 35734.00
617.0720, 35614.00
618.2390, 36022.00
619.4060, 36116.00
620.5720, 36027.00
621.7390, 36503.00
622.9050, 36016.00
624.0710, 36269.00
625.2370, 36332.00
626.4030, 36143.00
627.5690, 36245.00
628.7340, 36110.93
629.9000, 36013.58
631.0650, 35874.00
632.2300, 35805.00
633.3950, 35625.00
634.5600, 35552.00
635.7240, 35326.00
636.8890, 35488.00
638.0530, 35562.00
639.2170, 35403.00
640.3810, 35218.00
641.5450, 35212.00
642.7080, 35149.00
643.8720, 35101.00
645.0350, 34777.00
646.1980, 34657.00
647.3610, 34441.00
648.5240, 34203.00
649.6870, 34533.00
650.8490, 34234.00
652.0120, 34377.00
653.1740, 34292.00
654.3360, 34230.00
655.4980, 34180.00
656.6600, 34016.00
657.8210, 33902.00
658.9830, 33870.00
660.1440, 34205.00
661.3050, 34219.00
662.4660, 34000.00
663.6270, 33984.00
664.7870, 33877.00
665.9480, 33922.00
667.1080, 33863.00
668.2680, 34143.00
669.4280, 34019.00
670.5880, 34318.00
671.7480, 34193.00
672.9070, 34308.00
674.0670, 34245.00
675.2260, 34118.00
676.3850, 34403.00
677.5440, 34490.00
678.7030, 34364.00
679.8610, 34308.00
681.0200, 34547.00
682.1780, 34348.00
683.3360, 34466.00
684.4940, 34309.00
685.6520, 34514.00
686.8090, 34460.00
687.9670, 34349.00
689.1240, 34565.00
690.2810, 34328.00
691.4380, 34456.00
692.5950, 34215.00
693.7520, 34328.00
694.9080, 34433.00
696.0650, 34316.00
697.2210, 34452.00
698.3770, 34275.00
699.5330, 34488.00
700.6880, 34477.00
701.8440, 34537.00
702.9990, 34528.00
704.1550, 34430.00
705.3100, 34555.00
706.4650, 34782.00
707.6190, 34620.00
708.7740, 34626.00
709.9290, 34533.00
711.0830, 34882.00
712.2370, 34829.00
713.3910, 34822.00
714.5450, 34856.00
715.6980, 34921.00
716.8520, 34819.00
718.0050, 34795.00
719.1580, 35001.00
720.3110, 34923.00
721.4640, 34888.00
722.6170, 35057.00
723.7700, 34983.00
724.9220, 35151.00
726.0740, 35040.00
727.2260, 35105.00
728.3780, 35023.00
729.5300, 35011.00
730.6810, 35460.00
731.8330, 35020.00
732.9840, 35166.00
734.1350, 35403.00
735.2860, 35217.00
736.4370, 35041.00
737.5880, 35157.00
738.7380, 35259.00
739.8880, 35317.00
741.0390, 35204.00
742.1890, 35139.00
743.3380, 35367.00
744.4880, 35559.00
745.6380, 35291.00
746.7870, 35436.00
747.9360, 35521.00
749.0850, 35287.00
750.2340, 35399.00
751.3830, 35510.00
752.5310, 35674.00
753.6800, 35642.00
754.8280, 35638.00
755.9760, 35701.00
757.1240, 35795.00
758.2720, 35913.00
759.4190, 35943.00
760.5670, 35781.00
761.7140, 36036.00
762.8610, 35909.00
764.0080, 35875.00
765.1550, 36045.00
766.3020, 36221.00
767.4480, 36015.00
768.5950, 36110.00
769.7410, 35792.00
770.8870, 36067.00
772.0330, 36251.00
773.1780, 36137.00
774.3240, 36266.00
775.4690, 36458.00
776.6140, 36383.00
777.7590, 36291.00
778.9040, 36278.00
780.0490, 36276.00
781.1940, 36562.00
782.3380, 36564.00
783.4820, 36483.00
784.6260, 36754.00
785.7700, 36589.00
786.9140, 36557.00
788.0580, 36623.00
789.2010, 36752.00
790.3450, 36566.00
791.4880, 36865.00
792.6310, 36628.00
793.7730, 36812.00
794.9160, 36913.00
796.0590, 36723.00
797.2010, 36959.00
798.3430, 36817.00
799.4850, 36898.00
800.6270, 36999.00
801.7690, 37072.00
802.9100, 37207.00
804.0520, 37092.00
805.1930, 37343.00
806.3340, 37146.00
807.4750, 37244.00
808.6160, 37445.00
809.7560, 37537.00
810.8970, 37625.00
812.0370, 37787.00
813.1770, 37485.00
814.3170, 37709.00
815.4570, 37543.00
816.5960, 37702.00
817.7360, 38047.00
818.8750, 37716.00
820.0140, 38068.00
821.1530, 37907.00
822.2920, 37935.00
823.4310, 38310.00
824.5690, 38097.00
825.7070, 38135.00
826.8460, 38311.00
827.9840, 38500.00
829.1220, 38246.00
830.2590, 38464.00
831.3970, 38468.21
832.5340, 38512.00
833.6710, 38630.00
834.8080, 38651.00
835.9450, 38801.00
837.0820, 38761.30
838.2190, 38530.00
839.3550, 38695.00
840.4910, 38725.00
841.6270, 38692.00
842.7630, 38859.00
843.8990, 38591.00
845.0350, 38716.00
846.1700, 38520.00
847.3060, 38874.00
848.4410, 38645.00
849.5760, 38780.00
850.7100, 38754.00
851.8450, 38627.00
852.9800, 38758.00
854.1140, 38526.00
855.2480, 38856.00
856.3820, 38600.00
857.5160, 38704.00
858.6500, 38993.00
859.7830, 39102.00
860.9170, 38572.00
862.0500, 38681.00
863.1830, 39031.00
864.3160, 38716.00
865.4480, 38867.00
866.5810, 38678.00
867.7130, 38762.00
868.8460, 38948.00
869.9780, 38791.00
871.1100, 38962.00
872.2410, 39258.00
873.3730, 38964.00
874.5050, 38971.00
875.6360, 39108.00
876.7670, 39078.00
877.8980, 39210.00
879.0290, 39280.00
880.1590, 38962.00
881.2900, 39024.00
882.4200, 39169.00
883.5500, 39230.00
884.6800, 39283.00
885.8100, 39297.00
886.9400, 39431.00
888.0690, 39423.00
889.1990, 39445.00
890.3280, 39500.49
891.4570, 39687.00
892.5860, 39571.00
893.7140, 39465.00
894.8430, 39523.00
895.9710, 39289.00
897.1000, 39575.00
898.2280, 39571.00
899.3560, 39866.00
900.4830, 39452.00
901.6110, 39718.00
902.7380, 39852.00
903.8660, 39689.00
904.9930, 39861.00
906.1200, 39749.00
907.2460, 39960.00
908.3730, 39686.00
909.5000, 39933.00
910.6260, 39995.00
911.7520, 39977.00
912.8780, 40089.00
914.0040, 40096.00
915.1290, 40041.00
916.2550, 40047.00
917.3800, 40191.00
918.5050, 40095.00
919.6300, 40247.00
920.7550, 40118.00
921.8800, 40187.00
923.0040, 40211.00
924.1290, 40423.00
925.2530, 40361.00
926.3770, 40423.00
927.5010, 40342.00
928.6250, 40432.00
929.7480, 40658.00
930.8720, 40343.00
931.9950, 40630.00
933.1180, 40637.00
934.2410, 40697.00
935.3640, 40563.00
936.4860, 40471.00
937.6090, 40536.41
938.7310, 40724.00
939.8530, 40700.00
940.9750, 40751.00
942.0970, 40825.41
943.2180, 40908.00
944.3400, 40905.00
945.4610, 40906.00
946.5820, 40923.66
947.7030, 41124.00
948.8240, 41075.00
949.9450, 41106.00
951.0650, 41275.00
952.1860, 41238.00
953.3060, 41259.00
954.4260, 41331.00
955.5460, 41413.00
956.6650, 41408.46
957.7850, 41448.00
958.9040, 41386.00
960.0230, 41406.00
961.1420, 41320.00
962.2610, 41527.00
963.3800, 41419.00
964.4990, 41714.00
965.6170, 41722.00
966.7350, 41652.00
967.8530, 41760.00
968.9710, 41886.00
970.0890, 41874.00
971.2070, 42006.00
972.3240, 42037.00
973.4410, 41890.00
974.5580, 42145.00
975.6750, 42087.00
976.7920, 42334.00
977.9090, 41972.00
979.0250, 42035.00
980.1410, 42120.00
981.2580, 42414.00
982.3740, 42212.00
983.4890, 42423.00
984.6050, 42267.00
985.7200, 42379.00
986.8360, 42563.00
987.9510, 42596.00
989.0660, 42583.00
990.1810, 42519.00
991.2950, 42813.00
992.4100, 42785.00
993.5240, 43100.00
994.6390, 43174.00
995.7530, 43085.00
996.8660, 43138.00
997.9800, 43538.00
999.0940, 43201.00
1000.207, 43573.00
1001.320, 43763.00
1002.433, 43807.00
1003.546, 44006.86
1004.659, 44176.00
1005.772, 44199.00
1006.884, 44471.00
1007.996, 44624.00
1009.108, 44497.00
1010.220, 44836.00
1011.332, 44998.00
1012.444, 45453.00
1013.555, 45431.00
1014.666, 45279.00
1015.777, 45506.00
1016.888, 45763.00
1017.999, 45881.00
1019.110, 46288.00
1020.220, 46268.00
1021.331, 46775.00
1022.441, 46730.00
1023.551, 47069.00
1024.661, 47310.00
1025.770, 47974.00
1026.880, 48483.00
1027.989, 49050.00
1029.098, 49517.00
1030.207, 50235.00
1031.316, 51221.00
1032.425, 51792.00
1033.533, 52319.00
1034.642, 52575.00
1035.750, 53077.00
1036.858, 53096.00
1037.966, 52964.00
1039.073, 52744.00
1040.181, 51897.00
1041.288, 51340.00
1042.396, 50622.00
1043.503, 49999.00
1044.610, 49154.00
1045.716, 48549.00
1046.823, 48163.00
1047.929, 47522.00
1049.036, 47296.00
1050.142, 47171.00
1051.248, 46860.00
1052.353, 46624.00
1053.459, 46551.57
1054.564, 46390.08
1055.670, 46427.00
1056.775, 46263.00
1057.880, 46254.00
1058.985, 46208.00
1060.089, 46199.00
1061.194, 46281.00
1062.298, 46298.82
1063.402, 47058.00
1064.506, 46543.00
1065.610, 46800.00
1066.713, 47173.00
1067.817, 46985.00
1068.920, 47047.00
1070.023, 46449.00
1071.126, 46589.00
1072.229, 46413.00
1073.332, 46154.00
1074.435, 45894.00
1075.537, 45835.00
1076.639, 45671.90
1077.741, 45747.00
1078.843, 45564.00
1079.945, 45561.00
1081.046, 45611.00
1082.148, 45538.00
1083.249, 45335.00
1084.350, 45617.00
1085.451, 45475.00
1086.551, 45671.00
1087.652, 45676.41
1088.752, 45608.00
1089.853, 45666.00
1090.953, 45616.77
1092.053, 45832.00
1093.152, 45633.00
1094.252, 45748.00
1095.351, 45908.00
1096.451, 45825.00
1097.550, 45873.00
1098.649, 45757.00
1099.748, 45702.00
1100.846, 45872.00
1101.945, 45818.00
1103.043, 45778.00
1104.141, 45831.00
1105.239, 45866.00
1106.337, 46150.00
1107.434, 46097.00
1108.532, 45883.00
1109.629, 46156.00
1110.726, 46145.00
1111.823, 46417.00
1112.920, 46274.00
1114.017, 46168.00
1115.113, 46441.00
1116.210, 46470.00
1117.306, 46405.00
1118.402, 46374.00
1119.498, 46433.43
1120.593, 46596.00
1121.689, 46567.00
1122.784, 46611.00
1123.879, 46721.00
1124.974, 46752.00
1126.069, 46872.00
1127.164, 46896.00
1128.259, 46452.00
1129.353, 46444.00
1130.447, 46644.00
1131.541, 46670.00
1132.635, 46843.00
1133.729, 47046.00
1134.822, 46979.00
1135.916, 46831.00
1137.009, 47131.00
1138.102, 47077.00
1139.195, 46927.00
1140.288, 47725.00
1141.380, 47426.00
1142.473, 47582.00
1143.565, 47367.00
1144.657, 47507.00
1145.749, 47611.00
1146.841, 47940.00
1147.932, 48016.34
1149.024, 47912.00
1150.115, 48340.00
1151.206, 48405.00
1152.297, 48636.00
1153.388, 48781.00
1154.479, 48984.00
1155.569, 48964.00
1156.659, 48984.30
1157.750, 48806.00
1158.839, 48758.00
1159.929, 48634.00
1161.019, 48314.00
1162.108, 48115.00
1163.198, 48220.00
1164.287, 48071.00
1165.376, 47586.00
1166.465, 48294.00
1167.553, 47940.00
1168.642, 48007.00
1169.730, 48347.00
1170.818, 48065.00
1171.906, 48185.00
1172.994, 48154.00
1174.082, 47953.00
1175.170, 48251.00
1176.257, 48330.00
1177.344, 48264.00
1178.431, 48073.00
1179.518, 48283.00
1180.605, 48273.00
1181.691, 48113.00
1182.778, 48601.00
1183.864, 48586.00
1184.950, 48594.00
1186.036, 48651.00
1187.122, 48613.00
1188.207, 48504.00
1189.292, 48808.00
1190.378, 48744.00
1191.463, 48609.00
1192.548, 48830.00
1193.632, 48994.00
1194.717, 48798.00
1195.801, 48869.00
1196.886, 48765.00
1197.970, 48638.00
1199.054, 48822.64
1200.137, 49137.00
1201.221, 49059.00
1202.305, 49104.00
1203.388, 49058.00
1204.471, 49042.00
1205.554, 48953.00
1206.637, 49163.00
1207.719, 49340.00
1208.802, 49215.00
1209.884, 49111.00
1210.966, 49204.00
1212.048, 49605.00
1213.130, 48948.00
1214.212, 49433.00
1215.293, 49274.00
1216.374, 49575.00
1217.456, 49843.00
1218.536, 49795.00
1219.617, 49444.00
1220.698, 49480.00
1221.778, 49496.00
1222.859, 49426.00
1223.939, 49508.00
1225.019, 49691.00
1226.099, 49742.00
1227.178, 49737.00
1228.258, 50003.00
1229.337, 50027.17
1230.417, 50007.12
1231.496, 50164.00
1232.574, 50043.00
1233.653, 49916.00
1234.732, 50242.00
1235.810, 49868.00
1236.888, 50059.00
1237.966, 50175.00
1239.044, 50206.00
1240.122, 50515.00
1241.199, 50490.00
1242.277, 50723.00
1243.354, 50362.00
1244.431, 50379.00
1245.508, 50595.00
1246.585, 50499.00
1247.661, 50504.00
1248.738, 50762.00
1249.814, 50799.00
1250.890, 50850.00
1251.966, 50785.00
1253.042, 50823.00
1254.117, 50647.00
1255.193, 50662.82
1256.268, 50700.00
1257.343, 50609.00
1258.418, 50884.00
1259.493, 50904.00
1260.567, 50925.00
1261.642, 50976.00
1262.716, 51317.00
1263.790, 51101.00
1264.864, 50988.00
1265.938, 51501.00
1267.011, 51204.00
1268.085, 51276.00
1269.158, 51177.00
1270.231, 51388.00
1271.304, 51356.00
1272.377, 51311.00
1273.450, 51495.00
1274.522, 51495.00
1275.594, 51472.00
1276.666, 51628.00
1277.738, 51397.00
1278.810, 51759.00
1279.882, 51675.00
1280.953, 51511.00
