##NAMES=Senegalite
##RRUFFID=R050239
##IDEAL CHEMISTRY=Al_2_PO_4_(OH)_3_&#183;H_2_O
##LOCALITY=Kourondicko iron ore (magnetite) deposit, Faleme River Basin, Senegal
##OWNER=RRUFF
##SOURCE=Marcus Origlieri
##DESCRIPTION=Colorless prismatic crystals
##STATUS=The identification of this mineral has been confirmed by X-ray diffraction and chemical analysis
##URL=rruff.info/R050239
##MEASURED CHEMISTRY=Al_2.00_P_1.00_O_4_(OH)_3_Â·H_2_O
##PIN_ID=M00389
##ORIENTATION=Laser parallel to -b* (0 -1 0). Fiducial mark perpendicular to laser is parallel to -c [0 0 -1]
102.1160, 16133.00
103.3490, 16058.00
104.5820, 15935.00
105.8150, 15916.00
107.0470, 16005.00
108.2800, 15991.00
109.5120, 16064.88
110.7440, 16217.00
111.9760, 16234.00
113.2080, 16206.00
114.4400, 16345.25
115.6710, 16375.71
116.9030, 16674.00
118.1340, 16610.00
119.3650, 16803.00
120.5960, 17068.00
121.8270, 17068.00
123.0580, 17204.00
124.2880, 17447.00
125.5190, 17422.00
126.7490, 17598.00
127.9790, 17692.00
129.2090, 17904.00
130.4390, 18054.00
131.6680, 18504.00
132.8980, 18488.00
134.1270, 18634.00
135.3560, 18499.00
136.5850, 18448.00
137.8140, 18463.00
139.0430, 18451.00
140.2710, 18517.00
141.5000, 18426.00
142.7280, 18744.00
143.9560, 18849.00
145.1840, 18838.00
146.4120, 18924.00
147.6390, 18919.00
148.8670, 18823.00
150.0940, 18736.00
151.3210, 18854.00
152.5490, 18683.00
153.7750, 18694.00
155.0020, 18881.00
156.2290, 18830.00
157.4550, 18981.00
158.6810, 18921.00
159.9080, 19020.00
161.1340, 19113.00
162.3590, 19063.00
163.5850, 19187.00
164.8110, 19309.00
166.0360, 19311.00
167.2610, 19305.00
168.4860, 19528.00
169.7110, 19332.00
170.9360, 19409.00
172.1610, 19394.00
173.3850, 19302.00
174.6100, 19324.00
175.8340, 19467.00
177.0580, 19644.00
178.2820, 19615.00
179.5050, 19723.89
180.7290, 19659.00
181.9520, 19773.00
183.1760, 19854.00
184.3990, 19836.00
185.6220, 19966.00
186.8450, 20119.00
188.0670, 20190.00
189.2900, 20323.00
190.5120, 20499.00
191.7340, 20706.00
192.9560, 20905.00
194.1780, 20964.00
195.4000, 20933.00
196.6220, 20812.00
197.8430, 20986.00
199.0640, 20792.00
200.2860, 21045.00
201.5070, 21140.00
202.7270, 21149.00
203.9480, 21041.00
205.1690, 20982.54
206.3890, 20739.00
207.6090, 20699.00
208.8290, 20511.00
210.0490, 20353.00
211.2690, 20365.00
212.4890, 20353.00
213.7080, 20416.00
214.9280, 20455.00
216.1470, 20562.00
217.3660, 20527.00
218.5850, 20647.00
219.8030, 20579.00
221.0220, 20732.00
222.2400, 20808.00
223.4590, 20966.00
224.6770, 21267.00
225.8950, 21213.00
227.1120, 21591.00
228.3300, 21539.00
229.5480, 21910.00
230.7650, 22193.00
231.9820, 22276.00
233.1990, 22111.00
234.4160, 22210.00
235.6330, 22090.00
236.8490, 21853.00
238.0660, 21970.00
239.2820, 22125.00
240.4980, 21907.00
241.7140, 21910.00
242.9300, 21783.00
244.1460, 21673.00
245.3610, 21488.00
246.5770, 21372.00
247.7920, 21275.00
249.0070, 21245.38
250.2220, 21200.12
251.4370, 21293.00
252.6510, 21231.00
253.8660, 21302.00
255.0800, 21422.00
256.2940, 21357.00
257.5080, 21643.00
258.7220, 21580.00
259.9360, 21591.00
261.1490, 21847.00
262.3630, 21616.00
263.5760, 21914.00
264.7890, 21759.00
266.0020, 21980.00
267.2150, 22150.00
268.4270, 22230.00
269.6400, 22260.00
270.8520, 22424.00
272.0640, 22793.00
273.2760, 22734.00
274.4880, 22844.00
275.7000, 22704.00
276.9120, 22907.00
278.1230, 22786.00
279.3340, 22613.00
280.5450, 22599.00
281.7560, 22587.00
282.9670, 22568.00
284.1780, 22872.00
285.3880, 22914.00
286.5980, 23023.00
287.8090, 23221.00
289.0190, 23382.00
290.2290, 23602.00
291.4380, 23803.00
292.6480, 24070.00
293.8570, 23822.00
295.0670, 23928.00
296.2760, 23460.00
297.4850, 23569.00
298.6930, 23300.00
299.9020, 23530.00
301.1110, 23419.00
302.3190, 23522.00
303.5270, 23330.00
304.7350, 23277.00
305.9430, 23326.00
307.1510, 23137.00
308.3580, 23230.00
309.5660, 23015.00
310.7730, 23271.00
311.9800, 23345.00
313.1870, 23303.00
314.3940, 23496.00
315.6010, 23494.00
316.8070, 23470.00
318.0130, 23523.00
319.2200, 23545.00
320.4260, 23799.00
321.6310, 23754.00
322.8370, 24064.00
324.0430, 24156.00
325.2480, 24270.00
326.4540, 24434.00
327.6590, 24311.00
328.8640, 24589.00
330.0680, 24365.00
331.2730, 24447.00
332.4780, 24254.00
333.6820, 24061.00
334.8860, 24121.00
336.0900, 23931.00
337.2940, 23634.00
338.4980, 23781.00
339.7010, 23771.00
340.9050, 23830.00
342.1080, 23937.00
343.3110, 23967.00
344.5140, 23946.00
345.7170, 23937.49
346.9200, 23897.30
348.1220, 23834.00
349.3240, 23792.00
350.5270, 23768.00
351.7290, 23728.00
352.9310, 24106.00
354.1320, 23980.00
355.3340, 24252.00
356.5350, 24089.00
357.7370, 24379.00
358.9380, 24448.00
360.1390, 24723.00
361.3400, 24776.00
362.5400, 24969.00
363.7410, 25111.00
364.9410, 25189.00
366.1410, 25400.00
367.3410, 25231.00
368.5410, 25312.00
369.7410, 25221.00
370.9400, 25337.00
372.1400, 25292.53
373.3390, 25064.00
374.5380, 25194.00
375.7370, 25087.00
376.9360, 24902.00
378.1350, 24794.00
379.3330, 24718.00
380.5310, 24567.00
381.7300, 24707.00
382.9280, 24628.00
384.1260, 24647.00
385.3230, 24624.00
386.5210, 24511.00
387.7180, 24545.00
388.9160, 24575.00
390.1130, 24677.00
391.3100, 24750.00
392.5060, 24613.00
393.7030, 24750.00
394.9000, 24534.00
396.0960, 24749.00
397.2920, 24811.00
398.4880, 24890.00
399.6840, 24810.00
400.8800, 24933.00
402.0750, 24928.00
403.2710, 24801.00
404.4660, 24849.00
405.6610, 24944.00
406.8560, 24966.00
408.0510, 25011.00
409.2450, 24848.00
410.4400, 25213.00
411.6340, 25202.00
412.8280, 25065.00
414.0220, 25293.00
415.2160, 25306.00
416.4100, 25247.00
417.6030, 25404.00
418.7970, 25630.00
419.9900, 25584.00
421.1830, 25646.00
422.3760, 25853.00
423.5690, 25884.00
424.7610, 25959.00
425.9540, 26059.00
427.1460, 26029.00
428.3380, 26068.00
429.5300, 26389.00
430.7220, 26381.00
431.9140, 26553.00
433.1050, 26658.00
434.2970, 26820.00
435.4880, 26923.00
436.6790, 26995.00
437.8700, 27254.00
439.0610, 27388.00
440.2510, 27431.00
441.4420, 27434.00
442.6320, 27568.00
443.8220, 27443.00
445.0120, 27374.00
446.2020, 27547.00
447.3910, 27505.00
448.5810, 27392.00
449.7700, 27539.00
450.9600, 27237.00
452.1490, 27127.00
453.3370, 27291.00
454.5260, 27120.00
455.7150, 27140.00
456.9030, 27138.00
458.0910, 26960.00
459.2800, 27312.00
460.4670, 27258.00
461.6550, 27242.00
462.8430, 27416.00
464.0300, 27700.00
465.2180, 27983.00
466.4050, 27889.00
467.5920, 27937.00
468.7790, 28256.00
469.9650, 28617.00
471.1520, 28835.00
472.3380, 29249.00
473.5250, 29486.00
474.7110, 29865.00
475.8970, 30048.00
477.0820, 30225.00
478.2680, 30341.00
479.4540, 30272.00
480.6390, 29488.00
481.8240, 29237.00
483.0090, 28785.00
484.1940, 28473.00
485.3780, 27910.00
486.5630, 27716.00
487.7470, 27611.00
488.9320, 27272.00
490.1160, 27294.00
491.3000, 27271.00
492.4830, 27564.00
493.6670, 27199.00
494.8500, 27388.00
496.0340, 27287.00
497.2170, 27472.00
498.4000, 27450.00
499.5820, 27294.00
500.7650, 27224.00
501.9480, 27182.00
503.1300, 27271.00
504.3120, 27191.00
505.4940, 27472.00
506.6760, 27102.00
507.8580, 27221.00
509.0390, 27406.00
510.2210, 27281.00
511.4020, 27128.00
512.5830, 27241.00
513.7640, 27254.00
514.9450, 27334.00
516.1250, 27120.00
517.3060, 27429.00
518.4860, 27495.00
519.6660, 27199.00
520.8460, 27285.00
522.0260, 27350.00
523.2060, 27171.00
524.3850, 27491.00
525.5650, 27493.00
526.7440, 27710.00
527.9230, 27560.00
529.1020, 27377.00
530.2810, 27695.00
531.4590, 27630.00
532.6380, 27687.00
533.8160, 27915.00
534.9940, 27849.00
536.1720, 27918.00
537.3500, 28289.00
538.5270, 28086.00
539.7050, 28198.00
540.8820, 28368.00
542.0590, 28223.00
543.2360, 28461.00
544.4130, 28463.00
545.5900, 28598.00
546.7660, 28737.00
547.9430, 28461.00
549.1190, 28775.00
550.2950, 28753.00
551.4710, 28444.00
552.6470, 28641.00
553.8220, 28526.00
554.9980, 28668.00
556.1730, 28711.00
557.3480, 28833.00
558.5230, 28687.00
559.6980, 28807.00
560.8730, 28823.00
562.0470, 28648.00
563.2220, 28813.00
564.3960, 28906.00
565.5700, 28581.00
566.7440, 28627.00
567.9170, 28894.00
569.0910, 28873.00
570.2640, 28992.27
571.4380, 28848.00
572.6110, 29056.00
573.7840, 28881.00
574.9570, 28739.00
576.1290, 29051.00
577.3020, 28801.00
578.4740, 28827.00
579.6460, 28858.00
580.8180, 28707.00
581.9900, 28960.00
583.1620, 28719.00
584.3330, 28973.00
585.5040, 28773.00
586.6760, 29106.00
587.8470, 28970.00
589.0180, 28877.00
590.1880, 28954.00
591.3590, 28935.00
592.5290, 28957.00
593.7000, 29161.00
594.8700, 29120.00
596.0400, 29228.00
597.2090, 29211.00
598.3790, 29155.00
599.5490, 29497.00
600.7180, 29348.00
601.8870, 29334.00
603.0560, 29557.00
604.2250, 29803.00
605.3940, 29791.00
606.5620, 29951.00
607.7300, 29867.00
608.8990, 30051.00
610.0670, 29960.00
611.2350, 30168.00
612.4020, 30223.00
613.5700, 30269.00
614.7370, 30728.00
615.9050, 30314.00
617.0720, 30704.00
618.2390, 30421.00
619.4060, 30523.00
620.5720, 30548.00
621.7390, 30836.00
622.9050, 30641.00
624.0710, 30771.00
625.2370, 30431.00
626.4030, 30455.00
627.5690, 30652.00
628.7340, 30531.00
629.9000, 30160.00
631.0650, 30288.00
632.2300, 30100.00
633.3950, 30069.00
634.5600, 30146.00
635.7240, 30104.62
636.8890, 30140.04
638.0530, 30222.00
639.2170, 30170.00
640.3810, 30259.00
641.5450, 30248.00
642.7080, 30395.00
643.8720, 30278.00
645.0350, 30145.00
646.1980, 30246.00
647.3610, 30278.00
648.5240, 30089.00
649.6870, 30239.00
650.8490, 30111.00
652.0120, 30162.00
653.1740, 30229.00
654.3360, 30164.00
655.4980, 30070.00
656.6600, 30115.00
657.8210, 30202.00
658.9830, 30099.00
660.1440, 30090.00
661.3050, 29995.00
662.4660, 30003.00
663.6270, 30179.00
664.7870, 30233.00
665.9480, 30271.00
667.1080, 30373.00
668.2680, 30368.00
669.4280, 30464.00
670.5880, 30528.00
671.7480, 30755.00
672.9070, 30613.00
674.0670, 30817.00
675.2260, 30580.00
676.3850, 30577.00
677.5440, 30603.00
678.7030, 30560.00
679.8610, 30769.00
681.0200, 30429.00
682.1780, 30711.00
683.3360, 30408.00
684.4940, 30676.00
685.6520, 30485.00
686.8090, 30699.00
687.9670, 30794.00
689.1240, 30659.00
690.2810, 30683.00
691.4380, 30988.00
692.5950, 30904.00
693.7520, 31016.00
694.9080, 31065.00
696.0650, 31059.00
697.2210, 31276.00
698.3770, 31152.00
699.5330, 31155.00
700.6880, 31284.00
701.8440, 31363.00
702.9990, 31390.00
704.1550, 31448.00
705.3100, 31429.00
706.4650, 31287.00
707.6190, 31397.00
708.7740, 31250.00
709.9290, 31251.00
711.0830, 31207.00
712.2370, 31132.00
713.3910, 31139.00
714.5450, 31120.85
715.6980, 31040.00
716.8520, 31122.00
718.0050, 31176.00
719.1580, 31144.00
720.3110, 31229.44
721.4640, 31252.00
722.6170, 31326.00
723.7700, 31385.00
724.9220, 31434.22
726.0740, 31428.00
727.2260, 31366.00
728.3780, 31456.00
729.5300, 31297.00
730.6810, 31378.00
731.8330, 31251.00
732.9840, 31639.00
734.1350, 31500.00
735.2860, 31518.00
736.4370, 31547.00
737.5880, 31546.00
738.7380, 31605.34
739.8880, 31751.00
741.0390, 31750.00
742.1890, 31589.00
743.3380, 31714.00
744.4880, 31666.00
745.6380, 31857.00
746.7870, 31584.00
747.9360, 31801.00
749.0850, 31827.00
750.2340, 31819.00
751.3830, 31990.00
752.5310, 31948.00
753.6800, 31796.00
754.8280, 31616.00
755.9760, 31773.00
757.1240, 31829.00
758.2720, 31755.00
759.4190, 32096.00
760.5670, 32051.00
761.7140, 31971.00
762.8610, 32080.00
764.0080, 31900.00
765.1550, 32137.00
766.3020, 32114.00
767.4480, 32034.00
768.5950, 32451.00
769.7410, 32132.00
770.8870, 32254.00
772.0330, 32152.00
773.1780, 32294.00
774.3240, 32415.00
775.4690, 32359.00
776.6140, 32351.00
777.7590, 32343.00
778.9040, 32380.00
780.0490, 32242.00
781.1940, 32493.00
782.3380, 32410.00
783.4820, 32456.00
784.6260, 32967.00
785.7700, 32527.00
786.9140, 32725.00
788.0580, 32513.00
789.2010, 32602.00
790.3450, 32997.00
791.4880, 32761.00
792.6310, 32562.00
793.7730, 32795.00
794.9160, 32824.00
796.0590, 32771.00
797.2010, 32736.00
798.3430, 32875.00
799.4850, 33016.00
800.6270, 32903.00
801.7690, 32984.00
802.9100, 32899.00
804.0520, 33013.00
805.1930, 32910.00
806.3340, 33115.00
807.4750, 33452.00
808.6160, 33176.00
809.7560, 33168.00
810.8970, 33377.00
812.0370, 33202.00
813.1770, 33421.00
814.3170, 33483.00
815.4570, 33541.00
816.5960, 33506.00
817.7360, 33486.00
818.8750, 33503.00
820.0140, 33515.29
821.1530, 33530.33
822.2920, 33579.00
823.4310, 33590.00
824.5690, 33606.00
825.7070, 33654.00
826.8460, 33732.00
827.9840, 33673.00
829.1220, 33718.00
830.2590, 33627.00
831.3970, 33646.83
832.5340, 33770.00
833.6710, 33683.00
834.8080, 33823.00
835.9450, 33926.00
837.0820, 34014.00
838.2190, 33840.00
839.3550, 34020.00
840.4910, 33877.00
841.6270, 34131.00
842.7630, 34354.00
843.8990, 34106.00
845.0350, 34387.00
846.1700, 34187.00
847.3060, 34211.00
848.4410, 33837.00
849.5760, 34236.00
850.7100, 34158.00
851.8450, 34237.00
852.9800, 34296.00
854.1140, 34676.00
855.2480, 34414.00
856.3820, 34193.00
857.5160, 34687.00
858.6500, 34823.00
859.7830, 34670.00
860.9170, 34783.00
862.0500, 34376.00
863.1830, 34662.00
864.3160, 34623.00
865.4480, 34810.00
866.5810, 34701.00
867.7130, 34622.00
868.8460, 34833.00
869.9780, 34704.00
871.1100, 34800.00
872.2410, 34767.00
873.3730, 34890.00
874.5050, 34785.00
875.6360, 34785.00
876.7670, 34952.00
877.8980, 34904.00
879.0290, 35032.00
880.1590, 35039.97
881.2900, 35204.00
882.4200, 35100.00
883.5500, 35191.00
884.6800, 35320.00
885.8100, 35278.00
886.9400, 35205.00
888.0690, 34962.00
889.1990, 35195.00
890.3280, 35171.00
891.4570, 35362.00
892.5860, 35217.00
893.7140, 35493.00
894.8430, 35281.00
895.9710, 35443.00
897.1000, 35445.00
898.2280, 35392.00
899.3560, 35627.00
900.4830, 35512.00
901.6110, 35259.00
902.7380, 35322.00
903.8660, 35524.00
904.9930, 35572.00
906.1200, 35680.00
907.2460, 35683.00
908.3730, 35556.00
909.5000, 35578.00
910.6260, 35637.00
911.7520, 35662.00
912.8780, 35657.00
914.0040, 35653.82
915.1290, 35758.00
916.2550, 35720.00
917.3800, 35825.00
918.5050, 36136.00
919.6300, 36011.00
920.7550, 35654.00
921.8800, 36114.00
923.0040, 35865.00
924.1290, 35957.00
925.2530, 36023.00
926.3770, 36045.00
927.5010, 36308.00
928.6250, 36170.00
929.7480, 36309.00
930.8720, 36231.00
931.9950, 36190.00
933.1180, 36295.00
934.2410, 36417.00
935.3640, 36364.00
936.4860, 36366.00
937.6090, 36628.00
938.7310, 36468.00
939.8530, 36533.00
940.9750, 36616.00
942.0970, 36589.00
943.2180, 36519.00
944.3400, 36575.00
945.4610, 36593.00
946.5820, 36655.00
947.7030, 36845.00
948.8240, 36790.00
949.9450, 36742.00
951.0650, 37002.00
952.1860, 36986.00
953.3060, 36890.00
954.4260, 36788.00
955.5460, 37050.00
956.6650, 37104.00
957.7850, 37138.00
958.9040, 37152.00
960.0230, 36996.00
961.1420, 37170.00
962.2610, 37027.00
963.3800, 36987.00
964.4990, 37151.00
965.6170, 37139.00
966.7350, 37141.00
967.8530, 37358.00
968.9710, 37149.00
970.0890, 37365.00
971.2070, 37197.00
972.3240, 37705.00
973.4410, 37353.00
974.5580, 37812.00
975.6750, 37630.00
976.7920, 37529.00
977.9090, 37496.00
979.0250, 37651.00
980.1410, 37773.00
981.2580, 37667.00
982.3740, 37578.00
983.4890, 37976.00
984.6050, 37976.00
985.7200, 38139.00
986.8360, 38293.00
987.9510, 38189.00
989.0660, 38030.00
990.1810, 37943.00
991.2950, 38320.00
992.4100, 38300.00
993.5240, 38540.00
994.6390, 38579.00
995.7530, 38729.00
996.8660, 38562.00
997.9800, 38711.00
999.0940, 38699.00
1000.207, 38802.00
1001.320, 38765.00
1002.433, 39158.00
1003.546, 38805.00
1004.659, 39247.00
1005.772, 39035.00
1006.884, 39427.00
1007.996, 39454.00
1009.108, 39494.00
1010.220, 39846.00
1011.332, 39917.00
1012.444, 40102.00
1013.555, 40426.00
1014.666, 40363.00
1015.777, 40728.00
1016.888, 40786.00
1017.999, 41188.00
1019.110, 40998.00
1020.220, 41600.00
1021.331, 41572.00
1022.441, 42114.00
1023.551, 42215.00
1024.661, 42690.00
1025.770, 42820.00
1026.880, 43029.76
1027.989, 43345.00
1029.098, 43299.00
1030.207, 43172.00
1031.316, 43116.00
1032.425, 42855.00
1033.533, 42811.00
1034.642, 42056.00
1035.750, 41793.00
1036.858, 41621.00
1037.966, 41110.00
1039.073, 41005.00
1040.181, 41083.00
1041.288, 40737.00
1042.396, 40753.00
1043.503, 40532.00
1044.610, 40520.00
1045.716, 40215.00
1046.823, 40487.00
1047.929, 40165.00
1049.036, 39910.00
1050.142, 40067.00
1051.248, 40144.00
1052.353, 40433.00
1053.459, 40433.00
1054.564, 40588.00
1055.670, 40607.00
1056.775, 40610.00
1057.880, 40510.00
1058.985, 40704.00
1060.089, 40733.00
1061.194, 40877.00
1062.298, 41037.00
1063.402, 41251.00
1064.506, 41305.00
1065.610, 41354.93
1066.713, 41117.00
1067.817, 41220.00
1068.920, 41100.00
1070.023, 40786.00
1071.126, 41039.00
1072.229, 41000.00
1073.332, 41154.00
1074.435, 41193.00
1075.537, 41112.00
1076.639, 41372.00
1077.741, 41505.00
1078.843, 41406.00
1079.945, 41409.00
1081.046, 41516.00
1082.148, 41442.00
1083.249, 41237.00
1084.350, 41489.00
1085.451, 41271.00
1086.551, 41018.00
1087.652, 41424.00
1088.752, 41184.00
1089.853, 41141.00
1090.953, 40813.00
1092.053, 41184.00
1093.152, 40901.00
1094.252, 41348.00
1095.351, 41149.00
1096.451, 41104.00
1097.550, 41252.00
1098.649, 41314.00
1099.748, 41372.00
1100.846, 41432.00
1101.945, 41441.58
1103.043, 41372.00
1104.141, 41462.00
1105.239, 41375.00
1106.337, 41409.00
1107.434, 41636.00
1108.532, 41637.00
1109.629, 41445.00
1110.726, 41692.00
1111.823, 41540.00
1112.920, 41433.00
1114.017, 41653.00
1115.113, 41433.00
1116.210, 41670.00
1117.306, 41873.00
1118.402, 41738.00
1119.498, 42007.00
1120.593, 41975.00
1121.689, 41948.00
1122.784, 41981.00
1123.879, 41982.05
1124.974, 42088.00
1126.069, 42088.00
1127.164, 42178.00
1128.259, 42341.00
1129.353, 42239.00
1130.447, 42168.00
1131.541, 42442.00
1132.635, 42521.00
1133.729, 42457.00
1134.822, 42512.00
1135.916, 42519.00
1137.009, 42556.00
1138.102, 42646.00
1139.195, 42645.00
1140.288, 42673.00
1141.380, 42918.00
1142.473, 42628.00
1143.565, 42981.00
1144.657, 42774.00
1145.749, 42952.00
1146.841, 42960.00
1147.932, 42969.00
1149.024, 43118.00
1150.115, 43179.00
1151.206, 43531.00
1152.297, 43438.00
1153.388, 43271.00
1154.479, 43682.00
1155.569, 43316.00
1156.659, 43474.00
1157.750, 43350.00
1158.839, 43359.00
1159.929, 43325.00
1161.019, 43484.00
1162.108, 43064.00
1163.198, 43158.00
1164.287, 43194.00
1165.376, 43350.00
1166.465, 43515.00
1167.553, 43462.00
1168.642, 43345.00
1169.730, 43393.00
1170.818, 43786.00
1171.906, 43623.00
1172.994, 43660.00
1174.082, 43659.00
1175.170, 43583.00
1176.257, 43624.00
1177.344, 43693.00
1178.431, 43700.00
1179.518, 43804.00
1180.605, 43841.00
1181.691, 43793.00
1182.778, 44072.00
1183.864, 43882.00
1184.950, 43886.00
1186.036, 44148.00
1187.122, 44124.00
1188.207, 43971.00
1189.292, 44326.00
1190.378, 44117.00
1191.463, 44182.00
1192.548, 44329.00
1193.632, 44425.00
1194.717, 44457.00
1195.801, 44318.00
1196.886, 44525.00
1197.970, 44164.00
1199.054, 44561.00
1200.137, 44735.00
1201.221, 44219.00
1202.305, 44692.00
1203.388, 44782.00
1204.471, 44686.00
1205.554, 44648.00
1206.637, 44808.00
1207.719, 44955.00
1208.802, 44797.00
1209.884, 44917.00
1210.966, 44744.00
1212.048, 45034.00
1213.130, 44964.00
1214.212, 45095.00
1215.293, 44845.00
1216.374, 44842.00
1217.456, 45123.00
1218.536, 45141.00
1219.617, 45183.00
1220.698, 45319.59
1221.778, 45350.00
1222.859, 45429.00
1223.939, 45371.00
1225.019, 45337.00
1226.099, 45472.00
1227.178, 45316.00
1228.258, 45582.00
1229.337, 45721.00
1230.417, 45463.00
1231.496, 45588.00
1232.574, 45621.00
1233.653, 45743.00
1234.732, 45773.08
1235.810, 45613.00
1236.888, 45936.00
1237.966, 45645.00
1239.044, 45911.00
1240.122, 45632.00
1241.199, 45814.00
1242.277, 45890.00
1243.354, 45905.00
1244.431, 46075.00
1245.508, 46004.00
1246.585, 46051.00
1247.661, 46153.00
1248.738, 46365.00
1249.814, 46038.00
1250.890, 46217.00
1251.966, 46380.00
1253.042, 46230.00
1254.117, 46491.00
1255.193, 46403.00
1256.268, 46321.00
1257.343, 46422.00
1258.418, 46711.00
1259.493, 46437.00
1260.567, 46524.00
1261.642, 46389.00
1262.716, 46781.00
1263.790, 46656.00
1264.864, 46883.00
1265.938, 46853.00
1267.011, 46685.00
1268.085, 47037.00
1269.158, 46992.00
1270.231, 46901.00
1271.304, 47090.00
1272.377, 46911.00
1273.450, 46982.00
1274.522, 47223.00
1275.594, 47219.00
1276.666, 47337.00
1277.738, 47226.00
1278.810, 47345.00
1279.882, 47034.00
1280.953, 47149.00
