##NAMES=Senegalite
##RRUFFID=R050239
##IDEAL CHEMISTRY=Al_2_PO_4_(OH)_3_&#183;H_2_O
##LOCALITY=Kourondicko iron ore (magnetite) deposit, Faleme River Basin, Senegal
##OWNER=RRUFF
##SOURCE=Marcus Origlieri
##DESCRIPTION=Colorless prismatic crystals
##STATUS=The identification of this mineral has been confirmed by X-ray diffraction and chemical analysis
##URL=rruff.info/R050239
##MEASURED CHEMISTRY=Al_2.00_P_1.00_O_4_(OH)_3_Â·H_2_O
##PIN_ID=M00172
##ORIENTATION=Laser parallel to -a* (-1 0 0). Fiducial mark perpendicular to laser is parallel to b [0 1 0]
94.71400, 16810.00
95.94800, 17584.00
97.18200, 18386.01
98.41600, 18853.00
99.64900, 19938.00
100.8830, 20782.00
102.1160, 21291.00
103.3490, 21260.00
104.5820, 20551.00
105.8150, 20113.00
107.0470, 19616.00
108.2800, 19809.00
109.5120, 19746.00
110.7440, 19527.00
111.9760, 19696.00
113.2080, 19657.00
114.4400, 20081.00
115.6710, 20417.00
116.9030, 20590.00
118.1340, 21082.00
119.3650, 21793.00
120.5960, 22670.00
121.8270, 23711.00
123.0580, 25291.00
124.2880, 26841.00
125.5190, 28538.00
126.7490, 30010.00
127.9790, 31818.00
129.2090, 33842.00
130.4390, 36282.00
131.6680, 37553.00
132.8980, 37389.00
134.1270, 35557.00
135.3560, 32403.00
136.5850, 29679.00
137.8140, 27670.00
139.0430, 26062.00
140.2710, 24688.00
141.5000, 24047.00
142.7280, 23376.00
143.9560, 22986.00
145.1840, 22837.00
146.4120, 22598.00
147.6390, 22281.00
148.8670, 22360.00
150.0940, 22248.00
151.3210, 22348.00
152.5490, 22481.00
153.7750, 22300.00
155.0020, 22689.00
156.2290, 22617.00
157.4550, 23158.00
158.6810, 23154.00
159.9080, 23366.00
161.1340, 23595.00
162.3590, 24034.00
163.5850, 24647.00
164.8110, 24938.00
166.0360, 24833.00
167.2610, 24305.00
168.4860, 24303.00
169.7110, 23990.00
170.9360, 23753.00
172.1610, 23665.00
173.3850, 23801.00
174.6100, 23798.00
175.8340, 24137.00
177.0580, 24283.00
178.2820, 24091.00
179.5050, 23985.00
180.7290, 23732.00
181.9520, 23847.00
183.1760, 23970.00
184.3990, 24200.00
185.6220, 24238.00
186.8450, 24541.00
188.0670, 24596.00
189.2900, 24762.00
190.5120, 25491.00
191.7340, 25746.00
192.9560, 25648.00
194.1780, 25995.00
195.4000, 25669.00
196.6220, 25843.00
197.8430, 25528.00
199.0640, 25667.00
200.2860, 25784.00
201.5070, 25813.00
202.7270, 25868.54
203.9480, 25777.96
205.1690, 25779.00
206.3890, 25434.00
207.6090, 25134.00
208.8290, 24747.00
210.0490, 24769.00
211.2690, 24575.00
212.4890, 24576.00
213.7080, 24592.00
214.9280, 24795.00
216.1470, 24967.00
217.3660, 25069.00
218.5850, 25201.00
219.8030, 25425.00
221.0220, 25950.00
222.2400, 26177.00
223.4590, 26823.00
224.6770, 27725.00
225.8950, 28179.00
227.1120, 28865.00
228.3300, 29606.00
229.5480, 30542.00
230.7650, 31575.00
231.9820, 32573.00
233.1990, 33417.00
234.4160, 33572.00
235.6330, 33281.00
236.8490, 33157.00
238.0660, 32847.00
239.2820, 32290.00
240.4980, 31901.00
241.7140, 31260.00
242.9300, 30109.00
244.1460, 29183.00
245.3610, 28079.00
246.5770, 27567.00
247.7920, 26905.00
249.0070, 26672.00
250.2220, 26418.00
251.4370, 26291.00
252.6510, 26032.00
253.8660, 25991.00
255.0800, 25762.00
256.2940, 25856.00
257.5080, 25853.00
258.7220, 25797.00
259.9360, 25890.00
261.1490, 25783.00
262.3630, 25805.00
263.5760, 25959.00
264.7890, 25741.00
266.0020, 25920.00
267.2150, 25786.00
268.4270, 26065.00
269.6400, 25914.00
270.8520, 26072.00
272.0640, 26044.00
273.2760, 26206.00
274.4880, 26399.00
275.7000, 26618.00
276.9120, 26727.00
278.1230, 26938.00
279.3340, 26968.00
280.5450, 26948.00
281.7560, 27134.00
282.9670, 27473.00
284.1780, 27811.00
285.3880, 27910.00
286.5980, 28216.00
287.8090, 28742.00
289.0190, 29213.00
290.2290, 30077.00
291.4380, 31067.00
292.6480, 31923.00
293.8570, 33101.00
295.0670, 34116.00
296.2760, 35034.00
297.4850, 36077.00
298.6930, 37269.00
299.9020, 38349.00
301.1110, 38575.00
302.3190, 37789.00
303.5270, 36475.00
304.7350, 35071.00
305.9430, 34209.00
307.1510, 33173.00
308.3580, 32401.00
309.5660, 32099.00
310.7730, 32019.00
311.9800, 31921.00
313.1870, 31762.00
314.3940, 31716.00
315.6010, 31527.00
316.8070, 31285.00
318.0130, 31109.00
319.2200, 30760.30
320.4260, 30402.00
321.6310, 30010.00
322.8370, 29662.00
324.0430, 29203.00
325.2480, 29131.00
326.4540, 29089.00
327.6590, 28778.00
328.8640, 28675.00
330.0680, 28485.00
331.2730, 28344.00
332.4780, 28057.00
333.6820, 28096.00
334.8860, 28032.00
336.0900, 28237.00
337.2940, 28045.00
338.4980, 27943.00
339.7010, 28419.00
340.9050, 28016.00
342.1080, 28309.00
343.3110, 28189.00
344.5140, 28059.00
345.7170, 28412.00
346.9200, 28425.00
348.1220, 28310.00
349.3240, 28272.00
350.5270, 28175.00
351.7290, 28172.00
352.9310, 28531.00
354.1320, 28694.00
355.3340, 28502.00
356.5350, 28766.00
357.7370, 28644.00
358.9380, 28718.00
360.1390, 28843.00
361.3400, 28884.00
362.5400, 29006.00
363.7410, 29016.42
364.9410, 29059.64
366.1410, 29054.00
367.3410, 29078.00
368.5410, 29142.00
369.7410, 29113.00
370.9400, 28942.00
372.1400, 28960.00
373.3390, 29013.00
374.5380, 29299.00
375.7370, 29492.00
376.9360, 29371.00
378.1350, 29478.00
379.3330, 29373.00
380.5310, 29423.00
381.7300, 29551.00
382.9280, 29702.00
384.1260, 29797.00
385.3230, 29955.00
386.5210, 29680.00
387.7180, 29821.00
388.9160, 29620.00
390.1130, 29968.00
391.3100, 29892.00
392.5060, 29844.00
393.7030, 29901.00
394.9000, 29905.00
396.0960, 29833.00
397.2920, 29975.00
398.4880, 30309.00
399.6840, 30158.00
400.8800, 30110.00
402.0750, 30511.00
403.2710, 30636.00
404.4660, 30885.00
405.6610, 31210.00
406.8560, 31514.00
408.0510, 31835.31
409.2450, 32236.00
410.4400, 32517.00
411.6340, 32936.00
412.8280, 33294.00
414.0220, 33630.00
415.2160, 34071.00
416.4100, 34053.00
417.6030, 33998.00
418.7970, 34098.00
419.9900, 34453.00
421.1830, 33957.00
422.3760, 34025.00
423.5690, 33643.00
424.7610, 33522.00
425.9540, 33604.00
427.1460, 33739.00
428.3380, 33724.00
429.5300, 34135.00
430.7220, 34492.00
431.9140, 35124.00
433.1050, 35461.00
434.2970, 36219.00
435.4880, 36926.00
436.6790, 37484.00
437.8700, 38652.00
439.0610, 39377.00
440.2510, 40012.00
441.4420, 40382.00
442.6320, 40704.42
443.8220, 41208.00
445.0120, 40868.00
446.2020, 40785.00
447.3910, 40534.00
448.5810, 39897.00
449.7700, 39467.00
450.9600, 39094.00
452.1490, 38620.00
453.3370, 38551.00
454.5260, 38361.00
455.7150, 38374.00
456.9030, 38449.00
458.0910, 38396.02
459.2800, 38390.00
460.4670, 38475.00
461.6550, 38585.00
462.8430, 38675.00
464.0300, 38819.00
465.2180, 39412.00
466.4050, 40021.00
467.5920, 40921.00
468.7790, 41891.00
469.9650, 43056.00
471.1520, 44152.00
472.3380, 45412.00
473.5250, 46643.00
474.7110, 47764.00
475.8970, 48745.00
477.0820, 49726.00
478.2680, 50091.00
479.4540, 50428.00
480.6390, 50392.00
481.8240, 49182.00
483.0090, 47912.00
484.1940, 46138.00
485.3780, 44456.00
486.5630, 42565.00
487.7470, 41222.00
488.9320, 39790.00
490.1160, 38711.00
491.3000, 38079.00
492.4830, 37528.00
493.6670, 37202.00
494.8500, 37210.00
496.0340, 36793.00
497.2170, 36418.00
498.4000, 36323.00
499.5820, 35748.00
500.7650, 35681.00
501.9480, 35519.00
503.1300, 35205.00
504.3120, 35035.00
505.4940, 34811.00
506.6760, 34753.56
507.8580, 34826.00
509.0390, 34802.00
510.2210, 34895.00
511.4020, 35097.00
512.5830, 35020.00
513.7640, 34912.00
514.9450, 34994.00
516.1250, 34734.00
517.3060, 34705.00
518.4860, 34722.00
519.6660, 34620.00
520.8460, 34792.00
522.0260, 34819.00
523.2060, 34610.00
524.3850, 34393.00
525.5650, 34432.00
526.7440, 34492.00
527.9230, 34740.00
529.1020, 34443.00
530.2810, 34787.00
531.4590, 34785.00
532.6380, 34743.00
533.8160, 34906.00
534.9940, 34845.00
536.1720, 35039.00
537.3500, 34898.00
538.5270, 35052.00
539.7050, 35128.00
540.8820, 35190.00
542.0590, 35292.59
543.2360, 35367.32
544.4130, 35424.00
545.5900, 35466.00
546.7660, 35490.00
547.9430, 35374.00
549.1190, 35523.00
550.2950, 35768.00
551.4710, 35555.00
552.6470, 35552.00
553.8220, 35370.00
554.9980, 35635.00
556.1730, 35326.00
557.3480, 35531.00
558.5230, 35365.00
559.6980, 35316.00
560.8730, 35380.00
562.0470, 35260.00
563.2220, 35150.00
564.3960, 34945.00
565.5700, 35134.00
566.7440, 34838.00
567.9170, 34827.00
569.0910, 35215.00
570.2640, 34863.00
571.4380, 34741.00
572.6110, 34946.00
573.7840, 34789.00
574.9570, 34873.00
576.1290, 35192.00
577.3020, 34953.00
578.4740, 35028.00
579.6460, 35286.00
580.8180, 35251.00
581.9900, 35161.00
583.1620, 35172.00
584.3330, 35235.00
585.5040, 35419.00
586.6760, 35434.00
587.8470, 35406.00
589.0180, 35545.00
590.1880, 35422.00
591.3590, 35555.58
592.5290, 35741.00
593.7000, 35767.00
594.8700, 35941.00
596.0400, 36114.00
597.2090, 36024.00
598.3790, 36280.00
599.5490, 36222.00
600.7180, 36085.00
601.8870, 36176.00
603.0560, 36419.00
604.2250, 36781.00
605.3940, 36640.00
606.5620, 36773.00
607.7300, 36937.00
608.8990, 36894.00
610.0670, 37035.00
611.2350, 37204.00
612.4020, 37192.00
613.5700, 37666.00
614.7370, 37681.00
615.9050, 37901.00
617.0720, 38255.00
618.2390, 38373.00
619.4060, 38746.00
620.5720, 38740.00
621.7390, 38925.00
622.9050, 39493.00
624.0710, 39709.00
625.2370, 40121.00
626.4030, 40250.00
627.5690, 40323.00
628.7340, 40887.00
629.9000, 40739.00
631.0650, 41027.00
632.2300, 41206.00
633.3950, 41073.00
634.5600, 41289.00
635.7240, 41148.00
636.8890, 40824.00
638.0530, 40576.00
639.2170, 40268.00
640.3810, 39775.00
641.5450, 39379.00
642.7080, 39093.00
643.8720, 38998.00
645.0350, 38706.00
646.1980, 38717.00
647.3610, 38474.00
648.5240, 38138.00
649.6870, 38174.00
650.8490, 38184.00
652.0120, 38265.00
653.1740, 38121.62
654.3360, 37991.00
655.4980, 37897.00
656.6600, 37688.00
657.8210, 37711.00
658.9830, 37826.00
660.1440, 37790.00
661.3050, 37983.00
662.4660, 37837.00
663.6270, 37896.00
664.7870, 37944.00
665.9480, 38074.00
667.1080, 38116.00
668.2680, 37991.00
669.4280, 38007.00
670.5880, 38156.68
671.7480, 38341.00
672.9070, 38453.00
674.0670, 38532.00
675.2260, 38531.00
676.3850, 38811.00
677.5440, 38732.00
678.7030, 38662.00
679.8610, 38683.01
681.0200, 38525.00
682.1780, 38490.00
683.3360, 38417.00
684.4940, 38262.00
685.6520, 38392.00
686.8090, 38627.00
687.9670, 38372.00
689.1240, 38464.00
690.2810, 38682.00
691.4380, 38613.00
692.5950, 38488.00
693.7520, 38749.00
694.9080, 38903.00
696.0650, 38789.00
697.2210, 38978.36
698.3770, 38796.00
699.5330, 38979.00
700.6880, 39216.00
701.8440, 38980.00
702.9990, 39234.00
704.1550, 39396.00
705.3100, 39218.00
706.4650, 39586.00
707.6190, 39488.00
708.7740, 39489.00
709.9290, 39677.00
711.0830, 39549.00
712.2370, 39701.00
713.3910, 39961.00
714.5450, 40011.00
715.6980, 39922.00
716.8520, 40331.00
718.0050, 40066.00
719.1580, 39942.00
720.3110, 40002.00
721.4640, 39908.00
722.6170, 40041.00
723.7700, 39971.00
724.9220, 39898.00
726.0740, 39961.00
727.2260, 39673.00
728.3780, 39932.00
729.5300, 39958.00
730.6810, 39718.00
731.8330, 39951.00
732.9840, 40222.00
734.1350, 39909.00
735.2860, 39824.00
736.4370, 39714.00
737.5880, 39641.21
738.7380, 39773.00
739.8880, 39706.00
741.0390, 40006.00
742.1890, 40222.00
743.3380, 40036.00
744.4880, 40150.00
745.6380, 40013.00
746.7870, 40053.00
747.9360, 40121.00
749.0850, 40011.00
750.2340, 40018.00
751.3830, 40063.00
752.5310, 39888.00
753.6800, 40133.00
754.8280, 40380.00
755.9760, 40261.00
757.1240, 40085.00
758.2720, 40426.00
759.4190, 40116.00
760.5670, 39921.00
761.7140, 40122.00
762.8610, 40102.00
764.0080, 40085.00
765.1550, 40055.00
766.3020, 40295.00
767.4480, 40437.00
768.5950, 40425.99
769.7410, 40368.00
770.8870, 40400.00
772.0330, 40217.00
773.1780, 40085.00
774.3240, 40409.00
775.4690, 40227.00
776.6140, 40310.00
777.7590, 40064.00
778.9040, 40811.00
780.0490, 40988.00
781.1940, 40600.00
782.3380, 40640.00
783.4820, 40620.00
784.6260, 40695.00
785.7700, 40689.00
786.9140, 40829.00
788.0580, 40635.00
789.2010, 40706.00
790.3450, 40894.00
791.4880, 40990.00
792.6310, 40860.00
793.7730, 40711.00
794.9160, 40965.00
796.0590, 40724.00
797.2010, 41001.00
798.3430, 40822.00
799.4850, 41002.00
800.6270, 41058.00
801.7690, 41030.00
802.9100, 41117.00
804.0520, 41195.00
805.1930, 41328.00
806.3340, 41581.00
807.4750, 41568.18
808.6160, 41388.00
809.7560, 41679.00
810.8970, 41676.00
812.0370, 41831.00
813.1770, 41585.00
814.3170, 41607.00
815.4570, 41778.00
816.5960, 41697.00
817.7360, 41847.00
818.8750, 42157.00
820.0140, 41827.00
821.1530, 42072.00
822.2920, 42140.00
823.4310, 41808.00
824.5690, 42237.00
825.7070, 41934.00
826.8460, 42282.00
827.9840, 42010.00
829.1220, 42280.00
830.2590, 42423.00
831.3970, 42333.00
832.5340, 42271.00
833.6710, 42842.00
834.8080, 42471.00
835.9450, 42676.00
837.0820, 42748.00
838.2190, 42487.00
839.3550, 42684.00
840.4910, 42507.00
841.6270, 42588.00
842.7630, 42821.00
843.8990, 42958.00
845.0350, 42813.00
846.1700, 42721.00
847.3060, 42919.00
848.4410, 42845.00
849.5760, 43096.00
850.7100, 43052.00
851.8450, 42894.00
852.9800, 43094.00
854.1140, 43272.00
855.2480, 43391.00
856.3820, 43410.00
857.5160, 43391.00
858.6500, 43471.86
859.7830, 43590.00
860.9170, 43533.00
862.0500, 43532.00
863.1830, 43513.00
864.3160, 43653.00
865.4480, 43413.00
866.5810, 43613.00
867.7130, 43201.00
868.8460, 43936.00
869.9780, 43770.00
871.1100, 43620.00
872.2410, 43887.00
873.3730, 43662.00
874.5050, 43866.00
875.6360, 43983.00
876.7670, 44138.00
877.8980, 44188.16
879.0290, 44188.00
880.1590, 44279.00
881.2900, 44042.00
882.4200, 44145.00
883.5500, 44337.00
884.6800, 44486.00
885.8100, 44723.00
886.9400, 44541.00
888.0690, 44542.00
889.1990, 44647.00
890.3280, 44859.00
891.4570, 44627.00
892.5860, 44742.00
893.7140, 44493.00
894.8430, 44590.00
895.9710, 44927.00
897.1000, 44731.00
898.2280, 44908.00
899.3560, 45270.00
900.4830, 44785.00
901.6110, 45087.00
902.7380, 45097.00
903.8660, 44691.00
904.9930, 44921.00
906.1200, 44946.00
907.2460, 45281.00
908.3730, 45270.00
909.5000, 45199.00
910.6260, 45337.00
911.7520, 45025.00
912.8780, 45240.00
914.0040, 45201.00
915.1290, 45100.00
916.2550, 45276.00
917.3800, 45287.00
918.5050, 45569.00
919.6300, 45470.00
920.7550, 45411.00
921.8800, 45415.00
923.0040, 45354.00
924.1290, 45396.00
925.2530, 45317.00
926.3770, 45256.00
927.5010, 45382.00
928.6250, 45685.00
929.7480, 45868.00
930.8720, 45704.00
931.9950, 45444.00
933.1180, 45474.00
934.2410, 45539.00
935.3640, 45596.00
936.4860, 45769.00
937.6090, 45721.00
938.7310, 45923.00
939.8530, 45992.00
940.9750, 46075.00
942.0970, 46183.63
943.2180, 46031.00
944.3400, 46229.00
945.4610, 46153.00
946.5820, 45941.00
947.7030, 45996.00
948.8240, 46327.00
949.9450, 46072.00
951.0650, 46490.00
952.1860, 46356.00
953.3060, 46493.00
954.4260, 46520.00
955.5460, 46363.00
956.6650, 46525.00
957.7850, 46506.00
958.9040, 46581.00
960.0230, 46439.00
961.1420, 46743.00
962.2610, 46458.00
963.3800, 46564.00
964.4990, 46763.00
965.6170, 46755.00
966.7350, 46956.00
967.8530, 46887.00
968.9710, 46926.00
970.0890, 47183.00
971.2070, 46971.00
972.3240, 47120.00
973.4410, 47117.00
974.5580, 47394.00
975.6750, 47377.00
976.7920, 47385.00
977.9090, 47246.00
979.0250, 47466.00
980.1410, 47318.00
981.2580, 47592.00
982.3740, 47822.00
983.4890, 47944.00
984.6050, 47863.00
985.7200, 47714.00
986.8360, 47884.00
987.9510, 47886.00
989.0660, 48045.00
990.1810, 48137.00
991.2950, 48217.00
992.4100, 48223.00
993.5240, 48785.00
994.6390, 48330.00
995.7530, 48612.00
996.8660, 48794.00
997.9800, 48504.00
999.0940, 48767.00
1000.207, 49002.00
1001.320, 49289.00
1002.433, 49480.00
1003.546, 49320.00
1004.659, 49643.00
1005.772, 49566.00
1006.884, 49889.00
1007.996, 49834.00
1009.108, 50040.00
1010.220, 49942.00
1011.332, 50253.00
1012.444, 50169.00
1013.555, 50646.00
1014.666, 50603.00
1015.777, 50794.00
1016.888, 50703.00
1017.999, 51077.00
1019.110, 51521.00
1020.220, 51755.00
1021.331, 51819.00
1022.441, 52094.00
1023.551, 52526.00
1024.661, 53350.00
1025.770, 53585.00
1026.880, 54329.00
1027.989, 54633.00
1029.098, 55389.00
1030.207, 55714.00
1031.316, 56346.00
1032.425, 56763.00
1033.533, 56791.00
1034.642, 57152.00
1035.750, 56966.00
1036.858, 56901.00
1037.966, 56059.00
1039.073, 55507.00
1040.181, 54921.00
1041.288, 54455.00
1042.396, 54056.00
1043.503, 53675.20
1044.610, 53368.20
1045.716, 53124.00
1046.823, 52923.00
1047.929, 52783.00
1049.036, 52758.00
1050.142, 52628.00
1051.248, 53145.00
1052.353, 53389.00
1053.459, 53401.00
1054.564, 54071.00
1055.670, 54612.00
1056.775, 55222.00
1057.880, 55897.12
1058.985, 56615.00
1060.089, 57425.00
1061.194, 58333.00
1062.298, 59499.00
1063.402, 60147.00
1064.506, 61002.00
1065.610, 61068.00
1066.713, 60623.00
1067.817, 60446.00
1068.920, 59291.00
1070.023, 58586.00
1071.126, 57406.00
1072.229, 56402.00
1073.332, 55558.00
1074.435, 54601.00
1075.537, 54098.00
1076.639, 53545.00
1077.741, 53067.00
1078.843, 52918.00
1079.945, 52546.00
1081.046, 52452.00
1082.148, 52226.00
1083.249, 52047.00
1084.350, 51907.00
1085.451, 51866.00
1086.551, 51789.00
1087.652, 51740.23
1088.752, 51776.34
1089.853, 51648.00
1090.953, 51830.00
1092.053, 51733.00
1093.152, 51653.00
1094.252, 51386.00
1095.351, 51926.00
1096.451, 51643.00
1097.550, 51705.00
1098.649, 51940.00
1099.748, 51777.00
1100.846, 51689.00
1101.945, 52071.00
1103.043, 51940.00
1104.141, 51767.00
1105.239, 52116.00
1106.337, 52344.00
1107.434, 52045.00
1108.532, 52333.00
1109.629, 52290.00
1110.726, 52147.00
1111.823, 52487.00
1112.920, 52425.00
1114.017, 52452.00
1115.113, 52423.00
1116.210, 52310.00
1117.306, 52363.00
1118.402, 52700.00
1119.498, 52616.00
1120.593, 52527.00
1121.689, 52724.00
1122.784, 52641.00
1123.879, 52756.00
1124.974, 53022.00
1126.069, 52946.00
1127.164, 53065.64
1128.259, 52735.00
1129.353, 53079.00
1130.447, 53109.00
1131.541, 53038.00
1132.635, 53372.00
1133.729, 53258.00
1134.822, 53495.00
1135.916, 53694.00
1137.009, 53846.00
1138.102, 54090.00
1139.195, 54199.00
1140.288, 54352.00
1141.380, 54705.00
1142.473, 55068.00
1143.565, 55085.00
1144.657, 55986.00
1145.749, 55730.00
1146.841, 56397.00
1147.932, 56691.00
1149.024, 57044.00
1150.115, 57705.00
1151.206, 58369.00
1152.297, 59070.00
1153.388, 59868.00
1154.479, 59402.00
1155.569, 59375.00
1156.659, 58799.00
1157.750, 58127.00
1158.839, 57562.00
1159.929, 57054.00
1161.019, 56430.00
1162.108, 55773.00
1163.198, 55552.00
1164.287, 55095.00
1165.376, 54994.00
1166.465, 55028.00
1167.553, 55280.00
1168.642, 54682.00
1169.730, 54700.00
1170.818, 54963.00
1171.906, 54987.00
1172.994, 54971.00
1174.082, 54894.00
1175.170, 55025.00
1176.257, 55323.00
1177.344, 55213.00
1178.431, 55669.00
1179.518, 55547.00
1180.605, 55533.00
1181.691, 55598.00
1182.778, 55624.00
1183.864, 55622.00
1184.950, 55396.00
1186.036, 55482.00
1187.122, 55250.00
1188.207, 55031.00
1189.292, 55283.00
1190.378, 55508.00
1191.463, 54871.00
1192.548, 55425.00
1193.632, 55305.00
1194.717, 54879.00
1195.801, 55284.00
1196.886, 55167.00
1197.970, 55430.00
1199.054, 55618.00
1200.137, 55337.00
1201.221, 55554.00
1202.305, 55420.00
1203.388, 55739.00
1204.471, 55481.00
1205.554, 55492.00
1206.637, 55399.00
1207.719, 55450.00
1208.802, 55651.00
1209.884, 55528.00
1210.966, 55696.00
1212.048, 55623.00
1213.130, 55417.00
1214.212, 55471.00
1215.293, 55573.00
1216.374, 55735.00
1217.456, 55730.00
1218.536, 55686.00
1219.617, 56000.00
1220.698, 55596.00
1221.778, 55973.00
1222.859, 55735.00
1223.939, 55960.00
1225.019, 55810.00
1226.099, 55973.00
1227.178, 55869.00
1228.258, 55958.00
1229.337, 56029.00
1230.417, 56057.00
1231.496, 56005.00
1232.574, 56162.00
1233.653, 56314.00
1234.732, 56156.00
1235.810, 56613.00
1236.888, 56365.00
1237.966, 56431.00
1239.044, 56481.00
1240.122, 56268.00
1241.199, 56520.00
1242.277, 56338.00
1243.354, 56842.00
1244.431, 56511.00
1245.508, 56758.00
1246.585, 56561.00
1247.661, 56417.00
1248.738, 56680.00
1249.814, 56804.00
1250.890, 56972.00
1251.966, 57005.84
1253.042, 57018.00
1254.117, 57011.00
1255.193, 56919.00
1256.268, 56958.00
1257.343, 56906.00
1258.418, 56972.00
1259.493, 57079.00
1260.567, 57156.00
1261.642, 57244.00
1262.716, 57313.00
1263.790, 57215.00
1264.864, 57196.00
1265.938, 57545.00
1267.011, 57295.00
1268.085, 57669.00
1269.158, 57369.00
1270.231, 57294.00
1271.304, 57901.00
1272.377, 57504.00
1273.450, 57852.00
1274.522, 57877.00
