##NAMES=Senegalite
##RRUFFID=R050239
##IDEAL CHEMISTRY=Al_2_PO_4_(OH)_3_&#183;H_2_O
##LOCALITY=Kourondicko iron ore (magnetite) deposit, Faleme River Basin, Senegal
##OWNER=RRUFF
##SOURCE=Marcus Origlieri
##DESCRIPTION=Colorless prismatic crystals
##STATUS=The identification of this mineral has been confirmed by X-ray diffraction and chemical analysis
##URL=rruff.info/R050239
##MEASURED CHEMISTRY=Al_2.00_P_1.00_O_4_(OH)_3_Â·H_2_O
##PIN_ID=M00172
##ORIENTATION=Laser parallel to -a* (-1 0 0). Fiducial mark perpendicular to laser is parallel to b [0 1 0]
102.1160, 15733.00
103.3490, 16113.00
104.5820, 16241.00
105.8150, 16368.00
107.0470, 16408.00
108.2800, 16513.00
109.5120, 16640.00
110.7440, 16790.00
111.9760, 16809.00
113.2080, 16825.00
114.4400, 17046.00
115.6710, 17092.99
116.9030, 17353.00
118.1340, 17402.00
119.3650, 17640.00
120.5960, 17927.00
121.8270, 18262.00
123.0580, 18629.00
124.2880, 18987.00
125.5190, 19411.08
126.7490, 19842.96
127.9790, 20347.00
129.2090, 20827.00
130.4390, 21424.00
131.6680, 22053.00
132.8980, 21832.00
134.1270, 21743.00
135.3560, 21056.00
136.5850, 20517.00
137.8140, 20239.00
139.0430, 19559.00
140.2710, 19490.00
141.5000, 19174.00
142.7280, 19277.00
143.9560, 19220.00
145.1840, 19013.00
146.4120, 19285.00
147.6390, 19130.00
148.8670, 19126.00
150.0940, 19143.00
151.3210, 19235.00
152.5490, 19289.00
153.7750, 19386.00
155.0020, 19438.00
156.2290, 19509.00
157.4550, 19534.00
158.6810, 19643.00
159.9080, 19736.79
161.1340, 19807.00
162.3590, 20007.00
163.5850, 20205.00
164.8110, 20419.00
166.0360, 20485.00
167.2610, 20322.00
168.4860, 20071.00
169.7110, 19878.00
170.9360, 19846.01
172.1610, 20059.00
173.3850, 19953.00
174.6100, 19970.00
175.8340, 20307.00
177.0580, 20178.00
178.2820, 20399.00
179.5050, 20133.00
180.7290, 20414.00
181.9520, 20289.00
183.1760, 20446.00
184.3990, 20523.00
185.6220, 20763.00
186.8450, 20665.00
188.0670, 20746.00
189.2900, 20818.00
190.5120, 20999.00
191.7340, 20961.00
192.9560, 21036.00
194.1780, 21092.00
195.4000, 21277.00
196.6220, 21555.00
197.8430, 21592.00
199.0640, 21315.00
200.2860, 21661.00
201.5070, 21739.00
202.7270, 22142.00
203.9480, 22068.00
205.1690, 22125.00
206.3890, 21961.00
207.6090, 21741.00
208.8290, 21590.00
210.0490, 21264.00
211.2690, 21254.00
212.4890, 21194.00
213.7080, 21126.00
214.9280, 21218.00
216.1470, 21212.00
217.3660, 21302.00
218.5850, 21286.00
219.8030, 21409.00
221.0220, 21497.00
222.2400, 21515.00
223.4590, 21651.00
224.6770, 21743.00
225.8950, 22056.00
227.1120, 22257.00
228.3300, 22365.00
229.5480, 22551.00
230.7650, 22678.00
231.9820, 22968.00
233.1990, 23244.00
234.4160, 23468.00
235.6330, 23370.00
236.8490, 23298.00
238.0660, 23358.00
239.2820, 23234.29
240.4980, 23139.00
241.7140, 23105.00
242.9300, 23068.00
244.1460, 23041.00
245.3610, 22836.79
246.5770, 22581.00
247.7920, 22395.00
249.0070, 22283.00
250.2220, 22079.00
251.4370, 22352.00
252.6510, 22301.00
253.8660, 22160.00
255.0800, 22396.00
256.2940, 22353.00
257.5080, 22239.00
258.7220, 22439.00
259.9360, 22500.00
261.1490, 22338.00
262.3630, 22461.00
263.5760, 22489.00
264.7890, 22552.00
266.0020, 22481.00
267.2150, 22718.00
268.4270, 22548.00
269.6400, 22887.00
270.8520, 22770.00
272.0640, 22984.00
273.2760, 23031.00
274.4880, 23235.00
275.7000, 23257.00
276.9120, 23542.00
278.1230, 23509.00
279.3340, 23469.00
280.5450, 23463.00
281.7560, 23296.00
282.9670, 23561.00
284.1780, 23895.00
285.3880, 23832.00
286.5980, 24253.00
287.8090, 24433.00
289.0190, 24757.00
290.2290, 25008.00
291.4380, 25562.00
292.6480, 25788.00
293.8570, 25886.00
295.0670, 26040.00
296.2760, 25919.00
297.4850, 25840.00
298.6930, 25781.00
299.9020, 26002.00
301.1110, 26200.00
302.3190, 25888.00
303.5270, 25500.00
304.7350, 25222.00
305.9430, 24938.00
307.1510, 24970.00
308.3580, 24713.00
309.5660, 24427.00
310.7730, 24727.00
311.9800, 24542.00
313.1870, 24666.00
314.3940, 24580.00
315.6010, 24763.00
316.8070, 24768.00
318.0130, 24837.00
319.2200, 24677.00
320.4260, 24819.00
321.6310, 24940.00
322.8370, 25062.00
324.0430, 25328.00
325.2480, 25433.00
326.4540, 25541.00
327.6590, 25806.00
328.8640, 25890.00
330.0680, 25724.00
331.2730, 25617.00
332.4780, 25511.00
333.6820, 25434.00
334.8860, 25263.00
336.0900, 25289.00
337.2940, 25035.00
338.4980, 25098.00
339.7010, 25013.00
340.9050, 24813.00
342.1080, 25223.00
343.3110, 24926.00
344.5140, 24901.00
345.7170, 24905.00
346.9200, 24830.00
348.1220, 24747.00
349.3240, 24834.00
350.5270, 24966.00
351.7290, 24942.00
352.9310, 25003.00
354.1320, 25039.00
355.3340, 25037.00
356.5350, 24922.00
357.7370, 25189.00
358.9380, 25093.00
360.1390, 25085.00
361.3400, 25353.00
362.5400, 25158.00
363.7410, 25163.00
364.9410, 25691.00
366.1410, 25450.00
367.3410, 25368.00
368.5410, 25099.00
369.7410, 25198.00
370.9400, 25402.00
372.1400, 25174.00
373.3390, 25314.00
374.5380, 25344.00
375.7370, 25463.00
376.9360, 25160.00
378.1350, 25258.00
379.3330, 25268.00
380.5310, 25636.00
381.7300, 25723.00
382.9280, 25756.00
384.1260, 25652.00
385.3230, 25639.00
386.5210, 25735.00
387.7180, 25680.00
388.9160, 25712.00
390.1130, 25621.00
391.3100, 25686.28
392.5060, 25773.00
393.7030, 25780.00
394.9000, 25909.00
396.0960, 25936.00
397.2920, 25898.00
398.4880, 25948.00
399.6840, 26005.00
400.8800, 26048.00
402.0750, 26242.00
403.2710, 26148.00
404.4660, 26368.00
405.6610, 26380.00
406.8560, 26217.00
408.0510, 26549.00
409.2450, 26510.00
410.4400, 26714.00
411.6340, 26813.00
412.8280, 26956.00
414.0220, 26970.00
415.2160, 27138.00
416.4100, 27209.00
417.6030, 27245.00
418.7970, 27416.00
419.9900, 27421.00
421.1830, 27625.00
422.3760, 27333.00
423.5690, 27727.00
424.7610, 27597.00
425.9540, 27389.00
427.1460, 27615.00
428.3380, 27672.00
429.5300, 27885.00
430.7220, 27982.00
431.9140, 28082.00
433.1050, 28188.00
434.2970, 28536.00
435.4880, 28815.00
436.6790, 28985.00
437.8700, 29339.00
439.0610, 29427.00
440.2510, 29810.00
441.4420, 29959.00
442.6320, 30417.00
443.8220, 30261.00
445.0120, 30256.00
446.2020, 30330.00
447.3910, 30108.00
448.5810, 30011.00
449.7700, 29697.00
450.9600, 29764.00
452.1490, 29538.00
453.3370, 29460.00
454.5260, 29383.00
455.7150, 29319.00
456.9030, 29322.00
458.0910, 29454.00
459.2800, 29609.00
460.4670, 29640.00
461.6550, 29710.00
462.8430, 29972.00
464.0300, 30245.00
465.2180, 30594.00
466.4050, 30742.00
467.5920, 31299.00
468.7790, 31508.00
469.9650, 32269.00
471.1520, 32541.00
472.3380, 33371.00
473.5250, 33368.00
474.7110, 33617.00
475.8970, 33710.00
477.0820, 33718.00
478.2680, 33689.00
479.4540, 33780.00
480.6390, 33731.00
481.8240, 33302.00
483.0090, 32904.00
484.1940, 32540.00
485.3780, 32161.00
486.5630, 31609.00
487.7470, 31243.00
488.9320, 30826.00
490.1160, 30469.31
491.3000, 29969.00
492.4830, 29940.00
493.6670, 29762.00
494.8500, 29713.00
496.0340, 29772.00
497.2170, 29598.00
498.4000, 29289.00
499.5820, 29242.00
500.7650, 29213.00
501.9480, 29264.00
503.1300, 29214.00
504.3120, 29327.00
505.4940, 29415.00
506.6760, 29261.00
507.8580, 29311.00
509.0390, 29545.00
510.2210, 29580.00
511.4020, 29415.00
512.5830, 29576.00
513.7640, 29659.00
514.9450, 29735.00
516.1250, 29548.00
517.3060, 29471.00
518.4860, 29618.00
519.6660, 29724.00
520.8460, 29706.00
522.0260, 29554.00
523.2060, 29599.00
524.3850, 29377.00
525.5650, 29551.00
526.7440, 29463.00
527.9230, 29546.00
529.1020, 29566.00
530.2810, 29739.00
531.4590, 29912.00
532.6380, 29603.00
533.8160, 29897.00
534.9940, 29692.00
536.1720, 29838.00
537.3500, 30041.00
538.5270, 29943.00
539.7050, 29898.00
540.8820, 30028.00
542.0590, 30087.00
543.2360, 30084.00
544.4130, 30141.78
545.5900, 30250.00
546.7660, 30129.00
547.9430, 30164.00
549.1190, 30085.00
550.2950, 30230.00
551.4710, 30012.00
552.6470, 30434.00
553.8220, 30202.00
554.9980, 30326.00
556.1730, 30304.00
557.3480, 30617.00
558.5230, 30445.00
559.6980, 30628.00
560.8730, 30378.00
562.0470, 30226.00
563.2220, 30603.00
564.3960, 30521.00
565.5700, 30590.00
566.7440, 30637.00
567.9170, 30689.00
569.0910, 30828.00
570.2640, 30663.00
571.4380, 30975.00
572.6110, 31267.00
573.7840, 31065.00
574.9570, 30997.00
576.1290, 31275.00
577.3020, 31361.00
578.4740, 31462.00
579.6460, 31611.08
580.8180, 31795.00
581.9900, 31756.00
583.1620, 31886.00
584.3330, 31849.00
585.5040, 31852.00
586.6760, 32161.00
587.8470, 32007.00
589.0180, 32066.00
590.1880, 32018.00
591.3590, 31906.00
592.5290, 31951.00
593.7000, 32040.00
594.8700, 31949.00
596.0400, 32063.88
597.2090, 32143.00
598.3790, 32197.00
599.5490, 32180.00
600.7180, 32241.00
601.8870, 32051.00
603.0560, 32057.00
604.2250, 32281.00
605.3940, 32196.00
606.5620, 32380.00
607.7300, 32262.00
608.8990, 32565.00
610.0670, 32533.00
611.2350, 32586.00
612.4020, 32701.00
613.5700, 32808.00
614.7370, 32870.00
615.9050, 32959.00
617.0720, 32956.00
618.2390, 33036.00
619.4060, 33156.00
620.5720, 33304.00
621.7390, 33478.00
622.9050, 33435.00
624.0710, 33535.00
625.2370, 33438.00
626.4030, 33496.00
627.5690, 33609.00
628.7340, 33707.00
629.9000, 33538.00
631.0650, 33964.00
632.2300, 33616.00
633.3950, 33769.00
634.5600, 33666.00
635.7240, 33596.00
636.8890, 33772.00
638.0530, 33615.00
639.2170, 33383.00
640.3810, 33437.00
641.5450, 33514.00
642.7080, 33114.00
643.8720, 33575.00
645.0350, 33323.00
646.1980, 33317.00
647.3610, 33170.00
648.5240, 33088.54
649.6870, 33176.00
650.8490, 33011.00
652.0120, 33042.00
653.1740, 33107.00
654.3360, 33130.00
655.4980, 33260.00
656.6600, 33157.00
657.8210, 33314.00
658.9830, 33539.00
660.1440, 33314.00
661.3050, 33330.00
662.4660, 33314.00
663.6270, 33168.00
664.7870, 33037.00
665.9480, 33102.49
667.1080, 33213.00
668.2680, 33261.00
669.4280, 33312.00
670.5880, 33497.00
671.7480, 33441.00
672.9070, 33584.00
674.0670, 33577.00
675.2260, 33629.00
676.3850, 33613.00
677.5440, 33752.00
678.7030, 33715.00
679.8610, 33421.00
681.0200, 33567.00
682.1780, 33658.00
683.3360, 33712.00
684.4940, 33852.00
685.6520, 33868.30
686.8090, 33944.87
687.9670, 33885.00
689.1240, 33949.00
690.2810, 33863.00
691.4380, 33877.01
692.5950, 33669.00
693.7520, 33922.00
694.9080, 33918.00
696.0650, 34065.00
697.2210, 33823.00
698.3770, 33921.00
699.5330, 33892.00
700.6880, 34185.00
701.8440, 34023.00
702.9990, 33995.00
704.1550, 34203.00
705.3100, 34151.00
706.4650, 34353.00
707.6190, 34486.00
708.7740, 34226.00
709.9290, 34360.00
711.0830, 34332.00
712.2370, 34185.00
713.3910, 34250.00
714.5450, 34479.00
715.6980, 34309.00
716.8520, 34524.00
718.0050, 34580.00
719.1580, 34643.00
720.3110, 34419.00
721.4640, 34423.00
722.6170, 34471.00
723.7700, 34680.00
724.9220, 34828.00
726.0740, 34836.00
727.2260, 34967.00
728.3780, 34700.00
729.5300, 34809.00
730.6810, 34772.00
731.8330, 35033.00
732.9840, 34859.00
734.1350, 35033.00
735.2860, 34944.00
736.4370, 35095.00
737.5880, 34990.00
738.7380, 34953.00
739.8880, 35094.00
741.0390, 35288.00
742.1890, 35042.00
743.3380, 35342.00
744.4880, 35277.00
745.6380, 35179.00
746.7870, 35179.00
747.9360, 35194.00
749.0850, 35554.00
750.2340, 35241.00
751.3830, 35264.00
752.5310, 35723.00
753.6800, 35165.00
754.8280, 35416.00
755.9760, 35414.00
757.1240, 35561.00
758.2720, 35546.00
759.4190, 35444.00
760.5670, 35594.00
761.7140, 35730.00
762.8610, 35690.04
764.0080, 35574.00
765.1550, 35656.00
766.3020, 35771.00
767.4480, 35626.00
768.5950, 35868.00
769.7410, 35965.00
770.8870, 35869.00
772.0330, 36065.00
773.1780, 36180.00
774.3240, 36164.67
775.4690, 36209.79
776.6140, 36153.00
777.7590, 36145.00
778.9040, 36003.00
780.0490, 35990.00
781.1940, 36107.00
782.3380, 36057.00
783.4820, 36209.00
784.6260, 36189.00
785.7700, 36258.00
786.9140, 36407.00
788.0580, 36396.00
789.2010, 36421.00
790.3450, 36690.00
791.4880, 36186.00
792.6310, 36629.00
793.7730, 36406.00
794.9160, 36521.00
796.0590, 36568.00
797.2010, 36714.00
798.3430, 36652.00
799.4850, 36676.00
800.6270, 36721.00
801.7690, 36684.00
802.9100, 36755.00
804.0520, 36834.00
805.1930, 36889.00
806.3340, 36912.00
807.4750, 36849.00
808.6160, 37241.00
809.7560, 36916.00
810.8970, 37080.00
812.0370, 37305.00
813.1770, 37116.00
814.3170, 37103.00
815.4570, 37321.00
816.5960, 37406.00
817.7360, 37383.00
818.8750, 37343.00
820.0140, 37227.00
821.1530, 37244.21
822.2920, 37552.00
823.4310, 37266.00
824.5690, 37630.00
825.7070, 37759.00
826.8460, 37751.00
827.9840, 37664.00
829.1220, 37823.00
830.2590, 37850.00
831.3970, 37918.00
832.5340, 37983.00
833.6710, 37805.00
834.8080, 38008.00
835.9450, 38210.00
837.0820, 37938.00
838.2190, 38245.00
839.3550, 38169.00
840.4910, 38182.00
841.6270, 38091.00
842.7630, 38047.00
843.8990, 38154.00
845.0350, 38330.00
846.1700, 38328.00
847.3060, 38368.00
848.4410, 38184.00
849.5760, 38517.00
850.7100, 38277.00
851.8450, 38209.00
852.9800, 38290.00
854.1140, 38547.00
855.2480, 38397.00
856.3820, 38453.00
857.5160, 38591.00
858.6500, 38474.00
859.7830, 38647.00
860.9170, 38570.00
862.0500, 38676.00
863.1830, 38503.00
864.3160, 38845.00
865.4480, 38827.00
866.5810, 38518.00
867.7130, 38847.00
868.8460, 38889.00
869.9780, 38562.00
871.1100, 38826.00
872.2410, 38847.00
873.3730, 38895.00
874.5050, 39056.00
875.6360, 39073.00
876.7670, 39086.00
877.8980, 39239.00
879.0290, 39511.00
880.1590, 39225.00
881.2900, 39467.00
882.4200, 39409.00
883.5500, 39464.00
884.6800, 39340.00
885.8100, 39320.00
886.9400, 39253.00
888.0690, 39308.00
889.1990, 39423.11
890.3280, 39272.00
891.4570, 39714.00
892.5860, 39783.00
893.7140, 39825.00
894.8430, 39728.00
895.9710, 39567.00
897.1000, 39669.00
898.2280, 39952.00
899.3560, 39649.00
900.4830, 39619.00
901.6110, 40010.00
902.7380, 39685.00
903.8660, 39895.00
904.9930, 39931.00
906.1200, 39963.00
907.2460, 40150.00
908.3730, 39976.00
909.5000, 40034.00
910.6260, 40178.00
911.7520, 40286.00
912.8780, 40268.00
914.0040, 40303.80
915.1290, 40189.00
916.2550, 40271.00
917.3800, 40237.00
918.5050, 40287.00
919.6300, 40344.00
920.7550, 40332.53
921.8800, 40362.00
923.0040, 40373.00
924.1290, 40339.00
925.2530, 40393.41
926.3770, 40419.87
927.5010, 40595.00
928.6250, 40532.00
929.7480, 40630.00
930.8720, 40708.00
931.9950, 40619.00
933.1180, 40613.00
934.2410, 40598.68
935.3640, 40623.26
936.4860, 40641.00
937.6090, 40677.00
938.7310, 40922.00
939.8530, 40853.00
940.9750, 40940.00
942.0970, 41074.00
943.2180, 40952.00
944.3400, 40952.00
945.4610, 41178.00
946.5820, 41170.00
947.7030, 40917.00
948.8240, 41307.00
949.9450, 41493.00
951.0650, 41331.00
952.1860, 41162.00
953.3060, 41214.00
954.4260, 41210.75
955.5460, 41423.00
956.6650, 41461.00
957.7850, 41467.00
958.9040, 41704.00
960.0230, 41435.00
961.1420, 41861.00
962.2610, 41878.00
963.3800, 41676.00
964.4990, 41795.00
965.6170, 41671.00
966.7350, 41689.00
967.8530, 42013.00
968.9710, 42051.00
970.0890, 42124.00
971.2070, 41900.00
972.3240, 42113.00
973.4410, 41996.00
974.5580, 42346.00
975.6750, 42025.00
976.7920, 42232.00
977.9090, 42380.00
979.0250, 42126.00
980.1410, 42654.00
981.2580, 42365.00
982.3740, 42250.00
983.4890, 42492.00
984.6050, 42678.00
985.7200, 42538.00
986.8360, 42217.00
987.9510, 42907.00
989.0660, 42818.00
990.1810, 42625.00
991.2950, 43122.00
992.4100, 42954.00
993.5240, 42774.00
994.6390, 43003.00
995.7530, 43187.00
996.8660, 43185.00
997.9800, 43211.00
999.0940, 43289.00
1000.207, 43351.00
1001.320, 43198.00
1002.433, 43322.00
1003.546, 43485.56
1004.659, 43730.00
1005.772, 43880.00
1006.884, 44012.00
1007.996, 44041.00
1009.108, 44021.00
1010.220, 44194.00
1011.332, 44094.00
1012.444, 44009.00
1013.555, 44418.00
1014.666, 44340.00
1015.777, 44383.00
1016.888, 44394.00
1017.999, 44637.00
1019.110, 44732.00
1020.220, 44861.00
1021.331, 44856.00
1022.441, 45433.00
1023.551, 45332.00
1024.661, 45710.00
1025.770, 45927.00
1026.880, 46114.00
1027.989, 46576.00
1029.098, 46961.00
1030.207, 46841.00
1031.316, 47307.00
1032.425, 47800.00
1033.533, 47713.00
1034.642, 48082.00
1035.750, 48315.00
1036.858, 47974.00
1037.966, 47884.00
1039.073, 47728.00
1040.181, 47321.00
1041.288, 47049.00
1042.396, 47063.00
1043.503, 46647.00
1044.610, 46579.00
1045.716, 46159.00
1046.823, 46129.00
1047.929, 45919.00
1049.036, 46064.00
1050.142, 45969.00
1051.248, 45826.00
1052.353, 45862.00
1053.459, 45896.00
1054.564, 45895.00
1055.670, 46080.00
1056.775, 46278.00
1057.880, 46234.00
1058.985, 46534.00
1060.089, 46564.00
1061.194, 47102.00
1062.298, 47120.00
1063.402, 47446.00
1064.506, 47768.00
1065.610, 47643.00
1066.713, 47859.00
1067.817, 47649.00
1068.920, 47553.00
1070.023, 46989.00
1071.126, 47243.00
1072.229, 46676.00
1073.332, 46732.00
1074.435, 46643.00
1075.537, 46377.00
1076.639, 46477.00
1077.741, 46207.00
1078.843, 46170.00
1079.945, 46104.00
1081.046, 45940.00
1082.148, 46106.00
1083.249, 46131.00
1084.350, 45946.00
1085.451, 46044.00
1086.551, 46047.00
1087.652, 46048.00
1088.752, 46185.00
1089.853, 46145.00
1090.953, 46029.00
1092.053, 46173.00
1093.152, 46141.00
1094.252, 45989.00
1095.351, 46328.00
1096.451, 46365.00
1097.550, 46313.00
1098.649, 46388.00
1099.748, 46442.00
1100.846, 46474.00
1101.945, 46463.00
1103.043, 46366.00
1104.141, 46228.00
1105.239, 46683.00
1106.337, 46698.00
1107.434, 46636.00
1108.532, 46732.00
1109.629, 46699.00
1110.726, 46839.00
1111.823, 46900.94
1112.920, 46929.27
1114.017, 47051.00
1115.113, 46986.00
1116.210, 46962.00
1117.306, 46922.00
1118.402, 46964.00
1119.498, 47057.00
1120.593, 47292.00
1121.689, 47033.00
1122.784, 47228.00
1123.879, 47311.00
1124.974, 47700.00
1126.069, 47422.00
1127.164, 47342.00
1128.259, 47634.00
1129.353, 47559.00
1130.447, 47500.00
1131.541, 47865.00
1132.635, 47756.00
1133.729, 47648.00
1134.822, 47564.00
1135.916, 47747.00
1137.009, 48115.00
1138.102, 47759.00
1139.195, 48108.00
1140.288, 47818.00
1141.380, 47848.00
1142.473, 48014.00
1143.565, 48154.00
1144.657, 48312.00
1145.749, 48475.00
1146.841, 48651.94
1147.932, 48752.00
1149.024, 49104.00
1150.115, 49252.00
1151.206, 49641.00
1152.297, 50030.00
1153.388, 50318.00
1154.479, 50460.00
1155.569, 50362.00
1156.659, 50452.00
1157.750, 50332.00
1158.839, 49921.00
1159.929, 49966.00
1161.019, 49428.00
1162.108, 49362.00
1163.198, 49122.00
1164.287, 49126.00
1165.376, 49149.00
1166.465, 48829.00
1167.553, 49117.00
1168.642, 48952.00
1169.730, 48736.00
1170.818, 48915.00
1171.906, 48936.00
1172.994, 49150.00
1174.082, 49208.39
1175.170, 48977.00
1176.257, 49335.00
1177.344, 49077.00
1178.431, 49032.00
1179.518, 49216.00
1180.605, 49140.00
1181.691, 49187.00
1182.778, 49108.00
1183.864, 49421.00
1184.950, 49202.00
1186.036, 49538.00
1187.122, 49553.00
1188.207, 49368.00
1189.292, 49531.00
1190.378, 49588.00
1191.463, 49423.00
1192.548, 49813.00
1193.632, 49629.00
1194.717, 49308.00
1195.801, 49652.00
1196.886, 49640.00
1197.970, 49430.00
1199.054, 49885.00
1200.137, 49840.00
1201.221, 49853.00
1202.305, 50177.00
1203.388, 49915.00
1204.471, 49870.00
1205.554, 50039.00
1206.637, 49913.00
1207.719, 50118.00
1208.802, 49984.00
1209.884, 50099.00
1210.966, 50245.00
1212.048, 50097.00
1213.130, 49883.00
1214.212, 50161.00
1215.293, 50236.00
1216.374, 50447.00
1217.456, 50083.00
1218.536, 49886.00
1219.617, 50248.00
1220.698, 50500.00
1221.778, 50824.00
1222.859, 50476.00
1223.939, 50696.00
1225.019, 50633.00
1226.099, 50458.00
1227.178, 50572.00
1228.258, 50616.00
1229.337, 50651.00
1230.417, 50842.00
1231.496, 50728.00
1232.574, 50890.00
1233.653, 50863.00
1234.732, 50976.00
1235.810, 50939.00
1236.888, 50991.00
1237.966, 51073.00
1239.044, 51151.00
1240.122, 50997.00
1241.199, 51204.00
1242.277, 51173.00
1243.354, 51157.00
1244.431, 51400.00
1245.508, 51279.00
1246.585, 51472.00
1247.661, 51257.00
1248.738, 51568.00
1249.814, 51521.00
1250.890, 51313.00
1251.966, 51447.00
1253.042, 51918.00
1254.117, 52020.00
1255.193, 51762.00
1256.268, 51599.00
1257.343, 51751.00
1258.418, 51662.27
1259.493, 51855.00
1260.567, 51798.00
1261.642, 51910.00
1262.716, 51977.00
1263.790, 51816.00
1264.864, 51908.00
1265.938, 52017.00
1267.011, 52282.00
1268.085, 52082.00
1269.158, 51858.00
1270.231, 52322.00
1271.304, 52113.00
1272.377, 52207.00
1273.450, 52450.00
1274.522, 52402.00
1275.594, 52397.00
1276.666, 52695.00
1277.738, 52259.00
1278.810, 52416.00
1279.882, 52703.00
1280.953, 52716.00
