##NAMES=Senegalite
##RRUFFID=R050239
##IDEAL CHEMISTRY=Al_2_PO_4_(OH)_3_&#183;H_2_O
##LOCALITY=Kourondicko iron ore (magnetite) deposit, Faleme River Basin, Senegal
##OWNER=RRUFF
##SOURCE=Marcus Origlieri
##DESCRIPTION=Colorless prismatic crystals
##STATUS=The identification of this mineral has been confirmed by X-ray diffraction and chemical analysis
##URL=rruff.info/R050239
##MEASURED CHEMISTRY=Al_2.00_P_1.00_O_4_(OH)_3_Â·H_2_O
##PIN_ID=M00152
##ORIENTATION=Laser parallel to c* (0 0 1). Fiducial mark perpendicular to laser is parallel to a [1 0 0]
92.24600, 16840.00
93.48000, 17403.00
94.71400, 17788.00
95.94800, 18279.00
97.18200, 18717.00
98.41600, 19024.00
99.64900, 19549.00
100.8830, 19730.00
102.1160, 20026.00
103.3490, 20118.64
104.5820, 20273.00
105.8150, 20097.00
107.0470, 19884.00
108.2800, 19768.00
109.5120, 19947.00
110.7440, 20070.00
111.9760, 20024.00
113.2080, 20071.00
114.4400, 20216.00
115.6710, 20585.00
116.9030, 20938.00
118.1340, 21182.00
119.3650, 21495.00
120.5960, 22362.00
121.8270, 23106.00
123.0580, 24036.00
124.2880, 24954.61
125.5190, 26266.00
126.7490, 27009.00
127.9790, 28068.00
129.2090, 29354.00
130.4390, 30304.00
131.6680, 31211.00
132.8980, 31952.00
134.1270, 32085.00
135.3560, 31793.00
136.5850, 30388.00
137.8140, 28477.00
139.0430, 26757.00
140.2710, 25031.00
141.5000, 24158.00
142.7280, 23364.00
143.9560, 22850.00
145.1840, 22571.00
146.4120, 22570.00
147.6390, 22406.00
148.8670, 22380.00
150.0940, 22260.00
151.3210, 22387.00
152.5490, 22227.00
153.7750, 22227.00
155.0020, 22387.00
156.2290, 22687.00
157.4550, 22765.00
158.6810, 22825.00
159.9080, 22934.00
161.1340, 23241.00
162.3590, 23324.00
163.5850, 23236.00
164.8110, 23591.00
166.0360, 23663.00
167.2610, 23803.00
168.4860, 24011.00
169.7110, 23771.00
170.9360, 23389.00
172.1610, 23116.00
173.3850, 22981.00
174.6100, 22855.00
175.8340, 22874.00
177.0580, 22997.00
178.2820, 23062.00
179.5050, 23039.00
180.7290, 23149.30
181.9520, 23123.00
183.1760, 23295.00
184.3990, 23275.00
185.6220, 23378.00
186.8450, 23434.00
188.0670, 23626.00
189.2900, 23640.00
190.5120, 23831.00
191.7340, 24052.00
192.9560, 24206.00
194.1780, 24524.00
195.4000, 24625.00
196.6220, 24539.00
197.8430, 24624.00
199.0640, 24846.00
200.2860, 24799.00
201.5070, 24905.00
202.7270, 25042.00
203.9480, 24655.00
205.1690, 24808.00
206.3890, 24621.00
207.6090, 24453.00
208.8290, 24416.00
210.0490, 24283.00
211.2690, 24166.00
212.4890, 24300.00
213.7080, 24028.00
214.9280, 24146.00
216.1470, 24403.00
217.3660, 24613.00
218.5850, 24509.00
219.8030, 24613.00
221.0220, 24866.00
222.2400, 25379.00
223.4590, 25582.00
224.6770, 25825.00
225.8950, 26180.00
227.1120, 26505.00
228.3300, 27052.00
229.5480, 27610.00
230.7650, 28027.85
231.9820, 28662.00
233.1990, 29013.00
234.4160, 29502.00
235.6330, 30051.00
236.8490, 29842.00
238.0660, 29985.00
239.2820, 30083.00
240.4980, 29731.00
241.7140, 29764.00
242.9300, 29302.00
244.1460, 28686.00
245.3610, 27660.00
246.5770, 27289.00
247.7920, 26562.00
249.0070, 26143.00
250.2220, 25833.00
251.4370, 25965.00
252.6510, 25621.00
253.8660, 25436.00
255.0800, 25403.00
256.2940, 25283.00
257.5080, 25090.00
258.7220, 25504.00
259.9360, 25419.00
261.1490, 25404.00
262.3630, 25647.00
263.5760, 25178.00
264.7890, 25556.00
266.0020, 25332.00
267.2150, 25360.00
268.4270, 25479.00
269.6400, 25631.00
270.8520, 25624.00
272.0640, 25510.00
273.2760, 25783.00
274.4880, 25724.00
275.7000, 25678.00
276.9120, 25776.00
278.1230, 25855.00
279.3340, 26100.00
280.5450, 26276.00
281.7560, 26253.00
282.9670, 26319.00
284.1780, 26444.00
285.3880, 26833.00
286.5980, 26932.00
287.8090, 27471.00
289.0190, 27834.00
290.2290, 28425.00
291.4380, 28920.00
292.6480, 29610.00
293.8570, 30093.00
295.0670, 30846.00
296.2760, 31233.00
297.4850, 31551.00
298.6930, 32340.00
299.9020, 32624.00
301.1110, 32828.00
302.3190, 33144.00
303.5270, 32969.00
304.7350, 32040.00
305.9430, 31581.00
307.1510, 30579.00
308.3580, 29946.00
309.5660, 29056.00
310.7730, 29085.00
311.9800, 28673.00
313.1870, 28282.00
314.3940, 28149.00
315.6010, 28000.00
316.8070, 27766.00
318.0130, 27612.00
319.2200, 27611.00
320.4260, 27538.00
321.6310, 27467.00
322.8370, 27374.00
324.0430, 27321.75
325.2480, 27245.84
326.4540, 27194.00
327.6590, 27171.00
328.8640, 27138.74
330.0680, 27165.00
331.2730, 27135.00
332.4780, 27132.00
333.6820, 27170.25
334.8860, 27177.00
336.0900, 27169.00
337.2940, 27350.00
338.4980, 27278.00
339.7010, 27128.00
340.9050, 27363.00
342.1080, 27321.00
343.3110, 27381.00
344.5140, 27116.00
345.7170, 27380.00
346.9200, 27381.00
348.1220, 27137.00
349.3240, 27468.00
350.5270, 27485.00
351.7290, 27534.00
352.9310, 27577.00
354.1320, 27525.00
355.3340, 27644.00
356.5350, 27646.00
357.7370, 27618.00
358.9380, 27830.00
360.1390, 27906.00
361.3400, 27849.00
362.5400, 28099.00
363.7410, 27912.00
364.9410, 27909.00
366.1410, 27978.00
367.3410, 28065.00
368.5410, 28031.27
369.7410, 28128.00
370.9400, 27961.00
372.1400, 28097.00
373.3390, 27993.00
374.5380, 28048.00
375.7370, 28161.00
376.9360, 27881.00
378.1350, 28018.00
379.3330, 27952.73
380.5310, 28225.00
381.7300, 27998.00
382.9280, 28021.00
384.1260, 28207.00
385.3230, 28328.00
386.5210, 28342.00
387.7180, 28227.00
388.9160, 28337.00
390.1130, 28229.00
391.3100, 28430.00
392.5060, 28537.00
393.7030, 28476.00
394.9000, 28582.00
396.0960, 28643.00
397.2920, 28760.00
398.4880, 29070.00
399.6840, 28921.00
400.8800, 28978.00
402.0750, 28917.00
403.2710, 29260.00
404.4660, 29261.00
405.6610, 29389.00
406.8560, 29721.00
408.0510, 29674.00
409.2450, 30057.00
410.4400, 30287.00
411.6340, 30549.00
412.8280, 30628.00
414.0220, 30705.00
415.2160, 30681.00
416.4100, 30679.00
417.6030, 30936.00
418.7970, 30840.00
419.9900, 31199.00
421.1830, 30850.00
422.3760, 30879.00
423.5690, 30783.00
424.7610, 30810.00
425.9540, 31494.00
427.1460, 31516.00
428.3380, 31888.00
429.5300, 32211.00
430.7220, 32679.00
431.9140, 33097.00
433.1050, 33863.00
434.2970, 34227.00
435.4880, 34549.00
436.6790, 35022.00
437.8700, 35300.00
439.0610, 35247.00
440.2510, 35815.00
441.4420, 35640.00
442.6320, 35742.00
443.8220, 35545.00
445.0120, 35449.00
446.2020, 35186.00
447.3910, 35145.00
448.5810, 35034.00
449.7700, 34497.00
450.9600, 34535.00
452.1490, 34192.00
453.3370, 33757.00
454.5260, 33793.00
455.7150, 33640.00
456.9030, 33483.00
458.0910, 33831.00
459.2800, 33760.00
460.4670, 34030.00
461.6550, 33933.00
462.8430, 34061.00
464.0300, 34478.00
465.2180, 34902.00
466.4050, 35516.00
467.5920, 36027.00
468.7790, 36754.00
469.9650, 37584.00
471.1520, 38504.00
472.3380, 39535.00
473.5250, 40452.00
474.7110, 41247.00
475.8970, 41925.00
477.0820, 42394.00
478.2680, 42365.00
479.4540, 42090.00
480.6390, 41228.00
481.8240, 40246.00
483.0090, 38915.00
484.1940, 37567.00
485.3780, 36440.00
486.5630, 35514.00
487.7470, 34858.00
488.9320, 34212.00
490.1160, 34225.00
491.3000, 34062.00
492.4830, 33553.00
493.6670, 33929.00
494.8500, 34021.00
496.0340, 34291.00
497.2170, 34235.00
498.4000, 34494.00
499.5820, 34238.00
500.7650, 34603.00
501.9480, 34276.00
503.1300, 34181.00
504.3120, 34022.00
505.4940, 34021.00
506.6760, 33487.00
507.8580, 33246.00
509.0390, 33542.00
510.2210, 33056.00
511.4020, 33101.00
512.5830, 32815.00
513.7640, 32385.00
514.9450, 32333.00
516.1250, 32351.00
517.3060, 32342.00
518.4860, 32375.00
519.6660, 32058.00
520.8460, 32023.00
522.0260, 31922.00
523.2060, 31893.00
524.3850, 32148.00
525.5650, 32000.00
526.7440, 32076.00
527.9230, 32016.00
529.1020, 31759.00
530.2810, 31749.00
531.4590, 31957.00
532.6380, 32079.00
533.8160, 31826.00
534.9940, 32107.00
536.1720, 31983.00
537.3500, 32171.00
538.5270, 31996.00
539.7050, 32168.00
540.8820, 32280.00
542.0590, 32232.00
543.2360, 32370.00
544.4130, 32326.00
545.5900, 32566.00
546.7660, 32321.00
547.9430, 32553.00
549.1190, 32361.00
550.2950, 32346.00
551.4710, 32544.00
552.6470, 32538.00
553.8220, 32509.00
554.9980, 32599.00
556.1730, 32452.00
557.3480, 32567.00
558.5230, 32683.00
559.6980, 32555.00
560.8730, 32509.00
562.0470, 32546.00
563.2220, 32590.00
564.3960, 32431.00
565.5700, 32571.00
566.7440, 32472.00
567.9170, 32617.00
569.0910, 32655.00
570.2640, 32562.00
571.4380, 32491.00
572.6110, 32555.00
573.7840, 32580.00
574.9570, 32567.30
576.1290, 32456.00
577.3020, 32596.00
578.4740, 32500.00
579.6460, 32532.00
580.8180, 32843.00
581.9900, 32836.00
583.1620, 32662.00
584.3330, 32863.00
585.5040, 32737.00
586.6760, 32819.00
587.8470, 32888.00
589.0180, 32718.00
590.1880, 32899.00
591.3590, 32834.00
592.5290, 32794.00
593.7000, 32960.00
594.8700, 32843.00
596.0400, 33135.00
597.2090, 33271.00
598.3790, 33103.00
599.5490, 33255.00
600.7180, 33385.00
601.8870, 33410.00
603.0560, 33489.18
604.2250, 33425.00
605.3940, 33504.00
606.5620, 33503.00
607.7300, 33592.36
608.8990, 33757.00
610.0670, 33799.00
611.2350, 33910.00
612.4020, 33990.00
613.5700, 34199.00
614.7370, 34415.00
615.9050, 34344.00
617.0720, 34409.00
618.2390, 34755.00
619.4060, 35101.00
620.5720, 34938.00
621.7390, 35327.00
622.9050, 35543.00
624.0710, 35644.00
625.2370, 36141.00
626.4030, 36266.00
627.5690, 36582.00
628.7340, 36777.00
629.9000, 36929.00
631.0650, 36964.00
632.2300, 37135.00
633.3950, 37165.00
634.5600, 37170.00
635.7240, 37017.00
636.8890, 36650.00
638.0530, 36363.00
639.2170, 36263.00
640.3810, 36191.00
641.5450, 35708.00
642.7080, 35662.00
643.8720, 35528.00
645.0350, 35345.00
646.1980, 35292.00
647.3610, 35092.00
648.5240, 34926.00
649.6870, 34805.00
650.8490, 35166.00
652.0120, 34888.00
653.1740, 34936.00
654.3360, 34812.00
655.4980, 34846.00
656.6600, 34843.00
657.8210, 34605.00
658.9830, 34781.00
660.1440, 34624.00
661.3050, 34919.00
662.4660, 34816.00
663.6270, 34758.00
664.7870, 34680.00
665.9480, 34539.00
667.1080, 34536.08
668.2680, 34842.00
669.4280, 34519.00
670.5880, 34780.00
671.7480, 34859.00
672.9070, 34673.00
674.0670, 34843.00
675.2260, 34794.00
676.3850, 35078.00
677.5440, 35002.00
678.7030, 34836.00
679.8610, 34995.00
681.0200, 35194.00
682.1780, 35077.00
683.3360, 35032.00
684.4940, 35310.00
685.6520, 35082.00
686.8090, 35182.00
687.9670, 35179.00
689.1240, 35542.00
690.2810, 35624.00
691.4380, 35657.00
692.5950, 35627.00
693.7520, 35800.43
694.9080, 35681.00
696.0650, 36019.00
697.2210, 36133.00
698.3770, 36058.00
699.5330, 36188.00
700.6880, 36394.00
701.8440, 36379.00
702.9990, 36353.00
704.1550, 36297.00
705.3100, 36191.00
706.4650, 36094.00
707.6190, 36048.00
708.7740, 35914.00
709.9290, 35911.70
711.0830, 36033.00
712.2370, 35885.00
713.3910, 35941.00
714.5450, 35929.00
715.6980, 35642.00
716.8520, 35557.00
718.0050, 35406.00
719.1580, 35592.00
720.3110, 35614.00
721.4640, 35766.00
722.6170, 35873.00
723.7700, 35385.00
724.9220, 35597.00
726.0740, 35571.00
727.2260, 35867.00
728.3780, 35693.00
729.5300, 35870.00
730.6810, 35744.00
731.8330, 36043.00
732.9840, 35755.00
734.1350, 35811.00
735.2860, 35779.00
736.4370, 35895.00
737.5880, 35889.00
738.7380, 35830.00
739.8880, 35933.70
741.0390, 35917.00
742.1890, 36064.00
743.3380, 36137.00
744.4880, 36237.00
745.6380, 36332.00
746.7870, 36091.00
747.9360, 36171.00
749.0850, 35967.00
750.2340, 36220.00
751.3830, 36014.00
752.5310, 36341.00
753.6800, 36232.00
754.8280, 36398.00
755.9760, 36565.00
757.1240, 36494.00
758.2720, 36265.00
759.4190, 36361.00
760.5670, 36283.00
761.7140, 36426.00
762.8610, 36621.00
764.0080, 36383.00
765.1550, 36503.00
766.3020, 36661.00
767.4480, 36397.00
768.5950, 36544.00
769.7410, 36792.00
770.8870, 36703.00
772.0330, 36923.00
773.1780, 36916.52
774.3240, 36813.00
775.4690, 36919.00
776.6140, 36879.00
777.7590, 36856.00
778.9040, 36874.00
780.0490, 36909.00
781.1940, 37037.00
782.3380, 37017.13
783.4820, 37014.00
784.6260, 37091.00
785.7700, 37054.00
786.9140, 37188.00
788.0580, 37181.00
789.2010, 37273.00
790.3450, 37285.00
791.4880, 37136.00
792.6310, 37197.00
793.7730, 37151.00
794.9160, 37247.67
796.0590, 37180.00
797.2010, 37444.00
798.3430, 37541.00
799.4850, 37493.00
800.6270, 37648.00
801.7690, 37654.00
802.9100, 37493.00
804.0520, 37738.00
805.1930, 37687.00
806.3340, 37554.00
807.4750, 37920.00
808.6160, 37873.00
809.7560, 37945.00
810.8970, 38045.00
812.0370, 38170.00
813.1770, 38150.00
814.3170, 38060.00
815.4570, 38033.00
816.5960, 38020.00
817.7360, 38247.00
818.8750, 38229.00
820.0140, 38425.00
821.1530, 38570.00
822.2920, 38630.98
823.4310, 38528.00
824.5690, 38763.00
825.7070, 38658.00
826.8460, 38577.00
827.9840, 38624.00
829.1220, 38325.00
830.2590, 38292.00
831.3970, 38595.00
832.5340, 38660.00
833.6710, 38890.00
834.8080, 38723.00
835.9450, 38649.00
837.0820, 38584.00
838.2190, 38622.00
839.3550, 38532.00
840.4910, 38636.00
841.6270, 38793.00
842.7630, 38665.00
843.8990, 39043.00
845.0350, 38707.00
846.1700, 38760.00
847.3060, 39050.00
848.4410, 38728.00
849.5760, 38737.00
850.7100, 38991.00
851.8450, 38857.00
852.9800, 39075.00
854.1140, 38808.00
855.2480, 39116.00
856.3820, 38732.00
857.5160, 39098.00
858.6500, 39157.00
859.7830, 39091.00
860.9170, 39351.00
862.0500, 39015.00
863.1830, 39283.00
864.3160, 39331.00
865.4480, 39303.00
866.5810, 39141.00
867.7130, 39366.00
868.8460, 39166.00
869.9780, 39526.00
871.1100, 39319.00
872.2410, 39333.00
873.3730, 39311.00
874.5050, 39339.00
875.6360, 39778.00
876.7670, 39655.00
877.8980, 39863.00
879.0290, 39536.00
880.1590, 39858.00
881.2900, 39949.00
882.4200, 40200.00
883.5500, 40100.00
884.6800, 40217.00
885.8100, 40066.00
886.9400, 40343.00
888.0690, 40277.00
889.1990, 40463.00
890.3280, 40416.00
891.4570, 40317.00
892.5860, 40137.00
893.7140, 40131.00
894.8430, 40395.00
895.9710, 40374.00
897.1000, 40357.00
898.2280, 40390.00
899.3560, 40485.00
900.4830, 40241.00
901.6110, 40360.00
902.7380, 40152.00
903.8660, 40131.00
904.9930, 40568.00
906.1200, 40535.00
907.2460, 40433.00
908.3730, 40213.00
909.5000, 40490.00
910.6260, 40425.00
911.7520, 40589.00
912.8780, 40208.00
914.0040, 40397.00
915.1290, 40455.00
916.2550, 40704.00
917.3800, 40727.00
918.5050, 40842.00
919.6300, 40542.00
920.7550, 40474.00
921.8800, 40480.00
923.0040, 40723.00
924.1290, 40641.00
925.2530, 40419.00
926.3770, 40777.00
927.5010, 40806.00
928.6250, 40624.00
929.7480, 41095.00
930.8720, 40729.00
931.9950, 40800.00
933.1180, 41149.00
934.2410, 41000.00
935.3640, 40965.00
936.4860, 40893.00
937.6090, 40972.00
938.7310, 41253.00
939.8530, 41326.00
940.9750, 40879.00
942.0970, 41213.00
943.2180, 40953.00
944.3400, 41216.00
945.4610, 41395.00
946.5820, 41093.00
947.7030, 41421.00
948.8240, 41166.00
949.9450, 41350.00
951.0650, 41335.00
952.1860, 41361.00
953.3060, 41385.00
954.4260, 41400.00
955.5460, 41587.00
956.6650, 41450.00
957.7850, 41399.00
958.9040, 41334.00
960.0230, 41492.00
961.1420, 41641.00
962.2610, 41785.00
963.3800, 41548.00
964.4990, 41636.00
965.6170, 41523.00
966.7350, 41719.00
967.8530, 41870.00
968.9710, 41881.00
970.0890, 42053.00
971.2070, 42099.00
972.3240, 41923.00
973.4410, 41800.00
974.5580, 42312.00
975.6750, 42006.00
976.7920, 42367.00
977.9090, 42116.00
979.0250, 42305.00
980.1410, 42533.00
981.2580, 42399.00
982.3740, 42346.00
983.4890, 42513.00
984.6050, 42382.00
985.7200, 42691.00
986.8360, 42589.00
987.9510, 42457.00
989.0660, 42504.00
990.1810, 42608.00
991.2950, 42653.00
992.4100, 42595.00
993.5240, 42690.00
994.6390, 43090.00
995.7530, 42960.00
996.8660, 42923.00
997.9800, 43249.00
999.0940, 43199.00
1000.207, 43281.89
1001.320, 43407.00
1002.433, 43382.00
1003.546, 43395.00
1004.659, 43512.00
1005.772, 43360.00
1006.884, 43475.47
1007.996, 43879.00
1009.108, 43716.00
1010.220, 44058.00
1011.332, 44502.00
1012.444, 44415.00
1013.555, 44423.00
1014.666, 44606.00
1015.777, 45034.00
1016.888, 44844.00
1017.999, 45412.00
1019.110, 45933.00
1020.220, 46109.00
1021.331, 46281.00
1022.441, 46481.00
1023.551, 46691.00
1024.661, 47092.00
1025.770, 47536.00
1026.880, 47385.00
1027.989, 47308.00
1029.098, 47602.00
1030.207, 47490.00
1031.316, 46989.00
1032.425, 46788.00
1033.533, 46645.00
1034.642, 46083.00
1035.750, 45576.00
1036.858, 45594.00
1037.966, 45164.00
1039.073, 45088.00
1040.181, 45167.00
1041.288, 44995.00
1042.396, 45008.00
1043.503, 45210.00
1044.610, 44808.00
1045.716, 45099.00
1046.823, 44842.00
1047.929, 45007.00
1049.036, 45047.00
1050.142, 45142.00
1051.248, 45504.00
1052.353, 45895.00
1053.459, 45918.00
1054.564, 46191.16
1055.670, 46329.00
1056.775, 46518.00
1057.880, 46709.00
1058.985, 46904.35
1060.089, 47104.38
1061.194, 47330.98
1062.298, 47519.69
1063.402, 47728.00
1064.506, 47954.00
1065.610, 48147.00
1066.713, 48448.00
1067.817, 48347.00
1068.920, 48818.00
1070.023, 48834.00
1071.126, 49371.00
1072.229, 50210.00
1073.332, 50430.00
1074.435, 50751.00
1075.537, 51882.00
1076.639, 52009.00
1077.741, 52141.00
1078.843, 51880.00
1079.945, 51328.00
1081.046, 50654.00
1082.148, 49914.00
1083.249, 48907.00
1084.350, 48260.00
1085.451, 47607.00
1086.551, 47278.00
1087.652, 47090.00
1088.752, 46671.00
1089.853, 46375.00
1090.953, 46393.00
1092.053, 46159.00
1093.152, 46233.00
1094.252, 45884.00
1095.351, 46124.00
1096.451, 46071.00
1097.550, 45842.00
1098.649, 45942.00
1099.748, 46152.00
1100.846, 46258.00
1101.945, 46170.00
1103.043, 46079.00
1104.141, 46051.00
1105.239, 46127.00
1106.337, 46201.00
1107.434, 45932.00
1108.532, 46246.00
1109.629, 46110.00
1110.726, 46069.00
1111.823, 46160.00
1112.920, 46164.00
1114.017, 46439.00
1115.113, 46278.00
1116.210, 46442.00
1117.306, 46554.00
1118.402, 46501.89
1119.498, 46285.00
1120.593, 46531.00
1121.689, 46392.00
1122.784, 46415.00
1123.879, 46692.00
1124.974, 46803.00
1126.069, 46731.00
1127.164, 46839.00
1128.259, 46946.00
1129.353, 47014.07
1130.447, 46999.00
1131.541, 47189.00
1132.635, 47090.00
1133.729, 47008.00
1134.822, 47369.00
1135.916, 47366.00
1137.009, 47644.00
1138.102, 47577.00
1139.195, 47567.00
1140.288, 47702.00
1141.380, 47837.00
1142.473, 48110.00
1143.565, 48727.00
1144.657, 49201.00
1145.749, 49150.00
1146.841, 49926.00
1147.932, 50117.00
1149.024, 50436.00
1150.115, 50797.00
1151.206, 50592.00
1152.297, 50509.00
1153.388, 50429.00
1154.479, 50388.00
1155.569, 49919.00
1156.659, 49568.00
1157.750, 49247.00
1158.839, 49042.00
1159.929, 49045.00
1161.019, 49023.00
1162.108, 48740.00
1163.198, 48906.00
1164.287, 48711.00
1165.376, 49042.00
1166.465, 48878.00
1167.553, 48916.00
1168.642, 49130.00
1169.730, 49183.00
1170.818, 49435.00
1171.906, 49305.00
1172.994, 49404.00
1174.082, 49467.00
1175.170, 49766.00
1176.257, 49982.00
1177.344, 49759.00
1178.431, 50081.00
1179.518, 49835.00
1180.605, 49885.00
1181.691, 49583.00
1182.778, 49747.00
1183.864, 49296.00
1184.950, 49427.00
1186.036, 49392.00
1187.122, 49206.00
1188.207, 49106.00
1189.292, 49193.00
1190.378, 49236.00
1191.463, 48765.00
1192.548, 48989.00
1193.632, 48819.00
1194.717, 49042.00
1195.801, 49059.00
1196.886, 49171.00
1197.970, 49061.00
1199.054, 48785.00
1200.137, 49068.00
1201.221, 48743.00
1202.305, 49199.00
1203.388, 49171.00
1204.471, 49114.00
1205.554, 49167.00
1206.637, 49523.00
1207.719, 49299.00
1208.802, 49188.00
1209.884, 49610.00
1210.966, 49606.00
1212.048, 49502.00
1213.130, 49361.00
1214.212, 49550.00
1215.293, 49790.00
1216.374, 49887.00
1217.456, 49682.00
1218.536, 49906.00
1219.617, 49712.00
1220.698, 49969.00
1221.778, 49883.00
1222.859, 49875.00
1223.939, 49879.00
1225.019, 49760.00
1226.099, 49896.48
1227.178, 50068.00
1228.258, 50102.00
1229.337, 50195.43
1230.417, 50082.00
1231.496, 50278.00
1232.574, 50230.00
1233.653, 50250.23
1234.732, 50416.00
1235.810, 50267.00
1236.888, 50145.00
1237.966, 50368.00
1239.044, 50352.00
1240.122, 50663.00
1241.199, 50712.00
1242.277, 50724.00
1243.354, 50532.00
1244.431, 50571.00
1245.508, 50527.00
1246.585, 50761.00
1247.661, 50663.00
1248.738, 50603.00
1249.814, 50909.00
1250.890, 51033.00
1251.966, 51056.00
1253.042, 50945.00
1254.117, 50883.00
1255.193, 50939.00
1256.268, 50932.00
1257.343, 51074.00
1258.418, 51230.00
1259.493, 51173.00
1260.567, 51242.00
1261.642, 51339.00
1262.716, 51495.00
1263.790, 51387.00
1264.864, 51510.00
1265.938, 51408.00
1267.011, 51395.00
1268.085, 51594.00
1269.158, 51666.00
1270.231, 51559.00
1271.304, 51812.00
1272.377, 51677.00
