##NAMES=Senegalite
##RRUFFID=R050239
##IDEAL CHEMISTRY=Al_2_PO_4_(OH)_3_&#183;H_2_O
##LOCALITY=Kourondicko iron ore (magnetite) deposit, Faleme River Basin, Senegal
##OWNER=RRUFF
##SOURCE=Marcus Origlieri
##DESCRIPTION=Colorless prismatic crystals
##STATUS=The identification of this mineral has been confirmed by X-ray diffraction and chemical analysis
##URL=rruff.info/R050239
##MEASURED CHEMISTRY=Al_2.00_P_1.00_O_4_(OH)_3_Â·H_2_O
##PIN_ID=M00152
##ORIENTATION=Laser parallel to c* (0 0 1). Fiducial mark perpendicular to laser is parallel to a [1 0 0]
92.24600, 17010.00
93.48000, 17621.00
94.71400, 18278.00
95.94800, 18520.00
97.18200, 19225.00
98.41600, 19698.00
99.64900, 20449.00
100.8830, 20856.00
102.1160, 21359.00
103.3490, 21293.59
104.5820, 21410.00
105.8150, 20758.00
107.0470, 19897.00
108.2800, 19302.00
109.5120, 19224.00
110.7440, 19001.00
111.9760, 19036.00
113.2080, 18904.00
114.4400, 19032.00
115.6710, 19161.00
116.9030, 19464.00
118.1340, 19383.00
119.3650, 19595.00
120.5960, 20054.00
121.8270, 20219.00
123.0580, 20844.00
124.2880, 21109.00
125.5190, 21662.00
126.7490, 21918.00
127.9790, 22284.00
129.2090, 22614.00
130.4390, 23061.00
131.6680, 23512.00
132.8980, 23599.00
134.1270, 23808.00
135.3560, 23775.00
136.5850, 23181.00
137.8140, 22651.00
139.0430, 22113.00
140.2710, 21579.00
141.5000, 21120.00
142.7280, 20915.00
143.9560, 20674.00
145.1840, 20638.21
146.4120, 20918.00
147.6390, 20726.00
148.8670, 20797.00
150.0940, 20786.00
151.3210, 20673.00
152.5490, 20711.00
153.7750, 20920.00
155.0020, 20838.00
156.2290, 20773.00
157.4550, 21064.00
158.6810, 21147.00
159.9080, 21298.00
161.1340, 21174.00
162.3590, 21394.00
163.5850, 21525.00
164.8110, 21738.00
166.0360, 21741.00
167.2610, 22088.00
168.4860, 22006.00
169.7110, 22239.00
170.9360, 22266.00
172.1610, 22184.00
173.3850, 22355.00
174.6100, 22257.00
175.8340, 22594.00
177.0580, 22687.00
178.2820, 22836.00
179.5050, 22820.00
180.7290, 22875.00
181.9520, 22795.00
183.1760, 22697.00
184.3990, 22728.00
185.6220, 23030.00
186.8450, 23035.00
188.0670, 23237.00
189.2900, 23530.00
190.5120, 23719.00
191.7340, 24144.00
192.9560, 24294.00
194.1780, 24385.00
195.4000, 24311.00
196.6220, 24219.00
197.8430, 23678.00
199.0640, 23373.00
200.2860, 23103.00
201.5070, 22806.00
202.7270, 22950.00
203.9480, 22827.00
205.1690, 22790.00
206.3890, 22547.00
207.6090, 22640.00
208.8290, 22463.00
210.0490, 22517.00
211.2690, 22685.00
212.4890, 22637.00
213.7080, 22786.00
214.9280, 22919.00
216.1470, 23252.00
217.3660, 23246.00
218.5850, 23286.00
219.8030, 23700.00
221.0220, 23998.00
222.2400, 24216.00
223.4590, 24677.00
224.6770, 24941.00
225.8950, 25224.00
227.1120, 25548.00
228.3300, 25963.00
229.5480, 26288.00
230.7650, 26543.00
231.9820, 27002.00
233.1990, 27309.00
234.4160, 27364.00
235.6330, 27529.00
236.8490, 27378.00
238.0660, 26628.00
239.2820, 26096.00
240.4980, 25983.00
241.7140, 25589.00
242.9300, 25116.00
244.1460, 24671.00
245.3610, 24331.00
246.5770, 24318.00
247.7920, 23853.00
249.0070, 23990.00
250.2220, 23637.00
251.4370, 23616.00
252.6510, 23576.00
253.8660, 23574.00
255.0800, 23543.27
256.2940, 23577.00
257.5080, 23508.00
258.7220, 23542.00
259.9360, 23547.00
261.1490, 23684.00
262.3630, 23677.00
263.5760, 23591.00
264.7890, 23854.00
266.0020, 23576.00
267.2150, 23770.00
268.4270, 23876.00
269.6400, 23871.00
270.8520, 23926.00
272.0640, 23986.07
273.2760, 24055.00
274.4880, 24093.00
275.7000, 24049.00
276.9120, 24094.00
278.1230, 24283.00
279.3340, 24432.00
280.5450, 24547.00
281.7560, 24904.00
282.9670, 24928.00
284.1780, 24917.00
285.3880, 25281.00
286.5980, 25326.00
287.8090, 25590.00
289.0190, 25640.00
290.2290, 25967.00
291.4380, 26414.00
292.6480, 26855.00
293.8570, 27055.00
295.0670, 27564.00
296.2760, 27905.00
297.4850, 27847.00
298.6930, 28293.00
299.9020, 28452.00
301.1110, 28606.00
302.3190, 28866.00
303.5270, 28728.00
304.7350, 28542.00
305.9430, 28460.00
307.1510, 28039.00
308.3580, 27873.00
309.5660, 27771.00
310.7730, 27912.00
311.9800, 27665.00
313.1870, 27917.00
314.3940, 27886.00
315.6010, 27951.00
316.8070, 27727.00
318.0130, 27619.00
319.2200, 27784.00
320.4260, 27273.00
321.6310, 27063.00
322.8370, 27218.00
324.0430, 27066.00
325.2480, 26665.00
326.4540, 26816.00
327.6590, 26733.00
328.8640, 26465.00
330.0680, 26486.00
331.2730, 26206.00
332.4780, 26225.00
333.6820, 25856.00
334.8860, 25849.00
336.0900, 25835.00
337.2940, 25716.00
338.4980, 25616.00
339.7010, 25739.00
340.9050, 25637.00
342.1080, 25798.00
343.3110, 25737.00
344.5140, 25748.00
345.7170, 25899.00
346.9200, 25978.38
348.1220, 26113.00
349.3240, 26345.00
350.5270, 26430.00
351.7290, 26690.00
352.9310, 26830.43
354.1320, 26930.00
355.3340, 27161.00
356.5350, 27346.00
357.7370, 27522.00
358.9380, 27922.00
360.1390, 27830.00
361.3400, 28216.00
362.5400, 28453.00
363.7410, 28190.00
364.9410, 28466.00
366.1410, 28531.00
367.3410, 28385.00
368.5410, 28393.00
369.7410, 28318.00
370.9400, 28116.00
372.1400, 28189.00
373.3390, 28201.00
374.5380, 27724.00
375.7370, 27794.00
376.9360, 27574.00
378.1350, 27486.00
379.3330, 27201.00
380.5310, 26832.00
381.7300, 26789.00
382.9280, 26543.00
384.1260, 26494.00
385.3230, 26483.00
386.5210, 26440.00
387.7180, 26442.00
388.9160, 26425.00
390.1130, 26430.15
391.3100, 26497.54
392.5060, 26482.00
393.7030, 26614.00
394.9000, 26703.00
396.0960, 26669.00
397.2920, 26588.00
398.4880, 26741.00
399.6840, 26789.00
400.8800, 26803.00
402.0750, 27058.00
403.2710, 27141.38
404.4660, 27499.00
405.6610, 27473.00
406.8560, 27717.00
408.0510, 27871.00
409.2450, 28036.00
410.4400, 28292.00
411.6340, 28494.00
412.8280, 28677.00
414.0220, 29023.00
415.2160, 28870.00
416.4100, 28903.00
417.6030, 29266.00
418.7970, 28911.00
419.9900, 28820.00
421.1830, 28810.00
422.3760, 28637.00
423.5690, 28866.00
424.7610, 28588.00
425.9540, 28865.00
427.1460, 29154.00
428.3380, 29181.00
429.5300, 29493.00
430.7220, 29895.00
431.9140, 29969.00
433.1050, 30338.00
434.2970, 30668.00
435.4880, 30584.00
436.6790, 30639.00
437.8700, 31042.00
439.0610, 31196.00
440.2510, 31411.00
441.4420, 31289.00
442.6320, 31408.00
443.8220, 31366.00
445.0120, 31085.00
446.2020, 31084.00
447.3910, 30939.00
448.5810, 30976.00
449.7700, 30975.00
450.9600, 30993.10
452.1490, 30935.00
453.3370, 31178.00
454.5260, 31164.00
455.7150, 31379.00
456.9030, 31355.00
458.0910, 31730.00
459.2800, 31811.00
460.4670, 31732.00
461.6550, 31592.00
462.8430, 31558.00
464.0300, 31505.00
465.2180, 31608.00
466.4050, 31783.00
467.5920, 32041.00
468.7790, 32258.00
469.9650, 33108.00
471.1520, 33625.00
472.3380, 34307.00
473.5250, 34833.00
474.7110, 35453.00
475.8970, 35960.00
477.0820, 36300.00
478.2680, 36500.00
479.4540, 36381.00
480.6390, 35845.00
481.8240, 35415.00
483.0090, 34341.00
484.1940, 33658.00
485.3780, 32657.00
486.5630, 31902.00
487.7470, 31438.00
488.9320, 31111.00
490.1160, 30778.00
491.3000, 30750.00
492.4830, 30624.00
493.6670, 30711.00
494.8500, 30721.00
496.0340, 30721.00
497.2170, 30834.00
498.4000, 30548.00
499.5820, 30511.00
500.7650, 29958.00
501.9480, 30024.00
503.1300, 30100.00
504.3120, 30211.00
505.4940, 30053.00
506.6760, 29919.00
507.8580, 29848.00
509.0390, 29897.00
510.2210, 29847.00
511.4020, 29738.00
512.5830, 29499.00
513.7640, 29293.00
514.9450, 29586.00
516.1250, 29612.00
517.3060, 29251.00
518.4860, 29364.00
519.6660, 29302.00
520.8460, 29565.00
522.0260, 29717.00
523.2060, 29455.00
524.3850, 29659.00
525.5650, 29844.00
526.7440, 29594.00
527.9230, 29954.00
529.1020, 29919.00
530.2810, 30251.00
531.4590, 30099.00
532.6380, 30546.00
533.8160, 30582.00
534.9940, 30772.00
536.1720, 30790.00
537.3500, 31203.00
538.5270, 31332.00
539.7050, 31476.00
540.8820, 31298.00
542.0590, 31307.00
543.2360, 31718.00
544.4130, 31687.00
545.5900, 31996.00
546.7660, 31605.00
547.9430, 31765.00
549.1190, 31789.00
550.2950, 31795.00
551.4710, 31914.00
552.6470, 31656.00
553.8220, 31847.00
554.9980, 31615.00
556.1730, 31870.00
557.3480, 31843.00
558.5230, 31747.00
559.6980, 31658.00
560.8730, 31401.00
562.0470, 31655.00
563.2220, 31610.00
564.3960, 31201.00
565.5700, 31373.00
566.7440, 31340.00
567.9170, 31154.00
569.0910, 31236.00
570.2640, 31147.00
571.4380, 30935.00
572.6110, 31001.00
573.7840, 30924.99
574.9570, 30924.00
576.1290, 30958.00
577.3020, 30914.00
578.4740, 30984.00
579.6460, 30769.00
580.8180, 30973.00
581.9900, 30600.00
583.1620, 30736.00
584.3330, 30579.00
585.5040, 30744.00
586.6760, 30507.00
587.8470, 30587.00
589.0180, 30923.00
590.1880, 30759.00
591.3590, 30725.00
592.5290, 30806.00
593.7000, 30712.42
594.8700, 30872.00
596.0400, 30797.00
597.2090, 30953.00
598.3790, 30968.95
599.5490, 30979.00
600.7180, 31006.00
601.8870, 31124.00
603.0560, 31080.00
604.2250, 31328.00
605.3940, 31129.00
606.5620, 31354.00
607.7300, 31007.00
608.8990, 31299.00
610.0670, 31521.00
611.2350, 31426.00
612.4020, 31442.00
613.5700, 31625.00
614.7370, 31556.00
615.9050, 31620.00
617.0720, 31787.00
618.2390, 31855.00
619.4060, 31932.00
620.5720, 31965.00
621.7390, 32126.00
622.9050, 32241.14
624.0710, 32399.00
625.2370, 32544.00
626.4030, 32688.00
627.5690, 32809.00
628.7340, 33025.00
629.9000, 33137.00
631.0650, 32885.00
632.2300, 32983.00
633.3950, 32733.00
634.5600, 32898.00
635.7240, 32656.00
636.8890, 32531.00
638.0530, 32679.00
639.2170, 32256.00
640.3810, 32287.00
641.5450, 32106.00
642.7080, 32105.00
643.8720, 31765.00
645.0350, 32140.00
646.1980, 31846.00
647.3610, 31967.00
648.5240, 31855.00
649.6870, 31640.00
650.8490, 31712.00
652.0120, 31831.00
653.1740, 31782.00
654.3360, 31692.00
655.4980, 31686.00
656.6600, 31637.00
657.8210, 31698.52
658.9830, 31717.00
660.1440, 31847.00
661.3050, 31997.00
662.4660, 32043.00
663.6270, 32033.00
664.7870, 32081.00
665.9480, 32107.00
667.1080, 32528.00
668.2680, 32608.00
669.4280, 32444.00
670.5880, 33086.00
671.7480, 33046.00
672.9070, 32953.00
674.0670, 32965.00
675.2260, 33083.00
676.3850, 32828.00
677.5440, 32948.00
678.7030, 32829.00
679.8610, 32691.00
681.0200, 32832.00
682.1780, 32784.00
683.3360, 32711.00
684.4940, 32631.00
685.6520, 32760.00
686.8090, 32684.00
687.9670, 32928.00
689.1240, 32649.00
690.2810, 33084.00
691.4380, 32895.00
692.5950, 33152.00
693.7520, 33638.00
694.9080, 33580.00
696.0650, 33829.00
697.2210, 33999.00
698.3770, 34216.00
699.5330, 34279.00
700.6880, 34550.00
701.8440, 34406.00
702.9990, 34464.00
704.1550, 34258.00
705.3100, 33907.00
706.4650, 34081.00
707.6190, 33751.00
708.7740, 33512.00
709.9290, 33514.00
711.0830, 33426.00
712.2370, 32985.00
713.3910, 32968.00
714.5450, 32802.00
715.6980, 32856.00
716.8520, 32961.00
718.0050, 32881.49
719.1580, 32803.00
720.3110, 32889.00
721.4640, 32769.00
722.6170, 32797.00
723.7700, 32758.00
724.9220, 32790.00
726.0740, 33000.00
727.2260, 32917.00
728.3780, 32947.00
729.5300, 32953.00
730.6810, 32935.00
731.8330, 33014.00
732.9840, 33102.00
734.1350, 33110.00
735.2860, 33118.00
736.4370, 33101.00
737.5880, 33240.00
738.7380, 33134.00
739.8880, 32920.00
741.0390, 33122.00
742.1890, 33158.00
743.3380, 33012.00
744.4880, 33205.00
745.6380, 33236.00
746.7870, 33075.00
747.9360, 33229.00
749.0850, 33247.00
750.2340, 33239.00
751.3830, 33315.35
752.5310, 33258.17
753.6800, 33352.00
754.8280, 33209.00
755.9760, 33168.00
757.1240, 33213.00
758.2720, 33335.00
759.4190, 33463.00
760.5670, 33457.75
761.7140, 33266.00
762.8610, 33400.00
764.0080, 33283.00
765.1550, 33092.00
766.3020, 33435.00
767.4480, 33416.00
768.5950, 33455.00
769.7410, 33292.00
770.8870, 33128.00
772.0330, 33495.00
773.1780, 33417.00
774.3240, 33463.00
775.4690, 33392.00
776.6140, 33529.00
777.7590, 33608.00
778.9040, 33684.00
780.0490, 33722.49
781.1940, 33744.23
782.3380, 33690.00
783.4820, 33729.00
784.6260, 33590.00
785.7700, 33538.00
786.9140, 33615.00
788.0580, 33781.00
789.2010, 33623.00
790.3450, 33809.00
791.4880, 33945.00
792.6310, 33892.00
793.7730, 33672.00
794.9160, 33822.00
796.0590, 33762.00
797.2010, 33894.00
798.3430, 33933.00
799.4850, 34201.00
800.6270, 33990.00
801.7690, 34091.00
802.9100, 34267.00
804.0520, 34068.00
805.1930, 34045.00
806.3340, 34126.00
807.4750, 34286.00
808.6160, 34017.00
809.7560, 34262.00
810.8970, 34334.00
812.0370, 34472.00
813.1770, 34576.00
814.3170, 34843.00
815.4570, 34633.00
816.5960, 34441.00
817.7360, 34336.00
818.8750, 34723.00
820.0140, 34621.00
821.1530, 34750.00
822.2920, 34838.00
823.4310, 34726.00
824.5690, 34839.00
825.7070, 34611.00
826.8460, 35077.00
827.9840, 34887.00
829.1220, 34707.00
830.2590, 35039.00
831.3970, 35050.00
832.5340, 34858.00
833.6710, 34988.00
834.8080, 34896.00
835.9450, 34933.00
837.0820, 34964.68
838.2190, 34956.05
839.3550, 35009.00
840.4910, 35045.00
841.6270, 35073.00
842.7630, 35194.00
843.8990, 35269.00
845.0350, 35208.00
846.1700, 35169.00
847.3060, 35166.00
848.4410, 35170.19
849.5760, 35205.00
850.7100, 35270.00
851.8450, 35232.00
852.9800, 35360.00
854.1140, 35524.00
855.2480, 35401.00
856.3820, 35666.00
857.5160, 35624.00
858.6500, 35669.00
859.7830, 35546.00
860.9170, 36029.00
862.0500, 35738.00
863.1830, 35895.00
864.3160, 35947.00
865.4480, 35680.00
866.5810, 36092.00
867.7130, 36134.00
868.8460, 35995.00
869.9780, 36235.00
871.1100, 35994.00
872.2410, 35854.00
873.3730, 36221.00
874.5050, 36108.00
875.6360, 36049.00
876.7670, 36301.00
877.8980, 36331.00
879.0290, 36628.00
880.1590, 36481.00
881.2900, 36560.00
882.4200, 36591.00
883.5500, 36414.00
884.6800, 36772.00
885.8100, 36885.00
886.9400, 37049.00
888.0690, 36721.00
889.1990, 37047.00
890.3280, 36920.00
891.4570, 36739.00
892.5860, 36866.00
893.7140, 36877.00
894.8430, 37052.00
895.9710, 37039.00
897.1000, 37265.00
898.2280, 37278.68
899.3560, 37076.00
900.4830, 37197.00
901.6110, 37136.00
902.7380, 37043.54
903.8660, 36942.00
904.9930, 36890.00
906.1200, 36936.00
907.2460, 36879.00
908.3730, 36998.00
909.5000, 37137.00
910.6260, 37194.00
911.7520, 37059.00
912.8780, 37078.00
914.0040, 36895.00
915.1290, 36946.00
916.2550, 37331.00
917.3800, 37507.00
918.5050, 37277.00
919.6300, 37069.00
920.7550, 37203.00
921.8800, 37178.00
923.0040, 37228.00
924.1290, 37239.11
925.2530, 37304.00
926.3770, 37250.00
927.5010, 37244.00
928.6250, 37314.00
929.7480, 37291.00
930.8720, 37444.00
931.9950, 37681.00
933.1180, 37666.00
934.2410, 37710.00
935.3640, 37470.00
936.4860, 37850.00
937.6090, 37780.00
938.7310, 37389.00
939.8530, 37816.00
940.9750, 37606.00
942.0970, 37939.00
943.2180, 37620.00
944.3400, 37790.00
945.4610, 38002.00
946.5820, 37843.00
947.7030, 38044.00
948.8240, 38005.00
949.9450, 38061.00
951.0650, 38141.00
952.1860, 38046.10
953.3060, 38015.00
954.4260, 37888.00
955.5460, 38088.00
956.6650, 38008.00
957.7850, 38194.00
958.9040, 38295.00
960.0230, 38136.00
961.1420, 38295.00
962.2610, 38379.00
963.3800, 38399.00
964.4990, 38496.00
965.6170, 38699.00
966.7350, 38406.00
967.8530, 38499.00
968.9710, 38488.00
970.0890, 38693.00
971.2070, 38755.00
972.3240, 38838.41
973.4410, 38779.00
974.5580, 38949.00
975.6750, 39013.00
976.7920, 38930.00
977.9090, 39045.00
979.0250, 39234.00
980.1410, 39262.00
981.2580, 39415.00
982.3740, 39126.00
983.4890, 39256.00
984.6050, 39298.00
985.7200, 39273.00
986.8360, 39477.00
987.9510, 39584.00
989.0660, 39629.00
990.1810, 39562.00
991.2950, 39919.00
992.4100, 39715.00
993.5240, 39954.00
994.6390, 39920.00
995.7530, 39864.00
996.8660, 40098.00
997.9800, 40155.00
999.0940, 40083.00
1000.207, 40401.00
1001.320, 40491.00
1002.433, 40824.00
1003.546, 40809.00
1004.659, 40923.00
1005.772, 41076.00
1006.884, 41087.00
1007.996, 41399.00
1009.108, 41280.00
1010.220, 41667.00
1011.332, 41651.00
1012.444, 41989.00
1013.555, 42191.00
1014.666, 42365.00
1015.777, 43084.00
1016.888, 43136.00
1017.999, 43263.00
1019.110, 44073.00
1020.220, 44510.00
1021.331, 44675.00
1022.441, 45419.00
1023.551, 46154.00
1024.661, 46674.00
1025.770, 46713.00
1026.880, 47130.00
1027.989, 47543.00
1029.098, 47061.00
1030.207, 46867.00
1031.316, 46393.00
1032.425, 45965.00
1033.533, 45489.00
1034.642, 44598.00
1035.750, 44055.00
1036.858, 43538.00
1037.966, 43172.00
1039.073, 42817.00
1040.181, 42880.00
1041.288, 42389.00
1042.396, 42359.00
1043.503, 42507.00
1044.610, 42349.00
1045.716, 42299.00
1046.823, 42233.00
1047.929, 42361.00
1049.036, 42397.00
1050.142, 42585.05
1051.248, 42858.00
1052.353, 43046.00
1053.459, 43102.00
1054.564, 43336.00
1055.670, 43777.00
1056.775, 44219.00
1057.880, 44402.00
1058.985, 44735.00
1060.089, 44671.00
1061.194, 45014.00
1062.298, 45033.00
1063.402, 45226.00
1064.506, 44985.00
1065.610, 45026.00
1066.713, 44921.00
1067.817, 44426.00
1068.920, 44576.00
1070.023, 44197.00
1071.126, 44512.00
1072.229, 44598.00
1073.332, 44833.00
1074.435, 44690.00
1075.537, 44884.00
1076.639, 44772.00
1077.741, 44547.00
1078.843, 44661.00
1079.945, 44493.00
1081.046, 43919.00
1082.148, 43855.00
1083.249, 43724.00
1084.350, 43410.00
1085.451, 43258.00
1086.551, 42872.00
1087.652, 42645.00
1088.752, 42681.00
1089.853, 42347.00
1090.953, 42348.00
1092.053, 42674.00
1093.152, 42438.00
1094.252, 42494.00
1095.351, 42910.00
1096.451, 42584.00
1097.550, 42574.00
1098.649, 42615.00
1099.748, 42751.00
1100.846, 42518.00
1101.945, 42690.00
1103.043, 42733.00
1104.141, 42873.00
1105.239, 42900.00
1106.337, 42678.00
1107.434, 42810.00
1108.532, 43047.00
1109.629, 42686.00
1110.726, 42852.00
1111.823, 42998.00
1112.920, 42894.00
1114.017, 43083.00
1115.113, 43310.00
1116.210, 42956.00
1117.306, 42736.00
1118.402, 42991.00
1119.498, 43174.00
1120.593, 42994.00
1121.689, 43424.00
1122.784, 43335.00
1123.879, 43601.00
1124.974, 43569.00
1126.069, 43747.00
1127.164, 43784.00
1128.259, 43666.00
1129.353, 43642.00
1130.447, 43837.00
1131.541, 43888.00
1132.635, 43846.00
1133.729, 43861.00
1134.822, 44015.00
1135.916, 44073.00
1137.009, 43936.00
1138.102, 44428.00
1139.195, 44112.00
1140.288, 44304.00
1141.380, 44482.00
1142.473, 44574.00
1143.565, 44804.58
1144.657, 44978.00
1145.749, 45168.00
1146.841, 45474.00
1147.932, 45583.00
1149.024, 46033.00
1150.115, 45963.00
1151.206, 46231.00
1152.297, 46059.00
1153.388, 46007.00
1154.479, 45868.00
1155.569, 45727.11
1156.659, 45672.00
1157.750, 45544.00
1158.839, 45502.00
1159.929, 45645.00
1161.019, 45376.00
1162.108, 45296.00
1163.198, 45488.00
1164.287, 45550.00
1165.376, 45378.00
1166.465, 45412.00
1167.553, 45478.00
1168.642, 45138.00
1169.730, 45289.00
1170.818, 45328.00
1171.906, 45358.00
1172.994, 45589.00
1174.082, 45583.00
1175.170, 45944.00
1176.257, 45779.00
1177.344, 45714.00
1178.431, 45558.00
1179.518, 45772.00
1180.605, 45665.00
1181.691, 45380.00
1182.778, 45626.00
1183.864, 45570.00
1184.950, 45276.00
1186.036, 45535.00
1187.122, 45543.00
1188.207, 45453.00
1189.292, 45824.00
1190.378, 45647.00
1191.463, 45332.00
1192.548, 45719.00
1193.632, 45733.00
1194.717, 45661.00
1195.801, 45875.00
1196.886, 45681.00
1197.970, 45616.00
1199.054, 46019.00
1200.137, 46036.00
1201.221, 46085.31
1202.305, 46046.00
1203.388, 46100.00
1204.471, 45953.00
1205.554, 45902.00
1206.637, 46081.00
1207.719, 45958.00
1208.802, 46209.00
1209.884, 46231.00
1210.966, 45951.00
1212.048, 45702.00
1213.130, 46241.00
1214.212, 46396.00
1215.293, 46276.00
1216.374, 46301.00
1217.456, 46225.00
1218.536, 46519.00
1219.617, 46692.00
1220.698, 46309.00
1221.778, 46600.00
1222.859, 46525.00
1223.939, 46605.00
1225.019, 46548.00
1226.099, 46779.00
1227.178, 47106.00
1228.258, 46980.00
1229.337, 46841.00
1230.417, 46921.00
1231.496, 46747.00
1232.574, 47078.00
1233.653, 47009.00
1234.732, 47072.00
1235.810, 47046.00
1236.888, 47222.00
1237.966, 47083.00
1239.044, 47015.00
1240.122, 47340.00
1241.199, 47522.00
1242.277, 47563.00
1243.354, 47446.00
1244.431, 47717.00
1245.508, 47835.00
1246.585, 47796.00
1247.661, 47902.22
1248.738, 47550.00
1249.814, 47942.00
1250.890, 47681.00
1251.966, 47783.00
1253.042, 48042.00
1254.117, 48048.00
1255.193, 48157.00
1256.268, 48252.00
1257.343, 47965.00
1258.418, 48381.00
1259.493, 48133.00
1260.567, 47994.00
1261.642, 48186.00
1262.716, 48213.00
1263.790, 48199.00
1264.864, 48374.00
1265.938, 48243.00
1267.011, 48340.00
1268.085, 48482.00
1269.158, 48353.00
1270.231, 48616.00
1271.304, 48545.00
1272.377, 48535.00
