##NAMES=Senegalite
##RRUFFID=R050239
##IDEAL CHEMISTRY=Al_2_PO_4_(OH)_3_&#183;H_2_O
##LOCALITY=Kourondicko iron ore (magnetite) deposit, Faleme River Basin, Senegal
##OWNER=RRUFF
##SOURCE=Marcus Origlieri
##DESCRIPTION=Colorless prismatic crystals
##STATUS=The identification of this mineral has been confirmed by X-ray diffraction and chemical analysis
##URL=rruff.info/R050239
##MEASURED CHEMISTRY=Al_2.00_P_1.00_O_4_(OH)_3_Â·H_2_O
##PIN_ID=M00152
##ORIENTATION=Laser parallel to c* (0 0 1). Fiducial mark perpendicular to laser is parallel to a [1 0 0]
95.94800, 18850.00
97.18200, 19398.00
98.41600, 20143.00
99.64900, 21057.00
100.8830, 22182.00
102.1160, 23495.00
103.3490, 25279.00
104.5820, 25317.00
105.8150, 24059.00
107.0470, 22539.00
108.2800, 21522.00
109.5120, 21403.00
110.7440, 21139.00
111.9760, 21058.00
113.2080, 21084.00
114.4400, 21209.00
115.6710, 21247.00
116.9030, 21234.00
118.1340, 21261.00
119.3650, 21460.00
120.5960, 21541.00
121.8270, 21657.00
123.0580, 21939.00
124.2880, 21910.00
125.5190, 22011.00
126.7490, 22199.00
127.9790, 22453.00
129.2090, 22649.00
130.4390, 22845.00
131.6680, 23045.00
132.8980, 23633.00
134.1270, 23898.00
135.3560, 24180.00
136.5850, 24087.00
137.8140, 23844.00
139.0430, 23677.00
140.2710, 23340.00
141.5000, 23309.00
142.7280, 23221.00
143.9560, 23094.00
145.1840, 23201.00
146.4120, 23172.00
147.6390, 23508.00
148.8670, 23274.00
150.0940, 23252.00
151.3210, 23469.00
152.5490, 23318.00
153.7750, 23557.00
155.0020, 23593.00
156.2290, 23557.00
157.4550, 23579.00
158.6810, 23698.00
159.9080, 23634.00
161.1340, 23592.00
162.3590, 23763.00
163.5850, 23922.00
164.8110, 24079.00
166.0360, 24075.00
167.2610, 24120.00
168.4860, 24270.00
169.7110, 24311.00
170.9360, 24150.00
172.1610, 24225.00
173.3850, 24153.00
174.6100, 24414.00
175.8340, 24443.00
177.0580, 24533.00
178.2820, 24669.00
179.5050, 24605.00
180.7290, 24691.00
181.9520, 24753.00
183.1760, 24832.16
184.3990, 25009.87
185.6220, 25111.00
186.8450, 25479.00
188.0670, 25725.00
189.2900, 26152.00
190.5120, 26736.00
191.7340, 27361.00
192.9560, 28021.00
194.1780, 28586.00
195.4000, 28875.00
196.6220, 28338.00
197.8430, 27661.00
199.0640, 27100.00
200.2860, 26297.00
201.5070, 26195.00
202.7270, 25817.00
203.9480, 25811.00
205.1690, 25731.00
206.3890, 25680.00
207.6090, 25650.08
208.8290, 25572.00
210.0490, 25604.00
211.2690, 25508.00
212.4890, 25542.00
213.7080, 25758.00
214.9280, 25594.00
216.1470, 25850.00
217.3660, 25728.00
218.5850, 25845.00
219.8030, 25981.00
221.0220, 25892.00
222.2400, 26302.00
223.4590, 26356.00
224.6770, 26498.00
225.8950, 26744.00
227.1120, 27098.00
228.3300, 27393.00
229.5480, 28049.00
230.7650, 28773.00
231.9820, 29615.00
233.1990, 30149.00
234.4160, 30953.00
235.6330, 31337.00
236.8490, 30893.00
238.0660, 30104.00
239.2820, 29286.00
240.4980, 28389.00
241.7140, 27967.00
242.9300, 27554.00
244.1460, 27239.00
245.3610, 27088.00
246.5770, 27213.00
247.7920, 26981.00
249.0070, 27041.00
250.2220, 27010.00
251.4370, 26941.00
252.6510, 26788.00
253.8660, 26771.00
255.0800, 26808.74
256.2940, 26901.00
257.5080, 26942.00
258.7220, 27106.00
259.9360, 27104.00
261.1490, 27328.00
262.3630, 27105.00
263.5760, 26940.00
264.7890, 27009.00
266.0020, 27269.00
267.2150, 27248.00
268.4270, 27207.00
269.6400, 27329.00
270.8520, 27364.00
272.0640, 27289.00
273.2760, 27429.00
274.4880, 27397.00
275.7000, 27481.47
276.9120, 27545.85
278.1230, 27628.00
279.3340, 27690.00
280.5450, 27709.00
281.7560, 27819.00
282.9670, 27922.00
284.1780, 28015.00
285.3880, 28201.00
286.5980, 28396.00
287.8090, 28519.94
289.0190, 28685.01
290.2290, 28814.00
291.4380, 29042.00
292.6480, 29181.00
293.8570, 29391.93
295.0670, 29640.00
296.2760, 29838.00
297.4850, 29979.00
298.6930, 30257.00
299.9020, 30666.00
301.1110, 31141.00
302.3190, 31554.00
303.5270, 31935.00
304.7350, 31931.00
305.9430, 31519.00
307.1510, 31178.00
308.3580, 30711.00
309.5660, 30365.00
310.7730, 30742.00
311.9800, 30709.00
313.1870, 30908.00
314.3940, 30916.00
315.6010, 30406.00
316.8070, 30449.00
318.0130, 30095.00
319.2200, 29982.00
320.4260, 29826.00
321.6310, 29778.00
322.8370, 29699.90
324.0430, 29585.00
325.2480, 29639.00
326.4540, 29720.00
327.6590, 29752.00
328.8640, 29908.00
330.0680, 29942.00
331.2730, 29948.00
332.4780, 30014.00
333.6820, 29788.00
334.8860, 29650.00
336.0900, 29558.00
337.2940, 29666.00
338.4980, 29716.00
339.7010, 29560.00
340.9050, 29853.00
342.1080, 29693.00
343.3110, 29710.00
344.5140, 29783.00
345.7170, 29710.00
346.9200, 29898.00
348.1220, 30287.00
349.3240, 30251.00
350.5270, 29955.00
351.7290, 30114.00
352.9310, 30571.00
354.1320, 30649.00
355.3340, 30957.00
356.5350, 31470.00
357.7370, 31324.00
358.9380, 31774.00
360.1390, 32272.00
361.3400, 32572.00
362.5400, 32879.00
363.7410, 33256.00
364.9410, 33634.00
366.1410, 33409.00
367.3410, 33578.00
368.5410, 33354.00
369.7410, 33280.00
370.9400, 33126.00
372.1400, 33260.00
373.3390, 33188.00
374.5380, 33078.00
375.7370, 33025.00
376.9360, 32874.00
378.1350, 32630.00
379.3330, 32157.00
380.5310, 32031.00
381.7300, 31606.00
382.9280, 31387.00
384.1260, 31249.00
385.3230, 31070.00
386.5210, 31096.00
387.7180, 30802.00
388.9160, 30737.00
390.1130, 30838.00
391.3100, 30970.00
392.5060, 30872.00
393.7030, 30836.00
394.9000, 30718.00
396.0960, 30884.00
397.2920, 30809.00
398.4880, 30880.00
399.6840, 30783.00
400.8800, 30715.00
402.0750, 30694.70
403.2710, 30735.74
404.4660, 30628.00
405.6610, 30916.00
406.8560, 31008.00
408.0510, 31133.00
409.2450, 31162.00
410.4400, 31127.00
411.6340, 31466.00
412.8280, 31431.00
414.0220, 31617.00
415.2160, 31516.00
416.4100, 31610.00
417.6030, 31642.00
418.7970, 31851.00
419.9900, 31916.00
421.1830, 32085.00
422.3760, 32029.00
423.5690, 32335.00
424.7610, 32399.00
425.9540, 32704.00
427.1460, 32695.00
428.3380, 32761.00
429.5300, 33142.00
430.7220, 33478.00
431.9140, 33400.00
433.1050, 33637.00
434.2970, 33807.00
435.4880, 34116.00
436.6790, 34023.00
437.8700, 34391.00
439.0610, 34419.00
440.2510, 34637.00
441.4420, 34863.00
442.6320, 34964.00
443.8220, 34820.00
445.0120, 34307.00
446.2020, 34540.00
447.3910, 34233.00
448.5810, 34192.00
449.7700, 34200.00
450.9600, 33890.00
452.1490, 33698.00
453.3370, 33791.00
454.5260, 33571.00
455.7150, 33531.00
456.9030, 33503.00
458.0910, 33361.00
459.2800, 33492.00
460.4670, 33315.00
461.6550, 33509.00
462.8430, 33644.00
464.0300, 33617.00
465.2180, 33946.00
466.4050, 33896.00
467.5920, 34128.00
468.7790, 34277.00
469.9650, 34737.00
471.1520, 35232.00
472.3380, 35768.00
473.5250, 36182.00
474.7110, 36755.00
475.8970, 37725.00
477.0820, 38679.00
478.2680, 39381.00
479.4540, 40183.00
480.6390, 40400.00
481.8240, 39889.00
483.0090, 38913.00
484.1940, 38176.00
485.3780, 37158.00
486.5630, 36338.00
487.7470, 35820.00
488.9320, 35397.00
490.1160, 34998.00
491.3000, 34841.00
492.4830, 34779.00
493.6670, 34589.00
494.8500, 34417.00
496.0340, 34422.00
497.2170, 34281.00
498.4000, 34177.00
499.5820, 34203.00
500.7650, 34106.00
501.9480, 34113.00
503.1300, 33637.00
504.3120, 33854.00
505.4940, 33605.00
506.6760, 33673.00
507.8580, 33661.00
509.0390, 33701.00
510.2210, 33860.00
511.4020, 33806.88
512.5830, 33877.91
513.7640, 33755.00
514.9450, 33940.00
516.1250, 33834.00
517.3060, 33897.00
518.4860, 33855.00
519.6660, 33962.00
520.8460, 34095.00
522.0260, 34150.00
523.2060, 34229.31
524.3850, 34252.00
525.5650, 34412.00
526.7440, 34329.00
527.9230, 34576.00
529.1020, 34567.00
530.2810, 34740.00
531.4590, 34899.00
532.6380, 34917.00
533.8160, 35345.00
534.9940, 35423.00
536.1720, 35488.00
537.3500, 35877.00
538.5270, 36334.00
539.7050, 36443.00
540.8820, 36826.00
542.0590, 36718.00
543.2360, 36871.00
544.4130, 37334.00
545.5900, 37098.00
546.7660, 37341.00
547.9430, 37399.00
549.1190, 37413.00
550.2950, 37453.00
551.4710, 37493.07
552.6470, 37231.00
553.8220, 37487.00
554.9980, 37445.00
556.1730, 37258.00
557.3480, 37361.00
558.5230, 37278.00
559.6980, 37520.00
560.8730, 37311.00
562.0470, 37310.00
563.2220, 36920.00
564.3960, 37091.00
565.5700, 36804.00
566.7440, 36906.00
567.9170, 36853.00
569.0910, 36780.00
570.2640, 36706.00
571.4380, 36844.00
572.6110, 36654.00
573.7840, 36675.00
574.9570, 36544.00
576.1290, 36405.00
577.3020, 36341.00
578.4740, 36374.00
579.6460, 36359.00
580.8180, 36273.00
581.9900, 36049.00
583.1620, 36101.00
584.3330, 35877.00
585.5040, 35917.00
586.6760, 36258.00
587.8470, 36281.00
589.0180, 35652.00
590.1880, 35966.00
591.3590, 35703.00
592.5290, 36041.00
593.7000, 35965.00
594.8700, 36169.00
596.0400, 35827.00
597.2090, 35744.00
598.3790, 36033.00
599.5490, 36135.00
600.7180, 35819.00
601.8870, 36005.00
603.0560, 35991.00
604.2250, 36058.00
605.3940, 35911.00
606.5620, 36131.00
607.7300, 35971.00
608.8990, 36038.00
610.0670, 36241.00
611.2350, 36193.00
612.4020, 36402.00
613.5700, 36346.00
614.7370, 36701.00
615.9050, 36900.00
617.0720, 36601.00
618.2390, 36786.00
619.4060, 36704.00
620.5720, 36618.00
621.7390, 36945.00
622.9050, 36717.00
624.0710, 36981.00
625.2370, 36814.00
626.4030, 36787.00
627.5690, 36849.00
628.7340, 36967.00
629.9000, 37040.00
631.0650, 37325.00
632.2300, 37072.00
633.3950, 37279.00
634.5600, 37219.00
635.7240, 37070.00
636.8890, 37299.00
638.0530, 37407.00
639.2170, 36995.00
640.3810, 37368.00
641.5450, 36971.00
642.7080, 36887.00
643.8720, 36957.00
645.0350, 36806.00
646.1980, 36858.00
647.3610, 36800.00
648.5240, 36799.00
649.6870, 36808.80
650.8490, 36845.00
652.0120, 36807.00
653.1740, 36938.00
654.3360, 36932.00
655.4980, 36867.00
656.6600, 36972.00
657.8210, 36973.00
658.9830, 37101.00
660.1440, 37152.00
661.3050, 37313.00
662.4660, 36938.00
663.6270, 37418.00
664.7870, 37492.00
665.9480, 37312.00
667.1080, 37652.00
668.2680, 37644.00
669.4280, 37864.00
670.5880, 38443.00
671.7480, 38478.00
672.9070, 38402.00
674.0670, 38852.00
675.2260, 38798.00
676.3850, 38502.00
677.5440, 38593.00
678.7030, 38347.00
679.8610, 38155.00
681.0200, 38187.00
682.1780, 38031.82
683.3360, 37959.00
684.4940, 38035.00
685.6520, 37904.00
686.8090, 38118.00
687.9670, 37859.00
689.1240, 38174.00
690.2810, 38185.00
691.4380, 38466.00
692.5950, 38303.00
693.7520, 38346.00
694.9080, 38513.00
696.0650, 38754.00
697.2210, 38942.00
698.3770, 39248.00
699.5330, 39421.00
700.6880, 39680.00
701.8440, 39667.00
702.9990, 39922.00
704.1550, 39637.00
705.3100, 39568.00
706.4650, 39550.00
707.6190, 39287.00
708.7740, 39265.00
709.9290, 38689.00
711.0830, 38732.00
712.2370, 38424.00
713.3910, 38718.00
714.5450, 38356.00
715.6980, 38335.00
716.8520, 38178.00
718.0050, 38121.00
719.1580, 38234.00
720.3110, 38297.00
721.4640, 38446.00
722.6170, 38392.00
723.7700, 38230.00
724.9220, 38275.00
726.0740, 38373.00
727.2260, 38155.00
728.3780, 38495.00
729.5300, 38324.00
730.6810, 38686.00
731.8330, 38573.00
732.9840, 38212.00
734.1350, 38580.00
735.2860, 38535.00
736.4370, 38457.00
737.5880, 38752.00
738.7380, 38632.00
739.8880, 39050.00
741.0390, 38808.00
742.1890, 38640.00
743.3380, 38431.00
744.4880, 38843.00
745.6380, 38842.00
746.7870, 38758.00
747.9360, 38740.00
749.0850, 38862.00
750.2340, 38973.00
751.3830, 38845.00
752.5310, 38607.00
753.6800, 38478.00
754.8280, 38531.00
755.9760, 38771.00
757.1240, 38771.00
758.2720, 38499.00
759.4190, 38785.00
760.5670, 38614.00
761.7140, 38663.00
762.8610, 38724.00
764.0080, 38667.00
765.1550, 38750.87
766.3020, 38823.00
767.4480, 38851.00
768.5950, 38854.00
769.7410, 38913.00
770.8870, 38705.00
772.0330, 38828.00
773.1780, 38900.00
774.3240, 39202.00
775.4690, 39110.00
776.6140, 38860.00
777.7590, 38993.00
778.9040, 39357.00
780.0490, 39042.00
781.1940, 39123.00
782.3380, 39353.00
783.4820, 39230.00
784.6260, 39176.00
785.7700, 39121.00
786.9140, 39246.00
788.0580, 39379.00
789.2010, 39379.00
790.3450, 39431.00
791.4880, 39149.00
792.6310, 39520.00
793.7730, 39455.00
794.9160, 39124.00
796.0590, 39546.00
797.2010, 39445.00
798.3430, 39197.00
799.4850, 39393.00
800.6270, 39381.00
801.7690, 39623.00
802.9100, 39646.00
804.0520, 39573.00
805.1930, 39780.00
806.3340, 39641.00
807.4750, 39570.00
808.6160, 39882.00
809.7560, 39548.00
810.8970, 39830.00
812.0370, 39770.00
813.1770, 39512.00
814.3170, 39796.00
815.4570, 40169.00
816.5960, 39956.00
817.7360, 39951.00
818.8750, 40084.00
820.0140, 40079.00
821.1530, 39936.00
822.2920, 39756.00
823.4310, 40147.00
824.5690, 39986.00
825.7070, 40203.00
826.8460, 40010.00
827.9840, 40242.00
829.1220, 40329.00
830.2590, 40149.00
831.3970, 40482.00
832.5340, 40271.00
833.6710, 40495.00
834.8080, 40508.00
835.9450, 40286.00
837.0820, 40209.00
838.2190, 40332.00
839.3550, 40312.00
840.4910, 40674.00
841.6270, 40418.00
842.7630, 40703.00
843.8990, 40431.00
845.0350, 40689.00
846.1700, 40480.00
847.3060, 40628.00
848.4410, 40726.00
849.5760, 40895.00
850.7100, 40826.00
851.8450, 40721.00
852.9800, 40830.00
854.1140, 41117.00
855.2480, 40820.00
856.3820, 40947.00
857.5160, 41321.00
858.6500, 41178.00
859.7830, 41045.00
860.9170, 41463.00
862.0500, 41135.00
863.1830, 41345.00
864.3160, 41265.00
865.4480, 41418.00
866.5810, 41177.00
867.7130, 41284.00
868.8460, 41386.00
869.9780, 41309.00
871.1100, 41615.00
872.2410, 41838.00
873.3730, 41793.16
874.5050, 41710.00
875.6360, 41799.00
876.7670, 41803.00
877.8980, 41785.00
879.0290, 41681.00
880.1590, 41978.00
881.2900, 41885.00
882.4200, 42184.00
883.5500, 42044.00
884.6800, 42183.00
885.8100, 42139.00
886.9400, 42212.00
888.0690, 42165.00
889.1990, 42295.00
890.3280, 42571.00
891.4570, 42326.00
892.5860, 42456.00
893.7140, 42195.00
894.8430, 42336.00
895.9710, 42551.00
897.1000, 42374.00
898.2280, 42355.00
899.3560, 42430.00
900.4830, 42541.00
901.6110, 42692.00
902.7380, 42444.00
903.8660, 42510.00
904.9930, 42452.00
906.1200, 42480.00
907.2460, 42448.00
908.3730, 42704.00
909.5000, 42612.00
910.6260, 42727.00
911.7520, 42586.00
912.8780, 42582.00
914.0040, 42779.00
915.1290, 42402.00
916.2550, 42905.00
917.3800, 42834.00
918.5050, 42497.00
919.6300, 42746.00
920.7550, 42618.00
921.8800, 42873.00
923.0040, 42874.00
924.1290, 42742.00
925.2530, 42919.00
926.3770, 43041.00
927.5010, 42791.00
928.6250, 42973.00
929.7480, 42965.00
930.8720, 42976.00
931.9950, 43305.00
933.1180, 43344.00
934.2410, 43233.00
935.3640, 43214.00
936.4860, 43008.00
937.6090, 43047.00
938.7310, 43331.00
939.8530, 43176.00
940.9750, 43264.00
942.0970, 43250.00
943.2180, 43228.00
944.3400, 43413.00
945.4610, 43396.52
946.5820, 43483.00
947.7030, 43502.00
948.8240, 43531.00
949.9450, 43558.00
951.0650, 43598.16
952.1860, 43636.55
953.3060, 43681.00
954.4260, 43706.97
955.5460, 43735.00
956.6650, 43731.00
957.7850, 43796.00
958.9040, 43885.00
960.0230, 43769.00
961.1420, 43592.00
962.2610, 43948.00
963.3800, 44154.00
964.4990, 44017.00
965.6170, 43950.00
966.7350, 44062.00
967.8530, 43935.00
968.9710, 44173.00
970.0890, 44002.00
971.2070, 44266.00
972.3240, 43997.00
973.4410, 44230.00
974.5580, 44096.00
975.6750, 44533.00
976.7920, 44314.00
977.9090, 44650.00
979.0250, 44503.00
980.1410, 44762.00
981.2580, 44473.00
982.3740, 44632.00
983.4890, 44615.00
984.6050, 44615.00
985.7200, 44608.00
986.8360, 44697.74
987.9510, 44849.00
989.0660, 44873.00
990.1810, 45064.00
991.2950, 45088.00
992.4100, 45163.00
993.5240, 45103.00
994.6390, 44980.00
995.7530, 45225.00
996.8660, 45507.00
997.9800, 45321.00
999.0940, 45269.00
1000.207, 45500.00
1001.320, 45951.00
1002.433, 45768.00
1003.546, 45957.00
1004.659, 46047.00
1005.772, 45703.00
1006.884, 46194.00
1007.996, 46272.00
1009.108, 46223.00
1010.220, 46224.00
1011.332, 46609.00
1012.444, 46612.00
1013.555, 46981.00
1014.666, 46894.00
1015.777, 47194.00
1016.888, 47607.00
1017.999, 47676.00
1019.110, 47932.00
1020.220, 48394.00
1021.331, 49124.00
1022.441, 49776.00
1023.551, 50273.00
1024.661, 50910.00
1025.770, 51279.00
1026.880, 51650.42
1027.989, 52175.00
1029.098, 52109.00
1030.207, 52118.00
1031.316, 52084.00
1032.425, 51390.00
1033.533, 50910.00
1034.642, 50293.00
1035.750, 49881.00
1036.858, 49504.00
1037.966, 48615.00
1039.073, 48429.00
1040.181, 48069.00
1041.288, 48221.00
1042.396, 47834.00
1043.503, 47950.00
1044.610, 47625.00
1045.716, 47416.00
1046.823, 47520.00
1047.929, 47456.00
1049.036, 47434.00
1050.142, 47531.00
1051.248, 47578.00
1052.353, 47591.00
1053.459, 48031.00
1054.564, 48045.65
1055.670, 47904.00
1056.775, 48346.00
1057.880, 48408.00
1058.985, 48501.00
1060.089, 48645.00
1061.194, 48914.00
1062.298, 49299.00
1063.402, 49458.00
1064.506, 49523.00
1065.610, 49706.00
1066.713, 49310.00
1067.817, 49111.00
1068.920, 49210.00
1070.023, 49192.00
1071.126, 48564.00
1072.229, 48310.00
1073.332, 48329.00
1074.435, 48203.00
1075.537, 48024.00
1076.639, 48003.00
1077.741, 47845.04
1078.843, 47890.00
1079.945, 47664.00
1081.046, 47549.00
1082.148, 47561.00
1083.249, 47767.00
1084.350, 47708.47
1085.451, 47565.00
1086.551, 47778.00
1087.652, 47674.00
1088.752, 47645.00
1089.853, 47724.00
1090.953, 47757.00
1092.053, 47627.00
1093.152, 47830.00
1094.252, 47657.00
1095.351, 47975.00
1096.451, 47938.00
1097.550, 47804.00
1098.649, 47825.00
1099.748, 47804.59
1100.846, 48075.00
1101.945, 47923.00
1103.043, 47974.00
1104.141, 48208.00
1105.239, 47704.00
1106.337, 48087.00
1107.434, 48157.00
1108.532, 47904.00
1109.629, 48284.00
1110.726, 48604.00
1111.823, 48296.00
1112.920, 48307.00
1114.017, 48347.00
1115.113, 48431.00
1116.210, 48569.00
1117.306, 48430.00
1118.402, 48405.00
1119.498, 48216.00
1120.593, 48559.00
1121.689, 48773.00
1122.784, 48701.00
1123.879, 48580.00
1124.974, 48784.00
1126.069, 48498.00
1127.164, 48555.00
1128.259, 48918.00
1129.353, 48860.00
1130.447, 49076.00
1131.541, 49191.00
1132.635, 49047.00
1133.729, 48937.00
1134.822, 49257.00
1135.916, 49167.00
1137.009, 49045.00
1138.102, 48859.00
1139.195, 49218.00
1140.288, 49289.00
1141.380, 49444.00
1142.473, 49533.00
1143.565, 49482.00
1144.657, 49573.00
1145.749, 49512.00
1146.841, 49583.00
1147.932, 49937.00
1149.024, 49884.00
1150.115, 50062.00
1151.206, 50117.00
1152.297, 50147.81
1153.388, 50351.00
1154.479, 50170.00
1155.569, 50042.00
1156.659, 49899.00
1157.750, 50066.00
1158.839, 50068.00
1159.929, 49829.00
1161.019, 50092.00
1162.108, 49966.00
1163.198, 50054.00
1164.287, 50156.00
1165.376, 50173.00
1166.465, 50085.00
1167.553, 50269.00
1168.642, 50151.00
1169.730, 50237.00
1170.818, 50296.00
1171.906, 50099.00
1172.994, 50302.00
1174.082, 50536.00
1175.170, 50243.00
1176.257, 50225.00
1177.344, 50546.00
1178.431, 50117.00
1179.518, 50295.00
1180.605, 50575.00
1181.691, 50234.00
1182.778, 50525.00
1183.864, 50718.00
1184.950, 50517.00
1186.036, 50655.00
1187.122, 50637.00
1188.207, 50698.77
1189.292, 50673.00
1190.378, 50829.00
1191.463, 50878.00
1192.548, 50757.00
1193.632, 50839.00
1194.717, 51030.00
1195.801, 50669.00
1196.886, 50928.00
1197.970, 50694.00
1199.054, 51106.00
1200.137, 51097.00
1201.221, 50882.00
1202.305, 51014.00
1203.388, 51198.00
1204.471, 50925.00
1205.554, 51143.00
1206.637, 51305.00
1207.719, 50987.00
1208.802, 51373.00
1209.884, 51502.00
1210.966, 51212.00
1212.048, 51596.00
1213.130, 51333.00
1214.212, 51783.00
1215.293, 51740.00
1216.374, 51554.00
1217.456, 51727.00
1218.536, 51635.00
1219.617, 51747.00
1220.698, 51777.00
1221.778, 51908.00
1222.859, 51829.00
1223.939, 51696.00
1225.019, 51845.00
1226.099, 51938.00
1227.178, 52150.00
1228.258, 51979.00
1229.337, 51962.00
1230.417, 52009.00
1231.496, 52255.00
1232.574, 52407.00
1233.653, 52137.00
1234.732, 52593.00
1235.810, 52272.00
1236.888, 52522.00
1237.966, 52440.00
1239.044, 52222.00
1240.122, 52662.00
1241.199, 52594.00
1242.277, 52367.00
1243.354, 52837.00
1244.431, 52792.00
1245.508, 52771.00
1246.585, 52474.00
1247.661, 52673.00
1248.738, 53015.00
1249.814, 52559.00
1250.890, 52788.00
1251.966, 52856.99
1253.042, 52869.00
1254.117, 53028.00
1255.193, 52865.00
1256.268, 52766.00
1257.343, 53319.00
1258.418, 53348.00
1259.493, 53130.00
1260.567, 53322.00
1261.642, 53255.00
1262.716, 53524.00
1263.790, 53377.00
1264.864, 53440.00
1265.938, 53431.00
1267.011, 53499.00
1268.085, 53462.00
1269.158, 53457.00
1270.231, 53706.00
1271.304, 53586.00
1272.377, 53478.00
1273.450, 53759.00
1274.522, 53911.00
1275.594, 53874.00
