##NAMES=Senegalite
##RRUFFID=R050239
##IDEAL CHEMISTRY=Al_2_PO_4_(OH)_3_&#183;H_2_O
##LOCALITY=Kourondicko iron ore (magnetite) deposit, Faleme River Basin, Senegal
##OWNER=RRUFF
##SOURCE=Marcus Origlieri
##DESCRIPTION=Colorless prismatic crystals
##STATUS=The identification of this mineral has been confirmed by X-ray diffraction and chemical analysis
##URL=rruff.info/R050239
##MEASURED CHEMISTRY=Al_2.00_P_1.00_O_4_(OH)_3_Â·H_2_O
##PIN_ID=M00389
##ORIENTATION=Laser parallel to -b* (0 -1 0). Fiducial mark perpendicular to laser is parallel to -c [0 0 -1]
114.4400, 17640.00
115.6710, 17663.00
116.9030, 17811.00
118.1340, 17831.00
119.3650, 17924.96
120.5960, 18138.00
121.8270, 18062.00
123.0580, 18259.00
124.2880, 18282.00
125.5190, 18603.00
126.7490, 18925.00
127.9790, 19048.00
129.2090, 19059.00
130.4390, 19418.00
131.6680, 19518.00
132.8980, 19536.00
134.1270, 19699.00
135.3560, 19635.00
136.5850, 19504.00
137.8140, 19465.00
139.0430, 19389.00
140.2710, 19446.00
141.5000, 19403.09
142.7280, 19419.99
143.9560, 19426.00
145.1840, 19491.00
146.4120, 19565.00
147.6390, 19675.00
148.8670, 19735.00
150.0940, 19682.00
151.3210, 19849.00
152.5490, 19715.00
153.7750, 19804.00
155.0020, 19923.00
156.2290, 20092.00
157.4550, 20147.00
158.6810, 20157.00
159.9080, 20281.25
161.1340, 20446.00
162.3590, 20454.00
163.5850, 20584.00
164.8110, 20709.00
166.0360, 20796.00
167.2610, 20851.00
168.4860, 20696.00
169.7110, 20477.00
170.9360, 20552.00
172.1610, 20477.00
173.3850, 20759.00
174.6100, 20711.00
175.8340, 20583.00
177.0580, 20661.00
178.2820, 20542.00
179.5050, 20787.00
180.7290, 20730.00
181.9520, 20879.00
183.1760, 20838.00
184.3990, 21046.00
185.6220, 21099.00
186.8450, 21084.00
188.0670, 21287.00
189.2900, 21114.00
190.5120, 21522.00
191.7340, 21307.00
192.9560, 21550.00
194.1780, 21815.00
195.4000, 21818.00
196.6220, 22087.00
197.8430, 22128.00
199.0640, 22365.00
200.2860, 22596.00
201.5070, 22711.00
202.7270, 22779.57
203.9480, 22689.00
205.1690, 22710.00
206.3890, 22346.00
207.6090, 22118.00
208.8290, 21903.00
210.0490, 21847.00
211.2690, 21779.00
212.4890, 21706.00
213.7080, 21736.78
214.9280, 21701.00
216.1470, 21810.00
217.3660, 21811.00
218.5850, 21841.00
219.8030, 21978.00
221.0220, 21766.00
222.2400, 21966.00
223.4590, 21881.00
224.6770, 21963.00
225.8950, 22107.00
227.1120, 22067.00
228.3300, 22227.00
229.5480, 22258.00
230.7650, 22359.00
231.9820, 22318.00
233.1990, 22331.00
234.4160, 22415.00
235.6330, 22517.00
236.8490, 22752.00
238.0660, 22716.93
239.2820, 22629.00
240.4980, 22717.00
241.7140, 22564.00
242.9300, 22539.00
244.1460, 22464.00
245.3610, 22410.14
246.5770, 22414.00
247.7920, 22418.00
249.0070, 22509.00
250.2220, 22683.00
251.4370, 22581.00
252.6510, 22628.00
253.8660, 22777.00
255.0800, 22587.00
256.2940, 22664.00
257.5080, 22701.00
258.7220, 22669.00
259.9360, 22770.81
261.1490, 22990.00
262.3630, 23017.00
263.5760, 23179.63
264.7890, 23286.00
266.0020, 23443.00
267.2150, 23450.00
268.4270, 23607.00
269.6400, 23664.00
270.8520, 23945.00
272.0640, 23991.00
273.2760, 23978.00
274.4880, 24006.00
275.7000, 23833.00
276.9120, 24093.00
278.1230, 23779.00
279.3340, 23752.00
280.5450, 23876.53
281.7560, 23763.00
282.9670, 24057.00
284.1780, 24339.00
285.3880, 24425.00
286.5980, 24848.00
287.8090, 24973.00
289.0190, 25315.00
290.2290, 25576.00
291.4380, 25705.00
292.6480, 25722.56
293.8570, 25645.45
295.0670, 25487.00
296.2760, 25216.00
297.4850, 24960.00
298.6930, 24627.00
299.9020, 24391.00
301.1110, 24377.00
302.3190, 24184.00
303.5270, 24176.00
304.7350, 24332.00
305.9430, 24235.00
307.1510, 24202.00
308.3580, 24431.00
309.5660, 24314.66
310.7730, 24386.00
311.9800, 24350.00
313.1870, 24292.00
314.3940, 24418.00
315.6010, 24351.00
316.8070, 24495.00
318.0130, 24822.00
319.2200, 24840.00
320.4260, 25256.00
321.6310, 25578.00
322.8370, 25897.00
324.0430, 25907.00
325.2480, 26188.00
326.4540, 26381.00
327.6590, 26555.00
328.8640, 26383.00
330.0680, 26563.00
331.2730, 26305.00
332.4780, 26331.00
333.6820, 25750.00
334.8860, 25651.00
336.0900, 25348.00
337.2940, 25371.00
338.4980, 25231.00
339.7010, 25348.00
340.9050, 25214.00
342.1080, 25042.00
343.3110, 25192.00
344.5140, 25169.00
345.7170, 24971.00
346.9200, 25155.00
348.1220, 24991.00
349.3240, 25167.00
350.5270, 25060.00
351.7290, 25232.00
352.9310, 25047.00
354.1320, 25095.00
355.3340, 24978.00
356.5350, 25029.00
357.7370, 25205.00
358.9380, 25157.00
360.1390, 25341.00
361.3400, 25528.00
362.5400, 25522.00
363.7410, 25421.00
364.9410, 25293.00
366.1410, 25546.00
367.3410, 25636.00
368.5410, 25444.00
369.7410, 25502.00
370.9400, 25729.00
372.1400, 25606.00
373.3390, 25691.00
374.5380, 25603.00
375.7370, 25720.00
376.9360, 25634.00
378.1350, 25672.00
379.3330, 25645.00
380.5310, 25665.00
381.7300, 25582.00
382.9280, 25775.00
384.1260, 25747.00
385.3230, 25643.00
386.5210, 25777.00
387.7180, 25779.00
388.9160, 25744.00
390.1130, 25985.00
391.3100, 25918.00
392.5060, 25948.00
393.7030, 25897.00
394.9000, 25905.44
396.0960, 25810.00
397.2920, 25889.00
398.4880, 26075.00
399.6840, 26012.00
400.8800, 26134.00
402.0750, 26245.00
403.2710, 26110.00
404.4660, 26345.00
405.6610, 26315.00
406.8560, 26191.00
408.0510, 26351.00
409.2450, 26434.00
410.4400, 26385.00
411.6340, 26572.00
412.8280, 26355.00
414.0220, 26485.00
415.2160, 26597.00
416.4100, 26632.00
417.6030, 26593.00
418.7970, 26691.42
419.9900, 26747.00
421.1830, 26815.00
422.3760, 26967.00
423.5690, 27073.02
424.7610, 27035.00
425.9540, 27186.00
427.1460, 27391.00
428.3380, 27362.00
429.5300, 27351.00
430.7220, 27815.00
431.9140, 27663.00
433.1050, 28063.00
434.2970, 28266.00
435.4880, 28331.00
436.6790, 28535.00
437.8700, 28456.00
439.0610, 28450.00
440.2510, 28875.00
441.4420, 28832.00
442.6320, 28798.00
443.8220, 28653.00
445.0120, 28669.00
446.2020, 28763.00
447.3910, 28626.00
448.5810, 28303.00
449.7700, 28374.00
450.9600, 28323.00
452.1490, 28438.00
453.3370, 28437.33
454.5260, 28434.00
455.7150, 28458.00
456.9030, 28541.00
458.0910, 28487.00
459.2800, 28550.00
460.4670, 29132.00
461.6550, 28968.00
462.8430, 29519.00
464.0300, 29754.00
465.2180, 30146.00
466.4050, 30431.03
467.5920, 30565.00
468.7790, 30850.00
469.9650, 31330.00
471.1520, 31411.00
472.3380, 31765.00
473.5250, 32018.00
474.7110, 32208.00
475.8970, 32414.00
477.0820, 32259.00
478.2680, 32589.00
479.4540, 32338.00
480.6390, 31824.00
481.8240, 31090.00
483.0090, 30579.00
484.1940, 30179.00
485.3780, 29433.00
486.5630, 29181.00
487.7470, 29033.00
488.9320, 29034.00
490.1160, 28595.00
491.3000, 28868.00
492.4830, 28847.00
493.6670, 28624.00
494.8500, 28615.00
496.0340, 28812.00
497.2170, 28580.00
498.4000, 28606.00
499.5820, 28779.00
500.7650, 28611.00
501.9480, 28675.00
503.1300, 28714.00
504.3120, 28573.00
505.4940, 28785.00
506.6760, 28612.00
507.8580, 28691.00
509.0390, 28510.00
510.2210, 28863.00
511.4020, 28553.00
512.5830, 28805.00
513.7640, 28603.00
514.9450, 28911.00
516.1250, 28524.00
517.3060, 28567.00
518.4860, 28781.00
519.6660, 28680.00
520.8460, 28769.00
522.0260, 28910.00
523.2060, 28684.00
524.3850, 28826.00
525.5650, 28863.00
526.7440, 28839.00
527.9230, 29081.00
529.1020, 28812.00
530.2810, 29104.00
531.4590, 29075.00
532.6380, 28801.00
533.8160, 28825.00
534.9940, 29073.00
536.1720, 29072.00
537.3500, 29305.00
538.5270, 29333.94
539.7050, 29319.00
540.8820, 29394.00
542.0590, 29359.00
543.2360, 29356.00
544.4130, 29495.00
545.5900, 29358.00
546.7660, 29374.00
547.9430, 29586.00
549.1190, 29568.00
550.2950, 29543.00
551.4710, 29722.00
552.6470, 29870.00
553.8220, 29745.00
554.9980, 29883.00
556.1730, 29776.00
557.3480, 29871.00
558.5230, 29950.00
559.6980, 29927.00
560.8730, 29946.00
562.0470, 29985.00
563.2220, 30147.00
564.3960, 30039.00
565.5700, 30043.00
566.7440, 30064.00
567.9170, 30415.00
569.0910, 30236.00
570.2640, 30410.00
571.4380, 30293.00
572.6110, 30227.00
573.7840, 30384.00
574.9570, 30169.00
576.1290, 30400.00
577.3020, 30439.00
578.4740, 30511.00
579.6460, 30399.00
580.8180, 30609.00
581.9900, 30397.00
583.1620, 30531.00
584.3330, 30578.00
585.5040, 30731.00
586.6760, 30705.00
587.8470, 30800.54
589.0180, 30828.97
590.1880, 30880.00
591.3590, 30912.00
592.5290, 30874.00
593.7000, 31000.00
594.8700, 31028.00
596.0400, 31043.00
597.2090, 31223.00
598.3790, 30942.00
599.5490, 31310.00
600.7180, 31486.00
601.8870, 31272.00
603.0560, 31287.00
604.2250, 31403.00
605.3940, 31512.00
606.5620, 31789.00
607.7300, 31928.00
608.8990, 32134.00
610.0670, 32180.00
611.2350, 32528.00
612.4020, 32265.00
613.5700, 32595.00
614.7370, 32757.00
615.9050, 32991.00
617.0720, 32912.00
618.2390, 32957.00
619.4060, 33098.00
620.5720, 33302.00
621.7390, 33160.00
622.9050, 33020.00
624.0710, 32764.00
625.2370, 32760.00
626.4030, 32531.00
627.5690, 32347.00
628.7340, 32332.00
629.9000, 32382.00
631.0650, 31946.00
632.2300, 32163.00
633.3950, 31850.00
634.5600, 31809.00
635.7240, 31802.00
636.8890, 31662.13
638.0530, 31750.00
639.2170, 31614.00
640.3810, 31645.00
641.5450, 31735.00
642.7080, 31674.00
643.8720, 31762.06
645.0350, 31584.00
646.1980, 31795.00
647.3610, 31741.00
648.5240, 31598.00
649.6870, 31658.00
650.8490, 31591.78
652.0120, 31597.27
653.1740, 31616.00
654.3360, 31626.00
655.4980, 31643.27
656.6600, 31739.00
657.8210, 31710.00
658.9830, 31694.00
660.1440, 31789.00
661.3050, 31686.00
662.4660, 31847.00
663.6270, 31567.00
664.7870, 32016.00
665.9480, 31726.00
667.1080, 31953.00
668.2680, 31952.00
669.4280, 31833.00
670.5880, 31945.00
671.7480, 31873.00
672.9070, 31962.00
674.0670, 31966.00
675.2260, 31889.00
676.3850, 32071.00
677.5440, 32232.00
678.7030, 32012.00
679.8610, 32216.00
681.0200, 32090.00
682.1780, 32164.00
683.3360, 32195.00
684.4940, 32108.00
685.6520, 32135.00
686.8090, 32253.00
687.9670, 32366.00
689.1240, 32293.00
690.2810, 32091.00
691.4380, 32268.00
692.5950, 32328.00
693.7520, 32694.00
694.9080, 32524.00
696.0650, 32559.00
697.2210, 32796.00
698.3770, 32889.00
699.5330, 32911.19
700.6880, 32771.00
701.8440, 32879.00
702.9990, 32720.00
704.1550, 32582.00
705.3100, 32766.00
706.4650, 32677.00
707.6190, 32939.00
708.7740, 32575.00
709.9290, 32659.00
711.0830, 32627.00
712.2370, 32624.00
713.3910, 32522.00
714.5450, 32571.00
715.6980, 32528.00
716.8520, 32562.53
718.0050, 32819.00
719.1580, 32704.00
720.3110, 32803.00
721.4640, 32971.00
722.6170, 32616.00
723.7700, 32990.00
724.9220, 32893.00
726.0740, 32962.00
727.2260, 33113.00
728.3780, 32880.00
729.5300, 32895.00
730.6810, 32995.00
731.8330, 33033.00
732.9840, 33059.31
734.1350, 33102.00
735.2860, 33118.00
736.4370, 33103.00
737.5880, 33159.00
738.7380, 33215.00
739.8880, 33235.00
741.0390, 33398.00
742.1890, 33289.00
743.3380, 33305.00
744.4880, 33464.00
745.6380, 33283.00
746.7870, 33438.00
747.9360, 33521.00
749.0850, 33417.00
750.2340, 33547.00
751.3830, 33317.00
752.5310, 33374.51
753.6800, 33667.00
754.8280, 33422.00
755.9760, 33547.00
757.1240, 33713.00
758.2720, 33862.00
759.4190, 33846.29
760.5670, 33683.00
761.7140, 33759.00
762.8610, 33709.00
764.0080, 33611.00
765.1550, 33747.00
766.3020, 33672.61
767.4480, 33818.00
768.5950, 33724.00
769.7410, 33852.00
770.8870, 34002.00
772.0330, 33964.00
773.1780, 33926.00
774.3240, 33913.00
775.4690, 34131.00
776.6140, 34197.00
777.7590, 34076.00
778.9040, 34079.00
780.0490, 34063.00
781.1940, 34120.00
782.3380, 33984.00
783.4820, 34024.00
784.6260, 34274.00
785.7700, 34228.00
786.9140, 34185.00
788.0580, 34307.00
789.2010, 34344.00
790.3450, 34423.00
791.4880, 34484.00
792.6310, 34416.00
793.7730, 34477.00
794.9160, 34501.00
796.0590, 34595.00
797.2010, 34467.00
798.3430, 34596.00
799.4850, 34515.00
800.6270, 34744.00
801.7690, 34976.00
802.9100, 34795.00
804.0520, 35035.00
805.1930, 34796.00
806.3340, 34957.00
807.4750, 34865.00
808.6160, 34798.00
809.7560, 35132.00
810.8970, 35077.00
812.0370, 35213.00
813.1770, 35116.00
814.3170, 35137.00
815.4570, 35039.00
816.5960, 35279.00
817.7360, 35152.00
818.8750, 35340.00
820.0140, 35106.00
821.1530, 35465.00
822.2920, 35252.00
823.4310, 35379.00
824.5690, 35383.00
825.7070, 35464.00
826.8460, 35381.00
827.9840, 35625.00
829.1220, 35573.00
830.2590, 35359.00
831.3970, 35580.00
832.5340, 35371.00
833.6710, 35456.00
834.8080, 35616.00
835.9450, 35669.00
837.0820, 35671.00
838.2190, 35719.00
839.3550, 35698.00
840.4910, 35592.00
841.6270, 35702.00
842.7630, 35609.00
843.8990, 35979.00
845.0350, 35584.00
846.1700, 35857.00
847.3060, 35857.00
848.4410, 35852.00
849.5760, 36079.00
850.7100, 36015.00
851.8450, 36173.00
852.9800, 36017.00
854.1140, 36024.00
855.2480, 35845.00
856.3820, 36086.00
857.5160, 35946.00
858.6500, 35963.00
859.7830, 36135.00
860.9170, 36421.00
862.0500, 36148.00
863.1830, 36416.00
864.3160, 36433.00
865.4480, 36338.00
866.5810, 36224.00
867.7130, 36298.00
868.8460, 36425.00
869.9780, 36486.00
871.1100, 36578.00
872.2410, 36486.00
873.3730, 36652.00
874.5050, 36518.00
875.6360, 36351.00
876.7670, 36380.00
877.8980, 36434.00
879.0290, 36455.48
880.1590, 36502.57
881.2900, 36618.00
882.4200, 36656.00
883.5500, 36673.00
884.6800, 36894.00
885.8100, 36771.00
886.9400, 36632.00
888.0690, 36990.00
889.1990, 36955.00
890.3280, 36819.00
891.4570, 36907.00
892.5860, 36981.00
893.7140, 37006.00
894.8430, 36861.00
895.9710, 36993.00
897.1000, 37169.00
898.2280, 36849.00
899.3560, 37275.00
900.4830, 37243.00
901.6110, 37390.00
902.7380, 37354.00
903.8660, 37209.00
904.9930, 37207.00
906.1200, 37211.00
907.2460, 37367.00
908.3730, 37146.00
909.5000, 37455.00
910.6260, 37408.00
911.7520, 37385.00
912.8780, 37498.00
914.0040, 37563.00
915.1290, 37587.00
916.2550, 37622.00
917.3800, 37580.00
918.5050, 37536.00
919.6300, 37539.96
920.7550, 37631.00
921.8800, 37601.00
923.0040, 37722.00
924.1290, 37966.00
925.2530, 37442.00
926.3770, 37795.00
927.5010, 37790.00
928.6250, 37650.00
929.7480, 38120.00
930.8720, 37978.00
931.9950, 38227.00
933.1180, 38010.00
934.2410, 38101.00
935.3640, 38131.00
936.4860, 37997.00
937.6090, 37975.00
938.7310, 38288.00
939.8530, 38249.00
940.9750, 38264.00
942.0970, 38223.00
943.2180, 38214.00
944.3400, 38252.00
945.4610, 38268.00
946.5820, 38327.00
947.7030, 38312.00
948.8240, 38579.00
949.9450, 38330.00
951.0650, 38603.00
952.1860, 38702.00
953.3060, 38724.00
954.4260, 38805.00
955.5460, 38947.00
956.6650, 38693.00
957.7850, 38925.00
958.9040, 38983.00
960.0230, 38663.00
961.1420, 38962.00
962.2610, 38789.00
963.3800, 38826.00
964.4990, 39119.00
965.6170, 39325.00
966.7350, 39086.00
967.8530, 39122.00
968.9710, 39036.00
970.0890, 38987.00
971.2070, 39113.00
972.3240, 39169.00
973.4410, 39104.00
974.5580, 39141.00
975.6750, 39537.00
976.7920, 39159.00
977.9090, 39582.00
979.0250, 39829.00
980.1410, 39453.00
981.2580, 39422.00
982.3740, 39809.00
983.4890, 39849.00
984.6050, 39564.00
985.7200, 39607.00
986.8360, 39879.00
987.9510, 39717.00
989.0660, 39656.00
990.1810, 39967.00
991.2950, 40083.00
992.4100, 39834.00
993.5240, 39948.00
994.6390, 40222.00
995.7530, 40328.00
996.8660, 40440.00
997.9800, 40162.00
999.0940, 40308.00
1000.207, 40259.00
1001.320, 40580.00
1002.433, 40586.00
1003.546, 40855.00
1004.659, 40953.00
1005.772, 40980.61
1006.884, 40811.00
1007.996, 41023.00
1009.108, 41020.00
1010.220, 41038.00
1011.332, 41385.00
1012.444, 41449.00
1013.555, 41734.00
1014.666, 41649.00
1015.777, 42108.00
1016.888, 42437.00
1017.999, 42432.00
1019.110, 42637.00
1020.220, 42871.00
1021.331, 43240.00
1022.441, 43518.00
1023.551, 44116.00
1024.661, 44462.00
1025.770, 44718.00
1026.880, 45183.00
1027.989, 45179.00
1029.098, 45072.00
1030.207, 45196.00
1031.316, 44894.00
1032.425, 44817.00
1033.533, 44311.00
1034.642, 43770.00
1035.750, 43661.00
1036.858, 43346.00
1037.966, 43034.00
1039.073, 42889.00
1040.181, 42786.00
1041.288, 42493.00
1042.396, 42337.00
1043.503, 42376.00
1044.610, 42434.00
1045.716, 42148.00
1046.823, 42126.00
1047.929, 41839.00
1049.036, 41777.00
1050.142, 41768.00
1051.248, 42035.00
1052.353, 41845.00
1053.459, 42029.00
1054.564, 42153.00
1055.670, 41925.00
1056.775, 41933.00
1057.880, 42211.00
1058.985, 41848.00
1060.089, 42249.00
1061.194, 42095.00
1062.298, 42180.00
1063.402, 42364.00
1064.506, 42068.00
1065.610, 42481.00
1066.713, 42329.00
1067.817, 42329.00
1068.920, 42620.00
1070.023, 42831.00
1071.126, 42455.00
1072.229, 42980.00
1073.332, 43049.00
1074.435, 42802.00
1075.537, 43140.00
1076.639, 43565.00
1077.741, 43334.00
1078.843, 43619.00
1079.945, 43384.00
1081.046, 43359.00
1082.148, 43509.00
1083.249, 43260.00
1084.350, 43097.00
1085.451, 42970.00
1086.551, 42923.00
1087.652, 42895.00
1088.752, 42820.00
1089.853, 42884.00
1090.953, 42594.00
1092.053, 43111.00
1093.152, 43148.00
1094.252, 42995.00
1095.351, 42910.00
1096.451, 43054.00
1097.550, 42911.00
1098.649, 42817.00
1099.748, 43091.00
1100.846, 43063.00
1101.945, 43281.00
1103.043, 42954.00
1104.141, 43057.00
1105.239, 43463.00
1106.337, 42994.00
1107.434, 43139.00
1108.532, 43313.00
1109.629, 43264.00
1110.726, 43427.45
1111.823, 43632.00
1112.920, 43501.00
1114.017, 43615.00
1115.113, 43429.00
1116.210, 43426.00
1117.306, 43690.00
1118.402, 43528.00
1119.498, 43480.00
1120.593, 43506.00
1121.689, 43518.89
1122.784, 43523.00
1123.879, 43773.00
1124.974, 43730.00
1126.069, 44022.00
1127.164, 43821.00
1128.259, 43950.00
1129.353, 43828.00
1130.447, 43679.00
1131.541, 43931.00
1132.635, 43828.00
1133.729, 43916.00
1134.822, 44059.00
1135.916, 44190.00
1137.009, 44184.00
1138.102, 44320.00
1139.195, 44296.00
1140.288, 44247.00
1141.380, 44421.00
1142.473, 44294.00
1143.565, 44444.00
1144.657, 44457.00
1145.749, 44641.00
1146.841, 44618.00
1147.932, 44791.00
1149.024, 44934.00
1150.115, 45110.00
1151.206, 45037.00
1152.297, 45140.00
1153.388, 45062.00
1154.479, 45349.00
1155.569, 45131.00
1156.659, 45247.00
1157.750, 45130.00
1158.839, 45202.00
1159.929, 45278.00
1161.019, 44946.00
1162.108, 44765.00
1163.198, 44929.00
1164.287, 45195.00
1165.376, 45005.00
1166.465, 45042.00
1167.553, 45168.00
1168.642, 44954.00
1169.730, 45457.00
1170.818, 45176.00
1171.906, 44959.00
1172.994, 45182.00
1174.082, 45454.00
1175.170, 45239.00
1176.257, 45428.00
1177.344, 45452.00
1178.431, 45232.00
1179.518, 45352.00
1180.605, 45571.00
1181.691, 45641.00
1182.778, 45556.00
1183.864, 45648.00
1184.950, 45622.00
1186.036, 45643.03
1187.122, 45739.00
1188.207, 45732.00
1189.292, 45740.00
1190.378, 45856.00
1191.463, 45881.00
1192.548, 45959.35
1193.632, 45995.13
1194.717, 46111.00
1195.801, 46005.00
1196.886, 46065.00
1197.970, 45980.00
1199.054, 46025.92
1200.137, 46192.00
1201.221, 46115.00
1202.305, 46339.00
1203.388, 46393.00
1204.471, 46088.00
1205.554, 46308.00
1206.637, 46420.00
1207.719, 46176.00
1208.802, 46344.00
1209.884, 46358.00
1210.966, 46377.00
1212.048, 46615.00
1213.130, 46567.00
1214.212, 46369.00
1215.293, 46559.00
1216.374, 46550.00
1217.456, 46732.00
1218.536, 46821.00
1219.617, 46822.00
1220.698, 46701.00
1221.778, 47013.00
1222.859, 46933.00
1223.939, 47192.00
1225.019, 47206.00
1226.099, 46969.00
1227.178, 46742.00
1228.258, 47029.00
1229.337, 47070.00
1230.417, 47232.00
1231.496, 47228.00
1232.574, 47256.00
1233.653, 47198.00
1234.732, 47188.00
1235.810, 47403.00
1236.888, 47117.00
1237.966, 47411.00
1239.044, 47658.00
1240.122, 47276.00
1241.199, 47458.00
1242.277, 47495.00
1243.354, 47396.00
1244.431, 47513.14
1245.508, 47638.00
1246.585, 47592.00
1247.661, 47684.00
1248.738, 47775.00
1249.814, 47622.00
1250.890, 47653.00
1251.966, 47652.06
1253.042, 47726.63
1254.117, 47697.00
1255.193, 47964.00
1256.268, 48083.00
1257.343, 48154.00
1258.418, 48024.00
1259.493, 48359.00
1260.567, 48297.00
1261.642, 48160.00
1262.716, 48412.00
1263.790, 48628.00
1264.864, 48554.00
1265.938, 48451.00
1267.011, 48443.00
1268.085, 48515.92
1269.158, 48394.00
1270.231, 48662.00
1271.304, 48712.00
1272.377, 48575.00
1273.450, 48919.00
1274.522, 48832.00
1275.594, 48801.00
1276.666, 48903.00
1277.738, 48629.00
1278.810, 49121.00
1279.882, 48920.00
1280.953, 48936.00
1282.025, 48844.00
1283.096, 49051.00
1284.167, 49344.00
1285.238, 49214.00
1286.308, 49200.00
1287.379, 49092.00
1288.449, 49567.00
1289.519, 49223.00
1290.589, 49264.00
1291.659, 49438.00
