##NAMES=Senegalite
##RRUFFID=R050239
##IDEAL CHEMISTRY=Al_2_PO_4_(OH)_3_&#183;H_2_O
##LOCALITY=Kourondicko iron ore (magnetite) deposit, Faleme River Basin, Senegal
##OWNER=RRUFF
##SOURCE=Marcus Origlieri
##DESCRIPTION=Colorless prismatic crystals
##STATUS=The identification of this mineral has been confirmed by X-ray diffraction and chemical analysis
##URL=rruff.info/R050239
##MEASURED CHEMISTRY=Al_2.00_P_1.00_O_4_(OH)_3_Â·H_2_O
##PIN_ID=M00152
##ORIENTATION=Laser parallel to c* (0 0 1). Fiducial mark perpendicular to laser is parallel to a [1 0 0]
95.94800, 19393.00
97.18200, 19774.00
98.41600, 20156.69
99.64900, 20752.00
100.8830, 20849.00
102.1160, 21097.00
103.3490, 21392.00
104.5820, 21266.00
105.8150, 21278.00
107.0470, 21182.00
108.2800, 21325.00
109.5120, 21419.00
110.7440, 21477.00
111.9760, 21500.00
113.2080, 21611.00
114.4400, 21709.00
115.6710, 21828.00
116.9030, 21957.00
118.1340, 22139.00
119.3650, 22234.00
120.5960, 22482.00
121.8270, 22833.00
123.0580, 23072.00
124.2880, 23538.00
125.5190, 23545.00
126.7490, 23910.00
127.9790, 24217.00
129.2090, 24663.00
130.4390, 24748.00
131.6680, 24846.00
132.8980, 24879.00
134.1270, 24975.00
135.3560, 24929.00
136.5850, 24764.00
137.8140, 24600.00
139.0430, 24274.00
140.2710, 23892.00
141.5000, 23898.00
142.7280, 23722.00
143.9560, 23726.00
145.1840, 23831.00
146.4120, 23949.00
147.6390, 23699.00
148.8670, 23876.00
150.0940, 23833.00
151.3210, 23926.00
152.5490, 24010.00
153.7750, 24078.00
155.0020, 24124.00
156.2290, 24188.00
157.4550, 24283.00
158.6810, 24316.00
159.9080, 24387.00
161.1340, 24447.00
162.3590, 24636.00
163.5850, 24680.00
164.8110, 24743.23
166.0360, 24743.00
167.2610, 24835.00
168.4860, 24737.00
169.7110, 24811.00
170.9360, 24847.00
172.1610, 24927.00
173.3850, 24969.00
174.6100, 24887.00
175.8340, 25163.00
177.0580, 25234.00
178.2820, 25269.00
179.5050, 25049.00
180.7290, 25391.00
181.9520, 25580.00
183.1760, 25323.00
184.3990, 25608.00
185.6220, 25668.00
186.8450, 25958.00
188.0670, 26062.98
189.2900, 26059.00
190.5120, 26274.00
191.7340, 26371.00
192.9560, 26409.00
194.1780, 26704.00
195.4000, 26785.00
196.6220, 26608.00
197.8430, 26289.00
199.0640, 26221.00
200.2860, 26281.00
201.5070, 26089.00
202.7270, 26212.00
203.9480, 26259.00
205.1690, 26099.00
206.3890, 26238.00
207.6090, 25999.00
208.8290, 26177.00
210.0490, 26070.00
211.2690, 26103.00
212.4890, 26133.00
213.7080, 26206.00
214.9280, 26441.00
216.1470, 26438.00
217.3660, 26537.00
218.5850, 26602.00
219.8030, 26617.00
221.0220, 26801.71
222.2400, 26864.00
223.4590, 27165.00
224.6770, 27390.00
225.8950, 27626.00
227.1120, 27701.00
228.3300, 27993.00
229.5480, 28123.00
230.7650, 28479.00
231.9820, 28676.00
233.1990, 28514.00
234.4160, 28951.00
235.6330, 28863.00
236.8490, 28827.00
238.0660, 28427.00
239.2820, 28519.00
240.4980, 28438.00
241.7140, 28318.00
242.9300, 28015.00
244.1460, 27912.00
245.3610, 27631.00
246.5770, 27355.00
247.7920, 27353.00
249.0070, 27678.00
250.2220, 27473.00
251.4370, 27462.00
252.6510, 27247.00
253.8660, 27223.00
255.0800, 27208.85
256.2940, 27411.00
257.5080, 27281.00
258.7220, 27475.00
259.9360, 27621.00
261.1490, 27681.00
262.3630, 27738.00
263.5760, 27758.01
264.7890, 27743.00
266.0020, 27747.00
267.2150, 27787.00
268.4270, 27826.00
269.6400, 27779.00
270.8520, 27838.00
272.0640, 27976.00
273.2760, 27981.97
274.4880, 28229.00
275.7000, 28066.00
276.9120, 28218.00
278.1230, 28174.00
279.3340, 28194.00
280.5450, 28332.00
281.7560, 28513.00
282.9670, 28680.00
284.1780, 28645.00
285.3880, 28766.00
286.5980, 28897.00
287.8090, 29022.00
289.0190, 29122.00
290.2290, 29220.00
291.4380, 29407.90
292.6480, 29660.00
293.8570, 29783.00
295.0670, 30018.00
296.2760, 30199.00
297.4850, 30399.17
298.6930, 30712.00
299.9020, 30799.00
301.1110, 30842.00
302.3190, 30971.00
303.5270, 30946.00
304.7350, 30613.00
305.9430, 30581.00
307.1510, 30139.00
308.3580, 30068.00
309.5660, 30127.00
310.7730, 30102.00
311.9800, 30187.42
313.1870, 29937.00
314.3940, 30302.00
315.6010, 30320.00
316.8070, 30183.00
318.0130, 29870.00
319.2200, 29810.00
320.4260, 30102.00
321.6310, 29882.00
322.8370, 29996.00
324.0430, 29938.00
325.2480, 29883.00
326.4540, 30134.00
327.6590, 29900.00
328.8640, 29898.00
330.0680, 30026.00
331.2730, 29846.00
332.4780, 29945.00
333.6820, 29884.00
334.8860, 29841.00
336.0900, 29942.00
337.2940, 30006.00
338.4980, 29932.00
339.7010, 29908.00
340.9050, 29732.00
342.1080, 30112.00
343.3110, 30247.00
344.5140, 30044.00
345.7170, 30026.00
346.9200, 30198.00
348.1220, 30115.00
349.3240, 30531.00
350.5270, 30277.00
351.7290, 30452.00
352.9310, 30856.00
354.1320, 30791.00
355.3340, 30839.00
356.5350, 30834.00
357.7370, 30951.00
358.9380, 31250.00
360.1390, 31483.00
361.3400, 31380.00
362.5400, 31425.00
363.7410, 31478.00
364.9410, 31424.00
366.1410, 31583.00
367.3410, 31407.00
368.5410, 31544.00
369.7410, 31426.00
370.9400, 31622.00
372.1400, 31405.00
373.3390, 31349.00
374.5380, 31310.00
375.7370, 31379.00
376.9360, 31466.00
378.1350, 31307.00
379.3330, 31351.00
380.5310, 31011.00
381.7300, 31146.00
382.9280, 31154.00
384.1260, 31190.00
385.3230, 31245.00
386.5210, 31276.00
387.7180, 31295.15
388.9160, 31348.00
390.1130, 31337.00
391.3100, 31304.00
392.5060, 31359.00
393.7030, 31210.00
394.9000, 31499.00
396.0960, 31256.00
397.2920, 31518.00
398.4880, 31536.00
399.6840, 31545.00
400.8800, 31677.00
402.0750, 31574.00
403.2710, 31780.00
404.4660, 31842.00
405.6610, 31718.00
406.8560, 31831.00
408.0510, 32154.00
409.2450, 32193.00
410.4400, 32338.00
411.6340, 32394.00
412.8280, 32581.00
414.0220, 32278.00
415.2160, 32453.00
416.4100, 32537.00
417.6030, 32665.00
418.7970, 32802.00
419.9900, 32695.00
421.1830, 32603.00
422.3760, 32703.00
423.5690, 32612.00
424.7610, 32872.00
425.9540, 32979.00
427.1460, 33385.00
428.3380, 33239.00
429.5300, 33257.00
430.7220, 33424.00
431.9140, 33437.00
433.1050, 33730.00
434.2970, 33802.00
435.4880, 34089.00
436.6790, 34064.00
437.8700, 34013.00
439.0610, 34476.00
440.2510, 34239.00
441.4420, 34513.00
442.6320, 34395.00
443.8220, 34520.00
445.0120, 34273.00
446.2020, 34310.00
447.3910, 34182.00
448.5810, 33983.00
449.7700, 34146.00
450.9600, 34125.00
452.1490, 34091.00
453.3370, 34214.00
454.5260, 34145.00
455.7150, 34312.00
456.9030, 34214.00
458.0910, 34197.00
459.2800, 34347.00
460.4670, 34192.00
461.6550, 34288.00
462.8430, 34402.00
464.0300, 34632.00
465.2180, 35041.00
466.4050, 34666.00
467.5920, 35088.00
468.7790, 35392.00
469.9650, 35904.00
471.1520, 36148.00
472.3380, 36549.00
473.5250, 37065.00
474.7110, 36915.00
475.8970, 37319.00
477.0820, 37417.00
478.2680, 37382.00
479.4540, 37309.00
480.6390, 36995.00
481.8240, 36555.00
483.0090, 36650.00
484.1940, 35702.00
485.3780, 35640.00
486.5630, 34990.00
487.7470, 35059.00
488.9320, 34939.00
490.1160, 34932.00
491.3000, 35002.00
492.4830, 34730.00
493.6670, 34840.00
494.8500, 34892.00
496.0340, 34944.00
497.2170, 34993.65
498.4000, 34966.00
499.5820, 35067.00
500.7650, 35001.00
501.9480, 35058.00
503.1300, 34971.00
504.3120, 34776.00
505.4940, 34746.00
506.6760, 34551.00
507.8580, 34541.63
509.0390, 34743.00
510.2210, 34554.00
511.4020, 34595.00
512.5830, 34687.00
513.7640, 34470.00
514.9450, 34832.00
516.1250, 34455.00
517.3060, 34659.00
518.4860, 34955.00
519.6660, 34645.00
520.8460, 34743.00
522.0260, 34652.00
523.2060, 34716.00
524.3850, 34978.00
525.5650, 34866.00
526.7440, 34913.00
527.9230, 35145.00
529.1020, 34878.00
530.2810, 34987.00
531.4590, 35123.00
532.6380, 35376.00
533.8160, 35343.00
534.9940, 35514.00
536.1720, 35604.00
537.3500, 35425.00
538.5270, 35722.00
539.7050, 35700.00
540.8820, 35649.00
542.0590, 35718.00
543.2360, 35729.00
544.4130, 36105.00
545.5900, 36162.00
546.7660, 36017.00
547.9430, 36230.00
549.1190, 36022.00
550.2950, 36103.00
551.4710, 36350.00
552.6470, 36020.00
553.8220, 36187.00
554.9980, 36044.00
556.1730, 36273.00
557.3480, 36231.00
558.5230, 36240.00
559.6980, 36308.00
560.8730, 36215.00
562.0470, 35846.00
563.2220, 36289.00
564.3960, 35927.00
565.5700, 36006.00
566.7440, 36180.00
567.9170, 35999.00
569.0910, 35997.00
570.2640, 36180.00
571.4380, 36239.00
572.6110, 36080.00
573.7840, 36047.00
574.9570, 36094.00
576.1290, 36228.00
577.3020, 36195.00
578.4740, 36353.00
579.6460, 36376.00
580.8180, 36326.00
581.9900, 36421.00
583.1620, 36190.00
584.3330, 36327.00
585.5040, 36229.00
586.6760, 36403.00
587.8470, 36533.00
589.0180, 36376.00
590.1880, 36494.00
591.3590, 36289.00
592.5290, 36482.00
593.7000, 36412.00
594.8700, 36597.00
596.0400, 36413.00
597.2090, 36673.00
598.3790, 36539.00
599.5490, 36548.00
600.7180, 36690.00
601.8870, 36806.00
603.0560, 36780.00
604.2250, 36956.00
605.3940, 36744.00
606.5620, 36955.00
607.7300, 36847.00
608.8990, 36734.00
610.0670, 37244.00
611.2350, 37045.00
612.4020, 37137.00
613.5700, 37225.00
614.7370, 37210.00
615.9050, 37312.00
617.0720, 37085.00
618.2390, 37123.00
619.4060, 37461.00
620.5720, 37244.00
621.7390, 37657.00
622.9050, 37429.00
624.0710, 37712.00
625.2370, 37765.00
626.4030, 37948.00
627.5690, 38120.00
628.7340, 38076.00
629.9000, 38113.00
631.0650, 38107.00
632.2300, 38110.82
633.3950, 37918.00
634.5600, 38089.00
635.7240, 38166.00
636.8890, 38068.00
638.0530, 37798.00
639.2170, 37879.00
640.3810, 38042.00
641.5450, 37834.00
642.7080, 37976.00
643.8720, 37794.00
645.0350, 37941.00
646.1980, 37812.00
647.3610, 37936.00
648.5240, 37923.00
649.6870, 37769.00
650.8490, 37873.00
652.0120, 37952.00
653.1740, 37632.00
654.3360, 37844.00
655.4980, 37907.00
656.6600, 37784.00
657.8210, 37944.00
658.9830, 38080.00
660.1440, 37927.00
661.3050, 38031.00
662.4660, 38074.00
663.6270, 38072.00
664.7870, 38254.00
665.9480, 38284.00
667.1080, 38596.00
668.2680, 38657.00
669.4280, 38764.00
670.5880, 38704.00
671.7480, 38649.00
672.9070, 38757.05
674.0670, 38964.00
675.2260, 38925.00
676.3850, 38844.00
677.5440, 38951.00
678.7030, 38587.00
679.8610, 38695.00
681.0200, 38562.00
682.1780, 38781.00
683.3360, 38772.00
684.4940, 38657.00
685.6520, 38799.00
686.8090, 38732.00
687.9670, 38554.00
689.1240, 38850.00
690.2810, 39118.00
691.4380, 39033.00
692.5950, 39216.00
693.7520, 39236.00
694.9080, 39195.00
696.0650, 39546.00
697.2210, 39700.00
698.3770, 39719.00
699.5330, 39803.00
700.6880, 39807.31
701.8440, 39798.97
702.9990, 39770.00
704.1550, 39709.00
705.3100, 39686.00
706.4650, 39568.00
707.6190, 39452.00
708.7740, 39472.00
709.9290, 39613.00
711.0830, 39388.00
712.2370, 39513.00
713.3910, 39346.00
714.5450, 39481.00
715.6980, 39475.00
716.8520, 39380.00
718.0050, 39360.00
719.1580, 39317.00
720.3110, 39373.14
721.4640, 39366.63
722.6170, 39480.00
723.7700, 39481.00
724.9220, 39404.00
726.0740, 39581.00
727.2260, 39622.00
728.3780, 39578.00
729.5300, 39540.00
730.6810, 39535.00
731.8330, 39485.00
732.9840, 39839.00
734.1350, 39818.00
735.2860, 39810.00
736.4370, 39857.00
737.5880, 39894.63
738.7380, 39816.00
739.8880, 40051.00
741.0390, 39914.00
742.1890, 40018.00
743.3380, 39773.00
744.4880, 39862.00
745.6380, 39809.00
746.7870, 40259.00
747.9360, 39942.00
749.0850, 40220.00
750.2340, 39990.00
751.3830, 40131.00
752.5310, 40357.00
753.6800, 39994.00
754.8280, 40110.00
755.9760, 40136.00
757.1240, 40423.00
758.2720, 40137.00
759.4190, 40117.00
760.5670, 40194.00
761.7140, 40205.00
762.8610, 40329.00
764.0080, 40230.00
765.1550, 40503.00
766.3020, 40550.00
767.4480, 40271.00
768.5950, 40471.00
769.7410, 40615.00
770.8870, 40522.00
772.0330, 40575.00
773.1780, 40588.00
774.3240, 40551.00
775.4690, 40555.00
776.6140, 40416.00
777.7590, 40870.00
778.9040, 40970.00
780.0490, 40771.00
781.1940, 40611.00
782.3380, 40992.00
783.4820, 40764.00
784.6260, 40896.00
785.7700, 40735.00
786.9140, 40962.00
788.0580, 40922.00
789.2010, 41058.00
790.3450, 41122.00
791.4880, 40894.00
792.6310, 41156.00
793.7730, 40833.00
794.9160, 41342.00
796.0590, 41209.00
797.2010, 41226.00
798.3430, 41453.00
799.4850, 41342.00
800.6270, 41427.21
801.7690, 41437.00
802.9100, 41470.00
804.0520, 41533.00
805.1930, 41598.00
806.3340, 41433.00
807.4750, 41566.00
808.6160, 41773.00
809.7560, 41544.00
810.8970, 41776.00
812.0370, 41804.00
813.1770, 41724.00
814.3170, 41840.00
815.4570, 41748.00
816.5960, 41955.00
817.7360, 42167.00
818.8750, 41905.00
820.0140, 41923.00
821.1530, 42161.00
822.2920, 42111.00
823.4310, 42008.00
824.5690, 42051.00
825.7070, 42235.00
826.8460, 42243.00
827.9840, 42329.00
829.1220, 42418.39
830.2590, 42123.00
831.3970, 42559.00
832.5340, 42510.00
833.6710, 42572.00
834.8080, 42223.00
835.9450, 42211.00
837.0820, 42371.00
838.2190, 42360.00
839.3550, 42241.00
840.4910, 42691.00
841.6270, 42801.00
842.7630, 42556.00
843.8990, 42585.00
845.0350, 42803.00
846.1700, 42836.00
847.3060, 42801.00
848.4410, 42757.00
849.5760, 42731.00
850.7100, 43018.00
851.8450, 42934.00
852.9800, 43019.00
854.1140, 42996.00
855.2480, 42886.00
856.3820, 43109.00
857.5160, 43050.00
858.6500, 43142.00
859.7830, 43061.00
860.9170, 43023.00
862.0500, 43237.00
863.1830, 43038.00
864.3160, 43203.00
865.4480, 42928.00
866.5810, 43149.00
867.7130, 43223.00
868.8460, 43143.00
869.9780, 43502.00
871.1100, 43411.00
872.2410, 43594.00
873.3730, 43562.00
874.5050, 43714.00
875.6360, 43718.00
876.7670, 43792.05
877.8980, 43655.00
879.0290, 43916.00
880.1590, 43770.00
881.2900, 43776.00
882.4200, 43861.00
883.5500, 43815.00
884.6800, 43863.00
885.8100, 44233.00
886.9400, 44134.00
888.0690, 43953.00
889.1990, 44150.00
890.3280, 43990.00
891.4570, 43885.00
892.5860, 43992.00
893.7140, 44147.00
894.8430, 44261.00
895.9710, 44424.00
897.1000, 44155.00
898.2280, 44148.00
899.3560, 44393.00
900.4830, 43980.00
901.6110, 44164.00
902.7380, 44747.00
903.8660, 44416.00
904.9930, 44350.00
906.1200, 44471.00
907.2460, 44481.00
908.3730, 44268.00
909.5000, 44671.00
910.6260, 44582.00
911.7520, 44790.00
912.8780, 44756.00
914.0040, 44740.00
915.1290, 44801.00
916.2550, 44698.00
917.3800, 44698.00
918.5050, 44871.00
919.6300, 44832.00
920.7550, 44693.00
921.8800, 44644.00
923.0040, 44801.00
924.1290, 45031.00
925.2530, 44809.00
926.3770, 45001.00
927.5010, 45156.00
928.6250, 45076.00
929.7480, 45089.00
930.8720, 44786.00
931.9950, 45189.00
933.1180, 45390.00
934.2410, 45140.00
935.3640, 45342.00
936.4860, 45365.00
937.6090, 45352.00
938.7310, 45155.00
939.8530, 45245.00
940.9750, 45327.00
942.0970, 45372.00
943.2180, 45498.00
944.3400, 45387.00
945.4610, 45565.00
946.5820, 45473.00
947.7030, 45743.00
948.8240, 45833.00
949.9450, 45797.00
951.0650, 46086.00
952.1860, 45779.00
953.3060, 46054.00
954.4260, 45953.00
955.5460, 46027.00
956.6650, 45880.00
957.7850, 46170.00
958.9040, 45943.00
960.0230, 45955.00
961.1420, 46231.00
962.2610, 46007.00
963.3800, 46038.00
964.4990, 46405.00
965.6170, 46194.00
966.7350, 46199.00
967.8530, 46236.00
968.9710, 46347.00
970.0890, 46441.00
971.2070, 46552.00
972.3240, 46795.00
973.4410, 46311.00
974.5580, 46722.00
975.6750, 46457.00
976.7920, 46486.00
977.9090, 46778.00
979.0250, 46739.00
980.1410, 46841.00
981.2580, 47016.00
982.3740, 46776.00
983.4890, 47077.00
984.6050, 46715.00
985.7200, 47059.00
986.8360, 46838.00
987.9510, 47275.00
989.0660, 47380.00
990.1810, 47142.00
991.2950, 47485.00
992.4100, 47083.00
993.5240, 47561.00
994.6390, 47183.00
995.7530, 47254.00
996.8660, 47788.00
997.9800, 47563.00
999.0940, 47247.00
1000.207, 47644.00
1001.320, 47864.00
1002.433, 47647.00
1003.546, 47810.00
1004.659, 47840.00
1005.772, 48138.00
1006.884, 47906.00
1007.996, 48204.00
1009.108, 48153.00
1010.220, 48372.00
1011.332, 48602.00
1012.444, 48728.00
1013.555, 48645.00
1014.666, 49006.00
1015.777, 49050.00
1016.888, 49090.00
1017.999, 49351.00
1019.110, 49761.00
1020.220, 49837.00
1021.331, 49665.00
1022.441, 50308.00
1023.551, 50357.00
1024.661, 50926.00
1025.770, 50840.00
1026.880, 50868.00
1027.989, 51015.00
1029.098, 50654.00
1030.207, 50832.00
1031.316, 50741.00
1032.425, 50383.00
1033.533, 49960.00
1034.642, 50119.00
1035.750, 50100.00
1036.858, 49721.00
1037.966, 49455.00
1039.073, 49633.00
1040.181, 49538.00
1041.288, 49271.00
1042.396, 49430.00
1043.503, 49504.00
1044.610, 49457.00
1045.716, 49500.00
1046.823, 49372.00
1047.929, 49613.00
1049.036, 49462.00
1050.142, 49908.00
1051.248, 49609.00
1052.353, 49793.00
1053.459, 49782.00
1054.564, 50016.00
1055.670, 50120.38
1056.775, 50385.00
1057.880, 50453.00
1058.985, 50610.00
1060.089, 50870.00
1061.194, 50737.00
1062.298, 50917.00
1063.402, 50571.00
1064.506, 51011.00
1065.610, 51070.00
1066.713, 50999.00
1067.817, 50714.00
1068.920, 51031.00
1070.023, 51135.00
1071.126, 50666.00
1072.229, 51186.00
1073.332, 51479.00
1074.435, 51453.00
1075.537, 51344.00
1076.639, 51459.00
1077.741, 51474.00
1078.843, 51386.00
1079.945, 51363.00
1081.046, 51244.00
1082.148, 51160.00
1083.249, 51083.00
1084.350, 50703.00
1085.451, 50883.00
1086.551, 50837.00
1087.652, 50505.00
1088.752, 50871.00
1089.853, 50549.00
1090.953, 50614.00
1092.053, 50781.00
1093.152, 50428.00
1094.252, 50651.00
1095.351, 50994.00
1096.451, 50862.00
1097.550, 50768.00
1098.649, 50912.00
1099.748, 50756.00
1100.846, 50831.00
1101.945, 50692.00
1103.043, 50778.00
1104.141, 51002.00
1105.239, 50840.00
1106.337, 51130.00
1107.434, 51056.00
1108.532, 51371.00
1109.629, 51383.00
1110.726, 50966.00
1111.823, 51354.00
1112.920, 51032.00
1114.017, 51232.00
1115.113, 51271.00
1116.210, 51259.00
1117.306, 51492.00
1118.402, 51437.00
1119.498, 51250.00
1120.593, 51637.00
1121.689, 51888.00
1122.784, 51634.00
1123.879, 51709.00
1124.974, 52107.00
1126.069, 52064.00
1127.164, 51818.00
1128.259, 51997.00
1129.353, 51690.00
1130.447, 52056.00
1131.541, 52033.00
1132.635, 52196.00
1133.729, 52367.00
1134.822, 52308.00
1135.916, 52369.00
1137.009, 52456.00
1138.102, 52498.15
1139.195, 52673.00
1140.288, 52577.00
1141.380, 52627.00
1142.473, 52449.00
1143.565, 53010.00
1144.657, 52674.00
1145.749, 53175.00
1146.841, 53386.00
1147.932, 53287.00
1149.024, 53459.00
1150.115, 53328.00
1151.206, 53637.00
1152.297, 53561.00
1153.388, 53377.00
1154.479, 53276.00
1155.569, 53222.00
1156.659, 53319.00
1157.750, 53335.00
1158.839, 53363.61
1159.929, 53363.00
1161.019, 53423.00
1162.108, 53438.00
1163.198, 53420.00
1164.287, 53280.00
1165.376, 53449.00
1166.465, 53394.13
1167.553, 53445.71
1168.642, 53454.00
1169.730, 53517.00
1170.818, 53551.24
1171.906, 53494.00
1172.994, 53830.00
1174.082, 53913.00
1175.170, 54110.00
1176.257, 53951.00
1177.344, 54143.00
1178.431, 54098.00
1179.518, 54138.00
1180.605, 54352.00
1181.691, 54312.46
1182.778, 54321.00
1183.864, 54395.00
1184.950, 54281.00
1186.036, 54301.00
1187.122, 54323.10
1188.207, 54124.00
1189.292, 54377.00
1190.378, 54456.00
1191.463, 54490.27
1192.548, 54238.00
1193.632, 54449.00
1194.717, 54271.00
1195.801, 54424.00
1196.886, 54238.00
1197.970, 54700.00
1199.054, 54578.00
1200.137, 54189.00
1201.221, 54588.00
1202.305, 54423.00
1203.388, 54823.00
1204.471, 54700.00
1205.554, 54853.00
1206.637, 54970.00
1207.719, 54891.00
1208.802, 55043.00
1209.884, 55112.00
1210.966, 55205.00
1212.048, 55191.09
1213.130, 55249.00
1214.212, 55113.00
1215.293, 55134.00
1216.374, 55118.00
1217.456, 55448.00
1218.536, 55398.00
1219.617, 55457.00
1220.698, 55152.00
1221.778, 55680.00
1222.859, 55443.00
1223.939, 55433.00
1225.019, 55598.00
1226.099, 55601.00
1227.178, 55783.00
1228.258, 55792.00
1229.337, 55812.00
1230.417, 55943.62
1231.496, 55998.00
1232.574, 56109.00
1233.653, 56095.91
1234.732, 56123.00
1235.810, 56100.00
1236.888, 56114.00
1237.966, 56047.00
1239.044, 56439.00
1240.122, 56298.00
1241.199, 56487.00
1242.277, 56421.00
1243.354, 56801.00
1244.431, 56332.00
1245.508, 56932.00
1246.585, 56449.00
1247.661, 56366.00
1248.738, 56522.00
1249.814, 56558.00
1250.890, 56699.00
1251.966, 56768.99
1253.042, 56865.00
1254.117, 56894.00
1255.193, 56910.00
1256.268, 56922.00
1257.343, 56894.36
1258.418, 56896.97
1259.493, 56835.00
1260.567, 56926.00
1261.642, 56947.00
1262.716, 57089.00
1263.790, 57077.00
1264.864, 57240.00
1265.938, 57248.00
1267.011, 57415.00
1268.085, 57639.00
1269.158, 57354.00
1270.231, 57361.00
1271.304, 57649.00
1272.377, 57478.00
1273.450, 57734.00
1274.522, 57647.00
1275.594, 57578.00
