##NAMES=Senegalite
##RRUFFID=R050239
##IDEAL CHEMISTRY=Al_2_PO_4_(OH)_3_&#183;H_2_O
##LOCALITY=Kourondicko iron ore (magnetite) deposit, Faleme River Basin, Senegal
##OWNER=RRUFF
##SOURCE=Marcus Origlieri
##DESCRIPTION=Colorless prismatic crystals
##STATUS=The identification of this mineral has been confirmed by X-ray diffraction and chemical analysis
##URL=rruff.info/R050239
##MEASURED CHEMISTRY=Al_2.00_P_1.00_O_4_(OH)_3_Â·H_2_O
##PIN_ID=M00389
##ORIENTATION=Laser parallel to -b* (0 -1 0). Fiducial mark perpendicular to laser is parallel to -c [0 0 -1]
114.4400, 17778.00
115.6710, 17793.00
116.9030, 18083.00
118.1340, 18038.00
119.3650, 18206.00
120.5960, 18352.00
121.8270, 18422.00
123.0580, 18680.00
124.2880, 18995.00
125.5190, 19070.00
126.7490, 19465.00
127.9790, 19668.00
129.2090, 20036.00
130.4390, 20305.00
131.6680, 20701.00
132.8980, 21107.00
134.1270, 21133.00
135.3560, 20953.00
136.5850, 20503.00
137.8140, 20431.00
139.0430, 20207.00
140.2710, 20301.00
141.5000, 20204.00
142.7280, 20274.00
143.9560, 20370.00
145.1840, 20398.00
146.4120, 20414.00
147.6390, 20433.00
148.8670, 20192.00
150.0940, 20198.00
151.3210, 20114.00
152.5490, 20060.00
153.7750, 19949.00
155.0020, 19960.00
156.2290, 20076.00
157.4550, 20170.00
158.6810, 20240.00
159.9080, 20376.73
161.1340, 20350.00
162.3590, 20615.00
163.5850, 20717.00
164.8110, 20805.00
166.0360, 21040.00
167.2610, 20941.00
168.4860, 20910.00
169.7110, 21058.00
170.9360, 21058.00
172.1610, 21148.53
173.3850, 20978.00
174.6100, 21256.00
175.8340, 21222.00
177.0580, 21118.00
178.2820, 21300.00
179.5050, 21522.00
180.7290, 21354.00
181.9520, 21545.00
183.1760, 21810.00
184.3990, 21692.00
185.6220, 22014.00
186.8450, 21889.00
188.0670, 22175.00
189.2900, 22564.00
190.5120, 22765.00
191.7340, 23184.00
192.9560, 23238.00
194.1780, 23471.00
195.4000, 23504.00
196.6220, 23066.00
197.8430, 23106.00
199.0640, 22717.00
200.2860, 22734.00
201.5070, 22774.00
202.7270, 22884.00
203.9480, 22966.00
205.1690, 22623.00
206.3890, 22395.00
207.6090, 22081.00
208.8290, 22002.50
210.0490, 22070.00
211.2690, 21920.00
212.4890, 21922.00
213.7080, 21936.00
214.9280, 22120.00
216.1470, 22192.00
217.3660, 22269.00
218.5850, 22168.00
219.8030, 22500.00
221.0220, 22489.00
222.2400, 22769.00
223.4590, 23075.00
224.6770, 23225.00
225.8950, 23433.00
227.1120, 23890.00
228.3300, 24467.00
229.5480, 24814.00
230.7650, 25210.00
231.9820, 25535.00
233.1990, 25729.00
234.4160, 25762.00
235.6330, 25549.00
236.8490, 25360.00
238.0660, 24946.00
239.2820, 24480.00
240.4980, 24527.00
241.7140, 24247.00
242.9300, 24185.00
244.1460, 23737.00
245.3610, 23572.00
246.5770, 23581.00
247.7920, 23286.00
249.0070, 23380.00
250.2220, 23171.00
251.4370, 23161.00
252.6510, 22997.00
253.8660, 23118.00
255.0800, 23016.00
256.2940, 23094.00
257.5080, 23111.00
258.7220, 23240.00
259.9360, 23438.00
261.1490, 23525.00
262.3630, 23643.00
263.5760, 23533.00
264.7890, 23581.00
266.0020, 23573.00
267.2150, 23617.00
268.4270, 23736.00
269.6400, 24017.00
270.8520, 24047.00
272.0640, 24330.00
273.2760, 24699.00
274.4880, 24917.00
275.7000, 24997.00
276.9120, 25036.00
278.1230, 24740.00
279.3340, 24581.00
280.5450, 24459.00
281.7560, 24479.00
282.9670, 24495.18
284.1780, 24490.00
285.3880, 24721.00
286.5980, 24803.00
287.8090, 24976.00
289.0190, 25067.00
290.2290, 25287.00
291.4380, 25761.00
292.6480, 25991.00
293.8570, 26229.00
295.0670, 26502.00
296.2760, 26167.00
297.4850, 26405.00
298.6930, 26483.00
299.9020, 26719.00
301.1110, 26953.00
302.3190, 26972.00
303.5270, 26861.00
304.7350, 26398.00
305.9430, 26382.00
307.1510, 26114.00
308.3580, 26213.00
309.5660, 25869.00
310.7730, 26198.00
311.9800, 26217.00
313.1870, 26390.00
314.3940, 26428.00
315.6010, 26309.00
316.8070, 26276.00
318.0130, 26291.00
319.2200, 26096.00
320.4260, 26248.00
321.6310, 26278.00
322.8370, 26311.00
324.0430, 26206.00
325.2480, 26324.00
326.4540, 26254.00
327.6590, 26384.00
328.8640, 26440.00
330.0680, 26429.00
331.2730, 26450.00
332.4780, 26286.00
333.6820, 26093.00
334.8860, 26050.00
336.0900, 25951.00
337.2940, 25894.00
338.4980, 25906.00
339.7010, 25900.00
340.9050, 26012.00
342.1080, 25865.00
343.3110, 26002.00
344.5140, 25742.00
345.7170, 25751.00
346.9200, 25815.00
348.1220, 25639.00
349.3240, 25804.00
350.5270, 25677.00
351.7290, 25929.00
352.9310, 26009.00
354.1320, 26073.00
355.3340, 26274.00
356.5350, 26354.00
357.7370, 26759.00
358.9380, 26610.00
360.1390, 26829.00
361.3400, 27196.00
362.5400, 27258.00
363.7410, 27762.00
364.9410, 27808.00
366.1410, 28215.00
367.3410, 28162.00
368.5410, 28339.00
369.7410, 28159.00
370.9400, 27799.00
372.1400, 27989.00
373.3390, 27873.00
374.5380, 27939.00
375.7370, 27911.00
376.9360, 27652.00
378.1350, 27575.00
379.3330, 27481.00
380.5310, 27315.00
381.7300, 27065.00
382.9280, 26892.00
384.1260, 27067.00
385.3230, 26773.00
386.5210, 26916.00
387.7180, 26901.00
388.9160, 26794.00
390.1130, 26789.00
391.3100, 26783.00
392.5060, 26731.00
393.7030, 26813.00
394.9000, 26869.00
396.0960, 26861.50
397.2920, 26630.00
398.4880, 26888.00
399.6840, 26744.00
400.8800, 26731.00
402.0750, 26985.00
403.2710, 27067.00
404.4660, 27129.00
405.6610, 27131.00
406.8560, 27253.00
408.0510, 27191.00
409.2450, 27084.00
410.4400, 27420.00
411.6340, 27183.00
412.8280, 27655.00
414.0220, 27360.00
415.2160, 27660.00
416.4100, 27618.00
417.6030, 27804.00
418.7970, 27626.00
419.9900, 28020.00
421.1830, 27835.00
422.3760, 28175.00
423.5690, 28255.00
424.7610, 28573.00
425.9540, 28485.00
427.1460, 28759.00
428.3380, 28765.00
429.5300, 28864.00
430.7220, 29249.00
431.9140, 29344.00
433.1050, 29679.00
434.2970, 29768.00
435.4880, 30152.00
436.6790, 30138.00
437.8700, 30537.00
439.0610, 30967.00
440.2510, 30731.00
441.4420, 31052.00
442.6320, 31225.00
443.8220, 30937.00
445.0120, 31187.00
446.2020, 31183.00
447.3910, 31122.00
448.5810, 31040.00
449.7700, 30959.00
450.9600, 30726.00
452.1490, 30661.00
453.3370, 30193.00
454.5260, 30204.00
455.7150, 30234.00
456.9030, 29921.00
458.0910, 30082.00
459.2800, 30066.00
460.4670, 29913.00
461.6550, 30211.00
462.8430, 30059.00
464.0300, 30361.00
465.2180, 30475.00
466.4050, 30761.00
467.5920, 30825.00
468.7790, 31245.00
469.9650, 31462.00
471.1520, 31959.00
472.3380, 32725.00
473.5250, 33200.00
474.7110, 33729.00
475.8970, 34374.00
477.0820, 34689.00
478.2680, 35340.00
479.4540, 35382.00
480.6390, 34977.00
481.8240, 34347.00
483.0090, 33332.00
484.1940, 32445.00
485.3780, 31821.00
486.5630, 31207.00
487.7470, 30780.00
488.9320, 30613.00
490.1160, 30163.00
491.3000, 30177.00
492.4830, 29923.00
493.6670, 29890.00
494.8500, 29821.00
496.0340, 29759.00
497.2170, 29740.30
498.4000, 29656.00
499.5820, 29700.00
500.7650, 29659.00
501.9480, 29644.00
503.1300, 29691.00
504.3120, 29568.00
505.4940, 29648.16
506.6760, 29554.00
507.8580, 29700.00
509.0390, 29714.00
510.2210, 29668.11
511.4020, 29361.00
512.5830, 29475.00
513.7640, 29430.00
514.9450, 29449.00
516.1250, 29473.00
517.3060, 29458.00
518.4860, 29448.00
519.6660, 29582.00
520.8460, 29333.00
522.0260, 29438.00
523.2060, 29689.00
524.3850, 29795.00
525.5650, 29668.00
526.7440, 29823.00
527.9230, 29730.00
529.1020, 29621.00
530.2810, 30038.00
531.4590, 29996.00
532.6380, 30189.00
533.8160, 30327.00
534.9940, 30542.00
536.1720, 30630.99
537.3500, 30778.00
538.5270, 30783.00
539.7050, 30907.00
540.8820, 30913.00
542.0590, 31208.00
543.2360, 31359.00
544.4130, 31302.00
545.5900, 31283.00
546.7660, 31231.00
547.9430, 31298.34
549.1190, 31302.86
550.2950, 31428.00
551.4710, 31444.00
552.6470, 31444.00
553.8220, 31621.00
554.9980, 31478.00
556.1730, 31733.00
557.3480, 31544.00
558.5230, 31624.00
559.6980, 31465.00
560.8730, 31315.00
562.0470, 31381.00
563.2220, 31464.00
564.3960, 31137.00
565.5700, 31344.00
566.7440, 31360.00
567.9170, 30898.00
569.0910, 31259.00
570.2640, 31113.00
571.4380, 30965.00
572.6110, 31244.00
573.7840, 31143.00
574.9570, 31054.00
576.1290, 31180.00
577.3020, 31005.00
578.4740, 31090.00
579.6460, 30995.00
580.8180, 30977.43
581.9900, 31130.00
583.1620, 31024.00
584.3330, 31074.00
585.5040, 31247.00
586.6760, 31067.00
587.8470, 31289.00
589.0180, 31027.00
590.1880, 31259.00
591.3590, 31280.00
592.5290, 31441.00
593.7000, 31535.00
594.8700, 31617.00
596.0400, 31692.00
597.2090, 31667.00
598.3790, 31716.53
599.5490, 31855.00
600.7180, 31729.00
601.8870, 31949.00
603.0560, 31970.00
604.2250, 31909.00
605.3940, 31936.00
606.5620, 31988.00
607.7300, 32087.00
608.8990, 32059.00
610.0670, 32290.00
611.2350, 32522.00
612.4020, 32491.00
613.5700, 32571.00
614.7370, 32545.00
615.9050, 32626.00
617.0720, 32599.00
618.2390, 32820.00
619.4060, 33066.00
620.5720, 32882.00
621.7390, 33151.00
622.9050, 33081.00
624.0710, 32978.00
625.2370, 32868.00
626.4030, 33078.00
627.5690, 33052.00
628.7340, 33149.00
629.9000, 32834.00
631.0650, 32997.00
632.2300, 32827.00
633.3950, 32834.00
634.5600, 32991.00
635.7240, 33092.00
636.8890, 33025.00
638.0530, 32710.00
639.2170, 32550.00
640.3810, 32759.00
641.5450, 32804.00
642.7080, 32783.00
643.8720, 32688.00
645.0350, 32902.00
646.1980, 32628.00
647.3610, 32604.00
648.5240, 32793.00
649.6870, 32425.00
650.8490, 32479.00
652.0120, 32519.00
653.1740, 32361.00
654.3360, 32314.00
655.4980, 32463.00
656.6600, 32283.00
657.8210, 32352.40
658.9830, 32413.00
660.1440, 32347.00
661.3050, 32324.00
662.4660, 32295.00
663.6270, 32419.00
664.7870, 32483.00
665.9480, 32612.00
667.1080, 32654.49
668.2680, 32710.00
669.4280, 32728.00
670.5880, 32802.00
671.7480, 32811.00
672.9070, 33071.00
674.0670, 33139.00
675.2260, 33132.00
676.3850, 33224.00
677.5440, 33120.00
678.7030, 33083.97
679.8610, 33019.59
681.0200, 32897.00
682.1780, 32840.00
683.3360, 32742.00
684.4940, 32694.00
685.6520, 32777.00
686.8090, 32928.00
687.9670, 32650.00
689.1240, 32550.00
690.2810, 32871.00
691.4380, 33004.00
692.5950, 32954.00
693.7520, 33018.00
694.9080, 33311.00
696.0650, 33580.00
697.2210, 33364.00
698.3770, 33434.00
699.5330, 33637.00
700.6880, 33696.00
701.8440, 34155.00
702.9990, 34156.00
704.1550, 34232.00
705.3100, 33913.00
706.4650, 34143.00
707.6190, 34078.00
708.7740, 33908.00
709.9290, 34010.00
711.0830, 33701.00
712.2370, 33841.00
713.3910, 33365.00
714.5450, 33602.00
715.6980, 33645.00
716.8520, 33420.00
718.0050, 33413.00
719.1580, 33537.00
720.3110, 33472.00
721.4640, 33413.00
722.6170, 33513.00
723.7700, 33525.00
724.9220, 33445.00
726.0740, 33447.00
727.2260, 33616.00
728.3780, 33548.00
729.5300, 33606.82
730.6810, 33628.16
731.8330, 33641.00
732.9840, 33616.00
734.1350, 33648.00
735.2860, 33616.00
736.4370, 33664.50
737.5880, 33581.00
738.7380, 33725.00
739.8880, 33686.00
741.0390, 33642.00
742.1890, 33825.00
743.3380, 33840.00
744.4880, 33729.00
745.6380, 33974.00
746.7870, 33843.00
747.9360, 33886.00
749.0850, 34024.00
750.2340, 33691.00
751.3830, 33850.00
752.5310, 33910.00
753.6800, 33760.00
754.8280, 34136.00
755.9760, 33932.00
757.1240, 34027.00
758.2720, 33977.00
759.4190, 33893.00
760.5670, 34108.00
761.7140, 33979.00
762.8610, 34051.00
764.0080, 34144.00
765.1550, 34189.00
766.3020, 34037.00
767.4480, 34217.00
768.5950, 33989.00
769.7410, 34150.00
770.8870, 34052.00
772.0330, 34132.00
773.1780, 34175.56
774.3240, 34134.00
775.4690, 34270.00
776.6140, 34397.00
777.7590, 34478.00
778.9040, 34537.84
780.0490, 34408.00
781.1940, 34542.00
782.3380, 34505.00
783.4820, 34376.00
784.6260, 34658.00
785.7700, 34770.00
786.9140, 34535.00
788.0580, 34750.00
789.2010, 34633.00
790.3450, 34620.00
791.4880, 34589.00
792.6310, 34629.74
793.7730, 34828.00
794.9160, 34782.00
796.0590, 34863.00
797.2010, 34942.00
798.3430, 34985.00
799.4850, 34869.00
800.6270, 34760.00
801.7690, 35106.00
802.9100, 34823.00
804.0520, 35166.00
805.1930, 34968.00
806.3340, 35144.00
807.4750, 35400.00
808.6160, 35082.00
809.7560, 35157.00
810.8970, 35147.00
812.0370, 35175.00
813.1770, 35299.00
814.3170, 35387.00
815.4570, 35306.00
816.5960, 35202.00
817.7360, 35387.00
818.8750, 35347.00
820.0140, 35594.00
821.1530, 35692.00
822.2920, 35675.00
823.4310, 35667.00
824.5690, 35487.00
825.7070, 35626.00
826.8460, 35429.00
827.9840, 35490.00
829.1220, 35660.00
830.2590, 35847.00
831.3970, 35592.00
832.5340, 35949.00
833.6710, 35705.00
834.8080, 35952.00
835.9450, 35936.00
837.0820, 36147.00
838.2190, 35862.00
839.3550, 36128.00
840.4910, 36082.00
841.6270, 36010.00
842.7630, 36330.00
843.8990, 36203.00
845.0350, 36289.00
846.1700, 36153.00
847.3060, 36223.00
848.4410, 36378.00
849.5760, 36440.00
850.7100, 36537.00
851.8450, 36400.00
852.9800, 36357.00
854.1140, 36463.00
855.2480, 36610.00
856.3820, 36725.00
857.5160, 36474.00
858.6500, 36706.00
859.7830, 36805.00
860.9170, 36620.00
862.0500, 36722.00
863.1830, 36887.00
864.3160, 36750.00
865.4480, 36822.00
866.5810, 36950.00
867.7130, 36986.00
868.8460, 36912.00
869.9780, 37123.00
871.1100, 37143.00
872.2410, 36873.00
873.3730, 37000.00
874.5050, 37197.00
875.6360, 36987.00
876.7670, 37107.00
877.8980, 36895.00
879.0290, 37548.00
880.1590, 37221.00
881.2900, 37153.00
882.4200, 37553.00
883.5500, 37249.00
884.6800, 37584.00
885.8100, 37142.00
886.9400, 37690.00
888.0690, 37801.00
889.1990, 37475.00
890.3280, 37629.00
891.4570, 37461.00
892.5860, 37585.00
893.7140, 37248.00
894.8430, 37755.00
895.9710, 37642.00
897.1000, 37739.00
898.2280, 37553.00
899.3560, 37619.00
900.4830, 37756.00
901.6110, 37756.00
902.7380, 37839.00
903.8660, 37933.00
904.9930, 37839.00
906.1200, 37932.00
907.2460, 37753.00
908.3730, 38054.00
909.5000, 37872.00
910.6260, 38024.00
911.7520, 37882.00
912.8780, 37874.00
914.0040, 37943.00
915.1290, 37840.00
916.2550, 38044.00
917.3800, 38410.00
918.5050, 38401.00
919.6300, 38039.00
920.7550, 38066.00
921.8800, 38468.00
923.0040, 38261.00
924.1290, 38590.00
925.2530, 38523.00
926.3770, 38398.00
927.5010, 38557.00
928.6250, 38837.00
929.7480, 38627.00
930.8720, 38214.00
931.9950, 38504.00
933.1180, 38607.00
934.2410, 38436.00
935.3640, 38774.00
936.4860, 38713.00
937.6090, 38730.00
938.7310, 38459.00
939.8530, 38879.00
940.9750, 38861.00
942.0970, 38752.00
943.2180, 39064.00
944.3400, 38873.00
945.4610, 39080.00
946.5820, 38840.00
947.7030, 39141.00
948.8240, 39028.00
949.9450, 39056.00
951.0650, 38796.00
952.1860, 39225.00
953.3060, 39126.00
954.4260, 39101.00
955.5460, 39341.00
956.6650, 39398.00
957.7850, 39391.00
958.9040, 39584.00
960.0230, 39545.00
961.1420, 39581.00
962.2610, 39689.62
963.3800, 39682.16
964.4990, 39827.00
965.6170, 39692.00
966.7350, 39704.00
967.8530, 39561.00
968.9710, 39515.00
970.0890, 39569.00
971.2070, 39543.33
972.3240, 39602.29
973.4410, 39690.00
974.5580, 39733.00
975.6750, 39922.00
976.7920, 40006.00
977.9090, 40062.00
979.0250, 40115.00
980.1410, 40202.64
981.2580, 40463.00
982.3740, 40372.00
983.4890, 40507.00
984.6050, 40611.00
985.7200, 40401.00
986.8360, 40620.00
987.9510, 40487.00
989.0660, 40807.00
990.1810, 40413.00
991.2950, 40629.00
992.4100, 40795.00
993.5240, 40744.00
994.6390, 40938.00
995.7530, 41070.00
996.8660, 41258.00
997.9800, 41071.00
999.0940, 41424.00
1000.207, 41174.00
1001.320, 41666.00
1002.433, 41671.00
1003.546, 41850.00
1004.659, 41952.00
1005.772, 42278.00
1006.884, 42267.00
1007.996, 42504.00
1009.108, 42331.00
1010.220, 42562.00
1011.332, 43248.00
1012.444, 43259.00
1013.555, 43317.00
1014.666, 43576.00
1015.777, 43691.00
1016.888, 44243.00
1017.999, 43860.00
1019.110, 44324.00
1020.220, 44693.00
1021.331, 45320.00
1022.441, 45627.78
1023.551, 46036.00
1024.661, 46393.00
1025.770, 46841.00
1026.880, 47311.00
1027.989, 47196.00
1029.098, 47601.00
1030.207, 48022.00
1031.316, 48048.00
1032.425, 47359.00
1033.533, 47222.00
1034.642, 46695.00
1035.750, 46363.00
1036.858, 45806.00
1037.966, 45278.00
1039.073, 45449.00
1040.181, 44837.00
1041.288, 44546.00
1042.396, 44109.00
1043.503, 43774.00
1044.610, 43639.00
1045.716, 43750.00
1046.823, 43431.00
1047.929, 43267.00
1049.036, 43446.00
1050.142, 43357.00
1051.248, 43271.00
1052.353, 43430.00
1053.459, 43375.00
1054.564, 43779.00
1055.670, 43764.00
1056.775, 44000.00
1057.880, 43897.00
1058.985, 44249.00
1060.089, 44156.00
1061.194, 44692.00
1062.298, 44725.00
1063.402, 45322.00
1064.506, 45490.00
1065.610, 45391.00
1066.713, 45228.00
1067.817, 45217.00
1068.920, 45035.00
1070.023, 44721.00
1071.126, 44603.00
1072.229, 44434.21
1073.332, 44294.79
1074.435, 44178.00
1075.537, 44137.00
1076.639, 43989.00
1077.741, 43977.00
1078.843, 43937.00
1079.945, 43998.00
1081.046, 43905.00
1082.148, 44144.00
1083.249, 44010.00
1084.350, 44050.40
1085.451, 44037.00
1086.551, 44022.00
1087.652, 43871.00
1088.752, 43836.00
1089.853, 43796.46
1090.953, 43793.93
1092.053, 43664.00
1093.152, 43906.00
1094.252, 43698.00
1095.351, 43808.00
1096.451, 43653.00
1097.550, 43709.00
1098.649, 43978.00
1099.748, 43513.00
1100.846, 44044.00
1101.945, 43690.00
1103.043, 43984.00
1104.141, 43912.00
1105.239, 44148.00
1106.337, 43997.00
1107.434, 43923.00
1108.532, 44041.00
1109.629, 44012.00
1110.726, 44054.00
1111.823, 44197.00
1112.920, 44017.00
1114.017, 44206.00
1115.113, 44309.00
1116.210, 44301.00
1117.306, 44370.00
1118.402, 44431.00
1119.498, 44391.00
1120.593, 44620.00
1121.689, 44451.00
1122.784, 44509.00
1123.879, 44840.00
1124.974, 44892.00
1126.069, 44635.00
1127.164, 44741.00
1128.259, 44726.00
1129.353, 44895.00
1130.447, 44819.00
1131.541, 44974.00
1132.635, 45055.00
1133.729, 44993.00
1134.822, 44991.00
1135.916, 45192.00
1137.009, 44826.00
1138.102, 45349.00
1139.195, 45594.00
1140.288, 45296.00
1141.380, 45464.00
1142.473, 45542.00
1143.565, 45595.00
1144.657, 45765.70
1145.749, 45814.00
1146.841, 46046.00
1147.932, 46283.00
1149.024, 46418.00
1150.115, 46543.16
1151.206, 46653.15
1152.297, 46692.00
1153.388, 46729.00
1154.479, 46798.00
1155.569, 46702.00
1156.659, 46383.00
1157.750, 46681.00
1158.839, 46242.00
1159.929, 46479.00
1161.019, 46445.00
1162.108, 46097.00
1163.198, 46154.00
1164.287, 46329.00
1165.376, 46093.00
1166.465, 46219.00
1167.553, 46224.00
1168.642, 46167.00
1169.730, 46291.00
1170.818, 46410.00
1171.906, 46373.00
1172.994, 46277.00
1174.082, 46218.00
1175.170, 46529.00
1176.257, 46312.00
1177.344, 46543.00
1178.431, 46427.00
1179.518, 46332.00
1180.605, 46509.00
1181.691, 46434.00
1182.778, 46393.00
1183.864, 46773.00
1184.950, 46854.00
1186.036, 46316.00
1187.122, 46744.00
1188.207, 46534.00
1189.292, 46707.00
1190.378, 46681.00
1191.463, 46687.00
1192.548, 46928.00
1193.632, 46861.00
1194.717, 46737.00
1195.801, 47047.00
1196.886, 46979.00
1197.970, 46896.00
1199.054, 47257.00
1200.137, 47120.00
1201.221, 47143.00
1202.305, 47364.00
1203.388, 47302.00
1204.471, 47471.00
1205.554, 47320.00
1206.637, 47400.00
1207.719, 47271.00
1208.802, 47194.00
1209.884, 47274.00
1210.966, 47541.00
1212.048, 47827.00
1213.130, 47569.00
1214.212, 47982.00
1215.293, 47660.00
1216.374, 47892.00
1217.456, 47945.00
1218.536, 47844.00
1219.617, 47809.00
1220.698, 48092.00
1221.778, 48142.00
1222.859, 47984.00
1223.939, 48218.00
1225.019, 48193.00
1226.099, 48269.00
1227.178, 48301.00
1228.258, 48041.00
1229.337, 48072.00
1230.417, 48042.62
1231.496, 48022.14
1232.574, 48074.00
1233.653, 48188.00
1234.732, 48236.00
1235.810, 48470.00
1236.888, 48267.00
1237.966, 48879.00
1239.044, 48568.00
1240.122, 48377.00
1241.199, 48375.00
1242.277, 48689.00
1243.354, 48503.00
1244.431, 48590.00
1245.508, 48413.00
1246.585, 48494.00
1247.661, 48747.00
1248.738, 48591.00
1249.814, 48588.00
1250.890, 48942.00
1251.966, 48831.00
1253.042, 48659.00
1254.117, 49032.00
1255.193, 48998.00
1256.268, 49309.00
1257.343, 48968.00
1258.418, 48847.00
1259.493, 49273.00
1260.567, 48966.00
1261.642, 49021.00
1262.716, 49480.00
1263.790, 49483.00
1264.864, 49423.00
1265.938, 49438.00
1267.011, 49289.00
1268.085, 49542.00
1269.158, 49840.00
1270.231, 49538.00
1271.304, 49933.00
1272.377, 49718.00
1273.450, 49813.00
1274.522, 49693.00
1275.594, 49953.00
1276.666, 49809.00
1277.738, 49987.00
1278.810, 49799.00
1279.882, 49843.00
1280.953, 49847.00
1282.025, 49777.00
1283.096, 49903.05
1284.167, 49964.00
1285.238, 50119.00
1286.308, 50081.00
1287.379, 50208.00
1288.449, 50287.00
1289.519, 50336.00
1290.589, 50226.00
1291.659, 50377.00
