##NAMES=Shortite
##RRUFFID=R050248
##IDEAL CHEMISTRY=Na_2_Ca_2_(CO_3_)_3_
##LOCALITY=Stauffer mine, Green River, Wyoming, USA
##OWNER=RRUFF
##SOURCE=Marcus Origlieri
##DESCRIPTION=Colorless wedge-shaped single crystal
##STATUS=The identification of this mineral has been confirmed by X-ray diffraction and chemical analysis
##URL=rruff.info/R050248
##MEASURED CHEMISTRY=Na_2.00_Ca_2.00_(CO_3_)_3_ ; CO2 not measured but estimated by difference and stoichiometry.
##PIN_ID=L01144
##ORIENTATION=Laser parallel to a* (1 0 0). Fiducial mark perpendicular to laser is parallel to -b [0 -1 0]
102.9200, 8499.000
104.1590, 8530.000
105.3980, 8640.000
106.6360, 8798.000
107.8750, 8724.000
109.1130, 8880.000
110.3510, 9015.000
111.5890, 9078.000
112.8270, 8984.000
114.0650, 9082.000
115.3020, 9161.000
116.5390, 9145.000
117.7770, 9144.000
119.0130, 9389.000
120.2500, 9409.000
121.4870, 9347.000
122.7230, 9371.000
123.9590, 9534.000
125.1950, 9470.000
126.4310, 9764.000
127.6670, 9729.000
128.9030, 9937.000
130.1380, 9995.000
131.3730, 10083.00
132.6080, 10218.00
133.8430, 10340.00
135.0780, 10403.00
136.3120, 10540.00
137.5470, 10651.00
138.7810, 10553.00
140.0150, 10592.00
141.2480, 10580.00
142.4820, 10423.00
143.7160, 10511.00
144.9490, 10515.00
146.1820, 10517.00
147.4150, 10441.00
148.6480, 10419.00
149.8800, 10568.00
151.1130, 10459.00
152.3450, 10525.00
153.5770, 10524.00
154.8090, 10691.00
156.0410, 10657.00
157.2720, 10670.00
158.5040, 10701.00
159.7350, 10652.00
160.9660, 10667.00
162.1970, 10901.00
163.4270, 10932.00
164.6580, 10843.00
165.8880, 11187.00
167.1180, 11017.00
168.3480, 11068.00
169.5780, 11055.00
170.8080, 11056.00
172.0370, 11105.00
173.2670, 11118.00
174.4960, 11063.00
175.7250, 11069.00
176.9540, 10959.00
178.1820, 10944.00
179.4110, 10968.00
180.6390, 11037.00
181.8670, 11137.00
183.0950, 11017.00
184.3230, 11010.00
185.5500, 10997.00
186.7780, 11019.00
188.0050, 11045.00
189.2320, 11308.00
190.4590, 11242.00
191.6850, 11375.00
192.9120, 11487.00
194.1380, 11403.00
195.3650, 11549.00
196.5910, 11679.00
197.8160, 11651.00
199.0420, 11643.00
200.2680, 11620.00
201.4930, 11729.00
202.7180, 11740.00
203.9430, 11635.00
205.1680, 11483.00
206.3930, 11559.00
207.6170, 11619.00
208.8410, 11560.00
210.0660, 11504.00
211.2890, 11535.00
212.5130, 11484.00
213.7370, 11540.00
214.9600, 11580.00
216.1840, 11547.00
217.4070, 11630.00
218.6300, 11539.00
219.8520, 11598.00
221.0750, 11759.00
222.2970, 11858.00
223.5200, 11795.00
224.7420, 11713.00
225.9640, 11782.00
227.1850, 11894.00
228.4070, 11769.00
229.6280, 11823.00
230.8490, 11969.00
232.0700, 11994.00
233.2910, 12190.00
234.5120, 12036.00
235.7320, 12093.00
236.9530, 12144.00
238.1730, 12214.00
239.3930, 12152.00
240.6130, 12237.00
241.8320, 12098.00
243.0520, 12294.00
244.2710, 12172.00
245.4900, 12110.00
246.7090, 12274.00
247.9280, 12208.00
249.1470, 12195.00
250.3650, 12270.00
251.5840, 12395.00
252.8020, 12428.00
254.0200, 12541.00
255.2370, 12560.00
256.4550, 12630.00
257.6720, 12807.00
258.8900, 12743.00
260.1070, 12752.00
261.3240, 12823.00
262.5400, 12750.00
263.7570, 12997.00
264.9730, 12853.00
266.1900, 12890.00
267.4060, 12799.00
268.6220, 12729.00
269.8370, 12764.00
271.0530, 12762.00
272.2680, 12701.00
273.4830, 12723.00
274.6980, 12619.00
275.9130, 12569.00
277.1280, 12656.00
278.3420, 12559.00
279.5570, 12670.00
280.7710, 12550.00
281.9850, 12683.00
283.1990, 12679.00
284.4120, 12710.00
285.6260, 12720.00
286.8390, 12672.00
288.0520, 12771.00
289.2650, 12873.00
290.4780, 12825.00
291.6910, 12928.00
292.9030, 12947.00
294.1160, 12826.00
295.3280, 12921.00
296.5400, 12925.00
297.7510, 12897.00
298.9630, 12873.00
300.1740, 13002.00
301.3860, 12913.00
302.5970, 13026.00
303.8080, 13107.00
305.0180, 12975.00
306.2290, 13077.00
307.4390, 13127.00
308.6500, 12917.00
309.8600, 13136.00
311.0700, 13151.00
312.2790, 13074.00
313.4890, 13184.00
314.6980, 13263.00
315.9080, 13230.00
317.1170, 13334.00
318.3250, 13175.00
319.5340, 13394.00
320.7430, 13213.00
321.9510, 13234.00
323.1590, 13266.00
324.3670, 13422.00
325.5750, 13381.00
326.7830, 13457.00
327.9900, 13334.00
329.1980, 13285.00
330.4050, 13418.00
331.6120, 13506.00
332.8190, 13582.00
334.0250, 13432.00
335.2320, 13409.00
336.4380, 13590.00
337.6440, 13707.00
338.8500, 13638.00
340.0560, 13616.00
341.2620, 13687.00
342.4670, 13821.00
343.6730, 13667.00
344.8780, 13719.00
346.0830, 13771.00
347.2870, 13929.00
348.4920, 13721.00
349.6970, 13799.00
350.9010, 13723.00
352.1050, 13803.00
353.3090, 13899.00
354.5130, 13793.00
355.7160, 13911.00
356.9200, 13892.00
358.1230, 13808.00
359.3260, 13938.00
360.5290, 14038.00
361.7320, 14019.00
362.9340, 14022.00
364.1370, 14062.00
365.3390, 13965.00
366.5410, 14078.00
367.7430, 14138.00
368.9450, 14104.00
370.1460, 13945.00
371.3480, 14018.00
372.5490, 14036.00
373.7500, 14154.00
374.9510, 14255.00
376.1520, 14079.00
377.3520, 14270.00
378.5520, 14295.00
379.7530, 14270.00
380.9530, 14255.00
382.1530, 14298.00
383.3520, 14323.00
384.5520, 14531.00
385.7510, 14405.00
386.9500, 14377.00
388.1490, 14509.00
389.3480, 14537.00
390.5470, 14744.00
391.7450, 14638.00
392.9440, 14785.00
394.1420, 14670.00
395.3400, 14768.00
396.5380, 14555.00
397.7350, 14722.00
398.9330, 14452.00
400.1300, 14666.00
401.3270, 14785.00
402.5240, 14807.00
403.7210, 14748.00
404.9180, 14784.00
406.1140, 14813.00
407.3110, 14769.00
408.5070, 14845.00
409.7030, 14875.00
410.8990, 14896.00
412.0940, 14844.00
413.2900, 14931.00
414.4850, 14890.00
415.6800, 14808.00
416.8750, 14748.00
418.0700, 14815.00
419.2650, 14872.00
420.4590, 14923.00
421.6530, 14850.00
422.8470, 14798.00
424.0410, 14897.00
425.2350, 14972.00
426.4290, 14934.00
427.6220, 14879.00
428.8160, 15017.00
430.0090, 15085.00
431.2020, 14954.00
432.3940, 15096.00
433.5870, 15055.00
434.7790, 15020.00
435.9720, 15263.00
437.1640, 15154.00
438.3560, 15199.00
439.5470, 15295.00
440.7390, 15035.00
441.9300, 15170.00
443.1220, 15347.00
444.3130, 15342.00
445.5040, 15420.00
446.6940, 15349.00
447.8850, 15406.00
449.0750, 15206.00
450.2660, 15513.00
451.4560, 15305.00
452.6460, 15277.00
453.8350, 15371.00
455.0250, 15432.00
456.2140, 15711.00
457.4040, 15458.00
458.5930, 15507.00
459.7820, 15603.00
460.9700, 15380.00
462.1590, 15718.00
463.3470, 15627.00
464.5350, 15587.00
465.7240, 15720.00
466.9110, 15428.00
468.0990, 15604.00
469.2870, 15658.00
470.4740, 15723.00
471.6610, 15796.00
472.8480, 15802.00
474.0350, 15719.00
475.2220, 15787.00
476.4090, 15841.00
477.5950, 15931.00
478.7810, 15872.00
479.9670, 15878.00
481.1530, 15820.00
482.3390, 15889.00
483.5240, 16046.00
484.7100, 16033.00
485.8950, 15990.00
487.0800, 16023.00
488.2650, 16089.00
489.4490, 16011.00
490.6340, 16058.00
491.8180, 16292.00
493.0030, 16165.00
494.1870, 16194.00
495.3700, 16413.00
496.5540, 16103.00
497.7380, 16460.00
498.9210, 16411.00
500.1040, 16306.00
501.2870, 16306.00
502.4700, 16461.00
503.6530, 16407.00
504.8350, 16308.00
506.0180, 16492.00
507.2000, 16554.00
508.3820, 16425.00
509.5640, 16403.00
510.7450, 16478.00
511.9270, 16579.00
513.1080, 16598.00
514.2890, 16626.00
515.4700, 16715.00
516.6510, 16684.00
517.8320, 16846.00
519.0130, 16773.00
520.1930, 16836.00
521.3730, 16629.00
522.5530, 16743.00
523.7330, 16924.00
524.9130, 16755.00
526.0920, 16902.00
527.2710, 16807.00
528.4510, 16749.00
529.6300, 16824.00
530.8080, 16984.00
531.9870, 16768.00
533.1660, 16952.00
534.3440, 16886.00
535.5220, 16694.00
536.7000, 17001.00
537.8780, 16931.00
539.0560, 16893.00
540.2330, 16887.00
541.4110, 17029.00
542.5880, 17118.00
543.7650, 17056.00
544.9420, 16967.00
546.1180, 17090.00
547.2950, 17053.00
548.4710, 16974.00
549.6470, 17117.00
550.8230, 17087.00
551.9990, 17134.00
553.1750, 17172.00
554.3500, 17283.00
555.5260, 17194.00
556.7010, 17048.00
557.8760, 17310.00
559.0510, 17324.00
560.2250, 17246.00
561.4000, 17333.00
562.5740, 17463.00
563.7480, 17459.00
564.9220, 17526.00
566.0960, 17602.00
567.2700, 17382.00
568.4430, 17495.00
569.6170, 17415.00
570.7900, 17292.00
571.9630, 17586.00
573.1360, 17505.00
574.3080, 17527.00
575.4810, 17525.00
576.6530, 17730.00
577.8250, 17622.00
578.9980, 17864.00
580.1690, 17501.00
581.3410, 17590.00
582.5130, 17674.00
583.6840, 17774.00
584.8550, 17709.00
586.0260, 17886.00
587.1970, 17742.00
588.3680, 17864.00
589.5380, 17770.00
590.7080, 17695.00
591.8790, 17722.00
593.0490, 17878.00
594.2190, 17976.00
595.3880, 17993.00
596.5580, 17825.00
597.7270, 17964.00
598.8960, 17956.00
600.0650, 18024.00
601.2340, 17975.00
602.4030, 18088.00
603.5710, 18060.00
604.7400, 17907.00
605.9080, 18069.00
607.0760, 18087.00
608.2440, 18390.00
609.4120, 18180.00
610.5790, 18221.00
611.7460, 18238.00
612.9140, 18045.00
614.0810, 18417.00
615.2480, 18214.00
616.4140, 18229.00
617.5810, 18463.00
618.7470, 18369.00
619.9130, 18338.00
621.0790, 18455.00
622.2450, 18424.00
623.4110, 18401.00
624.5770, 18534.00
625.7420, 18620.00
626.9070, 18505.00
628.0720, 18605.00
629.2370, 18558.00
630.4020, 18409.00
631.5660, 18798.00
632.7310, 18641.00
633.8950, 18628.00
635.0590, 18799.00
636.2230, 18769.00
637.3870, 18790.00
638.5500, 18869.00
639.7140, 18787.00
640.8770, 18820.00
642.0400, 18744.00
643.2030, 18721.00
644.3660, 18813.00
645.5280, 18843.00
646.6910, 19023.00
647.8530, 18859.00
649.0150, 19103.00
650.1770, 18910.00
651.3390, 18966.00
652.5000, 18793.00
653.6620, 19145.00
654.8230, 18921.00
655.9840, 19051.00
657.1450, 19181.00
658.3060, 18999.00
659.4660, 19184.00
660.6270, 19188.00
661.7870, 19110.00
662.9470, 18909.00
664.1070, 19199.00
665.2670, 19021.00
666.4260, 19520.00
667.5860, 19306.00
668.7450, 19121.00
669.9040, 19414.00
671.0630, 19146.00
672.2220, 19345.00
673.3800, 19520.00
674.5390, 19328.00
675.6970, 19340.00
676.8550, 19231.00
678.0130, 19453.00
679.1710, 19455.00
680.3290, 19460.00
681.4860, 19341.00
682.6430, 19587.00
683.8000, 19391.00
684.9570, 19727.00
686.1140, 19706.00
687.2710, 19520.00
688.4270, 19767.00
689.5840, 19713.00
690.7400, 19807.00
691.8960, 19957.00
693.0520, 19942.00
694.2070, 20081.00
695.3630, 20217.00
696.5180, 20101.00
697.6730, 19829.00
698.8280, 19957.00
699.9830, 19943.00
701.1380, 20139.00
702.2920, 20027.00
703.4470, 20149.00
704.6010, 20160.00
705.7550, 20388.00
706.9090, 20422.00
708.0620, 20832.00
709.2160, 21057.00
710.3690, 20978.00
711.5220, 20904.00
712.6750, 20680.00
713.8280, 20555.00
714.9810, 20704.00
716.1340, 20379.00
717.2860, 20483.00
718.4380, 20423.00
719.5900, 20161.00
720.7420, 20269.00
721.8940, 20518.00
723.0450, 20348.00
724.1970, 20104.00
725.3480, 20387.00
726.4990, 20189.00
727.6500, 20294.00
728.8010, 20414.00
729.9510, 20534.00
731.1020, 20409.00
732.2520, 20455.00
733.4020, 20465.00
734.5520, 20626.00
735.7020, 20451.00
736.8510, 20510.00
738.0010, 20689.00
739.1500, 20323.00
740.2990, 20761.00
741.4480, 20679.00
742.5970, 20666.00
743.7450, 20710.00
744.8940, 20772.00
746.0420, 20909.00
747.1900, 20725.00
748.3380, 20709.00
749.4860, 20833.00
750.6330, 20794.00
751.7810, 20659.00
752.9280, 20903.00
754.0750, 20779.00
755.2220, 21013.00
756.3690, 20876.00
757.5160, 20781.00
758.6620, 21006.00
759.8090, 20862.00
760.9550, 21213.00
762.1010, 20958.00
763.2470, 20957.00
764.3920, 21043.00
765.5380, 21152.00
766.6830, 21134.00
767.8280, 21046.00
768.9730, 21170.00
770.1180, 21317.00
771.2630, 21137.00
772.4070, 21317.00
773.5520, 21377.00
774.6960, 21258.00
775.8400, 21256.00
776.9840, 21139.00
778.1280, 21339.00
779.2710, 21375.00
780.4140, 21365.00
781.5580, 21274.00
782.7010, 21493.00
783.8440, 21421.00
784.9860, 21366.00
786.1290, 21374.00
787.2710, 21505.00
788.4140, 21510.00
789.5560, 21752.00
790.6980, 21410.00
791.8390, 21383.00
792.9810, 21761.00
794.1220, 21529.00
795.2640, 21753.00
796.4050, 21658.00
797.5460, 21620.00
798.6860, 21592.00
799.8270, 21594.00
800.9680, 21695.00
802.1080, 21721.00
803.2480, 21790.00
804.3880, 21984.00
805.5280, 21599.00
806.6670, 21983.00
807.8070, 21966.00
808.9460, 21901.00
810.0850, 22048.00
811.2240, 21906.00
812.3630, 21850.00
813.5020, 22117.00
814.6400, 21972.00
815.7790, 22228.00
816.9170, 22175.00
818.0550, 22080.00
819.1930, 22106.00
820.3300, 22289.00
821.4680, 22256.00
822.6050, 22453.00
823.7430, 22479.00
824.8800, 22209.00
826.0170, 22521.00
827.1530, 22374.00
828.2900, 22271.00
829.4260, 22450.00
830.5620, 22309.00
831.6990, 22506.00
832.8340, 22469.00
833.9700, 22337.00
835.1060, 22277.00
836.2410, 22510.00
837.3760, 22519.00
838.5120, 22668.00
839.6470, 22568.00
840.7810, 22642.00
841.9160, 22631.00
843.0500, 22685.00
844.1850, 22708.00
845.3190, 22581.00
846.4530, 22699.00
847.5870, 22695.00
848.7200, 22671.00
849.8540, 22753.00
850.9870, 22875.00
852.1200, 22782.00
853.2530, 22867.00
854.3860, 22712.00
855.5190, 22835.00
856.6510, 22964.00
857.7840, 23116.00
858.9160, 23008.00
860.0480, 22968.00
861.1800, 23032.00
862.3110, 23010.00
863.4430, 23098.00
864.5740, 23081.00
865.7060, 23099.00
866.8370, 23176.00
867.9680, 23199.00
869.0980, 23335.00
870.2290, 23093.00
871.3590, 23330.00
872.4900, 23250.00
873.6200, 23417.00
874.7500, 23488.00
875.8790, 23470.00
877.0090, 23419.00
878.1380, 23430.00
879.2680, 23362.00
880.3970, 23451.00
881.5260, 23566.00
882.6550, 23380.00
883.7830, 23495.00
884.9120, 23661.00
886.0400, 23682.00
887.1680, 23696.00
888.2960, 23596.00
889.4240, 23566.00
890.5520, 23594.00
891.6790, 23581.00
892.8070, 23817.00
893.9340, 23785.00
895.0610, 23711.00
896.1880, 23738.00
897.3140, 23637.00
898.4410, 23856.00
899.5670, 23779.00
900.6940, 23885.00
901.8200, 23971.00
902.9450, 23901.00
904.0710, 23803.00
905.1970, 24161.00
906.3220, 23921.00
907.4470, 24093.00
908.5730, 24031.00
909.6980, 23959.00
910.8220, 23853.00
911.9470, 24083.00
913.0710, 24257.00
914.1960, 24221.00
915.3200, 24104.00
916.4440, 24174.00
917.5680, 24448.00
918.6910, 24295.00
919.8150, 24519.00
920.9380, 24376.00
922.0610, 24371.00
923.1840, 24311.00
924.3070, 24547.00
925.4300, 24542.00
926.5520, 24451.00
927.6750, 24528.00
928.7970, 24659.00
929.9190, 24646.00
931.0410, 24540.00
932.1630, 24503.00
933.2840, 24630.00
934.4060, 24697.00
935.5270, 24870.00
936.6480, 24781.00
937.7690, 24884.00
938.8900, 24702.00
940.0100, 24671.00
941.1310, 24770.00
942.2510, 24852.00
943.3710, 24852.00
944.4910, 24813.00
945.6110, 24851.00
946.7310, 25041.00
947.8500, 24749.00
948.9690, 24985.00
950.0890, 25057.00
951.2080, 25011.00
952.3260, 25267.00
953.4450, 25080.00
954.5640, 25056.00
955.6820, 25029.00
956.8000, 25049.00
957.9180, 25308.00
959.0360, 25243.00
960.1540, 25265.00
961.2710, 25470.00
962.3890, 25399.00
963.5060, 25285.00
964.6230, 25156.00
965.7400, 25462.00
966.8570, 25377.00
967.9730, 25700.00
969.0900, 25655.00
970.2060, 25678.00
971.3220, 25560.00
972.4380, 25540.00
973.5540, 25533.00
974.6700, 25613.00
975.7850, 25660.00
976.9010, 25856.00
978.0160, 25654.00
979.1310, 25598.00
980.2460, 25793.00
981.3600, 25659.00
982.4750, 25776.00
983.5890, 25807.00
984.7030, 25872.00
985.8170, 25868.00
986.9310, 26102.00
988.0450, 25872.00
989.1590, 26133.00
990.2720, 26020.00
991.3850, 25920.00
992.4980, 26020.00
993.6110, 25840.00
994.7240, 25893.00
995.8370, 25987.00
996.9490, 26076.00
998.0620, 26220.00
999.1740, 26303.00
1000.286, 25971.00
1001.398, 26354.00
1002.509, 26188.00
1003.621, 26188.00
1004.732, 26079.00
1005.843, 26412.00
1006.954, 26374.00
1008.065, 26352.00
1009.176, 26506.00
1010.286, 26368.00
1011.397, 26624.00
1012.507, 26522.00
1013.617, 26570.00
1014.727, 26716.00
1015.837, 26622.00
1016.946, 26579.00
1018.056, 26694.00
1019.165, 26631.00
1020.274, 26814.00
1021.383, 26826.00
1022.492, 26798.00
1023.601, 26781.00
1024.709, 26732.00
1025.817, 26733.00
1026.926, 26973.00
1028.034, 26806.00
1029.141, 26930.00
1030.249, 26887.00
1031.357, 26992.00
1032.464, 27129.00
1033.571, 26822.00
1034.678, 27079.00
1035.785, 27044.00
1036.892, 26804.00
1037.999, 27279.00
1039.105, 27255.00
1040.211, 27200.00
1041.317, 27325.00
1042.423, 27289.00
1043.529, 27211.00
1044.635, 27396.00
1045.740, 27306.00
1046.845, 27182.00
1047.951, 27378.00
1049.056, 27536.00
1050.160, 27622.00
1051.265, 27633.00
1052.370, 27751.00
1053.474, 27737.00
1054.578, 27663.00
1055.682, 27586.00
1056.786, 27814.00
1057.890, 27637.00
1058.993, 27823.00
1060.097, 28072.00
1061.200, 28274.00
1062.303, 28102.00
1063.406, 27925.00
1064.509, 28130.00
1065.612, 28206.00
1066.714, 28553.00
1067.816, 28988.00
1068.919, 29259.00
1070.021, 29799.00
1071.122, 29452.00
1072.224, 29453.00
1073.326, 29008.00
1074.427, 29049.00
1075.528, 28831.00
1076.629, 28709.00
1077.730, 28687.00
1078.831, 28940.00
1079.931, 29099.00
1081.032, 29458.00
1082.132, 30096.00
1083.232, 31123.00
1084.332, 34271.00
1085.432, 40476.00
1086.531, 46404.00
1087.631, 54055.00
1088.730, 63041.00
1089.829, 61872.00
1090.928, 53370.00
1092.027, 44831.00
1093.126, 37986.00
1094.224, 33652.00
1095.323, 31105.00
1096.421, 29887.00
1097.519, 29684.00
1098.617, 29193.00
1099.715, 29158.00
1100.812, 29109.00
1101.910, 29056.00
1103.007, 28918.00
1104.104, 28984.00
1105.201, 29044.00
1106.298, 28872.00
1107.394, 29143.00
1108.491, 29259.00
1109.587, 29168.00
1110.683, 29255.00
1111.779, 29100.00
1112.875, 29301.00
1113.971, 29117.00
1115.066, 29213.00
1116.162, 29200.00
1117.257, 29362.00
1118.352, 29343.00
1119.447, 29505.00
1120.542, 29533.00
1121.636, 29615.00
1122.731, 29791.00
1123.825, 29663.00
1124.919, 29358.00
1126.013, 29567.00
1127.107, 29476.00
1128.200, 29563.00
1129.294, 29961.00
1130.387, 29463.00
1131.480, 29865.00
1132.573, 29626.00
1133.666, 29787.00
1134.759, 29821.00
1135.851, 29637.00
1136.944, 29956.00
1138.036, 29681.00
1139.128, 29804.00
1140.220, 29892.00
1141.312, 30107.00
1142.403, 29855.00
1143.495, 30210.00
1144.586, 30045.00
1145.677, 29880.00
1146.768, 29995.00
1147.859, 30138.00
1148.950, 30107.00
1150.040, 30436.00
1151.130, 30149.00
1152.221, 30369.00
1153.311, 30271.00
1154.401, 30371.00
1155.490, 30239.00
1156.580, 30413.00
1157.669, 30326.00
1158.759, 30548.00
1159.848, 30470.00
1160.937, 30441.00
1162.025, 30624.00
1163.114, 30915.00
1164.202, 30385.00
1165.291, 30573.00
1166.379, 30705.00
1167.467, 30672.00
1168.555, 30635.00
1169.642, 30877.00
1170.730, 30647.00
1171.817, 30986.00
1172.905, 30777.00
1173.992, 30897.00
1175.078, 31078.00
1176.165, 30935.00
1177.252, 31105.00
1178.338, 30986.00
1179.425, 30787.00
1180.511, 31033.00
1181.597, 31337.00
1182.682, 31277.00
1183.768, 31229.00
1184.854, 31401.00
1185.939, 31263.00
1187.024, 31199.00
1188.109, 31252.00
1189.194, 31397.00
1190.279, 31419.00
1191.363, 31198.00
1192.448, 31393.00
1193.532, 31617.00
1194.616, 31312.00
1195.700, 31570.00
1196.784, 31728.00
1197.867, 31481.00
1198.951, 31652.00
1200.034, 31519.00
1201.117, 31583.00
1202.200, 31553.00
1203.283, 31909.00
1204.366, 31823.00
1205.448, 32078.00
1206.531, 31715.00
1207.613, 31910.00
1208.695, 31973.00
1209.777, 31933.00
1210.859, 32027.00
1211.940, 31869.00
1213.022, 31964.00
1214.103, 31941.00
1215.184, 32346.00
1216.265, 32058.00
1217.346, 32192.00
1218.427, 32113.00
1219.507, 32240.00
1220.587, 32173.00
1221.668, 32100.00
1222.748, 32212.00
1223.828, 32289.00
1224.907, 32440.00
1225.987, 32261.00
1227.066, 32345.00
1228.146, 32458.00
1229.225, 32644.00
1230.304, 32486.00
1231.382, 32744.00
1232.461, 32662.00
1233.540, 32807.00
1234.618, 32648.00
1235.696, 32655.00
1236.774, 32947.00
1237.852, 32931.00
1238.930, 32738.00
1240.007, 32798.00
1241.085, 32944.00
1242.162, 32874.00
1243.239, 33031.00
1244.316, 32759.00
1245.393, 32732.00
1246.469, 32756.00
1247.546, 33122.00
1248.622, 33116.00
1249.698, 33453.00
1250.774, 33221.00
1251.850, 33187.00
1252.926, 33230.00
1254.001, 33273.00
1255.077, 33354.00
1256.152, 33534.00
1257.227, 33393.00
1258.302, 33355.00
1259.377, 33575.00
1260.451, 33634.00
1261.526, 33680.00
1262.600, 33453.00
1263.674, 33392.00
1264.748, 33458.00
1265.822, 33623.00
1266.896, 33662.00
1267.969, 33511.00
1269.043, 33706.00
1270.116, 33714.00
1271.189, 33981.00
1272.262, 33927.00
1273.335, 34017.00
1274.407, 33758.00
1275.480, 33835.00
1276.552, 33877.00
1277.624, 34042.00
1278.696, 33762.00
1279.768, 33893.00
