##NAMES=Shortite
##RRUFFID=R050248
##IDEAL CHEMISTRY=Na_2_Ca_2_(CO_3_)_3_
##LOCALITY=Stauffer mine, Green River, Wyoming, USA
##OWNER=RRUFF
##SOURCE=Marcus Origlieri
##DESCRIPTION=Colorless wedge-shaped single crystal
##STATUS=The identification of this mineral has been confirmed by X-ray diffraction and chemical analysis
##URL=rruff.info/R050248
##MEASURED CHEMISTRY=Na_2.00_Ca_2.00_(CO_3_)_3_ ; CO2 not measured but estimated by difference and stoichiometry.
##PIN_ID=L01144
##ORIENTATION=Laser parallel to a* (1 0 0). Fiducial mark perpendicular to laser is parallel to -b [0 -1 0]
102.9200, 8809.000
104.1590, 9165.000
105.3980, 9221.000
106.6360, 9077.000
107.8750, 9400.000
109.1130, 9403.000
110.3510, 9428.000
111.5890, 9544.000
112.8270, 9658.000
114.0650, 9671.000
115.3020, 9675.000
116.5390, 9753.000
117.7770, 9813.000
119.0130, 9796.000
120.2500, 9841.000
121.4870, 10003.00
122.7230, 9996.000
123.9590, 10193.00
125.1950, 10195.00
126.4310, 10191.00
127.6670, 10482.00
128.9030, 10516.00
130.1380, 10621.00
131.3730, 10703.00
132.6080, 10856.00
133.8430, 10988.00
135.0780, 11156.00
136.3120, 11299.00
137.5470, 11358.00
138.7810, 11373.00
140.0150, 11335.00
141.2480, 11359.00
142.4820, 11293.00
143.7160, 11264.00
144.9490, 11412.00
146.1820, 11373.00
147.4150, 11342.00
148.6480, 11328.00
149.8800, 11587.00
151.1130, 11664.00
152.3450, 11738.00
153.5770, 11788.00
154.8090, 11755.00
156.0410, 11617.00
157.2720, 11569.00
158.5040, 11681.00
159.7350, 11694.00
160.9660, 11649.00
162.1970, 11748.00
163.4270, 11638.00
164.6580, 11654.00
165.8880, 11727.00
167.1180, 11830.00
168.3480, 12023.00
169.5780, 11927.00
170.8080, 11936.00
172.0370, 11744.00
173.2670, 11907.00
174.4960, 11697.00
175.7250, 11729.00
176.9540, 11674.00
178.1820, 11549.00
179.4110, 11751.00
180.6390, 11712.00
181.8670, 11682.00
183.0950, 11856.00
184.3230, 11770.00
185.5500, 11747.00
186.7780, 11707.00
188.0050, 11904.00
189.2320, 11933.00
190.4590, 12044.00
191.6850, 12157.00
192.9120, 12211.00
194.1380, 12490.00
195.3650, 12580.00
196.5910, 12712.00
197.8160, 12899.00
199.0420, 12883.00
200.2680, 12934.00
201.4930, 13169.00
202.7180, 13058.00
203.9430, 13077.00
205.1680, 12938.00
206.3930, 12826.00
207.6170, 12671.00
208.8410, 12586.00
210.0660, 12446.00
211.2890, 12245.00
212.5130, 12340.00
213.7370, 12354.00
214.9600, 12347.00
216.1840, 12227.00
217.4070, 12383.00
218.6300, 12264.00
219.8520, 12305.00
221.0750, 12405.00
222.2970, 12267.00
223.5200, 12423.00
224.7420, 12227.00
225.9640, 12372.00
227.1850, 12569.00
228.4070, 12525.00
229.6280, 12559.00
230.8490, 12561.00
232.0700, 12845.00
233.2910, 12662.00
234.5120, 12592.00
235.7320, 12699.00
236.9530, 12881.00
238.1730, 12838.00
239.3930, 12757.00
240.6130, 12883.00
241.8320, 12871.00
243.0520, 13104.00
244.2710, 12806.00
245.4900, 12950.00
246.7090, 12922.00
247.9280, 13157.00
249.1470, 13100.00
250.3650, 13214.00
251.5840, 13307.00
252.8020, 13519.00
254.0200, 13884.00
255.2370, 14135.00
256.4550, 14475.00
257.6720, 14566.00
258.8900, 14950.00
260.1070, 15392.00
261.3240, 15384.00
262.5400, 15640.00
263.7570, 15694.00
264.9730, 15475.00
266.1900, 15261.00
267.4060, 15215.00
268.6220, 14787.00
269.8370, 14511.00
271.0530, 14170.00
272.2680, 13939.00
273.4830, 13758.00
274.6980, 13678.00
275.9130, 13711.00
277.1280, 13574.00
278.3420, 13661.00
279.5570, 13492.00
280.7710, 13505.00
281.9850, 13481.00
283.1990, 13372.00
284.4120, 13556.00
285.6260, 13551.00
286.8390, 13554.00
288.0520, 13490.00
289.2650, 13384.00
290.4780, 13518.00
291.6910, 13586.00
292.9030, 13644.00
294.1160, 13626.00
295.3280, 13607.00
296.5400, 13510.00
297.7510, 13488.00
298.9630, 13657.00
300.1740, 13750.00
301.3860, 13705.00
302.5970, 13705.00
303.8080, 13711.00
305.0180, 13818.00
306.2290, 13865.00
307.4390, 13561.00
308.6500, 13682.00
309.8600, 13758.00
311.0700, 13817.00
312.2790, 13761.00
313.4890, 13909.00
314.6980, 13797.00
315.9080, 13864.00
317.1170, 13820.00
318.3250, 13868.00
319.5340, 13959.00
320.7430, 14084.00
321.9510, 13973.00
323.1590, 14065.00
324.3670, 14118.00
325.5750, 14163.00
326.7830, 14018.00
327.9900, 14134.00
329.1980, 14196.00
330.4050, 14240.00
331.6120, 14103.00
332.8190, 14135.00
334.0250, 14305.00
335.2320, 14296.00
336.4380, 14325.00
337.6440, 14378.00
338.8500, 14243.00
340.0560, 14310.00
341.2620, 14391.00
342.4670, 14461.00
343.6730, 14484.00
344.8780, 14327.00
346.0830, 14455.00
347.2870, 14412.00
348.4920, 14493.00
349.6970, 14529.00
350.9010, 14516.00
352.1050, 14633.00
353.3090, 14480.00
354.5130, 14693.00
355.7160, 14674.00
356.9200, 14646.00
358.1230, 14666.00
359.3260, 14573.00
360.5290, 14744.00
361.7320, 14937.00
362.9340, 14753.00
364.1370, 14672.00
365.3390, 14730.00
366.5410, 14883.00
367.7430, 14898.00
368.9450, 14876.00
370.1460, 14888.00
371.3480, 14737.00
372.5490, 15043.00
373.7500, 14948.00
374.9510, 15059.00
376.1520, 14900.00
377.3520, 15021.00
378.5520, 15081.00
379.7530, 15057.00
380.9530, 15116.00
382.1530, 15122.00
383.3520, 15186.00
384.5520, 15218.00
385.7510, 15125.00
386.9500, 15237.00
388.1490, 15353.00
389.3480, 15417.00
390.5470, 15430.00
391.7450, 15394.00
392.9440, 15213.00
394.1420, 15625.00
395.3400, 15408.00
396.5380, 15393.00
397.7350, 15363.00
398.9330, 15603.00
400.1300, 15532.00
401.3270, 15527.00
402.5240, 15513.00
403.7210, 15555.00
404.9180, 15539.00
406.1140, 15632.00
407.3110, 15589.00
408.5070, 15471.00
409.7030, 15415.00
410.8990, 15661.00
412.0940, 15692.00
413.2900, 15483.00
414.4850, 15547.00
415.6800, 15754.00
416.8750, 15857.00
418.0700, 15687.00
419.2650, 15674.00
420.4590, 15726.00
421.6530, 15732.00
422.8470, 15610.00
424.0410, 15759.00
425.2350, 15788.00
426.4290, 15950.00
427.6220, 15843.00
428.8160, 15858.00
430.0090, 16052.00
431.2020, 15846.00
432.3940, 15900.00
433.5870, 15873.00
434.7790, 15894.00
435.9720, 15965.00
437.1640, 16054.00
438.3560, 16200.00
439.5470, 16074.00
440.7390, 16184.00
441.9300, 16076.00
443.1220, 16110.00
444.3130, 16285.00
445.5040, 16203.00
446.6940, 16237.00
447.8850, 16147.00
449.0750, 16184.00
450.2660, 16450.00
451.4560, 16258.00
452.6460, 16498.00
453.8350, 16276.00
455.0250, 16493.00
456.2140, 16465.00
457.4040, 16586.00
458.5930, 16452.00
459.7820, 16503.00
460.9700, 16521.00
462.1590, 16509.00
463.3470, 16494.00
464.5350, 16372.00
465.7240, 16414.00
466.9110, 16295.00
468.0990, 16545.00
469.2870, 16638.00
470.4740, 16670.00
471.6610, 16632.00
472.8480, 16761.00
474.0350, 16740.00
475.2220, 16654.00
476.4090, 16799.00
477.5950, 16764.00
478.7810, 16931.00
479.9670, 16865.00
481.1530, 16860.00
482.3390, 16821.00
483.5240, 16894.00
484.7100, 16791.00
485.8950, 17028.00
487.0800, 16928.00
488.2650, 17131.00
489.4490, 16943.00
490.6340, 16993.00
491.8180, 17054.00
493.0030, 17207.00
494.1870, 17193.00
495.3700, 17292.00
496.5540, 17077.00
497.7380, 17179.00
498.9210, 17065.00
500.1040, 17279.00
501.2870, 17375.00
502.4700, 17148.00
503.6530, 17242.00
504.8350, 17287.00
506.0180, 17468.00
507.2000, 17425.00
508.3820, 17506.00
509.5640, 17590.00
510.7450, 17568.00
511.9270, 17501.00
513.1080, 17509.00
514.2890, 17674.00
515.4700, 17641.00
516.6510, 17665.00
517.8320, 17726.00
519.0130, 17823.00
520.1930, 17629.00
521.3730, 17832.00
522.5530, 17760.00
523.7330, 17838.00
524.9130, 17817.00
526.0920, 17791.00
527.2710, 17936.00
528.4510, 17872.00
529.6300, 17858.00
530.8080, 17894.00
531.9870, 17928.00
533.1660, 17994.00
534.3440, 17771.00
535.5220, 17792.00
536.7000, 17953.00
537.8780, 17955.00
539.0560, 18063.00
540.2330, 18174.00
541.4110, 17944.00
542.5880, 18012.00
543.7650, 18196.00
544.9420, 18144.00
546.1180, 18207.00
547.2950, 18010.00
548.4710, 18131.00
549.6470, 18257.00
550.8230, 18054.00
551.9990, 18321.00
553.1750, 18330.00
554.3500, 18221.00
555.5260, 18246.00
556.7010, 18506.00
557.8760, 18398.00
559.0510, 18495.00
560.2250, 18447.00
561.4000, 18407.00
562.5740, 18463.00
563.7480, 18397.00
564.9220, 18475.00
566.0960, 18478.00
567.2700, 18540.00
568.4430, 18561.00
569.6170, 18676.00
570.7900, 18419.00
571.9630, 18528.00
573.1360, 18563.00
574.3080, 18493.00
575.4810, 18646.00
576.6530, 18733.00
577.8250, 18651.00
578.9980, 18739.00
580.1690, 18703.00
581.3410, 18984.00
582.5130, 18718.00
583.6840, 18786.00
584.8550, 18774.00
586.0260, 18827.00
587.1970, 18861.00
588.3680, 18888.00
589.5380, 19103.00
590.7080, 19020.00
591.8790, 18968.00
593.0490, 18947.00
594.2190, 19133.00
595.3880, 19179.00
596.5580, 19154.00
597.7270, 19046.00
598.8960, 19160.00
600.0650, 19080.00
601.2340, 19323.00
602.4030, 19330.00
603.5710, 19207.00
604.7400, 19210.00
605.9080, 19206.00
607.0760, 19350.00
608.2440, 19279.00
609.4120, 19281.00
610.5790, 19434.00
611.7460, 19420.00
612.9140, 19310.00
614.0810, 19335.00
615.2480, 19528.00
616.4140, 19358.00
617.5810, 19525.00
618.7470, 19481.00
619.9130, 19703.00
621.0790, 19465.00
622.2450, 19797.00
623.4110, 19636.00
624.5770, 19689.00
625.7420, 19844.00
626.9070, 19630.00
628.0720, 19712.00
629.2370, 19878.00
630.4020, 19955.00
631.5660, 19704.00
632.7310, 20000.00
633.8950, 19958.00
635.0590, 20070.00
636.2230, 19987.00
637.3870, 20050.00
638.5500, 19991.00
639.7140, 19882.00
640.8770, 20114.00
642.0400, 20203.00
643.2030, 20120.00
644.3660, 20346.00
645.5280, 20190.00
646.6910, 20105.00
647.8530, 20304.00
649.0150, 20153.00
650.1770, 20248.00
651.3390, 20374.00
652.5000, 20233.00
653.6620, 20282.00
654.8230, 20455.00
655.9840, 20151.00
657.1450, 20464.00
658.3060, 20546.00
659.4660, 20507.00
660.6270, 20566.00
661.7870, 20634.00
662.9470, 20508.00
664.1070, 20492.00
665.2670, 20726.00
666.4260, 20523.00
667.5860, 20643.00
668.7450, 20523.00
669.9040, 20651.00
671.0630, 20647.00
672.2220, 20748.00
673.3800, 20624.00
674.5390, 20745.00
675.6970, 20925.00
676.8550, 20746.00
678.0130, 20678.00
679.1710, 20736.00
680.3290, 20827.00
681.4860, 21019.00
682.6430, 20875.00
683.8000, 20785.00
684.9570, 21252.00
686.1140, 21043.00
687.2710, 21171.00
688.4270, 21149.00
689.5840, 21270.00
690.7400, 21365.00
691.8960, 21580.00
693.0520, 21667.00
694.2070, 21684.00
695.3630, 21659.00
696.5180, 21623.00
697.6730, 21446.00
698.8280, 21495.00
699.9830, 21364.00
701.1380, 21427.00
702.2920, 21623.00
703.4470, 21628.00
704.6010, 21587.00
705.7550, 21883.00
706.9090, 21659.00
708.0620, 22059.00
709.2160, 22397.00
710.3690, 22337.00
711.5220, 22132.00
712.6750, 22179.00
713.8280, 22433.00
714.9810, 22148.00
716.1340, 22150.00
717.2860, 21982.00
718.4380, 22009.00
719.5900, 21845.00
720.7420, 21847.00
721.8940, 21933.00
723.0450, 21919.00
724.1970, 21945.00
725.3480, 21762.00
726.4990, 21773.00
727.6500, 21986.00
728.8010, 21943.00
729.9510, 22039.00
731.1020, 22027.00
732.2520, 21995.00
733.4020, 22073.00
734.5520, 22039.00
735.7020, 22009.00
736.8510, 21903.00
738.0010, 22078.00
739.1500, 22036.00
740.2990, 22176.00
741.4480, 22198.00
742.5970, 22309.00
743.7450, 22214.00
744.8940, 22356.00
746.0420, 22219.00
747.1900, 22340.00
748.3380, 22212.00
749.4860, 22380.00
750.6330, 22122.00
751.7810, 22555.00
752.9280, 22392.00
754.0750, 22266.00
755.2220, 22498.00
756.3690, 22481.00
757.5160, 22431.00
758.6620, 22429.00
759.8090, 22553.00
760.9550, 22534.00
762.1010, 22586.00
763.2470, 22582.00
764.3920, 22539.00
765.5380, 22664.00
766.6830, 22800.00
767.8280, 22832.00
768.9730, 22748.00
770.1180, 22630.00
771.2630, 22862.00
772.4070, 22768.00
773.5520, 22708.00
774.6960, 22880.00
775.8400, 22709.00
776.9840, 22858.00
778.1280, 23008.00
779.2710, 22906.00
780.4140, 22923.00
781.5580, 23130.00
782.7010, 23070.00
783.8440, 23098.00
784.9860, 23254.00
786.1290, 23166.00
787.2710, 23181.00
788.4140, 23222.00
789.5560, 23345.00
790.6980, 23275.00
791.8390, 23223.00
792.9810, 23391.00
794.1220, 23331.00
795.2640, 23413.00
796.4050, 23317.00
797.5460, 23247.00
798.6860, 23303.00
799.8270, 23688.00
800.9680, 23424.00
802.1080, 23580.00
803.2480, 23470.00
804.3880, 23670.00
805.5280, 23550.00
806.6670, 23732.00
807.8070, 23696.00
808.9460, 23575.00
810.0850, 23797.00
811.2240, 24023.00
812.3630, 23666.00
813.5020, 23709.00
814.6400, 23956.00
815.7790, 24022.00
816.9170, 23792.00
818.0550, 23904.00
819.1930, 23944.00
820.3300, 24108.00
821.4680, 24013.00
822.6050, 24141.00
823.7430, 23967.00
824.8800, 23903.00
826.0170, 23990.00
827.1530, 24153.00
828.2900, 24075.00
829.4260, 24372.00
830.5620, 24195.00
831.6990, 24168.00
832.8340, 24161.00
833.9700, 24270.00
835.1060, 24210.00
836.2410, 24369.00
837.3760, 24378.00
838.5120, 24608.00
839.6470, 24356.00
840.7810, 24500.00
841.9160, 24427.00
843.0500, 24361.00
844.1850, 24407.00
845.3190, 24478.00
846.4530, 24714.00
847.5870, 24546.00
848.7200, 24614.00
849.8540, 24705.00
850.9870, 24759.00
852.1200, 24676.00
853.2530, 24763.00
854.3860, 24990.00
855.5190, 24889.00
856.6510, 24919.00
857.7840, 24866.00
858.9160, 25163.00
860.0480, 25042.00
861.1800, 25040.00
862.3110, 25013.00
863.4430, 24944.00
864.5740, 24906.00
865.7060, 25108.00
866.8370, 25091.00
867.9680, 25158.00
869.0980, 25412.00
870.2290, 25254.00
871.3590, 25169.00
872.4900, 25109.00
873.6200, 24988.00
874.7500, 25320.00
875.8790, 25374.00
877.0090, 25432.00
878.1380, 25387.00
879.2680, 25164.00
880.3970, 25357.00
881.5260, 25300.00
882.6550, 25188.00
883.7830, 25480.00
884.9120, 25590.00
886.0400, 25534.00
887.1680, 25672.00
888.2960, 25599.00
889.4240, 25663.00
890.5520, 25721.00
891.6790, 25789.00
892.8070, 25529.00
893.9340, 25749.00
895.0610, 25808.00
896.1880, 25810.00
897.3140, 25772.00
898.4410, 25958.00
899.5670, 25858.00
900.6940, 25890.00
901.8200, 25681.00
902.9450, 25931.00
904.0710, 25921.00
905.1970, 25978.00
906.3220, 26112.00
907.4470, 26384.00
908.5730, 26371.00
909.6980, 26302.00
910.8220, 26146.00
911.9470, 26165.00
913.0710, 26191.00
914.1960, 26214.00
915.3200, 26295.00
916.4440, 26358.00
917.5680, 26455.00
918.6910, 26435.00
919.8150, 26327.00
920.9380, 26519.00
922.0610, 26478.00
923.1840, 26355.00
924.3070, 26764.00
925.4300, 26536.00
926.5520, 26502.00
927.6750, 26543.00
928.7970, 26719.00
929.9190, 26766.00
931.0410, 26689.00
932.1630, 26753.00
933.2840, 26743.00
934.4060, 26703.00
935.5270, 26778.00
936.6480, 26814.00
937.7690, 26728.00
938.8900, 26895.00
940.0100, 27085.00
941.1310, 26823.00
942.2510, 26985.00
943.3710, 27235.00
944.4910, 27107.00
945.6110, 26946.00
946.7310, 27224.00
947.8500, 27165.00
948.9690, 27270.00
950.0890, 27303.00
951.2080, 27227.00
952.3260, 27072.00
953.4450, 27282.00
954.5640, 27465.00
955.6820, 27381.00
956.8000, 27442.00
957.9180, 27439.00
959.0360, 27287.00
960.1540, 27486.00
961.2710, 27572.00
962.3890, 27735.00
963.5060, 27599.00
964.6230, 27597.00
965.7400, 27686.00
966.8570, 27849.00
967.9730, 27867.00
969.0900, 27833.00
970.2060, 27875.00
971.3220, 27765.00
972.4380, 27941.00
973.5540, 27870.00
974.6700, 27913.00
975.7850, 27975.00
976.9010, 28099.00
978.0160, 28025.00
979.1310, 28206.00
980.2460, 28084.00
981.3600, 28135.00
982.4750, 28397.00
983.5890, 28247.00
984.7030, 27937.00
985.8170, 28207.00
986.9310, 28271.00
988.0450, 28333.00
989.1590, 28394.00
990.2720, 28484.00
991.3850, 28245.00
992.4980, 28417.00
993.6110, 28498.00
994.7240, 28465.00
995.8370, 28732.00
996.9490, 28590.00
998.0620, 28563.00
999.1740, 28693.00
1000.286, 28616.00
1001.398, 28513.00
1002.509, 28717.00
1003.621, 28525.00
1004.732, 28580.00
1005.843, 28874.00
1006.954, 28957.00
1008.065, 28935.00
1009.176, 28926.00
1010.286, 28965.00
1011.397, 28790.00
1012.507, 28794.00
1013.617, 29138.00
1014.727, 29000.00
1015.837, 29096.00
1016.946, 29278.00
1018.056, 28932.00
1019.165, 29258.00
1020.274, 29234.00
1021.383, 29327.00
1022.492, 29249.00
1023.601, 29382.00
1024.709, 29269.00
1025.817, 29339.00
1026.926, 29493.00
1028.034, 29461.00
1029.141, 29397.00
1030.249, 29611.00
1031.357, 29679.00
1032.464, 29664.00
1033.571, 29639.00
1034.678, 29779.00
1035.785, 29685.00
1036.892, 29684.00
1037.999, 29796.00
1039.105, 29801.00
1040.211, 29613.00
1041.317, 29927.00
1042.423, 29749.00
1043.529, 29948.00
1044.635, 29813.00
1045.740, 30051.00
1046.845, 30233.00
1047.951, 30138.00
1049.056, 30232.00
1050.160, 30286.00
1051.265, 30276.00
1052.370, 30339.00
1053.474, 30252.00
1054.578, 30364.00
1055.682, 30454.00
1056.786, 30399.00
1057.890, 30581.00
1058.993, 30419.00
1060.097, 30675.00
1061.200, 31155.00
1062.303, 31040.00
1063.406, 31568.00
1064.509, 32239.00
1065.612, 33342.00
1066.714, 35344.00
1067.816, 37390.00
1068.919, 39393.00
1070.021, 41664.00
1071.122, 41080.00
1072.224, 38776.00
1073.326, 36218.00
1074.427, 34659.00
1075.528, 33066.00
1076.629, 32225.00
1077.730, 31903.00
1078.831, 31959.00
1079.931, 31829.00
1081.032, 32023.00
1082.132, 32593.00
1083.232, 33690.00
1084.332, 36120.00
1085.432, 41366.00
1086.531, 45884.00
1087.631, 51448.00
1088.730, 58719.00
1089.829, 57093.00
1090.928, 50111.00
1092.027, 44799.00
1093.126, 39711.00
1094.224, 35876.00
1095.323, 33584.00
1096.421, 32775.00
1097.519, 32295.00
1098.617, 32134.00
1099.715, 32101.00
1100.812, 31895.00
1101.910, 31965.00
1103.007, 31929.00
1104.104, 32065.00
1105.201, 31667.00
1106.298, 31975.00
1107.394, 32140.00
1108.491, 32112.00
1109.587, 31802.00
1110.683, 31719.00
1111.779, 32017.00
1112.875, 32157.00
1113.971, 32115.00
1115.066, 32298.00
1116.162, 32255.00
1117.257, 32289.00
1118.352, 32255.00
1119.447, 32687.00
1120.542, 32390.00
1121.636, 32527.00
1122.731, 32501.00
1123.825, 32475.00
1124.919, 32451.00
1126.013, 32602.00
1127.107, 32647.00
1128.200, 32682.00
1129.294, 32664.00
1130.387, 32711.00
1131.480, 32336.00
1132.573, 32729.00
1133.666, 32546.00
1134.759, 32783.00
1135.851, 32828.00
1136.944, 32797.00
1138.036, 33114.00
1139.128, 32914.00
1140.220, 32997.00
1141.312, 33075.00
1142.403, 33123.00
1143.495, 33002.00
1144.586, 32899.00
1145.677, 33320.00
1146.768, 33155.00
1147.859, 33274.00
1148.950, 33228.00
1150.040, 33263.00
1151.130, 33346.00
1152.221, 33193.00
1153.311, 33477.00
1154.401, 33439.00
1155.490, 33406.00
1156.580, 33549.00
1157.669, 33383.00
1158.759, 33587.00
1159.848, 33635.00
1160.937, 33767.00
1162.025, 33765.00
1163.114, 33753.00
1164.202, 33709.00
1165.291, 33479.00
1166.379, 33852.00
1167.467, 33913.00
1168.555, 33851.00
1169.642, 33962.00
1170.730, 33798.00
1171.817, 34037.00
1172.905, 34105.00
1173.992, 34366.00
1175.078, 34301.00
1176.165, 34221.00
1177.252, 34145.00
1178.338, 34178.00
1179.425, 34334.00
1180.511, 34461.00
1181.597, 34391.00
1182.682, 34294.00
1183.768, 34619.00
1184.854, 34341.00
1185.939, 34188.00
1187.024, 34650.00
1188.109, 34625.00
1189.194, 34839.00
1190.279, 34535.00
1191.363, 34549.00
1192.448, 34567.00
1193.532, 34782.00
1194.616, 35001.00
1195.700, 34825.00
1196.784, 34803.00
1197.867, 34965.00
1198.951, 34996.00
1200.034, 34843.00
1201.117, 35049.00
1202.200, 34991.00
1203.283, 35093.00
1204.366, 34939.00
1205.448, 35154.00
1206.531, 35094.00
1207.613, 34920.00
1208.695, 35262.00
1209.777, 35389.00
1210.859, 35421.00
1211.940, 35407.00
1213.022, 35433.00
1214.103, 35457.00
1215.184, 35772.00
1216.265, 35565.00
1217.346, 35482.00
1218.427, 35758.00
1219.507, 35774.00
1220.587, 35640.00
1221.668, 35525.00
1222.748, 35792.00
1223.828, 36106.00
1224.907, 35772.00
1225.987, 35796.00
1227.066, 36002.00
1228.146, 35918.00
1229.225, 35947.00
1230.304, 36103.00
1231.382, 35845.00
1232.461, 35906.00
1233.540, 36320.00
1234.618, 36125.00
1235.696, 36208.00
1236.774, 36269.00
1237.852, 36315.00
1238.930, 36261.00
1240.007, 36164.00
1241.085, 36491.00
1242.162, 36579.00
1243.239, 36517.00
1244.316, 36615.00
1245.393, 36803.00
1246.469, 36776.00
1247.546, 36798.00
1248.622, 36926.00
1249.698, 36497.00
1250.774, 36900.00
1251.850, 36627.00
1252.926, 36984.00
1254.001, 36977.00
1255.077, 37053.00
1256.152, 37029.00
1257.227, 37016.00
1258.302, 37175.00
1259.377, 36892.00
1260.451, 37385.00
1261.526, 37053.00
1262.600, 37312.00
1263.674, 37207.00
1264.748, 37222.00
1265.822, 37512.00
1266.896, 37563.00
1267.969, 37389.00
1269.043, 37323.00
1270.116, 37686.00
1271.189, 37370.00
1272.262, 37485.00
1273.335, 37561.00
1274.407, 37454.00
1275.480, 37687.00
1276.552, 37702.00
1277.624, 37716.00
1278.696, 37893.00
1279.768, 37661.00
