##NAMES=Shortite
##RRUFFID=R050248
##IDEAL CHEMISTRY=Na_2_Ca_2_(CO_3_)_3_
##LOCALITY=Stauffer mine, Green River, Wyoming, USA
##OWNER=RRUFF
##SOURCE=Marcus Origlieri
##DESCRIPTION=Colorless wedge-shaped single crystal
##STATUS=The identification of this mineral has been confirmed by X-ray diffraction and chemical analysis
##URL=rruff.info/R050248
##MEASURED CHEMISTRY=Na_2.00_Ca_2.00_(CO_3_)_3_ ; CO2 not measured but estimated by difference and stoichiometry.
##PIN_ID=L01144
##ORIENTATION=Laser parallel to a* (1 0 0). Fiducial mark perpendicular to laser is parallel to -b [0 -1 0]
102.9200, 11088.00
104.1590, 11382.00
105.3980, 11346.00
106.6360, 11382.00
107.8750, 11663.00
109.1130, 11722.00
110.3510, 11856.00
111.5890, 11773.00
112.8270, 11999.00
114.0650, 12017.00
115.3020, 12050.00
116.5390, 12306.00
117.7770, 12385.00
119.0130, 12272.00
120.2500, 12404.00
121.4870, 12630.00
122.7230, 12528.00
123.9590, 12727.00
125.1950, 12866.00
126.4310, 12988.00
127.6670, 13222.00
128.9030, 13494.00
130.1380, 13695.00
131.3730, 13827.00
132.6080, 14007.00
133.8430, 14395.00
135.0780, 14366.00
136.3120, 14755.00
137.5470, 14762.00
138.7810, 14891.00
140.0150, 14892.00
141.2480, 14775.00
142.4820, 14779.00
143.7160, 14718.00
144.9490, 14752.00
146.1820, 14924.00
147.4150, 15069.00
148.6480, 15282.00
149.8800, 15353.00
151.1130, 15619.00
152.3450, 15647.00
153.5770, 15772.00
154.8090, 15687.00
156.0410, 15480.00
157.2720, 15433.00
158.5040, 15079.00
159.7350, 14992.00
160.9660, 14759.00
162.1970, 14573.00
163.4270, 14468.00
164.6580, 14265.00
165.8880, 14232.48
167.1180, 14322.00
168.3480, 14261.00
169.5780, 14324.00
170.8080, 14351.34
172.0370, 14456.00
173.2670, 14427.00
174.4960, 14348.00
175.7250, 14391.64
176.9540, 14398.00
178.1820, 14467.00
179.4110, 14469.00
180.6390, 14428.00
181.8670, 14516.00
183.0950, 14594.00
184.3230, 14653.00
185.5500, 14563.00
186.7780, 14626.00
188.0050, 14674.00
189.2320, 14705.00
190.4590, 14789.00
191.6850, 14896.00
192.9120, 14770.00
194.1380, 14995.00
195.3650, 15070.00
196.5910, 15071.00
197.8160, 15374.00
199.0420, 15327.00
200.2680, 15421.00
201.4930, 15518.00
202.7180, 15594.00
203.9430, 15550.00
205.1680, 15495.00
206.3930, 15471.00
207.6170, 15477.00
208.8410, 15413.72
210.0660, 15317.00
211.2890, 15363.00
212.5130, 15322.00
213.7370, 15389.00
214.9600, 15361.00
216.1840, 15182.00
217.4070, 15384.00
218.6300, 15351.00
219.8520, 15380.00
221.0750, 15492.00
222.2970, 15428.00
223.5200, 15440.00
224.7420, 15617.00
225.9640, 15499.00
227.1850, 15695.00
228.4070, 15679.00
229.6280, 15897.00
230.8490, 15861.00
232.0700, 15987.00
233.2910, 15843.00
234.5120, 16050.00
235.7320, 16084.00
236.9530, 16043.00
238.1730, 16071.00
239.3930, 16179.00
240.6130, 16201.00
241.8320, 16478.00
243.0520, 16332.00
244.2710, 16156.00
245.4900, 16540.00
246.7090, 16661.00
247.9280, 16719.00
249.1470, 16813.00
250.3650, 17021.00
251.5840, 17352.00
252.8020, 17639.00
254.0200, 18115.00
255.2370, 18969.00
256.4550, 19555.00
257.6720, 20605.00
258.8900, 21231.00
260.1070, 21933.00
261.3240, 22575.00
262.5400, 23286.00
263.7570, 23381.00
264.9730, 23199.00
266.1900, 22816.00
267.4060, 22161.00
268.6220, 21329.00
269.8370, 20483.00
271.0530, 19714.00
272.2680, 19075.00
273.4830, 18526.00
274.6980, 18004.00
275.9130, 17729.00
277.1280, 17538.00
278.3420, 17357.00
279.5570, 17419.00
280.7710, 17198.00
281.9850, 17018.00
283.1990, 17294.00
284.4120, 17135.00
285.6260, 17073.00
286.8390, 17083.00
288.0520, 16955.00
289.2650, 17102.00
290.4780, 16903.00
291.6910, 16997.00
292.9030, 17085.00
294.1160, 17146.00
295.3280, 17017.00
296.5400, 17126.00
297.7510, 17135.00
298.9630, 17210.00
300.1740, 17074.00
301.3860, 17052.00
302.5970, 17271.00
303.8080, 17335.00
305.0180, 17177.00
306.2290, 17241.00
307.4390, 17195.00
308.6500, 17230.00
309.8600, 17425.00
311.0700, 17180.00
312.2790, 17500.00
313.4890, 17488.00
314.6980, 17607.00
315.9080, 17446.00
317.1170, 17446.00
318.3250, 17481.00
319.5340, 17648.00
320.7430, 17469.00
321.9510, 17771.00
323.1590, 17339.00
324.3670, 17503.00
325.5750, 17505.00
326.7830, 17731.00
327.9900, 17721.00
329.1980, 17689.00
330.4050, 17822.00
331.6120, 17765.00
332.8190, 17779.00
334.0250, 17875.00
335.2320, 17781.00
336.4380, 17857.00
337.6440, 18027.00
338.8500, 17970.00
340.0560, 17832.00
341.2620, 18134.00
342.4670, 17943.00
343.6730, 18066.00
344.8780, 18157.00
346.0830, 18036.00
347.2870, 18115.00
348.4920, 18292.00
349.6970, 18232.00
350.9010, 18338.00
352.1050, 18314.00
353.3090, 18303.00
354.5130, 18428.00
355.7160, 18358.00
356.9200, 18317.00
358.1230, 18447.00
359.3260, 18417.00
360.5290, 18452.00
361.7320, 18374.00
362.9340, 18310.00
364.1370, 18350.56
365.3390, 18383.00
366.5410, 18397.00
367.7430, 18553.00
368.9450, 18588.00
370.1460, 18428.00
371.3480, 18607.00
372.5490, 18487.00
373.7500, 18778.00
374.9510, 18826.00
376.1520, 18772.00
377.3520, 18924.00
378.5520, 18960.00
379.7530, 18775.00
380.9530, 18827.00
382.1530, 18912.00
383.3520, 19037.00
384.5520, 19053.00
385.7510, 19133.00
386.9500, 19234.00
388.1490, 19214.00
389.3480, 19247.00
390.5470, 19373.00
391.7450, 19327.00
392.9440, 19369.00
394.1420, 19457.00
395.3400, 19294.00
396.5380, 19424.00
397.7350, 19486.00
398.9330, 19620.00
400.1300, 19605.00
401.3270, 19520.00
402.5240, 19585.00
403.7210, 19648.00
404.9180, 19615.00
406.1140, 19637.16
407.3110, 19510.00
408.5070, 19591.00
409.7030, 19699.00
410.8990, 19670.00
412.0940, 19498.00
413.2900, 19654.00
414.4850, 19384.00
415.6800, 19831.00
416.8750, 19713.00
418.0700, 19765.00
419.2650, 19847.00
420.4590, 19611.00
421.6530, 19741.00
422.8470, 19782.00
424.0410, 19900.00
425.2350, 19720.00
426.4290, 19973.00
427.6220, 19933.00
428.8160, 19802.00
430.0090, 19943.00
431.2020, 19738.00
432.3940, 20088.00
433.5870, 20017.00
434.7790, 19961.00
435.9720, 19978.00
437.1640, 20094.00
438.3560, 20055.00
439.5470, 20215.00
440.7390, 20174.00
441.9300, 20215.00
443.1220, 20128.00
444.3130, 20291.00
445.5040, 20285.00
446.6940, 20414.00
447.8850, 20318.00
449.0750, 20145.00
450.2660, 20289.00
451.4560, 20256.00
452.6460, 20583.00
453.8350, 20302.00
455.0250, 20511.00
456.2140, 20494.00
457.4040, 20592.00
458.5930, 20572.00
459.7820, 20499.00
460.9700, 20631.00
462.1590, 20576.00
463.3470, 20560.00
464.5350, 20748.00
465.7240, 20666.00
466.9110, 20766.00
468.0990, 20729.00
469.2870, 20535.00
470.4740, 20841.00
471.6610, 21057.00
472.8480, 20949.00
474.0350, 20936.00
475.2220, 20985.00
476.4090, 21102.00
477.5950, 21118.00
478.7810, 21019.00
479.9670, 20826.00
481.1530, 21022.00
482.3390, 21021.00
483.5240, 21113.00
484.7100, 21251.00
485.8950, 21147.00
487.0800, 21148.00
488.2650, 21398.00
489.4490, 21320.00
490.6340, 21416.00
491.8180, 21466.00
493.0030, 21399.00
494.1870, 21373.00
495.3700, 21576.00
496.5540, 21449.00
497.7380, 21665.00
498.9210, 21573.00
500.1040, 21531.00
501.2870, 21696.00
502.4700, 21772.00
503.6530, 21650.00
504.8350, 21829.00
506.0180, 21644.00
507.2000, 21753.00
508.3820, 21882.00
509.5640, 21925.00
510.7450, 22072.00
511.9270, 22041.00
513.1080, 21872.00
514.2890, 22146.00
515.4700, 22331.00
516.6510, 22071.00
517.8320, 22208.00
519.0130, 22190.00
520.1930, 21981.00
521.3730, 22113.00
522.5530, 22170.00
523.7330, 22301.00
524.9130, 22254.00
526.0920, 22249.00
527.2710, 22385.00
528.4510, 22465.00
529.6300, 22389.00
530.8080, 22330.00
531.9870, 22488.00
533.1660, 22623.00
534.3440, 22363.00
535.5220, 22402.00
536.7000, 22378.00
537.8780, 22505.00
539.0560, 22456.00
540.2330, 22592.00
541.4110, 22467.00
542.5880, 22601.00
543.7650, 22639.00
544.9420, 22595.00
546.1180, 22729.00
547.2950, 22532.00
548.4710, 22719.00
549.6470, 22774.00
550.8230, 22603.00
551.9990, 22700.00
553.1750, 22694.00
554.3500, 22714.00
555.5260, 22817.00
556.7010, 22972.00
557.8760, 22874.00
559.0510, 22808.00
560.2250, 23047.00
561.4000, 22835.00
562.5740, 22932.00
563.7480, 23079.00
564.9220, 22943.00
566.0960, 23135.00
567.2700, 23046.00
568.4430, 23157.00
569.6170, 23266.00
570.7900, 23219.00
571.9630, 23241.00
573.1360, 23329.00
574.3080, 23320.00
575.4810, 23259.00
576.6530, 23389.00
577.8250, 23345.00
578.9980, 23341.00
580.1690, 23429.00
581.3410, 23469.00
582.5130, 23437.00
583.6840, 23541.00
584.8550, 23411.00
586.0260, 23475.09
587.1970, 23642.00
588.3680, 23544.00
589.5380, 23588.00
590.7080, 23696.00
591.8790, 23590.00
593.0490, 23764.00
594.2190, 23915.00
595.3880, 23869.00
596.5580, 23762.00
597.7270, 23711.00
598.8960, 23743.00
600.0650, 23861.00
601.2340, 23956.00
602.4030, 24006.19
603.5710, 23801.00
604.7400, 24098.00
605.9080, 24030.00
607.0760, 23997.00
608.2440, 24160.00
609.4120, 24005.00
610.5790, 24109.00
611.7460, 24056.00
612.9140, 24139.00
614.0810, 24409.00
615.2480, 24321.00
616.4140, 24267.00
617.5810, 24156.00
618.7470, 24406.00
619.9130, 24374.00
621.0790, 24486.00
622.2450, 24471.00
623.4110, 24447.00
624.5770, 24460.00
625.7420, 24561.00
626.9070, 24647.00
628.0720, 24707.00
629.2370, 24735.00
630.4020, 24604.00
631.5660, 24791.00
632.7310, 24862.00
633.8950, 24715.00
635.0590, 24886.00
636.2230, 24783.00
637.3870, 24845.01
638.5500, 24896.00
639.7140, 24903.00
640.8770, 24957.00
642.0400, 24884.00
643.2030, 25027.00
644.3660, 24936.00
645.5280, 25098.00
646.6910, 25089.00
647.8530, 25059.00
649.0150, 24939.00
650.1770, 25350.00
651.3390, 25259.00
652.5000, 25430.00
653.6620, 25304.00
654.8230, 25326.00
655.9840, 25067.00
657.1450, 25273.00
658.3060, 25597.00
659.4660, 25237.00
660.6270, 25446.00
661.7870, 25391.00
662.9470, 25408.00
664.1070, 25618.00
665.2670, 25317.00
666.4260, 25583.00
667.5860, 25489.00
668.7450, 25671.00
669.9040, 25534.00
671.0630, 25659.00
672.2220, 25479.00
673.3800, 25747.00
674.5390, 25737.00
675.6970, 25859.00
676.8550, 26018.00
678.0130, 25946.00
679.1710, 25731.00
680.3290, 25918.00
681.4860, 25906.00
682.6430, 26192.00
683.8000, 26011.00
684.9570, 25972.00
686.1140, 26333.00
687.2710, 26419.00
688.4270, 26326.00
689.5840, 26652.00
690.7400, 26928.00
691.8960, 27101.00
693.0520, 27191.18
694.2070, 27451.00
695.3630, 27216.00
696.5180, 27114.00
697.6730, 27119.00
698.8280, 26831.00
699.9830, 26783.00
701.1380, 26533.00
702.2920, 26925.00
703.4470, 26856.00
704.6010, 26779.00
705.7550, 26605.00
706.9090, 27054.00
708.0620, 27058.00
709.2160, 27418.00
710.3690, 27264.00
711.5220, 27337.00
712.6750, 27344.00
713.8280, 27242.00
714.9810, 27028.00
716.1340, 26901.00
717.2860, 26942.00
718.4380, 27137.00
719.5900, 27192.00
720.7420, 27031.00
721.8940, 27206.00
723.0450, 26992.00
724.1970, 27100.00
725.3480, 27286.00
726.4990, 27393.00
727.6500, 27487.01
728.8010, 27601.00
729.9510, 27594.00
731.1020, 27393.00
732.2520, 27313.00
733.4020, 27338.00
734.5520, 27289.00
735.7020, 27379.00
736.8510, 27231.00
738.0010, 27295.00
739.1500, 27221.00
740.2990, 27185.00
741.4480, 27192.91
742.5970, 27501.00
743.7450, 27206.00
744.8940, 27417.00
746.0420, 27529.00
747.1900, 27490.00
748.3380, 27546.00
749.4860, 27565.00
750.6330, 27593.00
751.7810, 27630.00
752.9280, 27742.00
754.0750, 27618.00
755.2220, 27780.00
756.3690, 28023.00
757.5160, 27786.00
758.6620, 27808.00
759.8090, 27823.00
760.9550, 28011.00
762.1010, 27986.00
763.2470, 28002.00
764.3920, 27941.00
765.5380, 27963.00
766.6830, 27878.00
767.8280, 27924.00
768.9730, 28008.00
770.1180, 28000.39
771.2630, 28126.00
772.4070, 28061.00
773.5520, 28206.00
774.6960, 28189.00
775.8400, 28343.00
776.9840, 28372.00
778.1280, 28101.00
779.2710, 28115.00
780.4140, 28338.00
781.5580, 28546.00
782.7010, 28431.00
783.8440, 28496.00
784.9860, 28459.00
786.1290, 28562.00
787.2710, 28677.00
788.4140, 28408.00
789.5560, 28405.00
790.6980, 28503.00
791.8390, 28735.00
792.9810, 28722.00
794.1220, 28875.00
795.2640, 28709.00
796.4050, 28950.00
797.5460, 28964.00
798.6860, 29081.00
799.8270, 28853.00
800.9680, 28949.00
802.1080, 29019.00
803.2480, 29001.00
804.3880, 29036.00
805.5280, 28997.00
806.6670, 29192.00
807.8070, 29291.00
808.9460, 29154.00
810.0850, 29148.00
811.2240, 29157.00
812.3630, 29365.00
813.5020, 29386.00
814.6400, 29286.00
815.7790, 29307.00
816.9170, 29358.64
818.0550, 29607.00
819.1930, 29489.00
820.3300, 29523.00
821.4680, 29541.42
822.6050, 29410.00
823.7430, 29672.00
824.8800, 29601.00
826.0170, 29716.00
827.1530, 29754.00
828.2900, 29814.00
829.4260, 29960.00
830.5620, 29705.00
831.6990, 29730.00
832.8340, 29882.00
833.9700, 29729.00
835.1060, 29830.00
836.2410, 30004.00
837.3760, 29837.00
838.5120, 29902.00
839.6470, 30060.00
840.7810, 29942.00
841.9160, 30028.00
843.0500, 30283.00
844.1850, 30025.00
845.3190, 30002.00
846.4530, 30309.00
847.5870, 30169.00
848.7200, 30224.00
849.8540, 30349.00
850.9870, 30379.00
852.1200, 30451.03
853.2530, 30297.00
854.3860, 30537.00
855.5190, 30651.00
856.6510, 30654.00
857.7840, 30436.00
858.9160, 30377.00
860.0480, 30385.00
861.1800, 30574.00
862.3110, 30675.00
863.4430, 30791.00
864.5740, 30731.00
865.7060, 30695.00
866.8370, 30843.00
867.9680, 30943.00
869.0980, 31005.00
870.2290, 30796.00
871.3590, 30978.00
872.4900, 30886.00
873.6200, 31059.00
874.7500, 31007.00
875.8790, 30904.00
877.0090, 30934.00
878.1380, 31117.00
879.2680, 31162.00
880.3970, 31315.00
881.5260, 31256.00
882.6550, 31210.00
883.7830, 31343.00
884.9120, 31383.00
886.0400, 31300.00
887.1680, 31199.00
888.2960, 31254.00
889.4240, 31361.00
890.5520, 31329.56
891.6790, 31393.00
892.8070, 31379.00
893.9340, 31444.00
895.0610, 31454.00
896.1880, 31650.00
897.3140, 31610.00
898.4410, 31779.00
899.5670, 31619.00
900.6940, 31611.00
901.8200, 31588.00
902.9450, 31560.24
904.0710, 31630.07
905.1970, 31611.00
906.3220, 31775.00
907.4470, 31858.00
908.5730, 31921.00
909.6980, 32065.00
910.8220, 32020.00
911.9470, 31843.00
913.0710, 31997.00
914.1960, 32061.00
915.3200, 32193.00
916.4440, 32225.88
917.5680, 32319.00
918.6910, 32226.00
919.8150, 32226.00
920.9380, 32121.00
922.0610, 32145.00
923.1840, 32237.00
924.3070, 32515.00
925.4300, 32306.00
926.5520, 32616.00
927.6750, 32463.00
928.7970, 32587.00
929.9190, 32593.00
931.0410, 32579.00
932.1630, 32871.00
933.2840, 32656.00
934.4060, 32841.00
935.5270, 32717.00
936.6480, 32414.00
937.7690, 33031.00
938.8900, 32830.00
940.0100, 32781.00
941.1310, 32961.00
942.2510, 33089.00
943.3710, 33022.00
944.4910, 33196.00
945.6110, 33253.00
946.7310, 33192.00
947.8500, 33284.00
948.9690, 33265.62
950.0890, 33211.00
951.2080, 33318.00
952.3260, 33229.00
953.4450, 33341.00
954.5640, 33210.00
955.6820, 33422.00
956.8000, 33437.00
957.9180, 33600.00
959.0360, 33455.00
960.1540, 33585.00
961.2710, 33616.00
962.3890, 33345.00
963.5060, 33645.00
964.6230, 33514.00
965.7400, 33594.00
966.8570, 33745.00
967.9730, 33649.00
969.0900, 33773.00
970.2060, 34102.00
971.3220, 33809.00
972.4380, 33981.00
973.5540, 33952.00
974.6700, 33716.00
975.7850, 34036.00
976.9010, 34182.00
978.0160, 34205.00
979.1310, 34341.00
980.2460, 34366.64
981.3600, 34124.00
982.4750, 34341.00
983.5890, 34303.00
984.7030, 34115.00
985.8170, 34295.00
986.9310, 34669.00
988.0450, 34424.00
989.1590, 34501.00
990.2720, 34542.00
991.3850, 34438.00
992.4980, 34564.00
993.6110, 34489.00
994.7240, 34839.00
995.8370, 34828.00
996.9490, 34541.00
998.0620, 35032.00
999.1740, 34812.00
1000.286, 34871.00
1001.398, 34749.00
1002.509, 34959.00
1003.621, 35031.00
1004.732, 34997.00
1005.843, 35092.96
1006.954, 34794.00
1008.065, 35148.00
1009.176, 34980.00
1010.286, 35051.00
1011.397, 35177.00
1012.507, 35344.00
1013.617, 35364.64
1014.727, 35332.00
1015.837, 35388.00
1016.946, 35395.00
1018.056, 35279.00
1019.165, 35224.00
1020.274, 35514.00
1021.383, 35488.00
1022.492, 35390.00
1023.601, 35570.00
1024.709, 35426.00
1025.817, 35386.00
1026.926, 35834.00
1028.034, 35908.00
1029.141, 35708.00
1030.249, 35660.00
1031.357, 35827.00
1032.464, 35677.00
1033.571, 35958.00
1034.678, 35919.00
1035.785, 35877.00
1036.892, 35825.00
1037.999, 35727.00
1039.105, 36030.00
1040.211, 36211.00
1041.317, 36098.00
1042.423, 35967.00
1043.529, 36553.00
1044.635, 36511.00
1045.740, 36238.00
1046.845, 36547.00
1047.951, 36458.00
1049.056, 36374.00
1050.160, 36749.00
1051.265, 36906.00
1052.370, 36809.00
1053.474, 37244.00
1054.578, 37028.00
1055.682, 37105.00
1056.786, 37029.00
1057.890, 37500.00
1058.993, 37249.00
1060.097, 37875.00
1061.200, 38166.00
1062.303, 38221.00
1063.406, 39162.00
1064.509, 40864.00
1065.612, 43982.00
1066.714, 49418.00
1067.816, 54366.00
1068.919, 59834.00
1070.021, 64999.00
1071.122, 64189.00
1072.224, 59278.00
1073.326, 53514.00
1074.427, 48000.00
1075.528, 43288.00
1076.629, 40524.00
1077.730, 39385.00
1078.831, 38941.00
1079.931, 38693.00
1081.032, 39166.00
1082.132, 39447.00
1083.232, 41769.00
1084.332, 44378.40
1085.432, 48196.00
1086.531, 52578.00
1087.631, 58022.00
1088.730, 64438.00
1089.829, 63442.00
1090.928, 58725.00
1092.027, 53539.00
1093.126, 48042.00
1094.224, 43248.00
1095.323, 40655.00
1096.421, 39393.00
1097.519, 38620.00
1098.617, 38695.00
1099.715, 38445.00
1100.812, 38327.00
1101.910, 38529.00
1103.007, 38567.00
1104.104, 38473.00
1105.201, 38549.00
1106.298, 38653.00
1107.394, 38537.00
1108.491, 38549.00
1109.587, 38720.00
1110.683, 38563.00
1111.779, 38777.00
1112.875, 38659.00
1113.971, 38641.00
1115.066, 38627.00
1116.162, 38682.00
1117.257, 38762.00
1118.352, 38689.00
1119.447, 38986.00
1120.542, 38919.00
1121.636, 39395.00
1122.731, 38961.00
1123.825, 39324.00
1124.919, 39195.00
1126.013, 39106.00
1127.107, 39340.00
1128.200, 39515.00
1129.294, 39278.00
1130.387, 39348.00
1131.480, 39366.00
1132.573, 39390.00
1133.666, 39706.00
1134.759, 39488.00
1135.851, 39616.00
1136.944, 39443.00
1138.036, 39420.00
1139.128, 39534.00
1140.220, 39648.00
1141.312, 39877.00
1142.403, 39902.00
1143.495, 39994.34
1144.586, 39794.00
1145.677, 39947.00
1146.768, 39989.00
1147.859, 39702.00
1148.950, 40056.00
1150.040, 39852.00
1151.130, 40103.00
1152.221, 39900.00
1153.311, 39984.00
1154.401, 40091.96
1155.490, 40171.00
1156.580, 40256.00
1157.669, 40209.00
1158.759, 40192.00
1159.848, 40161.00
1160.937, 40186.20
1162.025, 40250.00
1163.114, 40311.00
1164.202, 40395.74
1165.291, 40578.00
1166.379, 40615.00
1167.467, 40512.00
1168.555, 40718.00
1169.642, 40652.00
1170.730, 40646.00
1171.817, 40832.00
1172.905, 40840.00
1173.992, 40743.00
1175.078, 40984.00
1176.165, 40917.00
1177.252, 40801.00
1178.338, 41159.00
1179.425, 41006.00
1180.511, 41219.00
1181.597, 41307.00
1182.682, 40987.00
1183.768, 41448.00
1184.854, 41342.00
1185.939, 41508.00
1187.024, 41367.00
1188.109, 41444.00
1189.194, 41313.00
1190.279, 41473.00
1191.363, 41528.00
1192.448, 41755.00
1193.532, 41659.00
1194.616, 41903.00
1195.700, 41578.00
1196.784, 41853.00
1197.867, 41847.00
1198.951, 41930.00
1200.034, 41964.00
1201.117, 41908.00
1202.200, 41948.00
1203.283, 41958.84
1204.366, 42088.00
1205.448, 42073.00
1206.531, 42191.00
1207.613, 42394.00
1208.695, 42155.00
1209.777, 42260.00
1210.859, 42492.00
1211.940, 42605.00
1213.022, 42584.00
1214.103, 42433.00
1215.184, 42287.00
1216.265, 42438.00
1217.346, 42491.00
1218.427, 42793.00
1219.507, 42504.00
1220.587, 42689.00
1221.668, 42596.00
1222.748, 42745.00
1223.828, 42627.00
1224.907, 42983.00
1225.987, 43010.00
1227.066, 43385.00
1228.146, 42986.00
1229.225, 43142.00
1230.304, 43218.00
1231.382, 43331.00
1232.461, 43195.00
1233.540, 43154.00
1234.618, 43216.00
1235.696, 43323.00
1236.774, 43408.00
1237.852, 43402.00
1238.930, 43259.00
1240.007, 43746.00
1241.085, 43459.00
1242.162, 43658.00
1243.239, 43687.00
1244.316, 43714.00
1245.393, 43798.00
1246.469, 43935.00
1247.546, 43947.38
1248.622, 43899.00
1249.698, 44030.00
1250.774, 44041.00
1251.850, 44077.00
1252.926, 43911.00
1254.001, 44071.00
1255.077, 44010.00
1256.152, 44166.00
1257.227, 44014.00
1258.302, 44288.00
1259.377, 44054.00
1260.451, 44171.00
1261.526, 44211.00
1262.600, 44490.00
1263.674, 44412.00
1264.748, 44348.00
1265.822, 44356.00
1266.896, 44541.00
1267.969, 44752.00
1269.043, 44518.00
1270.116, 44821.00
1271.189, 44805.00
1272.262, 44892.00
1273.335, 45119.00
1274.407, 45076.00
1275.480, 44937.00
1276.552, 44872.00
1277.624, 44598.00
1278.696, 45027.00
1279.768, 45051.00
