##NAMES=Shortite
##RRUFFID=R050248
##IDEAL CHEMISTRY=Na_2_Ca_2_(CO_3_)_3_
##LOCALITY=Stauffer mine, Green River, Wyoming, USA
##OWNER=RRUFF
##SOURCE=Marcus Origlieri
##DESCRIPTION=Colorless wedge-shaped single crystal
##STATUS=The identification of this mineral has been confirmed by X-ray diffraction and chemical analysis
##URL=rruff.info/R050248
##MEASURED CHEMISTRY=Na_2.00_Ca_2.00_(CO_3_)_3_ ; CO2 not measured but estimated by difference and stoichiometry.
##PIN_ID=L01884
##ORIENTATION=Laser parallel to c* (0 0 1). Fiducial mark perpendicular to laser is parallel to a [1 0 0]
102.9200, 3162.000
104.1590, 3199.000
105.3980, 3251.000
106.6360, 3334.000
107.8750, 3407.000
109.1130, 3359.000
110.3510, 3346.000
111.5890, 3483.000
112.8270, 3500.000
114.0650, 3549.000
115.3020, 3554.000
116.5390, 3602.000
117.7770, 3718.000
119.0130, 3900.000
120.2500, 3910.000
121.4870, 3974.000
122.7230, 4190.000
123.9590, 4411.000
125.1950, 4744.000
126.4310, 5412.000
127.6670, 6225.000
128.9030, 7391.000
130.1380, 8478.000
131.3730, 9070.000
132.6080, 9741.000
133.8430, 10649.00
135.0780, 12192.00
136.3120, 13306.00
137.5470, 13522.00
138.7810, 12809.00
140.0150, 12229.00
141.2480, 10937.00
142.4820, 9375.000
143.7160, 7733.000
144.9490, 6378.000
146.1820, 5461.000
147.4150, 4902.000
148.6480, 4558.000
149.8800, 4381.000
151.1130, 4218.000
152.3450, 4130.000
153.5770, 4135.000
154.8090, 4122.000
156.0410, 3984.000
157.2720, 3989.000
158.5040, 3882.000
159.7350, 3926.000
160.9660, 3904.000
162.1970, 3939.000
163.4270, 4004.000
164.6580, 4026.000
165.8880, 4103.000
167.1180, 4136.000
168.3480, 4169.000
169.5780, 4319.000
170.8080, 4361.000
172.0370, 4417.000
173.2670, 4573.000
174.4960, 4680.000
175.7250, 4781.000
176.9540, 4887.000
178.1820, 5146.000
179.4110, 5310.000
180.6390, 5517.000
181.8670, 5511.000
183.0950, 5630.000
184.3230, 5678.000
185.5500, 5802.000
186.7780, 5943.000
188.0050, 6202.000
189.2320, 6587.460
190.4590, 7094.000
191.6850, 7664.000
192.9120, 8356.000
194.1380, 9224.000
195.3650, 10219.00
196.5910, 10853.00
197.8160, 11278.00
199.0420, 11266.00
200.2680, 11332.00
201.4930, 11095.00
202.7180, 10839.00
203.9430, 10129.00
205.1680, 9440.000
206.3930, 8795.000
207.6170, 8250.000
208.8410, 7516.000
210.0660, 6773.000
211.2890, 6293.000
212.5130, 5839.000
213.7370, 5400.000
214.9600, 5104.000
216.1840, 4841.000
217.4070, 4753.000
218.6300, 4577.970
219.8520, 4476.000
221.0750, 4458.000
222.2970, 4292.000
223.5200, 4346.000
224.7420, 4247.000
225.9640, 4177.000
227.1850, 4214.000
228.4070, 4161.000
229.6280, 4206.000
230.8490, 4186.000
232.0700, 4215.164
233.2910, 4217.000
234.5120, 4258.000
235.7320, 4259.000
236.9530, 4296.751
238.1730, 4249.000
239.3930, 4380.000
240.6130, 4434.000
241.8320, 4503.000
243.0520, 4636.000
244.2710, 4690.000
245.4900, 4757.000
246.7090, 4850.000
247.9280, 4994.000
249.1470, 5262.000
250.3650, 5496.000
251.5840, 5802.000
252.8020, 6165.000
254.0200, 6475.000
255.2370, 6901.000
256.4550, 7683.000
257.6720, 8403.000
258.8900, 9230.000
260.1070, 10085.00
261.3240, 10713.00
262.5400, 11529.00
263.7570, 12562.00
264.9730, 13161.00
266.1900, 13357.00
267.4060, 12986.00
268.6220, 12470.00
269.8370, 11639.00
271.0530, 10280.00
272.2680, 9039.000
273.4830, 7823.000
274.6980, 6943.000
275.9130, 6385.000
277.1280, 5815.000
278.3420, 5447.000
279.5570, 5213.000
280.7710, 4972.000
281.9850, 4874.000
283.1990, 4710.000
284.4120, 4625.377
285.6260, 4539.663
286.8390, 4501.000
288.0520, 4464.000
289.2650, 4393.000
290.4780, 4486.000
291.6910, 4395.000
292.9030, 4400.000
294.1160, 4405.000
295.3280, 4385.000
296.5400, 4373.153
297.7510, 4314.000
298.9630, 4308.000
300.1740, 4292.000
301.3860, 4220.000
302.5970, 4288.000
303.8080, 4287.000
305.0180, 4248.000
306.2290, 4272.000
307.4390, 4306.000
308.6500, 4284.000
309.8600, 4271.000
311.0700, 4226.000
312.2790, 4216.000
313.4890, 4215.048
314.6980, 4205.000
315.9080, 4223.000
317.1170, 4308.000
318.3250, 4306.000
319.5340, 4290.000
320.7430, 4278.000
321.9510, 4241.000
323.1590, 4236.000
324.3670, 4230.875
325.5750, 4246.000
326.7830, 4260.000
327.9900, 4232.000
329.1980, 4296.000
330.4050, 4298.000
331.6120, 4261.000
332.8190, 4257.000
334.0250, 4326.000
335.2320, 4239.000
336.4380, 4388.000
337.6440, 4329.000
338.8500, 4306.000
340.0560, 4315.000
341.2620, 4289.137
342.4670, 4383.000
343.6730, 4314.000
344.8780, 4325.000
346.0830, 4402.000
347.2870, 4293.000
348.4920, 4311.000
349.6970, 4303.000
350.9010, 4331.000
352.1050, 4351.000
353.3090, 4423.000
354.5130, 4323.000
355.7160, 4324.000
356.9200, 4306.000
358.1230, 4416.000
359.3260, 4337.000
360.5290, 4369.000
361.7320, 4311.000
362.9340, 4378.000
364.1370, 4460.000
365.3390, 4394.000
366.5410, 4398.000
367.7430, 4382.000
368.9450, 4401.000
370.1460, 4439.000
371.3480, 4402.000
372.5490, 4403.114
373.7500, 4453.000
374.9510, 4353.000
376.1520, 4387.000
377.3520, 4366.559
378.5520, 4403.000
379.7530, 4423.000
380.9530, 4458.000
382.1530, 4497.000
383.3520, 4442.000
384.5520, 4500.000
385.7510, 4463.000
386.9500, 4559.000
388.1490, 4529.000
389.3480, 4441.000
390.5470, 4501.000
391.7450, 4507.000
392.9440, 4532.000
394.1420, 4524.000
395.3400, 4546.001
396.5380, 4548.958
397.7350, 4580.000
398.9330, 4544.000
400.1300, 4562.000
401.3270, 4531.000
402.5240, 4605.000
403.7210, 4577.000
404.9180, 4595.000
406.1140, 4551.000
407.3110, 4529.000
408.5070, 4625.000
409.7030, 4555.000
410.8990, 4597.000
412.0940, 4599.000
413.2900, 4608.000
414.4850, 4534.000
415.6800, 4539.000
416.8750, 4546.000
418.0700, 4516.000
419.2650, 4549.000
420.4590, 4548.000
421.6530, 4600.000
422.8470, 4603.000
424.0410, 4587.000
425.2350, 4566.000
426.4290, 4559.000
427.6220, 4598.000
428.8160, 4523.000
430.0090, 4662.000
431.2020, 4572.000
432.3940, 4620.000
433.5870, 4613.000
434.7790, 4584.000
435.9720, 4657.000
437.1640, 4625.000
438.3560, 4623.000
439.5470, 4623.000
440.7390, 4589.000
441.9300, 4609.000
443.1220, 4589.000
444.3130, 4750.000
445.5040, 4683.000
446.6940, 4698.000
447.8850, 4613.000
449.0750, 4709.000
450.2660, 4658.000
451.4560, 4716.000
452.6460, 4672.000
453.8350, 4717.000
455.0250, 4724.000
456.2140, 4699.000
457.4040, 4725.496
458.5930, 4756.000
459.7820, 4725.000
460.9700, 4746.000
462.1590, 4727.000
463.3470, 4723.165
464.5350, 4703.000
465.7240, 4723.000
466.9110, 4747.000
468.0990, 4768.000
469.2870, 4805.000
470.4740, 4755.000
471.6610, 4730.000
472.8480, 4751.000
474.0350, 4711.000
475.2220, 4761.000
476.4090, 4746.000
477.5950, 4731.000
478.7810, 4697.000
479.9670, 4771.000
481.1530, 4797.000
482.3390, 4787.000
483.5240, 4844.000
484.7100, 4842.000
485.8950, 4835.000
487.0800, 4821.000
488.2650, 4807.000
489.4490, 4830.970
490.6340, 4776.000
491.8180, 4870.000
493.0030, 4851.000
494.1870, 4837.000
495.3700, 4886.000
496.5540, 4920.000
497.7380, 4920.771
498.9210, 4816.000
500.1040, 4935.000
501.2870, 4871.000
502.4700, 4859.000
503.6530, 4900.000
504.8350, 4881.555
506.0180, 4946.000
507.2000, 4919.000
508.3820, 4923.000
509.5640, 4945.000
510.7450, 4879.000
511.9270, 4992.000
513.1080, 4946.000
514.2890, 4910.000
515.4700, 4904.000
516.6510, 4996.000
517.8320, 4998.000
519.0130, 5006.000
520.1930, 4996.000
521.3730, 4990.000
522.5530, 5024.000
523.7330, 5044.000
524.9130, 4976.000
526.0920, 5043.000
527.2710, 4952.000
528.4510, 4990.000
529.6300, 4961.000
530.8080, 4939.000
531.9870, 4994.000
533.1660, 5080.000
534.3440, 5060.000
535.5220, 4991.000
536.7000, 5069.000
537.8780, 4965.000
539.0560, 5004.000
540.2330, 4928.000
541.4110, 5065.000
542.5880, 5077.000
543.7650, 5026.000
544.9420, 5015.000
546.1180, 4980.000
547.2950, 5034.000
548.4710, 5008.000
549.6470, 5149.000
550.8230, 4922.000
551.9990, 5101.000
553.1750, 5083.000
554.3500, 4922.000
555.5260, 5113.000
556.7010, 5079.000
557.8760, 5010.000
559.0510, 4996.000
560.2250, 4983.000
561.4000, 5156.000
562.5740, 5062.000
563.7480, 5139.000
564.9220, 5163.000
566.0960, 5030.000
567.2700, 5069.000
568.4430, 5063.000
569.6170, 5116.000
570.7900, 5120.275
571.9630, 5173.000
573.1360, 5149.000
574.3080, 5141.000
575.4810, 5162.000
576.6530, 5184.000
577.8250, 5258.000
578.9980, 5185.000
580.1690, 5141.000
581.3410, 5106.000
582.5130, 5184.000
583.6840, 5202.000
584.8550, 5119.000
586.0260, 5233.000
587.1970, 5122.000
588.3680, 5210.000
589.5380, 5103.000
590.7080, 5140.000
591.8790, 5165.000
593.0490, 5101.000
594.2190, 5194.000
595.3880, 5156.000
596.5580, 5269.000
597.7270, 5204.000
598.8960, 5225.000
600.0650, 5222.000
601.2340, 5254.000
602.4030, 5264.000
603.5710, 5304.000
604.7400, 5254.000
605.9080, 5203.000
607.0760, 5298.000
608.2440, 5301.000
609.4120, 5231.000
610.5790, 5211.000
611.7460, 5254.000
612.9140, 5236.000
614.0810, 5316.000
615.2480, 5302.000
616.4140, 5258.000
617.5810, 5354.000
618.7470, 5322.000
619.9130, 5332.000
621.0790, 5354.000
622.2450, 5332.000
623.4110, 5325.000
624.5770, 5278.000
625.7420, 5342.000
626.9070, 5310.000
628.0720, 5357.000
629.2370, 5406.000
630.4020, 5337.000
631.5660, 5421.000
632.7310, 5379.000
633.8950, 5418.000
635.0590, 5350.000
636.2230, 5486.000
637.3870, 5439.000
638.5500, 5435.000
639.7140, 5469.000
640.8770, 5341.000
642.0400, 5455.000
643.2030, 5438.000
644.3660, 5470.000
645.5280, 5346.000
646.6910, 5383.000
647.8530, 5426.000
649.0150, 5463.000
650.1770, 5409.000
651.3390, 5486.000
652.5000, 5368.000
653.6620, 5440.000
654.8230, 5405.000
655.9840, 5390.000
657.1450, 5480.000
658.3060, 5436.000
659.4660, 5490.000
660.6270, 5408.000
661.7870, 5463.000
662.9470, 5526.000
664.1070, 5440.000
665.2670, 5474.000
666.4260, 5508.000
667.5860, 5467.000
668.7450, 5449.000
669.9040, 5470.000
671.0630, 5458.942
672.2220, 5406.000
673.3800, 5514.000
674.5390, 5486.000
675.6970, 5577.000
676.8550, 5537.000
678.0130, 5531.000
679.1710, 5462.000
680.3290, 5575.000
681.4860, 5506.000
682.6430, 5500.000
683.8000, 5585.000
684.9570, 5544.000
686.1140, 5604.000
687.2710, 5721.000
688.4270, 5798.000
689.5840, 5892.000
690.7400, 5917.000
691.8960, 6095.000
693.0520, 6220.000
694.2070, 6241.000
695.3630, 6230.000
696.5180, 6168.000
697.6730, 6023.000
698.8280, 5919.000
699.9830, 5775.000
701.1380, 5708.000
702.2920, 5783.000
703.4470, 5973.000
704.6010, 5944.000
705.7550, 6089.000
706.9090, 6210.000
708.0620, 6299.000
709.2160, 6315.799
710.3690, 6342.000
711.5220, 6218.000
712.6750, 6093.000
713.8280, 5895.000
714.9810, 5751.000
716.1340, 5777.000
717.2860, 5769.000
718.4380, 5742.000
719.5900, 5801.000
720.7420, 5827.000
721.8940, 5803.000
723.0450, 5820.000
724.1970, 5939.000
725.3480, 6039.000
726.4990, 6041.000
727.6500, 6216.000
728.8010, 6278.000
729.9510, 6228.000
731.1020, 6245.000
732.2520, 6083.000
733.4020, 6002.000
734.5520, 5967.000
735.7020, 5824.000
736.8510, 5793.000
738.0010, 5831.000
739.1500, 5702.000
740.2990, 5727.000
741.4480, 5802.000
742.5970, 5805.000
743.7450, 5759.000
744.8940, 5846.000
746.0420, 5794.000
747.1900, 5839.000
748.3380, 5836.000
749.4860, 5798.000
750.6330, 5812.000
751.7810, 5762.000
752.9280, 5800.000
754.0750, 5787.534
755.2220, 5768.000
756.3690, 5782.000
757.5160, 5841.000
758.6620, 5816.000
759.8090, 5838.933
760.9550, 5823.000
762.1010, 5851.000
763.2470, 5876.000
764.3920, 5900.000
765.5380, 5842.000
766.6830, 5852.000
767.8280, 5781.000
768.9730, 5922.000
770.1180, 5864.000
771.2630, 5872.000
772.4070, 5931.000
773.5520, 5840.000
774.6960, 5921.000
775.8400, 5899.000
776.9840, 5946.000
778.1280, 5873.000
779.2710, 5828.000
780.4140, 5912.000
781.5580, 5930.000
782.7010, 5984.000
783.8440, 5972.921
784.9860, 5929.000
786.1290, 5943.000
787.2710, 5963.000
788.4140, 5988.000
789.5560, 5865.000
790.6980, 5897.000
791.8390, 5913.000
792.9810, 5959.000
794.1220, 6004.000
795.2640, 5884.000
796.4050, 5963.000
797.5460, 5919.000
798.6860, 5998.000
799.8270, 5993.000
800.9680, 5916.000
802.1080, 5923.000
803.2480, 5983.000
804.3880, 6035.000
805.5280, 6071.000
806.6670, 6013.000
807.8070, 6029.000
808.9460, 6025.000
810.0850, 6003.000
811.2240, 6021.000
812.3630, 5999.538
813.5020, 6057.000
814.6400, 5994.000
815.7790, 5978.000
816.9170, 6017.000
818.0550, 6069.000
819.1930, 6051.000
820.3300, 6075.000
821.4680, 6114.000
822.6050, 6080.000
823.7430, 5950.000
824.8800, 6151.000
826.0170, 6105.000
827.1530, 5987.000
828.2900, 6156.000
829.4260, 6094.000
830.5620, 6130.000
831.6990, 5991.000
832.8340, 6036.000
833.9700, 6151.000
835.1060, 6114.000
836.2410, 6208.000
837.3760, 6142.000
838.5120, 6044.000
839.6470, 6149.000
840.7810, 6242.000
841.9160, 6206.000
843.0500, 6191.000
844.1850, 6122.000
845.3190, 6159.000
846.4530, 6214.000
847.5870, 6118.000
848.7200, 6229.000
849.8540, 6095.000
850.9870, 6188.000
852.1200, 6142.000
853.2530, 6194.000
854.3860, 6226.000
855.5190, 6238.000
856.6510, 6349.000
857.7840, 6596.000
858.9160, 6940.000
860.0480, 6980.000
861.1800, 7311.000
862.3110, 7603.000
863.4430, 7648.000
864.5740, 7471.000
865.7060, 7160.000
866.8370, 6967.000
867.9680, 6663.000
869.0980, 6433.000
870.2290, 6273.000
871.3590, 6309.000
872.4900, 6243.000
873.6200, 6280.000
874.7500, 6327.000
875.8790, 6257.000
877.0090, 6300.000
878.1380, 6313.000
879.2680, 6293.000
880.3970, 6299.000
881.5260, 6293.000
882.6550, 6315.000
883.7830, 6355.000
884.9120, 6357.000
886.0400, 6341.486
887.1680, 6309.000
888.2960, 6296.000
889.4240, 6231.000
890.5520, 6239.000
891.6790, 6354.000
892.8070, 6253.000
893.9340, 6310.000
895.0610, 6365.000
896.1880, 6262.000
897.3140, 6308.000
898.4410, 6331.000
899.5670, 6342.000
900.6940, 6314.000
901.8200, 6272.000
902.9450, 6323.000
904.0710, 6427.000
905.1970, 6361.000
906.3220, 6429.000
907.4470, 6476.000
908.5730, 6390.000
909.6980, 6370.000
910.8220, 6384.000
911.9470, 6414.000
913.0710, 6392.000
914.1960, 6340.000
915.3200, 6427.000
916.4440, 6404.000
917.5680, 6449.000
918.6910, 6477.000
919.8150, 6444.000
920.9380, 6485.000
922.0610, 6524.000
923.1840, 6462.000
924.3070, 6497.000
925.4300, 6337.000
926.5520, 6454.000
927.6750, 6394.000
928.7970, 6483.000
929.9190, 6561.000
931.0410, 6432.000
932.1630, 6564.000
933.2840, 6451.000
934.4060, 6510.000
935.5270, 6470.000
936.6480, 6563.000
937.7690, 6548.000
938.8900, 6492.000
940.0100, 6519.000
941.1310, 6591.000
942.2510, 6412.000
943.3710, 6549.000
944.4910, 6555.000
945.6110, 6561.000
946.7310, 6644.000
947.8500, 6599.000
948.9690, 6644.567
950.0890, 6517.000
951.2080, 6663.000
952.3260, 6614.000
953.4450, 6575.000
954.5640, 6625.000
955.6820, 6566.000
956.8000, 6534.000
957.9180, 6630.000
959.0360, 6593.000
960.1540, 6558.000
961.2710, 6562.000
962.3890, 6632.000
963.5060, 6590.000
964.6230, 6687.000
965.7400, 6716.000
966.8570, 6690.000
967.9730, 6582.000
969.0900, 6700.000
970.2060, 6643.000
971.3220, 6546.000
972.4380, 6612.000
973.5540, 6720.000
974.6700, 6651.000
975.7850, 6654.000
976.9010, 6695.000
978.0160, 6742.000
979.1310, 6739.774
980.2460, 6731.000
981.3600, 6742.000
982.4750, 6709.298
983.5890, 6681.000
984.7030, 6709.000
985.8170, 6623.000
986.9310, 6696.000
988.0450, 6719.000
989.1590, 6744.000
990.2720, 6814.000
991.3850, 6684.000
992.4980, 6727.000
993.6110, 6708.000
994.7240, 6790.000
995.8370, 6806.000
996.9490, 6844.000
998.0620, 6719.000
999.1740, 6781.000
1000.286, 6723.000
1001.398, 6826.000
1002.509, 6872.000
1003.621, 6895.000
1004.732, 6784.000
1005.843, 6813.000
1006.954, 6779.000
1008.065, 6781.000
1009.176, 6767.000
1010.286, 6761.319
1011.397, 6755.094
1012.507, 6770.000
1013.617, 6765.000
1014.727, 6790.000
1015.837, 6805.864
1016.946, 6867.000
1018.056, 6860.000
1019.165, 6864.000
1020.274, 6907.000
1021.383, 6868.000
1022.492, 6880.000
1023.601, 6881.000
1024.709, 6946.000
1025.817, 6882.000
1026.926, 6772.000
1028.034, 6850.000
1029.141, 6867.000
1030.249, 6912.000
1031.357, 6923.000
1032.464, 6947.102
1033.571, 7018.000
1034.678, 6945.000
1035.785, 6946.000
1036.892, 6861.000
1037.999, 6921.000
1039.105, 6985.000
1040.211, 6930.000
1041.317, 6922.000
1042.423, 6970.000
1043.529, 7056.000
1044.635, 6976.000
1045.740, 7104.000
1046.845, 7049.000
1047.951, 7143.000
1049.056, 7106.000
1050.160, 7276.000
1051.265, 7288.000
1052.370, 7244.000
1053.474, 7264.000
1054.578, 7359.000
1055.682, 7315.000
1056.786, 7377.000
1057.890, 7357.000
1058.993, 7509.000
1060.097, 7672.000
1061.200, 8040.000
1062.303, 8552.000
1063.406, 9703.000
1064.509, 12367.00
1065.612, 17352.00
1066.714, 23231.00
1067.816, 27869.00
1068.919, 35675.00
1070.021, 40075.00
1071.122, 36628.00
1072.224, 29854.00
1073.326, 22306.00
1074.427, 15585.00
1075.528, 11353.00
1076.629, 9474.000
1077.730, 8861.000
1078.831, 8556.000
1079.931, 8621.000
1081.032, 8866.000
1082.132, 9680.000
1083.232, 11772.00
1084.332, 17354.00
1085.432, 28331.00
1086.531, 35476.00
1087.631, 46134.00
1088.730, 59841.00
1089.829, 59249.00
1090.928, 48865.00
1092.027, 36610.00
1093.126, 23770.00
1094.224, 14579.00
1095.323, 10379.00
1096.421, 8854.000
1097.519, 8228.000
1098.617, 7831.000
1099.715, 7705.000
1100.812, 7458.000
1101.910, 7393.000
1103.007, 7444.000
1104.104, 7361.000
1105.201, 7290.000
1106.298, 7208.000
1107.394, 7291.000
1108.491, 7238.000
1109.587, 7271.000
1110.683, 7227.000
1111.779, 7319.000
1112.875, 7250.000
1113.971, 7268.000
1115.066, 7289.000
1116.162, 7261.000
1117.257, 7182.000
1118.352, 7251.000
1119.447, 7303.000
1120.542, 7395.000
1121.636, 7388.171
1122.731, 7377.000
1123.825, 7384.000
1124.919, 7308.000
1126.013, 7313.000
1127.107, 7256.000
1128.200, 7308.000
1129.294, 7223.000
1130.387, 7275.000
1131.480, 7327.000
1132.573, 7264.000
1133.666, 7265.000
1134.759, 7222.000
1135.851, 7341.000
1136.944, 7272.000
1138.036, 7302.000
1139.128, 7336.000
1140.220, 7318.000
1141.312, 7329.000
1142.403, 7380.000
1143.495, 7355.000
1144.586, 7372.200
1145.677, 7333.000
1146.768, 7352.000
1147.859, 7390.000
1148.950, 7348.000
1150.040, 7307.000
1151.130, 7324.000
1152.221, 7372.000
1153.311, 7350.000
1154.401, 7367.699
1155.490, 7396.000
1156.580, 7362.000
1157.669, 7393.000
1158.759, 7388.000
1159.848, 7342.000
1160.937, 7445.000
1162.025, 7379.000
1163.114, 7334.000
1164.202, 7410.000
1165.291, 7323.000
1166.379, 7362.000
1167.467, 7401.000
1168.555, 7348.000
1169.642, 7305.000
1170.730, 7352.000
1171.817, 7404.000
1172.905, 7345.000
1173.992, 7326.000
1175.078, 7377.000
1176.165, 7442.000
1177.252, 7283.000
1178.338, 7443.000
1179.425, 7465.000
1180.511, 7351.000
1181.597, 7598.000
1182.682, 7402.000
1183.768, 7473.000
1184.854, 7456.000
1185.939, 7353.000
1187.024, 7384.000
1188.109, 7423.000
1189.194, 7472.000
1190.279, 7495.000
1191.363, 7427.000
1192.448, 7466.000
1193.532, 7523.000
1194.616, 7413.000
1195.700, 7498.000
1196.784, 7421.000
1197.867, 7411.000
1198.951, 7537.000
1200.034, 7459.000
1201.117, 7508.000
1202.200, 7461.000
1203.283, 7518.000
1204.366, 7493.000
1205.448, 7608.000
1206.531, 7575.000
1207.613, 7416.000
1208.695, 7567.000
1209.777, 7483.000
1210.859, 7489.000
1211.940, 7476.000
1213.022, 7521.000
1214.103, 7517.761
1215.184, 7635.000
1216.265, 7582.000
1217.346, 7495.000
1218.427, 7600.000
1219.507, 7621.000
1220.587, 7563.000
1221.668, 7596.000
1222.748, 7602.000
1223.828, 7536.000
1224.907, 7579.000
1225.987, 7605.000
1227.066, 7613.000
1228.146, 7575.000
1229.225, 7711.000
1230.304, 7629.000
1231.382, 7695.000
1232.461, 7648.000
1233.540, 7603.000
1234.618, 7563.000
1235.696, 7539.707
1236.774, 7619.000
1237.852, 7516.000
1238.930, 7657.000
1240.007, 7685.000
1241.085, 7588.000
1242.162, 7802.000
1243.239, 7643.000
1244.316, 7763.000
1245.393, 7668.000
1246.469, 7712.000
1247.546, 7713.000
1248.622, 7764.000
1249.698, 7735.000
1250.774, 7750.000
1251.850, 7628.000
1252.926, 7552.000
1254.001, 7580.839
1255.077, 7640.000
1256.152, 7636.000
1257.227, 7678.000
1258.302, 7743.000
1259.377, 7617.000
1260.451, 7803.000
1261.526, 7699.000
1262.600, 7771.000
1263.674, 7794.000
1264.748, 7593.000
1265.822, 7803.000
1266.896, 7802.000
1267.969, 7737.000
1269.043, 7748.000
1270.116, 7722.000
1271.189, 7797.000
1272.262, 7768.000
1273.335, 7770.000
1274.407, 7815.000
1275.480, 7800.000
1276.552, 7821.000
1277.624, 7783.000
1278.696, 7715.000
1279.768, 7730.000
