##NAMES=Sodalite
##RRUFFID=R060416
##IDEAL CHEMISTRY=Na_4_Si_3_Al_3_O_12_Cl
##LOCALITY=Koksha Valley, Badakshan Province, Afghanistan
##OWNER=RRUFF
##SOURCE=Herb Obodda
##DESCRIPTION=Colorless fragment
##STATUS=The identification of this mineral has been confirmed by X-ray diffraction and chemical analysis
##URL=rruff.info/R060416
##MEASURED CHEMISTRY=Na_8.00_Al_6.00_Si_6.00_O_24_Cl_2.00_
##PIN_ID=L01209
##ORIENTATION=Laser parallel to -a* (-1 0 0). Fiducial mark perpendicular to laser is parallel to b [0 1 0]
71.39200, 22996.00
72.63400, 22640.00
73.87600, 22668.00
75.11800, 22850.00
76.36000, 22645.00
77.60100, 22313.00
78.84200, 22015.00
80.08400, 21789.00
81.32500, 21937.00
82.56500, 21686.17
83.80600, 21671.60
85.04600, 21437.00
86.28700, 21511.00
87.52700, 21259.00
88.76700, 21067.00
90.00600, 21165.00
91.24600, 21069.06
92.48500, 21192.00
93.72500, 21079.00
94.96400, 21078.00
96.20300, 20914.00
97.44100, 20962.00
98.68000, 21249.00
99.91800, 21449.00
101.1560, 21755.00
102.3940, 22393.00
103.6320, 23103.00
104.8700, 23024.00
106.1070, 22543.00
107.3450, 21956.00
108.5820, 21487.00
109.8190, 21467.00
111.0550, 22027.00
112.2920, 22329.00
113.5290, 22320.00
114.7650, 22139.00
116.0010, 21254.00
117.2370, 20599.00
118.4730, 19887.00
119.7080, 19581.00
120.9440, 19615.00
122.1790, 19836.00
123.4140, 19849.00
124.6490, 19650.00
125.8830, 19419.00
127.1180, 19497.00
128.3520, 19614.00
129.5870, 19737.00
130.8210, 19745.00
132.0540, 19531.00
133.2880, 19398.00
134.5220, 19418.00
135.7550, 19375.00
136.9880, 19569.00
138.2210, 19727.78
139.4540, 19902.00
140.6860, 20352.00
141.9190, 20832.00
143.1510, 21425.00
144.3830, 22696.00
145.6150, 23847.00
146.8470, 25000.00
148.0790, 24819.00
149.3100, 24025.00
150.5410, 23439.00
151.7720, 23724.00
153.0030, 24114.00
154.2340, 25438.00
155.4640, 27280.00
156.6950, 29805.00
157.9250, 32957.00
159.1550, 37392.00
160.3850, 42593.00
161.6150, 48998.00
162.8440, 56518.00
164.0730, 64449.00
165.3030, 70114.00
166.5320, 71674.00
167.7600, 67592.00
168.9890, 60781.00
170.2180, 53224.00
171.4460, 45772.00
172.6740, 40315.00
173.9020, 35760.00
175.1300, 33021.00
176.3570, 30662.00
177.5850, 28654.00
178.8120, 27349.00
180.0390, 26342.00
181.2660, 24581.00
182.4930, 24070.00
183.7190, 23243.00
184.9460, 22740.00
186.1720, 22140.00
187.3980, 21884.00
188.6240, 21521.00
189.8500, 21379.00
191.0750, 20987.00
192.3010, 20945.00
193.5260, 20965.00
194.7510, 20753.00
195.9760, 20860.00
197.2000, 20845.00
198.4250, 21062.00
199.6490, 20857.00
200.8730, 21005.00
202.0970, 20903.00
203.3210, 20843.00
204.5450, 21114.00
205.7680, 21017.00
206.9920, 21229.00
208.2150, 21394.00
209.4380, 21403.00
210.6610, 21716.00
211.8830, 21511.00
213.1060, 22149.00
214.3280, 21895.00
215.5500, 22147.00
216.7720, 22423.00
217.9940, 22760.00
219.2150, 22735.00
220.4370, 23188.00
221.6580, 23561.00
222.8790, 24081.00
224.1000, 24625.00
225.3210, 25344.00
226.5410, 25896.00
227.7620, 26377.75
228.9820, 26945.00
230.2020, 27275.00
231.4220, 27603.00
232.6410, 28043.00
233.8610, 28234.00
235.0800, 28710.00
236.2990, 29038.00
237.5180, 29611.00
238.7370, 30548.00
239.9560, 30893.00
241.1750, 32122.00
242.3930, 33191.00
243.6110, 34383.00
244.8290, 36093.00
246.0470, 37985.00
247.2640, 40149.00
248.4820, 42831.00
249.6990, 45976.00
250.9160, 49765.00
252.1330, 53821.00
253.3500, 58911.00
254.5670, 64322.00
255.7830, 70898.00
256.9990, 76818.00
258.2160, 83772.00
259.4310, 89778.00
260.6470, 95846.00
261.8630, 99658.00
263.0780, 102473.0
264.2930, 102219.0
265.5090, 100282.0
266.7230, 95655.00
267.9380, 89951.00
269.1530, 83731.00
270.3670, 77294.00
271.5810, 71096.00
272.7950, 65310.00
274.0090, 60611.00
275.2230, 56427.00
276.4370, 53403.00
277.6500, 50193.00
278.8630, 47647.00
280.0760, 45890.00
281.2890, 44143.00
282.5020, 43218.00
283.7140, 42411.00
284.9270, 41749.00
286.1390, 41874.00
287.3510, 42063.00
288.5630, 42495.17
289.7740, 42992.00
290.9860, 44279.00
292.1970, 45636.00
293.4080, 47156.00
294.6190, 48079.00
295.8300, 48148.00
297.0410, 45883.00
298.2510, 41797.00
299.4610, 38183.00
300.6710, 34238.00
301.8810, 31793.00
303.0910, 29409.00
304.3010, 27891.00
305.5100, 27593.00
306.7200, 26089.00
307.9290, 25428.00
309.1380, 24714.00
310.3460, 24392.00
311.5550, 23984.00
312.7630, 23636.26
313.9720, 23623.00
315.1800, 23176.00
316.3880, 22993.00
317.5950, 22863.00
318.8030, 22598.00
320.0100, 22551.00
321.2180, 22383.00
322.4250, 22083.00
323.6320, 22123.00
324.8380, 22113.00
326.0450, 22116.00
327.2510, 21861.00
328.4570, 22046.00
329.6640, 21928.00
330.8690, 21601.00
332.0750, 21832.00
333.2810, 21781.00
334.4860, 21533.00
335.6910, 21626.00
336.8960, 21616.00
338.1010, 21386.00
339.3060, 21686.00
340.5100, 21688.00
341.7150, 21932.00
342.9190, 21923.25
344.1230, 21705.00
345.3270, 21851.00
346.5300, 21768.00
347.7340, 21657.00
348.9370, 21853.00
350.1400, 21741.00
351.3430, 21621.00
352.5460, 21666.00
353.7490, 21627.56
354.9510, 21706.00
356.1540, 21772.00
357.3560, 21639.00
358.5580, 21877.00
359.7600, 21645.00
360.9610, 21671.00
362.1630, 21770.00
363.3640, 21627.00
364.5650, 21876.00
365.7660, 21869.00
366.9670, 21615.00
368.1680, 21939.00
369.3680, 22120.00
370.5680, 21896.00
371.7680, 22036.00
372.9680, 22096.00
374.1680, 22228.00
375.3680, 22210.00
376.5670, 22392.00
377.7660, 22178.00
378.9660, 22576.00
380.1640, 22550.00
381.3630, 22466.00
382.5620, 22360.00
383.7600, 22550.00
384.9590, 22892.00
386.1570, 23051.00
387.3550, 23139.00
388.5520, 23191.00
389.7500, 23485.00
390.9470, 23445.00
392.1450, 23391.00
393.3420, 23804.00
394.5390, 24047.00
395.7350, 24317.00
396.9320, 24582.00
398.1280, 24789.00
399.3250, 25147.00
400.5210, 25889.00
401.7160, 26405.00
402.9120, 27188.00
404.1080, 28366.00
405.3030, 30048.00
406.4980, 31673.00
407.6930, 34237.00
408.8880, 36849.00
410.0830, 38052.00
411.2780, 37092.00
412.4720, 34344.00
413.6660, 32228.00
414.8600, 30299.00
416.0540, 29313.00
417.2480, 28692.00
418.4410, 28603.00
419.6350, 28559.00
420.8280, 28835.00
422.0210, 29055.00
423.2140, 29259.00
424.4070, 29734.00
425.5990, 30251.00
426.7920, 30730.00
427.9840, 31246.09
429.1760, 31626.00
430.3680, 32290.00
431.5590, 33034.00
432.7510, 33601.00
433.9420, 34409.00
435.1330, 35283.00
436.3240, 36424.00
437.5150, 37424.00
438.7060, 38815.00
439.8960, 40607.00
441.0870, 42576.00
442.2770, 45115.00
443.4670, 47506.00
444.6570, 51685.00
445.8470, 56039.00
447.0360, 60940.00
448.2250, 67818.00
449.4150, 76212.00
450.6040, 86515.00
451.7920, 99965.00
452.9810, 116460.0
454.1700, 137823.0
455.3580, 164246.0
456.5460, 195923.0
457.7340, 235290.0
458.9220, 280898.0
460.1100, 332960.0
461.2970, 386621.0
462.4850, 433126.0
463.6720, 461721.0
464.8590, 463233.0
466.0460, 432483.0
467.2320, 380970.0
468.4190, 320048.0
469.6050, 263727.0
470.7910, 214998.0
471.9770, 176708.0
473.1630, 147442.0
474.3490, 125471.0
475.5340, 108399.0
476.7200, 95340.00
477.9050, 85364.00
479.0900, 77110.00
480.2750, 70408.00
481.4590, 65256.00
482.6440, 60933.00
483.8280, 57549.00
485.0120, 54809.00
486.1960, 52580.00
487.3800, 50768.00
488.5640, 49388.76
489.7470, 48391.00
490.9310, 48045.00
492.1140, 48159.00
493.2970, 48755.00
494.4800, 49581.00
495.6620, 50925.00
496.8450, 51758.00
498.0270, 51855.00
499.2090, 49620.00
500.3910, 46726.00
501.5730, 43683.00
502.7550, 40628.00
503.9360, 38417.00
505.1170, 36686.00
506.2990, 35116.00
507.4800, 34361.00
508.6600, 33706.00
509.8410, 33481.00
511.0220, 33168.00
512.2020, 32962.00
513.3820, 32777.00
514.5620, 32615.00
515.7420, 32492.00
516.9220, 32387.00
518.1010, 32268.00
519.2800, 31842.00
520.4600, 32251.00
521.6390, 32013.00
522.8170, 31627.00
523.9960, 31688.00
525.1750, 31289.00
526.3530, 31024.00
527.5310, 30893.00
528.7090, 30861.00
529.8870, 30798.00
531.0650, 30874.00
532.2420, 30212.00
533.4190, 30263.00
534.5970, 29960.00
535.7740, 29883.00
536.9500, 29777.00
538.1270, 29730.00
539.3040, 29270.00
540.4800, 29413.00
541.6560, 29231.00
542.8320, 29069.00
544.0080, 29073.00
545.1840, 28914.00
546.3590, 28743.00
547.5340, 28556.00
548.7100, 28403.00
549.8850, 28725.00
551.0600, 28406.00
552.2340, 28252.00
553.4090, 28309.00
554.5830, 27962.00
555.7570, 28032.00
556.9310, 28079.00
558.1050, 27759.00
559.2790, 27716.00
560.4520, 27504.00
561.6260, 27436.00
562.7990, 27378.00
563.9720, 26968.00
565.1450, 27031.00
566.3170, 27331.00
567.4900, 27008.00
568.6620, 27074.00
569.8350, 27026.00
571.0070, 26868.00
572.1780, 27111.00
573.3500, 26882.00
574.5220, 26864.00
575.6930, 26788.00
576.8640, 26735.00
578.0350, 26886.00
579.2060, 27147.00
580.3770, 27112.00
581.5470, 27101.00
582.7180, 27313.00
583.8880, 27170.00
585.0580, 27340.00
586.2280, 27202.00
587.3980, 27284.00
588.5670, 27056.00
589.7370, 27069.00
590.9060, 27290.00
592.0750, 27282.00
593.2440, 27485.00
594.4130, 27262.00
595.5810, 27081.00
596.7500, 27230.00
597.9180, 27343.27
599.0860, 27546.00
600.2540, 27977.00
601.4220, 28331.00
602.5890, 28783.00
603.7570, 29129.00
604.9240, 29800.00
606.0910, 30237.00
607.2580, 30381.00
608.4250, 30368.06
609.5910, 30337.00
610.7580, 29703.00
611.9240, 29210.00
613.0900, 28531.00
614.2560, 28213.00
615.4220, 27959.00
616.5870, 27728.00
617.7530, 27643.33
618.9180, 27545.00
620.0830, 27639.00
621.2480, 27765.00
622.4130, 27910.00
623.5770, 27977.00
624.7420, 28177.00
625.9060, 28018.00
627.0700, 28016.00
628.2340, 27694.00
629.3980, 27628.00
630.5620, 27335.00
631.7250, 27404.00
632.8880, 26952.00
634.0510, 26670.00
635.2140, 26996.00
636.3770, 26750.00
637.5400, 26660.00
638.7020, 26444.00
639.8650, 26632.00
641.0270, 26736.00
642.1890, 26734.00
643.3510, 26806.00
644.5120, 26915.00
645.6740, 26749.00
646.8350, 27056.00
647.9960, 27005.00
649.1570, 27282.00
650.3180, 27058.00
651.4790, 27075.00
652.6390, 26765.00
653.8000, 26995.00
654.9600, 26704.00
656.1200, 26725.00
657.2800, 26440.00
658.4390, 26314.00
659.5990, 26176.00
660.7580, 26365.00
661.9170, 26024.00
663.0770, 26332.00
664.2350, 26041.00
665.3940, 26199.00
666.5530, 26126.00
667.7110, 26261.00
668.8690, 26202.00
670.0270, 26002.00
671.1850, 26480.00
672.3430, 26015.00
673.5000, 25927.00
674.6580, 26285.00
675.8150, 26274.00
676.9720, 26320.40
678.1290, 26301.32
679.2860, 26268.00
680.4420, 26218.00
681.5990, 25992.00
682.7550, 26285.00
683.9110, 26050.00
685.0670, 26269.00
686.2230, 26162.00
687.3790, 26362.00
688.5340, 26364.00
689.6890, 26307.00
690.8440, 26324.00
691.9990, 26158.00
693.1540, 26389.00
694.3090, 26451.00
695.4630, 26378.00
696.6170, 26608.00
697.7720, 26550.00
698.9260, 26601.00
700.0790, 26455.00
701.2330, 26714.00
702.3870, 26609.00
703.5400, 26607.00
704.6930, 26615.00
705.8460, 26745.00
706.9990, 26674.00
708.1510, 26947.00
709.3040, 27147.00
710.4560, 27199.00
711.6090, 27052.00
712.7610, 27011.00
713.9120, 27216.00
715.0640, 26874.00
716.2160, 26911.00
717.3670, 26532.00
718.5180, 26735.00
719.6690, 26861.00
720.8200, 26738.00
721.9710, 26793.00
723.1210, 27014.00
724.2720, 27101.00
725.4220, 27113.00
726.5720, 27598.00
727.7220, 28003.00
728.8720, 27668.00
730.0210, 27527.00
731.1710, 27753.00
732.3200, 27918.00
733.4690, 27920.00
734.6180, 27906.00
735.7670, 28069.00
736.9150, 27902.00
738.0640, 27944.00
739.2120, 28236.00
740.3600, 28173.00
741.5080, 28159.00
742.6560, 28188.00
743.8040, 28321.00
744.9510, 28364.00
746.0980, 28089.00
747.2450, 27877.00
748.3920, 28051.00
749.5390, 28074.00
750.6860, 27843.00
751.8320, 27786.00
752.9790, 27810.00
754.1250, 27605.00
755.2710, 27751.00
756.4170, 27710.00
757.5620, 27822.00
758.7080, 27879.00
759.8530, 27904.00
760.9990, 28091.00
762.1440, 28044.00
763.2880, 28108.57
764.4330, 27728.00
765.5780, 28041.00
766.7220, 28059.00
767.8660, 27810.00
769.0100, 28054.00
770.1540, 28005.00
771.2980, 28272.00
772.4420, 28212.00
773.5850, 28334.00
774.7280, 28193.00
775.8710, 28112.00
777.0140, 28495.00
778.1570, 28349.00
779.3000, 28570.00
780.4420, 28201.00
781.5840, 28404.00
782.7270, 28249.00
783.8690, 28382.00
785.0100, 28645.00
786.1520, 28393.00
787.2940, 28769.00
788.4350, 28649.00
789.5760, 28669.00
790.7170, 28579.00
791.8580, 28811.00
792.9980, 28763.00
794.1390, 28858.00
795.2790, 28648.00
796.4200, 28798.32
797.5600, 29050.00
798.6990, 28946.00
799.8390, 28784.00
800.9790, 28758.00
802.1180, 28725.00
803.2570, 28700.00
804.3960, 28919.00
805.5350, 28836.00
806.6740, 28852.00
807.8130, 28767.00
808.9510, 28869.00
810.0890, 28941.00
811.2270, 28953.00
812.3650, 28677.00
813.5030, 29230.00
814.6410, 29045.00
815.7780, 28853.00
816.9150, 29163.00
818.0530, 29197.00
819.1900, 29011.00
820.3260, 29146.00
821.4630, 29379.00
822.5990, 29435.00
823.7360, 29458.00
824.8720, 29236.00
826.0080, 29465.00
827.1440, 29209.00
828.2790, 29645.00
829.4150, 29452.00
830.5500, 29732.00
831.6860, 29642.00
832.8210, 29385.00
833.9560, 29696.00
835.0900, 29706.00
836.2250, 30002.00
837.3590, 29841.00
838.4930, 29796.00
839.6280, 29942.00
840.7610, 30260.00
841.8950, 30026.00
843.0290, 30326.00
844.1620, 30255.00
845.2950, 30327.00
846.4290, 30388.00
847.5620, 30459.75
848.6940, 30402.00
849.8270, 30706.00
850.9590, 30673.00
852.0920, 30817.00
853.2240, 31163.00
854.3560, 31235.00
855.4880, 31038.00
856.6190, 31359.00
857.7510, 31189.00
858.8820, 31805.00
860.0130, 31700.00
861.1450, 31625.00
862.2750, 31980.00
863.4060, 31940.00
864.5370, 31700.00
865.6670, 31937.00
866.7970, 31805.00
867.9270, 31848.00
869.0570, 32019.00
870.1870, 32006.00
871.3170, 31756.00
872.4460, 31898.00
873.5750, 31856.00
874.7040, 31967.00
875.8330, 32152.00
876.9620, 31818.00
878.0910, 31804.00
879.2190, 32054.00
880.3480, 31718.00
881.4760, 31904.00
882.6040, 31810.00
883.7320, 31601.00
884.8590, 31536.00
885.9870, 31649.00
887.1140, 31418.00
888.2410, 31352.00
889.3680, 31113.00
890.4950, 31278.00
891.6220, 31180.00
892.7490, 31399.00
893.8750, 31265.00
895.0010, 31369.00
896.1270, 31195.00
897.2530, 31276.00
898.3790, 31312.00
899.5050, 31447.00
900.6300, 31381.00
901.7550, 31306.00
902.8800, 31364.00
904.0050, 31389.00
905.1300, 31472.00
906.2550, 31619.00
907.3790, 31528.00
908.5040, 31598.00
909.6280, 31947.00
910.7520, 32092.00
911.8760, 31874.00
912.9990, 31755.00
914.1230, 31727.00
915.2460, 31550.00
916.3690, 31812.00
917.4930, 32018.00
918.6150, 31817.00
919.7380, 31943.00
920.8610, 32122.00
921.9830, 31920.00
923.1050, 32078.00
924.2280, 32066.41
925.3490, 32078.00
926.4710, 32161.00
927.5930, 32197.00
928.7140, 32368.00
929.8360, 32306.00
930.9570, 32551.00
932.0780, 32557.29
933.1990, 32465.00
934.3190, 32650.00
935.4400, 32654.00
936.5600, 32677.00
937.6800, 32924.00
938.8000, 32688.00
939.9200, 32798.00
941.0400, 33123.00
942.1600, 32967.00
943.2790, 33216.00
944.3980, 33200.00
945.5170, 33159.00
946.6360, 33331.00
947.7550, 33653.00
948.8740, 33212.00
949.9920, 33333.00
951.1100, 33849.00
952.2280, 33767.00
953.3460, 33890.00
954.4640, 34253.00
955.5820, 33830.00
956.6990, 33978.00
957.8170, 34372.00
958.9340, 34775.00
960.0510, 35036.00
961.1680, 35035.00
962.2850, 35313.00
963.4010, 35961.00
964.5170, 36033.00
965.6340, 36824.00
966.7500, 37209.00
967.8660, 37616.00
968.9810, 38313.00
970.0970, 39316.00
971.2130, 40153.00
972.3280, 41289.00
973.4430, 43007.00
974.5580, 44992.00
975.6730, 47946.00
976.7870, 52094.00
977.9020, 57265.00
979.0160, 65108.00
980.1300, 75782.00
981.2440, 89073.00
982.3580, 106758.0
983.4720, 129174.0
984.5860, 151646.0
985.6990, 169318.0
986.8120, 170627.0
987.9250, 154361.0
989.0380, 128278.0
990.1510, 102543.0
991.2630, 82944.00
992.3760, 68383.00
993.4880, 59488.00
994.6000, 53150.00
995.7120, 49110.00
996.8240, 46350.00
997.9360, 44375.00
999.0470, 43125.00
1000.159, 42128.00
1001.270, 41787.00
1002.381, 41332.00
1003.492, 40975.00
1004.602, 40325.00
1005.713, 40842.00
1006.823, 41254.00
1007.934, 41787.00
1009.044, 43160.00
1010.154, 44256.00
1011.263, 45179.00
1012.373, 45019.00
1013.482, 43700.00
1014.592, 41687.00
1015.701, 39782.00
1016.810, 38149.00
1017.919, 37275.00
1019.027, 36488.00
1020.136, 35826.00
1021.244, 35102.00
1022.352, 35325.00
1023.460, 34793.00
1024.568, 34695.00
1025.676, 34507.00
1026.784, 34379.00
1027.891, 34538.00
1028.998, 34522.00
1030.105, 34480.00
1031.212, 34347.00
1032.319, 34308.00
1033.426, 34149.00
1034.532, 34273.46
1035.638, 34380.78
1036.745, 34590.00
1037.851, 34801.00
1038.956, 35078.00
1040.062, 35312.00
1041.168, 35698.13
1042.273, 36337.00
1043.378, 36601.00
1044.483, 37436.00
1045.588, 38118.00
1046.693, 39386.00
1047.798, 40632.00
1048.902, 42586.00
1050.006, 44594.00
1051.110, 47149.00
1052.214, 50252.00
1053.318, 53202.00
1054.422, 56785.00
1055.525, 59089.00
1056.629, 61196.00
1057.732, 62015.00
1058.835, 61259.00
1059.938, 60395.00
1061.040, 58189.00
1062.143, 57035.00
1063.245, 55368.00
1064.348, 54565.00
1065.450, 52941.00
1066.552, 51668.00
1067.653, 50054.00
1068.755, 48189.00
1069.856, 46310.00
1070.958, 44536.00
1072.059, 42680.00
1073.160, 41797.00
1074.261, 40590.00
1075.361, 39409.00
1076.462, 39141.00
1077.562, 38443.00
1078.662, 37904.00
1079.762, 37474.00
1080.862, 37019.00
1081.962, 36726.00
1083.062, 36434.00
1084.161, 36217.00
1085.260, 35930.31
1086.359, 35701.88
1087.458, 35449.00
1088.557, 35283.00
1089.656, 35124.00
1090.754, 35011.46
1091.853, 35233.00
1092.951, 34872.00
1094.049, 34880.00
1095.147, 35107.00
1096.244, 34691.00
1097.342, 34957.00
1098.439, 34793.00
1099.537, 34499.00
1100.634, 34628.00
1101.731, 34719.00
1102.827, 34615.00
1103.924, 34883.00
1105.021, 34569.00
1106.117, 34682.00
1107.213, 34711.00
1108.309, 34577.00
1109.405, 34533.00
1110.501, 34613.00
1111.596, 34795.00
1112.691, 34861.00
1113.787, 34716.00
1114.882, 35026.00
1115.977, 34633.00
1117.071, 35088.00
1118.166, 34506.00
1119.260, 34377.00
1120.355, 34924.00
1121.449, 34547.00
1122.543, 35420.00
1123.637, 36267.00
1124.730, 34672.00
1125.824, 34631.00
1126.917, 34727.00
1128.010, 34832.00
1129.103, 34862.00
1130.196, 34729.00
1131.289, 35039.00
1132.382, 34795.00
1133.474, 35000.00
1134.566, 34762.00
1135.659, 34804.00
1136.750, 35049.00
1137.842, 34688.00
1138.934, 34651.00
1140.025, 35035.00
1141.117, 34483.00
1142.208, 34733.00
1143.299, 34736.00
1144.390, 34541.00
1145.481, 35018.00
1146.571, 35062.00
1147.662, 34916.00
1148.752, 34830.00
1149.842, 34769.00
1150.932, 35031.00
1152.022, 34947.00
1153.111, 35034.00
1154.201, 35083.00
1155.290, 34731.00
1156.379, 35115.00
1157.468, 35072.00
1158.557, 34797.00
1159.646, 35209.00
1160.734, 34952.00
1161.823, 35131.00
1162.911, 34903.00
1163.999, 35055.00
1165.087, 35067.22
1166.175, 35248.00
1167.262, 35114.00
1168.350, 35295.00
1169.437, 35226.00
1170.524, 35037.00
1171.611, 35041.00
1172.698, 35228.00
1173.785, 35227.00
1174.872, 35347.00
1175.958, 35223.00
1177.044, 35235.00
1178.130, 35292.00
1179.216, 35206.00
1180.302, 34912.00
1181.388, 35152.00
1182.473, 34987.00
1183.558, 35000.00
1184.644, 35149.00
1185.729, 35224.00
1186.813, 35182.00
1187.898, 35458.00
1188.983, 35090.00
1190.067, 35075.00
1191.151, 35188.00
1192.235, 35177.00
1193.319, 35325.00
1194.403, 35286.00
1195.487, 35354.00
1196.570, 35377.00
1197.653, 35378.00
1198.737, 35590.00
1199.820, 35489.00
1200.902, 35713.00
1201.985, 35617.00
1203.068, 35480.00
1204.150, 35800.00
1205.232, 35592.00
1206.314, 35464.00
1207.396, 35508.00
1208.478, 35748.00
1209.560, 35391.00
1210.641, 35638.00
1211.722, 35932.00
1212.804, 35747.00
1213.885, 35770.00
1214.965, 35844.00
1216.046, 35948.00
1217.127, 36137.00
1218.207, 36073.00
1219.287, 36129.10
1220.367, 35858.00
1221.447, 36087.00
1222.527, 35941.00
1223.607, 35931.00
1224.686, 35939.00
1225.765, 36076.00
1226.845, 36005.00
1227.924, 36288.00
1229.002, 36050.00
1230.081, 36435.00
1231.160, 36463.00
1232.238, 36391.00
1233.316, 36301.00
1234.394, 36586.00
1235.472, 36552.00
1236.550, 36299.00
1237.628, 36830.00
1238.705, 36801.00
1239.783, 36743.00
1240.860, 36669.00
1241.937, 36700.32
1243.014, 36671.43
1244.090, 36699.00
1245.167, 36778.00
1246.243, 36663.00
1247.319, 36889.00
1248.396, 36802.00
1249.471, 37082.00
1250.547, 37188.00
1251.623, 36962.00
1252.698, 36937.00
1253.774, 37315.00
1254.849, 36896.00
1255.924, 36979.00
