##NAMES=Sodalite
##RRUFFID=R060416
##IDEAL CHEMISTRY=Na_4_Si_3_Al_3_O_12_Cl
##LOCALITY=Koksha Valley, Badakshan Province, Afghanistan
##OWNER=RRUFF
##SOURCE=Herb Obodda
##DESCRIPTION=Colorless fragment
##STATUS=The identification of this mineral has been confirmed by X-ray diffraction and chemical analysis
##URL=rruff.info/R060416
##MEASURED CHEMISTRY=Na_8.00_Al_6.00_Si_6.00_O_24_Cl_2.00_
##PIN_ID=L01209
##ORIENTATION=Laser parallel to -a* (-1 0 0). Fiducial mark perpendicular to laser is parallel to b [0 1 0]
71.39200, 25750.00
72.63400, 25650.00
73.87600, 25445.00
75.11800, 25711.00
76.36000, 25412.00
77.60100, 24840.00
78.84200, 24841.00
80.08400, 24576.00
81.32500, 24415.00
82.56500, 24270.22
83.80600, 24425.00
85.04600, 23835.00
86.28700, 23843.00
87.52700, 23479.00
88.76700, 23647.00
90.00600, 23891.00
91.24600, 24051.00
92.48500, 23962.00
93.72500, 24175.00
94.96400, 24369.00
96.20300, 24717.00
97.44100, 24953.00
98.68000, 26013.00
99.91800, 27057.00
101.1560, 27926.00
102.3940, 28574.00
103.6320, 29141.00
104.8700, 29396.00
106.1070, 29778.00
107.3450, 30116.00
108.5820, 31325.00
109.8190, 33375.00
111.0550, 37032.00
112.2920, 41706.00
113.5290, 43070.00
114.7650, 39670.00
116.0010, 33962.00
117.2370, 29920.00
118.4730, 26403.00
119.7080, 23908.00
120.9440, 22515.00
122.1790, 22557.00
123.4140, 22217.00
124.6490, 22118.00
125.8830, 21983.00
127.1180, 22448.00
128.3520, 22927.00
129.5870, 24248.00
130.8210, 25144.00
132.0540, 24639.00
133.2880, 23275.00
134.5220, 22198.00
135.7550, 21455.00
136.9880, 21037.00
138.2210, 20572.00
139.4540, 20781.00
140.6860, 20906.00
141.9190, 20904.00
143.1510, 21099.00
144.3830, 21296.00
145.6150, 22161.00
146.8470, 22691.00
148.0790, 22942.00
149.3100, 22697.00
150.5410, 23106.00
151.7720, 23415.00
153.0030, 24613.00
154.2340, 25823.00
155.4640, 28017.00
156.6950, 30402.00
157.9250, 33677.00
159.1550, 38138.00
160.3850, 43409.00
161.6150, 50145.00
162.8440, 57418.00
164.0730, 65734.00
165.3030, 72063.00
166.5320, 74676.00
167.7600, 71408.00
168.9890, 64673.00
170.2180, 56730.00
171.4460, 49353.00
172.6740, 43642.00
173.9020, 39285.00
175.1300, 36244.00
176.3570, 34029.00
177.5850, 32925.00
178.8120, 31369.00
180.0390, 30434.00
181.2660, 28637.00
182.4930, 27696.00
183.7190, 26525.00
184.9460, 25335.00
186.1720, 24428.00
187.3980, 23868.00
188.6240, 23153.00
189.8500, 22758.00
191.0750, 22225.00
192.3010, 22176.00
193.5260, 22080.00
194.7510, 21922.00
195.9760, 21695.00
197.2000, 21874.00
198.4250, 21780.00
199.6490, 21671.00
200.8730, 22003.00
202.0970, 21555.00
203.3210, 21714.00
204.5450, 21889.00
205.7680, 21899.00
206.9920, 22089.00
208.2150, 22297.00
209.4380, 22518.00
210.6610, 22587.00
211.8830, 22446.00
213.1060, 22864.00
214.3280, 23025.00
215.5500, 22970.00
216.7720, 23419.00
217.9940, 23494.00
219.2150, 23645.00
220.4370, 24058.00
221.6580, 24574.00
222.8790, 25084.00
224.1000, 25598.32
225.3210, 26339.00
226.5410, 26809.00
227.7620, 27587.00
228.9820, 28465.00
230.2020, 29543.00
231.4220, 30371.00
232.6410, 31169.00
233.8610, 31832.00
235.0800, 32293.00
236.2990, 32411.00
237.5180, 33030.00
238.7370, 33027.00
239.9560, 33335.00
241.1750, 34319.00
242.3930, 35031.00
243.6110, 35916.00
244.8290, 37959.00
246.0470, 39451.00
247.2640, 41620.00
248.4820, 44217.00
249.6990, 47410.00
250.9160, 51260.00
252.1330, 55612.00
253.3500, 60292.00
254.5670, 66307.00
255.7830, 72460.00
256.9990, 79126.00
258.2160, 85208.00
259.4310, 92006.00
260.6470, 98528.00
261.8630, 102858.0
263.0780, 105991.0
264.2930, 107115.0
265.5090, 104740.0
266.7230, 100440.0
267.9380, 94935.00
269.1530, 88395.00
270.3670, 82078.00
271.5810, 75845.00
272.7950, 69873.00
274.0090, 65149.00
275.2230, 60892.00
276.4370, 57296.00
277.6500, 54134.00
278.8630, 52146.00
280.0760, 50384.00
281.2890, 49097.00
282.5020, 48456.00
283.7140, 48352.00
284.9270, 48108.00
286.1390, 48789.00
287.3510, 49923.00
288.5630, 51264.00
289.7740, 52866.00
290.9860, 55631.00
292.1970, 58596.00
293.4080, 61623.00
294.6190, 63982.00
295.8300, 63915.00
297.0410, 61065.00
298.2510, 55896.00
299.4610, 50384.00
300.6710, 44544.00
301.8810, 39779.00
303.0910, 35858.00
304.3010, 33857.00
305.5100, 31346.00
306.7200, 29641.00
307.9290, 28682.00
309.1380, 27624.00
310.3460, 26736.00
311.5550, 26158.57
312.7630, 25481.77
313.9720, 25295.00
315.1800, 24840.00
316.3880, 24646.00
317.5950, 24422.15
318.8030, 24252.00
320.0100, 24022.00
321.2180, 23825.91
322.4250, 23764.00
323.6320, 23471.00
324.8380, 23260.00
326.0450, 23194.00
327.2510, 23344.00
328.4570, 23036.00
329.6640, 22994.00
330.8690, 23234.00
332.0750, 22933.92
333.2810, 22964.00
334.4860, 22709.00
335.6910, 22732.00
336.8960, 22750.00
338.1010, 22499.00
339.3060, 22658.00
340.5100, 22657.00
341.7150, 22841.00
342.9190, 22764.00
344.1230, 22693.00
345.3270, 22880.00
346.5300, 22823.00
347.7340, 22824.00
348.9370, 22734.16
350.1400, 22724.51
351.3430, 22708.88
352.5460, 22673.00
353.7490, 22741.00
354.9510, 22721.00
356.1540, 22834.00
357.3560, 22870.39
358.5580, 22922.97
359.7600, 23010.00
360.9610, 23060.00
362.1630, 23156.00
363.3640, 23260.00
364.5650, 23325.00
365.7660, 23583.00
366.9670, 23858.00
368.1680, 24104.00
369.3680, 24272.63
370.5680, 24573.00
371.7680, 24470.00
372.9680, 24508.00
374.1680, 24377.00
375.3680, 24141.00
376.5670, 23828.00
377.7660, 23627.00
378.9660, 23714.00
380.1640, 23516.00
381.3630, 23616.00
382.5620, 23490.00
383.7600, 23545.00
384.9590, 23776.00
386.1570, 23991.00
387.3550, 24013.00
388.5520, 24207.00
389.7500, 24343.00
390.9470, 24431.00
392.1450, 24534.35
393.3420, 24603.00
394.5390, 24733.00
395.7350, 24871.00
396.9320, 25136.00
398.1280, 25350.00
399.3250, 25492.00
400.5210, 25874.00
401.7160, 26015.00
402.9120, 26662.00
404.1080, 27097.00
405.3030, 27995.00
406.4980, 28751.00
407.6930, 29842.00
408.8880, 30686.00
410.0830, 31316.00
411.2780, 31554.00
412.4720, 30473.00
413.6660, 29738.00
414.8600, 29441.00
416.0540, 29001.00
417.2480, 29153.00
418.4410, 29170.00
419.6350, 29560.00
420.8280, 29667.00
422.0210, 30104.00
423.2140, 30341.00
424.4070, 30775.00
425.5990, 31482.00
426.7920, 31964.00
427.9840, 32564.00
429.1760, 33153.00
430.3680, 33691.00
431.5590, 34699.00
432.7510, 35615.00
433.9420, 36275.00
435.1330, 37564.00
436.3240, 38693.00
437.5150, 40316.00
438.7060, 42143.00
439.8960, 44475.00
441.0870, 47261.00
442.2770, 50286.00
443.4670, 54480.00
444.6570, 59373.00
445.8470, 65174.00
447.0360, 72129.00
448.2250, 79967.00
449.4150, 88113.00
450.6040, 97043.00
451.7920, 108081.0
452.9810, 122739.0
454.1700, 142193.0
455.3580, 167159.0
456.5460, 198220.0
457.7340, 237064.0
458.9220, 282450.0
460.1100, 335304.0
461.2970, 390562.0
462.4850, 440705.0
463.6720, 475070.0
464.8590, 478649.0
466.0460, 451691.0
467.2320, 400346.0
468.4190, 338244.0
469.6050, 278099.0
470.7910, 226613.0
471.9770, 186583.0
473.1630, 155311.0
474.3490, 131520.0
475.5340, 113839.0
476.7200, 100076.0
477.9050, 89631.00
479.0900, 81353.00
480.2750, 75024.00
481.4590, 69778.00
482.6440, 66523.00
483.8280, 63529.00
485.0120, 61835.00
486.1960, 61204.00
487.3800, 59877.00
488.5640, 58575.00
489.7470, 55536.00
490.9310, 52219.00
492.1140, 49116.00
493.2970, 47008.00
494.4800, 45743.00
495.6620, 44695.00
496.8450, 44060.00
498.0270, 43144.00
499.2090, 41880.00
500.3910, 40398.00
501.5730, 39203.00
502.7550, 37702.00
503.9360, 36735.00
505.1170, 35582.00
506.2990, 35024.00
507.4800, 34380.00
508.6600, 34247.00
509.8410, 33851.00
511.0220, 33756.00
512.2020, 33512.00
513.3820, 33532.00
514.5620, 33407.00
515.7420, 33448.00
516.9220, 33304.00
518.1010, 33223.00
519.2800, 33101.00
520.4600, 33116.00
521.6390, 33047.00
522.8170, 32621.00
523.9960, 32696.00
525.1750, 32437.00
526.3530, 32109.00
527.5310, 31936.00
528.7090, 31867.00
529.8870, 31537.00
531.0650, 31515.00
532.2420, 31303.00
533.4190, 31201.00
534.5970, 31073.00
535.7740, 30952.00
536.9500, 30835.00
538.1270, 30502.00
539.3040, 30191.00
540.4800, 30431.00
541.6560, 30065.00
542.8320, 30034.00
544.0080, 30305.00
545.1840, 29794.00
546.3590, 29659.00
547.5340, 29603.00
548.7100, 29646.00
549.8850, 29447.00
551.0600, 29370.00
552.2340, 29150.00
553.4090, 29262.00
554.5830, 28947.00
555.7570, 28953.00
556.9310, 28871.00
558.1050, 28655.00
559.2790, 28677.00
560.4520, 28516.00
561.6260, 28311.00
562.7990, 28212.00
563.9720, 28214.00
565.1450, 27798.00
566.3170, 28021.00
567.4900, 27861.00
568.6620, 27985.00
569.8350, 28115.00
571.0070, 27697.00
572.1780, 27774.00
573.3500, 28034.00
574.5220, 28039.00
575.6930, 27723.00
576.8640, 27771.00
578.0350, 27697.00
579.2060, 27970.00
580.3770, 28151.00
581.5470, 27935.00
582.7180, 27791.00
583.8880, 27959.00
585.0580, 27965.00
586.2280, 28069.00
587.3980, 28046.00
588.5670, 28170.00
589.7370, 28109.00
590.9060, 28018.00
592.0750, 27849.00
593.2440, 27922.00
594.4130, 28050.00
595.5810, 28013.00
596.7500, 28041.00
597.9180, 28312.00
599.0860, 27949.00
600.2540, 28203.00
601.4220, 28360.00
602.5890, 28165.00
603.7570, 28420.00
604.9240, 28731.00
606.0910, 28811.00
607.2580, 28784.00
608.4250, 28903.00
609.5910, 28859.00
610.7580, 28425.00
611.9240, 28405.00
613.0900, 28298.00
614.2560, 28090.00
615.4220, 28174.00
616.5870, 28038.00
617.7530, 28149.00
618.9180, 28271.00
620.0830, 28394.00
621.2480, 28498.00
622.4130, 28725.00
623.5770, 29293.00
624.7420, 29254.00
625.9060, 29272.00
627.0700, 29208.00
628.2340, 28889.00
629.3980, 28513.00
630.5620, 28253.00
631.7250, 28280.00
632.8880, 27795.00
634.0510, 27515.00
635.2140, 27688.00
636.3770, 27420.00
637.5400, 27646.00
638.7020, 27463.00
639.8650, 27454.00
641.0270, 27647.00
642.1890, 28017.00
643.3510, 27732.00
644.5120, 27756.00
645.6740, 28085.00
646.8350, 28046.00
647.9960, 28098.00
649.1570, 27921.00
650.3180, 28113.00
651.4790, 27827.00
652.6390, 27970.00
653.8000, 27730.00
654.9600, 27724.00
656.1200, 27459.00
657.2800, 27321.00
658.4390, 27094.00
659.5990, 26998.00
660.7580, 27088.00
661.9170, 26957.00
663.0770, 27008.00
664.2350, 26871.00
665.3940, 26720.00
666.5530, 26733.00
667.7110, 26848.00
668.8690, 26869.00
670.0270, 27058.00
671.1850, 26996.00
672.3430, 27122.00
673.5000, 27022.00
674.6580, 27118.00
675.8150, 27138.30
676.9720, 27015.00
678.1290, 27154.00
679.2860, 26935.00
680.4420, 26815.00
681.5990, 26672.00
682.7550, 26928.00
683.9110, 26848.00
685.0670, 26953.00
686.2230, 26743.00
687.3790, 26776.00
688.5340, 26826.00
689.6890, 27000.00
690.8440, 26870.00
691.9990, 27000.00
693.1540, 27049.00
694.3090, 27282.00
695.4630, 26932.00
696.6170, 27264.00
697.7720, 27070.00
698.9260, 27283.00
700.0790, 27319.00
701.2330, 27464.00
702.3870, 27424.00
703.5400, 27528.00
704.6930, 27547.00
705.8460, 27669.00
706.9990, 27831.00
708.1510, 27916.00
709.3040, 28338.00
710.4560, 28030.00
711.6090, 28521.00
712.7610, 28576.00
713.9120, 28609.00
715.0640, 28582.00
716.2160, 28590.00
717.3670, 28686.00
718.5180, 28499.00
719.6690, 28226.00
720.8200, 28245.00
721.9710, 28287.00
723.1210, 28141.00
724.2720, 28182.00
725.4220, 28091.00
726.5720, 28383.00
727.7220, 28687.00
728.8720, 28766.00
730.0210, 28708.00
731.1710, 28964.00
732.3200, 29029.00
733.4690, 29312.00
734.6180, 29299.00
735.7670, 29478.00
736.9150, 30137.00
738.0640, 30396.00
739.2120, 30998.00
740.3600, 31583.00
741.5080, 31882.05
742.6560, 32458.00
743.8040, 32240.00
744.9510, 32133.00
746.0980, 31459.00
747.2450, 31715.00
748.3920, 30746.00
749.5390, 29804.00
750.6860, 29328.00
751.8320, 29051.00
752.9790, 29023.00
754.1250, 29120.00
755.2710, 28822.00
756.4170, 28638.00
757.5620, 29026.00
758.7080, 28685.00
759.8530, 28895.00
760.9990, 28810.00
762.1440, 28845.00
763.2880, 28824.00
764.4330, 28807.81
765.5780, 28889.00
766.7220, 28826.58
767.8660, 28835.00
769.0100, 28900.00
770.1540, 28849.00
771.2980, 28849.00
772.4420, 29060.00
773.5850, 28762.00
774.7280, 29040.00
775.8710, 28762.00
777.0140, 29090.00
778.1570, 29006.00
779.3000, 29123.00
780.4420, 28864.00
781.5840, 29316.00
782.7270, 29192.00
783.8690, 29488.00
785.0100, 29321.00
786.1520, 29138.00
787.2940, 29276.00
788.4350, 29306.00
789.5760, 29378.00
790.7170, 29340.00
791.8580, 29377.00
792.9980, 29425.99
794.1390, 29471.00
795.2790, 29557.00
796.4200, 29618.00
797.5600, 29601.31
798.6990, 29528.00
799.8390, 29536.00
800.9790, 29408.00
802.1180, 29335.00
803.2570, 29453.00
804.3960, 29567.00
805.5350, 29218.00
806.6740, 29190.00
807.8130, 29509.00
808.9510, 29483.00
810.0890, 29665.00
811.2270, 29725.00
812.3650, 29608.00
813.5030, 29963.00
814.6410, 29711.00
815.7780, 29757.00
816.9150, 29762.00
818.0530, 30039.00
819.1900, 30116.00
820.3260, 29913.00
821.4630, 29892.00
822.5990, 30055.00
823.7360, 30142.00
824.8720, 30181.00
826.0080, 30300.61
827.1440, 30193.00
828.2790, 30416.00
829.4150, 30315.00
830.5500, 30259.00
831.6860, 30448.00
832.8210, 30355.00
833.9560, 30485.00
835.0900, 30351.00
836.2250, 30451.00
837.3590, 30448.00
838.4930, 30660.00
839.6280, 30818.00
840.7610, 31026.00
841.8950, 31122.98
843.0290, 31044.00
844.1620, 31320.00
845.2950, 31280.00
846.4290, 31405.00
847.5620, 31287.00
848.6940, 31373.96
849.8270, 31424.00
850.9590, 31471.00
852.0920, 31672.00
853.2240, 31739.00
854.3560, 32030.00
855.4880, 32228.00
856.6190, 32525.00
857.7510, 32351.00
858.8820, 32492.00
860.0130, 32748.00
861.1450, 32833.00
862.2750, 33047.00
863.4060, 32719.00
864.5370, 32686.00
865.6670, 32847.00
866.7970, 32862.00
867.9270, 33020.00
869.0570, 32803.00
870.1870, 32598.00
871.3170, 32801.00
872.4460, 32867.00
873.5750, 32667.00
874.7040, 32581.00
875.8330, 32655.00
876.9620, 32644.00
878.0910, 32853.00
879.2190, 32727.00
880.3480, 32532.00
881.4760, 32635.00
882.6040, 32466.00
883.7320, 32631.00
884.8590, 32599.00
885.9870, 32313.00
887.1140, 31930.00
888.2410, 32216.00
889.3680, 32200.00
890.4950, 32010.00
891.6220, 32164.00
892.7490, 32254.00
893.8750, 32031.00
895.0010, 32094.00
896.1270, 32202.00
897.2530, 31963.00
898.3790, 31920.00
899.5050, 32159.00
900.6300, 31974.00
901.7550, 31993.00
902.8800, 32298.00
904.0050, 32076.00
905.1300, 32256.00
906.2550, 32384.00
907.3790, 32253.00
908.5040, 32279.00
909.6280, 32290.00
910.7520, 32254.92
911.8760, 32343.00
912.9990, 32314.00
914.1230, 32413.00
915.2460, 32560.00
916.3690, 32347.00
917.4930, 32382.00
918.6150, 32298.00
919.7380, 32507.00
920.8610, 32487.00
921.9830, 32483.00
923.1050, 32685.00
924.2280, 32634.00
925.3490, 32789.00
926.4710, 32951.00
927.5930, 32823.00
928.7140, 32818.00
929.8360, 32870.00
930.9570, 32915.00
932.0780, 32974.73
933.1990, 33001.00
934.3190, 33268.00
935.4400, 33200.00
936.5600, 33632.00
937.6800, 33359.00
938.8000, 33685.00
939.9200, 33470.00
941.0400, 33493.00
942.1600, 33611.00
943.2790, 33810.00
944.3980, 33758.00
945.5170, 33726.00
946.6360, 33992.00
947.7550, 34052.00
948.8740, 33967.00
949.9920, 34110.00
951.1100, 34236.06
952.2280, 34227.00
953.3460, 34605.00
954.4640, 34713.00
955.5820, 34872.00
956.6990, 34886.00
957.8170, 34989.00
958.9340, 35338.00
960.0510, 35684.00
961.1680, 35965.00
962.2850, 36296.00
963.4010, 37272.00
964.5170, 37930.00
965.6340, 37917.00
966.7500, 38768.00
967.8660, 39174.00
968.9810, 39793.00
970.0970, 40800.00
971.2130, 41402.00
972.3280, 42356.00
973.4430, 44004.00
974.5580, 46251.00
975.6730, 48996.00
976.7870, 53352.00
977.9020, 58912.00
979.0160, 66673.00
980.1300, 77515.00
981.2440, 90914.00
982.3580, 109953.0
983.4720, 133206.0
984.5860, 157808.0
985.6990, 177910.0
986.8120, 181866.0
987.9250, 165879.0
989.0380, 138533.0
990.1510, 110421.0
991.2630, 88446.00
992.3760, 73096.00
993.4880, 62495.00
994.6000, 55419.00
995.7120, 50794.00
996.8240, 47635.00
997.9360, 45387.00
999.0470, 43640.00
1000.159, 43290.00
1001.270, 42627.00
1002.381, 41959.00
1003.492, 41164.00
1004.602, 39847.00
1005.713, 39638.00
1006.823, 39499.00
1007.934, 39376.00
1009.044, 39599.00
1010.154, 39957.00
1011.263, 40159.00
1012.373, 39725.01
1013.482, 40495.00
1014.592, 38516.00
1015.701, 37472.00
1016.810, 36579.00
1017.919, 36109.00
1019.027, 35922.00
1020.136, 35346.00
1021.244, 35410.00
1022.352, 35271.00
1023.460, 35206.00
1024.568, 34927.00
1025.676, 35212.00
1026.784, 34652.00
1027.891, 34871.00
1028.998, 35217.00
1030.105, 34860.00
1031.212, 34630.00
1032.319, 34530.00
1033.426, 34499.00
1034.532, 34922.00
1035.638, 34820.00
1036.745, 35158.00
1037.851, 35119.00
1038.956, 35473.00
1040.062, 35726.00
1041.168, 35996.00
1042.273, 36347.00
1043.378, 36809.43
1044.483, 37430.78
1045.588, 37958.00
1046.693, 38951.00
1047.798, 39787.00
1048.902, 40712.00
1050.006, 42354.00
1051.110, 44165.00
1052.214, 46318.00
1053.318, 48879.00
1054.422, 51297.00
1055.525, 53568.00
1056.629, 55810.00
1057.732, 58348.00
1058.835, 60570.00
1059.938, 63018.00
1061.040, 65472.00
1062.143, 68677.00
1063.245, 71488.00
1064.348, 74978.00
1065.450, 76115.00
1066.552, 75885.00
1067.653, 73644.00
1068.755, 70481.00
1069.856, 65876.00
1070.958, 61355.00
1072.059, 56921.00
1073.160, 54033.00
1074.261, 50508.00
1075.361, 48571.00
1076.462, 46798.00
1077.562, 44864.00
1078.662, 43505.00
1079.762, 42373.00
1080.862, 41539.00
1081.962, 40567.00
1083.062, 40146.00
1084.161, 39369.00
1085.260, 39034.00
1086.359, 38198.00
1087.458, 37642.00
1088.557, 37661.00
1089.656, 37315.00
1090.754, 36957.00
1091.853, 36603.00
1092.951, 36335.00
1094.049, 36266.00
1095.147, 36114.00
1096.244, 36012.00
1097.342, 35840.00
1098.439, 35792.00
1099.537, 38549.00
1100.634, 38993.00
1101.731, 36965.00
1102.827, 35443.00
1103.924, 35290.00
1105.021, 36129.00
1106.117, 36250.00
1107.213, 35477.00
1108.309, 35141.00
1109.405, 35373.00
1110.501, 35103.00
1111.596, 35326.00
1112.691, 35106.00
1113.787, 34893.00
1114.882, 35167.00
1115.977, 35072.00
1117.071, 35224.00
1118.166, 34864.00
1119.260, 34841.00
1120.355, 34811.00
1121.449, 34890.00
1122.543, 35230.00
1123.637, 34987.00
1124.730, 35060.00
1125.824, 34930.00
1126.917, 34900.00
1128.010, 34886.00
1129.103, 35083.00
1130.196, 35157.00
1131.289, 35408.00
1132.382, 35061.00
1133.474, 35347.00
1134.566, 34860.00
1135.659, 34931.00
1136.750, 35028.00
1137.842, 34791.00
1138.934, 35076.00
1140.025, 34905.00
1141.117, 34838.00
1142.208, 34758.00
1143.299, 34804.00
1144.390, 34757.00
1145.481, 34789.00
1146.571, 34824.00
1147.662, 34906.00
1148.752, 34755.00
1149.842, 34933.00
1150.932, 34886.75
1152.022, 35102.00
1153.111, 35007.00
1154.201, 34923.00
1155.290, 35185.00
1156.379, 34972.00
1157.468, 34769.00
1158.557, 35066.00
1159.646, 35131.00
1160.734, 34902.00
1161.823, 34807.00
1162.911, 34887.00
1163.999, 35507.00
1165.087, 36398.00
1166.175, 35822.92
1167.262, 35017.00
1168.350, 34878.00
1169.437, 35470.00
1170.524, 34972.00
1171.611, 35128.00
1172.698, 34853.00
1173.785, 35081.00
1174.872, 34957.00
1175.958, 35068.00
1177.044, 34920.00
1178.130, 35068.00
1179.216, 35086.00
1180.302, 34922.00
1181.388, 34901.00
1182.473, 34795.00
1183.558, 34849.00
1184.644, 34726.00
1185.729, 35007.00
1186.813, 35245.00
1187.898, 35250.00
1188.983, 35092.00
1190.067, 34959.00
1191.151, 34750.00
1192.235, 34747.00
1193.319, 34856.00
1194.403, 34986.00
1195.487, 34955.00
1196.570, 35057.89
1197.653, 35142.00
1198.737, 35085.00
1199.820, 35028.00
1200.902, 34890.00
1201.985, 35135.00
1203.068, 35236.00
1204.150, 35310.00
1205.232, 35171.00
1206.314, 35180.00
1207.396, 35165.00
1208.478, 35078.00
1209.560, 35288.00
1210.641, 35039.00
1211.722, 35095.00
1212.804, 35589.00
1213.885, 35653.00
1214.965, 35552.00
1216.046, 35629.00
1217.127, 35619.00
1218.207, 35506.00
1219.287, 35504.00
1220.367, 35382.00
1221.447, 35537.00
1222.527, 35512.00
1223.607, 35603.00
1224.686, 35720.00
1225.765, 35701.00
1226.845, 35653.00
1227.924, 35925.00
1229.002, 35679.00
1230.081, 36227.00
1231.160, 35742.00
1232.238, 36167.00
1233.316, 36076.00
1234.394, 36229.00
1235.472, 36253.00
1236.550, 36521.00
1237.628, 36316.00
1238.705, 36481.00
1239.783, 36273.00
1240.860, 36211.00
1241.937, 36123.00
1243.014, 36107.00
1244.090, 36237.00
1245.167, 36297.00
1246.243, 36169.00
1247.319, 36399.00
1248.396, 36277.00
1249.471, 36533.00
1250.547, 36600.00
1251.623, 36491.00
1252.698, 36236.00
1253.774, 36663.00
1254.849, 36287.00
1255.924, 36487.00
