##NAMES=Sodalite
##RRUFFID=R060435
##IDEAL CHEMISTRY=Na_4_Si_3_Al_3_O_12_Cl
##LOCALITY=Koksha Valley, Badakshan Province, Afghanistan
##OWNER=RRUFF
##SOURCE=Herb Obodda
##DESCRIPTION=Pale purple fragment
##STATUS=The identification of this mineral has been confirmed by X-ray diffraction and chemical analysis
##URL=rruff.info/R060435
##MEASURED CHEMISTRY=(Na_0.99_K_0.01_)_8_Al_6.00_Si_6.00_O_24_Cl_2_
##PIN_ID=L00857
##ORIENTATION=Laser parallel to a* (1 0 0). Fiducial mark perpendicular to laser is parallel to b [0 1 0]
69.76100, 234573.0
71.00100, 235521.0
72.24000, 236857.0
73.47900, 237310.0
74.71800, 238319.0
75.95700, 239421.0
77.19600, 240135.0
78.43500, 241099.0
79.67300, 241926.0
80.91200, 242471.0
82.15000, 243421.0
83.38800, 243715.0
84.62600, 244844.0
85.86300, 244758.0
87.10100, 245571.0
88.33800, 246124.0
89.57500, 246270.0
90.81200, 246794.0
92.04900, 248060.0
93.28600, 248418.0
94.52300, 249447.0
95.75900, 249679.0
96.99500, 250366.0
98.23100, 250800.0
99.46700, 251988.0
100.7030, 252084.0
101.9390, 253402.0
103.1740, 253686.0
104.4090, 254397.0
105.6440, 255660.0
106.8790, 256227.0
108.1140, 256519.0
109.3490, 256722.0
110.5830, 257356.0
111.8180, 256863.0
113.0520, 257922.0
114.2860, 259157.0
115.5200, 259602.0
116.7530, 259565.0
117.9870, 259293.0
119.2200, 259626.0
120.4530, 260101.0
121.6860, 260295.0
122.9190, 260888.0
124.1520, 261337.0
125.3850, 261260.0
126.6170, 262125.0
127.8490, 262411.0
129.0810, 263829.0
130.3130, 263652.0
131.5450, 264718.0
132.7770, 265598.0
134.0080, 265763.0
135.2390, 266528.0
136.4710, 267077.0
137.7020, 267838.0
138.9320, 267977.0
140.1630, 269289.0
141.3930, 269319.0
142.6240, 270617.0
143.8540, 271060.0
145.0840, 272620.0
146.3140, 272115.0
147.5440, 273969.0
148.7730, 273336.0
150.0020, 274011.0
151.2320, 274330.0
152.4610, 275338.0
153.6900, 276286.0
154.9180, 276029.0
156.1470, 277559.0
157.3750, 278769.0
158.6040, 279759.0
159.8320, 282181.0
161.0600, 282454.0
162.2870, 284552.0
163.5150, 286676.0
164.7420, 288122.0
165.9700, 288563.0
167.1970, 288455.0
168.4240, 287968.0
169.6510, 287350.0
170.8770, 286637.0
172.1040, 285348.0
173.3300, 285380.0
174.5560, 284654.0
175.7820, 284416.0
177.0080, 284676.0
178.2340, 285260.0
179.4590, 284742.0
180.6850, 284598.0
181.9100, 285924.0
183.1350, 285329.0
184.3600, 285887.0
185.5850, 286333.0
186.8090, 286266.0
188.0340, 287229.0
189.2580, 287496.0
190.4820, 287861.0
191.7060, 289023.0
192.9300, 289142.0
194.1530, 288973.0
195.3770, 289346.0
196.6000, 290191.0
197.8230, 290716.0
199.0460, 291672.0
200.2690, 292156.7
201.4910, 292663.2
202.7140, 293121.0
203.9360, 293524.0
205.1580, 293779.0
206.3800, 294244.0
207.6020, 295327.0
208.8240, 294773.0
210.0450, 296512.0
211.2670, 295138.0
212.4880, 296916.0
213.7090, 296856.0
214.9300, 297402.0
216.1510, 297725.0
217.3710, 298447.0
218.5920, 298454.0
219.8120, 299651.0
221.0320, 300794.0
222.2520, 300163.0
223.4720, 301919.0
224.6910, 301863.0
225.9110, 302475.0
227.1300, 302587.0
228.3490, 303849.0
229.5680, 303735.0
230.7870, 304925.0
232.0050, 305162.0
233.2240, 306166.0
234.4420, 306165.0
235.6600, 307265.0
236.8780, 306652.0
238.0960, 307732.0
239.3140, 308621.0
240.5310, 309545.0
241.7490, 310062.0
242.9660, 311312.0
244.1830, 311075.0
245.4000, 312616.0
246.6160, 313214.0
247.8330, 314118.0
249.0490, 315615.0
250.2660, 317339.0
251.4820, 318099.0
252.6980, 320603.0
253.9130, 321687.0
255.1290, 322842.0
256.3440, 324182.0
257.5600, 327046.0
258.7750, 328257.0
259.9900, 330509.0
261.2040, 332118.0
262.4190, 332519.0
263.6330, 333471.0
264.8480, 333407.0
266.0620, 332708.0
267.2760, 332114.0
268.4900, 330050.0
269.7030, 330296.0
270.9170, 329019.0
272.1300, 329449.0
273.3430, 327483.0
274.5560, 326791.0
275.7690, 326062.0
276.9820, 325768.0
278.1940, 326049.0
279.4070, 325921.0
280.6190, 326486.0
281.8310, 326200.0
283.0430, 326629.0
284.2550, 326294.0
285.4660, 326389.0
286.6770, 327558.0
287.8890, 328330.0
289.1000, 328136.0
290.3110, 328557.0
291.5210, 329177.0
292.7320, 330513.0
293.9420, 331268.0
295.1530, 331669.0
296.3630, 332326.0
297.5730, 332816.0
298.7830, 332094.0
299.9920, 331856.0
301.2020, 331607.0
302.4110, 331314.4
303.6200, 331408.7
304.8290, 331234.0
306.0380, 331604.0
307.2470, 332044.0
308.4550, 332082.0
309.6630, 332783.0
310.8720, 333769.0
312.0800, 333342.0
313.2880, 334040.0
314.4950, 334659.0
315.7030, 334048.0
316.9100, 335556.0
318.1170, 335547.0
319.3240, 335921.0
320.5310, 337026.0
321.7380, 336523.0
322.9450, 337875.0
324.1510, 337156.0
325.3570, 338423.0
326.5630, 338710.0
327.7690, 339220.0
328.9750, 339686.0
330.1810, 340428.0
331.3860, 340410.0
332.5910, 341172.0
333.7960, 342241.0
335.0010, 341649.0
336.2060, 341815.0
337.4110, 342797.0
338.6150, 343246.0
339.8200, 344321.0
341.0240, 344559.0
342.2280, 344933.0
343.4320, 345073.0
344.6350, 345158.0
345.8390, 345363.3
347.0420, 346132.0
348.2450, 346136.0
349.4480, 347344.0
350.6510, 347662.0
351.8540, 348614.0
353.0560, 348801.0
354.2590, 349185.0
355.4610, 349829.0
356.6630, 350102.0
357.8650, 351345.0
359.0670, 351140.0
360.2680, 351778.0
361.4700, 351772.0
362.6710, 352098.0
363.8720, 352891.0
365.0730, 353075.0
366.2740, 353345.0
367.4740, 354398.0
368.6750, 354621.0
369.8750, 355696.0
371.0750, 354962.0
372.2750, 356135.0
373.4750, 356315.0
374.6740, 355755.0
375.8740, 357181.0
377.0730, 357834.0
378.2720, 358154.0
379.4710, 358768.0
380.6700, 359468.0
381.8690, 359913.3
383.0670, 360005.0
384.2660, 361152.0
385.4640, 360817.0
386.6620, 361641.0
387.8600, 361506.0
389.0570, 362209.0
390.2550, 361925.0
391.4520, 363281.0
392.6490, 363606.0
393.8460, 363375.0
395.0430, 364177.0
396.2400, 365108.0
397.4370, 365530.0
398.6330, 365853.0
399.8290, 366914.0
401.0250, 367241.0
402.2210, 367699.0
403.4170, 368557.0
404.6130, 368875.0
405.8080, 370392.0
407.0030, 370687.0
408.1980, 372203.0
409.3930, 372921.0
410.5880, 372759.0
411.7830, 373130.0
412.9770, 372929.0
414.1720, 374433.0
415.3660, 374520.0
416.5600, 374979.0
417.7530, 374687.0
418.9470, 374887.0
420.1410, 375223.0
421.3340, 375909.0
422.5270, 376778.0
423.7200, 377190.0
424.9130, 377097.0
426.1060, 377191.0
427.2980, 378143.0
428.4900, 378432.0
429.6830, 379013.0
430.8750, 379796.6
432.0670, 380183.0
433.2580, 381443.0
434.4500, 381602.0
435.6410, 382761.0
436.8320, 383355.0
438.0240, 384119.0
439.2140, 384701.0
440.4050, 385584.0
441.5960, 386985.0
442.7860, 388308.0
443.9760, 389579.8
445.1670, 390771.0
446.3560, 392372.0
447.5460, 394530.0
448.7360, 395976.0
449.9250, 399901.0
451.1150, 403345.0
452.3040, 407479.0
453.4930, 413259.0
454.6810, 420292.0
455.8700, 427376.0
457.0590, 437509.0
458.2470, 448667.0
459.4350, 458473.0
460.6230, 471756.0
461.8110, 480975.0
462.9980, 487998.0
464.1860, 488878.0
465.3730, 482815.0
466.5600, 472807.0
467.7470, 460238.0
468.9340, 448720.0
470.1210, 439368.0
471.3080, 430790.0
472.4940, 424671.0
473.6800, 419388.0
474.8660, 416763.0
476.0520, 413016.0
477.2380, 411106.0
478.4230, 408891.0
479.6090, 408130.0
480.7940, 407314.0
481.9790, 406510.0
483.1640, 406419.0
484.3490, 405886.0
485.5330, 406334.0
486.7180, 404625.0
487.9020, 405489.0
489.0860, 405267.0
490.2700, 406566.0
491.4540, 406917.0
492.6370, 407067.0
493.8210, 406639.0
495.0040, 407712.0
496.1870, 408410.0
497.3700, 409671.0
498.5530, 408857.0
499.7360, 408757.0
500.9180, 408596.0
502.1000, 407946.0
503.2830, 408039.0
504.4650, 408084.0
505.6460, 408426.0
506.8280, 408407.0
508.0100, 408457.0
509.1910, 409713.0
510.3720, 409012.0
511.5530, 410161.0
512.7340, 410186.0
513.9150, 411091.0
515.0950, 411263.8
516.2760, 411747.0
517.4560, 411685.0
518.6360, 411407.0
519.8160, 411873.0
520.9950, 412769.0
522.1750, 412374.0
523.3540, 414307.0
524.5340, 413962.0
525.7130, 413826.0
526.8920, 414886.0
528.0700, 414746.0
529.2490, 415287.0
530.4270, 415254.0
531.6060, 416406.0
532.7840, 417252.0
533.9620, 416048.0
535.1390, 417540.0
536.3170, 418109.0
537.4940, 419222.0
538.6720, 417930.0
539.8490, 418966.0
541.0260, 418742.0
542.2030, 419942.0
543.3790, 420076.0
544.5560, 419847.0
545.7320, 422074.0
546.9080, 420776.0
548.0840, 422419.0
549.2600, 421335.0
550.4360, 422018.0
551.6110, 422773.0
552.7860, 423564.0
553.9620, 422948.0
555.1370, 424107.0
556.3110, 423947.0
557.4860, 423952.0
558.6610, 425550.0
559.8350, 425119.0
561.0090, 425792.0
562.1830, 426395.0
563.3570, 426776.0
564.5310, 427129.0
565.7040, 426728.0
566.8780, 427902.0
568.0510, 427895.0
569.2240, 428230.0
570.3970, 429133.0
571.5700, 429295.0
572.7420, 430394.0
573.9150, 430102.0
575.0870, 431247.0
576.2590, 430551.0
577.4310, 432218.0
578.6030, 431538.0
579.7740, 432011.0
580.9460, 432639.0
582.1170, 432971.0
583.2880, 432813.0
584.4590, 434105.0
585.6300, 434901.0
586.8010, 434347.0
587.9710, 435457.0
589.1410, 436557.0
590.3110, 436973.0
591.4810, 436499.0
592.6510, 437432.0
593.8210, 437256.0
594.9900, 437957.0
596.1600, 438282.0
597.3290, 438458.1
598.4980, 439111.0
599.6670, 439088.0
600.8350, 440095.0
602.0040, 440695.0
603.1720, 441099.0
604.3400, 441788.5
605.5080, 442303.0
606.6760, 442905.0
607.8440, 443094.0
609.0120, 443907.0
610.1790, 443186.0
611.3460, 443961.0
612.5130, 443363.0
613.6800, 443891.0
614.8470, 444255.0
616.0130, 444491.0
617.1800, 445258.0
618.3460, 445736.0
619.5120, 446787.0
620.6780, 447301.0
621.8440, 447308.0
623.0090, 447629.0
624.1750, 448986.0
625.3400, 447771.0
626.5050, 449717.0
627.6700, 449463.0
628.8350, 449712.0
629.9990, 449126.0
631.1640, 449849.0
632.3280, 450522.0
633.4920, 450864.0
634.6560, 451267.0
635.8200, 451425.0
636.9840, 451695.0
638.1470, 452309.9
639.3100, 452243.0
640.4730, 453576.0
641.6360, 454226.0
642.7990, 454862.0
643.9620, 455048.0
645.1240, 455462.0
646.2870, 455716.4
647.4490, 456052.0
648.6110, 456213.0
649.7730, 456730.0
650.9340, 457222.0
652.0960, 457678.0
653.2570, 457286.0
654.4180, 457347.0
655.5790, 457252.0
656.7400, 457757.0
657.9010, 457926.0
659.0620, 458585.0
660.2220, 459232.0
661.3820, 458846.0
662.5420, 458511.0
663.7020, 459777.0
664.8620, 459635.0
666.0210, 460339.0
667.1810, 461404.0
668.3400, 461041.0
669.4990, 462177.0
670.6580, 461761.0
671.8170, 461828.0
672.9750, 463637.0
674.1340, 463877.0
675.2920, 463175.0
676.4500, 464054.0
677.6080, 463990.0
678.7660, 464199.0
679.9230, 464438.0
681.0810, 464815.0
682.2380, 464616.0
683.3950, 464906.0
684.5520, 465120.0
685.7090, 465917.0
686.8660, 465893.0
688.0220, 465495.0
689.1780, 467283.0
690.3340, 466789.0
691.4900, 467429.0
692.6460, 467634.0
693.8020, 466906.0
694.9570, 466598.0
696.1130, 467526.0
697.2680, 467593.0
698.4230, 467081.0
699.5780, 468080.0
700.7320, 468546.0
701.8870, 468730.0
703.0410, 468615.0
704.1950, 468361.0
705.3490, 468493.8
706.5030, 468145.0
707.6570, 468827.0
708.8110, 469023.0
709.9640, 469862.0
711.1170, 469842.0
712.2700, 470828.0
713.4230, 470858.0
714.5760, 471408.0
715.7280, 471226.0
716.8810, 471483.0
718.0330, 470457.0
719.1850, 471119.0
720.3370, 471056.0
721.4890, 471704.0
722.6400, 471364.0
723.7920, 472134.0
724.9430, 472753.0
726.0940, 474709.0
727.2450, 475188.0
728.3960, 477156.0
729.5460, 477436.0
730.6970, 477135.0
731.8470, 478839.0
732.9970, 480116.0
734.1470, 478902.0
735.2970, 480532.0
736.4460, 481050.0
737.5960, 482572.0
738.7450, 482603.0
739.8940, 483527.0
741.0430, 483542.0
742.1920, 484110.0
743.3410, 486078.0
744.4890, 485732.0
745.6370, 486592.0
746.7850, 487894.0
747.9330, 487703.0
749.0810, 488356.0
750.2290, 488645.0
751.3760, 488559.0
752.5240, 488692.0
753.6710, 488940.8
754.8180, 489234.3
755.9650, 489369.0
757.1110, 490198.0
758.2580, 490318.0
759.4040, 490996.0
760.5510, 490712.0
761.6970, 491585.0
762.8420, 492005.0
763.9880, 492579.0
765.1340, 493221.0
766.2790, 493337.0
767.4240, 493532.0
768.5690, 493698.0
769.7140, 492870.0
770.8590, 493769.0
772.0030, 494089.0
773.1480, 493597.0
774.2920, 494260.0
775.4360, 495017.0
776.5800, 495563.0
777.7240, 496194.0
778.8670, 496861.0
780.0110, 496856.0
781.1540, 496893.0
782.2970, 496944.0
783.4400, 497997.0
784.5830, 498416.0
785.7250, 498769.1
786.8680, 499585.0
788.0100, 499687.0
789.1520, 499910.0
790.2940, 500763.0
791.4360, 500111.0
792.5780, 500423.0
793.7190, 499031.0
794.8600, 499627.0
796.0010, 499978.0
797.1420, 498662.0
798.2830, 499724.0
799.4240, 499444.0
800.5640, 499708.0
801.7050, 499942.0
802.8450, 500302.5
803.9850, 500897.4
805.1250, 501415.0
806.2640, 502368.0
807.4040, 503015.0
808.5430, 503995.0
809.6820, 504571.0
810.8210, 505070.0
811.9600, 505205.0
813.0990, 505895.0
814.2370, 506059.0
815.3760, 507021.0
816.5140, 507082.0
817.6520, 507642.0
818.7900, 508947.0
819.9270, 508821.0
821.0650, 508309.0
822.2020, 508256.0
823.3390, 509109.0
824.4760, 508651.0
825.6130, 509907.0
826.7500, 509377.0
827.8870, 509711.0
829.0230, 509886.0
830.1590, 509748.0
831.2950, 510014.0
832.4310, 509504.0
833.5670, 511588.0
834.7030, 511754.0
835.8380, 511497.0
836.9730, 512015.0
838.1080, 511478.0
839.2430, 512007.8
840.3780, 513003.0
841.5130, 513148.0
842.6470, 513087.0
843.7810, 514349.0
844.9150, 513675.0
846.0490, 514225.0
847.1830, 514812.0
848.3170, 515504.0
849.4500, 516294.0
850.5830, 516835.0
851.7160, 515961.0
852.8490, 516159.0
853.9820, 517023.0
855.1150, 517344.0
856.2470, 517854.0
857.3800, 517945.0
858.5120, 519546.0
859.6440, 518731.0
860.7760, 519256.0
861.9070, 519259.0
863.0390, 520746.0
864.1700, 519846.0
865.3010, 521098.0
866.4320, 520453.0
867.5630, 519650.0
868.6940, 521194.0
869.8240, 521384.0
870.9540, 522133.0
872.0850, 522303.0
873.2150, 522045.0
874.3450, 521996.0
875.4740, 522179.0
876.6040, 522474.9
877.7330, 522830.0
878.8620, 523372.0
879.9910, 523621.4
881.1200, 524414.0
882.2490, 524246.0
883.3770, 524490.0
884.5060, 524741.0
885.6340, 524100.0
886.7620, 524958.0
887.8900, 524841.0
889.0180, 525515.0
890.1450, 525355.0
891.2730, 524535.0
892.4000, 525731.0
893.5270, 524514.0
894.6540, 526045.0
895.7810, 524847.0
896.9070, 525415.0
898.0340, 525566.0
899.1600, 526001.0
900.2860, 526694.6
901.4120, 527731.0
902.5380, 528761.0
903.6630, 528348.0
904.7890, 530589.0
905.9140, 529468.0
907.0390, 529530.0
908.1640, 530546.0
909.2890, 530220.0
910.4130, 531561.0
911.5380, 531399.0
912.6620, 531006.0
913.7860, 531351.0
914.9100, 531966.0
916.0340, 532264.0
917.1580, 532268.0
918.2810, 533289.0
919.4040, 533752.0
920.5280, 533208.0
921.6510, 533743.0
922.7730, 533205.0
923.8960, 533665.0
925.0180, 532611.0
926.1410, 534841.0
927.2630, 534343.0
928.3850, 535462.0
929.5070, 533984.0
930.6280, 535534.0
931.7500, 535654.0
932.8710, 534708.0
933.9920, 536327.0
935.1130, 535142.0
936.2340, 536686.0
937.3550, 535855.0
938.4760, 536294.0
939.5960, 536159.0
940.7160, 537275.0
941.8360, 537898.0
942.9560, 536645.0
944.0760, 537271.0
945.1950, 536039.0
946.3150, 537844.0
947.4340, 538918.0
948.5530, 537667.0
949.6720, 538903.0
950.7900, 537963.0
951.9090, 538790.0
953.0270, 538610.0
954.1460, 538676.0
955.2640, 539488.0
956.3820, 539646.0
957.4990, 539866.0
958.6170, 540460.0
959.7340, 540677.6
960.8520, 541243.0
961.9690, 541565.0
963.0860, 542019.0
964.2020, 542757.0
965.3190, 542478.0
966.4350, 542625.0
967.5520, 542908.0
968.6680, 544299.0
969.7840, 544804.0
970.8990, 545372.5
972.0150, 544616.0
973.1310, 546287.0
974.2460, 545464.0
975.3610, 545600.0
976.4760, 548109.0
977.5910, 548560.0
978.7050, 550368.0
979.8200, 551676.0
980.9340, 554427.0
982.0480, 558471.0
983.1620, 563658.0
984.2760, 568611.0
985.3900, 571627.0
986.5030, 574786.0
987.6160, 573434.0
988.7300, 570793.0
989.8430, 565567.0
990.9550, 561947.0
992.0680, 558404.0
993.1810, 555625.9
994.2930, 553211.0
995.4050, 552456.0
996.5170, 551606.0
997.6290, 552365.0
998.7410, 551678.0
999.8520, 551517.0
1000.964, 551356.0
1002.075, 551344.0
1003.186, 551053.0
1004.297, 550684.0
1005.407, 551514.0
1006.518, 550078.0
1007.628, 552071.0
1008.738, 550541.0
1009.848, 551038.0
1010.958, 552065.0
1012.068, 550951.0
1013.178, 551364.0
1014.287, 550630.0
1015.396, 550718.0
1016.505, 550110.0
1017.614, 550780.0
1018.723, 550453.0
1019.831, 550176.0
1020.940, 550487.0
1022.048, 549741.0
1023.156, 550498.0
1024.264, 549506.0
1025.372, 550265.0
1026.479, 549869.0
1027.587, 549135.0
1028.694, 550607.0
1029.801, 549236.0
1030.908, 551479.0
1032.015, 551245.0
1033.121, 550261.0
1034.228, 551245.0
1035.334, 551626.0
1036.440, 551927.0
1037.546, 553003.0
1038.652, 552126.0
1039.758, 551573.0
1040.863, 552228.0
1041.968, 553331.0
1043.074, 552510.0
1044.178, 552698.0
1045.283, 552940.0
1046.388, 553234.0
1047.492, 553642.8
1048.597, 554022.6
1049.701, 554639.0
1050.805, 555065.0
1051.909, 555691.4
1053.012, 556529.2
1054.116, 557749.0
1055.219, 558677.0
1056.322, 559851.0
1057.425, 560230.5
1058.528, 560524.0
1059.631, 560682.0
1060.733, 560979.0
1061.836, 560868.0
1062.938, 561143.0
1064.040, 560455.0
1065.142, 561841.0
1066.243, 559697.0
1067.345, 560320.0
1068.446, 559179.0
1069.547, 559589.0
1070.648, 559790.0
1071.749, 558924.0
1072.850, 558920.0
1073.951, 558894.0
1075.051, 559000.0
1076.151, 559445.0
1077.251, 557367.0
1078.351, 558986.0
1079.451, 557388.0
1080.550, 559447.0
1081.650, 557965.0
1082.749, 559091.0
1083.848, 560831.0
1084.947, 558324.0
1086.046, 559324.0
1087.144, 559940.0
1088.243, 559483.0
1089.341, 560823.0
1090.439, 559694.0
1091.537, 560633.0
1092.635, 560672.0
1093.732, 561918.0
1094.830, 559694.0
1095.927, 560547.0
1097.024, 561979.0
1098.121, 559658.0
1099.218, 561319.0
1100.314, 561640.0
1101.411, 560934.0
1102.507, 562740.0
1103.603, 562611.0
1104.699, 563169.0
1105.795, 561150.0
1106.890, 561752.0
1107.986, 562315.0
1109.081, 562396.0
1110.176, 562881.0
1111.271, 563238.0
1112.366, 563806.0
1113.461, 563293.0
1114.555, 564144.0
1115.649, 564417.0
1116.744, 563681.0
1117.838, 563725.0
1118.931, 563598.0
1120.025, 564869.0
1121.119, 564218.0
1122.212, 563766.0
1123.305, 565435.0
1124.398, 565200.0
1125.491, 565790.0
1126.584, 563388.0
1127.676, 563943.0
1128.768, 563912.0
1129.861, 565110.0
1130.953, 564753.0
1132.044, 564848.0
1133.136, 565429.0
1134.228, 564763.0
1135.319, 564317.0
1136.410, 565479.0
1137.501, 563710.0
1138.592, 565423.0
1139.683, 564386.0
1140.773, 564101.0
1141.864, 565166.0
1142.954, 564168.0
1144.044, 565812.0
1145.134, 564458.0
1146.224, 565133.0
1147.313, 566678.0
1148.402, 564164.0
1149.492, 566403.0
1150.581, 565080.0
1151.670, 566435.0
1152.758, 565703.0
1153.847, 566560.0
1154.935, 567085.0
1156.024, 565584.0
1157.112, 566291.0
1158.200, 564754.0
1159.287, 566954.0
1160.375, 566235.0
1161.462, 566751.0
1162.550, 566987.0
1163.637, 565245.0
1164.724, 567805.0
1165.810, 565999.0
1166.897, 567511.0
1167.983, 566682.0
1169.070, 566076.0
1170.156, 566473.0
1171.242, 566129.9
1172.327, 567055.0
1173.413, 566510.0
1174.499, 567037.0
1175.584, 567492.0
1176.669, 566785.0
1177.754, 567117.0
1178.839, 566663.0
1179.923, 567138.0
1181.008, 567268.0
1182.092, 567963.0
1183.176, 567876.0
1184.260, 565990.0
1185.344, 566641.0
1186.428, 567517.0
1187.511, 566893.0
1188.595, 567786.0
1189.678, 566736.0
1190.761, 567998.0
1191.843, 567223.0
1192.926, 566513.0
1194.009, 567016.0
1195.091, 566585.0
1196.173, 566907.0
1197.255, 566437.0
1198.337, 567013.0
1199.419, 567415.0
1200.500, 566900.0
1201.582, 568177.0
1202.663, 566938.0
1203.744, 567928.0
1204.825, 568486.0
1205.905, 567563.0
1206.986, 569265.0
1208.066, 567248.0
1209.146, 568126.0
1210.226, 568602.0
1211.306, 567652.0
1212.386, 568446.0
1213.466, 567344.0
1214.545, 568745.0
1215.624, 568890.0
1216.703, 569027.0
1217.782, 570221.0
1218.861, 568131.0
1219.939, 569685.0
1221.018, 569062.0
1222.096, 568651.0
1223.174, 569374.0
1224.252, 568613.0
1225.330, 569957.0
1226.407, 569200.0
1227.485, 569477.0
1228.562, 569766.0
1229.639, 569716.0
1230.716, 569799.4
1231.793, 569738.5
1232.869, 569768.0
1233.946, 569575.0
1235.022, 569754.0
1236.098, 569886.0
1237.174, 569751.8
1238.250, 570485.0
1239.325, 569790.0
1240.401, 569298.0
1241.476, 569650.0
1242.551, 568345.0
1243.626, 568806.0
1244.701, 567935.0
1245.776, 569660.0
1246.850, 569963.0
1247.924, 568355.0
1248.999, 569055.0
1250.073, 568045.0
1251.146, 568393.0
1252.220, 568382.0
1253.293, 567352.0
1254.367, 569369.0
