##NAMES=Sodalite
##RRUFFID=R060355
##IDEAL CHEMISTRY=Na_4_Si_3_Al_3_O_12_Cl
##LOCALITY=Mont Saint-Hilaire, Quebec, Canada
##OWNER=RRUFF
##SOURCE=Herb Obodda
##DESCRIPTION=Clear colorless fragment
##STATUS=The identification of this mineral has been confirmed by X-ray diffraction and chemical analysis
##URL=rruff.info/R060355
##MEASURED CHEMISTRY=(Na_0.98_[box]_0.02_)_8_Al_6.00_(Si_0.99_Al_0.01_)_6_O_24_Cl_1.82_
##PIN_ID=L00616
##ORIENTATION=Laser parallel to a* (1 0 0). Fiducial mark perpendicular to laser is parallel to -c [0 0 -1]
125.3850, 52366.00
126.6170, 51537.00
127.8490, 51340.00
129.0810, 51741.00
130.3130, 52491.00
131.5450, 52838.00
132.7770, 52422.00
134.0080, 52096.00
135.2390, 52209.00
136.4710, 51931.00
137.7020, 52292.00
138.9320, 52212.00
140.1630, 52456.00
141.3930, 52611.00
142.6240, 52424.00
143.8540, 52502.00
145.0840, 52905.00
146.3140, 52847.00
147.5440, 53118.00
148.7730, 53227.00
150.0020, 52921.00
151.2320, 52907.00
152.4610, 53443.00
153.6900, 53331.00
154.9180, 54044.00
156.1470, 54380.00
157.3750, 55160.00
158.6040, 56592.00
159.8320, 58173.00
161.0600, 59939.00
162.2870, 62103.00
163.5150, 64560.00
164.7420, 65123.00
165.9700, 65693.00
167.1970, 64372.00
168.4240, 62801.00
169.6510, 61409.00
170.8770, 59274.00
172.1040, 58347.00
173.3300, 57558.00
174.5560, 57049.00
175.7820, 56596.00
177.0080, 56037.00
178.2340, 55850.00
179.4590, 55327.00
180.6850, 54923.00
181.9100, 54696.00
183.1350, 54267.00
184.3600, 54052.00
185.5850, 54282.00
186.8090, 53750.00
188.0340, 53819.00
189.2580, 53580.00
190.4820, 54041.00
191.7060, 54038.00
192.9300, 54075.00
194.1530, 54011.00
195.3770, 53916.00
196.6000, 54332.00
197.8230, 53987.00
199.0460, 54297.00
200.2690, 54414.00
201.4910, 54451.00
202.7140, 54630.00
203.9360, 54113.00
205.1580, 54624.00
206.3800, 54400.00
207.6020, 54283.00
208.8240, 54610.00
210.0450, 54638.84
211.2670, 54780.00
212.4880, 55064.00
213.7090, 54980.00
214.9300, 55016.00
216.1510, 55120.00
217.3710, 55207.07
218.5920, 55290.86
219.8120, 55510.00
221.0320, 55605.00
222.2520, 55720.00
223.4720, 56133.00
224.6910, 55973.00
225.9110, 56311.00
227.1300, 56790.00
228.3490, 56937.00
229.5680, 57221.00
230.7870, 57620.00
232.0050, 57825.00
233.2240, 58411.00
234.4420, 58202.00
235.6600, 58355.00
236.8780, 58237.00
238.0960, 58729.00
239.3140, 59114.00
240.5310, 59205.00
241.7490, 59817.00
242.9660, 59891.00
244.1830, 60304.00
245.4000, 61404.00
246.6160, 61672.00
247.8330, 62327.00
249.0490, 63706.00
250.2660, 65255.00
251.4820, 66330.00
252.6980, 68669.00
253.9130, 70526.00
255.1290, 72905.00
256.3440, 75097.00
257.5600, 77473.00
258.7750, 79587.00
259.9900, 82029.00
261.2040, 83731.00
262.4190, 84955.00
263.6330, 84584.00
264.8480, 83718.00
266.0620, 82192.00
267.2760, 79808.00
268.4900, 77679.00
269.7030, 75657.00
270.9170, 73819.94
272.1300, 71689.00
273.3430, 70516.00
274.5560, 69128.00
275.7690, 67601.00
276.9820, 65830.00
278.1940, 65132.00
279.4070, 63841.00
280.6190, 64039.00
281.8310, 63408.00
283.0430, 63200.00
284.2550, 62643.00
285.4660, 63124.00
286.6770, 63408.00
287.8890, 63719.00
289.1000, 64688.00
290.3110, 65540.00
291.5210, 66672.00
292.7320, 67245.00
293.9420, 67667.00
295.1530, 66834.00
296.3630, 66155.00
297.5730, 64801.00
298.7830, 63066.00
299.9920, 61823.00
301.2020, 60748.00
302.4110, 60100.00
303.6200, 59898.00
304.8290, 59416.00
306.0380, 58965.00
307.2470, 59018.00
308.4550, 58718.00
309.6630, 58680.00
310.8720, 58780.00
312.0800, 58442.00
313.2880, 58514.00
314.4950, 58394.00
315.7030, 58672.00
316.9100, 58713.00
318.1170, 58702.00
319.3240, 58515.00
320.5310, 58830.00
321.7380, 58613.00
322.9450, 58604.00
324.1510, 58717.00
325.3570, 58652.00
326.5630, 58491.00
327.7690, 58516.00
328.9750, 58926.00
330.1810, 58838.00
331.3860, 58829.00
332.5910, 58951.00
333.7960, 58744.00
335.0010, 58666.00
336.2060, 58773.00
337.4110, 59043.00
338.6150, 58752.00
339.8200, 58970.00
341.0240, 59092.00
342.2280, 58938.00
343.4320, 59085.00
344.6350, 59104.25
345.8390, 59532.00
347.0420, 59267.00
348.2450, 59513.00
349.4480, 59699.00
350.6510, 59602.00
351.8540, 59482.00
353.0560, 59598.00
354.2590, 59662.00
355.4610, 59737.00
356.6630, 59651.00
357.8650, 59982.00
359.0670, 59801.00
360.2680, 60274.00
361.4700, 59848.00
362.6710, 59655.00
363.8720, 60055.00
365.0730, 60348.00
366.2740, 60384.00
367.4740, 60123.00
368.6750, 60306.00
369.8750, 60523.00
371.0750, 60330.00
372.2750, 60691.00
373.4750, 60825.00
374.6740, 60749.00
375.8740, 60788.00
377.0730, 60902.00
378.2720, 61000.00
379.4710, 61025.67
380.6700, 60932.00
381.8690, 61128.00
383.0670, 61204.00
384.2660, 61334.00
385.4640, 61560.00
386.6620, 61680.00
387.8600, 61908.00
389.0570, 61922.00
390.2550, 61984.00
391.4520, 62191.00
392.6490, 62429.00
393.8460, 62599.00
395.0430, 62585.00
396.2400, 62942.00
397.4370, 63168.00
398.6330, 63297.00
399.8290, 63803.00
401.0250, 64165.00
402.2210, 64528.00
403.4170, 65102.00
404.6130, 65262.00
405.8080, 66352.00
407.0030, 66650.00
408.1980, 67672.00
409.3930, 67791.00
410.5880, 67843.00
411.7830, 67268.00
412.9770, 66102.00
414.1720, 66056.00
415.3660, 65913.00
416.5600, 65747.00
417.7530, 65866.26
418.9470, 65802.00
420.1410, 66137.00
421.3340, 66545.00
422.5270, 66807.00
423.7200, 66064.00
424.9130, 66777.00
426.1060, 67086.00
427.2980, 67119.00
428.4900, 67782.00
429.6830, 67834.00
430.8750, 68653.00
432.0670, 68980.00
433.2580, 69361.00
434.4500, 69146.00
435.6410, 70053.00
436.8320, 69971.00
438.0240, 70870.00
439.2140, 71207.00
440.4050, 72138.00
441.5960, 72727.00
442.7860, 73611.00
443.9760, 75385.00
445.1670, 76405.00
446.3560, 78566.00
447.5460, 81035.00
448.7360, 83385.00
449.9250, 87011.00
451.1150, 91007.00
452.3040, 96582.00
453.4930, 103582.0
454.6810, 112580.0
455.8700, 124482.0
457.0590, 138104.0
458.2470, 157284.0
459.4350, 177322.0
460.6230, 199905.0
461.8110, 218441.0
462.9980, 227826.0
464.1860, 224874.0
465.3730, 209640.0
466.5600, 188628.0
467.7470, 166894.0
468.9340, 146508.0
470.1210, 131740.0
471.3080, 119283.0
472.4940, 109905.0
473.6800, 103057.0
474.8660, 97366.00
476.0520, 92879.00
477.2380, 89526.00
478.4230, 87194.00
479.6090, 84867.00
480.7940, 83164.00
481.9790, 81514.00
483.1640, 80140.00
484.3490, 79101.00
485.5330, 78353.00
486.7180, 77982.00
487.9020, 76818.00
489.0860, 76853.00
490.2700, 76225.00
491.4540, 76166.00
492.6370, 76177.00
493.8210, 76487.00
495.0040, 76924.00
496.1870, 76713.00
497.3700, 77124.00
498.5530, 76363.00
499.7360, 75465.00
500.9180, 74932.00
502.1000, 74296.00
503.2830, 74123.00
504.4650, 73966.00
505.6460, 73587.00
506.8280, 73507.00
508.0100, 73342.00
509.1910, 73668.00
510.3720, 73637.00
511.5530, 73395.00
512.7340, 73718.00
513.9150, 73677.00
515.0950, 73713.86
516.2760, 73847.00
517.4560, 73827.00
518.6360, 73784.00
519.8160, 73842.00
520.9950, 73568.00
522.1750, 73813.00
523.3540, 73671.00
524.5340, 73932.00
525.7130, 73614.00
526.8920, 73883.00
528.0700, 73687.00
529.2490, 73814.00
530.4270, 73773.00
531.6060, 73683.00
532.7840, 73739.00
533.9620, 73597.00
535.1390, 73759.00
536.3170, 73830.00
537.4940, 73707.00
538.6720, 74092.00
539.8490, 73934.00
541.0260, 73572.00
542.2030, 73984.00
543.3790, 73915.00
544.5560, 74094.00
545.7320, 74209.00
546.9080, 73753.00
548.0840, 74361.00
549.2600, 74072.00
550.4360, 74130.00
551.6110, 74334.00
552.7860, 74500.00
553.9620, 74628.00
555.1370, 74497.00
556.3110, 74618.00
557.4860, 74666.45
558.6610, 74705.00
559.8350, 74778.00
561.0090, 74831.00
562.1830, 74789.00
563.3570, 74681.00
564.5310, 74854.00
565.7040, 74780.93
566.8780, 74852.91
568.0510, 74779.00
569.2240, 75022.00
570.3970, 74979.00
571.5700, 75152.00
572.7420, 75504.00
573.9150, 75406.00
575.0870, 75503.00
576.2590, 75466.00
577.4310, 75874.00
578.6030, 75767.00
579.7740, 75949.00
580.9460, 76322.00
582.1170, 76156.00
583.2880, 76164.00
584.4590, 76518.00
585.6300, 76753.00
586.8010, 76816.00
587.9710, 76897.00
589.1410, 77217.00
590.3110, 77085.00
591.4810, 77480.00
592.6510, 77377.00
593.8210, 77536.00
594.9900, 77580.00
596.1600, 77514.00
597.3290, 77708.29
598.4980, 77763.00
599.6670, 78026.16
600.8350, 78071.00
602.0040, 78328.00
603.1720, 78340.00
604.3400, 78591.00
605.5080, 79042.00
606.6760, 79005.00
607.8440, 79436.00
609.0120, 79685.00
610.1790, 79617.00
611.3460, 79547.00
612.5130, 79922.00
613.6800, 79681.00
614.8470, 80076.00
616.0130, 80340.00
617.1800, 80089.00
618.3460, 80486.00
619.5120, 80737.00
620.6780, 80680.00
621.8440, 81224.00
623.0090, 80967.00
624.1750, 81493.00
625.3400, 81226.00
626.5050, 81755.00
627.6700, 81467.00
628.8350, 80920.00
629.9990, 81191.00
631.1640, 81282.00
632.3280, 81152.00
633.4920, 81310.00
634.6560, 81487.00
635.8200, 81445.00
636.9840, 81343.00
638.1470, 81103.00
639.3100, 81296.00
640.4730, 81862.00
641.6360, 82138.00
642.7990, 82081.00
643.9620, 81679.00
645.1240, 81911.00
646.2870, 81941.00
647.4490, 82007.00
648.6110, 82173.00
649.7730, 82039.00
650.9340, 82135.00
652.0960, 81797.00
653.2570, 82312.00
654.4180, 81827.00
655.5790, 81784.00
656.7400, 81855.00
657.9010, 82290.00
659.0620, 81564.00
660.2220, 82200.00
661.3820, 82081.00
662.5420, 82036.00
663.7020, 82180.00
664.8620, 82187.00
666.0210, 82280.08
667.1810, 82308.00
668.3400, 82482.00
669.4990, 82433.00
670.6580, 82530.00
671.8170, 82795.00
672.9750, 83071.00
674.1340, 82844.00
675.2920, 82990.00
676.4500, 82790.00
677.6080, 82939.00
678.7660, 83425.00
679.9230, 83398.16
681.0810, 83681.00
682.2380, 83612.00
683.3950, 83808.00
684.5520, 83551.00
685.7090, 83854.00
686.8660, 83983.00
688.0220, 84019.00
689.1780, 84464.00
690.3340, 84366.00
691.4900, 84397.00
692.6460, 85135.00
693.8020, 84746.00
694.9570, 85475.00
696.1130, 85441.00
697.2680, 85790.00
698.4230, 86135.00
699.5780, 86739.00
700.7320, 86851.00
701.8870, 87283.00
703.0410, 87300.00
704.1950, 88225.00
705.3490, 89093.00
706.5030, 89462.00
707.6570, 90776.00
708.8110, 91684.00
709.9640, 92735.00
711.1170, 93389.00
712.2700, 94133.00
713.4230, 94288.00
714.5760, 94994.00
715.7280, 95061.00
716.8810, 95233.00
718.0330, 94725.00
719.1850, 94997.00
720.3370, 94730.00
721.4890, 94309.00
722.6400, 94087.00
723.7920, 93903.00
724.9430, 93920.00
726.0940, 93369.00
727.2450, 93098.00
728.3960, 93324.00
729.5460, 93537.00
730.6970, 93886.00
731.8470, 94483.00
732.9970, 94278.00
734.1470, 94974.00
735.2970, 94742.00
736.4460, 94337.00
737.5960, 93793.00
738.7450, 93521.00
739.8940, 93303.00
741.0430, 93267.00
742.1920, 93125.00
743.3410, 93190.95
744.4890, 93517.00
745.6370, 93245.00
746.7850, 93132.00
747.9330, 92827.00
749.0810, 93009.00
750.2290, 93459.00
751.3760, 93284.00
752.5240, 93351.00
753.6710, 93236.00
754.8180, 93655.00
755.9650, 93589.00
757.1110, 93323.00
758.2580, 94124.00
759.4040, 93413.00
760.5510, 93493.00
761.6970, 93883.00
762.8420, 93675.00
763.9880, 93791.00
765.1340, 94018.00
766.2790, 93672.00
767.4240, 93621.00
768.5690, 94358.00
769.7140, 93756.00
770.8590, 94864.00
772.0030, 94855.00
773.1480, 95169.00
774.2920, 95397.00
775.4360, 95513.00
776.5800, 96185.00
777.7240, 96951.00
778.8670, 97777.00
780.0110, 97688.00
781.1540, 98370.00
782.2970, 98029.00
783.4400, 97378.00
784.5830, 96863.00
785.7250, 96347.00
786.8680, 96410.00
788.0100, 95912.00
789.1520, 95622.00
790.2940, 95467.00
791.4360, 95988.00
792.5780, 95770.00
793.7190, 95647.00
794.8600, 95453.00
796.0010, 95326.85
797.1420, 95079.00
798.2830, 95098.00
799.4240, 95117.00
800.5640, 95043.00
801.7050, 95441.00
802.8450, 95650.00
803.9850, 95896.00
805.1250, 96286.00
806.2640, 96848.00
807.4040, 96978.00
808.5430, 97599.00
809.6820, 97505.00
810.8210, 98015.00
811.9600, 97964.00
813.0990, 98501.00
814.2370, 98857.00
815.3760, 99252.00
816.5140, 99409.00
817.6520, 99569.27
818.7900, 99209.00
819.9270, 99598.00
821.0650, 99440.00
822.2020, 99260.00
823.3390, 99606.00
824.4760, 99911.00
825.6130, 100458.0
826.7500, 100284.0
827.8870, 100787.0
829.0230, 100947.0
830.1590, 100939.0
831.2950, 101645.0
832.4310, 101497.0
833.5670, 101793.0
834.7030, 101892.0
835.8380, 102520.0
836.9730, 102990.0
838.1080, 102786.0
839.2430, 103692.0
840.3780, 103790.0
841.5130, 103489.0
842.6470, 103635.0
843.7810, 103676.5
844.9150, 103715.0
846.0490, 103928.0
847.1830, 104015.0
848.3170, 104174.0
849.4500, 104276.0
850.5830, 104639.0
851.7160, 104488.0
852.8490, 104806.0
853.9820, 105060.0
855.1150, 105486.0
856.2470, 105695.0
857.3800, 105695.0
858.5120, 105938.0
859.6440, 105841.0
860.7760, 106005.0
861.9070, 105760.0
863.0390, 105876.0
864.1700, 105755.0
865.3010, 106464.0
866.4320, 106117.0
867.5630, 105875.0
868.6940, 106587.0
869.8240, 106196.0
870.9540, 106746.0
872.0850, 106248.0
873.2150, 106358.0
874.3450, 106473.0
875.4740, 106043.0
876.6040, 106176.0
877.7330, 106455.0
878.8620, 106485.0
879.9910, 106074.0
881.1200, 106421.0
882.2490, 106455.0
883.3770, 106507.0
884.5060, 107215.0
885.6340, 106551.0
886.7620, 106915.0
887.8900, 107039.0
889.0180, 106667.0
890.1450, 107498.0
891.2730, 107140.0
892.4000, 108203.0
893.5270, 107807.0
894.6540, 107479.0
895.7810, 107412.0
896.9070, 107227.0
898.0340, 107939.0
899.1600, 107765.0
900.2860, 108505.0
901.4120, 108424.0
902.5380, 108544.0
903.6630, 108352.0
904.7890, 108782.0
905.9140, 108848.0
907.0390, 108944.0
908.1640, 109371.0
909.2890, 109285.0
910.4130, 109180.0
911.5380, 109676.0
912.6620, 110096.0
913.7860, 110704.0
914.9100, 110584.0
916.0340, 111291.0
917.1580, 111213.0
918.2810, 111554.0
919.4040, 112020.0
920.5280, 112012.0
921.6510, 112195.0
922.7730, 112091.0
923.8960, 112241.0
925.0180, 111967.0
926.1410, 112655.0
927.2630, 112913.0
928.3850, 112615.0
929.5070, 112216.0
930.6280, 112419.0
931.7500, 112711.0
932.8710, 112150.0
933.9920, 112700.0
935.1130, 112996.0
936.2340, 112887.0
937.3550, 113163.0
938.4760, 112994.0
939.5960, 113101.0
940.7160, 113728.0
941.8360, 113491.0
942.9560, 113682.0
944.0760, 113540.0
945.1950, 113922.0
946.3150, 114010.0
947.4340, 114236.0
948.5530, 114322.0
949.6720, 114560.0
950.7900, 114308.0
951.9090, 114856.0
953.0270, 115035.0
954.1460, 115365.0
955.2640, 116108.0
956.3820, 116329.1
957.4990, 116730.0
958.6170, 117187.0
959.7340, 117763.0
960.8520, 118285.0
961.9690, 119804.0
963.0860, 120387.0
964.2020, 121326.0
965.3190, 122179.0
966.4350, 123244.0
967.5520, 123607.0
968.6680, 123353.0
969.7840, 123490.0
970.8990, 124222.0
972.0150, 124017.0
973.1310, 124887.0
974.2460, 124861.0
975.3610, 124439.0
976.4760, 125261.0
977.5910, 126204.0
978.7050, 128529.0
979.8200, 130856.0
980.9340, 135283.0
982.0480, 139835.0
983.1620, 145886.0
984.2760, 153942.0
985.3900, 160297.0
986.5030, 165014.0
987.6160, 163715.0
988.7300, 159640.0
989.8430, 153147.0
990.9550, 146342.0
992.0680, 142090.0
993.1810, 139274.0
994.2930, 138026.0
995.4050, 138164.0
996.5170, 138371.0
997.6290, 139866.0
998.7410, 141988.0
999.8520, 144742.0
1000.964, 148099.0
1002.075, 148940.0
1003.186, 147040.0
1004.297, 141100.0
1005.407, 135239.0
1006.518, 131496.0
1007.628, 128743.0
1008.738, 127416.0
1009.848, 126802.0
1010.958, 125911.0
1012.068, 125313.0
1013.178, 125188.0
1014.287, 124272.0
1015.396, 124267.0
1016.505, 123549.0
1017.614, 123295.0
1018.723, 123608.0
1019.831, 124261.0
1020.940, 123848.0
1022.048, 124306.0
1023.156, 124677.0
1024.264, 125355.0
1025.372, 124994.0
1026.479, 125989.0
1027.587, 125853.0
1028.694, 126234.0
1029.801, 127058.0
1030.908, 127399.0
1032.015, 127175.0
1033.121, 127322.0
1034.228, 127465.0
1035.334, 126965.0
1036.440, 126886.0
1037.546, 126879.0
1038.652, 126460.0
1039.758, 127122.0
1040.863, 126535.0
1041.968, 127584.0
1043.074, 127025.0
1044.178, 127867.0
1045.283, 126929.0
1046.388, 127538.0
1047.492, 127981.0
1048.597, 127642.0
1049.701, 128271.0
1050.805, 128135.0
1051.909, 129160.0
1053.012, 129151.0
1054.116, 129946.0
1055.219, 130504.0
1056.322, 130901.0
1057.425, 131581.0
1058.528, 131820.0
1059.631, 131957.7
1060.733, 131797.0
1061.836, 131761.0
1062.938, 131433.0
1064.040, 130885.0
1065.142, 131118.0
1066.243, 130092.0
1067.345, 130421.0
1068.446, 130260.0
1069.547, 130334.0
1070.648, 129794.0
1071.749, 129597.0
1072.850, 129489.0
1073.951, 129952.0
1075.051, 129701.0
1076.151, 129725.0
1077.251, 129482.0
1078.351, 129808.0
1079.451, 130191.0
1080.550, 129869.0
1081.650, 130134.0
1082.749, 130872.0
1083.848, 130537.0
1084.947, 130775.0
1086.046, 130793.0
1087.144, 131173.0
1088.243, 131038.0
1089.341, 131147.0
1090.439, 130811.0
1091.537, 131311.0
1092.635, 131309.0
1093.732, 131819.0
1094.830, 132196.0
1095.927, 132227.0
1097.024, 132280.0
1098.121, 132311.0
1099.218, 132371.0
1100.314, 132197.0
1101.411, 132443.0
1102.507, 132296.0
1103.603, 132769.0
1104.699, 132750.1
1105.795, 132911.0
1106.890, 133028.0
1107.986, 133493.0
1109.081, 133848.0
1110.176, 134356.0
1111.271, 134323.0
1112.366, 134455.0
1113.461, 134232.0
1114.555, 134834.0
1115.649, 134852.0
1116.744, 134280.0
1117.838, 135524.0
1118.931, 134741.0
1120.025, 135533.0
1121.119, 135616.0
1122.212, 135325.0
1123.305, 135891.0
1124.398, 135590.0
1125.491, 135768.0
1126.584, 136226.0
1127.676, 136745.0
1128.768, 137220.0
1129.861, 137496.8
1130.953, 137762.2
1132.044, 137903.0
1133.136, 137880.0
1134.228, 137858.0
1135.319, 137508.0
1136.410, 138163.0
1137.501, 137777.0
1138.592, 137969.0
1139.683, 138147.0
1140.773, 138088.0
1141.864, 138309.4
1142.954, 138470.9
1144.044, 138594.0
1145.134, 138924.0
1146.224, 139116.0
1147.313, 139393.0
1148.402, 139583.0
1149.492, 139742.0
1150.581, 140633.0
1151.670, 141338.0
1152.758, 141085.0
1153.847, 141478.0
1154.935, 141644.7
1156.024, 141962.0
1157.112, 141920.0
1158.200, 141726.0
1159.287, 141827.0
1160.375, 141933.0
1161.462, 141706.0
1162.550, 141953.0
1163.637, 142211.0
1164.724, 142511.0
1165.810, 142353.0
1166.897, 141962.0
1167.983, 142603.0
1169.070, 143000.0
1170.156, 142966.0
1171.242, 143489.0
1172.327, 144104.0
1173.413, 143972.0
1174.499, 144465.0
1175.584, 144348.0
1176.669, 145200.0
1177.754, 145576.0
1178.839, 145726.0
1179.923, 145972.0
1181.008, 145925.0
1182.092, 146184.0
1183.176, 146116.0
1184.260, 146919.0
1185.344, 146327.0
1186.428, 147626.0
1187.511, 147368.0
1188.595, 148159.0
1189.678, 147832.0
1190.761, 148698.0
1191.843, 148466.0
1192.926, 148275.0
1194.009, 148121.0
1195.091, 148046.5
1196.173, 148064.0
1197.255, 148086.0
1198.337, 148324.0
1199.419, 148590.0
1200.500, 148629.0
1201.582, 148780.0
1202.663, 147782.0
1203.744, 148516.0
1204.825, 148946.0
1205.905, 148432.0
1206.986, 149275.0
1208.066, 148954.0
1209.146, 148640.0
1210.226, 149331.0
1211.306, 148876.0
1212.386, 149558.0
1213.466, 149489.0
1214.545, 149552.0
1215.624, 150030.0
1216.703, 150009.0
1217.782, 150277.0
1218.861, 150381.0
1219.939, 150754.0
1221.018, 151495.0
1222.096, 152129.0
1223.174, 152066.0
1224.252, 152361.0
1225.330, 152547.0
1226.407, 152850.0
1227.485, 153636.0
1228.562, 155095.0
1229.639, 154381.0
1230.716, 155042.0
1231.793, 154476.0
1232.869, 154879.0
1233.946, 153855.0
1235.022, 154001.0
1236.098, 154409.0
1237.174, 154197.0
1238.250, 154343.0
1239.325, 153948.0
1240.401, 154222.0
1241.476, 154560.0
1242.551, 154173.0
1243.626, 154619.0
1244.701, 154384.0
1245.776, 154724.0
1246.850, 154497.0
1247.924, 154132.0
1248.999, 154733.0
1250.073, 154445.0
1251.146, 154918.0
1252.220, 155028.0
1253.293, 155127.0
1254.367, 156417.0
1255.440, 156115.0
1256.513, 156793.0
1257.586, 156969.0
1258.658, 157216.0
1259.731, 157090.0
1260.803, 157468.0
1261.875, 157856.0
1262.947, 158100.0
1264.019, 158381.0
1265.091, 158956.0
1266.162, 159584.0
1267.234, 160153.0
1268.305, 160133.0
1269.376, 160915.0
1270.447, 161671.0
1271.517, 160441.0
1272.588, 161358.0
1273.658, 161511.0
1274.729, 162281.0
1275.799, 162429.0
1276.868, 163389.0
1277.938, 163839.0
1279.008, 164542.0
1280.077, 165867.0
1281.146, 166378.0
1282.215, 167823.0
1283.284, 168613.0
1284.353, 170071.0
1285.421, 170317.0
1286.490, 171234.0
1287.558, 171153.0
1288.626, 172103.0
1289.694, 171194.0
1290.762, 171455.0
1291.829, 170602.0
1292.897, 170751.0
1293.964, 170385.0
1295.031, 170196.0
1296.098, 169848.0
1297.165, 169321.0
1298.231, 168879.5
1299.298, 168828.0
1300.364, 167908.0
1301.430, 167796.0
