##NAMES=Sodalite
##RRUFFID=R060416
##IDEAL CHEMISTRY=Na_4_Si_3_Al_3_O_12_Cl
##LOCALITY=Koksha Valley, Badakshan Province, Afghanistan
##OWNER=RRUFF
##SOURCE=Herb Obodda
##DESCRIPTION=Colorless fragment
##STATUS=The identification of this mineral has been confirmed by X-ray diffraction and chemical analysis
##URL=rruff.info/R060416
##MEASURED CHEMISTRY=Na_8.00_Al_6.00_Si_6.00_O_24_Cl_2.00_
##PIN_ID=L01209
##ORIENTATION=Laser parallel to -a* (-1 0 0). Fiducial mark perpendicular to laser is parallel to b [0 1 0]
71.39200, 46981.00
72.63400, 47202.00
73.87600, 47619.00
75.11800, 48396.00
76.36000, 47994.00
77.60100, 47896.00
78.84200, 48054.00
80.08400, 48102.00
81.32500, 48138.00
82.56500, 48146.90
83.80600, 48103.43
85.04600, 48053.00
86.28700, 47887.00
87.52700, 47787.16
88.76700, 47764.64
90.00600, 47630.00
91.24600, 47807.00
92.48500, 47722.00
93.72500, 47907.00
94.96400, 47984.00
96.20300, 47962.00
97.44100, 48222.00
98.68000, 48706.00
99.91800, 49523.00
101.1560, 50273.00
102.3940, 50707.00
103.6320, 51468.00
104.8700, 51865.00
106.1070, 51465.00
107.3450, 51579.00
108.5820, 52034.00
109.8190, 53011.00
111.0550, 55155.00
112.2920, 57032.00
113.5290, 57711.00
114.7650, 55635.00
116.0010, 52831.00
117.2370, 50309.00
118.4730, 48686.00
119.7080, 47298.00
120.9440, 46744.00
122.1790, 46716.00
123.4140, 46755.00
124.6490, 46186.00
125.8830, 46181.00
127.1180, 46543.00
128.3520, 47009.00
129.5870, 47562.00
130.8210, 47857.00
132.0540, 47344.00
133.2880, 46805.00
134.5220, 46170.00
135.7550, 46241.00
136.9880, 45909.00
138.2210, 46129.00
139.4540, 46288.00
140.6860, 46237.00
141.9190, 46696.00
143.1510, 47008.00
144.3830, 47772.00
145.6150, 48859.00
146.8470, 49561.00
148.0790, 49396.00
149.3100, 49405.00
150.5410, 49256.00
151.7720, 49815.00
153.0030, 50025.00
154.2340, 51491.00
155.4640, 53812.00
156.6950, 55826.00
157.9250, 59691.00
159.1550, 63917.00
160.3850, 68851.00
161.6150, 75622.00
162.8440, 82742.00
164.0730, 90910.00
165.3030, 96542.00
166.5320, 97625.00
167.7600, 94204.00
168.9890, 87749.00
170.2180, 80408.00
171.4460, 73068.00
172.6740, 67735.00
173.9020, 63395.00
175.1300, 60414.00
176.3570, 58527.00
177.5850, 56741.00
178.8120, 55516.00
180.0390, 54592.00
181.2660, 52972.00
182.4930, 52320.00
183.7190, 51342.00
184.9460, 50517.00
186.1720, 49807.00
187.3980, 49225.00
188.6240, 48858.00
189.8500, 48524.00
191.0750, 48287.57
192.3010, 48214.00
193.5260, 48060.00
194.7510, 48038.00
195.9760, 48029.00
197.2000, 48102.00
198.4250, 48021.00
199.6490, 48225.00
200.8730, 48284.00
202.0970, 48208.00
203.3210, 48240.00
204.5450, 48507.00
205.7680, 48393.00
206.9920, 48619.00
208.2150, 49067.00
209.4380, 48957.00
210.6610, 49355.00
211.8830, 49192.00
213.1060, 49918.00
214.3280, 49790.00
215.5500, 49735.00
216.7720, 50068.00
217.9940, 50233.00
219.2150, 50433.00
220.4370, 51012.00
221.6580, 51440.00
222.8790, 52004.00
224.1000, 52316.00
225.3210, 52909.00
226.5410, 53792.00
227.7620, 54402.00
228.9820, 55815.00
230.2020, 55776.00
231.4220, 56846.00
232.6410, 57244.00
233.8610, 57743.00
235.0800, 57921.00
236.2990, 58104.00
237.5180, 58791.00
238.7370, 59470.00
239.9560, 59718.00
241.1750, 60776.00
242.3930, 61570.00
243.6110, 62938.00
244.8290, 64404.00
246.0470, 66668.00
247.2640, 68569.00
248.4820, 71337.00
249.6990, 74611.00
250.9160, 78137.00
252.1330, 82568.00
253.3500, 87460.00
254.5670, 92735.00
255.7830, 99210.00
256.9990, 105290.0
258.2160, 111860.0
259.4310, 118296.0
260.6470, 124209.0
261.8630, 127755.0
263.0780, 130509.0
264.2930, 130622.0
265.5090, 128948.0
266.7230, 124559.0
267.9380, 118872.0
269.1530, 112545.0
270.3670, 106415.0
271.5810, 100367.0
272.7950, 94396.00
274.0090, 90070.00
275.2230, 85777.00
276.4370, 82914.00
277.6500, 79810.00
278.8630, 78212.00
280.0760, 76108.00
281.2890, 75121.00
282.5020, 74488.00
283.7140, 73933.00
284.9270, 73564.00
286.1390, 74261.00
287.3510, 74642.00
288.5630, 75837.00
289.7740, 77250.00
290.9860, 79511.00
292.1970, 81183.00
293.4080, 83122.00
294.6190, 84655.00
295.8300, 84610.00
297.0410, 82178.00
298.2510, 78386.00
299.4610, 72552.00
300.6710, 68219.00
301.8810, 64884.64
303.0910, 61728.00
304.3010, 59353.00
305.5100, 57842.00
306.7200, 56830.00
307.9290, 55810.00
309.1380, 55156.00
310.3460, 54790.00
311.5550, 54008.00
312.7630, 53834.00
313.9720, 53683.00
315.1800, 53498.00
316.3880, 53298.00
317.5950, 52828.00
318.8030, 52629.00
320.0100, 52660.00
321.2180, 52533.00
322.4250, 52555.00
323.6320, 52126.00
324.8380, 52432.00
326.0450, 52050.00
327.2510, 52301.00
328.4570, 52172.00
329.6640, 51909.00
330.8690, 51814.00
332.0750, 51956.00
333.2810, 52258.00
334.4860, 52085.00
335.6910, 52016.00
336.8960, 51666.00
338.1010, 51939.00
339.3060, 52009.00
340.5100, 52156.00
341.7150, 52149.00
342.9190, 52332.00
344.1230, 52211.00
345.3270, 52532.00
346.5300, 52278.00
347.7340, 52254.00
348.9370, 51931.00
350.1400, 52174.00
351.3430, 52178.00
352.5460, 52277.00
353.7490, 52556.00
354.9510, 52508.00
356.1540, 52407.00
357.3560, 52413.00
358.5580, 52499.00
359.7600, 52568.00
360.9610, 52689.00
362.1630, 52674.00
363.3640, 52691.00
364.5650, 52920.86
365.7660, 53293.00
366.9670, 53357.00
368.1680, 53677.00
369.3680, 53863.00
370.5680, 53727.00
371.7680, 53656.00
372.9680, 53647.00
374.1680, 53537.00
375.3680, 53497.00
376.5670, 53774.00
377.7660, 53464.00
378.9660, 53720.00
380.1640, 54136.00
381.3630, 53775.00
382.5620, 53853.00
383.7600, 53958.00
384.9590, 53973.00
386.1570, 54262.00
387.3550, 54517.00
388.5520, 54593.00
389.7500, 54851.00
390.9470, 54867.00
392.1450, 55117.00
393.3420, 55410.00
394.5390, 55596.00
395.7350, 55939.00
396.9320, 55696.00
398.1280, 56178.00
399.3250, 56424.00
400.5210, 57124.00
401.7160, 57288.00
402.9120, 58178.00
404.1080, 59041.00
405.3030, 60390.00
406.4980, 61538.00
407.6930, 63395.00
408.8880, 65220.00
410.0830, 65806.00
411.2780, 65466.00
412.4720, 63831.00
413.6660, 62726.00
414.8600, 61208.00
416.0540, 60707.00
417.2480, 60338.00
418.4410, 60694.00
419.6350, 60942.00
420.8280, 61233.00
422.0210, 61289.00
423.2140, 61615.00
424.4070, 61996.00
425.5990, 62471.00
426.7920, 62835.00
427.9840, 63253.00
429.1760, 64227.00
430.3680, 65394.00
431.5590, 65993.00
432.7510, 66548.00
433.9420, 67041.00
435.1330, 68303.00
436.3240, 69915.00
437.5150, 70720.00
438.7060, 72646.00
439.8960, 74444.00
441.0870, 76893.00
442.2770, 79796.00
443.4670, 83305.00
444.6570, 87223.00
445.8470, 92762.00
447.0360, 99034.00
448.2250, 106103.0
449.4150, 113824.0
450.6040, 123663.0
451.7920, 135915.0
452.9810, 151098.0
454.1700, 172274.0
455.3580, 197666.0
456.5460, 228759.0
457.7340, 267980.0
458.9220, 313001.0
460.1100, 363840.0
461.2970, 416513.0
462.4850, 461596.0
463.6720, 490634.0
464.8590, 490962.0
466.0460, 461365.0
467.2320, 410644.0
468.4190, 351453.0
469.6050, 294789.0
470.7910, 247690.0
471.9770, 209349.0
473.1630, 179841.0
474.3490, 158485.0
475.5340, 141921.0
476.7200, 129064.0
477.9050, 119284.0
479.0900, 111011.0
480.2750, 104484.0
481.4590, 99531.00
482.6440, 96209.00
483.8280, 92934.00
485.0120, 91018.00
486.1960, 89270.00
487.3800, 88006.00
488.5640, 86716.00
489.7470, 84544.00
490.9310, 82989.00
492.1140, 81745.00
493.2970, 81073.00
494.4800, 80777.00
495.6620, 80753.00
496.8450, 81094.00
498.0270, 80720.00
499.2090, 78967.00
500.3910, 76644.00
501.5730, 74562.00
502.7550, 72411.00
503.9360, 70930.00
505.1170, 69537.00
506.2990, 68481.00
507.4800, 67703.00
508.6600, 67397.00
509.8410, 67450.00
511.0220, 66922.00
512.2020, 66955.00
513.3820, 67125.00
514.5620, 66682.00
515.7420, 66501.00
516.9220, 66793.00
518.1010, 66651.00
519.2800, 66453.00
520.4600, 66464.50
521.6390, 66327.00
522.8170, 66174.00
523.9960, 66106.00
525.1750, 65920.00
526.3530, 65822.00
527.5310, 65776.00
528.7090, 65786.00
529.8870, 65669.00
531.0650, 65286.00
532.2420, 65531.00
533.4190, 65148.00
534.5970, 65014.00
535.7740, 64964.00
536.9500, 64710.00
538.1270, 64563.00
539.3040, 64503.00
540.4800, 64354.43
541.6560, 64193.00
542.8320, 64252.00
544.0080, 64043.00
545.1840, 64108.00
546.3590, 63850.00
547.5340, 64176.00
548.7100, 63547.00
549.8850, 63737.00
551.0600, 63871.00
552.2340, 63386.00
553.4090, 63581.00
554.5830, 63650.00
555.7570, 63596.00
556.9310, 63313.00
558.1050, 63077.00
559.2790, 63593.00
560.4520, 63124.00
561.6260, 63215.00
562.7990, 62750.00
563.9720, 63064.00
565.1450, 62513.00
566.3170, 63068.00
567.4900, 62979.00
568.6620, 62796.00
569.8350, 62962.00
571.0070, 62599.00
572.1780, 62881.00
573.3500, 62674.00
574.5220, 63003.00
575.6930, 63380.00
576.8640, 62853.00
578.0350, 63166.00
579.2060, 63026.00
580.3770, 63282.00
581.5470, 63558.00
582.7180, 63160.00
583.8880, 63394.00
585.0580, 63213.00
586.2280, 63200.00
587.3980, 63501.00
588.5670, 63299.00
589.7370, 63511.00
590.9060, 63412.00
592.0750, 63261.00
593.2440, 63294.00
594.4130, 63767.00
595.5810, 63881.00
596.7500, 63966.00
597.9180, 63957.00
599.0860, 64221.00
600.2540, 64177.00
601.4220, 64479.00
602.5890, 64516.00
603.7570, 65064.00
604.9240, 65449.00
606.0910, 65662.00
607.2580, 65886.00
608.4250, 66085.00
609.5910, 65581.00
610.7580, 65176.00
611.9240, 65222.00
613.0900, 64930.00
614.2560, 64847.00
615.4220, 64751.03
616.5870, 64435.00
617.7530, 64509.00
618.9180, 64644.00
620.0830, 64481.00
621.2480, 65011.00
622.4130, 65296.00
623.5770, 65622.00
624.7420, 65557.00
625.9060, 65548.00
627.0700, 65522.00
628.2340, 65178.00
629.3980, 65200.00
630.5620, 64588.00
631.7250, 64402.00
632.8880, 64519.00
634.0510, 64502.00
635.2140, 64305.00
636.3770, 64187.00
637.5400, 64197.00
638.7020, 64315.00
639.8650, 64224.00
641.0270, 64093.00
642.1890, 64629.00
643.3510, 64871.00
644.5120, 65589.00
645.6740, 64955.00
646.8350, 64532.00
647.9960, 65245.00
649.1570, 64791.42
650.3180, 65437.00
651.4790, 64692.00
652.6390, 65118.00
653.8000, 64746.00
654.9600, 64569.00
656.1200, 64669.00
657.2800, 64587.00
658.4390, 64539.00
659.5990, 64029.00
660.7580, 64099.00
661.9170, 64058.00
663.0770, 64027.00
664.2350, 64192.00
665.3940, 64364.00
666.5530, 64193.00
667.7110, 63990.00
668.8690, 64072.00
670.0270, 63795.00
671.1850, 64168.00
672.3430, 64155.00
673.5000, 64054.00
674.6580, 64220.00
675.8150, 64495.00
676.9720, 64486.00
678.1290, 64520.00
679.2860, 64495.00
680.4420, 64691.00
681.5990, 64601.00
682.7550, 64729.00
683.9110, 65007.00
685.0670, 64862.00
686.2230, 64571.00
687.3790, 64691.00
688.5340, 64769.00
689.6890, 65043.00
690.8440, 64785.00
691.9990, 65024.00
693.1540, 65049.00
694.3090, 65009.00
695.4630, 65233.00
696.6170, 65417.00
697.7720, 65219.00
698.9260, 65203.00
700.0790, 65159.00
701.2330, 65133.00
702.3870, 65218.00
703.5400, 65311.00
704.6930, 65764.00
705.8460, 65641.00
706.9990, 65797.00
708.1510, 65585.00
709.3040, 65797.00
710.4560, 65783.00
711.6090, 66022.00
712.7610, 65709.00
713.9120, 65782.00
715.0640, 65790.00
716.2160, 65550.00
717.3670, 65500.00
718.5180, 65448.00
719.6690, 65418.00
720.8200, 65453.60
721.9710, 65529.75
723.1210, 65624.00
724.2720, 65785.00
725.4220, 66012.00
726.5720, 66176.00
727.7220, 66644.00
728.8720, 66449.00
730.0210, 66242.00
731.1710, 66811.00
732.3200, 67192.00
733.4690, 67268.00
734.6180, 67531.00
735.7670, 67383.00
736.9150, 68136.00
738.0640, 68163.00
739.2120, 68416.00
740.3600, 69177.00
741.5080, 69410.00
742.6560, 69861.00
743.8040, 69832.00
744.9510, 69715.00
746.0980, 69341.00
747.2450, 69003.00
748.3920, 68795.00
749.5390, 68404.00
750.6860, 68410.00
751.8320, 68368.00
752.9790, 68222.00
754.1250, 68116.00
755.2710, 68111.38
756.4170, 68101.58
757.5620, 68127.00
758.7080, 68259.00
759.8530, 68340.00
760.9990, 68530.00
762.1440, 68462.00
763.2880, 68364.00
764.4330, 68423.00
765.5780, 68685.00
766.7220, 68972.00
767.8660, 68752.00
769.0100, 68743.00
770.1540, 68480.00
771.2980, 68971.00
772.4420, 68759.00
773.5850, 68853.00
774.7280, 68880.00
775.8710, 68830.00
777.0140, 68934.70
778.1570, 69055.00
779.3000, 69235.00
780.4420, 69106.00
781.5840, 69610.00
782.7270, 69057.00
783.8690, 69568.00
785.0100, 70488.00
786.1520, 69682.00
787.2940, 69700.00
788.4350, 69914.00
789.5760, 69918.00
790.7170, 70000.00
791.8580, 69946.00
792.9980, 70096.00
794.1390, 69889.00
795.2790, 70322.00
796.4200, 70064.00
797.5600, 70315.00
798.6990, 70392.00
799.8390, 70603.00
800.9790, 70062.00
802.1180, 70280.00
803.2570, 70288.00
804.3960, 70323.00
805.5350, 70553.00
806.6740, 70520.00
807.8130, 70646.70
808.9510, 70657.00
810.0890, 70730.00
811.2270, 70755.00
812.3650, 70622.00
813.5030, 70718.30
814.6410, 70733.00
815.7780, 70926.00
816.9150, 71036.00
818.0530, 71459.00
819.1900, 71411.00
820.3260, 71322.00
821.4630, 71107.00
822.5990, 71492.00
823.7360, 71368.00
824.8720, 71416.00
826.0080, 71846.00
827.1440, 71745.00
828.2790, 71752.00
829.4150, 71853.00
830.5500, 71647.00
831.6860, 71972.00
832.8210, 72003.12
833.9560, 72377.00
835.0900, 72309.00
836.2250, 72124.00
837.3590, 72238.00
838.4930, 72284.00
839.6280, 72625.00
840.7610, 72754.00
841.8950, 72870.33
843.0290, 72753.00
844.1620, 73090.00
845.2950, 73073.00
846.4290, 73181.00
847.5620, 73439.00
848.6940, 73312.00
849.8270, 73176.00
850.9590, 73474.00
852.0920, 74176.00
853.2240, 74021.00
854.3560, 74366.00
855.4880, 74275.00
856.6190, 74604.00
857.7510, 75163.00
858.8820, 74930.00
860.0130, 75263.00
861.1450, 74670.00
862.2750, 75155.00
863.4060, 75334.00
864.5370, 75306.00
865.6670, 75379.00
866.7970, 75005.00
867.9270, 75286.00
869.0570, 75052.00
870.1870, 75122.00
871.3170, 74939.00
872.4460, 75376.00
873.5750, 75531.00
874.7040, 75449.00
875.8330, 75800.00
876.9620, 75442.00
878.0910, 75639.00
879.2190, 75674.00
880.3480, 75275.00
881.4760, 75350.00
882.6040, 75144.00
883.7320, 74989.00
884.8590, 75338.00
885.9870, 75224.00
887.1140, 75276.00
888.2410, 75212.00
889.3680, 75058.00
890.4950, 74928.00
891.6220, 75274.00
892.7490, 75262.00
893.8750, 75085.00
895.0010, 75568.00
896.1270, 75086.00
897.2530, 75113.00
898.3790, 74987.00
899.5050, 75098.00
900.6300, 75292.00
901.7550, 75038.00
902.8800, 75442.00
904.0050, 75661.00
905.1300, 75466.00
906.2550, 76189.00
907.3790, 76071.00
908.5040, 75788.00
909.6280, 76040.00
910.7520, 76082.00
911.8760, 75983.00
912.9990, 76228.00
914.1230, 76253.16
915.2460, 76268.98
916.3690, 76380.00
917.4930, 76419.00
918.6150, 76490.48
919.7380, 76520.00
920.8610, 76679.00
921.9830, 76601.91
923.1050, 76780.80
924.2280, 76626.00
925.3490, 76781.00
926.4710, 76910.00
927.5930, 76704.00
928.7140, 76943.00
929.8360, 76865.00
930.9570, 76992.00
932.0780, 77188.00
933.1990, 77083.00
934.3190, 77430.00
935.4400, 77257.00
936.5600, 77551.00
937.6800, 77675.00
938.8000, 77688.03
939.9200, 78191.00
941.0400, 77774.00
942.1600, 78198.00
943.2790, 78154.00
944.3980, 78470.00
945.5170, 78356.00
946.6360, 78266.00
947.7550, 78358.70
948.8740, 78328.00
949.9920, 78437.00
951.1100, 78784.00
952.2280, 79088.00
953.3460, 79104.00
954.4640, 79254.00
955.5820, 79562.00
956.6990, 79523.00
957.8170, 79712.00
958.9340, 79895.00
960.0510, 80777.00
961.1680, 80761.00
962.2850, 81089.00
963.4010, 81852.00
964.5170, 81965.00
965.6340, 82631.00
966.7500, 83128.00
967.8660, 83707.00
968.9810, 84641.00
970.0970, 85384.00
971.2130, 85836.00
972.3280, 87027.00
973.4430, 89349.00
974.5580, 91094.00
975.6730, 94129.00
976.7870, 98263.00
977.9020, 103719.0
979.0160, 110964.0
980.1300, 121948.0
981.2440, 136415.0
982.3580, 154373.0
983.4720, 176654.0
984.5860, 199362.0
985.6990, 215894.0
986.8120, 217778.0
987.9250, 202004.0
989.0380, 176117.0
990.1510, 149269.0
991.2630, 129691.0
992.3760, 115128.0
993.4880, 106077.0
994.6000, 99590.00
995.7120, 95961.00
996.8240, 92991.00
997.9360, 90725.00
999.0470, 89587.00
1000.159, 88578.00
1001.270, 88377.00
1002.381, 88007.00
1003.492, 87257.00
1004.602, 86618.00
1005.713, 86061.00
1006.823, 86157.00
1007.934, 86207.00
1009.044, 87656.00
1010.154, 88553.00
1011.263, 88700.00
1012.373, 88475.00
1013.482, 87747.00
1014.592, 86383.00
1015.701, 84731.00
1016.810, 83991.00
1017.919, 82896.00
1019.027, 82330.00
1020.136, 82094.00
1021.244, 81635.00
1022.352, 81754.00
1023.460, 81409.00
1024.568, 81435.00
1025.676, 81294.00
1026.784, 81257.00
1027.891, 81461.00
1028.998, 80855.00
1030.105, 80780.00
1031.212, 80865.00
1032.319, 81067.00
1033.426, 81156.00
1034.532, 81286.00
1035.638, 81373.00
1036.745, 81396.00
1037.851, 81548.00
1038.956, 81808.74
1040.062, 82169.00
1041.168, 82528.00
1042.273, 82857.00
1043.378, 83399.00
1044.483, 84207.00
1045.588, 84872.00
1046.693, 86044.00
1047.798, 87011.00
1048.902, 88745.00
1050.006, 90659.00
1051.110, 93272.00
1052.214, 95440.00
1053.318, 97987.00
1054.422, 100797.0
1055.525, 103446.0
1056.629, 105204.0
1057.732, 107110.0
1058.835, 107789.0
1059.938, 108502.0
1061.040, 109155.0
1062.143, 110001.0
1063.245, 110634.0
1064.348, 111612.0
1065.450, 111650.0
1066.552, 110414.0
1067.653, 108659.0
1068.755, 105548.0
1069.856, 103031.0
1070.958, 99708.00
1072.059, 97051.00
1073.160, 95342.00
1074.261, 93128.00
1075.361, 91408.00
1076.462, 90174.00
1077.562, 89001.00
1078.662, 88220.00
1079.762, 87479.00
1080.862, 87051.00
1081.962, 86366.00
1083.062, 85992.39
1084.161, 85575.00
1085.260, 85238.00
1086.359, 85209.00
1087.458, 84775.00
1088.557, 84673.00
1089.656, 84704.00
1090.754, 84185.00
1091.853, 84108.00
1092.951, 83899.00
1094.049, 84107.00
1095.147, 83792.00
1096.244, 83802.38
1097.342, 83957.00
1098.439, 83758.00
1099.537, 83750.00
1100.634, 83934.00
1101.731, 83769.00
1102.827, 83585.00
1103.924, 83810.00
1105.021, 83769.00
1106.117, 84077.00
1107.213, 84484.00
1108.309, 83878.00
1109.405, 83919.00
1110.501, 83829.00
1111.596, 84723.00
1112.691, 84988.00
1113.787, 83721.00
1114.882, 84268.00
1115.977, 83691.00
1117.071, 83871.00
1118.166, 83789.00
1119.260, 83615.00
1120.355, 84248.00
1121.449, 83861.00
1122.543, 83968.00
1123.637, 84105.00
1124.730, 84005.00
1125.824, 84641.00
1126.917, 84171.00
1128.010, 84326.00
1129.103, 84094.00
1130.196, 84472.00
1131.289, 84076.00
1132.382, 84168.00
1133.474, 84377.00
1134.566, 83754.00
1135.659, 84384.00
1136.750, 84418.00
1137.842, 83840.00
1138.934, 84495.00
1140.025, 84197.00
1141.117, 84591.00
1142.208, 84478.00
1143.299, 84259.00
1144.390, 84511.00
1145.481, 84357.00
1146.571, 84470.00
1147.662, 84296.00
1148.752, 84756.00
1149.842, 84584.00
1150.932, 84728.00
1152.022, 84618.00
1153.111, 84571.00
1154.201, 85015.00
1155.290, 85031.00
1156.379, 85020.00
1157.468, 84615.00
1158.557, 85151.00
1159.646, 85407.00
1160.734, 84936.00
1161.823, 85250.00
1162.911, 84996.00
1163.999, 85669.00
1165.087, 84929.00
1166.175, 85232.00
1167.262, 85651.00
1168.350, 85206.00
1169.437, 85382.00
1170.524, 85100.00
1171.611, 85264.00
1172.698, 85313.00
1173.785, 85399.00
1174.872, 85434.00
1175.958, 85290.00
1177.044, 85405.00
1178.130, 85393.83
1179.216, 85304.00
1180.302, 85615.00
1181.388, 85492.00
1182.473, 85883.00
1183.558, 85389.00
1184.644, 85303.00
1185.729, 85681.00
1186.813, 85659.00
1187.898, 86024.00
1188.983, 86429.00
1190.067, 85873.00
1191.151, 85956.00
1192.235, 85627.00
1193.319, 85957.00
1194.403, 86188.00
1195.487, 85749.00
1196.570, 86104.00
1197.653, 85924.00
1198.737, 86375.00
1199.820, 86080.00
1200.902, 86229.00
1201.985, 85938.00
1203.068, 85994.00
1204.150, 86542.00
1205.232, 86075.00
1206.314, 86455.00
1207.396, 86091.00
1208.478, 86556.00
1209.560, 86911.00
1210.641, 86755.00
1211.722, 86955.00
1212.804, 87067.00
1213.885, 87058.00
1214.965, 87247.00
1216.046, 87204.00
1217.127, 87196.00
1218.207, 87180.00
1219.287, 87237.00
1220.367, 87140.00
1221.447, 86912.00
1222.527, 87411.00
1223.607, 87450.00
1224.686, 87288.00
1225.765, 87802.00
1226.845, 86995.00
1227.924, 88111.00
1229.002, 87785.00
1230.081, 88178.00
1231.160, 87721.00
1232.238, 87883.00
1233.316, 88020.00
1234.394, 88210.00
1235.472, 88279.00
1236.550, 88248.00
1237.628, 88397.00
1238.705, 88715.00
1239.783, 88414.00
1240.860, 88598.00
1241.937, 88391.00
1243.014, 88449.00
1244.090, 88383.00
1245.167, 88689.00
1246.243, 88425.00
1247.319, 88685.00
1248.396, 88703.00
1249.471, 88982.00
1250.547, 88831.00
1251.623, 88924.00
1252.698, 88575.00
1253.774, 88974.00
1254.849, 88883.00
1255.924, 89287.00
