##NAMES=Sodalite
##RRUFFID=R060435
##IDEAL CHEMISTRY=Na_4_Si_3_Al_3_O_12_Cl
##LOCALITY=Koksha Valley, Badakshan Province, Afghanistan
##OWNER=RRUFF
##SOURCE=Herb Obodda
##DESCRIPTION=Pale purple fragment
##STATUS=The identification of this mineral has been confirmed by X-ray diffraction and chemical analysis
##URL=rruff.info/R060435
##MEASURED CHEMISTRY=(Na_0.99_K_0.01_)_8_Al_6.00_Si_6.00_O_24_Cl_2_
##PIN_ID=L00857
##ORIENTATION=Laser parallel to a* (1 0 0). Fiducial mark perpendicular to laser is parallel to b [0 1 0]
69.76100, 336892.0
71.00100, 338778.0
72.24000, 340442.0
73.47900, 343305.0
74.71800, 344948.0
75.95700, 346315.0
77.19600, 346303.0
78.43500, 348174.0
79.67300, 349017.0
80.91200, 349735.0
82.15000, 351653.0
83.38800, 352296.0
84.62600, 352774.0
85.86300, 354031.0
87.10100, 355316.0
88.33800, 356378.0
89.57500, 357141.0
90.81200, 358229.0
92.04900, 359428.0
93.28600, 359549.0
94.52300, 361180.0
95.75900, 363043.0
96.99500, 363117.0
98.23100, 365368.0
99.46700, 364744.0
100.7030, 365152.0
101.9390, 366256.0
103.1740, 367845.0
104.4090, 369018.0
105.6440, 370270.0
106.8790, 371046.0
108.1140, 372200.0
109.3490, 372820.0
110.5830, 373914.0
111.8180, 375748.0
113.0520, 375711.0
114.2860, 376422.0
115.5200, 375542.0
116.7530, 376285.0
117.9870, 377030.0
119.2200, 377224.0
120.4530, 377998.0
121.6860, 378272.0
122.9190, 379844.0
124.1520, 380711.0
125.3850, 380841.0
126.6170, 381549.0
127.8490, 383362.0
129.0810, 384070.0
130.3130, 385798.0
131.5450, 386611.0
132.7770, 386901.0
134.0080, 388297.0
135.2390, 389176.0
136.4710, 389480.0
137.7020, 391342.0
138.9320, 391121.0
140.1630, 393117.0
141.3930, 393554.0
142.6240, 394422.0
143.8540, 396681.0
145.0840, 396727.0
146.3140, 398401.0
147.5440, 399451.0
148.7730, 399500.0
150.0020, 401070.0
151.2320, 402683.0
152.4610, 403068.0
153.6900, 403867.0
154.9180, 405950.0
156.1470, 406801.0
157.3750, 408653.0
158.6040, 409703.0
159.8320, 413186.0
161.0600, 413874.0
162.2870, 416931.0
163.5150, 419926.0
164.7420, 421548.0
165.9700, 423488.0
167.1970, 423077.0
168.4240, 423471.0
169.6510, 421311.0
170.8770, 419403.0
172.1040, 420126.0
173.3300, 418945.0
174.5560, 418636.0
175.7820, 419353.0
177.0080, 418720.0
178.2340, 418793.0
179.4590, 418287.0
180.6850, 419763.0
181.9100, 419296.0
183.1350, 419342.0
184.3600, 420154.0
185.5850, 420004.0
186.8090, 421193.0
188.0340, 422249.0
189.2580, 421492.0
190.4820, 422044.0
191.7060, 423540.0
192.9300, 424301.0
194.1530, 424705.0
195.3770, 425656.0
196.6000, 425911.0
197.8230, 427310.0
199.0460, 428502.0
200.2690, 428973.0
201.4910, 430557.0
202.7140, 430198.0
203.9360, 431673.0
205.1580, 432082.0
206.3800, 432650.0
207.6020, 434395.0
208.8240, 433322.0
210.0450, 434553.0
211.2670, 435697.0
212.4880, 435227.0
213.7090, 437517.0
214.9300, 437979.0
216.1510, 437457.0
217.3710, 438995.0
218.5920, 439509.0
219.8120, 440409.0
221.0320, 442344.0
222.2520, 441887.0
223.4720, 443626.0
224.6910, 443908.0
225.9110, 445973.0
227.1300, 446819.0
228.3490, 446962.0
229.5680, 448120.0
230.7870, 449063.0
232.0050, 450244.0
233.2240, 450647.0
234.4420, 451274.3
235.6600, 452353.0
236.8780, 451851.0
238.0960, 453062.0
239.3140, 453164.0
240.5310, 455572.0
241.7490, 455716.0
242.9660, 457357.0
244.1830, 458549.0
245.4000, 460451.0
246.6160, 461139.0
247.8330, 462243.0
249.0490, 464336.0
250.2660, 466791.0
251.4820, 468127.0
252.6980, 470127.0
253.9130, 473112.0
255.1290, 475486.0
256.3440, 476881.0
257.5600, 480510.0
258.7750, 483240.0
259.9900, 485094.0
261.2040, 487099.3
262.4190, 488860.0
263.6330, 489280.0
264.8480, 490597.0
266.0620, 490835.0
267.2760, 489259.0
268.4900, 487077.0
269.7030, 487125.0
270.9170, 485818.0
272.1300, 484790.0
273.3430, 482549.0
274.5560, 482657.0
275.7690, 482574.0
276.9820, 480458.0
278.1940, 480771.0
279.4070, 481007.0
280.6190, 481794.0
281.8310, 482004.0
283.0430, 482585.0
284.2550, 482546.0
285.4660, 482566.0
286.6770, 483191.0
287.8890, 484779.0
289.1000, 484680.0
290.3110, 485525.0
291.5210, 487917.0
292.7320, 488008.0
293.9420, 489569.0
295.1530, 490839.0
296.3630, 491014.0
297.5730, 490237.0
298.7830, 490515.0
299.9920, 489633.0
301.2020, 489852.0
302.4110, 489695.0
303.6200, 489713.0
304.8290, 490191.0
306.0380, 490177.0
307.2470, 490758.0
308.4550, 490658.0
309.6630, 490745.0
310.8720, 491699.0
312.0800, 492049.5
313.2880, 493479.0
314.4950, 493752.0
315.7030, 494895.0
316.9100, 496138.0
318.1170, 495906.0
319.3240, 496973.0
320.5310, 497686.0
321.7380, 497624.0
322.9450, 497956.0
324.1510, 500185.0
325.3570, 500034.0
326.5630, 500559.0
327.7690, 502164.0
328.9750, 502122.0
330.1810, 503321.0
331.3860, 503772.0
332.5910, 503119.0
333.7960, 505053.0
335.0010, 504884.0
336.2060, 505454.0
337.4110, 507641.0
338.6150, 506988.0
339.8200, 507616.0
341.0240, 510313.0
342.2280, 508655.0
343.4320, 509777.0
344.6350, 510133.0
345.8390, 511433.0
347.0420, 511808.0
348.2450, 512165.0
349.4480, 512984.0
350.6510, 513683.0
351.8540, 514472.0
353.0560, 515152.5
354.2590, 515882.0
355.4610, 516566.0
356.6630, 517314.0
357.8650, 518177.0
359.0670, 518923.0
360.2680, 520554.0
361.4700, 520406.0
362.6710, 520569.0
363.8720, 522105.0
365.0730, 521634.0
366.2740, 522202.0
367.4740, 523161.0
368.6750, 523868.0
369.8750, 524670.0
371.0750, 525164.0
372.2750, 525956.0
373.4750, 526489.0
374.6740, 526841.0
375.8740, 527111.0
377.0730, 528869.0
378.2720, 529124.0
379.4710, 528822.0
380.6700, 531449.0
381.8690, 530230.0
383.0670, 532288.0
384.2660, 532546.0
385.4640, 533537.0
386.6620, 534055.0
387.8600, 534080.0
389.0570, 534979.0
390.2550, 535835.0
391.4520, 537291.0
392.6490, 537380.0
393.8460, 538214.0
395.0430, 537355.0
396.2400, 540349.0
397.4370, 539082.0
398.6330, 540442.0
399.8290, 541786.0
401.0250, 541710.0
402.2210, 542860.0
403.4170, 544605.0
404.6130, 546289.0
405.8080, 547425.0
407.0030, 547702.0
408.1980, 549164.0
409.3930, 549875.4
410.5880, 552456.0
411.7830, 551550.0
412.9770, 552741.0
414.1720, 553252.0
415.3660, 553142.0
416.5600, 554023.9
417.7530, 554786.0
418.9470, 554840.0
420.1410, 555432.0
421.3340, 555573.0
422.5270, 557277.0
423.7200, 557030.0
424.9130, 558144.0
426.1060, 558452.0
427.2980, 559279.0
428.4900, 560510.0
429.6830, 560848.2
430.8750, 561189.0
432.0670, 562235.0
433.2580, 563535.0
434.4500, 564692.0
435.6410, 564837.0
436.8320, 565399.0
438.0240, 567015.0
439.2140, 568107.0
440.4050, 569358.5
441.5960, 571106.6
442.7860, 572233.0
443.9760, 574710.0
445.1670, 576559.0
446.3560, 578740.0
447.5460, 582219.0
448.7360, 583942.0
449.9250, 588206.0
451.1150, 593591.0
452.3040, 598585.0
453.4930, 606642.0
454.6810, 615447.0
455.8700, 624843.0
457.0590, 638428.0
458.2470, 652944.0
459.4350, 668699.0
460.6230, 687128.0
461.8110, 701421.0
462.9980, 712890.0
464.1860, 716613.0
465.3730, 710710.0
466.5600, 697861.0
467.7470, 682238.0
468.9340, 664841.0
470.1210, 649890.0
471.3080, 638516.0
472.4940, 627097.0
473.6800, 621152.0
474.8660, 614282.0
476.0520, 609248.0
477.2380, 606879.0
478.4230, 604434.0
479.6090, 603557.0
480.7940, 601579.0
481.9790, 600781.0
483.1640, 600154.0
484.3490, 598552.0
485.5330, 598390.0
486.7180, 597470.0
487.9020, 598102.0
489.0860, 599234.0
490.2700, 598929.0
491.4540, 599644.0
492.6370, 599818.0
493.8210, 600384.0
495.0040, 601878.0
496.1870, 600539.0
497.3700, 602061.0
498.5530, 602878.0
499.7360, 602221.0
500.9180, 602319.0
502.1000, 602021.0
503.2830, 602403.0
504.4650, 602695.0
505.6460, 602092.0
506.8280, 603103.0
508.0100, 602371.0
509.1910, 602883.0
510.3720, 604352.0
511.5530, 605074.0
512.7340, 604688.0
513.9150, 606137.0
515.0950, 606042.0
516.2760, 607009.0
517.4560, 607032.0
518.6360, 607232.0
519.8160, 608140.0
520.9950, 608213.0
522.1750, 609167.0
523.3540, 609970.0
524.5340, 609480.0
525.7130, 609498.0
526.8920, 610561.0
528.0700, 612082.0
529.2490, 612793.0
530.4270, 612812.0
531.6060, 613728.0
532.7840, 613636.0
533.9620, 614104.0
535.1390, 614508.0
536.3170, 615882.0
537.4940, 616521.0
538.6720, 617224.0
539.8490, 617016.0
541.0260, 618444.0
542.2030, 619623.0
543.3790, 619867.0
544.5560, 619309.0
545.7320, 621601.0
546.9080, 620049.0
548.0840, 621418.0
549.2600, 621795.0
550.4360, 622085.0
551.6110, 622427.0
552.7860, 623123.0
553.9620, 623661.0
555.1370, 625032.0
556.3110, 625872.0
557.4860, 625085.0
558.6610, 626017.0
559.8350, 625812.0
561.0090, 627250.0
562.1830, 627436.0
563.3570, 628349.0
564.5310, 627928.0
565.7040, 628661.0
566.8780, 629795.0
568.0510, 630776.0
569.2240, 630489.0
570.3970, 632288.0
571.5700, 631504.0
572.7420, 632895.0
573.9150, 632849.0
575.0870, 634989.0
576.2590, 633474.0
577.4310, 635257.0
578.6030, 635123.0
579.7740, 636611.0
580.9460, 637210.0
582.1170, 636905.0
583.2880, 637275.0
584.4590, 638976.0
585.6300, 638080.0
586.8010, 638992.0
587.9710, 643045.0
589.1410, 641674.0
590.3110, 642632.0
591.4810, 641889.0
592.6510, 644416.0
593.8210, 642580.0
594.9900, 644175.0
596.1600, 644869.0
597.3290, 645372.0
598.4980, 645636.0
599.6670, 646257.0
600.8350, 646698.0
602.0040, 648244.0
603.1720, 647562.0
604.3400, 648915.0
605.5080, 649736.0
606.6760, 649111.0
607.8440, 651082.0
609.0120, 651964.0
610.1790, 650405.0
611.3460, 652050.0
612.5130, 650884.0
613.6800, 651852.0
614.8470, 652206.0
616.0130, 652117.0
617.1800, 653448.0
618.3460, 655037.0
619.5120, 655505.0
620.6780, 656239.0
621.8440, 655530.0
623.0090, 655741.0
624.1750, 658855.0
625.3400, 657808.0
626.5050, 658593.0
627.6700, 659308.0
628.8350, 659429.0
629.9990, 660027.5
631.1640, 660529.7
632.3280, 660826.0
633.4920, 661496.0
634.6560, 662172.0
635.8200, 662469.0
636.9840, 662661.0
638.1470, 663801.0
639.3100, 663568.0
640.4730, 664549.0
641.6360, 665152.0
642.7990, 665934.0
643.9620, 666280.2
645.1240, 666470.0
646.2870, 666747.0
647.4490, 667084.0
648.6110, 667235.0
649.7730, 668311.0
650.9340, 669107.0
652.0960, 668799.0
653.2570, 669659.0
654.4180, 669176.0
655.5790, 670401.0
656.7400, 670030.0
657.9010, 670425.0
659.0620, 671900.0
660.2220, 671871.0
661.3820, 673329.0
662.5420, 673629.0
663.7020, 673633.0
664.8620, 673670.0
666.0210, 674289.9
667.1810, 675323.0
668.3400, 675467.0
669.4990, 676174.0
670.6580, 676672.0
671.8170, 676915.4
672.9750, 677424.0
674.1340, 677794.0
675.2920, 677643.0
676.4500, 678660.0
677.6080, 678437.0
678.7660, 678847.8
679.9230, 680237.0
681.0810, 679579.0
682.2380, 680477.0
683.3950, 681328.0
684.5520, 679432.0
685.7090, 682228.0
686.8660, 682706.0
688.0220, 680600.0
689.1780, 682024.0
690.3340, 682509.0
691.4900, 684434.0
692.6460, 683818.0
693.8020, 685313.0
694.9570, 686314.0
696.1130, 685757.0
697.2680, 686617.0
698.4230, 687258.0
699.5780, 688036.0
700.7320, 688762.0
701.8870, 690345.0
703.0410, 689385.0
704.1950, 690782.0
705.3490, 692149.0
706.5030, 690877.0
707.6570, 692677.0
708.8110, 693151.0
709.9640, 692772.0
711.1170, 693400.0
712.2700, 693430.1
713.4230, 694220.0
714.5760, 693987.0
715.7280, 693982.0
716.8810, 694708.0
718.0330, 694540.0
719.1850, 693617.0
720.3370, 692717.0
721.4890, 693767.0
722.6400, 693785.0
723.7920, 694277.0
724.9430, 695816.0
726.0940, 696203.0
727.2450, 697630.0
728.3960, 698213.0
729.5460, 699678.0
730.6970, 700490.0
731.8470, 701643.0
732.9970, 701291.0
734.1470, 701813.0
735.2970, 702336.0
736.4460, 702665.6
737.5960, 704737.0
738.7450, 703747.0
739.8940, 704377.0
741.0430, 704678.0
742.1920, 707867.0
743.3410, 707760.0
744.4890, 708938.0
745.6370, 709283.0
746.7850, 710274.0
747.9330, 709182.0
749.0810, 710301.0
750.2290, 711459.0
751.3760, 710665.0
752.5240, 712205.0
753.6710, 713212.0
754.8180, 713321.0
755.9650, 713336.0
757.1110, 713037.0
758.2580, 713621.0
759.4040, 713971.0
760.5510, 714094.0
761.6970, 714785.0
762.8420, 716155.0
763.9880, 715194.0
765.1340, 716906.0
766.2790, 717436.0
767.4240, 716486.0
768.5690, 717108.0
769.7140, 716419.0
770.8590, 717871.0
772.0030, 717590.0
773.1480, 718091.0
774.2920, 719535.0
775.4360, 719258.0
776.5800, 717628.0
777.7240, 719114.0
778.8670, 719794.0
780.0110, 719686.0
781.1540, 721390.0
782.2970, 719240.0
783.4400, 721237.0
784.5830, 720999.0
785.7250, 721039.0
786.8680, 722894.0
788.0100, 722849.0
789.1520, 723069.0
790.2940, 722915.0
791.4360, 721948.0
792.5780, 720907.0
793.7190, 720606.0
794.8600, 720493.0
796.0010, 720194.0
797.1420, 720148.1
798.2830, 719694.0
799.4240, 720197.0
800.5640, 720470.0
801.7050, 720810.0
802.8450, 721632.0
803.9850, 723793.0
805.1250, 724790.0
806.2640, 725887.0
807.4040, 727056.0
808.5430, 727560.0
809.6820, 728483.2
810.8210, 729072.0
811.9600, 729963.0
813.0990, 730522.0
814.2370, 731549.0
815.3760, 732279.0
816.5140, 733152.0
817.6520, 733402.0
818.7900, 733961.0
819.9270, 735497.0
821.0650, 734758.0
822.2020, 733445.0
823.3390, 735349.0
824.4760, 735123.0
825.6130, 736447.0
826.7500, 736251.0
827.8870, 736298.0
829.0230, 736361.0
830.1590, 736626.3
831.2950, 736986.0
832.4310, 737617.0
833.5670, 738512.0
834.7030, 739544.0
835.8380, 738895.0
836.9730, 741215.0
838.1080, 739877.0
839.2430, 742163.0
840.3780, 741330.0
841.5130, 742614.0
842.6470, 740856.0
843.7810, 743118.0
844.9150, 743666.0
846.0490, 743354.0
847.1830, 742629.0
848.3170, 744352.0
849.4500, 745279.0
850.5830, 745144.0
851.7160, 745963.0
852.8490, 746333.0
853.9820, 746796.0
855.1150, 747304.0
856.2470, 747536.0
857.3800, 747783.7
858.5120, 747933.0
859.6440, 748001.0
860.7760, 747961.0
861.9070, 747973.0
863.0390, 749125.0
864.1700, 748906.0
865.3010, 749614.0
866.4320, 749591.0
867.5630, 749533.0
868.6940, 751264.0
869.8240, 750094.0
870.9540, 752074.0
872.0850, 751102.0
873.2150, 751111.0
874.3450, 751430.0
875.4740, 751902.0
876.6040, 753315.0
877.7330, 752888.0
878.8620, 753190.0
879.9910, 752827.0
881.1200, 754018.0
882.2490, 754522.0
883.3770, 753962.0
884.5060, 754718.0
885.6340, 753767.0
886.7620, 754998.0
887.8900, 756285.0
889.0180, 756329.0
890.1450, 755767.0
891.2730, 756195.0
892.4000, 755012.0
893.5270, 756114.0
894.6540, 756286.0
895.7810, 755448.0
896.9070, 756217.0
898.0340, 757263.0
899.1600, 757042.0
900.2860, 758199.0
901.4120, 757582.0
902.5380, 758171.0
903.6630, 758721.0
904.7890, 759383.0
905.9140, 760825.0
907.0390, 760731.0
908.1640, 761332.0
909.2890, 761129.0
910.4130, 762012.0
911.5380, 761343.0
912.6620, 761627.0
913.7860, 761080.0
914.9100, 763163.0
916.0340, 763143.0
917.1580, 763944.0
918.2810, 763068.0
919.4040, 763366.0
920.5280, 764975.0
921.6510, 763714.0
922.7730, 764305.0
923.8960, 765043.0
925.0180, 764282.0
926.1410, 764830.0
927.2630, 765448.0
928.3850, 767419.0
929.5070, 765154.0
930.6280, 766820.0
931.7500, 766431.0
932.8710, 766925.0
933.9920, 766628.0
935.1130, 767173.0
936.2340, 768589.0
937.3550, 768535.0
938.4760, 767105.0
939.5960, 769503.0
940.7160, 767793.0
941.8360, 769138.0
942.9560, 768999.0
944.0760, 768579.0
945.1950, 768519.0
946.3150, 768803.0
947.4340, 770041.0
948.5530, 770240.0
949.6720, 771502.0
950.7900, 769664.0
951.9090, 770411.0
953.0270, 770628.0
954.1460, 771402.0
955.2640, 772386.0
956.3820, 772236.0
957.4990, 773585.0
958.6170, 773693.0
959.7340, 773237.0
960.8520, 773297.0
961.9690, 774044.0
963.0860, 776208.0
964.2020, 775837.0
965.3190, 777407.0
966.4350, 776853.0
967.5520, 778648.0
968.6680, 778547.0
969.7840, 779188.0
970.8990, 779997.0
972.0150, 779726.0
973.1310, 781107.0
974.2460, 780462.0
975.3610, 781953.0
976.4760, 782581.0
977.5910, 783717.0
978.7050, 785573.0
979.8200, 788822.0
980.9340, 791405.0
982.0480, 796072.0
983.1620, 800001.0
984.2760, 807638.0
985.3900, 813320.0
986.5030, 818182.0
987.6160, 816793.0
988.7300, 815677.0
989.8430, 808147.0
990.9550, 801100.0
992.0680, 795337.0
993.1810, 791630.0
994.2930, 789503.0
995.4050, 786623.0
996.5170, 785584.0
997.6290, 785472.0
998.7410, 783528.0
999.8520, 782670.0
1000.964, 784622.0
1002.075, 783889.0
1003.186, 783092.0
1004.297, 783790.0
1005.407, 783538.0
1006.518, 782656.0
1007.628, 783035.0
1008.738, 784138.0
1009.848, 784315.0
1010.958, 783649.0
1012.068, 784605.0
1013.178, 784533.0
1014.287, 783456.0
1015.396, 784091.0
1016.505, 781938.0
1017.614, 783751.0
1018.723, 782169.0
1019.831, 782516.0
1020.940, 782978.0
1022.048, 782546.0
1023.156, 782792.0
1024.264, 782236.0
1025.372, 782608.0
1026.479, 782589.0
1027.587, 781138.0
1028.694, 783385.0
1029.801, 782717.0
1030.908, 784256.0
1032.015, 783944.0
1033.121, 783480.0
1034.228, 781810.0
1035.334, 784035.0
1036.440, 785120.0
1037.546, 783709.0
1038.652, 785532.0
1039.758, 783192.0
1040.863, 784592.0
1041.968, 785316.0
1043.074, 784368.0
1044.178, 784278.0
1045.283, 784156.0
1046.388, 785929.0
1047.492, 786656.0
1048.597, 785767.0
1049.701, 785440.0
1050.805, 787889.0
1051.909, 787863.0
1053.012, 788774.0
1054.116, 790503.0
1055.219, 791567.0
1056.322, 790879.0
1057.425, 793265.0
1058.528, 791560.0
1059.631, 793882.0
1060.733, 792256.0
1061.836, 793436.0
1062.938, 793107.0
1064.040, 793371.0
1065.142, 793062.0
1066.243, 791156.0
1067.345, 790917.0
1068.446, 790269.0
1069.547, 789260.0
1070.648, 788816.9
1071.749, 789297.0
1072.850, 788063.0
1073.951, 788408.0
1075.051, 789445.0
1076.151, 788216.0
1077.251, 787370.0
1078.351, 788924.0
1079.451, 788744.0
1080.550, 790047.0
1081.650, 789007.0
1082.749, 790223.0
1083.848, 791192.0
1084.947, 788700.0
1086.046, 790809.0
1087.144, 790528.0
1088.243, 790603.0
1089.341, 790024.0
1090.439, 789180.0
1091.537, 791086.0
1092.635, 791637.0
1093.732, 792213.0
1094.830, 791138.0
1095.927, 791046.0
1097.024, 793019.0
1098.121, 791318.0
1099.218, 791970.0
1100.314, 791822.0
1101.411, 792129.0
1102.507, 792668.0
1103.603, 793139.0
1104.699, 793006.0
1105.795, 793527.6
1106.890, 793798.8
1107.986, 793762.0
1109.081, 794348.0
1110.176, 793785.0
1111.271, 793600.0
1112.366, 794004.0
1113.461, 792906.0
1114.555, 794240.0
1115.649, 793213.0
1116.744, 793690.0
1117.838, 794110.0
1118.931, 793555.0
1120.025, 794111.0
1121.119, 793885.0
1122.212, 793584.0
1123.305, 794088.0
1124.398, 793743.0
1125.491, 793712.1
1126.584, 793831.0
1127.676, 793443.0
1128.768, 794386.0
1129.861, 794383.0
1130.953, 795080.0
1132.044, 794354.0
1133.136, 794381.0
1134.228, 793404.0
1135.319, 794181.0
1136.410, 793300.0
1137.501, 792821.0
1138.592, 794078.0
1139.683, 793482.0
1140.773, 793097.0
1141.864, 794783.0
1142.954, 793780.0
1144.044, 795258.0
1145.134, 793527.0
1146.224, 795017.0
1147.313, 794956.0
1148.402, 793360.0
1149.492, 794352.0
1150.581, 793641.0
1151.670, 796367.0
1152.758, 794207.0
1153.847, 794820.0
1154.935, 795679.0
1156.024, 793471.0
1157.112, 794024.0
1158.200, 793196.0
1159.287, 795600.0
1160.375, 795093.0
1161.462, 793412.0
1162.550, 794378.0
1163.637, 793108.0
1164.724, 795312.0
1165.810, 794943.0
1166.897, 793844.0
1167.983, 795021.0
1169.070, 792598.0
1170.156, 795008.0
1171.242, 794385.0
1172.327, 794841.0
1173.413, 793854.0
1174.499, 794699.0
1175.584, 794456.0
1176.669, 793175.0
1177.754, 795028.0
1178.839, 793055.0
1179.923, 793941.0
1181.008, 794862.0
1182.092, 792720.0
1183.176, 794938.0
1184.260, 794410.0
1185.344, 794216.0
1186.428, 793481.0
1187.511, 793645.0
1188.595, 794691.0
1189.678, 793303.0
1190.761, 793973.0
1191.843, 792648.0
1192.926, 792535.0
1194.009, 794047.0
1195.091, 792972.0
1196.173, 793542.0
1197.255, 793699.0
1198.337, 793641.0
1199.419, 792105.0
1200.500, 792918.0
1201.582, 795029.0
1202.663, 791815.0
1203.744, 793604.0
1204.825, 793828.0
1205.905, 793032.0
1206.986, 795691.0
1208.066, 794030.0
1209.146, 793119.0
1210.226, 793063.0
1211.306, 792792.0
1212.386, 794513.0
1213.466, 794008.0
1214.545, 794886.0
1215.624, 793232.0
1216.703, 794334.0
1217.782, 794850.0
1218.861, 792889.0
1219.939, 794839.0
1221.018, 793879.0
1222.096, 793841.0
1223.174, 794325.0
1224.252, 793326.0
1225.330, 794147.0
1226.407, 794453.0
1227.485, 794807.0
1228.562, 792948.0
1229.639, 793083.0
1230.716, 794570.0
1231.793, 793399.0
1232.869, 794150.0
1233.946, 792934.0
1235.022, 793177.0
1236.098, 795022.0
1237.174, 793290.0
1238.250, 793370.0
1239.325, 792486.0
1240.401, 793451.0
1241.476, 792215.0
1242.551, 793004.0
1243.626, 790884.0
1244.701, 792250.0
1245.776, 791343.0
1246.850, 791197.0
1247.924, 790794.0
1248.999, 791961.0
1250.073, 791867.0
1251.146, 792006.0
1252.220, 789828.0
1253.293, 790549.0
1254.367, 792421.0
