##NAMES=Sodalite
##RRUFFID=R060354
##IDEAL CHEMISTRY=Na_4_Si_3_Al_3_O_12_Cl
##LOCALITY=Koksha Valley, Badakshan Province, Afghanistan
##OWNER=RRUFF
##SOURCE=Herb Obodda
##DESCRIPTION=Pale purple transparent fragment
##STATUS=The identification of this mineral has been confirmed by X-ray diffraction and chemical analysis
##URL=rruff.info/R060354
##MEASURED CHEMISTRY=(Na_0.99_K_0.01_)_8_Al_6.00_Si_6.00_O_24_Cl_2.00_
##PIN_ID=L01562
##ORIENTATION=Laser parallel to a* (1 0 0). Fiducial mark perpendicular to laser is parallel to -c [0 0 -1]
61.44800, 71502.00
62.69200, 71901.00
63.93500, 72249.00
65.17800, 72317.00
66.42100, 73025.00
67.66400, 72746.00
68.90700, 73151.00
70.15000, 73246.00
71.39200, 73770.00
72.63400, 73720.00
73.87600, 74086.00
75.11800, 74100.00
76.36000, 74159.00
77.60100, 74203.00
78.84200, 74591.00
80.08400, 74942.00
81.32500, 75360.00
82.56500, 75385.24
83.80600, 75440.28
85.04600, 75383.00
86.28700, 75320.00
87.52700, 75324.00
88.76700, 75504.00
90.00600, 76124.00
91.24600, 75812.00
92.48500, 76648.00
93.72500, 76376.00
94.96400, 76420.00
96.20300, 76609.00
97.44100, 76801.00
98.68000, 76969.00
99.91800, 77249.00
101.1560, 77458.00
102.3940, 77494.00
103.6320, 77659.00
104.8700, 78115.00
106.1070, 78626.00
107.3450, 78591.00
108.5820, 78872.00
109.8190, 79629.00
111.0550, 79675.00
112.2920, 79816.00
113.5290, 79852.00
114.7650, 79752.00
116.0010, 79652.00
117.2370, 79164.00
118.4730, 79319.00
119.7080, 79721.00
120.9440, 83556.00
122.1790, 84933.00
123.4140, 82229.00
124.6490, 80558.00
125.8830, 80281.00
127.1180, 80242.00
128.3520, 80661.00
129.5870, 80501.00
130.8210, 80889.00
132.0540, 80954.00
133.2880, 81086.00
134.5220, 80904.00
135.7550, 81239.00
136.9880, 80991.00
138.2210, 81251.00
139.4540, 81936.00
140.6860, 81791.00
141.9190, 81947.00
143.1510, 82453.00
144.3830, 82696.00
145.6150, 82853.00
146.8470, 83010.00
148.0790, 83194.00
149.3100, 83064.00
150.5410, 83720.00
151.7720, 83771.00
153.0030, 84022.00
154.2340, 84538.00
155.4640, 85025.00
156.6950, 85516.00
157.9250, 86520.00
159.1550, 86958.00
160.3850, 88208.00
161.6150, 89331.00
162.8440, 90390.00
164.0730, 91766.00
165.3030, 92321.00
166.5320, 92132.00
167.7600, 91036.00
168.9890, 90464.00
170.2180, 89557.00
171.4460, 89416.00
172.6740, 88893.00
173.9020, 88282.00
175.1300, 88207.00
176.3570, 88364.00
177.5850, 87905.00
178.8120, 87899.00
180.0390, 87838.00
181.2660, 87325.00
182.4930, 87428.00
183.7190, 87340.00
184.9460, 87595.00
186.1720, 87520.00
187.3980, 87515.00
188.6240, 87643.00
189.8500, 87647.00
191.0750, 88057.00
192.3010, 87793.00
193.5260, 88271.00
194.7510, 88239.00
195.9760, 88377.00
197.2000, 88755.00
198.4250, 88722.00
199.6490, 88874.00
200.8730, 88975.00
202.0970, 89096.15
203.3210, 89175.00
204.5450, 89456.00
205.7680, 89676.00
206.9920, 89946.00
208.2150, 89803.00
209.4380, 89995.00
210.6610, 90235.00
211.8830, 90592.00
213.1060, 90707.00
214.3280, 90949.00
215.5500, 90808.00
216.7720, 91182.00
217.9940, 91129.00
219.2150, 91255.00
220.4370, 91406.00
221.6580, 91643.00
222.8790, 91931.16
224.1000, 92215.00
225.3210, 92653.00
226.5410, 92678.00
227.7620, 93077.00
228.9820, 93475.00
230.2020, 93457.00
231.4220, 93355.00
232.6410, 94334.00
233.8610, 94068.00
235.0800, 94686.00
236.2990, 94712.00
237.5180, 94904.00
238.7370, 95420.00
239.9560, 95195.00
241.1750, 95651.00
242.3930, 95877.00
243.6110, 96181.00
244.8290, 96602.00
246.0470, 96953.17
247.2640, 98004.00
248.4820, 97915.00
249.6990, 99064.00
250.9160, 99839.00
252.1330, 100492.0
253.3500, 101593.0
254.5670, 102352.0
255.7830, 103197.0
256.9990, 104884.0
258.2160, 105491.0
259.4310, 107047.0
260.6470, 107341.0
261.8630, 108102.0
263.0780, 108895.0
264.2930, 108494.0
265.5090, 108626.0
266.7230, 107849.0
267.9380, 106673.0
269.1530, 106209.0
270.3670, 105353.0
271.5810, 104261.0
272.7950, 103422.0
274.0090, 103351.0
275.2230, 102272.0
276.4370, 102202.0
277.6500, 102076.0
278.8630, 101656.0
280.0760, 101635.0
281.2890, 101701.0
282.5020, 101853.0
283.7140, 101663.0
284.9270, 101795.0
286.1390, 101881.0
287.3510, 102226.0
288.5630, 102700.0
289.7740, 103093.0
290.9860, 103541.0
292.1970, 103752.0
293.4080, 104315.0
294.6190, 104626.0
295.8300, 104674.0
297.0410, 103744.0
298.2510, 103920.0
299.4610, 103269.0
300.6710, 102504.0
301.8810, 102936.0
303.0910, 102172.0
304.3010, 102002.0
305.5100, 102234.0
306.7200, 101958.0
307.9290, 101915.0
309.1380, 102233.0
310.3460, 102069.0
311.5550, 101924.0
312.7630, 102386.0
313.9720, 102593.0
315.1800, 102497.0
316.3880, 102643.0
317.5950, 103140.0
318.8030, 102596.0
320.0100, 103181.0
321.2180, 103249.0
322.4250, 103373.0
323.6320, 103581.9
324.8380, 103441.0
326.0450, 103690.0
327.2510, 103875.0
328.4570, 103848.0
329.6640, 104094.0
330.8690, 104041.0
332.0750, 104336.0
333.2810, 104537.0
334.4860, 104563.0
335.6910, 104675.0
336.8960, 104568.0
338.1010, 104846.0
339.3060, 104784.0
340.5100, 104945.0
341.7150, 105163.0
342.9190, 105748.0
344.1230, 105655.0
345.3270, 106153.0
346.5300, 105764.0
347.7340, 106070.0
348.9370, 106062.0
350.1400, 106055.0
351.3430, 106314.0
352.5460, 106354.0
353.7490, 106796.0
354.9510, 106996.0
356.1540, 107474.0
357.3560, 107274.0
358.5580, 107123.0
359.7600, 107701.0
360.9610, 107620.0
362.1630, 107695.0
363.3640, 107558.0
364.5650, 107857.0
365.7660, 108335.0
366.9670, 108080.0
368.1680, 108458.0
369.3680, 108869.0
370.5680, 108424.0
371.7680, 108796.0
372.9680, 109052.0
374.1680, 109029.0
375.3680, 109272.0
376.5670, 109421.0
377.7660, 109580.0
378.9660, 109697.0
380.1640, 109509.0
381.3630, 109732.0
382.5620, 109678.0
383.7600, 110167.0
384.9590, 109976.0
386.1570, 110810.0
387.3550, 110366.0
388.5520, 110382.0
389.7500, 111029.0
390.9470, 111332.0
392.1450, 111143.0
393.3420, 111477.0
394.5390, 111090.0
395.7350, 111885.0
396.9320, 112112.0
398.1280, 111625.0
399.3250, 111636.0
400.5210, 112178.0
401.7160, 112737.0
402.9120, 112904.0
404.1080, 113510.0
405.3030, 113390.0
406.4980, 113901.0
407.6930, 114436.0
408.8880, 114860.0
410.0830, 114618.0
411.2780, 114632.0
412.4720, 114704.0
413.6660, 114535.0
414.8600, 114743.0
416.0540, 114871.0
417.2480, 114523.0
418.4410, 115330.0
419.6350, 115064.0
420.8280, 115445.0
422.0210, 115530.0
423.2140, 115724.0
424.4070, 116175.0
425.5990, 116300.0
426.7920, 116359.0
427.9840, 116414.0
429.1760, 116721.2
430.3680, 116800.0
431.5590, 117331.0
432.7510, 117651.0
433.9420, 117912.0
435.1330, 118314.4
436.3240, 118207.0
437.5150, 118923.0
438.7060, 119402.0
439.8960, 119649.0
441.0870, 120648.0
442.2770, 120657.0
443.4670, 121870.0
444.6570, 121979.0
445.8470, 123173.0
447.0360, 124828.0
448.2250, 125692.0
449.4150, 126916.0
450.6040, 129343.0
451.7920, 131253.0
452.9810, 134399.0
454.1700, 138218.0
455.3580, 142892.0
456.5460, 148579.0
457.7340, 156135.0
458.9220, 164050.0
460.1100, 173335.0
461.2970, 181187.0
462.4850, 186109.0
463.6720, 188924.0
464.8590, 186225.0
466.0460, 178646.0
467.2320, 170805.0
468.4190, 161419.0
469.6050, 154176.0
470.7910, 148553.0
471.9770, 143180.0
473.1630, 139110.0
474.3490, 135704.0
475.5340, 133407.0
476.7200, 131762.0
477.9050, 130655.0
479.0900, 129041.0
480.2750, 128809.0
481.4590, 127923.0
482.6440, 127441.0
483.8280, 127233.0
485.0120, 126282.0
486.1960, 126113.0
487.3800, 126727.0
488.5640, 126300.0
489.7470, 126121.0
490.9310, 125934.0
492.1140, 126182.0
493.2970, 126072.0
494.4800, 126153.0
495.6620, 126619.0
496.8450, 126328.0
498.0270, 126396.0
499.2090, 126039.0
500.3910, 125843.0
501.5730, 125255.0
502.7550, 125298.9
503.9360, 125269.0
505.1170, 125325.0
506.2990, 125223.0
507.4800, 125358.0
508.6600, 125495.0
509.8410, 125168.0
511.0220, 125983.0
512.2020, 125774.0
513.3820, 126138.0
514.5620, 125633.0
515.7420, 125940.0
516.9220, 125724.0
518.1010, 126002.0
519.2800, 126199.0
520.4600, 126259.0
521.6390, 126472.4
522.8170, 126531.4
523.9960, 126732.0
525.1750, 126663.0
526.3530, 126741.0
527.5310, 126789.0
528.7090, 127451.0
529.8870, 127167.0
531.0650, 127545.0
532.2420, 127586.0
533.4190, 127615.0
534.5970, 126913.0
535.7740, 127433.0
536.9500, 127486.0
538.1270, 127498.0
539.3040, 128073.0
540.4800, 127776.0
541.6560, 128239.0
542.8320, 128806.0
544.0080, 128332.0
545.1840, 128467.0
546.3590, 127978.0
547.5340, 128602.0
548.7100, 128227.0
549.8850, 129069.0
551.0600, 129014.0
552.2340, 129346.0
553.4090, 128894.0
554.5830, 129115.0
555.7570, 129359.0
556.9310, 128949.0
558.1050, 129714.0
559.2790, 129476.0
560.4520, 129853.0
561.6260, 129765.0
562.7990, 129091.0
563.9720, 129909.0
565.1450, 129792.0
566.3170, 130324.0
567.4900, 130200.0
568.6620, 130522.0
569.8350, 130401.0
571.0070, 131085.0
572.1780, 130903.0
573.3500, 130885.0
574.5220, 130916.0
575.6930, 130870.0
576.8640, 131148.0
578.0350, 131556.0
579.2060, 131381.0
580.3770, 131790.0
581.5470, 131991.0
582.7180, 131923.0
583.8880, 131503.0
585.0580, 132083.0
586.2280, 132455.0
587.3980, 131908.0
588.5670, 132630.0
589.7370, 132859.0
590.9060, 133034.0
592.0750, 132911.0
593.2440, 132991.0
594.4130, 132954.0
595.5810, 132925.0
596.7500, 133538.0
597.9180, 133476.0
599.0860, 133263.0
600.2540, 133847.0
601.4220, 133478.0
602.5890, 133637.0
603.7570, 134188.0
604.9240, 134439.0
606.0910, 133931.0
607.2580, 134457.0
608.4250, 134357.0
609.5910, 134960.0
610.7580, 134550.0
611.9240, 134550.0
613.0900, 134914.0
614.2560, 134820.0
615.4220, 135314.0
616.5870, 135181.0
617.7530, 135272.0
618.9180, 134895.0
620.0830, 135319.0
621.2480, 135444.0
622.4130, 135762.0
623.5770, 135684.0
624.7420, 135863.0
625.9060, 136826.0
627.0700, 135926.0
628.2340, 135514.0
629.3980, 136520.0
630.5620, 136018.0
631.7250, 136302.0
632.8880, 136446.0
634.0510, 136586.0
635.2140, 136747.0
636.3770, 137059.0
637.5400, 137057.0
638.7020, 137540.0
639.8650, 137143.0
641.0270, 137013.0
642.1890, 137392.0
643.3510, 137421.0
644.5120, 137476.0
645.6740, 137229.0
646.8350, 138507.0
647.9960, 137881.0
649.1570, 137842.0
650.3180, 138560.0
651.4790, 138144.0
652.6390, 137844.0
653.8000, 138081.0
654.9600, 138038.0
656.1200, 138269.0
657.2800, 138214.0
658.4390, 137743.0
659.5990, 138877.0
660.7580, 138614.0
661.9170, 138398.0
663.0770, 139187.0
664.2350, 139239.0
665.3940, 138958.0
666.5530, 138880.0
667.7110, 139135.0
668.8690, 139163.0
670.0270, 139272.0
671.1850, 139028.0
672.3430, 139506.0
673.5000, 139760.0
674.6580, 139886.0
675.8150, 139651.0
676.9720, 139760.0
678.1290, 140191.0
679.2860, 140176.0
680.4420, 140636.0
681.5990, 140480.0
682.7550, 140271.0
683.9110, 140268.0
685.0670, 140688.0
686.2230, 140005.0
687.3790, 140853.0
688.5340, 140997.0
689.6890, 141272.0
690.8440, 141017.0
691.9990, 141414.0
693.1540, 141634.0
694.3090, 141414.0
695.4630, 141589.0
696.6170, 141480.0
697.7720, 141654.0
698.9260, 142131.0
700.0790, 141660.0
701.2330, 142164.0
702.3870, 142069.0
703.5400, 142237.0
704.6930, 142363.0
705.8460, 142354.0
706.9990, 142158.0
708.1510, 142309.0
709.3040, 142498.0
710.4560, 143005.5
711.6090, 143337.5
712.7610, 143503.2
713.9120, 143005.1
715.0640, 143364.2
716.2160, 143379.8
717.3670, 143381.2
718.5180, 143860.9
719.6690, 143459.3
720.8200, 143931.4
721.9710, 144054.7
723.1210, 144337.5
724.2720, 144274.8
725.4220, 144318.8
726.5720, 144708.5
727.7220, 144906.8
728.8720, 144804.2
730.0210, 145097.1
731.1710, 144683.3
732.3200, 144889.6
733.4690, 145363.5
734.6180, 145278.2
735.7670, 145577.5
736.9150, 144903.0
738.0640, 145116.0
739.2120, 145011.0
740.3600, 145872.0
741.5080, 145801.0
742.6560, 146254.0
743.8040, 146571.0
744.9510, 146522.0
746.0980, 146905.0
747.2450, 146908.0
748.3920, 146518.0
749.5390, 146838.0
750.6860, 146818.0
751.8320, 146846.0
752.9790, 146798.0
754.1250, 146805.0
755.2710, 147437.0
756.4170, 147233.0
757.5620, 147320.0
758.7080, 147711.0
759.8530, 147508.0
760.9990, 147140.0
762.1440, 147400.0
763.2880, 147203.0
764.4330, 147613.0
765.5780, 147667.0
766.7220, 147634.0
767.8660, 147793.0
769.0100, 147861.2
770.1540, 147611.0
771.2980, 148153.0
772.4420, 148287.0
773.5850, 148531.0
774.7280, 148099.0
775.8710, 148422.0
777.0140, 148586.0
778.1570, 148051.0
779.3000, 148759.0
780.4420, 148726.0
781.5840, 148771.0
782.7270, 148930.0
783.8690, 149182.0
785.0100, 148263.8
786.1520, 148751.1
787.2940, 149062.9
788.4350, 149208.5
789.5760, 148690.2
790.7170, 149029.1
791.8580, 149024.6
792.9980, 149005.8
794.1390, 149465.4
795.2790, 149043.6
796.4200, 149495.6
797.5600, 149598.7
798.6990, 149861.4
799.8390, 149778.5
800.9790, 149802.4
802.1180, 150172.0
803.2570, 150350.1
804.3960, 150227.4
805.5350, 150500.2
806.6740, 150066.3
807.8130, 150252.5
808.9510, 150718.0
810.0890, 150659.0
811.2270, 151038.0
812.3650, 150971.0
813.5030, 151351.0
814.6410, 151094.0
815.7780, 151463.7
816.9150, 151182.0
818.0530, 151914.0
819.1900, 151692.0
820.3260, 151632.0
821.4630, 151963.0
822.5990, 151834.0
823.7360, 152078.0
824.8720, 152079.7
826.0080, 152036.0
827.1440, 152161.0
828.2790, 152484.0
829.4150, 152713.0
830.5500, 152336.0
831.6860, 153117.0
832.8210, 152696.0
833.9560, 153250.0
835.0900, 152782.0
836.2250, 153044.0
837.3590, 152847.0
838.4930, 153261.0
839.6280, 153554.0
840.7610, 153353.0
841.8950, 152835.0
843.0290, 153371.0
844.1620, 153462.0
845.2950, 153826.0
846.4290, 153481.0
847.5620, 153212.0
848.6940, 153106.0
849.8270, 153667.0
850.9590, 153751.0
852.0920, 153895.0
853.2240, 153577.0
854.3560, 154066.0
855.4880, 153777.0
856.6190, 153957.0
857.7510, 154304.0
858.8820, 154625.0
860.0130, 154403.0
861.1450, 154272.0
862.2750, 154585.0
863.4060, 154441.0
864.5370, 154881.0
865.6670, 155195.0
866.7970, 154880.0
867.9270, 155223.0
869.0570, 154781.0
870.1870, 155189.0
871.3170, 154781.0
872.4460, 155287.0
873.5750, 155288.0
874.7040, 155238.0
875.8330, 155979.0
876.9620, 155718.0
878.0910, 155399.0
879.2190, 155335.0
880.3480, 155802.0
881.4760, 155520.0
882.6040, 155344.0
883.7320, 155681.0
884.8590, 155513.0
885.9870, 156046.0
887.1140, 155938.0
888.2410, 156009.0
889.3680, 155713.0
890.4950, 155609.0
891.6220, 156011.0
892.7490, 155710.0
893.8750, 155860.0
895.0010, 156478.0
896.1270, 155567.0
897.2530, 156249.0
898.3790, 155836.0
899.5050, 156265.0
900.6300, 157036.0
901.7550, 156372.0
902.8800, 156310.0
904.0050, 156411.0
905.1300, 156613.0
906.2550, 156565.0
907.3790, 156261.4
908.5040, 156800.1
909.6280, 157163.1
910.7520, 157359.9
911.8760, 156893.0
912.9990, 157283.1
914.1230, 157329.7
915.2460, 157362.2
916.3690, 157662.0
917.4930, 157295.0
918.6150, 158014.0
919.7380, 157984.0
920.8610, 158109.0
921.9830, 158044.0
923.1050, 158060.0
924.2280, 157697.0
925.3490, 157735.0
926.4710, 157935.0
927.5930, 158323.0
928.7140, 158473.0
929.8360, 158676.0
930.9570, 158833.0
932.0780, 158745.0
933.1990, 158460.0
934.3190, 158682.0
935.4400, 158977.0
936.5600, 159586.0
937.6800, 159372.0
938.8000, 159823.0
939.9200, 159746.6
941.0400, 159515.0
942.1600, 159533.0
943.2790, 159117.0
944.3980, 158898.0
945.5170, 159598.0
946.6360, 159794.0
947.7550, 159066.0
948.8740, 159626.0
949.9920, 159584.0
951.1100, 159721.0
952.2280, 159905.0
953.3460, 159750.0
954.4640, 160351.0
955.5820, 159884.0
956.6990, 159787.0
957.8170, 160314.0
958.9340, 160397.0
960.0510, 161088.0
961.1680, 160666.0
962.2850, 161348.0
963.4010, 161295.0
964.5170, 161504.0
965.6340, 162528.0
966.7500, 162042.0
967.8660, 162538.0
968.9810, 162805.0
970.0970, 162494.0
971.2130, 163147.0
972.3280, 163078.0
973.4430, 162674.0
974.5580, 163545.0
975.6730, 163970.0
976.7870, 163819.0
977.9020, 165202.0
979.0160, 165868.0
980.1300, 167948.0
981.2440, 170359.0
982.3580, 172822.0
983.4720, 176320.0
984.5860, 178578.0
985.6990, 180462.0
986.8120, 181729.0
987.9250, 180056.0
989.0380, 177153.0
990.1510, 173439.0
991.2630, 170790.0
992.3760, 168676.0
993.4880, 167171.0
994.6000, 166012.0
995.7120, 165344.0
996.8240, 164810.0
997.9360, 164113.0
999.0470, 163641.0
1000.159, 164002.0
1001.270, 163249.0
1002.381, 163291.0
1003.492, 163689.0
1004.602, 163398.0
1005.713, 162998.0
1006.823, 162678.0
1007.934, 163019.0
1009.044, 162973.0
1010.154, 163081.5
1011.263, 162835.0
1012.373, 163336.0
1013.482, 163388.0
1014.592, 163382.0
1015.701, 162615.0
1016.810, 162681.0
1017.919, 163383.0
1019.027, 162173.0
1020.136, 163061.0
1021.244, 162643.0
1022.352, 162211.0
1023.460, 162658.0
1024.568, 162164.0
1025.676, 162650.0
1026.784, 162142.0
1027.891, 162456.0
1028.998, 162518.0
1030.105, 162740.0
1031.212, 162885.1
1032.319, 162328.0
1033.426, 163165.0
1034.532, 163101.0
1035.638, 163263.0
1036.745, 163801.0
1037.851, 163195.0
1038.956, 162867.0
1040.062, 163621.0
1041.168, 163500.0
1042.273, 163659.0
1043.378, 163075.0
1044.483, 163423.0
1045.588, 163219.0
1046.693, 163507.0
1047.798, 163864.0
1048.902, 163955.1
1050.006, 164187.0
1051.110, 164546.0
1052.214, 164771.0
1053.318, 165234.0
1054.422, 165864.0
1055.525, 165974.0
1056.629, 166051.0
1057.732, 166489.0
1058.835, 166110.0
1059.938, 166394.1
1061.040, 166622.0
1062.143, 166701.0
1063.245, 166673.0
1064.348, 167120.0
1065.450, 167372.0
1066.552, 167093.0
1067.653, 166205.0
1068.755, 166143.0
1069.856, 165958.0
1070.958, 166063.0
1072.059, 165513.0
1073.160, 165392.0
1074.261, 164796.0
1075.361, 164954.0
1076.462, 164526.0
1077.562, 164666.0
1078.662, 164796.0
1079.762, 164924.0
1080.862, 164469.0
1081.962, 164563.0
1083.062, 164955.0
1084.161, 164431.0
1085.260, 164531.0
1086.359, 164872.0
1087.458, 164465.0
1088.557, 165114.0
1089.656, 164560.0
1090.754, 164805.0
1091.853, 164964.0
1092.951, 164300.0
1094.049, 165051.0
1095.147, 164798.0
1096.244, 165069.0
1097.342, 164094.0
1098.439, 165141.0
1099.537, 164981.0
1100.634, 164585.0
1101.731, 165207.0
1102.827, 165627.0
1103.924, 165015.0
1105.021, 164954.0
1106.117, 165412.0
1107.213, 164953.0
1108.309, 165408.0
1109.405, 165665.0
1110.501, 164874.0
1111.596, 165901.0
1112.691, 165891.0
1113.787, 165694.0
1114.882, 165449.0
1115.977, 165316.0
1117.071, 165777.0
1118.166, 165018.0
1119.260, 165704.0
1120.355, 165638.0
1121.449, 164938.0
1122.543, 165830.0
1123.637, 165641.0
1124.730, 165635.0
1125.824, 166267.0
1126.917, 165524.0
1128.010, 165744.0
1129.103, 165738.0
1130.196, 165599.0
1131.289, 165576.0
1132.382, 165447.0
1133.474, 165706.0
1134.566, 165483.0
1135.659, 165338.0
1136.750, 165066.0
1137.842, 165569.0
1138.934, 165293.0
1140.025, 165521.0
1141.117, 165566.0
1142.208, 165191.0
1143.299, 164909.0
1144.390, 165741.0
1145.481, 165386.0
1146.571, 166049.0
1147.662, 165820.0
1148.752, 166074.0
1149.842, 165847.0
1150.932, 165934.0
1152.022, 165648.0
1153.111, 165857.0
1154.201, 166448.0
1155.290, 165862.0
1156.379, 166132.0
1157.468, 166355.0
1158.557, 166110.0
1159.646, 165844.0
1160.734, 166006.0
1161.823, 166194.0
1162.911, 165608.0
1163.999, 166471.0
1165.087, 166423.0
1166.175, 166192.0
1167.262, 166117.0
1168.350, 165695.0
1169.437, 166144.0
1170.524, 166655.0
1171.611, 166387.0
1172.698, 166397.0
1173.785, 165956.0
1174.872, 165911.0
1175.958, 166217.0
1177.044, 166267.0
1178.130, 166044.0
1179.216, 165902.0
1180.302, 165804.0
1181.388, 166588.0
1182.473, 166522.0
1183.558, 166586.0
1184.644, 166105.0
1185.729, 166215.0
1186.813, 166447.0
1187.898, 166507.0
1188.983, 165789.0
1190.067, 166220.0
1191.151, 165836.0
1192.235, 166112.0
1193.319, 166159.9
1194.403, 166564.0
1195.487, 166232.0
1196.570, 166005.0
1197.653, 165848.0
1198.737, 166547.0
1199.820, 166181.0
1200.902, 166060.0
1201.985, 166308.0
1203.068, 166073.0
1204.150, 165965.0
1205.232, 165968.0
1206.314, 166430.0
1207.396, 166266.0
1208.478, 166348.0
1209.560, 166285.0
1210.641, 166398.6
1211.722, 166318.0
1212.804, 166500.0
1213.885, 166613.0
1214.965, 166253.0
1216.046, 166510.0
1217.127, 166364.0
1218.207, 166152.0
1219.287, 166454.0
1220.367, 166077.0
1221.447, 166422.0
1222.527, 167240.0
1223.607, 166198.0
1224.686, 167014.0
1225.765, 166403.0
1226.845, 166687.0
1227.924, 166655.4
1229.002, 166568.0
1230.081, 166547.0
1231.160, 166510.0
1232.238, 166669.0
1233.316, 166555.0
1234.394, 166327.0
1235.472, 166999.0
1236.550, 166497.0
1237.628, 167054.0
1238.705, 166358.0
1239.783, 166679.0
1240.860, 166610.0
1241.937, 165805.0
1243.014, 166603.0
1244.090, 166243.0
1245.167, 165880.0
1246.243, 166651.0
