##NAMES=Sodalite
##RRUFFID=R060405
##IDEAL CHEMISTRY=Na_4_Si_3_Al_3_O_12_Cl
##LOCALITY=Cerro Sapo, Cochabamba Department, Bolivia
##OWNER=RRUFF
##SOURCE=Marcus Origlieri
##DESCRIPTION=Blue massive associated with brown burbankite R050646
##STATUS=The identification of this mineral has been confirmed by X-ray diffraction and chemical analysis
##URL=rruff.info/R060405
##MEASURED CHEMISTRY=Na_8.00_Al_6.00_Si_6.00_O_24_Cl_2_
##PIN_ID=L01500
##ORIENTATION=Laser parallel to a* (1 0 0). Fiducial mark perpendicular to laser is parallel to c [0 0 1]
68.35300, 11554.00
69.59000, 11903.00
70.82800, 12147.00
72.06500, 12822.00
73.30200, 13037.00
74.53900, 14037.00
75.77500, 14220.00
77.01200, 14558.00
78.24800, 16516.00
79.48400, 17634.00
80.72100, 17066.00
81.95600, 16137.00
83.19200, 15942.00
84.42800, 16929.00
85.66300, 16473.00
86.89900, 15221.00
88.13400, 13711.00
89.36900, 12616.00
90.60400, 11794.00
91.83800, 11323.00
93.07300, 10662.00
94.30700, 10589.00
95.54100, 10141.00
96.77500, 9940.000
98.00900, 9802.000
99.24300, 10283.00
100.4770, 12548.00
101.7100, 11987.00
102.9440, 13466.00
104.1770, 14651.00
105.4100, 15069.00
106.6430, 15219.00
107.8750, 15181.00
109.1080, 15305.00
110.3400, 15695.00
111.5720, 16398.00
112.8040, 16476.00
114.0360, 16702.00
115.2680, 16454.00
116.5000, 15297.00
117.7310, 14338.00
118.9620, 13446.00
120.1940, 12702.00
121.4250, 12466.00
122.6550, 12656.00
123.8860, 12611.00
125.1170, 12588.00
126.3470, 12784.92
127.5770, 12934.00
128.8070, 13094.00
130.0370, 13317.00
131.2670, 13465.00
132.4970, 13425.00
133.7260, 13219.00
134.9550, 12955.00
136.1850, 12823.00
137.4140, 12699.00
138.6420, 12676.93
139.8710, 12886.00
141.1000, 12780.00
142.3280, 12925.00
143.5560, 13040.00
144.7840, 13154.00
146.0120, 13687.00
147.2400, 14018.00
148.4680, 14199.00
149.6950, 14065.00
150.9220, 14331.00
152.1500, 14602.00
153.3770, 15208.30
154.6030, 15969.00
155.8300, 17076.00
157.0570, 18460.19
158.2830, 20084.00
159.5090, 22272.00
160.7350, 24710.00
161.9610, 27573.00
163.1870, 31063.00
164.4130, 33899.00
165.6380, 35732.00
166.8630, 36374.00
168.0880, 35753.00
169.3130, 33784.00
170.5380, 30777.00
171.7630, 27356.00
172.9870, 23972.00
174.2120, 21597.00
175.4360, 20083.00
176.6600, 18730.00
177.8840, 17984.00
179.1080, 17212.00
180.3310, 16357.00
181.5550, 15767.94
182.7780, 15267.00
184.0010, 14665.00
185.2240, 14072.00
186.4470, 13752.00
187.6700, 13352.00
188.8920, 13217.00
190.1150, 12866.00
191.3370, 12687.00
192.5590, 12624.00
193.7810, 12364.00
195.0020, 12398.00
196.2240, 12248.00
197.4450, 12273.00
198.6670, 12280.00
199.8880, 12307.00
201.1090, 12242.59
202.3300, 12093.00
203.5500, 12165.00
204.7710, 12169.00
205.9910, 12279.00
207.2110, 12283.96
208.4310, 12337.00
209.6510, 12367.00
210.8710, 12476.00
212.0910, 12610.00
213.3100, 12513.00
214.5290, 12688.00
215.7480, 12746.00
216.9670, 12726.00
218.1860, 12834.00
219.4050, 12987.00
220.6230, 13254.00
221.8420, 13443.00
223.0600, 13843.00
224.2780, 14010.00
225.4960, 14435.00
226.7130, 14862.00
227.9310, 15030.00
229.1480, 15114.00
230.3660, 15493.00
231.5830, 16094.00
232.8000, 16393.00
234.0160, 16390.00
235.2330, 16765.00
236.4490, 16892.00
237.6660, 17003.00
238.8820, 17248.00
240.0980, 17652.00
241.3140, 17927.00
242.5300, 18996.00
243.7450, 19569.00
244.9600, 20288.00
246.1760, 21702.00
247.3910, 22728.48
248.6060, 24236.00
249.8200, 25860.00
251.0350, 27471.00
252.2500, 29890.00
253.4640, 32295.00
254.6780, 35617.00
255.8920, 39135.00
257.1060, 41926.00
258.3190, 44582.00
259.5330, 47255.00
260.7460, 50014.00
261.9600, 51774.00
263.1730, 53153.00
264.3850, 53461.00
265.5980, 52666.00
266.8110, 50651.00
268.0230, 47752.00
269.2360, 45016.00
270.4480, 41545.00
271.6600, 38521.00
272.8710, 35285.00
274.0830, 33068.00
275.2950, 30675.00
276.5060, 28863.00
277.7170, 27566.00
278.9280, 26294.00
280.1390, 25304.00
281.3500, 24813.00
282.5600, 24342.00
283.7710, 24147.00
284.9810, 24244.00
286.1910, 24597.00
287.4010, 25482.00
288.6110, 26063.00
289.8200, 27140.00
291.0300, 28399.00
292.2390, 29156.00
293.4480, 30173.00
294.6570, 30393.00
295.8660, 30306.00
297.0750, 29349.00
298.2830, 27341.00
299.4920, 25430.00
300.7000, 22994.00
301.9080, 21113.00
303.1160, 19608.00
304.3240, 18602.00
305.5310, 17786.00
306.7390, 17188.00
307.9460, 16909.00
309.1530, 16528.00
310.3600, 16165.00
311.5670, 16172.00
312.7740, 16131.00
313.9800, 16100.00
315.1870, 16092.00
316.3930, 16075.00
317.5990, 16117.00
318.8050, 15994.00
320.0110, 16085.00
321.2160, 16057.84
322.4220, 15984.00
323.6270, 16079.00
324.8320, 15998.00
326.0370, 16007.00
327.2420, 16017.00
328.4460, 16182.00
329.6510, 16166.00
330.8550, 16028.00
332.0590, 15916.00
333.2630, 16122.00
334.4670, 15946.00
335.6710, 15976.00
336.8740, 15967.00
338.0780, 15866.00
339.2810, 15878.00
340.4840, 15850.89
341.6870, 15963.00
342.8900, 15826.00
344.0920, 15825.00
345.2950, 15788.00
346.4970, 15675.00
347.6990, 15637.00
348.9010, 15666.00
350.1030, 15620.00
351.3050, 15610.00
352.5060, 15581.00
353.7080, 15502.00
354.9090, 15570.00
356.1100, 15463.40
357.3110, 15457.92
358.5110, 15347.00
359.7120, 15388.00
360.9120, 15400.00
362.1130, 15349.00
363.3130, 15388.00
364.5130, 15326.00
365.7120, 15429.00
366.9120, 15460.00
368.1120, 15377.00
369.3110, 15608.00
370.5100, 15561.00
371.7090, 15468.00
372.9080, 15415.00
374.1070, 15161.00
375.3050, 15184.00
376.5040, 15034.00
377.7020, 15088.00
378.9000, 15100.00
380.0980, 14980.00
381.2950, 14871.00
382.4930, 15035.00
383.6910, 14946.00
384.8880, 14934.00
386.0850, 14783.00
387.2820, 14664.00
388.4790, 14938.00
389.6750, 14807.00
390.8720, 14848.00
392.0680, 15046.00
393.2640, 14966.00
394.4600, 15152.00
395.6560, 15115.00
396.8520, 15198.00
398.0480, 15389.00
399.2430, 15637.00
400.4380, 15828.00
401.6330, 16239.00
402.8280, 16443.00
404.0230, 16790.00
405.2180, 17359.00
406.4120, 17828.00
407.6060, 18375.00
408.8000, 18954.00
409.9940, 19212.00
411.1880, 19300.00
412.3820, 18962.00
413.5750, 18317.00
414.7690, 17728.00
415.9620, 17404.00
417.1550, 16977.00
418.3480, 16967.00
419.5410, 17119.00
420.7330, 17186.00
421.9260, 17401.00
423.1180, 17528.00
424.3100, 17749.00
425.5020, 18178.00
426.6940, 18108.00
427.8850, 18659.00
429.0770, 19090.00
430.2680, 19250.00
431.4590, 19613.00
432.6500, 20070.00
433.8410, 20291.00
435.0320, 20860.00
436.2220, 21646.00
437.4130, 22249.00
438.6030, 22795.00
439.7930, 24032.00
440.9830, 25051.00
442.1730, 26773.00
443.3620, 28601.00
444.5520, 30839.00
445.7410, 33699.00
446.9300, 36829.00
448.1190, 40848.00
449.3080, 45529.00
450.4960, 51555.00
451.6850, 58775.00
452.8730, 67871.00
454.0610, 79631.00
455.2490, 93834.00
456.4370, 109810.0
457.6250, 130714.0
458.8130, 152702.0
460.0000, 176365.0
461.1870, 199300.0
462.3740, 218006.0
463.5610, 230038.0
464.7480, 231883.0
465.9340, 222161.0
467.1210, 201765.0
468.3070, 174022.0
469.4930, 145020.0
470.6790, 118917.0
471.8650, 97419.00
473.0510, 80689.00
474.2360, 68389.00
475.4210, 58916.00
476.6070, 51802.00
477.7920, 45893.00
478.9770, 41542.00
480.1610, 38259.00
481.3460, 35599.00
482.5300, 33440.00
483.7140, 31805.00
484.8980, 30639.00
486.0820, 29648.00
487.2660, 28299.00
488.4500, 27406.00
489.6330, 26827.00
490.8160, 26063.00
492.0000, 25202.00
493.1830, 24779.00
494.3650, 24498.00
495.5480, 24210.00
496.7300, 24145.00
497.9130, 23965.00
499.0950, 23039.00
500.2770, 22158.00
501.4590, 21226.00
502.6410, 20269.00
503.8220, 19634.00
505.0030, 18856.00
506.1850, 18483.00
507.3660, 18013.00
508.5470, 17870.00
509.7270, 17541.00
510.9080, 17525.00
512.0880, 17387.00
513.2690, 17210.00
514.4490, 17033.00
515.6290, 17144.00
516.8090, 17095.00
517.9880, 17053.00
519.1680, 16902.00
520.3470, 16737.00
521.5260, 16792.00
522.7050, 16795.00
523.8840, 16698.00
525.0630, 16534.00
526.2410, 16160.00
527.4200, 16195.00
528.5980, 16068.00
529.7760, 16083.00
530.9540, 15943.00
532.1320, 15799.00
533.3090, 15649.00
534.4870, 15538.00
535.6640, 15442.70
536.8410, 15402.00
538.0180, 15371.00
539.1950, 15344.00
540.3710, 15484.00
541.5480, 15107.00
542.7240, 15117.00
543.9000, 14904.00
545.0760, 14950.00
546.2520, 14798.00
547.4280, 14663.00
548.6040, 14697.00
549.7790, 14663.00
550.9540, 14612.00
552.1290, 14431.00
553.3040, 14354.00
554.4790, 14490.00
555.6530, 14245.00
556.8280, 14225.00
558.0020, 14150.00
559.1760, 14044.00
560.3500, 14095.00
561.5240, 14017.00
562.6980, 13923.00
563.8710, 13708.00
565.0440, 13817.00
566.2170, 13675.00
567.3900, 13573.00
568.5630, 13694.00
569.7360, 13497.00
570.9090, 13554.00
572.0810, 13568.00
573.2530, 13480.00
574.4250, 13439.00
575.5970, 13560.00
576.7690, 13560.00
577.9400, 13498.00
579.1120, 13569.00
580.2830, 13508.00
581.4540, 13606.00
582.6250, 13615.00
583.7960, 13662.00
584.9660, 13448.00
586.1370, 13548.00
587.3070, 13626.00
588.4770, 13525.00
589.6470, 13618.00
590.8170, 13456.00
591.9870, 13581.00
593.1560, 13524.00
594.3260, 13449.00
595.4950, 13615.00
596.6640, 13575.00
597.8330, 13620.00
599.0010, 13795.00
600.1700, 13702.00
601.3380, 13856.00
602.5070, 13878.00
603.6750, 14220.00
604.8430, 14111.00
606.0100, 14305.00
607.1780, 14354.00
608.3450, 14407.00
609.5130, 14337.00
610.6800, 14297.00
611.8470, 14105.00
613.0140, 14071.00
614.1800, 13736.00
615.3470, 13940.00
616.5130, 13574.00
617.6790, 13668.00
618.8450, 13670.00
620.0110, 13771.00
621.1770, 13668.00
622.3420, 13565.00
623.5080, 13705.00
624.6730, 13544.00
625.8380, 13543.00
627.0030, 13563.00
628.1680, 13515.00
629.3320, 13653.00
630.4970, 13551.00
631.6610, 13531.00
632.8250, 13733.00
633.9890, 13760.00
635.1530, 13653.00
636.3160, 13715.00
637.4800, 13649.00
638.6430, 13702.00
639.8060, 13725.00
640.9690, 13752.00
642.1320, 13783.73
643.2950, 13781.82
644.4570, 13819.00
645.6200, 13796.00
646.7820, 13781.00
647.9440, 13828.00
649.1060, 13880.00
650.2670, 13874.00
651.4290, 13949.00
652.5900, 14044.00
653.7520, 14129.00
654.9130, 14015.00
656.0740, 13926.00
657.2340, 14010.00
658.3950, 14187.00
659.5550, 14255.00
660.7160, 14196.00
661.8760, 14191.00
663.0360, 14156.00
664.1960, 14159.00
665.3550, 14431.00
666.5150, 14427.00
667.6740, 14425.00
668.8330, 14541.00
669.9920, 14562.00
671.1510, 14405.00
672.3100, 14329.00
673.4680, 14456.00
674.6270, 14433.00
675.7850, 14542.00
676.9430, 14562.00
678.1010, 14583.00
679.2590, 14607.74
680.4160, 14591.00
681.5740, 14568.00
682.7310, 14624.00
683.8880, 14541.00
685.0450, 14632.00
686.2020, 14523.00
687.3580, 14574.00
688.5150, 14722.00
689.6710, 14717.00
690.8270, 14634.00
691.9830, 14682.29
693.1390, 14924.00
694.2950, 14615.00
695.4500, 14820.00
696.6050, 14768.00
697.7610, 14740.00
698.9160, 14780.00
700.0710, 14835.00
701.2250, 14908.00
702.3800, 14941.00
703.5340, 15034.00
704.6880, 15105.00
705.8420, 14926.00
706.9960, 14891.00
708.1500, 14986.00
709.3040, 15150.00
710.4570, 15067.00
711.6100, 15013.00
712.7640, 15253.00
713.9160, 15429.00
715.0690, 15393.00
716.2220, 15291.00
717.3740, 15478.00
718.5270, 15268.00
719.6790, 15256.00
720.8310, 15322.00
721.9830, 15186.00
723.1340, 15252.00
724.2860, 15334.00
725.4370, 15281.00
726.5880, 15297.00
727.7390, 15633.00
728.8900, 15745.00
730.0410, 15837.00
731.1910, 15971.00
732.3420, 16100.00
733.4920, 16178.00
734.6420, 16220.00
735.7920, 16251.00
736.9420, 16156.00
738.0910, 16113.00
739.2410, 15868.00
740.3900, 15935.00
741.5390, 15668.00
742.6880, 15744.00
743.8370, 15490.00
744.9860, 15451.00
746.1340, 15321.00
747.2820, 14966.00
748.4310, 15080.00
749.5790, 14774.00
750.7260, 14603.00
751.8740, 14551.00
753.0220, 14613.00
754.1690, 14289.00
755.3160, 14503.00
756.4630, 14427.00
757.6100, 14341.00
758.7570, 14457.00
759.9030, 14286.00
761.0500, 14272.00
762.1960, 14401.00
763.3420, 14430.00
764.4880, 14336.00
765.6340, 14154.00
766.7790, 14281.00
767.9250, 14175.00
769.0700, 14274.00
770.2150, 14164.00
771.3600, 14128.00
772.5050, 14061.91
773.6490, 14062.00
774.7940, 13967.00
775.9380, 13857.00
777.0820, 14046.00
778.2260, 14022.00
779.3700, 14169.00
780.5140, 14256.00
781.6570, 14140.00
782.8010, 14088.00
783.9440, 14077.00
785.0870, 14171.00
786.2300, 14070.00
787.3720, 14123.00
788.5150, 14086.00
789.6570, 14169.00
790.8000, 14204.00
791.9420, 14079.00
793.0840, 14100.00
794.2250, 14200.00
795.3670, 14074.00
796.5080, 14047.00
797.6500, 13958.00
798.7910, 14080.00
799.9320, 14078.00
801.0720, 13974.00
802.2130, 13862.00
803.3530, 14013.00
804.4940, 13895.00
805.6340, 13966.00
806.7740, 14119.00
807.9140, 14064.00
809.0530, 14133.00
810.1930, 14091.00
811.3320, 13959.00
812.4710, 13998.00
813.6100, 13993.00
814.7490, 13950.00
815.8880, 13957.09
817.0270, 13919.00
818.1650, 13947.00
819.3030, 13945.00
820.4410, 14006.00
821.5790, 13932.00
822.7170, 14105.00
823.8540, 13971.00
824.9920, 14137.00
826.1290, 14061.00
827.2660, 14043.00
828.4030, 14051.00
829.5400, 14042.00
830.6760, 14044.70
831.8130, 14056.00
832.9490, 14059.00
834.0850, 14112.00
835.2210, 14135.00
836.3570, 14084.00
837.4930, 14187.00
838.6280, 14234.00
839.7640, 14202.00
840.8990, 14269.00
842.0340, 14248.00
843.1690, 14280.00
844.3030, 14178.00
845.4380, 14207.00
846.5720, 14366.00
847.7060, 14210.00
848.8400, 14306.00
849.9740, 14401.00
851.1080, 14422.00
852.2420, 14471.15
853.3750, 14514.17
854.5080, 14504.00
855.6410, 14569.00
856.7740, 14593.00
857.9070, 14602.00
859.0400, 14565.00
860.1720, 14628.00
861.3040, 14609.00
862.4360, 15139.00
863.5680, 15430.00
864.7000, 15308.00
865.8320, 14734.00
866.9630, 14914.00
868.0950, 14914.00
869.2260, 14977.00
870.3570, 15034.00
871.4880, 14986.00
872.6180, 14995.33
873.7490, 15037.00
874.8790, 14954.00
876.0090, 14992.00
877.1390, 15050.00
878.2690, 15037.00
879.3990, 15067.00
880.5280, 14924.00
881.6580, 14871.00
882.7870, 15035.00
883.9160, 14889.00
885.0450, 14874.00
886.1740, 14849.00
887.3020, 14862.00
888.4310, 14803.81
889.5590, 14662.00
890.6870, 14701.00
891.8150, 14582.00
892.9430, 14526.00
894.0700, 14498.00
895.1980, 14662.00
896.3250, 14698.00
897.4520, 14698.00
898.5790, 14576.00
899.7060, 14572.00
900.8330, 14780.00
901.9590, 14619.92
903.0850, 14833.00
904.2120, 14568.00
905.3380, 14724.00
906.4630, 14871.00
907.5890, 14825.00
908.7150, 14772.00
909.8400, 14780.00
910.9650, 14978.00
912.0900, 14710.00
913.2150, 14947.00
914.3400, 14771.00
915.4640, 15005.00
916.5890, 14910.00
917.7130, 15016.00
918.8370, 15227.00
919.9610, 14970.00
921.0850, 15018.00
922.2080, 15133.00
923.3320, 15033.00
924.4550, 15060.00
925.5780, 15390.00
926.7010, 15229.00
927.8240, 15290.00
928.9460, 15097.00
930.0690, 15281.00
931.1910, 15225.00
932.3130, 15409.00
933.4350, 15417.00
934.5570, 15440.00
935.6790, 15474.00
936.8000, 15357.00
937.9220, 15486.00
939.0430, 15637.00
940.1640, 15814.00
941.2850, 15660.00
942.4050, 15783.00
943.5260, 15725.00
944.6460, 16034.00
945.7660, 15901.00
946.8860, 16130.00
948.0060, 16091.00
949.1260, 16063.00
950.2460, 16171.00
951.3650, 16332.00
952.4840, 16542.00
953.6030, 16667.00
954.7220, 16833.00
955.8410, 17096.00
956.9590, 17483.16
958.0780, 17986.00
959.1960, 18435.00
960.3140, 19103.00
961.4320, 19644.00
962.5500, 20532.00
963.6680, 21252.00
964.7850, 22063.00
965.9020, 22508.00
967.0190, 22958.00
968.1360, 23154.00
969.2530, 23494.00
970.3700, 23887.00
971.4860, 24107.00
972.6030, 24595.00
973.7190, 25285.00
974.8350, 25906.00
975.9510, 27191.00
977.0660, 29325.00
978.1820, 32334.00
979.2970, 36601.00
980.4130, 42548.00
981.5280, 50617.00
982.6420, 60012.00
983.7570, 70648.00
984.8720, 80915.00
985.9860, 88268.00
987.1000, 88289.00
988.2140, 81516.00
989.3280, 68618.00
990.4420, 55696.00
991.5560, 44163.00
992.6690, 36130.00
993.7820, 30856.00
994.8950, 27295.00
996.0080, 24855.00
997.1210, 23076.00
998.2340, 21917.00
999.3460, 21176.00
1000.458, 20561.00
1001.571, 19993.00
1002.683, 19587.00
1003.794, 19356.11
1004.906, 19347.00
1006.017, 19256.00
1007.129, 19537.00
1008.240, 19788.00
1009.351, 20019.00
1010.462, 20320.00
1011.572, 20421.00
1012.683, 20386.00
1013.793, 19904.00
1014.904, 19190.00
1016.014, 18720.00
1017.123, 18288.00
1018.233, 17690.00
1019.343, 17472.00
1020.452, 17290.00
1021.561, 16979.00
1022.670, 17118.00
1023.779, 17016.00
1024.888, 16974.17
1025.997, 16785.00
1027.105, 16913.00
1028.213, 17038.00
1029.321, 16904.00
1030.429, 16886.00
1031.537, 17036.00
1032.645, 17224.00
1033.752, 17318.00
1034.859, 17366.00
1035.966, 17477.00
1037.073, 17573.00
1038.180, 17655.00
1039.287, 17677.00
1040.393, 18100.00
1041.500, 18471.00
1042.606, 18657.00
1043.712, 19167.00
1044.818, 19706.00
1045.923, 20011.00
1047.029, 20627.00
1048.134, 21455.00
1049.239, 22097.00
1050.344, 22974.00
1051.449, 24225.00
1052.554, 25936.00
1053.658, 27207.00
1054.763, 28862.00
1055.867, 30592.00
1056.971, 32186.00
1058.075, 33143.00
1059.179, 33515.00
1060.282, 33811.00
1061.385, 33877.00
1062.489, 33895.00
1063.592, 33444.00
1064.695, 33079.00
1065.797, 32659.00
1066.900, 31346.00
1068.002, 30399.00
1069.105, 29311.00
1070.207, 27752.00
1071.309, 26607.00
1072.411, 25064.00
1073.512, 24283.00
1074.614, 23286.00
1075.715, 22427.00
1076.816, 21788.00
1077.917, 21143.00
1079.018, 20603.00
1080.118, 20092.63
1081.219, 19698.62
1082.319, 19278.00
1083.419, 19104.00
1084.519, 18931.00
1085.619, 18785.00
1086.719, 18634.71
1087.818, 18437.00
1088.918, 18399.00
1090.017, 18304.00
1091.116, 18272.00
1092.215, 18083.00
1093.314, 18063.00
1094.412, 17987.00
1095.510, 17975.00
1096.609, 17791.00
1097.707, 17816.00
1098.805, 17979.00
1099.902, 17927.00
1101.000, 17773.00
1102.097, 17665.00
1103.195, 17846.00
1104.292, 17715.00
1105.389, 17724.00
1106.485, 17582.00
1107.582, 17432.00
1108.678, 17481.00
1109.775, 17462.05
1110.871, 17618.00
1111.967, 17621.00
1113.062, 17915.00
1114.158, 18060.00
1115.254, 17503.00
1116.349, 17619.00
1117.444, 17401.00
1118.539, 17638.00
1119.634, 17206.00
1120.728, 17626.00
1121.823, 17493.00
1122.917, 17631.00
1124.011, 17523.00
1125.105, 17452.00
1126.199, 17506.00
1127.293, 17483.00
1128.386, 17383.00
1129.480, 17626.00
1130.573, 17394.00
1131.666, 17405.00
1132.759, 17501.00
1133.851, 17445.00
1134.944, 17313.00
1136.036, 17621.00
1137.129, 17366.00
1138.221, 17279.00
1139.313, 17497.00
1140.404, 17527.00
1141.496, 17464.00
1142.587, 17454.00
1143.678, 17439.00
1144.770, 17463.00
1145.860, 17454.73
1146.951, 17494.00
1148.042, 17462.00
1149.132, 17488.00
1150.223, 17486.00
1151.313, 17435.00
1152.403, 17582.00
1153.492, 17451.00
1154.582, 17447.00
1155.671, 17382.00
1156.761, 17483.00
1157.850, 17543.00
1158.939, 17439.00
1160.028, 17665.00
1161.116, 17510.00
1162.205, 17406.00
1163.293, 17468.00
1164.381, 17433.00
1165.469, 17248.00
1166.557, 17306.00
1167.645, 17342.00
1168.732, 17370.00
1169.820, 17288.00
1170.907, 17258.00
1171.994, 17230.00
1173.081, 17192.55
1174.167, 17178.00
1175.254, 17170.03
1176.340, 17168.00
1177.426, 17197.00
1178.512, 17277.00
1179.598, 17144.00
1180.684, 17070.00
1181.770, 17102.33
1182.855, 17413.00
1183.940, 17111.00
1185.025, 17206.00
1186.110, 17219.00
1187.195, 17074.00
1188.280, 17199.00
1189.364, 17167.00
1190.448, 17182.00
1191.532, 17003.00
1192.616, 17137.00
1193.700, 17215.00
1194.784, 17301.00
1195.867, 17146.00
1196.950, 17165.00
1198.034, 17081.00
1199.117, 17155.00
1200.199, 17171.00
1201.282, 17245.00
1202.364, 17084.00
1203.447, 17268.00
1204.529, 17144.00
1205.611, 17286.00
1206.693, 17109.00
1207.774, 17276.00
1208.856, 17372.00
1209.937, 17294.00
1211.018, 17329.00
1212.099, 17207.00
1213.180, 17418.00
1214.261, 17822.00
1215.341, 17750.00
1216.422, 17440.00
1217.502, 17152.00
1218.582, 17123.00
1219.662, 17265.00
1220.742, 17303.00
1221.821, 17283.00
1222.900, 17191.00
1223.980, 17233.00
1225.059, 17203.00
1226.138, 17265.00
1227.216, 17241.00
1228.295, 17316.00
1229.373, 17187.00
1230.452, 17379.00
1231.530, 17253.00
1232.608, 17330.00
1233.685, 17140.00
1234.763, 17317.00
1235.840, 17211.00
1236.918, 17316.00
1237.995, 17213.00
1239.072, 17103.00
1240.149, 17279.00
1241.225, 17230.00
1242.302, 17154.00
1243.378, 17236.00
1244.454, 17144.00
1245.530, 17291.00
1246.606, 17149.00
1247.681, 17372.00
1248.757, 17145.00
1249.832, 17199.00
1250.907, 17267.00
