##NAMES=Sodalite
##RRUFFID=R060416
##IDEAL CHEMISTRY=Na_4_Si_3_Al_3_O_12_Cl
##LOCALITY=Koksha Valley, Badakshan Province, Afghanistan
##OWNER=RRUFF
##SOURCE=Herb Obodda
##DESCRIPTION=Colorless fragment
##STATUS=The identification of this mineral has been confirmed by X-ray diffraction and chemical analysis
##URL=rruff.info/R060416
##MEASURED CHEMISTRY=Na_8.00_Al_6.00_Si_6.00_O_24_Cl_2.00_
##PIN_ID=L01209
##ORIENTATION=Laser parallel to -a* (-1 0 0). Fiducial mark perpendicular to laser is parallel to b [0 1 0]
71.39200, 27384.00
72.63400, 27514.00
73.87600, 27436.00
75.11800, 27476.78
76.36000, 27275.87
77.60100, 27153.00
78.84200, 26747.00
80.08400, 26650.00
81.32500, 26301.00
82.56500, 26148.53
83.80600, 26160.00
85.04600, 25791.00
86.28700, 25844.00
87.52700, 25558.00
88.76700, 25483.00
90.00600, 25516.00
91.24600, 25894.00
92.48500, 25297.00
93.72500, 25262.00
94.96400, 25185.00
96.20300, 24820.00
97.44100, 25040.00
98.68000, 25080.00
99.91800, 25334.00
101.1560, 25701.00
102.3940, 26093.00
103.6320, 26579.00
104.8700, 26858.00
106.1070, 26535.00
107.3450, 25600.00
108.5820, 25268.00
109.8190, 25295.00
111.0550, 25938.00
112.2920, 26384.00
113.5290, 26233.00
114.7650, 26174.00
116.0010, 25123.00
117.2370, 24255.00
118.4730, 24112.00
119.7080, 23437.00
120.9440, 23602.00
122.1790, 23678.00
123.4140, 23289.00
124.6490, 23309.00
125.8830, 23059.00
127.1180, 22965.00
128.3520, 23306.00
129.5870, 23189.00
130.8210, 23089.00
132.0540, 23343.00
133.2880, 23165.00
134.5220, 23063.00
135.7550, 23244.00
136.9880, 23080.00
138.2210, 23516.00
139.4540, 23935.00
140.6860, 24007.00
141.9190, 24435.00
143.1510, 25136.00
144.3830, 26320.00
145.6150, 27453.00
146.8470, 28424.00
148.0790, 28723.00
149.3100, 27881.00
150.5410, 27379.00
151.7720, 27211.00
153.0030, 27900.00
154.2340, 29176.00
155.4640, 30920.00
156.6950, 33543.00
157.9250, 36728.00
159.1550, 41205.00
160.3850, 46500.00
161.6150, 53720.00
162.8440, 61252.00
164.0730, 69731.00
165.3030, 75904.00
166.5320, 77918.00
167.7600, 74580.00
168.9890, 67003.00
170.2180, 58935.00
171.4460, 51323.00
172.6740, 45232.00
173.9020, 40564.00
175.1300, 36893.00
176.3570, 34978.00
177.5850, 32778.00
178.8120, 31373.00
180.0390, 30194.00
181.2660, 28860.00
182.4930, 27799.00
183.7190, 26876.00
184.9460, 26354.00
186.1720, 26013.00
187.3980, 25520.00
188.6240, 25251.00
189.8500, 25006.00
191.0750, 24716.00
192.3010, 24536.00
193.5260, 24558.00
194.7510, 24401.00
195.9760, 24274.00
197.2000, 24503.00
198.4250, 24494.00
199.6490, 24268.00
200.8730, 24385.00
202.0970, 24624.00
203.3210, 24308.00
204.5450, 24513.00
205.7680, 24546.00
206.9920, 24873.00
208.2150, 24981.00
209.4380, 24778.00
210.6610, 25171.00
211.8830, 25190.00
213.1060, 25690.00
214.3280, 25602.00
215.5500, 25822.00
216.7720, 26153.00
217.9940, 26262.00
219.2150, 26428.00
220.4370, 26960.00
221.6580, 27561.00
222.8790, 27760.00
224.1000, 28685.00
225.3210, 29050.00
226.5410, 29615.00
227.7620, 30227.00
228.9820, 30643.14
230.2020, 31428.00
231.4220, 31599.00
232.6410, 31938.00
233.8610, 32389.13
235.0800, 32523.00
236.2990, 33363.00
237.5180, 33899.00
238.7370, 34433.00
239.9560, 34854.00
241.1750, 36138.00
242.3930, 37051.00
243.6110, 38422.00
244.8290, 40139.00
246.0470, 42014.00
247.2640, 44391.00
248.4820, 47225.00
249.6990, 50637.54
250.9160, 54529.16
252.1330, 59001.00
253.3500, 63988.00
254.5670, 69555.00
255.7830, 75829.00
256.9990, 82729.00
258.2160, 89251.00
259.4310, 95884.00
260.6470, 102583.0
261.8630, 106741.0
263.0780, 110370.0
264.2930, 110145.0
265.5090, 108451.0
266.7230, 103879.0
267.9380, 97016.00
269.1530, 90595.00
270.3670, 84156.00
271.5810, 77537.00
272.7950, 71556.00
274.0090, 66254.00
275.2230, 62057.00
276.4370, 58481.00
277.6500, 55212.00
278.8630, 52858.00
280.0760, 50775.00
281.2890, 49117.00
282.5020, 48185.00
283.7140, 47418.00
284.9270, 46892.00
286.1390, 46704.00
287.3510, 47030.00
288.5630, 46845.00
289.7740, 47827.00
290.9860, 48925.00
292.1970, 50677.00
293.4080, 51928.00
294.6190, 53473.00
295.8300, 53460.00
297.0410, 51238.00
298.2510, 47248.00
299.4610, 43152.00
300.6710, 39083.00
301.8810, 36013.00
303.0910, 33668.00
304.3010, 32020.00
305.5100, 30757.00
306.7200, 29978.00
307.9290, 29264.00
309.1380, 28620.00
310.3460, 28041.00
311.5550, 27723.00
312.7630, 27472.00
313.9720, 27284.00
315.1800, 27056.22
316.3880, 26726.00
317.5950, 26711.00
318.8030, 26395.00
320.0100, 26239.00
321.2180, 25921.00
322.4250, 25886.00
323.6320, 25785.00
324.8380, 26141.78
326.0450, 25882.05
327.2510, 25782.01
328.4570, 25508.00
329.6640, 25505.00
330.8690, 25095.00
332.0750, 25348.00
333.2810, 25482.00
334.4860, 25295.00
335.6910, 25446.00
336.8960, 25367.00
338.1010, 25160.00
339.3060, 25192.00
340.5100, 25310.00
341.7150, 25346.00
342.9190, 25321.00
344.1230, 25402.00
345.3270, 25322.00
346.5300, 25576.00
347.7340, 25360.00
348.9370, 25420.00
350.1400, 25399.00
351.3430, 25157.00
352.5460, 25405.00
353.7490, 25238.00
354.9510, 25310.00
356.1540, 25590.00
357.3560, 25409.00
358.5580, 25361.00
359.7600, 25318.00
360.9610, 25341.00
362.1630, 25389.00
363.3640, 25350.00
364.5650, 25374.00
365.7660, 25641.00
366.9670, 25541.00
368.1680, 25560.00
369.3680, 25825.00
370.5680, 25811.00
371.7680, 25749.00
372.9680, 25739.00
374.1680, 25891.00
375.3680, 25838.00
376.5670, 25948.00
377.7660, 25877.00
378.9660, 26087.00
380.1640, 26337.00
381.3630, 26286.00
382.5620, 25995.00
383.7600, 26291.00
384.9590, 26404.00
386.1570, 26607.00
387.3550, 26951.00
388.5520, 26765.00
389.7500, 27169.00
390.9470, 27142.00
392.1450, 27318.00
393.3420, 27648.00
394.5390, 27772.00
395.7350, 27789.00
396.9320, 28116.00
398.1280, 28480.00
399.3250, 28865.00
400.5210, 29536.00
401.7160, 30197.00
402.9120, 31229.00
404.1080, 32159.00
405.3030, 33827.00
406.4980, 36077.00
407.6930, 38200.00
408.8880, 40897.00
410.0830, 42429.00
411.2780, 41538.00
412.4720, 38466.00
413.6660, 36377.00
414.8600, 34548.00
416.0540, 34037.00
417.2480, 33087.00
418.4410, 32419.00
419.6350, 32685.00
420.8280, 32994.00
422.0210, 32923.00
423.2140, 33207.00
424.4070, 33503.00
425.5990, 33922.96
426.7920, 34758.00
427.9840, 35159.00
429.1760, 35735.00
430.3680, 36603.00
431.5590, 37045.00
432.7510, 37721.00
433.9420, 38577.00
435.1330, 39657.00
436.3240, 40734.00
437.5150, 41701.00
438.7060, 43346.00
439.8960, 44834.00
441.0870, 46972.00
442.2770, 49274.00
443.4670, 52494.00
444.6570, 56432.00
445.8470, 60311.00
447.0360, 66376.00
448.2250, 73558.00
449.4150, 81665.00
450.6040, 92675.00
451.7920, 105741.0
452.9810, 122843.0
454.1700, 144598.0
455.3580, 171451.0
456.5460, 205159.0
457.7340, 245672.0
458.9220, 292717.0
460.1100, 347818.0
461.2970, 403570.0
462.4850, 454915.0
463.6720, 488629.0
464.8590, 490622.0
466.0460, 461436.0
467.2320, 406208.0
468.4190, 342983.0
469.6050, 283168.0
470.7910, 231394.0
471.9770, 190597.0
473.1630, 159673.0
474.3490, 135811.0
475.5340, 117566.0
476.7200, 103726.0
477.9050, 92628.00
479.0900, 83777.00
480.2750, 77141.00
481.4590, 71354.00
482.6440, 66646.00
483.8280, 63147.00
485.0120, 59945.00
486.1960, 57997.00
487.3800, 56133.00
488.5640, 54817.00
489.7470, 53715.00
490.9310, 53270.00
492.1140, 52927.00
493.2970, 53381.00
494.4800, 54780.00
495.6620, 56085.00
496.8450, 57110.00
498.0270, 57234.00
499.2090, 55190.00
500.3910, 52047.00
501.5730, 48849.00
502.7550, 45934.00
503.9360, 42930.00
505.1170, 41102.00
506.2990, 39879.00
507.4800, 38866.00
508.6600, 38313.00
509.8410, 37845.00
511.0220, 37651.00
512.2020, 37215.59
513.3820, 36979.00
514.5620, 36715.00
515.7420, 36719.00
516.9220, 36714.00
518.1010, 36560.00
519.2800, 36664.00
520.4600, 36542.00
521.6390, 36255.00
522.8170, 35919.00
523.9960, 35852.00
525.1750, 35601.48
526.3530, 35536.00
527.5310, 35262.00
528.7090, 35112.00
529.8870, 34886.00
531.0650, 34665.00
532.2420, 34466.55
533.4190, 34241.00
534.5970, 34100.00
535.7740, 33949.00
536.9500, 33922.00
538.1270, 33893.00
539.3040, 33837.00
540.4800, 33663.00
541.6560, 33604.94
542.8320, 33435.27
544.0080, 33335.00
545.1840, 33138.00
546.3590, 33065.99
547.5340, 32810.00
548.7100, 32874.00
549.8850, 32827.00
551.0600, 32670.00
552.2340, 32604.00
553.4090, 32673.00
554.5830, 32101.00
555.7570, 32323.00
556.9310, 31883.00
558.1050, 31770.00
559.2790, 32031.00
560.4520, 31702.00
561.6260, 31386.00
562.7990, 31685.00
563.9720, 31278.00
565.1450, 31176.00
566.3170, 31176.00
567.4900, 31172.00
568.6620, 31226.00
569.8350, 31201.00
571.0070, 31232.00
572.1780, 31229.00
573.3500, 31173.46
574.5220, 31098.00
575.6930, 31108.00
576.8640, 30980.00
578.0350, 31060.00
579.2060, 30974.00
580.3770, 31065.19
581.5470, 31267.00
582.7180, 31241.00
583.8880, 31225.00
585.0580, 31249.00
586.2280, 31304.00
587.3980, 31251.00
588.5670, 31143.00
589.7370, 31356.00
590.9060, 31192.00
592.0750, 31402.00
593.2440, 31151.00
594.4130, 31548.00
595.5810, 31371.00
596.7500, 31388.00
597.9180, 31771.00
599.0860, 31761.00
600.2540, 32120.00
601.4220, 32403.00
602.5890, 32781.00
603.7570, 33151.00
604.9240, 33846.00
606.0910, 34433.00
607.2580, 34602.00
608.4250, 34876.00
609.5910, 34561.00
610.7580, 33972.00
611.9240, 33152.00
613.0900, 32868.00
614.2560, 32454.00
615.4220, 32147.00
616.5870, 32132.00
617.7530, 32059.00
618.9180, 31803.00
620.0830, 32031.00
621.2480, 31972.00
622.4130, 32272.00
623.5770, 32554.00
624.7420, 32271.00
625.9060, 32129.00
627.0700, 32264.00
628.2340, 31955.00
629.3980, 31786.00
630.5620, 31606.00
631.7250, 31506.00
632.8880, 31283.45
634.0510, 30857.00
635.2140, 30904.00
636.3770, 30799.00
637.5400, 30670.00
638.7020, 30698.00
639.8650, 30789.00
641.0270, 30727.00
642.1890, 30663.00
643.3510, 30954.00
644.5120, 31180.00
645.6740, 31072.00
646.8350, 31069.00
647.9960, 31294.00
649.1570, 31026.00
650.3180, 31004.00
651.4790, 31061.00
652.6390, 30956.00
653.8000, 30917.00
654.9600, 30601.00
656.1200, 30753.00
657.2800, 30508.00
658.4390, 30583.00
659.5990, 30195.00
660.7580, 30550.00
661.9170, 30020.00
663.0770, 30227.00
664.2350, 29975.00
665.3940, 30230.00
666.5530, 30344.00
667.7110, 30354.00
668.8690, 30218.00
670.0270, 30318.00
671.1850, 30092.00
672.3430, 30116.00
673.5000, 29909.00
674.6580, 30377.00
675.8150, 30314.00
676.9720, 30119.00
678.1290, 30487.00
679.2860, 30248.00
680.4420, 30257.00
681.5990, 30321.00
682.7550, 30472.00
683.9110, 30397.00
685.0670, 30088.00
686.2230, 30153.00
687.3790, 30217.00
688.5340, 30313.00
689.6890, 30549.00
690.8440, 30252.00
691.9990, 30232.00
693.1540, 30353.00
694.3090, 30504.00
695.4630, 30725.00
696.6170, 30536.00
697.7720, 30444.00
698.9260, 30536.00
700.0790, 30725.00
701.2330, 30561.00
702.3870, 30589.00
703.5400, 30897.00
704.6930, 30667.00
705.8460, 30849.00
706.9990, 31021.00
708.1510, 30827.00
709.3040, 30908.00
710.4560, 31041.00
711.6090, 31041.50
712.7610, 31145.49
713.9120, 31177.00
715.0640, 31215.00
716.2160, 31134.00
717.3670, 31011.00
718.5180, 31211.00
719.6690, 31114.00
720.8200, 31238.00
721.9710, 31358.00
723.1210, 31187.00
724.2720, 31407.00
725.4220, 31413.00
726.5720, 31397.00
727.7220, 31651.00
728.8720, 31832.00
730.0210, 31543.00
731.1710, 31689.00
732.3200, 31796.00
733.4690, 32103.00
734.6180, 32021.00
735.7670, 32094.00
736.9150, 32198.00
738.0640, 32096.00
739.2120, 32098.00
740.3600, 32372.00
741.5080, 32291.00
742.6560, 32365.00
743.8040, 32380.00
744.9510, 32412.00
746.0980, 32370.00
747.2450, 32200.00
748.3920, 32173.00
749.5390, 32136.02
750.6860, 32084.33
751.8320, 32117.00
752.9790, 32023.00
754.1250, 32008.00
755.2710, 31892.00
756.4170, 31938.00
757.5620, 32038.00
758.7080, 32037.00
759.8530, 32099.00
760.9990, 32048.00
762.1440, 31890.00
763.2880, 32007.00
764.4330, 31841.00
765.5780, 32103.00
766.7220, 32453.00
767.8660, 32156.00
769.0100, 32445.00
770.1540, 32413.00
771.2980, 32242.00
772.4420, 32482.00
773.5850, 32404.00
774.7280, 32793.00
775.8710, 32345.00
777.0140, 32752.00
778.1570, 32297.00
779.3000, 32508.00
780.4420, 32176.00
781.5840, 32600.00
782.7270, 32736.00
783.8690, 32620.00
785.0100, 32839.00
786.1520, 33242.00
787.2940, 33011.27
788.4350, 33129.85
789.5760, 32764.00
790.7170, 32977.00
791.8580, 32813.00
792.9980, 32791.00
794.1390, 32780.00
795.2790, 32740.00
796.4200, 32943.00
797.5600, 32912.54
798.6990, 33166.00
799.8390, 33038.00
800.9790, 32960.00
802.1180, 33062.00
803.2570, 33068.00
804.3960, 32992.00
805.5350, 33068.00
806.6740, 33104.00
807.8130, 33127.00
808.9510, 33287.00
810.0890, 33135.00
811.2270, 33357.00
812.3650, 33159.00
813.5030, 33383.00
814.6410, 33164.00
815.7780, 33324.00
816.9150, 33290.00
818.0530, 33453.00
819.1900, 33477.00
820.3260, 33663.00
821.4630, 33442.00
822.5990, 33576.00
823.7360, 33616.00
824.8720, 33558.00
826.0080, 33772.00
827.1440, 33815.00
828.2790, 33755.00
829.4150, 34002.00
830.5500, 33737.00
831.6860, 34049.00
832.8210, 33987.98
833.9560, 33962.00
835.0900, 34015.00
836.2250, 34111.00
837.3590, 34157.00
838.4930, 34433.00
839.6280, 34070.00
840.7610, 34531.00
841.8950, 34338.00
843.0290, 34487.00
844.1620, 34806.00
845.2950, 34551.00
846.4290, 34670.00
847.5620, 34800.00
848.6940, 34880.00
849.8270, 34820.00
850.9590, 35188.00
852.0920, 35101.00
853.2240, 35273.27
854.3560, 35535.94
855.4880, 35486.00
856.6190, 36008.00
857.7510, 36082.00
858.8820, 36238.00
860.0130, 36245.00
861.1450, 36385.00
862.2750, 36679.00
863.4060, 36261.00
864.5370, 36266.00
865.6670, 36498.00
866.7970, 36299.00
867.9270, 36463.00
869.0570, 36226.00
870.1870, 36367.00
871.3170, 36583.00
872.4460, 36374.00
873.5750, 36398.00
874.7040, 36331.00
875.8330, 36654.00
876.9620, 36451.00
878.0910, 36485.27
879.2190, 36599.00
880.3480, 36354.00
881.4760, 36242.00
882.6040, 36178.00
883.7320, 36010.00
884.8590, 35892.00
885.9870, 36105.00
887.1140, 35964.00
888.2410, 35881.00
889.3680, 35566.00
890.4950, 35698.00
891.6220, 35492.00
892.7490, 35826.00
893.8750, 35642.00
895.0010, 35499.00
896.1270, 35765.00
897.2530, 35462.00
898.3790, 35993.00
899.5050, 35935.00
900.6300, 35707.00
901.7550, 35990.00
902.8800, 36211.00
904.0050, 35869.00
905.1300, 36065.00
906.2550, 35861.00
907.3790, 36311.00
908.5040, 36311.00
909.6280, 36082.00
910.7520, 36326.19
911.8760, 36297.00
912.9990, 36376.00
914.1230, 36219.00
915.2460, 36161.00
916.3690, 36258.00
917.4930, 36216.55
918.6150, 36253.00
919.7380, 36279.00
920.8610, 36420.00
921.9830, 36374.00
923.1050, 36420.00
924.2280, 36347.00
925.3490, 36472.00
926.4710, 36629.00
927.5930, 36558.00
928.7140, 36692.00
929.8360, 36729.93
930.9570, 36655.00
932.0780, 36858.00
933.1990, 36991.00
934.3190, 37115.18
935.4400, 37262.00
936.5600, 37224.00
937.6800, 37267.00
938.8000, 37267.00
939.9200, 37478.00
941.0400, 37496.00
942.1600, 37648.00
943.2790, 37478.00
944.3980, 37657.00
945.5170, 37611.00
946.6360, 37823.00
947.7550, 37673.00
948.8740, 38056.00
949.9920, 37810.00
951.1100, 38170.00
952.2280, 38235.00
953.3460, 38270.00
954.4640, 38062.00
955.5820, 38596.00
956.6990, 38511.00
957.8170, 38949.00
958.9340, 39127.00
960.0510, 39298.00
961.1680, 39776.00
962.2850, 39778.00
963.4010, 40364.00
964.5170, 40844.00
965.6340, 41199.00
966.7500, 41658.00
967.8660, 42362.00
968.9810, 43073.00
970.0970, 43617.00
971.2130, 44717.00
972.3280, 46080.00
973.4430, 47454.00
974.5580, 50030.00
975.6730, 53170.00
976.7870, 56852.00
977.9020, 62206.00
979.0160, 70132.00
980.1300, 80744.00
981.2440, 95116.00
982.3580, 113766.0
983.4720, 136762.0
984.5860, 161182.0
985.6990, 180750.0
986.8120, 183316.0
987.9250, 167183.0
989.0380, 139856.0
990.1510, 112196.0
991.2630, 90791.00
992.3760, 75324.00
993.4880, 65461.00
994.6000, 58848.00
995.7120, 54578.00
996.8240, 51712.00
997.9360, 49219.00
999.0470, 48054.00
1000.159, 47604.00
1001.270, 46773.00
1002.381, 46698.00
1003.492, 45647.00
1004.602, 45293.00
1005.713, 45105.00
1006.823, 45881.00
1007.934, 46174.00
1009.044, 48168.00
1010.154, 49257.00
1011.263, 49899.00
1012.373, 49762.00
1013.482, 48513.00
1014.592, 46869.00
1015.701, 44641.00
1016.810, 43018.00
1017.919, 41915.00
1019.027, 40902.00
1020.136, 40174.00
1021.244, 39869.00
1022.352, 39553.00
1023.460, 39195.00
1024.568, 39061.12
1025.676, 39078.00
1026.784, 38878.00
1027.891, 38865.00
1028.998, 38948.00
1030.105, 38557.00
1031.212, 38440.00
1032.319, 38631.00
1033.426, 38655.00
1034.532, 38664.00
1035.638, 38893.00
1036.745, 39247.00
1037.851, 39356.00
1038.956, 39682.77
1040.062, 39918.00
1041.168, 40258.00
1042.273, 40586.00
1043.378, 40935.00
1044.483, 42016.00
1045.588, 42709.00
1046.693, 43908.00
1047.798, 45516.00
1048.902, 47140.00
1050.006, 49237.00
1051.110, 52100.00
1052.214, 54713.00
1053.318, 58279.00
1054.422, 61715.00
1055.525, 64734.00
1056.629, 66615.00
1057.732, 67750.00
1058.835, 67012.00
1059.938, 65930.00
1061.040, 63853.00
1062.143, 62359.00
1063.245, 60997.00
1064.348, 59961.00
1065.450, 58632.00
1066.552, 57068.00
1067.653, 55203.00
1068.755, 53448.00
1069.856, 51801.00
1070.958, 49664.00
1072.059, 47897.00
1073.160, 46712.00
1074.261, 45274.00
1075.361, 44494.00
1076.462, 43709.00
1077.562, 42951.00
1078.662, 42267.00
1079.762, 41583.00
1080.862, 41385.00
1081.962, 41167.00
1083.062, 41203.00
1084.161, 40575.00
1085.260, 40283.00
1086.359, 40069.00
1087.458, 40047.00
1088.557, 39865.00
1089.656, 39708.00
1090.754, 39597.00
1091.853, 39447.36
1092.951, 39311.00
1094.049, 39219.00
1095.147, 39297.00
1096.244, 39239.00
1097.342, 39216.54
1098.439, 39413.00
1099.537, 39094.00
1100.634, 39175.00
1101.731, 38984.00
1102.827, 38980.00
1103.924, 39144.00
1105.021, 39169.00
1106.117, 39124.00
1107.213, 39079.00
1108.309, 39100.74
1109.405, 39035.00
1110.501, 39047.00
1111.596, 39165.00
1112.691, 39003.00
1113.787, 39065.69
1114.882, 38939.00
1115.977, 38985.00
1117.071, 39094.00
1118.166, 38945.00
1119.260, 39000.00
1120.355, 39029.33
1121.449, 38968.00
1122.543, 39084.00
1123.637, 39101.00
1124.730, 39066.00
1125.824, 39116.00
1126.917, 39026.00
1128.010, 39193.00
1129.103, 39284.00
1130.196, 39148.00
1131.289, 39194.00
1132.382, 39192.00
1133.474, 39178.96
1134.566, 39230.00
1135.659, 39200.00
1136.750, 39287.00
1137.842, 39252.00
1138.934, 39220.00
1140.025, 39154.00
1141.117, 39187.00
1142.208, 39088.00
1143.299, 39082.00
1144.390, 39023.00
1145.481, 39033.00
1146.571, 39209.00
1147.662, 39229.00
1148.752, 39139.00
1149.842, 39026.00
1150.932, 39112.00
1152.022, 39001.00
1153.111, 39021.30
1154.201, 39364.00
1155.290, 38916.00
1156.379, 39483.00
1157.468, 39229.00
1158.557, 39191.00
1159.646, 39487.00
1160.734, 39200.00
1161.823, 39423.00
1162.911, 39304.00
1163.999, 39358.00
1165.087, 39279.00
1166.175, 39402.00
1167.262, 39265.36
1168.350, 39442.00
1169.437, 39092.00
1170.524, 39071.00
1171.611, 39107.00
1172.698, 39210.00
1173.785, 39107.00
1174.872, 39553.00
1175.958, 39311.00
1177.044, 39511.00
1178.130, 39374.00
1179.216, 39417.00
1180.302, 39192.00
1181.388, 39260.91
1182.473, 39445.00
1183.558, 39344.00
1184.644, 39235.00
1185.729, 39301.00
1186.813, 39176.00
1187.898, 39499.00
1188.983, 39434.00
1190.067, 39387.00
1191.151, 39387.00
1192.235, 39195.00
1193.319, 39460.00
1194.403, 39594.00
1195.487, 40133.00
1196.570, 39887.20
1197.653, 40543.00
1198.737, 39660.00
1199.820, 39786.00
1200.902, 40016.00
1201.985, 39704.98
1203.068, 39733.77
1204.150, 39826.00
1205.232, 39464.00
1206.314, 39716.00
1207.396, 39733.00
1208.478, 39833.00
1209.560, 39929.64
1210.641, 40009.96
1211.722, 39996.00
1212.804, 40149.00
1213.885, 40079.00
1214.965, 39985.00
1216.046, 39931.00
1217.127, 40223.00
1218.207, 39795.00
1219.287, 40285.00
1220.367, 39863.00
1221.447, 40003.00
1222.527, 40011.00
1223.607, 39978.00
1224.686, 40206.00
1225.765, 40279.86
1226.845, 40361.37
1227.924, 40517.00
1229.002, 40569.00
1230.081, 40651.27
1231.160, 40589.00
1232.238, 40746.00
1233.316, 40758.00
1234.394, 40750.00
1235.472, 40854.58
1236.550, 41028.00
1237.628, 41016.00
1238.705, 40900.00
1239.783, 41052.00
1240.860, 40786.00
1241.937, 40913.00
1243.014, 40501.00
1244.090, 40830.00
1245.167, 40707.00
1246.243, 40931.00
1247.319, 40814.00
1248.396, 40907.00
1249.471, 40956.00
1250.547, 41023.00
1251.623, 40962.00
1252.698, 40921.00
1253.774, 40871.29
1254.849, 41043.00
1255.924, 40778.00
