##NAMES=Sodalite
##RRUFFID=R060354
##IDEAL CHEMISTRY=Na_4_Si_3_Al_3_O_12_Cl
##LOCALITY=Koksha Valley, Badakshan Province, Afghanistan
##OWNER=RRUFF
##SOURCE=Herb Obodda
##DESCRIPTION=Pale purple transparent fragment
##STATUS=The identification of this mineral has been confirmed by X-ray diffraction and chemical analysis
##URL=rruff.info/R060354
##MEASURED CHEMISTRY=(Na_0.99_K_0.01_)_8_Al_6.00_Si_6.00_O_24_Cl_2.00_
##PIN_ID=L01562
##ORIENTATION=Laser parallel to a* (1 0 0). Fiducial mark perpendicular to laser is parallel to -c [0 0 -1]
61.44800, 57706.00
62.69200, 57570.00
63.93500, 58094.00
65.17800, 57919.00
66.42100, 58194.00
67.66400, 58639.00
68.90700, 58226.00
70.15000, 58797.00
71.39200, 58642.00
72.63400, 58827.00
73.87600, 59279.00
75.11800, 59071.00
76.36000, 58950.00
77.60100, 59058.00
78.84200, 59183.00
80.08400, 59429.00
81.32500, 60407.00
82.56500, 60115.37
83.80600, 60620.00
85.04600, 59969.00
86.28700, 59804.00
87.52700, 59615.00
88.76700, 59533.30
90.00600, 59667.70
91.24600, 59739.00
92.48500, 60020.00
93.72500, 60229.00
94.96400, 60273.00
96.20300, 60228.00
97.44100, 60384.00
98.68000, 60405.00
99.91800, 60669.00
101.1560, 60922.00
102.3940, 60901.00
103.6320, 60774.00
104.8700, 61168.00
106.1070, 61145.43
107.3450, 61403.00
108.5820, 61441.00
109.8190, 61716.00
111.0550, 61873.00
112.2920, 61845.00
113.5290, 61522.00
114.7650, 61846.00
116.0010, 61989.00
117.2370, 62024.00
118.4730, 62384.00
119.7080, 63084.00
120.9440, 66130.00
122.1790, 67332.00
123.4140, 64749.00
124.6490, 63418.00
125.8830, 63076.00
127.1180, 62988.00
128.3520, 62570.00
129.5870, 62821.00
130.8210, 63031.00
132.0540, 62823.00
133.2880, 63200.00
134.5220, 63263.00
135.7550, 63266.00
136.9880, 63480.00
138.2210, 63750.00
139.4540, 64262.00
140.6860, 64020.00
141.9190, 64627.00
143.1510, 64822.00
144.3830, 65163.00
145.6150, 65282.00
146.8470, 65015.00
148.0790, 65513.00
149.3100, 65858.00
150.5410, 65742.00
151.7720, 66231.00
153.0030, 66448.00
154.2340, 66971.00
155.4640, 67685.00
156.6950, 68528.00
157.9250, 69402.00
159.1550, 70906.00
160.3850, 71504.00
161.6150, 72835.00
162.8440, 73773.00
164.0730, 74595.00
165.3030, 74330.00
166.5320, 73649.00
167.7600, 73217.00
168.9890, 71986.00
170.2180, 71194.00
171.4460, 70233.00
172.6740, 70135.00
173.9020, 69331.00
175.1300, 69046.00
176.3570, 68751.00
177.5850, 68639.00
178.8120, 68427.00
180.0390, 68505.00
181.2660, 68654.00
182.4930, 68125.00
183.7190, 68314.00
184.9460, 68048.00
186.1720, 67882.00
187.3980, 68510.00
188.6240, 68101.00
189.8500, 68136.00
191.0750, 68267.00
192.3010, 68133.00
193.5260, 68214.00
194.7510, 68595.00
195.9760, 68655.00
197.2000, 68990.00
198.4250, 69225.00
199.6490, 68979.00
200.8730, 68979.00
202.0970, 69386.00
203.3210, 69553.00
204.5450, 69641.47
205.7680, 69580.00
206.9920, 69917.00
208.2150, 69932.00
209.4380, 70246.00
210.6610, 70373.00
211.8830, 70188.00
213.1060, 70811.00
214.3280, 70672.00
215.5500, 70939.00
216.7720, 70854.00
217.9940, 71151.00
219.2150, 71059.00
220.4370, 71681.00
221.6580, 71671.00
222.8790, 71775.00
224.1000, 72295.00
225.3210, 72350.00
226.5410, 72438.00
227.7620, 72831.00
228.9820, 73197.00
230.2020, 73148.00
231.4220, 73280.00
232.6410, 73641.00
233.8610, 73781.00
235.0800, 74096.00
236.2990, 74163.00
237.5180, 74349.00
238.7370, 74904.00
239.9560, 75218.00
241.1750, 75580.00
242.3930, 76059.42
243.6110, 76272.00
244.8290, 76892.00
246.0470, 77282.00
247.2640, 78121.78
248.4820, 78972.00
249.6990, 80027.00
250.9160, 80988.00
252.1330, 82091.00
253.3500, 83014.00
254.5670, 83856.00
255.7830, 85598.00
256.9990, 87003.00
258.2160, 87793.00
259.4310, 89243.00
260.6470, 89898.00
261.8630, 90003.00
263.0780, 90342.00
264.2930, 89931.00
265.5090, 89299.00
266.7230, 88309.00
267.9380, 86976.00
269.1530, 85805.00
270.3670, 84988.00
271.5810, 83611.00
272.7950, 82713.00
274.0090, 82176.00
275.2230, 81557.00
276.4370, 81039.00
277.6500, 80579.00
278.8630, 80293.00
280.0760, 80003.00
281.2890, 79966.00
282.5020, 80009.00
283.7140, 79821.00
284.9270, 79914.74
286.1390, 79645.00
287.3510, 80094.00
288.5630, 80156.00
289.7740, 80353.98
290.9860, 81116.89
292.1970, 81644.01
293.4080, 81939.26
294.6190, 81827.01
295.8300, 81844.04
297.0410, 81566.61
298.2510, 80830.00
299.4610, 80640.00
300.6710, 79806.00
301.8810, 79730.00
303.0910, 79203.00
304.3010, 79290.00
305.5100, 79258.00
306.7200, 79002.00
307.9290, 79081.00
309.1380, 78836.00
310.3460, 79238.00
311.5550, 79364.00
312.7630, 78971.00
313.9720, 79384.00
315.1800, 79444.00
316.3880, 79322.00
317.5950, 79384.00
318.8030, 79367.00
320.0100, 79469.00
321.2180, 79821.00
322.4250, 79854.00
323.6320, 79755.00
324.8380, 79964.00
326.0450, 79886.00
327.2510, 80071.00
328.4570, 80052.00
329.6640, 80339.00
330.8690, 80569.00
332.0750, 80423.00
333.2810, 80915.00
334.4860, 80549.00
335.6910, 80980.00
336.8960, 80685.00
338.1010, 80705.00
339.3060, 81061.00
340.5100, 81391.00
341.7150, 81187.00
342.9190, 81386.00
344.1230, 81173.00
345.3270, 81629.00
346.5300, 81594.00
347.7340, 81741.00
348.9370, 81860.00
350.1400, 82138.00
351.3430, 82048.00
352.5460, 82105.00
353.7490, 81784.00
354.9510, 82519.00
356.1540, 82801.00
357.3560, 82645.00
358.5580, 82624.00
359.7600, 83029.00
360.9610, 82913.00
362.1630, 82988.00
363.3640, 83230.00
364.5650, 82913.00
365.7660, 82850.00
366.9670, 83573.00
368.1680, 83633.00
369.3680, 83573.00
370.5680, 83908.00
371.7680, 83921.00
372.9680, 84008.00
374.1680, 84311.00
375.3680, 84357.00
376.5670, 84601.00
377.7660, 84543.00
378.9660, 84591.00
380.1640, 84728.00
381.3630, 84807.00
382.5620, 84993.00
383.7600, 85037.00
384.9590, 85239.00
386.1570, 85438.00
387.3550, 85284.00
388.5520, 85977.00
389.7500, 85582.00
390.9470, 85703.00
392.1450, 86320.00
393.3420, 85949.00
394.5390, 86196.00
395.7350, 86206.00
396.9320, 86441.00
398.1280, 86629.00
399.3250, 87212.00
400.5210, 87283.00
401.7160, 87503.00
402.9120, 88195.00
404.1080, 88339.00
405.3030, 89077.00
406.4980, 89415.00
407.6930, 89525.00
408.8880, 89986.00
410.0830, 90164.00
411.2780, 89687.00
412.4720, 89924.00
413.6660, 89242.00
414.8600, 89630.00
416.0540, 89634.00
417.2480, 89287.00
418.4410, 89534.00
419.6350, 89696.00
420.8280, 90082.00
422.0210, 90113.00
423.2140, 89931.00
424.4070, 90316.00
425.5990, 90194.00
426.7920, 90886.00
427.9840, 91245.00
429.1760, 90992.00
430.3680, 91535.00
431.5590, 91693.00
432.7510, 91859.00
433.9420, 92276.00
435.1330, 92555.00
436.3240, 93162.00
437.5150, 93712.00
438.7060, 93882.00
439.8960, 94674.00
441.0870, 95408.00
442.2770, 95798.00
443.4670, 96733.00
444.6570, 98553.00
445.8470, 98911.00
447.0360, 101200.0
448.2250, 102741.0
449.4150, 104956.0
450.6040, 108525.0
451.7920, 112047.0
452.9810, 117574.0
454.1700, 124170.0
455.3580, 131779.0
456.5460, 140421.0
457.7340, 150304.0
458.9220, 160383.0
460.1100, 169443.0
461.2970, 175216.0
462.4850, 177809.0
463.6720, 175889.0
464.8590, 169336.0
466.0460, 160370.0
467.2320, 150771.0
468.4190, 140287.0
469.6050, 132175.0
470.7910, 125200.0
471.9770, 119219.0
473.1630, 115062.0
474.3490, 111830.0
475.5340, 108880.0
476.7200, 106999.0
477.9050, 105356.0
479.0900, 103764.0
480.2750, 103104.0
481.4590, 102378.0
482.6440, 101300.0
483.8280, 101051.0
485.0120, 100589.0
486.1960, 100274.0
487.3800, 100464.0
488.5640, 99877.00
489.7470, 100198.0
490.9310, 99833.00
492.1140, 99799.00
493.2970, 100386.0
494.4800, 100789.0
495.6620, 100380.0
496.8450, 100728.0
498.0270, 100063.0
499.2090, 100092.0
500.3910, 99908.00
501.5730, 99473.00
502.7550, 98974.00
503.9360, 98743.00
505.1170, 98675.00
506.2990, 98271.00
507.4800, 98497.00
508.6600, 98285.00
509.8410, 98417.00
511.0220, 98342.00
512.2020, 98369.00
513.3820, 98277.00
514.5620, 98599.00
515.7420, 98581.00
516.9220, 98849.00
518.1010, 99083.00
519.2800, 99051.00
520.4600, 99209.00
521.6390, 99135.16
522.8170, 98979.00
523.9960, 99023.00
525.1750, 98948.00
526.3530, 99071.00
527.5310, 99360.00
528.7090, 99368.00
529.8870, 99672.00
531.0650, 99696.62
532.2420, 99768.75
533.4190, 99786.00
534.5970, 99716.00
535.7740, 99760.00
536.9500, 99782.19
538.1270, 99996.00
539.3040, 99915.00
540.4800, 100153.0
541.6560, 100318.6
542.8320, 99796.00
544.0080, 100390.0
545.1840, 100270.0
546.3590, 99974.00
547.5340, 100690.0
548.7100, 100250.0
549.8850, 100204.0
551.0600, 100682.0
552.2340, 100600.0
553.4090, 100634.3
554.5830, 101038.0
555.7570, 100690.0
556.9310, 100723.0
558.1050, 101110.0
559.2790, 101165.0
560.4520, 101068.0
561.6260, 100779.0
562.7990, 101267.0
563.9720, 101308.0
565.1450, 101478.0
566.3170, 101107.0
567.4900, 101693.0
568.6620, 101226.0
569.8350, 101769.0
571.0070, 101726.0
572.1780, 101667.0
573.3500, 102188.0
574.5220, 102601.0
575.6930, 102106.0
576.8640, 101979.0
578.0350, 102412.0
579.2060, 102865.0
580.3770, 102731.0
581.5470, 102986.0
582.7180, 103022.0
583.8880, 103202.0
585.0580, 102975.0
586.2280, 103038.0
587.3980, 103829.0
588.5670, 103534.0
589.7370, 103682.0
590.9060, 103915.0
592.0750, 103686.0
593.2440, 104019.0
594.4130, 103835.0
595.5810, 103884.0
596.7500, 103944.0
597.9180, 104328.0
599.0860, 104561.0
600.2540, 104742.0
601.4220, 104991.4
602.5890, 105127.0
603.7570, 105257.0
604.9240, 105698.0
606.0910, 105642.0
607.2580, 105689.0
608.4250, 105909.0
609.5910, 105781.0
610.7580, 105989.0
611.9240, 105516.0
613.0900, 105957.0
614.2560, 105976.0
615.4220, 105921.0
616.5870, 106283.0
617.7530, 105697.0
618.9180, 106022.0
620.0830, 106531.0
621.2480, 105839.0
622.4130, 106216.0
623.5770, 106298.0
624.7420, 106894.0
625.9060, 106762.0
627.0700, 107050.0
628.2340, 106990.0
629.3980, 106748.0
630.5620, 106730.0
631.7250, 106730.5
632.8880, 107024.0
634.0510, 106868.0
635.2140, 107072.0
636.3770, 107219.0
637.5400, 107203.0
638.7020, 107690.0
639.8650, 107176.0
641.0270, 107815.0
642.1890, 107619.0
643.3510, 107551.0
644.5120, 107721.0
645.6740, 107596.0
646.8350, 107794.0
647.9960, 108256.0
649.1570, 107789.0
650.3180, 108294.0
651.4790, 108421.0
652.6390, 108112.0
653.8000, 108556.0
654.9600, 108652.0
656.1200, 108092.0
657.2800, 108423.0
658.4390, 108641.0
659.5990, 108472.6
660.7580, 108930.7
661.9170, 108414.0
663.0770, 109422.0
664.2350, 109249.0
665.3940, 109188.0
666.5530, 109196.0
667.7110, 108796.0
668.8690, 109548.0
670.0270, 109201.0
671.1850, 109312.0
672.3430, 109738.0
673.5000, 109676.0
674.6580, 109737.0
675.8150, 110086.0
676.9720, 109845.0
678.1290, 110490.0
679.2860, 110400.0
680.4420, 110613.0
681.5990, 110612.0
682.7550, 110924.0
683.9110, 110905.5
685.0670, 111215.0
686.2230, 110978.0
687.3790, 111028.0
688.5340, 111120.0
689.6890, 111086.0
690.8440, 111244.0
691.9990, 110843.0
693.1540, 111501.0
694.3090, 111878.0
695.4630, 110947.0
696.6170, 111430.0
697.7720, 111240.0
698.9260, 111521.0
700.0790, 111214.0
701.2330, 111620.0
702.3870, 111808.0
703.5400, 112072.0
704.6930, 111869.0
705.8460, 112166.0
706.9990, 111739.0
708.1510, 112176.0
709.3040, 112108.0
710.4560, 112509.0
711.6090, 112702.0
712.7610, 112340.0
713.9120, 112826.0
715.0640, 112505.0
716.2160, 112953.0
717.3670, 112709.0
718.5180, 112949.0
719.6690, 112857.0
720.8200, 112986.0
721.9710, 113065.0
723.1210, 113294.0
724.2720, 113338.0
725.4220, 113493.0
726.5720, 113718.0
727.7220, 113917.0
728.8720, 114250.0
730.0210, 113950.0
731.1710, 114613.0
732.3200, 114466.0
733.4690, 114784.0
734.6180, 115001.0
735.7670, 114902.0
736.9150, 115042.0
738.0640, 115008.0
739.2120, 115135.0
740.3600, 115310.0
741.5080, 115415.0
742.6560, 115245.0
743.8040, 115749.0
744.9510, 115571.0
746.0980, 115885.0
747.2450, 116147.0
748.3920, 116341.0
749.5390, 116372.0
750.6860, 116412.0
751.8320, 116855.0
752.9790, 116193.0
754.1250, 116391.0
755.2710, 116682.0
756.4170, 116607.0
757.5620, 116633.0
758.7080, 116775.0
759.8530, 116408.0
760.9990, 116666.0
762.1440, 116838.0
763.2880, 117064.0
764.4330, 117498.0
765.5780, 117345.0
766.7220, 117106.0
767.8660, 117202.0
769.0100, 116786.0
770.1540, 117067.0
771.2980, 117123.0
772.4420, 117222.0
773.5850, 117941.0
774.7280, 117669.0
775.8710, 117239.0
777.0140, 117869.0
778.1570, 117503.0
779.3000, 117684.0
780.4420, 117763.0
781.5840, 117799.0
782.7270, 117663.0
783.8690, 117830.0
785.0100, 117578.0
786.1520, 117780.0
787.2940, 117807.2
788.4350, 118034.0
789.5760, 118065.0
790.7170, 118186.0
791.8580, 118480.0
792.9980, 118750.0
794.1390, 118439.0
795.2790, 119063.0
796.4200, 118990.0
797.5600, 118842.0
798.6990, 119587.0
799.8390, 119615.0
800.9790, 119098.0
802.1180, 119662.0
803.2570, 119958.0
804.3960, 119748.0
805.5350, 119438.0
806.6740, 119901.0
807.8130, 120014.0
808.9510, 119771.0
810.0890, 119773.0
811.2270, 120175.0
812.3650, 120637.0
813.5030, 120287.0
814.6410, 120456.0
815.7780, 121034.0
816.9150, 120969.0
818.0530, 121213.0
819.1900, 121018.0
820.3260, 121361.0
821.4630, 121461.0
822.5990, 121710.0
823.7360, 121602.0
824.8720, 121509.0
826.0080, 121839.0
827.1440, 121570.0
828.2790, 122087.0
829.4150, 121997.0
830.5500, 121845.0
831.6860, 122049.0
832.8210, 122122.0
833.9560, 122231.0
835.0900, 121669.0
836.2250, 122491.0
837.3590, 122123.0
838.4930, 122388.0
839.6280, 122548.0
840.7610, 123180.0
841.8950, 122863.0
843.0290, 123042.0
844.1620, 122699.0
845.2950, 122609.0
846.4290, 122903.0
847.5620, 122712.0
848.6940, 122875.0
849.8270, 122921.9
850.9590, 122605.0
852.0920, 123199.0
853.2240, 123369.0
854.3560, 123913.0
855.4880, 123674.0
856.6190, 123922.0
857.7510, 123745.0
858.8820, 123852.0
860.0130, 123997.0
861.1450, 124092.0
862.2750, 124195.0
863.4060, 123894.0
864.5370, 124002.0
865.6670, 124395.0
866.7970, 124069.0
867.9270, 124650.0
869.0570, 124563.0
870.1870, 124857.0
871.3170, 124811.0
872.4460, 124246.0
873.5750, 125009.0
874.7040, 124655.0
875.8330, 124750.0
876.9620, 125006.0
878.0910, 124906.0
879.2190, 125129.0
880.3480, 124906.0
881.4760, 125282.0
882.6040, 125004.0
883.7320, 125409.0
884.8590, 124688.0
885.9870, 125202.0
887.1140, 125371.0
888.2410, 125105.0
889.3680, 125147.0
890.4950, 125108.0
891.6220, 125404.0
892.7490, 125848.0
893.8750, 125308.0
895.0010, 126106.0
896.1270, 125883.0
897.2530, 125945.0
898.3790, 125858.0
899.5050, 125895.0
900.6300, 125237.0
901.7550, 125859.0
902.8800, 125657.0
904.0050, 126261.0
905.1300, 126385.0
906.2550, 126043.0
907.3790, 126368.0
908.5040, 126693.0
909.6280, 126529.0
910.7520, 126848.0
911.8760, 126936.9
912.9990, 126985.0
914.1230, 127164.0
915.2460, 127571.0
916.3690, 127608.0
917.4930, 127433.0
918.6150, 126672.0
919.7380, 127693.0
920.8610, 127796.0
921.9830, 127299.0
923.1050, 128161.0
924.2280, 127583.0
925.3490, 128143.0
926.4710, 128331.0
927.5930, 128249.0
928.7140, 128478.0
929.8360, 127921.0
930.9570, 128185.0
932.0780, 128188.0
933.1990, 128426.0
934.3190, 128776.0
935.4400, 128724.0
936.5600, 128086.0
937.6800, 128398.0
938.8000, 128896.0
939.9200, 128458.0
941.0400, 128943.0
942.1600, 128901.0
943.2790, 128510.0
944.3980, 128488.0
945.5170, 128835.0
946.6360, 128955.0
947.7550, 129257.0
948.8740, 129324.0
949.9920, 129052.0
951.1100, 129186.0
952.2280, 129361.0
953.3460, 129516.0
954.4640, 129465.0
955.5820, 129836.0
956.6990, 129712.0
957.8170, 130041.0
958.9340, 130182.0
960.0510, 130499.0
961.1680, 130016.0
962.2850, 130833.0
963.4010, 130817.0
964.5170, 130520.0
965.6340, 131464.0
966.7500, 131655.0
967.8660, 131742.0
968.9810, 132192.0
970.0970, 132655.0
971.2130, 132270.0
972.3280, 132865.0
973.4430, 133106.0
974.5580, 133383.0
975.6730, 134303.0
976.7870, 135192.0
977.9020, 136201.0
979.0160, 138779.0
980.1300, 140828.0
981.2440, 144349.0
982.3580, 147804.0
983.4720, 151554.0
984.5860, 154696.0
985.6990, 155788.0
986.8120, 155095.0
987.9250, 152265.0
989.0380, 148129.0
990.1510, 145459.0
991.2630, 142437.0
992.3760, 139629.0
993.4880, 137863.0
994.6000, 136798.0
995.7120, 135757.0
996.8240, 135383.0
997.9360, 135314.0
999.0470, 134941.0
1000.159, 134570.0
1001.270, 134681.0
1002.381, 134429.0
1003.492, 134070.0
1004.602, 134206.0
1005.713, 133966.5
1006.823, 134060.0
1007.934, 133949.0
1009.044, 134070.0
1010.154, 134369.0
1011.263, 134145.0
1012.373, 134029.0
1013.482, 133645.0
1014.592, 133245.0
1015.701, 133076.0
1016.810, 132833.3
1017.919, 132739.0
1019.027, 132647.0
1020.136, 132462.0
1021.244, 132577.0
1022.352, 132338.0
1023.460, 132666.0
1024.568, 132580.0
1025.676, 132798.0
1026.784, 132717.0
1027.891, 132881.0
1028.998, 132824.0
1030.105, 132922.0
1031.212, 132801.0
1032.319, 133282.0
1033.426, 133742.0
1034.532, 134486.0
1035.638, 134270.0
1036.745, 134415.0
1037.851, 133818.0
1038.956, 133792.0
1040.062, 134007.0
1041.168, 134076.0
1042.273, 134187.0
1043.378, 133582.0
1044.483, 133547.0
1045.588, 134013.0
1046.693, 134788.0
1047.798, 134740.0
1048.902, 134907.0
1050.006, 135976.0
1051.110, 136178.0
1052.214, 136717.0
1053.318, 137142.0
1054.422, 137702.0
1055.525, 138294.0
1056.629, 138645.0
1057.732, 138434.0
1058.835, 138425.0
1059.938, 138286.0
1061.040, 137972.0
1062.143, 137978.0
1063.245, 137490.0
1064.348, 137526.0
1065.450, 137599.0
1066.552, 137285.0
1067.653, 136862.0
1068.755, 136757.0
1069.856, 136662.0
1070.958, 136204.0
1072.059, 135533.0
1073.160, 136379.0
1074.261, 134756.0
1075.361, 135735.0
1076.462, 135112.0
1077.562, 135407.0
1078.662, 135621.0
1079.762, 135156.0
1080.862, 135133.0
1081.962, 135135.0
1083.062, 135244.0
1084.161, 135235.0
1085.260, 135168.0
1086.359, 135249.0
1087.458, 134999.0
1088.557, 135137.0
1089.656, 135251.0
1090.754, 135079.0
1091.853, 135049.0
1092.951, 135273.0
1094.049, 135169.0
1095.147, 135728.0
1096.244, 135362.0
1097.342, 135661.0
1098.439, 134976.0
1099.537, 135370.0
1100.634, 135465.0
1101.731, 135064.0
1102.827, 135775.0
1103.924, 135462.0
1105.021, 135840.0
1106.117, 135736.0
1107.213, 135560.0
1108.309, 136127.0
1109.405, 136371.0
1110.501, 135718.0
1111.596, 135977.0
1112.691, 136179.0
1113.787, 135661.0
1114.882, 136056.0
1115.977, 136292.0
1117.071, 136461.0
1118.166, 136523.9
1119.260, 136538.9
1120.355, 136375.0
1121.449, 136446.0
1122.543, 136219.0
1123.637, 136243.0
1124.730, 135929.0
1125.824, 136197.0
1126.917, 136539.0
1128.010, 135905.0
1129.103, 135972.0
1130.196, 135821.0
1131.289, 135641.1
1132.382, 136248.0
1133.474, 135768.0
1134.566, 136057.0
1135.659, 136670.0
1136.750, 136079.0
1137.842, 136773.0
1138.934, 136496.0
1140.025, 136310.0
1141.117, 136429.0
1142.208, 136624.0
1143.299, 136621.0
1144.390, 136485.0
1145.481, 136829.0
1146.571, 136664.0
1147.662, 136707.0
1148.752, 136991.0
1149.842, 136942.0
1150.932, 137093.0
1152.022, 137107.0
1153.111, 136823.0
1154.201, 137207.0
1155.290, 137104.0
1156.379, 136955.0
1157.468, 137119.0
1158.557, 137121.0
1159.646, 137056.0
1160.734, 136615.0
1161.823, 136918.0
1162.911, 137057.0
1163.999, 136675.0
1165.087, 136884.0
1166.175, 137312.0
1167.262, 136889.0
1168.350, 136988.0
1169.437, 137212.0
1170.524, 137316.0
1171.611, 137015.0
1172.698, 137291.0
1173.785, 137524.0
1174.872, 136908.0
1175.958, 137200.0
1177.044, 137322.0
1178.130, 136900.0
1179.216, 137055.0
1180.302, 137349.0
1181.388, 137623.0
1182.473, 137136.0
1183.558, 137347.0
1184.644, 137208.0
1185.729, 137486.0
1186.813, 137440.0
1187.898, 137901.0
1188.983, 137432.0
1190.067, 137189.0
1191.151, 137799.0
1192.235, 137770.0
1193.319, 137509.0
1194.403, 137542.0
1195.487, 137686.0
1196.570, 137931.0
1197.653, 137481.0
1198.737, 137904.0
1199.820, 137481.0
1200.902, 137347.0
1201.985, 137724.0
1203.068, 137511.0
1204.150, 137899.0
1205.232, 137693.0
1206.314, 138137.0
1207.396, 137746.0
1208.478, 138004.0
1209.560, 137664.0
1210.641, 138246.0
1211.722, 138002.0
1212.804, 138331.0
1213.885, 138278.0
1214.965, 138231.4
1216.046, 138335.2
1217.127, 138200.0
1218.207, 138113.0
1219.287, 138217.0
1220.367, 138074.3
1221.447, 137798.0
1222.527, 138007.0
1223.607, 138033.0
1224.686, 138132.6
1225.765, 137901.0
1226.845, 138312.0
1227.924, 138209.0
1229.002, 138515.0
1230.081, 138622.0
1231.160, 138351.0
1232.238, 138507.0
1233.316, 138646.0
1234.394, 138827.0
1235.472, 138840.0
1236.550, 138720.0
1237.628, 138489.0
1238.705, 138525.0
1239.783, 138658.0
1240.860, 138606.6
1241.937, 138742.0
1243.014, 138678.0
1244.090, 138902.0
1245.167, 138836.4
1246.243, 138817.7
