##NAMES=Sphalerite
##RRUFFID=R060636
##IDEAL CHEMISTRY=Zn^2+^S^2-^
##LOCALITY=unknown
##OWNER=RRUFF
##SOURCE=Gemological Institute of America
##DESCRIPTION=Light yellow-green cleavage fragment
##STATUS=The identification of this mineral has been confirmed by X-ray diffraction and chemical analysis
##URL=rruff.info/R060636
##MEASURED CHEMISTRY=Zn_1.00_S_1.00_
##PIN_ID=L01425
##ORIENTATION=Laser parallel to a* (1 0 0). Fiducial mark perpendicular to laser is parallel to -c [0 0 -1]
61.44800, 2843.000
62.69200, 3130.000
63.93500, 3619.000
65.17800, 4317.000
66.42100, 4699.000
67.66400, 4740.000
68.90700, 4331.000
70.15000, 4220.000
71.39200, 3992.000
72.63400, 3875.000
73.87600, 4010.000
75.11800, 4063.000
76.36000, 4145.000
77.60100, 4353.000
78.84200, 4381.000
80.08400, 4484.000
81.32500, 4770.000
82.56500, 4826.000
83.80600, 5054.000
85.04600, 5092.000
86.28700, 5374.000
87.52700, 5397.000
88.76700, 5423.000
90.00600, 5588.000
91.24600, 5802.000
92.48500, 5885.000
93.72500, 6111.000
94.96400, 6091.000
96.20300, 6151.000
97.44100, 6400.000
98.68000, 6598.000
99.91800, 6783.000
101.1560, 7116.000
102.3940, 7334.000
103.6320, 7585.000
104.8700, 7693.000
106.1070, 7759.000
107.3450, 7608.000
108.5820, 7706.000
109.8190, 7739.000
111.0550, 8013.000
112.2920, 8018.000
113.5290, 8214.000
114.7650, 8355.124
116.0010, 8359.000
117.2370, 8611.000
118.4730, 8644.000
119.7080, 8714.000
120.9440, 8652.000
122.1790, 8732.000
123.4140, 8779.000
124.6490, 8805.000
125.8830, 9273.000
127.1180, 9207.000
128.3520, 9648.000
129.5870, 9661.000
130.8210, 10295.00
132.0540, 10404.00
133.2880, 10695.00
134.5220, 10920.00
135.7550, 11479.00
136.9880, 11782.00
138.2210, 12233.00
139.4540, 12406.00
140.6860, 12880.00
141.9190, 12961.00
143.1510, 13006.00
144.3830, 13328.00
145.6150, 13497.00
146.8470, 13513.00
148.0790, 13688.00
149.3100, 13861.00
150.5410, 13871.00
151.7720, 13912.00
153.0030, 13937.00
154.2340, 14093.00
155.4640, 14331.00
156.6950, 14328.00
157.9250, 14463.00
159.1550, 14532.00
160.3850, 14682.26
161.6150, 14983.00
162.8440, 15028.00
164.0730, 15332.00
165.3030, 15512.00
166.5320, 15757.00
167.7600, 15978.00
168.9890, 16444.00
170.2180, 16715.00
171.4460, 16918.00
172.6740, 17294.00
173.9020, 17451.00
175.1300, 17744.00
176.3570, 17803.00
177.5850, 18031.00
178.8120, 17742.00
180.0390, 17789.00
181.2660, 17115.00
182.4930, 16703.00
183.7190, 16431.00
184.9460, 15946.00
186.1720, 15586.00
187.3980, 15398.00
188.6240, 15317.00
189.8500, 15104.00
191.0750, 15083.00
192.3010, 15131.00
193.5260, 14978.00
194.7510, 15048.00
195.9760, 14819.00
197.2000, 15134.00
198.4250, 15155.00
199.6490, 15055.00
200.8730, 15177.00
202.0970, 15356.00
203.3210, 15562.00
204.5450, 15929.00
205.7680, 16379.00
206.9920, 16991.00
208.2150, 17490.00
209.4380, 17938.00
210.6610, 19035.00
211.8830, 19369.00
213.1060, 20191.00
214.3280, 20991.00
215.5500, 21226.00
216.7720, 21523.00
217.9940, 21370.00
219.2150, 20582.00
220.4370, 20088.00
221.6580, 19453.00
222.8790, 18647.00
224.1000, 17763.00
225.3210, 17335.00
226.5410, 16605.00
227.7620, 16408.00
228.9820, 15953.00
230.2020, 15676.00
231.4220, 15613.00
232.6410, 15388.00
233.8610, 15289.00
235.0800, 14955.00
236.2990, 14782.00
237.5180, 14311.00
238.7370, 13901.00
239.9560, 12990.00
241.1750, 12565.00
242.3930, 11792.00
243.6110, 11291.00
244.8290, 11106.00
246.0470, 10780.00
247.2640, 10608.00
248.4820, 10457.00
249.6990, 10186.00
250.9160, 10239.00
252.1330, 10272.00
253.3500, 10086.00
254.5670, 10210.00
255.7830, 10049.00
256.9990, 10032.00
258.2160, 10011.00
259.4310, 10012.00
260.6470, 10255.00
261.8630, 10026.00
263.0780, 10213.00
264.2930, 10100.00
265.5090, 10299.00
266.7230, 10449.00
267.9380, 10378.00
269.1530, 10451.00
270.3670, 10462.00
271.5810, 10479.00
272.7950, 10365.00
274.0090, 10507.00
275.2230, 10313.00
276.4370, 10525.00
277.6500, 10360.00
278.8630, 10355.00
280.0760, 10305.00
281.2890, 10309.00
282.5020, 10431.00
283.7140, 10340.00
284.9270, 10489.00
286.1390, 10306.00
287.3510, 10619.00
288.5630, 10650.00
289.7740, 10652.00
290.9860, 10909.00
292.1970, 10931.00
293.4080, 11172.00
294.6190, 11387.00
295.8300, 11517.00
297.0410, 11431.00
298.2510, 11622.00
299.4610, 11613.00
300.6710, 11653.00
301.8810, 11814.00
303.0910, 11647.00
304.3010, 11535.00
305.5100, 11837.00
306.7200, 11606.00
307.9290, 11693.00
309.1380, 11627.00
310.3460, 11457.00
311.5550, 11414.00
312.7630, 11390.00
313.9720, 11413.00
315.1800, 11325.00
316.3880, 11218.00
317.5950, 11420.00
318.8030, 11416.00
320.0100, 11554.00
321.2180, 11673.00
322.4250, 11950.00
323.6320, 11869.00
324.8380, 12413.00
326.0450, 12582.00
327.2510, 12967.00
328.4570, 13612.00
329.6640, 14064.00
330.8690, 14757.00
332.0750, 15620.00
333.2810, 17035.00
334.4860, 18186.00
335.6910, 20812.00
336.8960, 23927.00
338.1010, 28428.00
339.3060, 34664.00
340.5100, 43115.00
341.7150, 53710.00
342.9190, 67389.00
344.1230, 84290.00
345.3270, 103562.0
346.5300, 124686.0
347.7340, 148395.0
348.9370, 162400.0
350.1400, 155069.0
351.3430, 132417.0
352.5460, 106304.0
353.7490, 79879.00
354.9510, 58480.00
356.1540, 44993.00
357.3560, 36882.00
358.5580, 32070.00
359.7600, 28859.00
360.9610, 26427.00
362.1630, 24943.00
363.3640, 24021.00
364.5650, 23154.00
365.7660, 22849.00
366.9670, 22265.00
368.1680, 22035.00
369.3680, 21779.00
370.5680, 21475.00
371.7680, 21325.00
372.9680, 20996.00
374.1680, 20992.00
375.3680, 20959.00
376.5670, 20686.00
377.7660, 20423.00
378.9660, 20733.00
380.1640, 20616.00
381.3630, 20570.00
382.5620, 20710.00
383.7600, 20573.00
384.9590, 20704.00
386.1570, 20789.00
387.3550, 21059.00
388.5520, 21010.00
389.7500, 21319.00
390.9470, 21237.00
392.1450, 21418.00
393.3420, 21329.00
394.5390, 21667.00
395.7350, 21661.00
396.9320, 21637.00
398.1280, 21356.00
399.3250, 21111.00
400.5210, 21078.00
401.7160, 20477.00
402.9120, 20339.00
404.1080, 19760.00
405.3030, 19722.00
406.4980, 19480.00
407.6930, 19255.00
408.8880, 19295.00
410.0830, 19103.00
411.2780, 19471.00
412.4720, 19555.00
413.6660, 20013.00
414.8600, 20028.00
416.0540, 20615.00
417.2480, 20709.00
418.4410, 21057.00
419.6350, 21008.00
420.8280, 21074.00
422.0210, 21114.00
423.2140, 20873.00
424.4070, 20778.00
425.5990, 20566.00
426.7920, 20343.00
427.9840, 20039.00
429.1760, 19845.00
430.3680, 19732.00
431.5590, 19419.26
432.7510, 19172.00
433.9420, 18930.00
435.1330, 18657.00
436.3240, 18482.00
437.5150, 18485.00
438.7060, 18501.00
439.8960, 18445.00
441.0870, 18593.00
442.2770, 18654.00
443.4670, 18838.00
444.6570, 19035.00
445.8470, 19028.00
447.0360, 19001.00
448.2250, 18949.00
449.4150, 18887.00
450.6040, 18663.00
451.7920, 18518.00
452.9810, 18193.00
454.1700, 17665.00
455.3580, 17092.00
456.5460, 16495.00
457.7340, 16252.00
458.9220, 16005.00
460.1100, 15812.00
461.2970, 15583.00
462.4850, 15869.00
463.6720, 15780.00
464.8590, 15659.00
466.0460, 15853.00
467.2320, 15809.00
468.4190, 15753.00
469.6050, 15872.00
470.7910, 15830.00
471.9770, 15988.00
473.1630, 16094.92
474.3490, 16100.00
475.5340, 16309.00
476.7200, 16400.00
477.9050, 16335.00
479.0900, 16389.00
480.2750, 16478.00
481.4590, 16512.00
482.6440, 16713.00
483.8280, 16827.00
485.0120, 16823.00
486.1960, 16751.00
487.3800, 16749.00
488.5640, 17033.00
489.7470, 17044.00
490.9310, 17197.00
492.1140, 17235.00
493.2970, 17356.00
494.4800, 17455.08
495.6620, 17505.99
496.8450, 17642.00
498.0270, 17660.00
499.2090, 17722.00
500.3910, 17865.00
501.5730, 17905.00
502.7550, 17921.00
503.9360, 18153.00
505.1170, 18087.00
506.2990, 17993.00
507.4800, 18300.00
508.6600, 18515.00
509.8410, 18639.00
511.0220, 18541.00
512.2020, 18754.00
513.3820, 18927.00
514.5620, 18910.00
515.7420, 19249.00
516.9220, 19216.00
518.1010, 19173.00
519.2800, 19470.00
520.4600, 19524.00
521.6390, 19373.00
522.8170, 19436.00
523.9960, 19401.00
525.1750, 19441.00
526.3530, 19450.98
527.5310, 19355.00
528.7090, 19486.00
529.8870, 19528.00
531.0650, 19577.00
532.2420, 19758.00
533.4190, 19717.00
534.5970, 19531.00
535.7740, 19834.00
536.9500, 19855.00
538.1270, 20153.00
539.3040, 20057.00
540.4800, 20121.00
541.6560, 20111.00
542.8320, 20171.00
544.0080, 20351.00
545.1840, 20460.00
546.3590, 20550.00
547.5340, 20683.31
548.7100, 20798.15
549.8850, 20875.00
551.0600, 21056.00
552.2340, 21116.00
553.4090, 21244.54
554.5830, 21261.00
555.7570, 21390.00
556.9310, 21369.00
558.1050, 21416.00
559.2790, 21700.00
560.4520, 21701.00
561.6260, 21726.00
562.7990, 22190.00
563.9720, 21966.00
565.1450, 22194.00
566.3170, 22522.00
567.4900, 22677.00
568.6620, 22540.00
569.8350, 22825.00
571.0070, 22877.00
572.1780, 23040.00
573.3500, 23121.00
574.5220, 23286.00
575.6930, 23524.00
576.8640, 23659.00
578.0350, 23918.00
579.2060, 23693.00
580.3770, 23870.00
581.5470, 24075.00
582.7180, 24159.00
583.8880, 24304.00
585.0580, 24284.00
586.2280, 24429.00
587.3980, 24631.00
588.5670, 24927.00
589.7370, 24867.00
590.9060, 25268.00
592.0750, 25373.00
593.2440, 25423.00
594.4130, 25829.00
595.5810, 25878.00
596.7500, 26276.00
597.9180, 26329.00
599.0860, 26569.00
600.2540, 26992.00
601.4220, 27202.00
602.5890, 27623.00
603.7570, 27792.00
604.9240, 27991.00
606.0910, 28343.00
607.2580, 28530.00
608.4250, 28774.00
609.5910, 29244.00
610.7580, 29439.00
611.9240, 29666.00
613.0900, 29826.00
614.2560, 29837.00
615.4220, 29910.00
616.5870, 29793.72
617.7530, 29507.00
618.9180, 29422.00
620.0830, 29055.00
621.2480, 28737.00
622.4130, 28544.00
623.5770, 28645.00
624.7420, 28523.00
625.9060, 28511.00
627.0700, 28952.00
628.2340, 28807.00
629.3980, 29324.00
630.5620, 29446.00
631.7250, 29855.00
632.8880, 30233.00
634.0510, 30583.00
635.2140, 30839.00
636.3770, 31177.00
637.5400, 31469.00
638.7020, 31450.00
639.8650, 31546.00
641.0270, 31509.00
642.1890, 31581.00
643.3510, 30935.00
644.5120, 30900.00
645.6740, 30763.00
646.8350, 30655.00
647.9960, 30874.00
649.1570, 31166.00
650.3180, 31279.00
651.4790, 31548.20
652.6390, 31876.95
653.8000, 32063.00
654.9600, 32517.00
656.1200, 32935.00
657.2800, 33114.00
658.4390, 33812.00
659.5990, 34368.00
660.7580, 35283.00
661.9170, 35715.00
663.0770, 36892.00
664.2350, 37353.00
665.3940, 38353.00
666.5530, 39421.00
667.7110, 39962.00
668.8690, 40382.00
670.0270, 40380.00
671.1850, 40022.00
672.3430, 39403.00
673.5000, 38819.00
674.6580, 38293.00
675.8150, 38235.00
676.9720, 37932.00
678.1290, 38063.00
679.2860, 37817.00
680.4420, 37786.00
681.5990, 37877.00
682.7550, 37711.00
683.9110, 37883.00
685.0670, 38068.00
686.2230, 37547.00
687.3790, 37994.00
688.5340, 37792.00
689.6890, 37931.00
690.8440, 38019.00
691.9990, 37920.00
693.1540, 37936.00
694.3090, 37879.00
695.4630, 37811.38
696.6170, 37898.00
697.7720, 37694.00
698.9260, 37872.00
700.0790, 37869.00
701.2330, 37748.00
702.3870, 37625.00
703.5400, 37572.00
704.6930, 37817.00
705.8460, 37905.00
706.9990, 38062.00
708.1510, 38115.00
709.3040, 38187.00
710.4560, 38453.00
711.6090, 38312.00
712.7610, 38708.00
713.9120, 38630.00
715.0640, 38862.00
716.2160, 39080.00
717.3670, 39394.00
718.5180, 39233.00
719.6690, 39586.00
720.8200, 39657.00
721.9710, 39861.00
723.1210, 39786.00
724.2720, 40066.00
725.4220, 40220.00
726.5720, 40529.00
727.7220, 40969.00
728.8720, 40912.00
730.0210, 41092.00
731.1710, 41063.00
732.3200, 41471.00
733.4690, 41857.00
734.6180, 41962.00
735.7670, 41977.00
736.9150, 42334.00
738.0640, 42156.00
739.2120, 42750.00
740.3600, 42940.00
741.5080, 42978.00
742.6560, 43081.00
743.8040, 43314.00
744.9510, 43762.00
746.0980, 44052.00
747.2450, 44173.00
748.3920, 44491.00
749.5390, 44556.00
750.6860, 44707.00
751.8320, 44964.00
752.9790, 44993.00
754.1250, 45164.00
755.2710, 45723.00
756.4170, 45833.00
757.5620, 46054.00
758.7080, 46260.00
759.8530, 46503.00
760.9990, 46473.00
762.1440, 46782.00
763.2880, 47113.00
764.4330, 46949.00
765.5780, 47464.00
766.7220, 47547.00
767.8660, 47639.00
769.0100, 47962.00
770.1540, 48126.00
771.2980, 48390.00
772.4420, 48835.00
773.5850, 48693.00
774.7280, 48964.00
775.8710, 49347.00
777.0140, 49689.00
778.1570, 49711.00
779.3000, 49896.00
780.4420, 50026.00
781.5840, 50284.00
782.7270, 50699.00
783.8690, 50689.00
785.0100, 51121.00
786.1520, 51589.00
787.2940, 51755.00
788.4350, 51442.00
789.5760, 51881.00
790.7170, 52041.00
791.8580, 52776.00
792.9980, 52782.00
794.1390, 52746.00
795.2790, 53351.00
796.4200, 53305.00
797.5600, 53606.00
798.6990, 54006.00
799.8390, 54205.00
800.9790, 54593.00
802.1180, 54676.00
803.2570, 54573.00
804.3960, 55389.00
805.5350, 55228.00
806.6740, 55591.00
807.8130, 55618.00
808.9510, 56241.00
810.0890, 56538.00
811.2270, 56654.00
812.3650, 57098.00
813.5030, 57366.00
814.6410, 57415.00
815.7780, 57588.00
816.9150, 58125.00
818.0530, 58265.00
819.1900, 58709.00
820.3260, 58685.00
821.4630, 59151.00
822.5990, 59160.00
823.7360, 59494.00
824.8720, 60209.00
826.0080, 60349.00
827.1440, 60618.00
828.2790, 60742.00
829.4150, 60857.00
830.5500, 61479.00
831.6860, 61423.00
832.8210, 61816.00
833.9560, 62155.00
835.0900, 62169.00
836.2250, 62517.00
837.3590, 63097.00
838.4930, 63502.00
839.6280, 63513.00
840.7610, 63743.00
841.8950, 63763.00
843.0290, 64445.00
844.1620, 64958.00
845.2950, 65062.00
846.4290, 65460.00
847.5620, 65796.00
848.6940, 65895.00
849.8270, 66097.00
850.9590, 66588.00
852.0920, 66886.00
853.2240, 66929.00
854.3560, 67543.00
855.4880, 67468.00
856.6190, 67867.00
857.7510, 68503.00
858.8820, 68613.00
860.0130, 68946.00
861.1450, 69018.00
862.2750, 69631.00
863.4060, 69571.00
864.5370, 70142.00
865.6670, 70601.00
866.7970, 70858.00
867.9270, 71326.00
869.0570, 71619.00
870.1870, 71835.00
871.3170, 72156.98
872.4460, 72513.00
873.5750, 72642.00
874.7040, 73045.00
875.8330, 73317.00
876.9620, 73694.98
878.0910, 74120.59
879.2190, 74437.00
880.3480, 74855.00
881.4760, 75026.00
882.6040, 75056.00
883.7320, 75459.00
884.8590, 76036.00
885.9870, 76639.00
887.1140, 76632.00
888.2410, 76868.00
889.3680, 77575.00
890.4950, 77504.00
891.6220, 77899.00
892.7490, 78255.00
893.8750, 78967.00
895.0010, 78932.00
896.1270, 79336.00
897.2530, 79937.00
898.3790, 79985.00
899.5050, 80227.00
900.6300, 80840.00
901.7550, 81095.00
902.8800, 81500.00
904.0050, 81867.00
905.1300, 82213.00
906.2550, 82658.00
907.3790, 82840.00
908.5040, 83511.00
909.6280, 83985.00
910.7520, 83658.00
911.8760, 84333.00
912.9990, 85166.00
914.1230, 85098.00
915.2460, 85540.00
916.3690, 85831.00
917.4930, 86108.00
918.6150, 86615.00
919.7380, 87015.00
920.8610, 87520.00
921.9830, 87819.00
923.1050, 88454.00
924.2280, 88493.00
925.3490, 89124.00
926.4710, 89243.00
927.5930, 89824.00
928.7140, 89897.00
929.8360, 90562.00
930.9570, 90810.00
932.0780, 91463.00
933.1990, 91813.00
934.3190, 92268.00
935.4400, 92200.00
936.5600, 92636.00
937.6800, 93265.00
938.8000, 94149.00
939.9200, 93897.00
941.0400, 94962.00
942.1600, 95086.00
943.2790, 95293.00
944.3980, 95953.00
945.5170, 96158.00
946.6360, 96446.00
947.7550, 97278.00
948.8740, 97535.00
949.9920, 97655.00
951.1100, 98453.00
952.2280, 98871.00
953.3460, 99233.00
954.4640, 99557.00
955.5820, 100153.0
956.6990, 100533.0
957.8170, 100750.0
958.9340, 101464.0
960.0510, 101793.0
961.1680, 102063.0
962.2850, 102933.0
963.4010, 102976.0
964.5170, 103039.0
965.6340, 103884.0
966.7500, 104381.0
967.8660, 104734.0
968.9810, 105385.0
970.0970, 105688.0
971.2130, 105686.0
972.3280, 106585.0
973.4430, 106287.0
974.5580, 107171.0
975.6730, 108109.0
976.7870, 108401.0
977.9020, 108764.0
979.0160, 109265.0
980.1300, 110048.0
981.2440, 110564.0
982.3580, 110672.0
983.4720, 111446.0
984.5860, 111385.0
985.6990, 112325.0
986.8120, 113004.0
987.9250, 113404.0
989.0380, 114012.0
990.1510, 114054.0
991.2630, 114772.0
992.3760, 115030.0
993.4880, 115274.0
994.6000, 115755.0
995.7120, 116269.5
996.8240, 116940.0
997.9360, 117633.0
999.0470, 117892.0
1000.159, 118756.0
1001.270, 119088.0
1002.381, 119551.0
1003.492, 120235.0
1004.602, 120365.0
1005.713, 121177.0
1006.823, 122056.0
1007.934, 122146.0
1009.044, 122774.0
1010.154, 122852.0
1011.263, 123719.0
1012.373, 124147.0
1013.482, 124620.0
1014.592, 125209.0
1015.701, 125573.0
1016.810, 126145.0
1017.919, 126305.0
1019.027, 127067.0
1020.136, 127748.0
1021.244, 128067.0
1022.352, 128967.0
1023.460, 129117.0
1024.568, 130037.0
1025.676, 129668.0
1026.784, 130667.0
1027.891, 131635.0
1028.998, 131703.0
1030.105, 132719.0
1031.212, 132860.0
1032.319, 133388.0
1033.426, 133942.0
1034.532, 134517.0
1035.638, 135139.0
1036.745, 135758.0
1037.851, 136417.0
1038.956, 136790.0
1040.062, 137002.0
1041.168, 137821.0
1042.273, 138727.0
1043.378, 138702.0
1044.483, 138745.0
1045.588, 140067.0
1046.693, 140594.0
1047.798, 141105.0
1048.902, 142077.0
1050.006, 142084.0
1051.110, 142494.0
1052.214, 143941.0
1053.318, 143928.0
1054.422, 145384.0
1055.525, 145438.0
1056.629, 145959.0
1057.732, 147281.0
1058.835, 147273.0
1059.938, 147338.0
1061.040, 148785.0
1062.143, 149662.0
1063.245, 149221.0
1064.348, 150587.0
1065.450, 150920.0
1066.552, 151248.0
1067.653, 151906.0
1068.755, 152500.7
1069.856, 153676.0
1070.958, 154100.0
1072.059, 155172.0
1073.160, 156216.0
1074.261, 156122.0
1075.361, 156962.0
1076.462, 157514.0
1077.562, 158201.0
1078.662, 158769.0
1079.762, 159598.0
1080.862, 160288.0
1081.962, 160938.0
1083.062, 161856.0
1084.161, 162280.0
1085.260, 163035.0
1086.359, 163584.0
1087.458, 164219.0
1088.557, 164644.0
1089.656, 165388.4
1090.754, 166051.0
1091.853, 166752.0
1092.951, 167533.0
1094.049, 168103.0
1095.147, 168912.7
1096.244, 169634.1
1097.342, 170516.0
1098.439, 170999.0
1099.537, 171947.0
1100.634, 172318.0
1101.731, 172796.0
1102.827, 174076.0
1103.924, 173616.0
1105.021, 175220.0
1106.117, 175827.0
1107.213, 176416.0
1108.309, 177126.0
1109.405, 178009.0
1110.501, 177904.0
1111.596, 178898.0
1112.691, 179358.0
1113.787, 180522.0
1114.882, 181186.3
1115.977, 181773.0
1117.071, 182699.0
1118.166, 183303.0
1119.260, 183975.0
1120.355, 184887.0
1121.449, 185650.0
1122.543, 186337.0
1123.637, 187362.0
1124.730, 187961.0
1125.824, 187862.0
1126.917, 188898.0
1128.010, 189694.0
1129.103, 189864.0
1130.196, 191717.0
1131.289, 191814.0
1132.382, 192471.0
1133.474, 193007.0
1134.566, 194161.0
1135.659, 195161.0
1136.750, 195807.0
1137.842, 196583.0
1138.934, 197338.3
1140.025, 197760.0
1141.117, 198597.0
1142.208, 199570.0
1143.299, 199923.0
1144.390, 200840.0
1145.481, 201099.0
1146.571, 202724.0
1147.662, 203448.0
1148.752, 204000.0
1149.842, 205099.0
1150.932, 205795.0
1152.022, 206666.8
1153.111, 206874.0
1154.201, 208406.0
1155.290, 208694.0
1156.379, 209485.0
1157.468, 210309.0
1158.557, 211460.0
1159.646, 212074.0
1160.734, 212957.0
1161.823, 213528.0
1162.911, 214137.0
1163.999, 215944.0
1165.087, 215888.0
1166.175, 216594.0
1167.262, 218264.0
1168.350, 218549.0
1169.437, 219388.0
1170.524, 219616.0
1171.611, 220530.0
1172.698, 221279.1
1173.785, 222527.0
1174.872, 223104.0
1175.958, 224026.0
1177.044, 225145.0
1178.130, 225958.0
1179.216, 226542.0
1180.302, 227854.0
1181.388, 228154.0
1182.473, 228876.0
1183.558, 230218.0
1184.644, 230914.0
1185.729, 231920.0
1186.813, 232180.0
1187.898, 233661.0
1188.983, 234120.0
1190.067, 235359.0
1191.151, 235450.0
1192.235, 236295.0
1193.319, 238027.0
1194.403, 238328.0
1195.487, 239742.0
1196.570, 240251.0
1197.653, 240984.0
1198.737, 242047.0
1199.820, 242927.0
1200.902, 243909.0
1201.985, 244098.0
1203.068, 245291.0
1204.150, 246343.0
1205.232, 247683.0
1206.314, 248590.4
1207.396, 248765.0
1208.478, 250353.0
1209.560, 251026.0
1210.641, 251595.0
1211.722, 253022.0
1212.804, 254202.0
1213.885, 254585.0
1214.965, 255797.0
1216.046, 256738.0
1217.127, 257069.0
1218.207, 258582.0
1219.287, 259611.0
1220.367, 259790.0
1221.447, 261405.0
1222.527, 262894.0
1223.607, 263124.0
1224.686, 263924.0
1225.765, 265252.0
1226.845, 266138.0
1227.924, 266568.0
1229.002, 267930.0
1230.081, 269553.0
1231.160, 269103.0
1232.238, 270662.0
1233.316, 271900.0
1234.394, 273627.0
1235.472, 273550.0
1236.550, 273828.0
1237.628, 275444.0
1238.705, 277128.0
1239.783, 276901.0
1240.860, 278053.0
1241.937, 279758.0
1243.014, 279851.0
1244.090, 280756.0
1245.167, 282419.0
1246.243, 282751.0
1247.319, 283997.0
1248.396, 285283.0
1249.471, 285810.0
