##NAMES=Sphalerite
##RRUFFID=R060636
##IDEAL CHEMISTRY=Zn^2+^S^2-^
##LOCALITY=unknown
##OWNER=RRUFF
##SOURCE=Gemological Institute of America
##DESCRIPTION=Light yellow-green cleavage fragment
##STATUS=The identification of this mineral has been confirmed by X-ray diffraction and chemical analysis
##URL=rruff.info/R060636
##MEASURED CHEMISTRY=Zn_1.00_S_1.00_
##PIN_ID=L01425
##ORIENTATION=Laser parallel to a* (1 0 0). Fiducial mark perpendicular to laser is parallel to -c [0 0 -1]
61.44800, 3658.000
62.69200, 4020.000
63.93500, 4788.000
65.17800, 6267.000
66.42100, 8172.000
67.66400, 9086.000
68.90700, 8294.000
70.15000, 7460.000
71.39200, 6495.000
72.63400, 6405.000
73.87600, 7014.000
75.11800, 7746.000
76.36000, 7429.000
77.60100, 6334.000
78.84200, 5834.000
80.08400, 5766.000
81.32500, 5879.000
82.56500, 5953.000
83.80600, 6026.000
85.04600, 6053.000
86.28700, 6145.078
87.52700, 6264.000
88.76700, 6276.000
90.00600, 6429.000
91.24600, 6450.841
92.48500, 6582.000
93.72500, 6676.000
94.96400, 6727.000
96.20300, 6926.000
97.44100, 7046.000
98.68000, 7523.000
99.91800, 8030.000
101.1560, 8414.000
102.3940, 8913.000
103.6320, 9287.000
104.8700, 9339.000
106.1070, 9597.000
107.3450, 9586.000
108.5820, 10204.00
109.8190, 11207.00
111.0550, 12495.00
112.2920, 13302.00
113.5290, 14077.00
114.7650, 14788.00
116.0010, 14336.00
117.2370, 13874.00
118.4730, 12924.00
119.7080, 11586.00
120.9440, 10271.00
122.1790, 9961.000
123.4140, 9857.000
124.6490, 9894.000
125.8830, 9994.000
127.1180, 10266.00
128.3520, 10538.00
129.5870, 10823.00
130.8210, 11044.00
132.0540, 11401.00
133.2880, 11711.00
134.5220, 12318.00
135.7550, 12706.00
136.9880, 12999.00
138.2210, 13613.00
139.4540, 13879.00
140.6860, 14291.00
141.9190, 14591.00
143.1510, 14732.00
144.3830, 14997.00
145.6150, 15097.00
146.8470, 15143.00
148.0790, 15249.00
149.3100, 15444.00
150.5410, 15639.00
151.7720, 15837.00
153.0030, 16005.09
154.2340, 15982.00
155.4640, 16288.00
156.6950, 16487.00
157.9250, 16527.00
159.1550, 16817.00
160.3850, 16910.00
161.6150, 17117.00
162.8440, 17267.00
164.0730, 17574.00
165.3030, 17835.53
166.5320, 18123.00
167.7600, 18497.00
168.9890, 18869.00
170.2180, 19273.00
171.4460, 19458.00
172.6740, 19640.00
173.9020, 20262.00
175.1300, 20597.00
176.3570, 20641.00
177.5850, 20643.00
178.8120, 20420.00
180.0390, 20196.00
181.2660, 19504.00
182.4930, 18894.00
183.7190, 18488.00
184.9460, 17962.00
186.1720, 17633.00
187.3980, 17391.00
188.6240, 17291.00
189.8500, 16974.00
191.0750, 16955.00
192.3010, 16864.00
193.5260, 16835.00
194.7510, 16801.00
195.9760, 16657.00
197.2000, 16764.00
198.4250, 16712.00
199.6490, 16835.00
200.8730, 17113.00
202.0970, 17307.00
203.3210, 17439.00
204.5450, 18057.00
205.7680, 18464.00
206.9920, 19092.00
208.2150, 19838.00
209.4380, 20384.00
210.6610, 21584.00
211.8830, 22084.00
213.1060, 23272.00
214.3280, 23943.00
215.5500, 24373.00
216.7720, 24365.00
217.9940, 24165.00
219.2150, 23486.00
220.4370, 22470.00
221.6580, 21553.00
222.8790, 20567.00
224.1000, 19515.00
225.3210, 18935.00
226.5410, 18288.00
227.7620, 17972.00
228.9820, 17559.00
230.2020, 17017.00
231.4220, 17182.00
232.6410, 16971.00
233.8610, 16657.00
235.0800, 16405.00
236.2990, 15971.00
237.5180, 15458.00
238.7370, 14860.00
239.9560, 13997.00
241.1750, 13287.00
242.3930, 12456.00
243.6110, 12125.00
244.8290, 11533.00
246.0470, 11141.00
247.2640, 11014.00
248.4820, 10888.00
249.6990, 10744.00
250.9160, 10696.00
252.1330, 10462.00
253.3500, 10372.00
254.5670, 10451.00
255.7830, 10300.00
256.9990, 10240.00
258.2160, 10249.00
259.4310, 10099.00
260.6470, 10365.00
261.8630, 10252.00
263.0780, 10357.00
264.2930, 10281.00
265.5090, 10293.00
266.7230, 10406.00
267.9380, 10437.00
269.1530, 10585.00
270.3670, 10572.00
271.5810, 10546.00
272.7950, 10712.00
274.0090, 10491.00
275.2230, 10494.00
276.4370, 10563.00
277.6500, 10448.00
278.8630, 10377.00
280.0760, 10231.00
281.2890, 10398.00
282.5020, 10410.00
283.7140, 10323.00
284.9270, 10433.00
286.1390, 10393.00
287.3510, 10660.00
288.5630, 10495.00
289.7740, 10735.00
290.9860, 10674.00
292.1970, 10862.00
293.4080, 11113.00
294.6190, 11235.00
295.8300, 11221.00
297.0410, 11336.00
298.2510, 11324.60
299.4610, 11475.00
300.6710, 11274.00
301.8810, 11355.00
303.0910, 11266.00
304.3010, 11026.00
305.5100, 11186.00
306.7200, 11085.00
307.9290, 11125.00
309.1380, 11118.00
310.3460, 10923.00
311.5550, 10876.00
312.7630, 11038.00
313.9720, 10872.00
315.1800, 10841.00
316.3880, 11051.00
317.5950, 11079.00
318.8030, 11103.00
320.0100, 11219.00
321.2180, 11334.00
322.4250, 11459.00
323.6320, 11652.43
324.8380, 11771.00
326.0450, 12085.00
327.2510, 12266.00
328.4570, 12521.00
329.6640, 12756.51
330.8690, 12902.00
332.0750, 13260.00
333.2810, 13541.00
334.4860, 13910.00
335.6910, 14466.00
336.8960, 15262.00
338.1010, 16474.00
339.3060, 18004.00
340.5100, 19730.00
341.7150, 21767.00
342.9190, 24103.00
344.1230, 26615.00
345.3270, 29536.00
346.5300, 32926.00
347.7340, 35929.00
348.9370, 37560.00
350.1400, 35524.00
351.3430, 32293.00
352.5460, 28337.00
353.7490, 24563.00
354.9510, 21659.00
356.1540, 20068.00
357.3560, 18761.00
358.5580, 18422.00
359.7600, 18270.00
360.9610, 17959.00
362.1630, 17974.00
363.3640, 17768.00
364.5650, 18033.00
365.7660, 18203.00
366.9670, 18304.00
368.1680, 18277.00
369.3680, 18559.00
370.5680, 18554.00
371.7680, 18630.00
372.9680, 18841.00
374.1680, 18906.00
375.3680, 19009.00
376.5670, 18998.00
377.7660, 19120.87
378.9660, 19255.00
380.1640, 19335.00
381.3630, 19407.00
382.5620, 19560.00
383.7600, 19590.00
384.9590, 19855.00
386.1570, 20161.00
387.3550, 20086.00
388.5520, 20342.00
389.7500, 20494.00
390.9470, 20480.00
392.1450, 20628.00
393.3420, 21053.00
394.5390, 21189.00
395.7350, 21239.00
396.9320, 21056.00
398.1280, 21072.00
399.3250, 20786.00
400.5210, 20506.00
401.7160, 20150.00
402.9120, 19888.00
404.1080, 19334.00
405.3030, 19244.00
406.4980, 18920.00
407.6930, 18768.00
408.8880, 18877.00
410.0830, 18688.00
411.2780, 18942.00
412.4720, 18968.00
413.6660, 19159.00
414.8600, 19338.06
416.0540, 19449.00
417.2480, 19697.00
418.4410, 19890.00
419.6350, 20053.00
420.8280, 20215.83
422.0210, 20288.01
423.2140, 20444.00
424.4070, 20376.00
425.5990, 20407.00
426.7920, 20421.00
427.9840, 20265.00
429.1760, 20264.00
430.3680, 19886.00
431.5590, 19930.00
432.7510, 19558.00
433.9420, 19367.00
435.1330, 18989.00
436.3240, 18966.00
437.5150, 19066.00
438.7060, 19064.00
439.8960, 19185.00
441.0870, 19261.00
442.2770, 19300.00
443.4670, 19550.00
444.6570, 19568.00
445.8470, 19406.00
447.0360, 19699.00
448.2250, 19798.00
449.4150, 19402.00
450.6040, 19356.00
451.7920, 19087.00
452.9810, 18709.00
454.1700, 18255.00
455.3580, 17592.00
456.5460, 17109.00
457.7340, 16627.00
458.9220, 16368.00
460.1100, 16146.00
461.2970, 15996.00
462.4850, 16171.00
463.6720, 16223.00
464.8590, 16080.00
466.0460, 16254.00
467.2320, 16244.00
468.4190, 16282.00
469.6050, 16265.00
470.7910, 16278.86
471.9770, 16334.96
473.1630, 16331.00
474.3490, 16526.00
475.5340, 16652.00
476.7200, 16912.00
477.9050, 16881.00
479.0900, 16849.00
480.2750, 17040.00
481.4590, 16968.00
482.6440, 17272.00
483.8280, 17268.00
485.0120, 17210.00
486.1960, 17418.00
487.3800, 17445.00
488.5640, 17558.00
489.7470, 17703.00
490.9310, 17532.00
492.1140, 17792.00
493.2970, 17856.00
494.4800, 17647.00
495.6620, 17866.00
496.8450, 18012.00
498.0270, 17952.00
499.2090, 18034.00
500.3910, 18203.00
501.5730, 18379.00
502.7550, 18498.00
503.9360, 18449.00
505.1170, 18629.00
506.2990, 18629.00
507.4800, 18825.00
508.6600, 19029.00
509.8410, 19190.00
511.0220, 19331.00
512.2020, 19095.00
513.3820, 19510.00
514.5620, 19512.00
515.7420, 19848.00
516.9220, 19846.00
518.1010, 19888.00
519.2800, 19938.00
520.4600, 19970.83
521.6390, 20000.00
522.8170, 19993.00
523.9960, 19990.00
525.1750, 19833.00
526.3530, 20013.00
527.5310, 19877.00
528.7090, 19879.00
529.8870, 20167.00
531.0650, 19939.00
532.2420, 20007.00
533.4190, 20132.00
534.5970, 20072.00
535.7740, 20189.00
536.9500, 20136.00
538.1270, 20391.00
539.3040, 20561.00
540.4800, 20608.00
541.6560, 20589.00
542.8320, 20737.00
544.0080, 20855.00
545.1840, 20782.00
546.3590, 21233.00
547.5340, 21076.00
548.7100, 21087.00
549.8850, 21487.00
551.0600, 21562.00
552.2340, 21647.00
553.4090, 21776.00
554.5830, 21815.00
555.7570, 21879.00
556.9310, 21972.00
558.1050, 22104.00
559.2790, 22183.00
560.4520, 22339.00
561.6260, 22527.00
562.7990, 22632.00
563.9720, 22789.00
565.1450, 22607.00
566.3170, 23035.00
567.4900, 22842.00
568.6620, 23156.00
569.8350, 23302.00
571.0070, 23294.00
572.1780, 23683.00
573.3500, 23659.00
574.5220, 24026.00
575.6930, 23933.00
576.8640, 24300.00
578.0350, 24097.00
579.2060, 24247.00
580.3770, 24510.00
581.5470, 24681.00
582.7180, 24888.00
583.8880, 25017.00
585.0580, 24967.00
586.2280, 25017.00
587.3980, 25348.00
588.5670, 25315.00
589.7370, 25742.00
590.9060, 25912.00
592.0750, 25972.00
593.2440, 26184.00
594.4130, 26359.00
595.5810, 26729.00
596.7500, 27168.00
597.9180, 27377.00
599.0860, 27691.79
600.2540, 27909.00
601.4220, 28260.00
602.5890, 28450.00
603.7570, 28932.00
604.9240, 29253.00
606.0910, 29741.00
607.2580, 29855.00
608.4250, 30103.00
609.5910, 30470.00
610.7580, 30390.00
611.9240, 30533.00
613.0900, 30790.00
614.2560, 30977.00
615.4220, 30963.00
616.5870, 30939.00
617.7530, 30728.00
618.9180, 30300.00
620.0830, 29784.00
621.2480, 29582.00
622.4130, 29225.00
623.5770, 29346.00
624.7420, 29325.00
625.9060, 29106.00
627.0700, 29373.00
628.2340, 29307.00
629.3980, 29775.00
630.5620, 30103.00
631.7250, 30366.00
632.8880, 30674.23
634.0510, 30907.12
635.2140, 31091.00
636.3770, 31370.00
637.5400, 31468.00
638.7020, 31720.00
639.8650, 31728.00
641.0270, 31515.00
642.1890, 31563.00
643.3510, 31430.00
644.5120, 31345.00
645.6740, 31327.00
646.8350, 31459.00
647.9960, 31507.44
649.1570, 31528.00
650.3180, 31865.00
651.4790, 31910.00
652.6390, 32270.00
653.8000, 32722.00
654.9600, 33132.00
656.1200, 33643.00
657.2800, 34438.00
658.4390, 35068.00
659.5990, 35798.00
660.7580, 36700.00
661.9170, 37305.00
663.0770, 38432.00
664.2350, 39341.00
665.3940, 40180.00
666.5530, 41135.00
667.7110, 41998.00
668.8690, 42052.00
670.0270, 42004.00
671.1850, 41637.00
672.3430, 40651.00
673.5000, 40418.00
674.6580, 40050.00
675.8150, 39724.00
676.9720, 39219.00
678.1290, 39308.00
679.2860, 38943.00
680.4420, 38986.00
681.5990, 38867.00
682.7550, 39043.00
683.9110, 38754.00
685.0670, 38881.00
686.2230, 38672.00
687.3790, 39085.00
688.5340, 39146.00
689.6890, 39170.00
690.8440, 39164.00
691.9990, 39232.00
693.1540, 38937.00
694.3090, 38652.00
695.4630, 38666.00
696.6170, 38622.00
697.7720, 38638.00
698.9260, 38484.00
700.0790, 38335.00
701.2330, 38160.00
702.3870, 38043.00
703.5400, 38250.00
704.6930, 38338.00
705.8460, 38485.00
706.9990, 38577.00
708.1510, 38727.00
709.3040, 38811.12
710.4560, 38793.00
711.6090, 38967.00
712.7610, 39121.00
713.9120, 39169.00
715.0640, 39452.00
716.2160, 39557.00
717.3670, 39729.00
718.5180, 39939.00
719.6690, 39928.00
720.8200, 40065.00
721.9710, 40275.00
723.1210, 40895.00
724.2720, 40714.00
725.4220, 40717.00
726.5720, 41317.00
727.7220, 41276.00
728.8720, 41720.00
730.0210, 41519.00
731.1710, 41582.00
732.3200, 41929.00
733.4690, 42517.00
734.6180, 42543.00
735.7670, 42793.00
736.9150, 42960.00
738.0640, 42817.00
739.2120, 43407.00
740.3600, 43356.00
741.5080, 43508.00
742.6560, 43949.00
743.8040, 44138.00
744.9510, 44115.00
746.0980, 44240.00
747.2450, 44888.00
748.3920, 44922.00
749.5390, 45421.00
750.6860, 45220.00
751.8320, 45464.00
752.9790, 45920.00
754.1250, 45928.00
755.2710, 46444.00
756.4170, 46223.00
757.5620, 46630.00
758.7080, 46790.00
759.8530, 46957.00
760.9990, 47384.00
762.1440, 47334.00
763.2880, 47493.00
764.4330, 47575.00
765.5780, 47732.59
766.7220, 47993.44
767.8660, 48155.00
769.0100, 48589.00
770.1540, 48874.00
771.2980, 49223.00
772.4420, 49261.00
773.5850, 49446.00
774.7280, 49747.00
775.8710, 50036.00
777.0140, 50164.00
778.1570, 50404.00
779.3000, 50734.00
780.4420, 50908.00
781.5840, 51415.00
782.7270, 51288.00
783.8690, 51690.00
785.0100, 51940.00
786.1520, 51929.00
787.2940, 51933.00
788.4350, 52581.00
789.5760, 52567.00
790.7170, 53007.00
791.8580, 53404.00
792.9980, 53422.00
794.1390, 53743.00
795.2790, 53784.00
796.4200, 54275.00
797.5600, 54630.00
798.6990, 54508.00
799.8390, 54912.00
800.9790, 54895.00
802.1180, 55347.00
803.2570, 55816.00
804.3960, 55821.00
805.5350, 56116.00
806.6740, 56312.00
807.8130, 56544.00
808.9510, 56852.00
810.0890, 57214.00
811.2270, 57418.00
812.3650, 57775.47
813.5030, 58049.00
814.6410, 58320.00
815.7780, 58589.00
816.9150, 58668.00
818.0530, 59008.00
819.1900, 59305.00
820.3260, 59748.00
821.4630, 59736.00
822.5990, 60046.00
823.7360, 60194.00
824.8720, 60481.71
826.0080, 60772.82
827.1440, 61178.00
828.2790, 61333.00
829.4150, 61734.00
830.5500, 61907.00
831.6860, 62171.00
832.8210, 62159.00
833.9560, 63195.00
835.0900, 63177.00
836.2250, 63663.00
837.3590, 63590.00
838.4930, 63994.00
839.6280, 64215.00
840.7610, 64590.00
841.8950, 64945.00
843.0290, 65433.00
844.1620, 65493.00
845.2950, 65977.00
846.4290, 66158.00
847.5620, 66301.00
848.6940, 66499.00
849.8270, 66773.00
850.9590, 67239.00
852.0920, 67559.00
853.2240, 68334.00
854.3560, 68090.00
855.4880, 68495.00
856.6190, 68222.00
857.7510, 68964.00
858.8820, 69144.00
860.0130, 69588.00
861.1450, 69829.00
862.2750, 69828.00
863.4060, 70536.00
864.5370, 70611.00
865.6670, 71216.00
866.7970, 71555.00
867.9270, 71816.00
869.0570, 72269.00
870.1870, 72711.00
871.3170, 72828.00
872.4460, 73411.00
873.5750, 73501.00
874.7040, 73535.00
875.8330, 74170.00
876.9620, 74295.00
878.0910, 74832.00
879.2190, 75257.00
880.3480, 75089.00
881.4760, 75750.00
882.6040, 76332.00
883.7320, 76914.00
884.8590, 76800.00
885.9870, 77105.00
887.1140, 77239.00
888.2410, 77863.00
889.3680, 78288.00
890.4950, 78697.00
891.6220, 78933.00
892.7490, 79412.00
893.8750, 79156.00
895.0010, 80128.00
896.1270, 80157.00
897.2530, 80558.00
898.3790, 81097.00
899.5050, 81425.00
900.6300, 81498.00
901.7550, 82017.00
902.8800, 82298.83
904.0050, 82840.00
905.1300, 83105.00
906.2550, 83502.00
907.3790, 83969.00
908.5040, 84260.00
909.6280, 84772.00
910.7520, 85341.00
911.8760, 85579.51
912.9990, 85979.00
914.1230, 86169.00
915.2460, 86517.00
916.3690, 86799.00
917.4930, 87251.00
918.6150, 87625.00
919.7380, 88311.00
920.8610, 88448.00
921.9830, 88889.00
923.1050, 88727.00
924.2280, 89815.00
925.3490, 89838.00
926.4710, 90476.00
927.5930, 90641.00
928.7140, 90801.00
929.8360, 91401.00
930.9570, 91806.00
932.0780, 92232.00
933.1990, 92347.00
934.3190, 93165.00
935.4400, 93150.00
936.5600, 93943.00
937.6800, 94594.00
938.8000, 94848.00
939.9200, 95159.00
941.0400, 95727.00
942.1600, 96020.43
943.2790, 96279.00
944.3980, 96766.00
945.5170, 97227.00
946.6360, 97465.00
947.7550, 98226.00
948.8740, 98626.00
949.9920, 98863.00
951.1100, 99684.00
952.2280, 99568.00
953.3460, 100150.0
954.4640, 101129.0
955.5820, 100671.0
956.6990, 101752.0
957.8170, 101731.0
958.9340, 102332.0
960.0510, 102852.0
961.1680, 102895.0
962.2850, 103763.0
963.4010, 103926.0
964.5170, 104243.0
965.6340, 104699.0
966.7500, 105093.0
967.8660, 106104.0
968.9810, 106092.0
970.0970, 107173.0
971.2130, 107676.0
972.3280, 107784.0
973.4430, 108058.0
974.5580, 108605.0
975.6730, 108849.0
976.7870, 109296.0
977.9020, 109872.0
979.0160, 110559.0
980.1300, 110987.0
981.2440, 111229.0
982.3580, 112033.0
983.4720, 112081.0
984.5860, 112862.0
985.6990, 113322.0
986.8120, 113690.0
987.9250, 114149.0
989.0380, 114535.0
990.1510, 115405.0
991.2630, 116074.0
992.3760, 116137.0
993.4880, 116926.0
994.6000, 117193.0
995.7120, 117728.0
996.8240, 118215.8
997.9360, 118777.0
999.0470, 119124.0
1000.159, 119570.0
1001.270, 120081.0
1002.381, 120676.0
1003.492, 121605.0
1004.602, 121748.0
1005.713, 122486.0
1006.823, 123162.0
1007.934, 123163.0
1009.044, 124095.0
1010.154, 124017.0
1011.263, 124551.0
1012.373, 125658.0
1013.482, 125929.0
1014.592, 126038.0
1015.701, 127270.0
1016.810, 127608.0
1017.919, 127990.0
1019.027, 128244.0
1020.136, 129638.0
1021.244, 130440.0
1022.352, 130627.0
1023.460, 130366.0
1024.568, 131261.0
1025.676, 131418.0
1026.784, 131466.0
1027.891, 132929.0
1028.998, 133089.0
1030.105, 133929.0
1031.212, 134164.0
1032.319, 134599.0
1033.426, 135219.0
1034.532, 136168.0
1035.638, 136334.0
1036.745, 137111.0
1037.851, 137982.0
1038.956, 138122.0
1040.062, 138839.0
1041.168, 139251.0
1042.273, 139796.0
1043.378, 140183.0
1044.483, 141172.0
1045.588, 141290.0
1046.693, 141964.0
1047.798, 142350.0
1048.902, 143470.0
1050.006, 144125.0
1051.110, 144937.0
1052.214, 145014.0
1053.318, 145882.0
1054.422, 145693.0
1055.525, 146762.0
1056.629, 147274.0
1057.732, 147830.0
1058.835, 148616.0
1059.938, 149474.0
1061.040, 149597.0
1062.143, 151101.0
1063.245, 151399.0
1064.348, 151868.0
1065.450, 151921.0
1066.552, 153131.0
1067.653, 153259.0
1068.755, 154418.0
1069.856, 154972.0
1070.958, 155933.0
1072.059, 155780.0
1073.160, 156727.0
1074.261, 157270.0
1075.361, 158214.0
1076.462, 158512.0
1077.562, 159431.0
1078.662, 160656.0
1079.762, 161153.0
1080.862, 161618.0
1081.962, 162354.0
1083.062, 163171.0
1084.161, 163644.0
1085.260, 164553.0
1086.359, 165416.0
1087.458, 165585.0
1088.557, 165988.0
1089.656, 167089.0
1090.754, 167279.0
1091.853, 168422.0
1092.951, 168688.0
1094.049, 169561.0
1095.147, 170661.0
1096.244, 171183.0
1097.342, 171621.0
1098.439, 172602.0
1099.537, 173681.0
1100.634, 174572.0
1101.731, 175073.0
1102.827, 175113.0
1103.924, 176264.0
1105.021, 176399.0
1106.117, 177120.0
1107.213, 178026.0
1108.309, 178573.0
1109.405, 179215.0
1110.501, 179835.5
1111.596, 180695.0
1112.691, 181101.0
1113.787, 181919.0
1114.882, 182949.0
1115.977, 184083.0
1117.071, 184229.0
1118.166, 184900.0
1119.260, 185947.0
1120.355, 186159.0
1121.449, 187408.0
1122.543, 188595.0
1123.637, 188625.0
1124.730, 188737.0
1125.824, 190529.0
1126.917, 190759.0
1128.010, 191430.0
1129.103, 192415.0
1130.196, 193018.0
1131.289, 193706.0
1132.382, 194245.0
1133.474, 195146.0
1134.566, 195559.0
1135.659, 196636.0
1136.750, 197522.0
1137.842, 197828.0
1138.934, 198920.0
1140.025, 199867.0
1141.117, 200293.0
1142.208, 201491.0
1143.299, 202393.0
1144.390, 203164.7
1145.481, 203918.6
1146.571, 204715.0
1147.662, 205280.0
1148.752, 205642.0
1149.842, 206699.0
1150.932, 207654.0
1152.022, 207909.0
1153.111, 209378.0
1154.201, 210004.0
1155.290, 210117.0
1156.379, 211412.0
1157.468, 211741.0
1158.557, 213440.0
1159.646, 213593.0
1160.734, 214464.0
1161.823, 216210.0
1162.911, 215888.0
1163.999, 217333.0
1165.087, 217883.0
1166.175, 218581.0
1167.262, 219572.0
1168.350, 220390.0
1169.437, 221455.0
1170.524, 222093.0
1171.611, 222842.0
1172.698, 223688.0
1173.785, 224768.0
1174.872, 226041.0
1175.958, 226213.0
1177.044, 227657.0
1178.130, 228018.0
1179.216, 229040.0
1180.302, 229497.0
1181.388, 230645.0
1182.473, 231463.0
1183.558, 231977.0
1184.644, 232297.0
1185.729, 233696.0
1186.813, 235086.0
1187.898, 235577.0
1188.983, 236543.0
1190.067, 237289.0
1191.151, 237789.0
1192.235, 238977.0
1193.319, 239650.0
1194.403, 240306.0
1195.487, 241465.0
1196.570, 242528.0
1197.653, 243249.0
1198.737, 244105.0
1199.820, 244433.0
1200.902, 245990.0
1201.985, 247009.0
1203.068, 246807.0
1204.150, 248717.0
1205.232, 249335.0
1206.314, 250672.0
1207.396, 250943.0
1208.478, 251683.0
1209.560, 253035.0
1210.641, 254133.0
1211.722, 255323.0
1212.804, 255847.0
1213.885, 257441.0
1214.965, 257641.0
1216.046, 258154.0
1217.127, 259618.0
1218.207, 260593.0
1219.287, 260852.0
1220.367, 261794.0
1221.447, 263307.0
1222.527, 264605.0
1223.607, 264834.0
1224.686, 266856.0
1225.765, 266573.0
1226.845, 268643.0
1227.924, 269650.0
1229.002, 269578.0
1230.081, 271266.0
1231.160, 271517.0
1232.238, 273676.0
1233.316, 273742.0
1234.394, 275172.0
1235.472, 275596.0
1236.550, 276697.0
1237.628, 277956.0
1238.705, 279122.0
1239.783, 279679.0
1240.860, 280854.0
1241.937, 280744.0
1243.014, 282544.0
1244.090, 283010.0
1245.167, 283890.0
1246.243, 286127.0
1247.319, 286663.0
1248.396, 287799.0
1249.471, 288491.0
