##NAMES=Sphalerite
##RRUFFID=R060636
##IDEAL CHEMISTRY=Zn^2+^S^2-^
##LOCALITY=unknown
##OWNER=RRUFF
##SOURCE=Gemological Institute of America
##DESCRIPTION=Light yellow-green cleavage fragment
##STATUS=The identification of this mineral has been confirmed by X-ray diffraction and chemical analysis
##URL=rruff.info/R060636
##MEASURED CHEMISTRY=Zn_1.00_S_1.00_
##PIN_ID=L01425
##ORIENTATION=Laser parallel to a* (1 0 0). Fiducial mark perpendicular to laser is parallel to -c [0 0 -1]
61.44800, 3177.000
62.69200, 3335.000
63.93500, 3634.000
65.17800, 4719.000
66.42100, 6478.000
67.66400, 8306.000
68.90700, 8258.000
70.15000, 7548.000
71.39200, 5942.000
72.63400, 5160.000
73.87600, 4888.000
75.11800, 5155.000
76.36000, 5236.000
77.60100, 5131.000
78.84200, 4972.000
80.08400, 5011.000
81.32500, 5342.000
82.56500, 5395.000
83.80600, 5631.000
85.04600, 5349.000
86.28700, 5750.000
87.52700, 5656.000
88.76700, 5814.000
90.00600, 5904.000
91.24600, 6089.000
92.48500, 6262.000
93.72500, 6226.000
94.96400, 6371.000
96.20300, 6402.000
97.44100, 6447.000
98.68000, 6721.000
99.91800, 7125.000
101.1560, 7383.000
102.3940, 7725.000
103.6320, 8075.000
104.8700, 8368.000
106.1070, 8301.000
107.3450, 8123.000
108.5820, 8044.000
109.8190, 8319.000
111.0550, 8652.000
112.2920, 8700.000
113.5290, 8902.000
114.7650, 9151.027
116.0010, 9446.000
117.2370, 9563.000
118.4730, 9474.000
119.7080, 9522.000
120.9440, 9137.000
122.1790, 9015.000
123.4140, 9101.000
124.6490, 9274.000
125.8830, 9351.000
127.1180, 9550.000
128.3520, 9926.000
129.5870, 10114.00
130.8210, 10527.00
132.0540, 10561.00
133.2880, 11170.00
134.5220, 11436.00
135.7550, 11998.00
136.9880, 12375.00
138.2210, 12882.00
139.4540, 13254.00
140.6860, 13633.00
141.9190, 13918.00
143.1510, 14170.31
144.3830, 14300.00
145.6150, 14556.00
146.8470, 14573.00
148.0790, 14703.00
149.3100, 14696.00
150.5410, 14865.00
151.7720, 14814.00
153.0030, 15127.00
154.2340, 15180.00
155.4640, 15468.00
156.6950, 15485.00
157.9250, 15798.00
159.1550, 15874.00
160.3850, 15955.00
161.6150, 16453.00
162.8440, 16364.00
164.0730, 16737.00
165.3030, 16932.00
166.5320, 17311.00
167.7600, 17602.00
168.9890, 17914.00
170.2180, 18334.00
171.4460, 18549.00
172.6740, 18871.00
173.9020, 19179.00
175.1300, 19392.00
176.3570, 19645.00
177.5850, 19925.00
178.8120, 19853.00
180.0390, 19473.00
181.2660, 18710.00
182.4930, 18469.00
183.7190, 17802.00
184.9460, 17633.00
186.1720, 17125.00
187.3980, 16777.00
188.6240, 16496.00
189.8500, 16515.00
191.0750, 16426.00
192.3010, 16137.00
193.5260, 16314.00
194.7510, 16124.00
195.9760, 16106.00
197.2000, 15989.00
198.4250, 16229.00
199.6490, 16191.00
200.8730, 16254.00
202.0970, 16445.00
203.3210, 16550.00
204.5450, 17105.00
205.7680, 17590.00
206.9920, 18012.00
208.2150, 18532.00
209.4380, 19464.00
210.6610, 20360.00
211.8830, 21094.00
213.1060, 22043.00
214.3280, 22776.00
215.5500, 23350.00
216.7720, 23516.00
217.9940, 23566.00
219.2150, 23044.00
220.4370, 22194.00
221.6580, 21383.00
222.8790, 20312.00
224.1000, 19402.00
225.3210, 18523.00
226.5410, 17996.00
227.7620, 17449.00
228.9820, 17121.00
230.2020, 16822.00
231.4220, 16625.00
232.6410, 16329.00
233.8610, 15989.00
235.0800, 16087.00
236.2990, 15708.00
237.5180, 15060.00
238.7370, 14597.00
239.9560, 13779.00
241.1750, 13046.00
242.3930, 12190.00
243.6110, 11595.00
244.8290, 11221.00
246.0470, 10962.00
247.2640, 10641.00
248.4820, 10465.00
249.6990, 10271.00
250.9160, 10344.00
252.1330, 10290.00
253.3500, 10093.00
254.5670, 10105.00
255.7830, 10035.00
256.9990, 9965.000
258.2160, 9828.000
259.4310, 9720.000
260.6470, 9912.000
261.8630, 9946.000
263.0780, 10018.00
264.2930, 10062.43
265.5090, 9967.000
266.7230, 10104.00
267.9380, 10097.00
269.1530, 10175.00
270.3670, 10234.00
271.5810, 10202.00
272.7950, 10142.00
274.0090, 10223.00
275.2230, 10034.00
276.4370, 10287.00
277.6500, 9969.000
278.8630, 10070.00
280.0760, 9995.000
281.2890, 10143.00
282.5020, 10111.00
283.7140, 10146.00
284.9270, 10171.00
286.1390, 10267.00
287.3510, 10128.00
288.5630, 10096.00
289.7740, 10375.00
290.9860, 10430.00
292.1970, 10664.00
293.4080, 10746.00
294.6190, 10978.00
295.8300, 11081.00
297.0410, 11260.00
298.2510, 11266.00
299.4610, 11415.00
300.6710, 11190.00
301.8810, 11417.00
303.0910, 11191.00
304.3010, 11024.00
305.5100, 11239.00
306.7200, 11150.00
307.9290, 10993.00
309.1380, 11058.00
310.3460, 11142.00
311.5550, 10846.00
312.7630, 10997.00
313.9720, 10846.00
315.1800, 10934.00
316.3880, 11048.00
317.5950, 11013.00
318.8030, 10879.00
320.0100, 11336.00
321.2180, 11180.00
322.4250, 11353.00
323.6320, 11466.00
324.8380, 11777.00
326.0450, 12114.00
327.2510, 12420.00
328.4570, 12838.00
329.6640, 13265.00
330.8690, 13650.00
332.0750, 14300.00
333.2810, 14974.00
334.4860, 16007.00
335.6910, 17550.00
336.8960, 19494.00
338.1010, 22228.00
339.3060, 25973.00
340.5100, 31120.00
341.7150, 37664.00
342.9190, 45237.00
344.1230, 55343.00
345.3270, 67758.00
346.5300, 81619.00
347.7340, 97387.00
348.9370, 109770.0
350.1400, 106987.0
351.3430, 92783.00
352.5460, 75853.00
353.7490, 58775.00
354.9510, 44349.00
356.1540, 35734.00
357.3560, 29910.00
358.5580, 26752.00
359.7600, 24625.00
360.9610, 22911.00
362.1630, 22248.00
363.3640, 21411.00
364.5650, 20946.00
365.7660, 20785.00
366.9670, 20591.00
368.1680, 20598.00
369.3680, 20320.00
370.5680, 20097.00
371.7680, 20139.00
372.9680, 20155.00
374.1680, 20232.00
375.3680, 20449.00
376.5670, 20142.00
377.7660, 19848.00
378.9660, 20277.00
380.1640, 20379.00
381.3630, 20293.00
382.5620, 20200.00
383.7600, 20410.00
384.9590, 20361.00
386.1570, 20599.00
387.3550, 20802.00
388.5520, 20845.00
389.7500, 21051.00
390.9470, 21141.00
392.1450, 21183.00
393.3420, 21371.00
394.5390, 21484.00
395.7350, 21746.00
396.9320, 21526.00
398.1280, 21518.00
399.3250, 21255.00
400.5210, 21059.00
401.7160, 20569.00
402.9120, 20438.00
404.1080, 19826.00
405.3030, 19756.00
406.4980, 19401.00
407.6930, 19292.00
408.8880, 19218.00
410.0830, 18947.00
411.2780, 19358.00
412.4720, 19132.00
413.6660, 19487.00
414.8600, 19539.00
416.0540, 19943.00
417.2480, 20202.00
418.4410, 20583.00
419.6350, 20652.00
420.8280, 20962.00
422.0210, 20806.00
423.2140, 20759.00
424.4070, 20562.00
425.5990, 20894.00
426.7920, 20786.00
427.9840, 20484.00
429.1760, 20159.00
430.3680, 19816.00
431.5590, 19557.62
432.7510, 19317.39
433.9420, 19089.00
435.1330, 18908.00
436.3240, 18809.00
437.5150, 18601.00
438.7060, 18879.00
439.8960, 18728.00
441.0870, 19011.00
442.2770, 18899.00
443.4670, 19053.00
444.6570, 19105.00
445.8470, 19234.00
447.0360, 19258.00
448.2250, 19550.00
449.4150, 19267.00
450.6040, 19188.00
451.7920, 18894.00
452.9810, 18437.00
454.1700, 18040.00
455.3580, 17377.00
456.5460, 16733.00
457.7340, 16320.00
458.9220, 16154.00
460.1100, 15729.00
461.2970, 15641.00
462.4850, 15775.00
463.6720, 15740.00
464.8590, 15649.00
466.0460, 15607.00
467.2320, 15744.00
468.4190, 15718.00
469.6050, 15811.00
470.7910, 15842.00
471.9770, 16047.00
473.1630, 15971.00
474.3490, 16144.00
475.5340, 16249.00
476.7200, 16280.00
477.9050, 16309.00
479.0900, 16408.25
480.2750, 16557.00
481.4590, 16613.00
482.6440, 16748.00
483.8280, 16940.00
485.0120, 16868.00
486.1960, 16757.00
487.3800, 17100.00
488.5640, 17077.00
489.7470, 17197.00
490.9310, 17072.00
492.1140, 17248.00
493.2970, 17349.00
494.4800, 17353.00
495.6620, 17395.00
496.8450, 17666.00
498.0270, 17542.00
499.2090, 17751.00
500.3910, 17786.00
501.5730, 18028.00
502.7550, 17986.00
503.9360, 18303.00
505.1170, 18441.00
506.2990, 18247.00
507.4800, 18512.00
508.6600, 18536.00
509.8410, 18663.00
511.0220, 18745.00
512.2020, 19064.00
513.3820, 19030.00
514.5620, 19057.00
515.7420, 19342.00
516.9220, 19263.00
518.1010, 19506.00
519.2800, 19611.00
520.4600, 19673.00
521.6390, 19450.00
522.8170, 19606.00
523.9960, 19533.00
525.1750, 19514.00
526.3530, 19459.00
527.5310, 19659.00
528.7090, 19539.00
529.8870, 19644.00
531.0650, 19691.00
532.2420, 19721.00
533.4190, 19811.00
534.5970, 19802.00
535.7740, 19812.00
536.9500, 19824.00
538.1270, 20069.00
539.3040, 20079.00
540.4800, 20249.00
541.6560, 20332.00
542.8320, 20430.00
544.0080, 20422.00
545.1840, 20612.00
546.3590, 20611.00
547.5340, 20676.00
548.7100, 20834.00
549.8850, 20939.00
551.0600, 21218.00
552.2340, 21198.00
553.4090, 21396.00
554.5830, 21422.00
555.7570, 21768.00
556.9310, 21641.00
558.1050, 21747.00
559.2790, 21916.00
560.4520, 21877.00
561.6260, 22036.00
562.7990, 22249.00
563.9720, 22485.00
565.1450, 22312.00
566.3170, 22760.00
567.4900, 22700.00
568.6620, 22661.00
569.8350, 22966.00
571.0070, 23177.00
572.1780, 23214.00
573.3500, 23281.00
574.5220, 23302.00
575.6930, 23617.00
576.8640, 23855.00
578.0350, 23814.00
579.2060, 24189.00
580.3770, 24254.00
581.5470, 24048.00
582.7180, 24324.00
583.8880, 24501.00
585.0580, 24909.00
586.2280, 24734.00
587.3980, 25026.00
588.5670, 25031.00
589.7370, 25254.00
590.9060, 25467.00
592.0750, 25678.00
593.2440, 25961.00
594.4130, 26173.00
595.5810, 26321.00
596.7500, 26882.00
597.9180, 26901.00
599.0860, 27117.00
600.2540, 27609.00
601.4220, 27807.00
602.5890, 28058.00
603.7570, 28616.00
604.9240, 28828.00
606.0910, 29158.00
607.2580, 29601.00
608.4250, 29986.00
609.5910, 30201.00
610.7580, 30276.00
611.9240, 30557.00
613.0900, 30752.00
614.2560, 30652.00
615.4220, 30513.00
616.5870, 30656.00
617.7530, 30765.00
618.9180, 30344.00
620.0830, 29737.00
621.2480, 29535.00
622.4130, 29080.00
623.5770, 28923.00
624.7420, 29133.00
625.9060, 28989.00
627.0700, 29282.00
628.2340, 29131.00
629.3980, 29508.00
630.5620, 29806.00
631.7250, 30316.00
632.8880, 30446.00
634.0510, 30969.00
635.2140, 31305.00
636.3770, 31350.00
637.5400, 31634.00
638.7020, 31940.00
639.8650, 31975.00
641.0270, 31858.00
642.1890, 31958.00
643.3510, 31941.00
644.5120, 31449.00
645.6740, 31445.00
646.8350, 31517.00
647.9960, 31405.00
649.1570, 31611.00
650.3180, 31780.00
651.4790, 31964.00
652.6390, 32149.00
653.8000, 32644.00
654.9600, 32911.00
656.1200, 33547.00
657.2800, 33853.00
658.4390, 34764.00
659.5990, 35382.00
660.7580, 36301.00
661.9170, 36936.00
663.0770, 37830.00
664.2350, 38837.00
665.3940, 39822.00
666.5530, 41046.00
667.7110, 41701.00
668.8690, 42114.00
670.0270, 42206.00
671.1850, 41879.00
672.3430, 41344.00
673.5000, 40625.00
674.6580, 40072.00
675.8150, 39661.00
676.9720, 39576.00
678.1290, 39016.00
679.2860, 39336.00
680.4420, 39136.00
681.5990, 38992.00
682.7550, 39061.00
683.9110, 39147.00
685.0670, 38939.00
686.2230, 38886.00
687.3790, 39280.00
688.5340, 39109.00
689.6890, 39108.00
690.8440, 39222.00
691.9990, 39165.00
693.1540, 39142.00
694.3090, 39113.00
695.4630, 38928.00
696.6170, 39007.00
697.7720, 38774.00
698.9260, 38693.00
700.0790, 38896.00
701.2330, 38417.00
702.3870, 38274.00
703.5400, 38559.00
704.6930, 38359.00
705.8460, 38745.00
706.9990, 39040.00
708.1510, 39002.00
709.3040, 39029.00
710.4560, 39292.00
711.6090, 39257.00
712.7610, 39405.00
713.9120, 39564.00
715.0640, 39609.00
716.2160, 39561.00
717.3670, 39775.57
718.5180, 40044.00
719.6690, 40166.00
720.8200, 40526.00
721.9710, 40873.00
723.1210, 41090.00
724.2720, 40824.00
725.4220, 41188.00
726.5720, 41529.00
727.7220, 42095.00
728.8720, 41854.00
730.0210, 42143.00
731.1710, 42238.00
732.3200, 42316.63
733.4690, 42672.00
734.6180, 42782.00
735.7670, 42995.00
736.9150, 43557.00
738.0640, 43625.00
739.2120, 43716.00
740.3600, 43856.00
741.5080, 43919.00
742.6560, 44502.00
743.8040, 44432.00
744.9510, 44901.00
746.0980, 44596.00
747.2450, 44913.00
748.3920, 45307.00
749.5390, 45416.00
750.6860, 45758.96
751.8320, 46034.00
752.9790, 46306.00
754.1250, 46273.00
755.2710, 46594.00
756.4170, 46961.00
757.5620, 47151.00
758.7080, 47648.00
759.8530, 47461.00
760.9990, 47665.00
762.1440, 47680.00
763.2880, 48145.00
764.4330, 48531.00
765.5780, 48496.00
766.7220, 49111.00
767.8660, 49149.00
769.0100, 49576.00
770.1540, 49411.00
771.2980, 49751.00
772.4420, 50041.00
773.5850, 50185.00
774.7280, 50323.00
775.8710, 50507.00
777.0140, 50746.00
778.1570, 51054.00
779.3000, 51187.00
780.4420, 51601.00
781.5840, 51823.00
782.7270, 52086.00
783.8690, 52154.00
785.0100, 52235.00
786.1520, 52535.00
787.2940, 53086.00
788.4350, 52873.00
789.5760, 53021.00
790.7170, 53786.00
791.8580, 53973.00
792.9980, 53971.00
794.1390, 54355.00
795.2790, 54726.00
796.4200, 54801.00
797.5600, 55343.00
798.6990, 55358.00
799.8390, 55483.00
800.9790, 55654.00
802.1180, 56003.00
803.2570, 56173.51
804.3960, 56433.00
805.5350, 56724.00
806.6740, 56926.00
807.8130, 57298.00
808.9510, 57708.00
810.0890, 58210.00
811.2270, 58137.00
812.3650, 58270.00
813.5030, 58801.00
814.6410, 59068.00
815.7780, 59351.00
816.9150, 59889.00
818.0530, 60150.00
819.1900, 60266.00
820.3260, 60599.00
821.4630, 61002.00
822.5990, 61261.00
823.7360, 61319.00
824.8720, 61487.00
826.0080, 61992.00
827.1440, 62586.00
828.2790, 62604.00
829.4150, 63151.00
830.5500, 63225.00
831.6860, 63422.00
832.8210, 63624.00
833.9560, 64001.00
835.0900, 64187.00
836.2250, 64777.00
837.3590, 64693.00
838.4930, 65365.00
839.6280, 65699.00
840.7610, 65684.00
841.8950, 65738.00
843.0290, 66254.00
844.1620, 66632.00
845.2950, 66864.00
846.4290, 67177.00
847.5620, 67716.00
848.6940, 67777.00
849.8270, 68156.00
850.9590, 68462.00
852.0920, 69091.00
853.2240, 69310.00
854.3560, 69255.00
855.4880, 69991.00
856.6190, 70143.00
857.7510, 70301.00
858.8820, 70945.00
860.0130, 70838.00
861.1450, 71422.00
862.2750, 71803.00
863.4060, 71914.00
864.5370, 72471.00
865.6670, 72568.00
866.7970, 73157.00
867.9270, 73596.00
869.0570, 73513.00
870.1870, 73991.00
871.3170, 74138.00
872.4460, 74991.00
873.5750, 74767.00
874.7040, 75621.00
875.8330, 75816.00
876.9620, 76024.00
878.0910, 76880.00
879.2190, 76708.00
880.3480, 76854.00
881.4760, 77679.00
882.6040, 77851.00
883.7320, 77872.00
884.8590, 78261.00
885.9870, 78882.00
887.1140, 79376.00
888.2410, 79548.00
889.3680, 79861.00
890.4950, 80241.12
891.6220, 80702.00
892.7490, 80955.00
893.8750, 81544.00
895.0010, 81945.00
896.1270, 82364.52
897.2530, 82765.45
898.3790, 83193.00
899.5050, 83413.00
900.6300, 83696.00
901.7550, 83923.00
902.8800, 84252.45
904.0050, 84611.00
905.1300, 85005.00
906.2550, 85361.00
907.3790, 85913.00
908.5040, 86421.00
909.6280, 86818.00
910.7520, 86832.00
911.8760, 87356.00
912.9990, 87708.00
914.1230, 88573.00
915.2460, 88512.00
916.3690, 89098.00
917.4930, 89718.00
918.6150, 89662.00
919.7380, 90408.00
920.8610, 90593.00
921.9830, 91239.00
923.1050, 91303.00
924.2280, 91707.00
925.3490, 92892.00
926.4710, 92620.00
927.5930, 93181.00
928.7140, 93436.00
929.8360, 93723.00
930.9570, 93887.00
932.0780, 94726.00
933.1990, 94764.00
934.3190, 95580.00
935.4400, 96070.00
936.5600, 96265.00
937.6800, 96538.00
938.8000, 97137.00
939.9200, 97246.00
941.0400, 98186.00
942.1600, 98401.00
943.2790, 98664.00
944.3980, 99342.00
945.5170, 99769.00
946.6360, 100093.0
947.7550, 100704.8
948.8740, 101024.0
949.9920, 101695.0
951.1100, 102071.0
952.2280, 102476.0
953.3460, 102796.0
954.4640, 103398.0
955.5820, 103770.0
956.6990, 104309.0
957.8170, 104776.0
958.9340, 105191.8
960.0510, 105683.5
961.1680, 106055.0
962.2850, 106607.0
963.4010, 107059.1
964.5170, 107563.1
965.6340, 107906.0
966.7500, 108446.0
967.8660, 108940.0
968.9810, 109357.1
970.0970, 109883.0
971.2130, 110092.0
972.3280, 110705.0
973.4430, 111145.0
974.5580, 111871.0
975.6730, 111836.0
976.7870, 112679.0
977.9020, 112720.0
979.0160, 113467.0
980.1300, 114480.0
981.2440, 114904.0
982.3580, 114813.0
983.4720, 115749.0
984.5860, 116112.0
985.6990, 116534.0
986.8120, 117041.0
987.9250, 117903.0
989.0380, 118646.0
990.1510, 118482.0
991.2630, 119421.0
992.3760, 119776.0
993.4880, 120406.0
994.6000, 120819.0
995.7120, 121322.8
996.8240, 121640.0
997.9360, 122277.0
999.0470, 122856.0
1000.159, 123245.0
1001.270, 124223.0
1002.381, 123957.0
1003.492, 125212.0
1004.602, 125127.0
1005.713, 126015.0
1006.823, 126327.0
1007.934, 126937.0
1009.044, 126982.0
1010.154, 127934.0
1011.263, 128482.0
1012.373, 129245.0
1013.482, 129667.0
1014.592, 129977.0
1015.701, 130706.0
1016.810, 131222.0
1017.919, 131686.0
1019.027, 132380.0
1020.136, 133476.0
1021.244, 133326.0
1022.352, 134161.0
1023.460, 134293.0
1024.568, 135325.0
1025.676, 135462.0
1026.784, 136058.0
1027.891, 136675.0
1028.998, 137625.0
1030.105, 138184.0
1031.212, 138496.0
1032.319, 139389.0
1033.426, 139027.0
1034.532, 139810.0
1035.638, 140905.0
1036.745, 140873.0
1037.851, 141857.0
1038.956, 142374.0
1040.062, 143417.0
1041.168, 143793.0
1042.273, 144025.0
1043.378, 144796.0
1044.483, 145270.0
1045.588, 146407.0
1046.693, 146661.0
1047.798, 147346.0
1048.902, 148470.0
1050.006, 149168.0
1051.110, 149170.0
1052.214, 149807.0
1053.318, 150130.0
1054.422, 150779.0
1055.525, 151588.0
1056.629, 152272.0
1057.732, 152447.0
1058.835, 153493.0
1059.938, 154431.0
1061.040, 154649.0
1062.143, 155563.0
1063.245, 155455.0
1064.348, 156653.0
1065.450, 157161.0
1066.552, 158438.0
1067.653, 159215.1
1068.755, 159371.0
1069.856, 160708.0
1070.958, 161283.0
1072.059, 161494.0
1073.160, 162628.0
1074.261, 162818.0
1075.361, 163666.0
1076.462, 164483.0
1077.562, 164608.0
1078.662, 166062.0
1079.762, 166699.0
1080.862, 167216.0
1081.962, 167674.0
1083.062, 169015.0
1084.161, 169338.0
1085.260, 169934.0
1086.359, 170360.0
1087.458, 170957.0
1088.557, 171819.0
1089.656, 172405.0
1090.754, 173439.0
1091.853, 174361.0
1092.951, 174810.0
1094.049, 175632.0
1095.147, 176294.0
1096.244, 176816.0
1097.342, 177492.0
1098.439, 178142.0
1099.537, 179204.0
1100.634, 180101.0
1101.731, 180720.0
1102.827, 181505.0
1103.924, 182134.0
1105.021, 182874.0
1106.117, 183521.6
1107.213, 184468.0
1108.309, 184772.0
1109.405, 185811.0
1110.501, 186410.0
1111.596, 187277.0
1112.691, 187922.0
1113.787, 188762.0
1114.882, 189303.0
1115.977, 189613.0
1117.071, 190675.0
1118.166, 190752.0
1119.260, 192003.0
1120.355, 193463.0
1121.449, 193319.0
1122.543, 194471.0
1123.637, 195012.0
1124.730, 196236.0
1125.824, 197020.0
1126.917, 197742.0
1128.010, 198193.0
1129.103, 198958.0
1130.196, 199264.0
1131.289, 199998.0
1132.382, 201018.0
1133.474, 202150.0
1134.566, 203059.0
1135.659, 203827.0
1136.750, 204667.3
1137.842, 205351.0
1138.934, 206098.0
1140.025, 206922.0
1141.117, 207691.0
1142.208, 208242.0
1143.299, 208904.0
1144.390, 209811.0
1145.481, 210781.0
1146.571, 211694.0
1147.662, 212588.0
1148.752, 213397.3
1149.842, 214082.0
1150.932, 215016.0
1152.022, 215638.0
1153.111, 216602.0
1154.201, 217512.3
1155.290, 218132.0
1156.379, 219237.0
1157.468, 220089.0
1158.557, 220483.0
1159.646, 221797.0
1160.734, 221888.0
1161.823, 223364.0
1162.911, 223995.0
1163.999, 225734.0
1165.087, 225789.0
1166.175, 226335.0
1167.262, 227997.0
1168.350, 229046.0
1169.437, 229803.0
1170.524, 230388.0
1171.611, 231432.0
1172.698, 231712.0
1173.785, 232675.0
1174.872, 233733.0
1175.958, 235010.0
1177.044, 235450.0
1178.130, 235990.0
1179.216, 236964.0
1180.302, 237733.0
1181.388, 238977.0
1182.473, 240024.0
1183.558, 240838.0
1184.644, 241389.0
1185.729, 242530.3
1186.813, 243465.0
1187.898, 244532.0
1188.983, 245494.0
1190.067, 246461.0
1191.151, 246775.0
1192.235, 247701.0
1193.319, 248909.0
1194.403, 249973.0
1195.487, 250239.0
1196.570, 251158.0
1197.653, 252421.0
1198.737, 253238.0
1199.820, 254362.0
1200.902, 255605.0
1201.985, 256396.0
1203.068, 257267.0
1204.150, 257954.0
1205.232, 259067.0
1206.314, 260418.0
1207.396, 260849.0
1208.478, 262522.0
1209.560, 262817.0
1210.641, 263155.0
1211.722, 264758.0
1212.804, 265733.0
1213.885, 266744.0
1214.965, 267779.0
1216.046, 268883.0
1217.127, 269481.0
1218.207, 270228.0
1219.287, 271883.0
1220.367, 272238.0
1221.447, 273916.0
1222.527, 274636.0
1223.607, 275678.0
1224.686, 276464.0
1225.765, 277090.0
1226.845, 278431.0
1227.924, 279837.0
1229.002, 280262.0
1230.081, 281995.0
1231.160, 282126.0
1232.238, 284269.0
1233.316, 284556.0
1234.394, 285585.0
1235.472, 287225.0
1236.550, 287423.0
1237.628, 288723.0
1238.705, 289348.0
1239.783, 290207.5
1240.860, 291323.8
1241.937, 292252.0
1243.014, 293411.0
1244.090, 294885.0
1245.167, 295979.0
1246.243, 297057.0
1247.319, 297632.0
1248.396, 298935.0
1249.471, 299481.0
