##NAMES=Sphalerite
##RRUFFID=R060636
##IDEAL CHEMISTRY=Zn^2+^S^2-^
##LOCALITY=unknown
##OWNER=RRUFF
##SOURCE=Gemological Institute of America
##DESCRIPTION=Light yellow-green cleavage fragment
##STATUS=The identification of this mineral has been confirmed by X-ray diffraction and chemical analysis
##URL=rruff.info/R060636
##MEASURED CHEMISTRY=Zn_1.00_S_1.00_
##PIN_ID=L01425
##ORIENTATION=Laser parallel to a* (1 0 0). Fiducial mark perpendicular to laser is parallel to -c [0 0 -1]
61.44800, 2473.000
62.69200, 2401.000
63.93500, 2551.000
65.17800, 2867.000
66.42100, 3155.000
67.66400, 3500.000
68.90700, 3487.000
70.15000, 3713.000
71.39200, 3509.000
72.63400, 3458.000
73.87600, 3507.000
75.11800, 3695.000
76.36000, 3896.000
77.60100, 4184.000
78.84200, 4243.000
80.08400, 4403.000
81.32500, 4641.000
82.56500, 4774.120
83.80600, 5008.000
85.04600, 5132.000
86.28700, 5325.000
87.52700, 5447.000
88.76700, 5623.000
90.00600, 5756.000
91.24600, 5935.000
92.48500, 5986.000
93.72500, 6087.000
94.96400, 6211.000
96.20300, 6340.000
97.44100, 6524.168
98.68000, 6627.000
99.91800, 6898.000
101.1560, 7155.000
102.3940, 7285.000
103.6320, 7530.000
104.8700, 7647.000
106.1070, 7737.000
107.3450, 7728.000
108.5820, 7896.000
109.8190, 7894.000
111.0550, 8209.000
112.2920, 8176.000
113.5290, 8173.000
114.7650, 8570.000
116.0010, 8664.000
117.2370, 8666.000
118.4730, 8835.000
119.7080, 8827.000
120.9440, 9130.000
122.1790, 9193.000
123.4140, 9313.000
124.6490, 9503.000
125.8830, 9792.000
127.1180, 9954.000
128.3520, 10402.00
129.5870, 10578.00
130.8210, 10938.00
132.0540, 11225.00
133.2880, 11631.00
134.5220, 12046.00
135.7550, 12670.00
136.9880, 12987.00
138.2210, 13544.00
139.4540, 13894.00
140.6860, 14417.00
141.9190, 14789.00
143.1510, 14976.00
144.3830, 15134.00
145.6150, 15394.00
146.8470, 15422.00
148.0790, 15512.00
149.3100, 15748.00
150.5410, 15897.00
151.7720, 16089.00
153.0030, 16283.96
154.2340, 16441.08
155.4640, 16606.00
156.6950, 16785.00
157.9250, 16831.00
159.1550, 17009.00
160.3850, 17228.83
161.6150, 17346.00
162.8440, 17722.00
164.0730, 18056.00
165.3030, 18311.00
166.5320, 18688.00
167.7600, 19144.00
168.9890, 19359.00
170.2180, 19844.00
171.4460, 20080.00
172.6740, 20518.00
173.9020, 20840.00
175.1300, 21325.00
176.3570, 21358.00
177.5850, 21546.00
178.8120, 21448.00
180.0390, 21084.00
181.2660, 20434.00
182.4930, 19870.00
183.7190, 19359.00
184.9460, 18889.47
186.1720, 18397.00
187.3980, 18193.00
188.6240, 17852.00
189.8500, 17771.00
191.0750, 17476.00
192.3010, 17436.00
193.5260, 17448.00
194.7510, 17245.00
195.9760, 17080.00
197.2000, 17114.00
198.4250, 17237.00
199.6490, 17231.00
200.8730, 17403.00
202.0970, 17570.00
203.3210, 17739.00
204.5450, 18391.00
205.7680, 18741.00
206.9920, 19557.00
208.2150, 20214.00
209.4380, 21040.00
210.6610, 22123.00
211.8830, 22695.00
213.1060, 23927.00
214.3280, 24738.00
215.5500, 25327.00
216.7720, 25822.00
217.9940, 25732.00
219.2150, 24845.00
220.4370, 23621.00
221.6580, 22884.00
222.8790, 21681.00
224.1000, 20665.00
225.3210, 20011.00
226.5410, 19239.00
227.7620, 18683.00
228.9820, 18206.00
230.2020, 17837.00
231.4220, 17588.00
232.6410, 17458.00
233.8610, 17262.00
235.0800, 16956.00
236.2990, 16582.00
237.5180, 16040.00
238.7370, 15490.00
239.9560, 14389.00
241.1750, 13762.00
242.3930, 12707.00
243.6110, 12179.00
244.8290, 11746.00
246.0470, 11399.00
247.2640, 11121.00
248.4820, 10965.00
249.6990, 10666.00
250.9160, 10569.00
252.1330, 10678.00
253.3500, 10441.00
254.5670, 10364.00
255.7830, 10330.00
256.9990, 10203.00
258.2160, 10318.00
259.4310, 10241.17
260.6470, 10245.00
261.8630, 10207.00
263.0780, 10280.00
264.2930, 10248.00
265.5090, 10324.00
266.7230, 10389.00
267.9380, 10281.00
269.1530, 10262.00
270.3670, 10445.00
271.5810, 10519.00
272.7950, 10453.00
274.0090, 10417.00
275.2230, 10478.00
276.4370, 10416.00
277.6500, 10157.00
278.8630, 10261.00
280.0760, 10185.00
281.2890, 10218.00
282.5020, 10207.00
283.7140, 10383.00
284.9270, 10441.00
286.1390, 10287.00
287.3510, 10511.00
288.5630, 10466.00
289.7740, 10544.00
290.9860, 10650.00
292.1970, 10728.00
293.4080, 10935.00
294.6190, 11136.00
295.8300, 11376.00
297.0410, 11433.00
298.2510, 11461.00
299.4610, 11704.00
300.6710, 11321.00
301.8810, 11413.00
303.0910, 11374.00
304.3010, 11148.00
305.5100, 11205.00
306.7200, 11145.00
307.9290, 11059.00
309.1380, 11096.00
310.3460, 10951.00
311.5550, 10978.87
312.7630, 11108.00
313.9720, 11010.00
315.1800, 10979.00
316.3880, 11057.00
317.5950, 11190.00
318.8030, 11233.86
320.0100, 11384.00
321.2180, 11418.00
322.4250, 11464.00
323.6320, 11534.00
324.8380, 11802.00
326.0450, 11930.00
327.2510, 12135.24
328.4570, 12369.16
329.6640, 12615.00
330.8690, 12809.00
332.0750, 13169.00
333.2810, 13360.00
334.4860, 13638.00
335.6910, 14261.00
336.8960, 14982.00
338.1010, 15667.00
339.3060, 17297.00
340.5100, 18843.00
341.7150, 20813.00
342.9190, 23071.00
344.1230, 25759.00
345.3270, 28449.00
346.5300, 31562.00
347.7340, 34634.00
348.9370, 36195.00
350.1400, 35299.00
351.3430, 32289.00
352.5460, 28800.00
353.7490, 25220.00
354.9510, 22353.00
356.1540, 20600.00
357.3560, 19192.00
358.5580, 18905.00
359.7600, 18590.00
360.9610, 18318.00
362.1630, 18383.00
363.3640, 18364.00
364.5650, 18478.00
365.7660, 18469.00
366.9670, 18624.00
368.1680, 18861.00
369.3680, 19039.00
370.5680, 18999.00
371.7680, 19266.00
372.9680, 19429.00
374.1680, 19384.00
375.3680, 19726.00
376.5670, 19550.00
377.7660, 19358.00
378.9660, 19851.00
380.1640, 19958.00
381.3630, 19889.00
382.5620, 20161.00
383.7600, 20367.00
384.9590, 20656.00
386.1570, 20624.00
387.3550, 20878.00
388.5520, 20914.00
389.7500, 21243.00
390.9470, 21268.00
392.1450, 21594.00
393.3420, 21782.00
394.5390, 21742.00
395.7350, 21954.00
396.9320, 21995.00
398.1280, 21917.00
399.3250, 21801.00
400.5210, 21531.00
401.7160, 20807.00
402.9120, 20651.00
404.1080, 20253.00
405.3030, 20056.00
406.4980, 19736.00
407.6930, 19526.00
408.8880, 19590.00
410.0830, 19408.00
411.2780, 19447.00
412.4720, 19466.00
413.6660, 19684.00
414.8600, 19794.66
416.0540, 20028.00
417.2480, 20218.00
418.4410, 20529.00
419.6350, 20847.00
420.8280, 21063.00
422.0210, 20931.00
423.2140, 21216.00
424.4070, 21221.00
425.5990, 21408.00
426.7920, 21162.00
427.9840, 21187.00
429.1760, 20839.00
430.3680, 20747.00
431.5590, 20705.00
432.7510, 20440.00
433.9420, 20220.00
435.1330, 19876.00
436.3240, 19888.00
437.5150, 19810.00
438.7060, 19693.00
439.8960, 19740.00
441.0870, 19986.00
442.2770, 19974.00
443.4670, 20379.00
444.6570, 20343.00
445.8470, 20483.00
447.0360, 20500.00
448.2250, 20824.00
449.4150, 20566.00
450.6040, 20288.00
451.7920, 20105.00
452.9810, 19639.00
454.1700, 19032.00
455.3580, 18456.00
456.5460, 17849.00
457.7340, 17410.00
458.9220, 17145.00
460.1100, 16779.00
461.2970, 16676.00
462.4850, 16874.00
463.6720, 16716.00
464.8590, 16771.00
466.0460, 16752.00
467.2320, 16848.00
468.4190, 16893.00
469.6050, 17007.00
470.7910, 17034.00
471.9770, 17127.00
473.1630, 17192.00
474.3490, 17065.00
475.5340, 17277.00
476.7200, 17427.00
477.9050, 17526.00
479.0900, 17404.00
480.2750, 17690.00
481.4590, 17695.00
482.6440, 17780.00
483.8280, 17921.00
485.0120, 18010.00
486.1960, 18086.54
487.3800, 18254.00
488.5640, 18206.00
489.7470, 18391.00
490.9310, 18426.00
492.1140, 18560.00
493.2970, 18625.00
494.4800, 18749.00
495.6620, 18765.00
496.8450, 18855.00
498.0270, 18934.00
499.2090, 18891.00
500.3910, 19078.96
501.5730, 19387.00
502.7550, 19322.00
503.9360, 19440.00
505.1170, 19424.00
506.2990, 19543.00
507.4800, 19525.00
508.6600, 19888.00
509.8410, 19998.00
511.0220, 20213.00
512.2020, 20193.00
513.3820, 20318.00
514.5620, 20343.00
515.7420, 20483.56
516.9220, 20719.00
518.1010, 20786.00
519.2800, 20894.00
520.4600, 21030.00
521.6390, 20976.00
522.8170, 20804.00
523.9960, 20876.00
525.1750, 20975.00
526.3530, 20901.00
527.5310, 20934.00
528.7090, 21054.00
529.8870, 20921.00
531.0650, 21044.00
532.2420, 20837.00
533.4190, 21236.00
534.5970, 21023.00
535.7740, 21214.00
536.9500, 21180.00
538.1270, 21362.00
539.3040, 21645.00
540.4800, 21522.00
541.6560, 21558.00
542.8320, 21683.00
544.0080, 22063.00
545.1840, 22006.00
546.3590, 22193.00
547.5340, 22297.00
548.7100, 22297.00
549.8850, 22509.00
551.0600, 22845.00
552.2340, 22573.00
553.4090, 22689.00
554.5830, 22848.00
555.7570, 23198.00
556.9310, 23070.00
558.1050, 23378.00
559.2790, 23379.00
560.4520, 23511.00
561.6260, 23702.00
562.7990, 23836.00
563.9720, 23974.00
565.1450, 24046.00
566.3170, 24235.00
567.4900, 24507.00
568.6620, 24183.00
569.8350, 24704.00
571.0070, 24802.00
572.1780, 24751.00
573.3500, 25186.00
574.5220, 25331.00
575.6930, 25145.00
576.8640, 25561.00
578.0350, 25794.00
579.2060, 25564.00
580.3770, 26137.00
581.5470, 25931.00
582.7180, 26137.00
583.8880, 26306.00
585.0580, 26504.00
586.2280, 26504.00
587.3980, 26837.00
588.5670, 26832.00
589.7370, 27373.00
590.9060, 27435.00
592.0750, 27728.00
593.2440, 27847.00
594.4130, 28190.00
595.5810, 28434.00
596.7500, 28633.00
597.9180, 28887.00
599.0860, 29326.00
600.2540, 29739.00
601.4220, 29835.00
602.5890, 30269.00
603.7570, 30895.00
604.9240, 30951.00
606.0910, 31501.00
607.2580, 31898.00
608.4250, 32084.00
609.5910, 32653.00
610.7580, 32539.00
611.9240, 32763.00
613.0900, 32996.00
614.2560, 33041.00
615.4220, 32929.00
616.5870, 32848.00
617.7530, 32676.93
618.9180, 32644.00
620.0830, 32105.00
621.2480, 31638.00
622.4130, 31046.00
623.5770, 31189.00
624.7420, 30696.00
625.9060, 30942.00
627.0700, 31238.00
628.2340, 31529.00
629.3980, 31543.00
630.5620, 31631.00
631.7250, 32291.00
632.8880, 32249.00
634.0510, 32906.00
635.2140, 33299.00
636.3770, 33352.00
637.5400, 33710.00
638.7020, 33719.00
639.8650, 33634.00
641.0270, 33879.00
642.1890, 33761.00
643.3510, 33670.00
644.5120, 33723.00
645.6740, 33683.00
646.8350, 33336.00
647.9960, 33430.00
649.1570, 33398.00
650.3180, 33936.00
651.4790, 34237.00
652.6390, 34314.00
653.8000, 34992.00
654.9600, 35353.00
656.1200, 35918.00
657.2800, 36490.00
658.4390, 37226.64
659.5990, 38292.00
660.7580, 38969.00
661.9170, 39953.00
663.0770, 41018.00
664.2350, 41962.00
665.3940, 43116.00
666.5530, 43997.00
667.7110, 45006.00
668.8690, 45542.00
670.0270, 45501.00
671.1850, 45103.00
672.3430, 44226.00
673.5000, 43352.00
674.6580, 43279.00
675.8150, 42625.00
676.9720, 42517.00
678.1290, 42291.00
679.2860, 42140.00
680.4420, 41984.00
681.5990, 41749.00
682.7550, 42079.00
683.9110, 42124.00
685.0670, 42108.64
686.2230, 42690.00
687.3790, 42084.00
688.5340, 42346.00
689.6890, 42199.00
690.8440, 41901.00
691.9990, 42545.00
693.1540, 42107.00
694.3090, 42006.00
695.4630, 42241.00
696.6170, 41999.00
697.7720, 41702.00
698.9260, 41652.00
700.0790, 41588.00
701.2330, 41504.00
702.3870, 41384.00
703.5400, 41376.00
704.6930, 41510.00
705.8460, 41370.00
706.9990, 41871.00
708.1510, 41709.00
709.3040, 41962.00
710.4560, 42141.00
711.6090, 42201.00
712.7610, 42089.00
713.9120, 42545.00
715.0640, 42453.00
716.2160, 42822.00
717.3670, 43259.00
718.5180, 43173.00
719.6690, 43393.00
720.8200, 43692.00
721.9710, 43515.00
723.1210, 44006.00
724.2720, 43986.00
725.4220, 44339.00
726.5720, 44466.00
727.7220, 44824.00
728.8720, 45065.00
730.0210, 45168.00
731.1710, 45514.00
732.3200, 45323.00
733.4690, 46048.00
734.6180, 45772.00
735.7670, 46215.00
736.9150, 46562.00
738.0640, 46833.00
739.2120, 46540.00
740.3600, 47284.00
741.5080, 47108.00
742.6560, 47531.00
743.8040, 48006.00
744.9510, 47892.00
746.0980, 48205.00
747.2450, 48401.00
748.3920, 48583.74
749.5390, 49036.00
750.6860, 49157.00
751.8320, 49340.00
752.9790, 49711.00
754.1250, 49700.00
755.2710, 50248.00
756.4170, 50504.00
757.5620, 50627.00
758.7080, 50665.00
759.8530, 51101.00
760.9990, 51502.00
762.1440, 51589.00
763.2880, 51932.18
764.4330, 52208.00
765.5780, 52272.00
766.7220, 52543.00
767.8660, 52555.00
769.0100, 52697.00
770.1540, 53123.00
771.2980, 53167.00
772.4420, 53497.00
773.5850, 54045.00
774.7280, 54219.00
775.8710, 54332.00
777.0140, 54671.00
778.1570, 54806.00
779.3000, 55158.00
780.4420, 55254.00
781.5840, 55686.00
782.7270, 55919.00
783.8690, 56077.00
785.0100, 56404.00
786.1520, 56469.00
787.2940, 56814.00
788.4350, 57191.00
789.5760, 57393.00
790.7170, 57407.00
791.8580, 57945.00
792.9980, 57894.00
794.1390, 58596.00
795.2790, 58818.00
796.4200, 59074.00
797.5600, 58788.00
798.6990, 59596.00
799.8390, 59735.00
800.9790, 59880.00
802.1180, 60542.00
803.2570, 60461.00
804.3960, 60740.00
805.5350, 61123.00
806.6740, 61682.00
807.8130, 61820.00
808.9510, 62466.00
810.0890, 62432.00
811.2270, 62402.00
812.3650, 62767.00
813.5030, 63241.00
814.6410, 63606.00
815.7780, 64004.00
816.9150, 64316.10
818.0530, 64400.00
819.1900, 64836.00
820.3260, 64922.00
821.4630, 65074.00
822.5990, 65713.00
823.7360, 65977.00
824.8720, 66514.00
826.0080, 66725.00
827.1440, 67031.48
828.2790, 67456.00
829.4150, 67553.00
830.5500, 67852.00
831.6860, 68173.00
832.8210, 68271.00
833.9560, 69077.00
835.0900, 68893.00
836.2250, 69269.00
837.3590, 69839.00
838.4930, 69926.00
839.6280, 70554.00
840.7610, 70735.00
841.8950, 70841.00
843.0290, 71060.00
844.1620, 71524.00
845.2950, 71648.00
846.4290, 72465.00
847.5620, 72416.00
848.6940, 72937.00
849.8270, 73256.00
850.9590, 73998.00
852.0920, 74264.61
853.2240, 74512.00
854.3560, 74918.00
855.4880, 75181.00
856.6190, 75404.00
857.7510, 75767.00
858.8820, 76034.00
860.0130, 76477.00
861.1450, 76720.00
862.2750, 77165.00
863.4060, 77358.00
864.5370, 78023.00
865.6670, 78054.00
866.7970, 78687.00
867.9270, 78682.00
869.0570, 79342.00
870.1870, 79283.00
871.3170, 80155.00
872.4460, 80240.00
873.5750, 80528.00
874.7040, 80885.00
875.8330, 81614.00
876.9620, 81657.00
878.0910, 82108.00
879.2190, 82663.00
880.3480, 82863.00
881.4760, 83364.00
882.6040, 83858.00
883.7320, 84185.00
884.8590, 84444.00
885.9870, 84788.00
887.1140, 85151.00
888.2410, 85776.00
889.3680, 86244.00
890.4950, 85999.00
891.6220, 86609.00
892.7490, 86801.00
893.8750, 87411.00
895.0010, 87643.00
896.1270, 88273.00
897.2530, 88542.00
898.3790, 88917.00
899.5050, 89378.00
900.6300, 89737.00
901.7550, 89911.00
902.8800, 90489.00
904.0050, 91023.00
905.1300, 91722.00
906.2550, 92286.00
907.3790, 92696.68
908.5040, 93232.79
909.6280, 93361.00
910.7520, 93973.00
911.8760, 94123.00
912.9990, 94209.00
914.1230, 94757.00
915.2460, 95194.00
916.3690, 95609.00
917.4930, 96057.00
918.6150, 96395.00
919.7380, 96848.34
920.8610, 97791.00
921.9830, 97650.00
923.1050, 98441.00
924.2280, 98772.00
925.3490, 99132.00
926.4710, 99534.00
927.5930, 100014.0
928.7140, 100423.6
929.8360, 100985.0
930.9570, 101330.0
932.0780, 101867.0
933.1990, 102326.0
934.3190, 102762.2
935.4400, 103360.0
936.5600, 103680.0
937.6800, 104347.0
938.8000, 104825.0
939.9200, 104716.0
941.0400, 105468.0
942.1600, 106032.0
943.2790, 106274.0
944.3980, 107117.0
945.5170, 107436.0
946.6360, 107860.0
947.7550, 108564.0
948.8740, 108572.0
949.9920, 108823.0
951.1100, 109556.0
952.2280, 110123.0
953.3460, 110574.0
954.4640, 111222.6
955.5820, 111567.0
956.6990, 112222.0
957.8170, 112815.0
958.9340, 113056.0
960.0510, 113776.0
961.1680, 114078.0
962.2850, 114339.0
963.4010, 114738.0
964.5170, 115409.0
965.6340, 115981.0
966.7500, 116393.0
967.8660, 116769.0
968.9810, 116898.0
970.0970, 117992.0
971.2130, 118061.0
972.3280, 118835.0
973.4430, 119323.0
974.5580, 119867.0
975.6730, 120548.0
976.7870, 121106.0
977.9020, 121606.1
979.0160, 122052.0
980.1300, 122626.0
981.2440, 123073.0
982.3580, 123720.0
983.4720, 124180.0
984.5860, 124757.0
985.6990, 125363.2
986.8120, 125852.4
987.9250, 126613.0
989.0380, 126974.0
990.1510, 127660.0
991.2630, 128375.0
992.3760, 128455.0
993.4880, 129066.0
994.6000, 129805.0
995.7120, 129934.0
996.8240, 131297.0
997.9360, 131973.0
999.0470, 131925.0
1000.159, 132725.0
1001.270, 133364.0
1002.381, 133763.0
1003.492, 134511.0
1004.602, 134888.0
1005.713, 135278.0
1006.823, 136535.0
1007.934, 136667.0
1009.044, 137576.0
1010.154, 138178.0
1011.263, 138362.0
1012.373, 138757.0
1013.482, 139156.0
1014.592, 139750.0
1015.701, 140647.0
1016.810, 141479.0
1017.919, 142060.0
1019.027, 142435.0
1020.136, 142698.0
1021.244, 143185.0
1022.352, 144033.0
1023.460, 144356.0
1024.568, 145044.1
1025.676, 145735.0
1026.784, 146186.0
1027.891, 147158.0
1028.998, 147662.0
1030.105, 147979.0
1031.212, 148881.0
1032.319, 149623.0
1033.426, 149909.0
1034.532, 150539.0
1035.638, 151026.1
1036.745, 151648.6
1037.851, 152104.0
1038.956, 153085.0
1040.062, 153884.0
1041.168, 154761.0
1042.273, 155044.0
1043.378, 155205.0
1044.483, 155822.0
1045.588, 156706.0
1046.693, 157935.0
1047.798, 158493.0
1048.902, 158944.0
1050.006, 159501.0
1051.110, 159894.0
1052.214, 160948.0
1053.318, 161869.0
1054.422, 162305.0
1055.525, 162607.0
1056.629, 163965.0
1057.732, 164558.0
1058.835, 165118.0
1059.938, 165891.0
1061.040, 166471.9
1062.143, 167114.1
1063.245, 167711.0
1064.348, 168484.0
1065.450, 168977.0
1066.552, 169905.0
1067.653, 170586.7
1068.755, 171429.0
1069.856, 172213.0
1070.958, 172599.0
1072.059, 173550.0
1073.160, 174102.0
1074.261, 175011.0
1075.361, 175846.0
1076.462, 175995.0
1077.562, 176971.0
1078.662, 178087.0
1079.762, 178306.0
1080.862, 179757.0
1081.962, 180437.0
1083.062, 181313.0
1084.161, 181871.0
1085.260, 182422.0
1086.359, 183675.0
1087.458, 183860.0
1088.557, 184467.0
1089.656, 185398.0
1090.754, 185739.0
1091.853, 187212.0
1092.951, 187921.0
1094.049, 188609.0
1095.147, 189194.0
1096.244, 189816.0
1097.342, 190685.0
1098.439, 191700.0
1099.537, 192367.0
1100.634, 193312.2
1101.731, 194390.0
1102.827, 194946.0
1103.924, 195586.0
1105.021, 196216.0
1106.117, 197065.0
1107.213, 197359.0
1108.309, 198904.0
1109.405, 199942.0
1110.501, 200068.0
1111.596, 201115.0
1112.691, 201169.0
1113.787, 202939.0
1114.882, 203911.0
1115.977, 203677.0
1117.071, 205222.0
1118.166, 206007.0
1119.260, 206031.0
1120.355, 207734.0
1121.449, 208588.0
1122.543, 208866.0
1123.637, 209595.0
1124.730, 210769.0
1125.824, 211512.0
1126.917, 211685.0
1128.010, 213159.0
1129.103, 214237.0
1130.196, 214492.0
1131.289, 215380.0
1132.382, 216109.0
1133.474, 216816.0
1134.566, 218120.0
1135.659, 218693.0
1136.750, 219598.0
1137.842, 220070.0
1138.934, 221440.0
1140.025, 222299.0
1141.117, 223020.0
1142.208, 223196.0
1143.299, 225254.0
1144.390, 224817.0
1145.481, 226524.0
1146.571, 227477.0
1147.662, 227675.0
1148.752, 230119.0
1149.842, 230254.0
1150.932, 230155.0
1152.022, 231708.0
1153.111, 233052.0
1154.201, 234140.0
1155.290, 235187.2
1156.379, 235812.0
1157.468, 236837.0
1158.557, 237120.0
1159.646, 237810.0
1160.734, 238565.0
1161.823, 240325.0
1162.911, 240792.0
1163.999, 242131.0
1165.087, 242695.0
1166.175, 243281.0
1167.262, 244712.0
1168.350, 245130.0
1169.437, 246115.0
1170.524, 247457.0
1171.611, 248397.0
1172.698, 249716.0
1173.785, 249806.0
1174.872, 251018.0
1175.958, 251561.0
1177.044, 252706.0
1178.130, 254047.0
1179.216, 254768.0
1180.302, 256046.0
1181.388, 257244.0
1182.473, 257192.0
1183.558, 258975.0
1184.644, 259509.0
1185.729, 260994.0
1186.813, 261277.0
1187.898, 262915.0
1188.983, 262944.0
1190.067, 264453.0
1191.151, 264942.0
1192.235, 266096.0
1193.319, 268006.0
1194.403, 268418.0
1195.487, 269519.0
1196.570, 270227.0
1197.653, 270772.0
1198.737, 272397.0
1199.820, 272923.0
1200.902, 273934.0
1201.985, 275447.0
1203.068, 276228.0
1204.150, 277222.0
1205.232, 278510.0
1206.314, 279591.0
1207.396, 280637.0
1208.478, 281448.0
1209.560, 282508.0
1210.641, 283885.0
1211.722, 284415.0
1212.804, 285546.0
1213.885, 286823.0
1214.965, 287140.0
1216.046, 288192.0
1217.127, 290183.0
1218.207, 290937.0
1219.287, 291833.0
1220.367, 292380.0
1221.447, 293979.0
1222.527, 294366.0
1223.607, 295788.0
1224.686, 296941.0
1225.765, 297958.0
1226.845, 298896.0
1227.924, 300063.0
1229.002, 301203.5
1230.081, 302469.0
1231.160, 303604.0
1232.238, 304622.0
1233.316, 305700.0
1234.394, 307220.0
1235.472, 308269.0
1236.550, 309344.2
1237.628, 310131.0
1238.705, 311572.0
1239.783, 312302.0
1240.860, 313915.0
1241.937, 314333.0
1243.014, 315549.0
1244.090, 316209.0
1245.167, 317822.0
1246.243, 319108.0
1247.319, 319825.0
1248.396, 322025.0
1249.471, 322321.0
