##NAMES=Sphalerite
##RRUFFID=R060005
##IDEAL CHEMISTRY=Zn^2+^S^2-^
##LOCALITY=Trinacria mine, Lake Poopo, Oruro, Bolivia
##OWNER=RRUFF
##SOURCE=University of Arizona Mineral Museum
##DESCRIPTION=Steel gray crystal associated with franckeite R050431
##STATUS=The identification of this mineral has been confirmed by X-ray diffraction and chemical analysis
##URL=rruff.info/R060005
##MEASURED CHEMISTRY=Zn_0.82_Fe_0.18_S
##PIN_ID=M01404
##ORIENTATION=Laser parallel to c* (0 0 1). Fiducial mark perpendicular to laser is parallel to a [1 0 0]
96.89700, 23729.00
98.13500, 24126.00
99.37300, 24378.00
100.6100, 24566.00
101.8480, 25387.00
103.0850, 27162.00
104.3220, 28463.00
105.5590, 28594.00
106.7950, 28025.00
108.0320, 26347.00
109.2680, 24724.00
110.5040, 24343.00
111.7400, 24516.00
112.9760, 24432.00
114.2120, 25389.00
115.4470, 25774.00
116.6820, 25587.00
117.9170, 25422.00
119.1520, 25054.00
120.3870, 24695.93
121.6220, 23689.00
122.8560, 23713.00
124.0900, 23261.00
125.3240, 22593.00
126.5580, 22671.00
127.7920, 22610.00
129.0260, 22684.00
130.2590, 22798.00
131.4920, 22818.00
132.7250, 22545.00
133.9580, 22594.00
135.1910, 22543.00
136.4230, 22784.00
137.6560, 22942.00
138.8880, 22917.33
140.1200, 22987.23
141.3520, 22920.00
142.5830, 22924.00
143.8150, 22895.00
145.0460, 22885.00
146.2770, 22864.82
147.5080, 22847.82
148.7390, 22844.00
149.9700, 22826.00
151.2000, 22870.00
152.4310, 22883.00
153.6610, 22842.00
154.8910, 22839.19
156.1210, 22941.00
157.3500, 22823.00
158.5800, 22689.75
159.8090, 22788.00
161.0380, 22825.26
162.2670, 22804.80
163.4960, 22553.77
164.7240, 22487.68
165.9530, 22599.96
167.1810, 22645.46
168.4090, 22627.42
169.6370, 22372.99
170.8650, 22410.48
172.0920, 22322.89
173.3200, 22224.54
174.5470, 22286.56
175.7740, 22036.66
177.0010, 22084.42
178.2280, 22005.24
179.4540, 21869.00
180.6810, 21724.66
181.9070, 21600.00
183.1330, 21466.00
184.3590, 21457.00
185.5850, 21393.00
186.8100, 21204.00
188.0350, 21264.00
189.2610, 20913.00
190.4860, 21082.00
191.7110, 20912.00
192.9350, 20933.00
194.1600, 20644.00
195.3840, 20527.00
196.6080, 20631.00
197.8320, 20561.00
199.0560, 20509.00
200.2800, 20292.00
201.5030, 20163.00
202.7270, 20036.00
203.9500, 19804.00
205.1730, 19621.10
206.3950, 19708.31
207.6180, 19740.89
208.8410, 19722.15
210.0630, 19479.28
211.2850, 19540.53
212.5070, 19488.87
213.7290, 19438.70
214.9500, 19561.05
216.1720, 19514.00
217.3930, 19415.00
218.6140, 19463.54
219.8350, 19389.00
221.0560, 19484.00
222.2770, 19553.00
223.4970, 19501.71
224.7170, 19413.00
225.9370, 19345.00
227.1570, 19220.00
228.3770, 19170.00
229.5970, 19323.00
230.8160, 19193.00
232.0350, 19320.00
233.2540, 19187.00
234.4730, 19041.00
235.6920, 19097.00
236.9110, 19092.00
238.1290, 19223.00
239.3470, 19274.80
240.5650, 19214.55
241.7830, 19367.72
243.0010, 19463.17
244.2180, 19327.98
245.4360, 19474.00
246.6530, 19545.00
247.8700, 19724.00
249.0870, 19768.00
250.3040, 20053.00
251.5200, 20047.00
252.7370, 20664.00
253.9530, 21192.00
255.1690, 21641.00
256.3850, 21848.00
257.6000, 21580.00
258.8160, 20952.00
260.0310, 20372.00
261.2460, 20441.00
262.4610, 20646.00
263.6760, 20472.00
264.8910, 20647.00
266.1050, 20900.00
267.3200, 20931.00
268.5340, 20971.00
269.7480, 21054.00
270.9620, 21288.00
272.1750, 21490.00
273.3890, 21698.00
274.6020, 22229.00
275.8150, 22232.00
277.0280, 22414.00
278.2410, 22830.00
279.4540, 23437.00
280.6660, 23623.00
281.8790, 24326.00
283.0910, 24930.00
284.3030, 25384.00
285.5140, 26390.00
286.7260, 27316.00
287.9380, 28143.00
289.1490, 29482.00
290.3600, 30434.00
291.5710, 31817.00
292.7820, 32695.00
293.9920, 33617.00
295.2030, 34553.00
296.4130, 34993.00
297.6230, 35725.00
298.8330, 36276.00
300.0430, 36633.00
301.2520, 36007.00
302.4620, 35848.00
303.6710, 35813.00
304.8800, 35447.00
306.0890, 35165.00
307.2980, 35038.00
308.5070, 34978.00
309.7150, 34959.00
310.9230, 35136.47
312.1310, 35421.73
313.3390, 35759.00
314.5470, 36385.00
315.7550, 37012.00
316.9620, 37818.00
318.1690, 38369.00
319.3760, 38920.00
320.5830, 39020.00
321.7900, 39343.00
322.9960, 39162.00
324.2030, 38717.00
325.4090, 38460.00
326.6150, 37396.00
327.8210, 36145.00
329.0270, 35056.00
330.2320, 33965.00
331.4380, 33040.00
332.6430, 32011.00
333.8480, 30941.00
335.0530, 30339.00
336.2580, 29446.00
337.4620, 29089.00
338.6670, 28210.41
339.8710, 27180.00
341.0750, 26720.00
342.2790, 26417.00
343.4820, 25841.00
344.6860, 25745.00
345.8890, 25607.00
347.0920, 25707.00
348.2960, 25478.00
349.4980, 25102.00
350.7010, 25190.00
351.9040, 24910.00
353.1060, 25028.00
354.3080, 24122.00
355.5100, 23978.00
356.7120, 24357.00
357.9140, 23921.00
359.1150, 22592.00
360.3170, 21988.00
361.5180, 21721.00
362.7190, 21479.00
363.9200, 20730.00
365.1200, 20620.00
366.3210, 20440.00
367.5210, 20026.00
368.7210, 19768.00
369.9210, 19623.00
371.1210, 19423.00
372.3210, 19305.00
373.5200, 19038.00
374.7200, 18874.00
375.9190, 18765.00
377.1180, 18888.00
378.3170, 18474.00
379.5150, 18463.00
380.7140, 18403.00
381.9120, 18156.00
383.1110, 18060.00
384.3090, 18062.00
385.5060, 18000.00
386.7040, 18152.00
387.9020, 17838.00
389.0990, 17881.00
390.2960, 17597.00
391.4930, 17676.00
392.6900, 17706.00
393.8860, 17489.00
395.0830, 17413.00
396.2790, 17489.00
397.4750, 17356.00
398.6710, 17202.00
399.8670, 17098.00
401.0630, 17413.00
402.2580, 17242.01
403.4540, 17252.02
404.6490, 17226.00
405.8440, 17089.00
407.0390, 17069.00
408.2330, 16937.00
409.4280, 17032.00
410.6220, 16982.00
411.8160, 16980.00
413.0100, 16998.23
414.2040, 17081.00
415.3980, 16970.00
416.5910, 16987.00
417.7850, 16930.00
418.9780, 17046.00
420.1710, 16925.00
421.3640, 16976.00
422.5560, 16860.00
423.7490, 16791.00
424.9410, 16800.00
426.1330, 16588.00
427.3250, 16791.00
428.5170, 16603.00
429.7090, 16595.00
430.9000, 16671.00
432.0910, 16578.00
433.2820, 16575.00
434.4730, 16617.00
435.6640, 16460.00
436.8550, 16435.00
438.0450, 16484.00
439.2360, 16398.12
440.4260, 16329.00
441.6160, 16382.00
442.8060, 16366.00
443.9950, 16419.00
445.1850, 16381.44
446.3740, 16380.00
447.5630, 16289.00
448.7520, 16269.00
449.9410, 16188.00
451.1300, 16259.00
452.3180, 16144.00
453.5060, 16172.00
454.6950, 16138.00
455.8830, 16200.00
457.0700, 16135.00
458.2580, 16160.03
459.4450, 16124.00
460.6330, 16144.00
461.8200, 16023.00
463.0070, 15947.00
464.1940, 16025.00
465.3800, 16081.00
466.5670, 16116.00
467.7530, 16169.00
468.9390, 16036.00
470.1250, 16012.00
471.3110, 15982.00
472.4970, 16022.00
473.6820, 15995.00
474.8680, 16073.00
476.0530, 16108.00
477.2380, 16120.00
478.4230, 16068.00
479.6070, 16221.00
480.7920, 16180.00
481.9760, 15935.00
483.1600, 16121.00
484.3440, 16064.00
485.5280, 16289.00
486.7120, 16030.00
487.8950, 16140.00
489.0780, 15980.00
490.2620, 15985.00
491.4450, 16162.00
492.6270, 16255.00
493.8100, 16250.00
494.9920, 16200.00
496.1750, 16215.00
497.3570, 16180.00
498.5390, 16158.00
499.7210, 16174.00
500.9020, 16191.06
502.0840, 16219.71
503.2650, 16249.00
504.4460, 16278.00
505.6270, 16257.00
506.8080, 16220.00
507.9890, 16140.00
509.1690, 16285.00
510.3500, 16221.25
511.5300, 16249.00
512.7100, 16331.00
513.8900, 16115.00
515.0690, 16355.00
516.2490, 16308.00
517.4280, 16213.00
518.6070, 16142.00
519.7860, 16170.00
520.9650, 16165.00
522.1440, 16223.00
523.3220, 16291.00
524.5010, 16188.00
525.6790, 16239.77
526.8570, 16335.00
528.0350, 16247.00
529.2130, 16345.00
530.3900, 16417.00
531.5670, 16233.00
532.7450, 16294.00
533.9220, 16311.00
535.0980, 16147.00
536.2750, 16100.00
537.4520, 16239.00
538.6280, 16265.00
539.8040, 16272.00
540.9800, 16157.00
542.1560, 16352.00
543.3320, 16414.00
544.5070, 16239.00
545.6830, 16190.00
546.8580, 16341.00
548.0330, 16396.00
549.2080, 16294.00
550.3830, 16406.00
551.5570, 16445.00
552.7310, 16374.00
553.9060, 16495.00
555.0800, 16475.00
556.2540, 16364.00
557.4270, 16421.00
558.6010, 16290.87
559.7740, 16444.22
560.9470, 16536.58
562.1210, 16571.23
563.2930, 16375.28
564.4660, 16477.09
565.6390, 16357.44
566.8110, 16487.15
567.9830, 16555.87
569.1550, 16566.88
570.3270, 16347.30
571.4990, 16425.47
572.6710, 16384.32
573.8420, 16338.29
575.0130, 16458.38
576.1840, 16272.35
577.3550, 16389.80
578.5260, 16386.11
579.6970, 16437.86
580.8670, 16372.00
582.0370, 16172.00
583.2070, 16171.40
584.3770, 16223.00
585.5470, 16113.00
586.7170, 16167.00
587.8860, 16164.00
589.0550, 16007.00
590.2240, 16028.04
591.3930, 15982.00
592.5620, 16015.00
593.7310, 15953.00
594.8990, 16140.00
596.0670, 16010.00
597.2350, 16072.00
598.4030, 16106.00
599.5710, 16076.00
600.7390, 16183.00
601.9060, 16149.52
603.0740, 16210.00
604.2410, 16131.00
605.4080, 16226.00
606.5740, 16205.00
607.7410, 16342.00
608.9080, 16384.00
610.0740, 16372.62
611.2400, 16421.00
612.4060, 16325.32
613.5720, 16500.00
614.7370, 16445.00
615.9030, 16266.00
617.0680, 16345.00
618.2330, 16432.00
619.3980, 16351.00
620.5630, 16348.00
621.7280, 16380.00
622.8920, 16456.00
624.0570, 16421.00
625.2210, 16295.00
626.3850, 16454.00
627.5490, 16370.24
628.7120, 16497.00
629.8760, 16486.00
631.0390, 16177.00
632.2020, 16471.00
633.3650, 16305.00
634.5280, 16423.00
635.6910, 16315.00
636.8530, 16310.00
638.0160, 16348.00
639.1780, 16231.00
640.3400, 16243.00
641.5020, 16210.00
642.6640, 16225.00
643.8250, 16138.04
644.9870, 16047.07
646.1480, 16180.38
647.3090, 16252.70
648.4700, 16267.31
649.6300, 16051.34
650.7910, 16133.11
651.9510, 16095.57
653.1120, 16053.13
654.2720, 16176.81
655.4320, 15994.38
656.5910, 16115.43
657.7510, 16115.34
658.9100, 16170.69
660.0690, 16105.99
661.2290, 15961.71
662.3880, 16081.76
663.5460, 16140.84
664.7050, 16142.19
665.8630, 15912.97
667.0220, 15981.49
668.1800, 15930.69
669.3380, 15875.01
670.4950, 15985.46
671.6530, 15789.78
672.8100, 15897.60
673.9680, 15884.26
675.1250, 15926.38
676.2820, 15848.44
677.4390, 15807.58
678.5950, 15886.84
679.7520, 15899.58
680.9080, 15807.84
682.0640, 15853.50
683.2200, 15826.49
684.3760, 15669.25
685.5320, 15777.79
686.6870, 15748.00
687.8420, 15629.00
688.9980, 15655.00
690.1530, 15572.00
691.3070, 15694.00
692.4620, 15562.00
693.6170, 15543.00
694.7710, 15665.00
695.9250, 15543.00
697.0790, 15550.00
698.2330, 15504.00
699.3870, 15440.00
700.5400, 15348.00
701.6940, 15257.00
702.8470, 15328.00
704.0000, 15384.00
705.1530, 15295.00
706.3050, 15246.00
707.4580, 15224.00
708.6100, 15210.00
709.7630, 15200.35
710.9150, 15174.00
712.0660, 15240.00
713.2180, 15254.00
714.3700, 15343.00
715.5210, 15350.00
716.6720, 15256.00
717.8240, 15151.00
718.9740, 15240.00
720.1250, 15250.00
721.2760, 15287.00
722.4260, 15250.00
723.5770, 15260.00
724.7270, 15253.21
725.8770, 15106.00
727.0260, 15265.00
728.1760, 15252.00
729.3250, 15326.72
730.4750, 15138.00
731.6240, 15384.00
732.7730, 15256.88
733.9220, 15138.00
735.0700, 15241.00
736.2190, 15183.00
737.3670, 15129.00
738.5150, 15318.00
739.6630, 15134.00
740.8110, 15127.00
741.9590, 15181.00
743.1060, 15256.00
744.2540, 15220.00
745.4010, 15125.00
746.5480, 15033.00
747.6950, 15072.00
748.8410, 15090.00
749.9880, 15104.00
751.1340, 15045.00
752.2800, 15022.00
753.4260, 15115.00
754.5720, 15067.00
755.7180, 15116.00
756.8640, 15078.00
758.0090, 15102.00
759.1540, 15128.00
760.2990, 15098.00
761.4440, 14963.00
762.5890, 14976.00
763.7340, 15108.00
764.8780, 15059.00
766.0220, 15226.00
767.1660, 15138.00
768.3100, 14977.00
769.4540, 15067.00
770.5980, 15132.00
771.7410, 15113.00
772.8840, 15112.00
774.0280, 15123.63
775.1700, 15086.00
776.3130, 15095.00
777.4560, 15168.00
778.5980, 15124.00
779.7410, 15150.84
780.8830, 15113.00
782.0250, 15142.00
783.1670, 15113.60
784.3080, 15226.96
785.4500, 15069.00
786.5910, 15091.00
787.7320, 15080.00
788.8730, 14944.00
790.0140, 15049.00
791.1550, 15097.00
792.2950, 14910.00
793.4360, 15023.00
794.5760, 15004.00
795.7160, 15079.00
796.8560, 14778.00
797.9960, 15056.00
799.1350, 15069.00
800.2750, 14880.00
801.4140, 15003.00
802.5530, 15209.00
803.6920, 15105.00
804.8310, 15092.00
805.9690, 15104.00
807.1080, 15143.00
808.2460, 14961.00
809.3840, 15142.00
810.5220, 15119.00
811.6600, 15004.00
812.7970, 15097.00
813.9350, 15033.00
815.0720, 15103.00
816.2090, 15108.00
817.3460, 15021.00
818.4830, 15002.00
819.6200, 14919.00
820.7560, 15087.00
821.8930, 15129.00
823.0290, 15058.00
824.1650, 14992.00
825.3010, 15105.00
826.4360, 14959.00
827.5720, 15063.00
828.7070, 15073.00
829.8420, 15129.00
830.9770, 15159.00
832.1120, 14933.00
833.2470, 15061.00
834.3820, 15068.00
835.5160, 15057.00
836.6500, 15224.00
837.7840, 14911.00
838.9180, 15117.00
840.0520, 14971.00
841.1860, 15067.00
842.3190, 15151.00
843.4520, 15207.00
844.5850, 15234.78
845.7180, 15131.00
846.8510, 15255.00
847.9840, 15091.00
849.1160, 15103.00
850.2490, 15166.00
851.3810, 15203.00
852.5130, 15263.00
853.6450, 15079.00
854.7760, 15160.00
855.9080, 15283.00
857.0390, 15040.00
858.1700, 15092.00
859.3010, 15276.00
860.4320, 15220.00
861.5630, 15184.00
862.6930, 15139.00
863.8240, 15101.00
864.9540, 15263.00
866.0840, 15293.00
867.2140, 15187.00
868.3440, 14996.00
869.4730, 15167.00
870.6030, 15093.00
871.7320, 15046.00
872.8610, 15340.00
873.9900, 15141.00
875.1190, 15223.00
876.2470, 15275.00
877.3760, 15161.00
878.5040, 15301.00
879.6320, 15236.00
880.7600, 15194.00
881.8880, 15207.00
883.0150, 15185.13
884.1430, 15261.00
885.2700, 15196.00
886.3970, 15259.00
887.5240, 15255.00
888.6510, 15203.00
889.7780, 15306.00
890.9040, 15132.00
892.0310, 15387.00
893.1570, 15226.00
894.2830, 15158.00
895.4090, 15406.00
896.5350, 15202.00
897.6600, 15241.00
898.7860, 15326.00
899.9110, 15253.00
901.0360, 15252.00
902.1610, 15401.00
903.2860, 15378.00
904.4100, 15388.00
905.5350, 15467.00
906.6590, 15237.00
907.7830, 15454.00
908.9070, 15331.00
910.0310, 15359.00
911.1540, 15422.00
912.2780, 15246.00
913.4010, 15315.00
914.5240, 15289.00
915.6470, 15385.00
916.7700, 15270.00
917.8930, 15506.00
919.0150, 15161.00
920.1380, 15349.00
921.2600, 15160.00
922.3820, 15494.00
923.5040, 15290.00
924.6260, 15388.00
925.7470, 15581.00
926.8690, 15482.00
927.9900, 15398.00
929.1110, 15584.00
930.2320, 15446.41
931.3530, 15516.00
932.4730, 15400.00
933.5940, 15427.00
934.7140, 15479.00
935.8340, 15469.00
936.9540, 15435.00
938.0740, 15615.00
939.1930, 15479.00
940.3130, 15505.00
941.4320, 15577.00
942.5510, 15469.00
943.6700, 15587.00
944.7890, 15419.00
945.9080, 15425.00
947.0260, 15557.00
948.1450, 15452.00
949.2630, 15495.00
950.3810, 15510.00
951.4990, 15426.04
952.6170, 15569.52
953.7340, 15652.00
954.8520, 15676.77
955.9690, 15470.96
957.0860, 15562.89
958.2030, 15535.50
959.3200, 15503.22
960.4360, 15637.06
961.5530, 15464.78
962.6690, 15595.98
963.7850, 15606.04
964.9010, 15671.54
966.0170, 15616.99
967.1330, 15599.51
968.2480, 15702.13
969.3630, 15738.25
970.4790, 15669.87
971.5940, 15738.90
972.7080, 15592.00
973.8230, 15636.00
974.9380, 15785.00
976.0520, 15720.00
977.1660, 15729.00
978.2800, 15514.00
979.3940, 15628.00
980.5080, 15659.00
981.6220, 15636.00
982.7350, 15701.00
983.8480, 15734.00
984.9610, 15747.04
986.0740, 15726.00
987.1870, 15779.00
988.3000, 15746.00
989.4120, 15596.70
990.5250, 15736.72
991.6370, 15815.75
992.7490, 15837.07
993.8610, 15627.81
994.9720, 15716.29
996.0840, 15685.45
997.1950, 15649.72
998.3060, 15780.10
999.4170, 15604.38
1000.528, 15732.13
1001.639, 15738.74
1002.750, 15800.80
1003.860, 15742.79
1004.970, 15721.87
1006.080, 15821.04
1007.190, 15853.72
1008.300, 15781.89
1009.410, 15847.47
1010.519, 15667.55
1011.628, 15703.05
1012.738, 15729.00
1013.846, 15530.00
1014.955, 15702.00
1016.064, 15712.00
1017.172, 15694.00
1018.281, 15795.00
1019.389, 15724.00
1020.497, 15868.00
1021.605, 15630.00
1022.713, 15721.00
1023.820, 15775.00
1024.928, 15874.00
1026.035, 15835.00
1027.142, 15752.00
1028.249, 15739.00
1029.356, 15755.71
1030.462, 15722.71
1031.569, 15815.00
1032.675, 15703.00
1033.781, 15673.00
1034.887, 15623.56
1035.993, 15816.00
1037.098, 15639.00
1038.204, 15778.00
1039.309, 15888.00
1040.415, 15732.00
1041.520, 15772.00
1042.624, 15746.00
1043.729, 15729.00
1044.834, 15776.00
1045.938, 15751.35
1047.042, 15737.00
1048.146, 15791.00
1049.250, 15814.00
1050.354, 15916.00
1051.458, 15983.00
1052.561, 15794.00
1053.664, 16032.00
1054.767, 15976.00
1055.870, 15779.00
1056.973, 15885.00
1058.076, 15994.00
1059.178, 15739.00
1060.281, 15838.00
1061.383, 15803.32
1062.485, 15946.52
1063.587, 16028.74
1064.688, 16053.23
1065.790, 15847.14
1066.891, 15938.80
1067.993, 15911.14
1069.094, 15878.58
1070.195, 16012.14
1071.295, 15839.59
1072.396, 15970.52
1073.496, 15980.30
1074.597, 15913.00
1075.697, 15929.00
1076.797, 15900.00
1077.897, 16050.00
1078.996, 15999.00
1080.096, 15946.00
1081.195, 16027.00
1082.294, 15924.00
1083.393, 16089.00
1084.492, 15836.00
1085.591, 15924.00
1086.689, 15918.00
1087.788, 15920.00
1088.886, 15946.00
1089.984, 15957.12
1091.082, 15989.00
1092.180, 15988.00
1093.277, 15988.88
1094.375, 15869.00
1095.472, 15970.00
1096.569, 15895.00
1097.666, 15875.00
1098.763, 15936.00
1099.860, 15792.00
1100.956, 15794.00
1102.053, 15857.00
1103.149, 15821.98
1104.245, 15877.54
1105.341, 15882.00
1106.436, 15932.00
1107.532, 15957.00
1108.627, 15934.00
1109.723, 15824.00
1110.818, 15981.00
1111.913, 16017.00
1113.007, 15820.00
1114.102, 15966.00
1115.197, 15972.00
1116.291, 15793.00
1117.385, 15741.94
1118.479, 15875.71
1119.573, 15948.49
1120.666, 15963.56
1121.760, 15748.05
1122.853, 15830.29
1123.947, 15793.20
1125.040, 15751.22
1126.132, 15875.37
1127.225, 15693.40
1128.318, 15814.91
1129.410, 15967.00
1130.502, 15835.00
1131.595, 15786.00
1132.687, 15703.00
1133.778, 15684.00
1134.870, 15746.00
1135.961, 15805.00
1137.053, 15694.00
1138.144, 15758.00
1139.235, 15767.00
1140.326, 15711.00
1141.416, 15602.00
1142.507, 15804.00
1143.597, 15659.00
1144.688, 15706.00
1145.778, 15658.00
1146.868, 15778.00
1147.957, 15690.00
1149.047, 15619.00
1150.136, 15664.00
1151.226, 15684.00
1152.315, 15587.00
1153.404, 15720.00
1154.493, 15713.00
1155.581, 15708.41
1156.670, 15717.00
1157.758, 15634.00
1158.846, 15741.00
1159.934, 15541.00
1161.022, 15650.00
1162.110, 15730.00
1163.198, 15587.00
1164.285, 15637.00
1165.372, 15739.00
1166.459, 15471.00
1167.546, 15612.00
1168.633, 15471.00
1169.720, 15663.00
1170.806, 15550.00
1171.892, 15765.00
1172.979, 15529.00
1174.065, 15596.00
1175.150, 15513.00
1176.236, 15727.00
1177.322, 15554.00
1178.407, 15617.00
1179.492, 15529.00
1180.577, 15636.00
1181.662, 15523.00
1182.747, 15680.00
1183.832, 15686.00
1184.916, 15697.00
1186.000, 15573.00
1187.084, 15536.00
1188.168, 15707.00
1189.252, 15612.00
1190.336, 15785.00
1191.419, 15578.00
1192.503, 15465.00
1193.586, 15456.00
1194.669, 15644.00
1195.752, 15548.00
1196.835, 15627.00
1197.917, 15503.00
1199.000, 15605.00
1200.082, 15549.00
1201.164, 15712.00
1202.246, 15458.00
1203.328, 15410.00
1204.409, 15472.00
1205.491, 15581.00
1206.572, 15527.00
1207.653, 15475.00
1208.734, 15625.00
1209.815, 15312.00
1210.896, 15520.00
1211.976, 15579.00
1213.057, 15404.00
1214.137, 15551.00
1215.217, 15620.00
1216.297, 15658.00
1217.377, 15585.00
1218.456, 15581.56
1219.536, 15524.00
1220.615, 15414.00
1221.694, 15606.00
1222.773, 15442.00
1223.852, 15558.00
1224.931, 15577.00
1226.009, 15525.00
1227.088, 15593.00
1228.166, 15478.00
1229.244, 15420.00
1230.322, 15648.00
1231.400, 15669.18
1232.477, 15628.06
1233.555, 15724.98
1234.632, 15479.00
1235.709, 15722.00
1236.786, 15595.00
1237.863, 15513.00
1238.939, 15567.00
1240.016, 15374.00
1241.092, 15427.00
1242.168, 15612.00
1243.245, 15505.00
1244.320, 15488.00
1245.396, 15600.00
1246.472, 15622.00
1247.547, 15629.33
1248.622, 15564.00
1249.697, 15630.00
1250.772, 15592.00
1251.847, 15574.00
1252.922, 15403.00
1253.996, 15552.00
1255.071, 15759.00
1256.145, 15605.00
1257.219, 15654.00
1258.293, 15517.00
1259.366, 15504.00
1260.440, 15571.00
1261.513, 15482.00
1262.587, 15553.00
1263.660, 15543.64
1264.733, 15643.00
1265.805, 15543.00
1266.878, 15606.00
1267.951, 15575.00
1269.023, 15515.00
1270.095, 15512.00
1271.167, 15548.00
1272.239, 15531.43
1273.311, 15532.00
1274.382, 15542.00
1275.454, 15616.00
1276.525, 15584.00
