##NAMES=Sphalerite
##RRUFFID=R060005
##IDEAL CHEMISTRY=Zn^2+^S^2-^
##LOCALITY=Trinacria mine, Lake Poopo, Oruro, Bolivia
##OWNER=RRUFF
##SOURCE=University of Arizona Mineral Museum
##DESCRIPTION=Steel gray crystal associated with franckeite R050431
##STATUS=The identification of this mineral has been confirmed by X-ray diffraction and chemical analysis
##URL=rruff.info/R060005
##MEASURED CHEMISTRY=Zn_0.82_Fe_0.18_S
##PIN_ID=M01404
##ORIENTATION=Laser parallel to c* (0 0 1). Fiducial mark perpendicular to laser is parallel to a [1 0 0]
96.20300, 23072.00
97.44100, 23043.00
98.68000, 23414.00
99.91800, 23953.00
101.1560, 24512.00
102.3940, 26601.00
103.6320, 27757.00
104.8700, 27893.00
106.1070, 27468.00
107.3450, 25759.00
108.5820, 24366.00
109.8190, 23637.00
111.0550, 23680.00
112.2920, 23812.00
113.5290, 24267.00
114.7650, 24251.62
116.0010, 24574.00
117.2370, 24283.00
118.4730, 23976.00
119.7080, 23530.00
120.9440, 23068.00
122.1790, 22800.00
123.4140, 22701.00
124.6490, 22117.00
125.8830, 21926.00
127.1180, 21852.00
128.3520, 22295.00
129.5870, 22324.00
130.8210, 22514.00
132.0540, 22036.00
133.2880, 21969.00
134.5220, 21883.00
135.7550, 22152.00
136.9880, 22132.00
138.2210, 22491.00
139.4540, 22682.00
140.6860, 22317.00
141.9190, 22211.00
143.1510, 22037.00
144.3830, 22142.00
145.6150, 22372.00
146.8470, 22657.00
148.0790, 22295.00
149.3100, 22380.00
150.5410, 22072.00
151.7720, 22045.00
153.0030, 22048.00
154.2340, 22396.00
155.4640, 22393.00
156.6950, 22174.00
157.9250, 22037.00
159.1550, 22038.00
160.3850, 22154.00
161.6150, 22067.00
162.8440, 22097.40
164.0730, 22257.00
165.3030, 22034.00
166.5320, 22156.00
167.7600, 22074.00
168.9890, 21847.00
170.2180, 22253.00
171.4460, 21969.00
172.6740, 22058.00
173.9020, 21826.00
175.1300, 21537.00
176.3570, 21722.00
177.5850, 21288.00
178.8120, 21452.00
180.0390, 21248.00
181.2660, 21196.00
182.4930, 20822.00
183.7190, 20949.00
184.9460, 20836.00
186.1720, 20835.00
187.3980, 20629.00
188.6240, 20755.00
189.8500, 20286.00
191.0750, 20228.00
192.3010, 20277.00
193.5260, 20266.00
194.7510, 20122.00
195.9760, 20234.00
197.2000, 20083.00
198.4250, 19816.00
199.6490, 19777.00
200.8730, 19495.00
202.0970, 19455.96
203.3210, 19425.00
204.5450, 19284.00
205.7680, 19094.00
206.9920, 19081.97
208.2150, 18994.00
209.4380, 19005.00
210.6610, 18907.00
211.8830, 18916.00
213.1060, 19006.00
214.3280, 18747.00
215.5500, 18914.00
216.7720, 18947.00
217.9940, 18804.00
219.2150, 18951.00
220.4370, 18778.00
221.6580, 18865.00
222.8790, 18894.00
224.1000, 18805.00
225.3210, 18914.00
226.5410, 18884.00
227.7620, 18787.00
228.9820, 18840.44
230.2020, 18590.00
231.4220, 18769.00
232.6410, 18646.00
233.8610, 18478.00
235.0800, 18575.00
236.2990, 18421.00
237.5180, 18592.00
238.7370, 18615.00
239.9560, 18462.00
241.1750, 18643.00
242.3930, 18542.39
243.6110, 18585.00
244.8290, 18493.00
246.0470, 18749.00
247.2640, 18767.00
248.4820, 18752.00
249.6990, 19102.00
250.9160, 19675.00
252.1330, 19391.00
253.3500, 20067.00
254.5670, 21134.00
255.7830, 21290.00
256.9990, 20978.00
258.2160, 20187.00
259.4310, 19853.00
260.6470, 19724.00
261.8630, 19855.00
263.0780, 19922.00
264.2930, 20004.00
265.5090, 20120.00
266.7230, 20247.00
267.9380, 20361.00
269.1530, 20520.00
270.3670, 20605.00
271.5810, 20957.00
272.7950, 21230.00
274.0090, 21485.00
275.2230, 21699.00
276.4370, 22141.00
277.6500, 22269.00
278.8630, 22553.00
280.0760, 23233.00
281.2890, 23759.00
282.5020, 24307.00
283.7140, 25150.00
284.9270, 25702.00
286.1390, 26645.00
287.3510, 27720.00
288.5630, 28794.00
289.7740, 29817.00
290.9860, 30974.00
292.1970, 32067.00
293.4080, 33247.00
294.6190, 34043.00
295.8300, 34786.00
297.0410, 35471.00
298.2510, 35478.00
299.4610, 35683.00
300.6710, 35289.00
301.8810, 35181.00
303.0910, 35035.00
304.3010, 34880.00
305.5100, 34749.35
306.7200, 34719.00
307.9290, 34517.00
309.1380, 34551.00
310.3460, 34572.00
311.5550, 35499.00
312.7630, 35863.00
313.9720, 37088.00
315.1800, 37766.00
316.3880, 38880.00
317.5950, 39506.00
318.8030, 40400.00
320.0100, 40750.00
321.2180, 40641.65
322.4250, 40618.00
323.6320, 39575.00
324.8380, 38784.00
326.0450, 37416.00
327.2510, 36299.00
328.4570, 34781.00
329.6640, 33646.00
330.8690, 32748.00
332.0750, 31886.00
333.2810, 30781.57
334.4860, 29571.00
335.6910, 28730.00
336.8960, 28196.00
338.1010, 27266.00
339.3060, 26874.00
340.5100, 26177.00
341.7150, 25569.00
342.9190, 25407.00
344.1230, 25141.00
345.3270, 24912.00
346.5300, 24953.00
347.7340, 24789.00
348.9370, 24471.00
350.1400, 25125.00
351.3430, 25074.00
352.5460, 24696.00
353.7490, 23617.00
354.9510, 23020.00
356.1540, 22727.00
357.3560, 22262.00
358.5580, 21968.00
359.7600, 21296.00
360.9610, 21254.00
362.1630, 20690.00
363.3640, 20264.00
364.5650, 20044.00
365.7660, 19869.00
366.9670, 19536.00
368.1680, 19514.00
369.3680, 19074.00
370.5680, 19109.00
371.7680, 18911.00
372.9680, 19013.00
374.1680, 18610.00
375.3680, 18464.00
376.5670, 18383.12
377.7660, 18164.22
378.9660, 18209.00
380.1640, 17996.00
381.3630, 18013.00
382.5620, 18087.00
383.7600, 17849.00
384.9590, 17928.00
386.1570, 17737.00
387.3550, 17567.00
388.5520, 17499.00
389.7500, 17464.00
390.9470, 17342.00
392.1450, 17326.00
393.3420, 17169.00
394.5390, 17246.00
395.7350, 17180.00
396.9320, 17106.00
398.1280, 16989.00
399.3250, 16834.00
400.5210, 17039.00
401.7160, 16954.00
402.9120, 16830.00
404.1080, 16925.00
405.3030, 16878.00
406.4980, 16834.00
407.6930, 16651.00
408.8880, 16676.00
410.0830, 16774.00
411.2780, 16776.00
412.4720, 16833.00
413.6660, 16813.53
414.8600, 16762.00
416.0540, 16717.06
417.2480, 16679.25
418.4410, 16633.75
419.6350, 16592.41
420.8280, 16555.66
422.0210, 16516.71
423.2140, 16485.00
424.4070, 16482.00
425.5990, 16431.00
426.7920, 16466.00
427.9840, 16569.00
429.1760, 16273.00
430.3680, 16513.00
431.5590, 16286.00
432.7510, 16307.00
433.9420, 16251.00
435.1330, 16328.00
436.3240, 16293.00
437.5150, 16363.00
438.7060, 16304.00
439.8960, 16224.00
441.0870, 16226.00
442.2770, 16201.00
443.4670, 16210.00
444.6570, 16191.00
445.8470, 16026.00
447.0360, 16068.00
448.2250, 15927.00
449.4150, 16115.00
450.6040, 16100.00
451.7920, 16108.00
452.9810, 16062.00
454.1700, 15908.00
455.3580, 15927.00
456.5460, 15837.00
457.7340, 15829.00
458.9220, 15936.00
460.1100, 15863.00
461.2970, 15910.00
462.4850, 15739.00
463.6720, 15851.00
464.8590, 15799.00
466.0460, 15933.00
467.2320, 15904.00
468.4190, 15837.00
469.6050, 15845.00
470.7910, 15823.00
471.9770, 15760.00
473.1630, 15763.00
474.3490, 15767.84
475.5340, 15814.00
476.7200, 15832.00
477.9050, 15858.00
479.0900, 15924.00
480.2750, 15901.00
481.4590, 15911.00
482.6440, 15799.00
483.8280, 15769.00
485.0120, 15867.00
486.1960, 15666.00
487.3800, 15876.00
488.5640, 15798.00
489.7470, 15976.00
490.9310, 15852.00
492.1140, 15848.00
493.2970, 16073.00
494.4800, 15818.00
495.6620, 15945.00
496.8450, 15933.00
498.0270, 16020.00
499.2090, 16065.40
500.3910, 16068.02
501.5730, 16115.00
502.7550, 16111.00
503.9360, 16054.00
505.1170, 16121.00
506.2990, 15965.00
507.4800, 16042.00
508.6600, 15937.00
509.8410, 16012.00
511.0220, 15790.00
512.2020, 15913.00
513.3820, 15937.00
514.5620, 15981.00
515.7420, 16098.00
516.9220, 16194.00
518.1010, 16059.00
519.2800, 15961.00
520.4600, 16077.00
521.6390, 16099.00
522.8170, 16018.00
523.9960, 16086.00
525.1750, 15940.00
526.3530, 16003.00
527.5310, 16152.00
528.7090, 15990.00
529.8870, 16021.00
531.0650, 16037.00
532.2420, 15963.00
533.4190, 16168.00
534.5970, 15889.00
535.7740, 15968.00
536.9500, 15810.00
538.1270, 16141.00
539.3040, 15987.00
540.4800, 15984.00
541.6560, 16153.00
542.8320, 16111.00
544.0080, 16044.00
545.1840, 16137.00
546.3590, 16000.00
547.5340, 16068.00
548.7100, 16134.00
549.8850, 16224.00
551.0600, 16239.02
552.2340, 16236.00
553.4090, 16273.00
554.5830, 16268.00
555.7570, 16284.00
556.9310, 16240.00
558.1050, 16319.00
559.2790, 16244.00
560.4520, 16157.00
561.6260, 16264.00
562.7990, 16403.00
563.9720, 16399.00
565.1450, 16311.00
566.3170, 16441.00
567.4900, 16264.42
568.6620, 16341.71
569.8350, 16382.41
571.0070, 16388.47
572.1780, 16256.20
573.3500, 16302.57
574.5220, 16277.34
575.6930, 16249.19
576.8640, 16320.70
578.0350, 16208.55
579.2060, 16278.49
580.3770, 16245.00
581.5470, 16170.00
582.7180, 16102.00
583.8880, 15916.00
585.0580, 16081.00
586.2280, 15924.00
587.3980, 15980.00
588.5670, 15811.00
589.7370, 15952.00
590.9060, 15961.00
592.0750, 15914.00
593.2440, 15944.00
594.4130, 15943.00
595.5810, 15938.00
596.7500, 15905.00
597.9180, 16002.00
599.0860, 15939.00
600.2540, 15973.98
601.4220, 15854.00
602.5890, 16023.00
603.7570, 16008.00
604.9240, 16087.00
606.0910, 16167.00
607.2580, 16203.00
608.4250, 16234.29
609.5910, 16150.00
610.7580, 16211.00
611.9240, 16171.00
613.0900, 16066.00
614.2560, 16232.00
615.4220, 16270.00
616.5870, 16249.00
617.7530, 16164.00
618.9180, 16233.00
620.0830, 16248.00
621.2480, 16252.00
622.4130, 16187.00
623.5770, 16182.00
624.7420, 16156.00
625.9060, 16332.00
627.0700, 16234.00
628.2340, 16245.00
629.3980, 16337.00
630.5620, 16241.67
631.7250, 16291.85
632.8880, 16123.00
634.0510, 16288.00
635.2140, 16174.00
636.3770, 16143.00
637.5400, 16136.00
638.7020, 16064.06
639.8650, 16131.31
641.0270, 16161.98
642.1890, 16158.02
643.3510, 16015.72
644.5120, 16052.07
645.6740, 16016.82
646.8350, 15978.64
647.9960, 16040.14
649.1570, 15917.97
650.3180, 15977.89
651.4790, 15907.00
652.6390, 15893.00
653.8000, 15849.00
654.9600, 15857.40
656.1200, 15853.00
657.2800, 15944.00
658.4390, 15951.00
659.5990, 15964.44
660.7580, 15985.00
661.9170, 15983.00
663.0770, 15947.00
664.2350, 15974.00
665.3940, 15931.00
666.5530, 15973.00
667.7110, 15954.86
668.8690, 15910.00
670.0270, 15934.00
671.1850, 15864.00
672.3430, 15833.00
673.5000, 15878.00
674.6580, 15898.00
675.8150, 15771.00
676.9720, 15813.00
678.1290, 15760.00
679.2860, 15615.00
680.4420, 15751.00
681.5990, 15626.52
682.7550, 15686.00
683.9110, 15540.00
685.0670, 15486.00
686.2230, 15465.00
687.3790, 15535.00
688.5340, 15310.00
689.6890, 15500.00
690.8440, 15417.00
691.9990, 15387.00
693.1540, 15445.00
694.3090, 15344.00
695.4630, 15326.00
696.6170, 15463.00
697.7720, 15284.00
698.9260, 15274.00
700.0790, 15359.00
701.2330, 15108.00
702.3870, 15160.00
703.5400, 15190.00
704.6930, 15225.00
705.8460, 15165.00
706.9990, 15236.00
708.1510, 15188.00
709.3040, 15213.00
710.4560, 15102.00
711.6090, 15225.00
712.7610, 14994.00
713.9120, 15158.00
715.0640, 15144.00
716.2160, 15118.00
717.3670, 15211.00
718.5180, 15205.00
719.6690, 15207.67
720.8200, 15179.02
721.9710, 15152.00
723.1210, 15081.00
724.2720, 14953.00
725.4220, 14951.00
726.5720, 15018.00
727.7220, 15132.00
728.8720, 15083.00
730.0210, 15130.13
731.1710, 15121.00
732.3200, 15146.00
733.4690, 15039.00
734.6180, 15098.00
735.7670, 14946.00
736.9150, 15045.00
738.0640, 14985.00
739.2120, 15155.00
740.3600, 15018.00
741.5080, 14826.67
742.6560, 15062.25
743.8040, 15197.20
744.9510, 15236.91
746.0980, 14896.17
747.2450, 15046.70
748.3920, 15000.35
749.5390, 14945.93
750.6860, 15165.61
751.8320, 14880.19
752.9790, 15095.53
754.1250, 15110.97
755.2710, 15217.89
756.4170, 15126.72
757.5620, 15096.73
758.7080, 15098.04
759.8530, 15064.75
760.9990, 15058.00
762.1440, 15048.00
763.2880, 15074.00
764.4330, 15039.49
765.5780, 15042.00
766.7220, 15054.00
767.8660, 15122.00
769.0100, 15128.00
770.1540, 15148.00
771.2980, 14911.00
772.4420, 14979.00
773.5850, 15108.00
774.7280, 14911.00
775.8710, 15083.00
777.0140, 15060.00
778.1570, 14873.00
779.3000, 15048.00
780.4420, 15029.00
781.5840, 14953.00
782.7270, 15109.00
783.8690, 15018.00
785.0100, 15026.00
786.1520, 15014.00
787.2940, 15105.00
788.4350, 15088.56
789.5760, 15084.62
790.7170, 15089.00
791.8580, 15017.00
792.9980, 14949.00
794.1390, 14858.00
795.2790, 15091.00
796.4200, 15052.00
797.5600, 15077.57
798.6990, 15254.00
799.8390, 15088.00
800.9790, 15036.00
802.1180, 15030.00
803.2570, 15028.00
804.3960, 15061.00
805.5350, 15053.00
806.6740, 15048.29
807.8130, 15063.32
808.9510, 15006.00
810.0890, 15077.00
811.2270, 15028.00
812.3650, 15036.00
813.5030, 15084.63
814.6410, 15001.00
815.7780, 15108.00
816.9150, 15097.00
818.0530, 14974.00
819.1900, 15067.00
820.3260, 14992.00
821.4630, 15032.00
822.5990, 14962.00
823.7360, 14994.00
824.8720, 15081.00
826.0080, 15030.00
827.1440, 14960.00
828.2790, 15025.00
829.4150, 15009.00
830.5500, 14945.00
831.6860, 14987.00
832.8210, 14899.00
833.9560, 15140.00
835.0900, 15088.00
836.2250, 14985.00
837.3590, 15092.00
838.4930, 14874.00
839.6280, 15079.00
840.7610, 15102.00
841.8950, 15046.00
843.0290, 15052.00
844.1620, 15043.00
845.2950, 14951.06
846.4290, 15095.98
847.5620, 15179.89
848.6940, 15206.09
849.8270, 15001.71
850.9590, 15095.07
852.0920, 15069.12
853.2240, 15038.26
854.3560, 15173.53
855.4880, 15002.69
856.6190, 15135.32
857.7510, 15146.81
858.8820, 15213.74
860.0130, 15160.61
861.1450, 15144.57
862.2750, 15248.61
863.4060, 15286.17
864.5370, 15219.22
865.6670, 15289.67
866.7970, 15114.62
867.9270, 15155.00
869.0570, 15156.00
870.1870, 15037.00
871.3170, 15089.00
872.4460, 15128.00
873.5750, 15220.00
874.7040, 15246.00
875.8330, 15256.90
876.9620, 15212.00
878.0910, 15223.00
879.2190, 15138.00
880.3480, 15068.00
881.4760, 14964.00
882.6040, 15175.00
883.7320, 15190.00
884.8590, 15249.00
885.9870, 15216.00
887.1140, 15181.00
888.2410, 15174.59
889.3680, 15197.12
890.4950, 15177.00
891.6220, 15227.00
892.7490, 15388.00
893.8750, 15307.00
895.0010, 15383.00
896.1270, 15451.00
897.2530, 15376.70
898.3790, 15369.00
899.5050, 15289.00
900.6300, 15310.00
901.7550, 15272.00
902.8800, 15155.00
904.0050, 15218.00
905.1300, 15240.00
906.2550, 15356.00
907.3790, 15271.00
908.5040, 15370.00
909.6280, 15357.00
910.7520, 15437.00
911.8760, 15295.00
912.9990, 15400.00
914.1230, 15289.00
915.2460, 15352.00
916.3690, 15365.00
917.4930, 15437.00
918.6150, 15490.26
919.7380, 15507.24
920.8610, 15566.00
921.9830, 15547.00
923.1050, 15563.48
924.2280, 15546.50
925.3490, 15535.00
926.4710, 15488.00
927.5930, 15425.00
928.7140, 15394.00
929.8360, 15430.00
930.9570, 15372.00
932.0780, 15378.00
933.1990, 15411.73
934.3190, 15406.92
935.4400, 15457.00
936.5600, 15481.00
937.6800, 15438.00
938.8000, 15519.00
939.9200, 15583.00
941.0400, 15461.00
942.1600, 15624.00
943.2790, 15530.00
944.3980, 15568.00
945.5170, 15461.00
946.6360, 15499.00
947.7550, 15475.00
948.8740, 15556.00
949.9920, 15407.00
951.1100, 15443.00
952.2280, 15534.00
953.3460, 15402.00
954.4640, 15477.36
955.5820, 15534.00
956.6990, 15522.00
957.8170, 15549.00
958.9340, 15629.00
960.0510, 15481.00
961.1680, 15559.00
962.2850, 15514.00
963.4010, 15601.00
964.5170, 15538.00
965.6340, 15643.00
966.7500, 15744.00
967.8660, 15535.00
968.9810, 15665.00
970.0970, 15527.00
971.2130, 15579.00
972.3280, 15709.00
973.4430, 15602.00
974.5580, 15727.00
975.6730, 15673.00
976.7870, 15715.00
977.9020, 15706.00
979.0160, 15734.00
980.1300, 15948.00
981.2440, 15690.00
982.3580, 15654.00
983.4720, 15603.00
984.5860, 15840.00
985.6990, 15714.00
986.8120, 15768.00
987.9250, 15678.00
989.0380, 15775.00
990.1510, 15737.00
991.2630, 15726.58
992.3760, 15728.00
993.4880, 15714.00
994.6000, 15743.00
995.7120, 15763.00
996.8240, 15765.00
997.9360, 15768.57
999.0470, 15724.00
1000.159, 15748.00
1001.270, 15815.00
1002.381, 15802.00
1003.492, 15866.00
1004.602, 15771.00
1005.713, 15828.00
1006.823, 15828.00
1007.934, 15796.44
1009.044, 15821.00
1010.154, 15764.00
1011.263, 15872.00
1012.373, 15853.00
1013.482, 15825.00
1014.592, 15727.00
1015.701, 15795.00
1016.810, 15920.00
1017.919, 15702.00
1019.027, 15804.00
1020.136, 15674.00
1021.244, 15782.00
1022.352, 15680.00
1023.460, 15790.00
1024.568, 15713.00
1025.676, 15716.00
1026.784, 15858.00
1027.891, 15805.64
1028.998, 15744.00
1030.105, 15866.00
1031.212, 15634.00
1032.319, 15692.00
1033.426, 15793.00
1034.532, 15841.00
1035.638, 15778.00
1036.745, 15874.00
1037.851, 15750.00
1038.956, 15891.00
1040.062, 15884.00
1041.168, 15948.00
1042.273, 15855.00
1043.378, 15740.00
1044.483, 15840.00
1045.588, 15896.00
1046.693, 15837.00
1047.798, 15895.00
1048.902, 15881.51
1050.006, 15945.00
1051.110, 15863.00
1052.214, 15873.00
1053.318, 15837.00
1054.422, 15933.00
1055.525, 16148.00
1056.629, 15827.00
1057.732, 15958.00
1058.835, 16078.00
1059.938, 15800.00
1061.040, 15871.00
1062.143, 16012.00
1063.245, 15980.00
1064.348, 16010.20
1065.450, 16059.39
1066.552, 15965.00
1067.653, 16088.00
1068.755, 16086.00
1069.856, 16053.00
1070.958, 16037.00
1072.059, 16122.00
1073.160, 16123.00
1074.261, 15975.00
1075.361, 15880.00
1076.462, 16025.00
1077.562, 16004.00
1078.662, 16117.00
1079.762, 16153.00
1080.862, 15972.00
1081.962, 15909.00
1083.062, 15992.00
1084.161, 16021.00
1085.260, 16003.00
1086.359, 15950.00
1087.458, 15892.27
1088.557, 16030.84
1089.656, 16108.42
1090.754, 16128.28
1091.853, 15917.57
1092.951, 16004.59
1094.049, 15972.30
1095.147, 15935.12
1096.244, 16064.05
1097.342, 15886.88
1098.439, 16013.18
1099.537, 16018.34
1100.634, 16078.94
1101.731, 16019.48
1102.827, 15997.11
1103.924, 16094.83
1105.021, 16126.06
1106.117, 16052.78
1107.213, 16116.91
1108.309, 15935.54
1109.405, 15969.60
1110.501, 16096.61
1111.596, 16016.00
1112.691, 15917.00
1113.787, 15979.00
1114.882, 16002.00
1115.977, 15983.00
1117.071, 15971.00
1118.166, 15927.00
1119.260, 16058.00
1120.355, 16159.00
1121.449, 16019.00
1122.543, 15920.00
1123.637, 16030.00
1124.730, 15957.00
1125.824, 15905.00
1126.917, 15911.00
1128.010, 16022.00
1129.103, 15692.00
1130.196, 15961.00
1131.289, 15799.00
1132.382, 15878.00
1133.474, 15962.00
1134.566, 15869.00
1135.659, 15908.00
1136.750, 15810.00
1137.842, 15811.54
1138.934, 15794.14
1140.025, 15821.00
1141.117, 15783.00
1142.208, 15848.00
1143.299, 15894.00
1144.390, 15891.00
1145.481, 15795.00
1146.571, 15721.00
1147.662, 15780.00
1148.752, 15856.00
1149.842, 15722.00
1150.932, 15868.00
1152.022, 15836.00
1153.111, 15879.00
1154.201, 15893.00
1155.290, 15813.00
1156.379, 15833.00
1157.468, 15833.00
1158.557, 15802.00
1159.646, 15854.00
1160.734, 15724.00
1161.823, 15751.00
1162.911, 15770.00
1163.999, 15691.00
1165.087, 15792.00
1166.175, 15629.00
1167.262, 15658.00
1168.350, 15758.00
1169.437, 15770.00
1170.524, 15676.00
1171.611, 15573.00
1172.698, 15793.00
1173.785, 15835.00
1174.872, 15859.00
1175.958, 15607.00
1177.044, 15688.00
1178.130, 15899.00
1179.216, 16035.00
1180.302, 15645.00
1181.388, 15720.00
1182.473, 15756.00
1183.558, 15730.00
1184.644, 15754.08
1185.729, 15745.38
1186.813, 15760.00
1187.898, 15736.00
1188.983, 15808.00
1190.067, 15827.00
1191.151, 15794.00
1192.235, 15829.00
1193.319, 15685.00
1194.403, 15757.00
1195.487, 15674.00
1196.570, 15747.00
1197.653, 15714.00
1198.737, 15675.00
1199.820, 15627.00
1200.902, 15759.00
1201.985, 16015.00
1203.068, 15879.46
1204.150, 15890.00
1205.232, 15744.00
1206.314, 15844.00
1207.396, 15772.00
1208.478, 15847.00
1209.560, 15753.00
1210.641, 15767.00
1211.722, 15857.00
1212.804, 15750.00
1213.885, 15830.00
1214.965, 15722.00
1216.046, 15566.00
1217.127, 15680.00
1218.207, 15797.00
1219.287, 15854.00
1220.367, 15758.00
1221.447, 15682.52
1222.527, 15821.54
1223.607, 15899.57
1224.686, 15919.88
1225.765, 15709.61
1226.845, 15797.08
1227.924, 15765.24
1229.002, 15728.50
1230.081, 15857.88
1231.160, 15681.14
1232.238, 15807.89
1233.316, 15813.50
1234.394, 15874.54
1235.472, 15815.53
1236.550, 15793.60
1237.628, 15891.77
1238.705, 15923.44
1239.783, 15850.61
1240.860, 15915.18
1241.937, 15883.75
1243.014, 15948.00
1244.090, 15855.29
1245.167, 15797.62
1246.243, 15762.00
1247.319, 15786.52
1248.396, 15814.00
1249.471, 15909.00
1250.547, 15910.00
1251.623, 15994.44
1252.698, 15879.00
1253.774, 15932.00
1254.849, 15873.00
1255.924, 15626.00
1256.999, 15787.00
1258.074, 15901.00
1259.148, 15699.00
1260.222, 15803.00
1261.297, 15833.00
1262.371, 15803.00
1263.445, 15804.00
1264.519, 15817.19
1265.592, 15846.00
1266.666, 15838.00
1267.739, 15755.00
1268.812, 15758.72
1269.885, 15690.00
1270.958, 15786.00
1272.031, 15823.00
1273.104, 15854.00
1274.176, 15791.00
1275.248, 15839.00
1276.320, 15755.00
