##NAMES=Spinel
##RRUFFID=R060799
##IDEAL CHEMISTRY=MgAl_2_O_4_
##LOCALITY=Aliabad, Hunza Valley, Pakistan
##OWNER=RRUFF
##SOURCE=Marcus Origlieri
##DESCRIPTION=A group of blue distorted octahedra
##STATUS=The identification of this mineral is confirmed by single-crystal X-ray diffraction and chemical analysis.
##URL=rruff.info/R060799
##MEASURED CHEMISTRY=(Mg_0.97_Fe^2+^_0.03_)_1.00_Al_2.00_O_4_
##PIN_ID=L01579
##ORIENTATION=Laser parallel to a* (1 0 0). Fiducial mark perpendicular to laser is parallel to c [0 0 1]
75.95700, 103486.0
77.19600, 103032.0
78.43500, 102547.0
79.67300, 102954.0
80.91200, 102617.0
82.15000, 102709.0
83.38800, 103271.0
84.62600, 103074.0
85.86300, 102354.0
87.10100, 102110.0
88.33800, 102359.0
89.57500, 102047.0
90.81200, 102312.0
92.04900, 102031.0
93.28600, 102435.0
94.52300, 102146.0
95.75900, 102012.0
96.99500, 101939.0
98.23100, 101719.0
99.46700, 101707.0
100.7030, 101849.0
101.9390, 101921.0
103.1740, 102211.0
104.4090, 102102.0
105.6440, 102106.0
106.8790, 101840.0
108.1140, 101263.0
109.3490, 101399.0
110.5830, 101224.0
111.8180, 100767.0
113.0520, 100804.0
114.2860, 101163.0
115.5200, 100691.0
116.7530, 100932.0
117.9870, 100536.0
119.2200, 100937.0
120.4530, 100504.0
121.6860, 100131.0
122.9190, 100703.0
124.1520, 100542.0
125.3850, 100264.0
126.6170, 100325.0
127.8490, 100238.0
129.0810, 100053.0
130.3130, 99851.00
131.5450, 99828.00
132.7770, 99763.00
134.0080, 99548.00
135.2390, 99473.00
136.4710, 99610.00
137.7020, 99348.00
138.9320, 99484.00
140.1630, 99271.00
141.3930, 99204.00
142.6240, 99179.00
143.8540, 99240.00
145.0840, 99116.00
146.3140, 98892.00
147.5440, 99169.00
148.7730, 98854.00
150.0020, 98299.00
151.2320, 98241.00
152.4610, 98237.00
153.6900, 98412.00
154.9180, 97716.00
156.1470, 97892.00
157.3750, 97814.00
158.6040, 98073.00
159.8320, 97961.00
161.0600, 97566.00
162.2870, 97270.00
163.5150, 97432.00
164.7420, 97236.00
165.9700, 97204.00
167.1970, 97173.28
168.4240, 97012.00
169.6510, 97077.00
170.8770, 96841.00
172.1040, 96865.48
173.3300, 96821.42
174.5560, 96554.00
175.7820, 96664.00
177.0080, 96491.00
178.2340, 96164.00
179.4590, 95871.00
180.6850, 95699.00
181.9100, 95709.00
183.1350, 96119.00
184.3600, 95727.00
185.5850, 95257.00
186.8090, 95693.00
188.0340, 95390.00
189.2580, 95338.00
190.4820, 95382.00
191.7060, 95364.00
192.9300, 94911.00
194.1530, 95577.00
195.3770, 95084.00
196.6000, 95384.00
197.8230, 94724.00
199.0460, 94827.00
200.2690, 94437.00
201.4910, 94782.00
202.7140, 94554.00
203.9360, 94470.00
205.1580, 94332.00
206.3800, 94599.00
207.6020, 94459.00
208.8240, 93729.00
210.0450, 94029.00
211.2670, 94086.00
212.4880, 93758.00
213.7090, 94129.00
214.9300, 93609.00
216.1510, 93693.00
217.3710, 93860.00
218.5920, 93117.00
219.8120, 93242.00
221.0320, 93312.00
222.2520, 93013.00
223.4720, 93081.00
224.6910, 92591.00
225.9110, 92665.75
227.1300, 92826.00
228.3490, 92585.00
229.5680, 92729.00
230.7870, 92565.00
232.0050, 92322.00
233.2240, 92406.00
234.4420, 92306.52
235.6600, 92232.00
236.8780, 92185.00
238.0960, 91990.00
239.3140, 91905.12
240.5310, 92106.00
241.7490, 91671.00
242.9660, 91718.00
244.1830, 91694.00
245.4000, 91107.00
246.6160, 91374.00
247.8330, 91111.00
249.0490, 90708.00
250.2660, 91190.00
251.4820, 91308.00
252.6980, 91383.00
253.9130, 91302.00
255.1290, 91407.00
256.3440, 91230.00
257.5600, 90925.00
258.7750, 91079.00
259.9900, 90731.00
261.2040, 90227.00
262.4190, 90567.00
263.6330, 90102.00
264.8480, 90097.00
266.0620, 90007.00
267.2760, 89960.00
268.4900, 89891.66
269.7030, 90077.00
270.9170, 89630.00
272.1300, 89518.00
273.3430, 89158.00
274.5560, 89350.00
275.7690, 89289.00
276.9820, 89248.00
278.1940, 89467.00
279.4070, 88917.00
280.6190, 88831.00
281.8310, 89040.00
283.0430, 89263.00
284.2550, 88952.00
285.4660, 88562.00
286.6770, 88632.00
287.8890, 88164.00
289.1000, 88481.00
290.3110, 88742.00
291.5210, 88392.00
292.7320, 88531.00
293.9420, 88300.00
295.1530, 88165.00
296.3630, 88229.00
297.5730, 88420.00
298.7830, 88306.00
299.9920, 87669.00
301.2020, 88321.00
302.4110, 88055.00
303.6200, 87975.00
304.8290, 88268.00
306.0380, 88484.00
307.2470, 88709.00
308.4550, 88891.00
309.6630, 88914.00
310.8720, 89487.00
312.0800, 89400.00
313.2880, 88851.00
314.4950, 88824.00
315.7030, 88241.00
316.9100, 87739.00
318.1170, 87393.00
319.3240, 86881.00
320.5310, 86643.26
321.7380, 86345.86
322.9450, 86284.00
324.1510, 86065.00
325.3570, 86117.00
326.5630, 86358.00
327.7690, 85943.00
328.9750, 85507.00
330.1810, 85634.00
331.3860, 85667.00
332.5910, 85247.00
333.7960, 85382.00
335.0010, 85635.00
336.2060, 84963.00
337.4110, 85337.00
338.6150, 84553.00
339.8200, 84800.00
341.0240, 84791.00
342.2280, 84364.00
343.4320, 84556.00
344.6350, 84344.00
345.8390, 84527.00
347.0420, 84408.00
348.2450, 84206.00
349.4480, 84631.00
350.6510, 83946.00
351.8540, 84295.00
353.0560, 84179.00
354.2590, 84093.00
355.4610, 83850.00
356.6630, 83926.00
357.8650, 84011.00
359.0670, 84002.00
360.2680, 84057.00
361.4700, 83944.89
362.6710, 83930.00
363.8720, 83689.00
365.0730, 83512.00
366.2740, 83401.00
367.4740, 83463.00
368.6750, 83294.00
369.8750, 83412.00
371.0750, 83433.00
372.2750, 83391.00
373.4750, 83155.00
374.6740, 83228.00
375.8740, 83079.00
377.0730, 83125.00
378.2720, 83591.00
379.4710, 83122.00
380.6700, 83683.00
381.8690, 83161.00
383.0670, 84036.00
384.2660, 83916.00
385.4640, 83732.00
386.6620, 84107.00
387.8600, 84658.00
389.0570, 85395.00
390.2550, 85837.00
391.4520, 86643.00
392.6490, 88236.00
393.8460, 89624.00
395.0430, 92439.00
396.2400, 95524.00
397.4370, 98504.00
398.6330, 103712.0
399.8290, 110288.0
401.0250, 118396.0
402.2210, 126826.0
403.4170, 136038.0
404.6130, 142472.0
405.8080, 145072.0
407.0030, 140964.0
408.1980, 131370.0
409.3930, 119751.0
410.5880, 109113.0
411.7830, 101013.0
412.9770, 94830.00
414.1720, 90812.00
415.3660, 87759.00
416.5600, 85246.00
417.7530, 84018.00
418.9470, 82691.00
420.1410, 82141.00
421.3340, 81337.00
422.5270, 80736.00
423.7200, 80202.00
424.9130, 79841.00
426.1060, 79445.75
427.2980, 79119.00
428.4900, 78931.00
429.6830, 78795.00
430.8750, 78696.00
432.0670, 78517.00
433.2580, 78083.00
434.4500, 77935.00
435.6410, 78235.00
436.8320, 77684.00
438.0240, 77804.00
439.2140, 77643.00
440.4050, 77453.00
441.5960, 77325.00
442.7860, 77182.25
443.9760, 77457.00
445.1670, 77022.00
446.3560, 77071.00
447.5460, 77191.00
448.7360, 76974.00
449.9250, 76935.18
451.1150, 76881.92
452.3040, 76523.00
453.4930, 76633.00
454.6810, 76252.00
455.8700, 75907.00
457.0590, 75807.00
458.2470, 76018.00
459.4350, 75689.00
460.6230, 75787.00
461.8110, 75936.00
462.9980, 75565.00
464.1860, 75701.00
465.3730, 75413.00
466.5600, 75472.00
467.7470, 75242.00
468.9340, 75345.00
470.1210, 75055.00
471.3080, 75020.00
472.4940, 74921.00
473.6800, 74954.00
474.8660, 74908.00
476.0520, 74487.00
477.2380, 74597.00
478.4230, 74360.00
479.6090, 74404.00
480.7940, 74031.00
481.9790, 74066.00
483.1640, 74165.00
484.3490, 74129.00
485.5330, 73713.00
486.7180, 73568.00
487.9020, 73491.00
489.0860, 73675.00
490.2700, 73500.00
491.4540, 73360.00
492.6370, 73697.00
493.8210, 73053.00
495.0040, 73110.00
496.1870, 72850.00
497.3700, 72943.00
498.5530, 73053.00
499.7360, 72497.00
500.9180, 72520.00
502.1000, 72208.00
503.2830, 72361.00
504.4650, 72293.00
505.6460, 72177.00
506.8280, 72205.00
508.0100, 71577.00
509.1910, 71913.00
510.3720, 71751.00
511.5530, 72017.00
512.7340, 71755.00
513.9150, 71448.00
515.0950, 71627.00
516.2760, 71793.00
517.4560, 71419.00
518.6360, 71520.00
519.8160, 71143.00
520.9950, 71175.00
522.1750, 71201.00
523.3540, 71128.00
524.5340, 70972.00
525.7130, 70913.00
526.8920, 71017.00
528.0700, 70508.00
529.2490, 71047.00
530.4270, 70954.00
531.6060, 71069.00
532.7840, 70503.00
533.9620, 70361.00
535.1390, 69709.00
536.3170, 70213.00
537.4940, 70000.00
538.6720, 69782.00
539.8490, 69516.00
541.0260, 69576.00
542.2030, 69411.28
543.3790, 69555.00
544.5560, 69320.00
545.7320, 69117.00
546.9080, 69065.00
548.0840, 68886.38
549.2600, 69146.00
550.4360, 68765.00
551.6110, 68834.00
552.7860, 68995.00
553.9620, 68806.52
555.1370, 68766.00
556.3110, 68715.00
557.4860, 68611.00
558.6610, 68522.00
559.8350, 68314.00
561.0090, 68285.00
562.1830, 67974.00
563.3570, 67907.00
564.5310, 67891.00
565.7040, 67957.00
566.8780, 67852.38
568.0510, 67781.00
569.2240, 67734.00
570.3970, 67612.00
571.5700, 67588.00
572.7420, 67358.00
573.9150, 67729.00
575.0870, 67074.00
576.2590, 67361.00
577.4310, 67170.00
578.6030, 66876.00
579.7740, 67590.00
580.9460, 66947.00
582.1170, 66885.00
583.2880, 66790.00
584.4590, 66745.00
585.6300, 66445.00
586.8010, 67098.00
587.9710, 66641.00
589.1410, 66670.00
590.3110, 66394.00
591.4810, 66368.00
592.6510, 65977.00
593.8210, 66006.79
594.9900, 66187.00
596.1600, 65938.00
597.3290, 66102.00
598.4980, 65999.00
599.6670, 66094.00
600.8350, 65669.00
602.0040, 65639.00
603.1720, 65678.00
604.3400, 65843.00
605.5080, 65532.00
606.6760, 65371.00
607.8440, 65718.00
609.0120, 65161.00
610.1790, 65234.00
611.3460, 65355.00
612.5130, 65148.00
613.6800, 65143.00
614.8470, 65050.00
616.0130, 64630.00
617.1800, 64508.00
618.3460, 64684.00
619.5120, 64453.00
620.6780, 64601.00
621.8440, 64748.00
623.0090, 64368.00
624.1750, 64293.00
625.3400, 64348.00
626.5050, 64120.00
627.6700, 64301.00
628.8350, 63957.00
629.9990, 63875.00
631.1640, 63215.84
632.3280, 63584.59
633.4920, 63780.73
634.6560, 63813.50
635.8200, 63193.68
636.9840, 63416.56
638.1470, 63301.74
639.3100, 63447.00
640.4730, 63303.00
641.6360, 63110.00
642.7990, 63063.00
643.9620, 63041.00
645.1240, 63085.00
646.2870, 63249.00
647.4490, 63373.00
648.6110, 63448.27
649.7730, 63364.00
650.9340, 63656.00
652.0960, 63634.00
653.2570, 63791.00
654.4180, 64091.00
655.5790, 64532.00
656.7400, 64863.00
657.9010, 65821.00
659.0620, 66399.00
660.2220, 67595.00
661.3820, 68219.00
662.5420, 69156.00
663.7020, 69307.00
664.8620, 69147.00
666.0210, 68854.00
667.1810, 68367.00
668.3400, 67237.00
669.4990, 66879.00
670.6580, 65557.00
671.8170, 64772.00
672.9750, 63953.00
674.1340, 63483.00
675.2920, 62436.00
676.4500, 62325.00
677.6080, 62005.00
678.7660, 61546.00
679.9230, 61568.00
681.0810, 60677.00
682.2380, 60581.00
683.3950, 60144.00
684.5520, 59930.00
685.7090, 59794.00
686.8660, 59722.00
688.0220, 59448.04
689.1780, 59324.00
690.3340, 59044.00
691.4900, 59040.00
692.6460, 59028.00
693.8020, 58818.00
694.9570, 58904.00
696.1130, 58938.00
697.2680, 58481.00
698.4230, 58254.00
699.5780, 58410.00
700.7320, 58196.00
701.8870, 58325.00
703.0410, 58477.00
704.1950, 58399.00
705.3490, 58130.00
706.5030, 57998.00
707.6570, 57886.68
708.8110, 57777.00
709.9640, 57722.00
711.1170, 57490.00
712.2700, 57491.00
713.4230, 57479.00
714.5760, 57257.00
715.7280, 57267.00
716.8810, 56994.00
718.0330, 57060.00
719.1850, 56735.00
720.3370, 56601.00
721.4890, 56644.00
722.6400, 56547.00
723.7920, 56654.00
724.9430, 56471.00
726.0940, 56255.00
727.2450, 55942.00
728.3960, 56311.00
729.5460, 56024.00
730.6970, 56195.00
731.8470, 55983.00
732.9970, 56091.00
734.1470, 55818.00
735.2970, 55801.00
736.4460, 55745.00
737.5960, 55898.00
738.7450, 55720.00
739.8940, 55857.00
741.0430, 55781.00
742.1920, 55958.00
743.3410, 56151.00
744.4890, 56165.00
745.6370, 56093.00
746.7850, 56091.00
747.9330, 56504.00
749.0810, 56734.00
750.2290, 56603.00
751.3760, 57297.00
752.5240, 57379.00
753.6710, 57716.00
754.8180, 58168.00
755.9650, 58705.00
757.1110, 59485.00
758.2580, 60141.00
759.4040, 61532.00
760.5510, 62758.00
761.6970, 63741.00
762.8420, 64832.00
763.9880, 65973.00
765.1340, 66755.00
766.2790, 67236.00
767.4240, 66900.00
768.5690, 66196.00
769.7140, 65129.00
770.8590, 63438.00
772.0030, 61733.00
773.1480, 60214.00
774.2920, 59080.00
775.4360, 57977.00
776.5800, 57209.00
777.7240, 56344.00
778.8670, 55679.00
780.0110, 55021.00
781.1540, 54510.00
782.2970, 54218.00
783.4400, 54072.00
784.5830, 53549.00
785.7250, 53537.00
786.8680, 53118.00
788.0100, 52747.00
789.1520, 52535.00
790.2940, 52330.86
791.4360, 52398.00
792.5780, 52158.00
793.7190, 52113.00
794.8600, 52125.00
796.0010, 51843.00
797.1420, 51531.00
798.2830, 51709.00
799.4240, 51334.17
800.5640, 51413.00
801.7050, 50953.00
802.8450, 51089.00
803.9850, 51017.00
805.1250, 50732.00
806.2640, 50794.00
807.4040, 50426.00
808.5430, 50680.00
809.6820, 50553.00
810.8210, 50513.00
811.9600, 50222.00
813.0990, 50426.00
814.2370, 50010.00
815.3760, 50088.00
816.5140, 50030.00
817.6520, 50041.00
818.7900, 49869.00
819.9270, 49756.00
821.0650, 49596.63
822.2020, 49531.00
823.3390, 49320.00
824.4760, 49329.00
825.6130, 49459.00
826.7500, 49377.00
827.8870, 49301.16
829.0230, 49131.66
830.1590, 49073.00
831.2950, 48686.00
832.4310, 48662.00
833.5670, 48570.00
834.7030, 48817.00
835.8380, 48335.00
836.9730, 48345.00
838.1080, 48102.00
839.2430, 48397.00
840.3780, 48292.00
841.5130, 48107.00
842.6470, 48032.00
843.7810, 47892.70
844.9150, 47770.00
846.0490, 47719.00
847.1830, 47626.00
848.3170, 47681.00
849.4500, 47585.19
850.5830, 47743.00
851.7160, 47406.00
852.8490, 47459.00
853.9820, 47232.00
855.1150, 47309.00
856.2470, 47371.00
857.3800, 47191.00
858.5120, 46889.00
859.6440, 46921.00
860.7760, 46750.00
861.9070, 46665.00
863.0390, 46529.00
864.1700, 46489.63
865.3010, 46318.00
866.4320, 46402.00
867.5630, 46362.00
868.6940, 46231.00
869.8240, 46389.00
870.9540, 46498.00
872.0850, 46094.00
873.2150, 46133.00
874.3450, 46117.00
875.4740, 45786.00
876.6040, 45673.00
877.7330, 45483.00
878.8620, 45475.00
879.9910, 45376.32
881.1200, 45297.00
882.2490, 45309.00
883.3770, 45350.00
884.5060, 45374.00
885.6340, 45299.00
886.7620, 45302.00
887.8900, 45256.86
889.0180, 45150.00
890.1450, 45166.00
891.2730, 44768.00
892.4000, 44693.00
893.5270, 44655.00
894.6540, 44633.00
895.7810, 44418.00
896.9070, 44176.00
898.0340, 44459.00
899.1600, 44203.00
900.2860, 44358.00
901.4120, 44133.00
902.5380, 44525.00
903.6630, 44058.00
904.7890, 43958.00
905.9140, 44317.00
907.0390, 43901.00
908.1640, 43913.00
909.2890, 44152.00
910.4130, 43927.00
911.5380, 43692.00
912.6620, 43681.00
913.7860, 43685.00
914.9100, 43708.00
916.0340, 43565.00
917.1580, 43355.00
918.2810, 43455.00
919.4040, 43519.00
920.5280, 43268.00
921.6510, 43335.00
922.7730, 43155.00
923.8960, 43092.00
925.0180, 43122.00
926.1410, 42768.00
927.2630, 42990.00
928.3850, 42916.00
929.5070, 42677.00
930.6280, 42636.00
931.7500, 42782.00
932.8710, 42271.00
933.9920, 42432.00
935.1130, 42258.00
936.2340, 42441.00
937.3550, 42530.00
938.4760, 42316.00
939.5960, 42030.00
940.7160, 42001.00
941.8360, 42232.00
942.9560, 41794.00
944.0760, 41854.00
945.1950, 41717.00
946.3150, 41569.00
947.4340, 41855.00
948.5530, 41890.00
949.6720, 41812.00
950.7900, 41332.00
951.9090, 41513.00
953.0270, 41436.00
954.1460, 41201.00
955.2640, 41621.00
956.3820, 41114.00
957.4990, 41404.00
958.6170, 41342.00
959.7340, 40897.00
960.8520, 41224.00
961.9690, 41457.00
963.0860, 40808.00
964.2020, 41174.00
965.3190, 40778.00
966.4350, 40977.00
967.5520, 40672.00
968.6680, 40746.00
969.7840, 40744.00
970.8990, 40577.00
972.0150, 40323.00
973.1310, 40413.00
974.2460, 40450.00
975.3610, 40267.00
976.4760, 40498.00
977.5910, 40395.00
978.7050, 40082.00
979.8200, 40146.00
980.9340, 40195.00
982.0480, 39901.00
983.1620, 40360.00
984.2760, 39922.00
985.3900, 40105.00
986.5030, 40140.00
987.6160, 40006.00
988.7300, 39861.00
989.8430, 39602.00
990.9550, 39748.00
992.0680, 39565.00
993.1810, 39549.00
994.2930, 39691.00
995.4050, 39687.00
996.5170, 39511.00
997.6290, 39329.00
998.7410, 39610.00
999.8520, 39394.00
1000.964, 39472.00
1002.075, 39257.00
1003.186, 39384.00
1004.297, 39134.00
1005.407, 39121.00
1006.518, 39092.00
1007.628, 39151.00
1008.738, 38913.00
1009.848, 38568.95
1010.958, 38913.81
1012.068, 39086.04
1013.178, 39094.93
1014.287, 38451.25
1015.396, 38650.27
1016.505, 38511.57
1017.614, 38359.03
1018.723, 38676.65
1019.831, 38127.94
1020.940, 38201.00
1022.048, 38300.00
1023.156, 38183.00
1024.264, 38134.14
1025.372, 38176.00
1026.479, 38232.00
1027.587, 37859.00
1028.694, 38126.00
1029.801, 37910.00
1030.908, 38064.00
1032.015, 37698.00
1033.121, 38020.00
1034.228, 37640.00
1035.334, 37654.00
1036.440, 37706.00
1037.546, 37582.00
1038.652, 37503.00
1039.758, 37243.00
1040.863, 37712.00
1041.968, 37246.00
1043.074, 37459.00
1044.178, 37184.00
1045.283, 37032.00
1046.388, 37105.00
1047.492, 37261.00
1048.597, 37251.00
1049.701, 37157.00
1050.805, 37180.00
1051.909, 37076.00
1053.012, 36871.00
1054.116, 37140.00
1055.219, 37083.00
1056.322, 36847.00
1057.425, 36710.00
1058.528, 36899.00
1059.631, 36631.00
1060.733, 36785.00
1061.836, 36604.00
1062.938, 36643.00
1064.040, 36837.00
1065.142, 36636.00
1066.243, 36510.00
1067.345, 36453.00
1068.446, 36275.00
1069.547, 36366.00
1070.648, 36236.00
1071.749, 36440.00
1072.850, 36263.00
1073.951, 36156.00
1075.051, 35877.00
1076.151, 36100.00
1077.251, 36021.00
1078.351, 36136.00
1079.451, 36065.00
1080.550, 36276.00
1081.650, 36071.00
1082.749, 35770.00
1083.848, 35974.00
1084.947, 35851.00
1086.046, 35745.00
1087.144, 35854.00
1088.243, 35814.00
1089.341, 35798.00
1090.439, 35619.00
1091.537, 35523.00
1092.635, 35561.00
1093.732, 35629.00
1094.830, 35354.43
1095.927, 35701.22
1097.024, 35875.38
1098.121, 35886.19
1099.218, 35244.40
1100.314, 35445.36
1101.411, 35308.54
1102.507, 35157.93
1103.603, 35477.49
1104.699, 34930.66
1105.795, 35242.76
1106.890, 35212.04
1107.986, 35331.00
1109.081, 35195.00
1110.176, 35370.00
1111.271, 35083.00
1112.366, 35202.00
1113.461, 34954.00
1114.555, 34843.00
1115.649, 34925.00
1116.744, 35019.00
1117.838, 34825.00
1118.931, 34719.00
1120.025, 34609.00
1121.119, 34750.00
1122.212, 34717.00
1123.305, 34676.66
1124.398, 34621.00
1125.491, 34575.00
1126.584, 34485.00
1127.676, 34401.00
1128.768, 34476.00
1129.861, 34596.00
1130.953, 34481.00
1132.044, 34701.00
1133.136, 34430.00
1134.228, 34387.00
1135.319, 34133.00
1136.410, 34186.00
1137.501, 34112.00
1138.592, 34171.00
1139.683, 33992.00
1140.773, 33973.96
1141.864, 34076.00
1142.954, 33912.00
1144.044, 33916.00
1145.134, 34065.00
1146.224, 33803.00
1147.313, 34038.00
1148.402, 33858.00
1149.492, 34054.00
1150.581, 33762.00
1151.670, 33804.00
1152.758, 33960.00
1153.847, 33818.00
1154.935, 33705.00
1156.024, 33562.00
1157.112, 33609.00
1158.200, 33697.00
1159.287, 33537.00
1160.375, 33545.79
1161.462, 33497.00
1162.550, 33421.00
1163.637, 33400.00
1164.724, 33415.00
1165.810, 33478.00
1166.897, 33327.00
1167.983, 33363.00
1169.070, 33224.00
1170.156, 33211.70
1171.242, 33221.00
1172.327, 33188.00
1173.413, 33219.00
1174.499, 33250.00
1175.584, 32970.00
1176.669, 33073.00
1177.754, 32923.00
1178.839, 32950.00
1179.923, 33026.00
1181.008, 32804.00
1182.092, 32749.00
1183.176, 33023.00
1184.260, 33129.00
1185.344, 32943.00
1186.428, 32589.00
1187.511, 33025.00
1188.595, 32619.00
1189.678, 32552.00
1190.761, 32774.00
1191.843, 32641.00
1192.926, 32580.00
1194.009, 32507.00
1195.091, 32673.00
1196.173, 32748.00
1197.255, 32422.00
1198.337, 32565.00
1199.419, 32334.00
1200.500, 32479.00
1201.582, 32526.00
1202.663, 32572.00
1203.744, 32477.00
1204.825, 32508.83
1205.905, 32434.28
1206.986, 32516.00
1208.066, 32255.00
1209.146, 32350.00
1210.226, 32199.00
1211.306, 31985.00
1212.386, 32214.00
1213.466, 32046.00
1214.545, 32092.00
1215.624, 32070.00
1216.703, 32020.00
1217.782, 32010.56
1218.861, 31858.00
1219.939, 31955.00
1221.018, 31864.00
1222.096, 31888.00
1223.174, 31679.00
1224.252, 31750.00
1225.330, 31693.00
1226.407, 31708.00
1227.485, 31774.00
1228.562, 31842.00
1229.639, 31636.00
1230.716, 31544.00
1231.793, 31571.00
1232.869, 31538.00
1233.946, 31629.00
1235.022, 31423.00
1236.098, 31470.00
1237.174, 31269.00
1238.250, 31215.00
1239.325, 31452.00
1240.401, 31229.00
1241.476, 31221.00
1242.551, 31038.00
1243.626, 31190.00
1244.701, 31269.00
1245.776, 30957.00
1246.850, 31208.00
1247.924, 31204.00
1248.999, 31142.00
1250.073, 30903.00
1251.146, 30979.00
1252.220, 30900.00
1253.293, 30823.00
1254.367, 30958.00
1255.440, 30995.00
1256.513, 30850.00
1257.586, 30730.00
1258.658, 30754.00
1259.731, 30712.94
