##NAMES=Spinel
##RRUFFID=R050259
##IDEAL CHEMISTRY=MgAl_2_O_4_
##LOCALITY=Mogok, Burma
##OWNER=RRUFF
##SOURCE=Marcus Origlieri
##DESCRIPTION=Purple cut gemstone
##STATUS=The identification of this mineral has been confirmed by X-ray diffraction and chemical analysis
##URL=rruff.info/R050259
##MEASURED CHEMISTRY=(Mg_0.99_Zn_0.01_)_Σ=1_(Al_1.98_Fe^3+^_0.02_)_Σ=2_O_4_; trace amounts of Cr
##PIN_ID=L00851
##ORIENTATION=Laser parallel to c* (0 0 1). Fiducial mark perpendicular to laser is parallel to a [1 0 0]
75.95700, 793043.0
77.19600, 792431.0
78.43500, 791998.0
79.67300, 791774.0
80.91200, 790660.0
82.15000, 790724.0
83.38800, 787951.0
84.62600, 787432.0
85.86300, 786761.0
87.10100, 786125.0
88.33800, 786874.0
89.57500, 788862.0
90.81200, 790622.0
92.04900, 786987.0
93.28600, 784717.0
94.52300, 784010.0
95.75900, 783402.0
96.99500, 782014.0
98.23100, 782022.0
99.46700, 781555.2
100.7030, 781375.9
101.9390, 781321.0
103.1740, 781256.0
104.4090, 781039.0
105.6440, 780323.0
106.8790, 778482.0
108.1140, 778293.0
109.3490, 777559.0
110.5830, 776295.0
111.8180, 776703.0
113.0520, 775332.0
114.2860, 775299.0
115.5200, 776308.0
116.7530, 775310.0
117.9870, 774074.0
119.2200, 774713.0
120.4530, 774664.0
121.6860, 775933.0
122.9190, 774069.0
124.1520, 774855.0
125.3850, 773209.0
126.6170, 773237.0
127.8490, 773753.0
129.0810, 772351.0
130.3130, 772785.0
131.5450, 772015.0
132.7770, 771484.0
134.0080, 770513.0
135.2390, 770118.0
136.4710, 771337.0
137.7020, 771453.0
138.9320, 770595.0
140.1630, 769760.0
141.3930, 768744.0
142.6240, 769378.0
143.8540, 768828.0
145.0840, 768835.0
146.3140, 768931.0
147.5440, 768462.0
148.7730, 767709.0
150.0020, 766537.0
151.2320, 765198.0
152.4610, 763911.0
153.6900, 765348.0
154.9180, 763211.0
156.1470, 764737.0
157.3750, 762496.0
158.6040, 761195.0
159.8320, 761440.0
161.0600, 761199.0
162.2870, 761117.0
163.5150, 760164.0
164.7420, 759174.0
165.9700, 758856.0
167.1970, 757899.0
168.4240, 757699.0
169.6510, 755852.0
170.8770, 756116.0
172.1040, 755282.0
173.3300, 755654.0
174.5560, 754376.0
175.7820, 752750.0
177.0080, 752748.0
178.2340, 753321.0
179.4590, 752010.0
180.6850, 751065.0
181.9100, 750819.0
183.1350, 750021.0
184.3600, 749841.0
185.5850, 750080.0
186.8090, 748022.0
188.0340, 749504.0
189.2580, 747901.0
190.4820, 747855.0
191.7060, 748030.0
192.9300, 747111.0
194.1530, 745575.0
195.3770, 746108.0
196.6000, 745720.0
197.8230, 744908.0
199.0460, 745114.0
200.2690, 743482.0
201.4910, 745616.0
202.7140, 743049.0
203.9360, 742572.0
205.1580, 742232.0
206.3800, 739917.0
207.6020, 741081.0
208.8240, 739973.0
210.0450, 740414.0
211.2670, 739490.0
212.4880, 737524.0
213.7090, 738346.0
214.9300, 737043.0
216.1510, 736574.0
217.3710, 737606.0
218.5920, 735806.0
219.8120, 735341.0
221.0320, 734948.0
222.2520, 733876.1
223.4720, 733993.0
224.6910, 732467.0
225.9110, 731947.0
227.1300, 731137.0
228.3490, 731226.0
229.5680, 730391.0
230.7870, 729554.0
232.0050, 728852.0
233.2240, 727822.0
234.4420, 726823.0
235.6600, 727788.0
236.8780, 726421.0
238.0960, 727198.0
239.3140, 726012.0
240.5310, 726256.0
241.7490, 724799.0
242.9660, 724317.0
244.1830, 723347.0
245.4000, 722037.0
246.6160, 721690.0
247.8330, 720428.0
249.0490, 720453.0
250.2660, 720645.0
251.4820, 720352.0
252.6980, 718698.0
253.9130, 719237.0
255.1290, 717582.0
256.3440, 717556.0
257.5600, 717027.0
258.7750, 716669.0
259.9900, 716477.0
261.2040, 715156.0
262.4190, 713654.0
263.6330, 714150.0
264.8480, 713103.0
266.0620, 713043.0
267.2760, 711235.0
268.4900, 711275.0
269.7030, 709788.0
270.9170, 710518.0
272.1300, 710471.0
273.3430, 708144.0
274.5560, 707660.0
275.7690, 707621.0
276.9820, 706650.0
278.1940, 706013.0
279.4070, 705428.0
280.6190, 704631.0
281.8310, 703643.0
283.0430, 703229.1
284.2550, 702696.0
285.4660, 701930.0
286.6770, 701524.0
287.8890, 701183.0
289.1000, 700377.0
290.3110, 700047.0
291.5210, 699240.0
292.7320, 698800.0
293.9420, 697644.0
295.1530, 697745.0
296.3630, 697871.0
297.5730, 696238.0
298.7830, 695846.0
299.9920, 695419.0
301.2020, 694146.5
302.4110, 694942.0
303.6200, 692633.0
304.8290, 691878.0
306.0380, 692110.0
307.2470, 691056.0
308.4550, 690991.0
309.6630, 690022.0
310.8720, 689523.0
312.0800, 688654.0
313.2880, 687950.0
314.4950, 687670.0
315.7030, 687060.0
316.9100, 686213.0
318.1170, 686409.0
319.3240, 684665.0
320.5310, 683509.0
321.7380, 682132.0
322.9450, 683102.0
324.1510, 682465.0
325.3570, 682205.0
326.5630, 682074.0
327.7690, 680489.0
328.9750, 680785.0
330.1810, 679008.0
331.3860, 678235.0
332.5910, 677179.0
333.7960, 677933.0
335.0010, 675848.0
336.2060, 675868.0
337.4110, 674721.0
338.6150, 673658.0
339.8200, 673349.6
341.0240, 672538.6
342.2280, 672416.0
343.4320, 671603.0
344.6350, 671514.0
345.8390, 671094.0
347.0420, 670143.0
348.2450, 670003.3
349.4480, 668897.0
350.6510, 668662.0
351.8540, 668361.0
353.0560, 666587.0
354.2590, 667354.0
355.4610, 667254.0
356.6630, 665326.0
357.8650, 665208.0
359.0670, 664580.0
360.2680, 663849.0
361.4700, 663262.0
362.6710, 664128.0
363.8720, 661888.0
365.0730, 664696.0
366.2740, 664530.0
367.4740, 661485.0
368.6750, 659567.0
369.8750, 659036.0
371.0750, 659254.0
372.2750, 658228.4
373.4750, 657771.8
374.6740, 657840.0
375.8740, 656514.0
377.0730, 656897.0
378.2720, 656893.0
379.4710, 655219.0
380.6700, 654911.0
381.8690, 654484.0
383.0670, 656123.0
384.2660, 656125.0
385.4640, 654279.0
386.6620, 656813.0
387.8600, 655996.0
389.0570, 657302.0
390.2550, 658948.0
391.4520, 660868.0
392.6490, 664096.0
393.8460, 667576.0
395.0430, 671793.0
396.2400, 677719.0
397.4370, 685273.0
398.6330, 696524.0
399.8290, 709439.0
401.0250, 723527.0
402.2210, 742807.0
403.4170, 761229.0
404.6130, 776357.0
405.8080, 781374.0
407.0030, 775280.0
408.1980, 757243.0
409.3930, 734348.0
410.5880, 711106.0
411.7830, 691120.0
412.9770, 677091.0
414.1720, 665645.0
415.3660, 657405.0
416.5600, 650409.0
417.7530, 644059.0
418.9470, 641664.0
420.1410, 636433.0
421.3340, 634362.0
422.5270, 631866.0
423.7200, 629046.0
424.9130, 627879.0
426.1060, 625753.0
427.2980, 624880.0
428.4900, 623725.0
429.6830, 621123.0
430.8750, 619324.0
432.0670, 619485.0
433.2580, 617910.0
434.4500, 616194.0
435.6410, 615989.0
436.8320, 614259.0
438.0240, 613153.0
439.2140, 611940.0
440.4050, 610939.0
441.5960, 609719.0
442.7860, 608812.0
443.9760, 607552.0
445.1670, 606970.0
446.3560, 606340.0
447.5460, 606108.0
448.7360, 605209.9
449.9250, 604642.3
451.1150, 603663.0
452.3040, 602914.0
453.4930, 602259.1
454.6810, 600798.0
455.8700, 600274.0
457.0590, 599904.0
458.2470, 598510.0
459.4350, 597598.0
460.6230, 597598.0
461.8110, 597361.0
462.9980, 595947.0
464.1860, 595955.0
465.3730, 594021.0
466.5600, 593873.0
467.7470, 593779.0
468.9340, 593264.0
470.1210, 592032.0
471.3080, 592325.0
472.4940, 589657.0
473.6800, 590704.0
474.8660, 589230.0
476.0520, 588057.0
477.2380, 587843.0
478.4230, 587267.0
479.6090, 586266.0
480.7940, 585807.2
481.9790, 584652.0
483.1640, 584228.0
484.3490, 583898.0
485.5330, 582851.5
486.7180, 581061.0
487.9020, 580328.0
489.0860, 579503.0
490.2700, 578007.0
491.4540, 577323.0
492.6370, 577142.0
493.8210, 577033.0
495.0040, 575620.0
496.1870, 575066.0
497.3700, 573672.0
498.5530, 572179.0
499.7360, 572044.0
500.9180, 571221.0
502.1000, 571669.0
503.2830, 568971.0
504.4650, 568911.0
505.6460, 568486.0
506.8280, 566907.0
508.0100, 565969.0
509.1910, 564430.0
510.3720, 564765.0
511.5530, 564099.0
512.7340, 562550.0
513.9150, 562942.0
515.0950, 561400.0
516.2760, 560450.0
517.4560, 560448.0
518.6360, 559765.0
519.8160, 559600.0
520.9950, 558151.0
522.1750, 558178.0
523.3540, 556768.0
524.5340, 556080.0
525.7130, 554963.0
526.8920, 554746.0
528.0700, 553764.0
529.2490, 552915.0
530.4270, 551602.0
531.6060, 551311.0
532.7840, 549965.0
533.9620, 549327.0
535.1390, 549361.0
536.3170, 549800.0
537.4940, 547999.0
538.6720, 547500.0
539.8490, 546227.0
541.0260, 545615.0
542.2030, 544945.0
543.3790, 544438.0
544.5560, 543036.0
545.7320, 542655.0
546.9080, 541470.0
548.0840, 540870.0
549.2600, 540421.0
550.4360, 540284.0
551.6110, 538810.0
552.7860, 537855.0
553.9620, 538694.0
555.1370, 538658.0
556.3110, 536524.0
557.4860, 536592.2
558.6610, 536099.0
559.8350, 534371.0
561.0090, 533770.0
562.1830, 532160.0
563.3570, 531333.0
564.5310, 531616.0
565.7040, 530607.0
566.8780, 530267.0
568.0510, 529159.0
569.2240, 528200.0
570.3970, 527344.0
571.5700, 526454.0
572.7420, 526108.0
573.9150, 524915.0
575.0870, 524037.0
576.2590, 523362.0
577.4310, 523391.0
578.6030, 522257.0
579.7740, 522940.0
580.9460, 521171.0
582.1170, 519674.0
583.2880, 519577.0
584.4590, 518672.0
585.6300, 517714.0
586.8010, 516603.0
587.9710, 516580.0
589.1410, 515705.0
590.3110, 515010.0
591.4810, 513949.0
592.6510, 513594.0
593.8210, 513469.0
594.9900, 512383.0
596.1600, 511470.0
597.3290, 511311.0
598.4980, 510452.0
599.6670, 510144.0
600.8350, 509689.0
602.0040, 508354.0
603.1720, 506824.0
604.3400, 505728.0
605.5080, 504429.0
606.6760, 504828.0
607.8440, 502804.0
609.0120, 503449.0
610.1790, 501531.0
611.3460, 500939.0
612.5130, 500725.0
613.6800, 500254.0
614.8470, 500130.0
616.0130, 498413.0
617.1800, 498429.0
618.3460, 496889.0
619.5120, 496909.0
620.6780, 496650.0
621.8440, 494789.0
623.0090, 494199.0
624.1750, 494071.0
625.3400, 493798.0
626.5050, 493325.0
627.6700, 492938.4
628.8350, 491492.0
629.9990, 491654.0
631.1640, 490580.0
632.3280, 489381.0
633.4920, 489093.0
634.6560, 487181.0
635.8200, 487056.0
636.9840, 486364.0
638.1470, 485936.0
639.3100, 485261.0
640.4730, 484868.9
641.6360, 483498.0
642.7990, 483697.0
643.9620, 482834.0
645.1240, 481372.0
646.2870, 479417.0
647.4490, 479639.0
648.6110, 479652.0
649.7730, 477842.0
650.9340, 477493.0
652.0960, 476501.0
653.2570, 475669.0
654.4180, 475556.0
655.5790, 474061.0
656.7400, 474128.0
657.9010, 473248.0
659.0620, 473390.0
660.2220, 473384.0
661.3820, 471858.0
662.5420, 471371.0
663.7020, 471232.0
664.8620, 470769.0
666.0210, 469581.0
667.1810, 468154.0
668.3400, 466907.0
669.4990, 467910.0
670.6580, 464871.0
671.8170, 465486.0
672.9750, 463102.0
674.1340, 463552.0
675.2920, 461034.0
676.4500, 460850.0
677.6080, 457936.0
678.7660, 458602.0
679.9230, 457979.0
681.0810, 456861.0
682.2380, 455164.0
683.3950, 455126.0
684.5520, 454008.0
685.7090, 453414.0
686.8660, 452878.0
688.0220, 451381.0
689.1780, 451355.0
690.3340, 451032.0
691.4900, 449813.0
692.6460, 449585.0
693.8020, 449651.0
694.9570, 448507.0
696.1130, 447418.0
697.2680, 447528.0
698.4230, 446343.0
699.5780, 445468.0
700.7320, 444263.0
701.8870, 444423.0
703.0410, 443960.0
704.1950, 442384.0
705.3490, 442011.0
706.5030, 440518.0
707.6570, 440227.0
708.8110, 440371.0
709.9640, 438252.0
711.1170, 437393.0
712.2700, 435527.0
713.4230, 433824.0
714.5760, 431784.0
715.7280, 431516.0
716.8810, 427955.0
718.0330, 425747.0
719.1850, 425396.0
720.3370, 424352.0
721.4890, 422976.0
722.6400, 423072.0
723.7920, 423974.0
724.9430, 424808.0
726.0940, 423965.0
727.2450, 425040.0
728.3960, 424688.0
729.5460, 424974.0
730.6970, 424288.0
731.8470, 424241.0
732.9970, 423451.0
734.1470, 422878.0
735.2970, 423254.0
736.4460, 421899.0
737.5960, 422011.0
738.7450, 421445.0
739.8940, 420286.0
741.0430, 420890.0
742.1920, 419929.0
743.3410, 420855.0
744.4890, 419421.0
745.6370, 418694.0
746.7850, 418427.0
747.9330, 418918.0
749.0810, 417636.0
750.2290, 417777.0
751.3760, 417692.0
752.5240, 417716.0
753.6710, 417834.8
754.8180, 418230.0
755.9650, 417891.0
757.1110, 418647.0
758.2580, 418380.0
759.4040, 420145.0
760.5510, 419917.0
761.6970, 421517.0
762.8420, 422104.0
763.9880, 423835.0
765.1340, 423170.0
766.2790, 422545.0
767.4240, 420813.0
768.5690, 419566.0
769.7140, 415870.0
770.8590, 413607.0
772.0030, 410898.0
773.1480, 409342.0
774.2920, 406878.0
775.4360, 404485.0
776.5800, 402541.0
777.7240, 401950.0
778.8670, 399530.0
780.0110, 397826.0
781.1540, 397192.0
782.2970, 395454.0
783.4400, 394907.0
784.5830, 393438.0
785.7250, 391683.0
786.8680, 391114.0
788.0100, 390432.0
789.1520, 389355.0
790.2940, 388191.0
791.4360, 386089.0
792.5780, 384870.0
793.7190, 384475.0
794.8600, 383543.0
796.0010, 382702.0
797.1420, 382857.0
798.2830, 382682.0
799.4240, 381783.0
800.5640, 382442.0
801.7050, 380454.0
802.8450, 380455.0
803.9850, 379374.0
805.1250, 379714.0
806.2640, 378913.0
807.4040, 379115.0
808.5430, 378719.0
809.6820, 378152.0
810.8210, 377955.4
811.9600, 377312.0
813.0990, 377020.0
814.2370, 376115.0
815.3760, 375462.0
816.5140, 374209.0
817.6520, 373275.0
818.7900, 373072.0
819.9270, 371515.0
821.0650, 370278.0
822.2020, 369169.0
823.3390, 368833.0
824.4760, 367783.0
825.6130, 367633.0
826.7500, 367149.0
827.8870, 365596.0
829.0230, 365399.0
830.1590, 364771.0
831.2950, 364653.0
832.4310, 363562.0
833.5670, 362798.0
834.7030, 362184.0
835.8380, 361341.0
836.9730, 360795.0
838.1080, 360101.0
839.2430, 359649.8
840.3780, 359228.0
841.5130, 358828.0
842.6470, 358124.6
843.7810, 357153.0
844.9150, 356698.0
846.0490, 355980.0
847.1830, 355299.3
848.3170, 354719.5
849.4500, 353852.0
850.5830, 353379.0
851.7160, 352911.0
852.8490, 352109.0
853.9820, 351298.0
855.1150, 350498.0
856.2470, 349186.0
857.3800, 349356.0
858.5120, 348625.0
859.6440, 347201.0
860.7760, 347455.0
861.9070, 346120.0
863.0390, 345580.0
864.1700, 343974.0
865.3010, 344014.0
866.4320, 343716.0
867.5630, 342638.0
868.6940, 342988.0
869.8240, 342293.0
870.9540, 342078.0
872.0850, 340933.0
873.2150, 339709.0
874.3450, 339785.0
875.4740, 339289.0
876.6040, 337396.0
877.7330, 337278.0
878.8620, 335997.0
879.9910, 335859.0
881.1200, 335310.0
882.2490, 334997.0
883.3770, 333564.0
884.5060, 333618.0
885.6340, 332323.0
886.7620, 332347.0
887.8900, 331180.0
889.0180, 330803.0
890.1450, 329999.0
891.2730, 328749.0
892.4000, 328294.0
893.5270, 328027.0
894.6540, 326788.0
895.7810, 326296.0
896.9070, 325893.0
898.0340, 326110.0
899.1600, 325013.0
900.2860, 324528.0
901.4120, 324164.0
902.5380, 323331.0
903.6630, 322650.0
904.7890, 321890.0
905.9140, 322105.0
907.0390, 321624.0
908.1640, 320420.0
909.2890, 320918.0
910.4130, 319314.0
911.5380, 319190.0
912.6620, 318727.0
913.7860, 318180.0
914.9100, 317987.0
916.0340, 317044.0
917.1580, 316631.5
918.2810, 316125.9
919.4040, 315280.0
920.5280, 314823.0
921.6510, 313833.0
922.7730, 312508.0
923.8960, 312166.0
925.0180, 311679.0
926.1410, 312399.0
927.2630, 311304.0
928.3850, 310467.0
929.5070, 308734.0
930.6280, 309183.0
931.7500, 308728.0
932.8710, 308012.0
933.9920, 307667.0
935.1130, 306175.0
936.2340, 306829.0
937.3550, 307092.0
938.4760, 304647.0
939.5960, 304817.0
940.7160, 304525.0
941.8360, 303876.0
942.9560, 302939.0
944.0760, 301715.0
945.1950, 301122.0
946.3150, 300857.0
947.4340, 300653.0
948.5530, 299563.0
949.6720, 299132.0
950.7900, 299065.0
951.9090, 297853.0
953.0270, 297160.0
954.1460, 296708.0
955.2640, 295975.0
956.3820, 295432.0
957.4990, 295714.0
958.6170, 295179.0
959.7340, 294571.0
960.8520, 294512.0
961.9690, 292873.0
963.0860, 292883.0
964.2020, 291946.0
965.3190, 291024.0
966.4350, 290830.0
967.5520, 290312.0
968.6680, 290038.0
969.7840, 289496.0
970.8990, 289226.0
972.0150, 288045.0
973.1310, 288164.0
974.2460, 287225.0
975.3610, 285942.0
976.4760, 286746.0
977.5910, 285274.0
978.7050, 285140.0
979.8200, 284677.0
980.9340, 283397.0
982.0480, 283418.0
983.1620, 282496.0
984.2760, 282652.0
985.3900, 281922.0
986.5030, 281523.0
987.6160, 280664.0
988.7300, 280295.0
989.8430, 279773.0
990.9550, 280162.0
992.0680, 279466.0
993.1810, 278700.1
994.2930, 277516.0
995.4050, 276862.0
996.5170, 276321.0
997.6290, 275830.0
998.7410, 275126.0
999.8520, 274928.0
1000.964, 274522.3
1002.075, 274086.0
1003.186, 273953.0
1004.297, 273331.0
1005.407, 272873.0
1006.518, 272327.0
1007.628, 271789.6
1008.738, 270586.0
1009.848, 270630.0
1010.958, 270136.0
1012.068, 269325.0
1013.178, 269603.0
1014.287, 267968.0
1015.396, 267428.0
1016.505, 267719.0
1017.614, 267058.0
1018.723, 266354.1
1019.831, 265676.0
1020.940, 264516.0
1022.048, 264409.0
1023.156, 263497.0
1024.264, 263246.0
1025.372, 262500.0
1026.479, 261424.0
1027.587, 261375.0
1028.694, 261037.0
1029.801, 260354.0
1030.908, 260955.0
1032.015, 259394.0
1033.121, 258741.0
1034.228, 256795.0
1035.334, 257475.0
1036.440, 257377.0
1037.546, 256351.0
1038.652, 256525.0
1039.758, 256230.0
1040.863, 255390.0
1041.968, 255183.0
1043.074, 254190.0
1044.178, 253621.0
1045.283, 253486.0
1046.388, 252238.0
1047.492, 252349.0
1048.597, 252569.0
1049.701, 251208.0
1050.805, 250588.0
1051.909, 250950.0
1053.012, 249023.0
1054.116, 249583.0
1055.219, 249111.0
1056.322, 248407.0
1057.425, 247947.0
1058.528, 247395.0
1059.631, 246954.0
1060.733, 246509.0
1061.836, 246141.0
1062.938, 246039.0
1064.040, 245804.0
1065.142, 245213.0
1066.243, 244624.0
1067.345, 244432.0
1068.446, 242852.0
1069.547, 242151.0
1070.648, 241814.0
1071.749, 241646.0
1072.850, 241202.0
1073.951, 241441.0
1075.051, 240802.0
1076.151, 240544.0
1077.251, 239914.0
1078.351, 239641.0
1079.451, 239747.0
1080.550, 238820.0
1081.650, 238256.0
1082.749, 238371.0
1083.848, 238008.0
1084.947, 237276.0
1086.046, 236661.0
1087.144, 236198.2
1088.243, 235956.0
1089.341, 235337.0
1090.439, 234411.0
1091.537, 234278.0
1092.635, 234311.0
1093.732, 234451.0
1094.830, 233325.0
1095.927, 232476.0
1097.024, 232989.0
1098.121, 232456.0
1099.218, 230889.0
1100.314, 231862.0
1101.411, 230859.0
1102.507, 230436.0
1103.603, 230043.0
1104.699, 230050.0
1105.795, 229329.0
1106.890, 228794.0
1107.986, 228672.0
1109.081, 227575.0
1110.176, 227322.0
1111.271, 227057.0
1112.366, 227042.0
1113.461, 226130.0
1114.555, 225994.0
1115.649, 224833.0
1116.744, 224859.0
1117.838, 224107.0
1118.931, 224428.0
1120.025, 223901.0
1121.119, 223076.0
1122.212, 222514.0
1123.305, 222207.0
1124.398, 222181.0
1125.491, 222320.0
1126.584, 221087.0
1127.676, 221167.0
1128.768, 219616.0
1129.861, 219724.0
1130.953, 219322.0
1132.044, 218683.0
1133.136, 218000.0
1134.228, 217468.0
1135.319, 217118.0
1136.410, 216982.0
1137.501, 216502.0
1138.592, 216069.0
1139.683, 215641.0
1140.773, 214630.0
1141.864, 215073.0
1142.954, 214194.0
1144.044, 213492.0
1145.134, 213688.0
1146.224, 212942.0
1147.313, 212917.0
1148.402, 212153.0
1149.492, 212688.0
1150.581, 211909.0
1151.670, 211746.0
1152.758, 211368.0
1153.847, 210776.0
1154.935, 210789.0
1156.024, 209531.0
1157.112, 210104.0
1158.200, 208155.0
1159.287, 208427.0
1160.375, 207384.0
1161.462, 207539.0
1162.550, 207153.0
1163.637, 206367.0
1164.724, 206248.0
1165.810, 206210.0
1166.897, 204966.0
1167.983, 205113.0
1169.070, 204037.0
1170.156, 204395.0
1171.242, 204034.0
1172.327, 203580.0
1173.413, 203103.0
1174.499, 202828.0
1175.584, 202353.2
1176.669, 202130.0
1177.754, 201651.0
1178.839, 201083.0
1179.923, 200959.0
1181.008, 200125.0
1182.092, 199728.0
1183.176, 199527.0
1184.260, 199242.0
1185.344, 198610.0
1186.428, 197946.0
1187.511, 197890.0
1188.595, 197596.0
1189.678, 196876.0
1190.761, 196447.0
1191.843, 196157.0
1192.926, 195667.0
1194.009, 195127.0
1195.091, 195159.0
1196.173, 194691.0
1197.255, 194030.0
1198.337, 193975.0
1199.419, 193201.0
1200.500, 193559.0
1201.582, 193570.0
1202.663, 192545.0
1203.744, 192459.0
1204.825, 192355.0
1205.905, 191188.0
1206.986, 191172.0
1208.066, 190355.0
1209.146, 190765.0
1210.226, 190450.0
1211.306, 189823.0
1212.386, 189557.0
1213.466, 188601.0
1214.545, 188711.0
1215.624, 188612.0
1216.703, 187166.0
1217.782, 187271.0
1218.861, 186946.0
1219.939, 187204.0
1221.018, 186865.0
1222.096, 186373.0
1223.174, 185948.0
1224.252, 185572.0
1225.330, 184834.0
1226.407, 184894.0
1227.485, 184320.0
1228.562, 184376.0
1229.639, 183914.5
1230.716, 184145.0
1231.793, 183159.0
1232.869, 182404.0
1233.946, 182202.0
1235.022, 181796.0
1236.098, 182012.0
1237.174, 180974.0
1238.250, 180740.0
1239.325, 180229.0
1240.401, 180525.0
1241.476, 179592.0
1242.551, 179092.0
1243.626, 179247.0
1244.701, 178574.0
1245.776, 178587.0
1246.850, 178465.0
1247.924, 177023.0
1248.999, 176841.0
1250.073, 176942.0
1251.146, 176225.0
1252.220, 175873.0
1253.293, 175664.0
1254.367, 175073.0
1255.440, 174910.0
1256.513, 174831.0
1257.586, 174042.0
1258.658, 174045.0
1259.731, 173703.0
