##NAMES=Spinel
##RRUFFID=R060799
##IDEAL CHEMISTRY=MgAl_2_O_4_
##LOCALITY=Aliabad, Hunza Valley, Pakistan
##OWNER=RRUFF
##SOURCE=Marcus Origlieri
##DESCRIPTION=A group of blue distorted octahedra
##STATUS=The identification of this mineral is confirmed by single-crystal X-ray diffraction and chemical analysis.
##URL=rruff.info/R060799
##MEASURED CHEMISTRY=(Mg_0.97_Fe^2+^_0.03_)_1.00_Al_2.00_O_4_
##PIN_ID=L01579
##ORIENTATION=Laser parallel to a* (1 0 0). Fiducial mark perpendicular to laser is parallel to c [0 0 1]
75.95700, 122258.0
77.19600, 121602.0
78.43500, 121473.0
79.67300, 121344.0
80.91200, 121540.0
82.15000, 121747.0
83.38800, 121733.0
84.62600, 121911.0
85.86300, 121795.0
87.10100, 121501.0
88.33800, 121326.0
89.57500, 121444.0
90.81200, 121359.0
92.04900, 121594.0
93.28600, 121618.0
94.52300, 121328.0
95.75900, 121107.0
96.99500, 120664.0
98.23100, 121156.0
99.46700, 120704.0
100.7030, 120798.0
101.9390, 121372.0
103.1740, 121702.0
104.4090, 121823.0
105.6440, 121545.0
106.8790, 121346.0
108.1140, 120559.0
109.3490, 119984.0
110.5830, 120058.0
111.8180, 119603.0
113.0520, 119707.0
114.2860, 119728.0
115.5200, 119880.0
116.7530, 119559.0
117.9870, 119110.0
119.2200, 119232.0
120.4530, 119395.0
121.6860, 118665.0
122.9190, 119328.0
124.1520, 119383.0
125.3850, 118834.0
126.6170, 118700.0
127.8490, 119020.0
129.0810, 118467.0
130.3130, 118764.0
131.5450, 118351.0
132.7770, 118411.0
134.0080, 118363.0
135.2390, 118226.0
136.4710, 118286.0
137.7020, 118496.0
138.9320, 117769.0
140.1630, 118638.0
141.3930, 117950.0
142.6240, 117938.0
143.8540, 117787.0
145.0840, 117757.0
146.3140, 117690.0
147.5440, 117510.0
148.7730, 117492.0
150.0020, 116887.0
151.2320, 117108.0
152.4610, 117014.0
153.6900, 116460.0
154.9180, 117004.0
156.1470, 116634.0
157.3750, 116897.0
158.6040, 116145.0
159.8320, 116117.0
161.0600, 116093.0
162.2870, 115719.0
163.5150, 115784.0
164.7420, 115358.0
165.9700, 115523.0
167.1970, 115331.0
168.4240, 115456.0
169.6510, 115387.3
170.8770, 115097.0
172.1040, 115102.0
173.3300, 114777.0
174.5560, 114750.2
175.7820, 114693.0
177.0080, 114559.0
178.2340, 114417.0
179.4590, 114138.0
180.6850, 113998.6
181.9100, 113870.6
183.1350, 113721.0
184.3600, 113687.0
185.5850, 113791.0
186.8090, 113764.0
188.0340, 113361.0
189.2580, 113534.0
190.4820, 113170.0
191.7060, 113366.0
192.9300, 113344.0
194.1530, 113629.0
195.3770, 113338.0
196.6000, 113041.0
197.8230, 112836.0
199.0460, 112981.0
200.2690, 112693.8
201.4910, 112369.0
202.7140, 112476.0
203.9360, 112212.0
205.1580, 112214.0
206.3800, 112189.0
207.6020, 112151.0
208.8240, 112137.0
210.0450, 111783.0
211.2670, 111802.0
212.4880, 111619.0
213.7090, 111809.0
214.9300, 111423.0
216.1510, 110838.0
217.3710, 110978.0
218.5920, 111007.0
219.8120, 110929.0
221.0320, 111010.0
222.2520, 110798.0
223.4720, 110717.0
224.6910, 110924.0
225.9110, 110502.0
227.1300, 110278.0
228.3490, 109845.0
229.5680, 110127.0
230.7870, 109978.0
232.0050, 109714.0
233.2240, 109361.0
234.4420, 109628.0
235.6600, 109356.0
236.8780, 109382.0
238.0960, 109583.0
239.3140, 109308.0
240.5310, 109609.0
241.7490, 109015.0
242.9660, 108730.0
244.1830, 108600.0
245.4000, 108523.0
246.6160, 108307.0
247.8330, 108524.0
249.0490, 108318.0
250.2660, 108441.0
251.4820, 108257.0
252.6980, 108210.0
253.9130, 108111.0
255.1290, 108202.0
256.3440, 108419.0
257.5600, 107811.0
258.7750, 107424.0
259.9900, 107563.0
261.2040, 107399.0
262.4190, 107754.0
263.6330, 107455.0
264.8480, 107205.0
266.0620, 106937.0
267.2760, 106866.0
268.4900, 106683.0
269.7030, 106680.0
270.9170, 106582.0
272.1300, 106583.0
273.3430, 106441.0
274.5560, 106159.0
275.7690, 105889.0
276.9820, 105804.0
278.1940, 105679.1
279.4070, 105569.3
280.6190, 105584.0
281.8310, 105579.0
283.0430, 105476.0
284.2550, 105781.0
285.4660, 105423.0
286.6770, 105043.0
287.8890, 105415.0
289.1000, 105058.0
290.3110, 105112.0
291.5210, 105100.0
292.7320, 105000.0
293.9420, 104966.1
295.1530, 104892.8
296.3630, 104807.0
297.5730, 104654.0
298.7830, 104619.0
299.9920, 104312.0
301.2020, 104384.0
302.4110, 104764.0
303.6200, 104460.0
304.8290, 104831.0
306.0380, 104251.0
307.2470, 104733.0
308.4550, 104904.0
309.6630, 104581.0
310.8720, 104571.0
312.0800, 104371.2
313.2880, 104420.0
314.4950, 104024.0
315.7030, 103758.0
316.9100, 103836.0
318.1170, 103163.0
319.3240, 103045.0
320.5310, 102316.0
321.7380, 102772.0
322.9450, 102033.0
324.1510, 102231.0
325.3570, 102047.0
326.5630, 102161.0
327.7690, 101964.0
328.9750, 101795.0
330.1810, 101936.0
331.3860, 101815.0
332.5910, 101795.0
333.7960, 101019.0
335.0010, 101106.0
336.2060, 100721.0
337.4110, 100767.0
338.6150, 100889.0
339.8200, 101015.0
341.0240, 100500.0
342.2280, 100837.0
343.4320, 100652.0
344.6350, 100791.0
345.8390, 100398.0
347.0420, 100297.0
348.2450, 100307.0
349.4480, 100206.0
350.6510, 100143.0
351.8540, 100123.0
353.0560, 100031.0
354.2590, 100161.0
355.4610, 100209.0
356.6630, 100135.6
357.8650, 99990.00
359.0670, 100148.0
360.2680, 99939.00
361.4700, 100196.0
362.6710, 99610.00
363.8720, 99726.00
365.0730, 99756.28
366.2740, 99489.00
367.4740, 99883.00
368.6750, 99583.00
369.8750, 99512.00
371.0750, 99745.00
372.2750, 99458.00
373.4750, 99839.00
374.6740, 99715.00
375.8740, 99527.00
377.0730, 99559.00
378.2720, 99745.00
379.4710, 100129.0
380.6700, 100002.0
381.8690, 100221.0
383.0670, 100776.0
384.2660, 100659.0
385.4640, 101629.0
386.6620, 102238.0
387.8600, 102647.0
389.0570, 103862.0
390.2550, 105015.0
391.4520, 106550.0
392.6490, 108823.0
393.8460, 111831.0
395.0430, 116258.0
396.2400, 121785.0
397.4370, 128595.0
398.6330, 137318.0
399.8290, 148328.0
401.0250, 161908.0
402.2210, 176839.0
403.4170, 192022.0
404.6130, 206263.0
405.8080, 213470.0
407.0030, 209262.0
408.1980, 194091.0
409.3930, 174235.0
410.5880, 152898.0
411.7830, 136170.0
412.9770, 123970.0
414.1720, 116069.0
415.3660, 110072.0
416.5600, 106315.0
417.7530, 103239.0
418.9470, 101014.0
420.1410, 99784.00
421.3340, 98272.00
422.5270, 97493.00
423.7200, 96577.00
424.9130, 95897.00
426.1060, 95258.00
427.2980, 94658.00
428.4900, 94539.00
429.6830, 93813.00
430.8750, 93771.00
432.0670, 93207.00
433.2580, 93052.00
434.4500, 92593.00
435.6410, 92724.00
436.8320, 92409.00
438.0240, 92141.00
439.2140, 91837.00
440.4050, 91802.00
441.5960, 91552.00
442.7860, 91273.00
443.9760, 91699.00
445.1670, 91367.00
446.3560, 90901.00
447.5460, 91119.00
448.7360, 90658.00
449.9250, 90854.00
451.1150, 90573.00
452.3040, 90758.00
453.4930, 90341.00
454.6810, 89892.00
455.8700, 90102.00
457.0590, 89760.00
458.2470, 90107.00
459.4350, 89934.00
460.6230, 89628.00
461.8110, 89187.00
462.9980, 89388.00
464.1860, 89383.00
465.3730, 89083.00
466.5600, 89040.00
467.7470, 88876.00
468.9340, 88836.00
470.1210, 88404.00
471.3080, 88530.00
472.4940, 88189.00
473.6800, 88439.00
474.8660, 88272.00
476.0520, 87947.00
477.2380, 88389.00
478.4230, 87961.00
479.6090, 88143.00
480.7940, 87889.00
481.9790, 87419.00
483.1640, 87479.00
484.3490, 87349.00
485.5330, 87149.00
486.7180, 86994.00
487.9020, 87164.00
489.0860, 86781.00
490.2700, 86339.00
491.4540, 86596.00
492.6370, 86052.00
493.8210, 86368.00
495.0040, 86069.00
496.1870, 85786.00
497.3700, 85629.00
498.5530, 85411.76
499.7360, 85489.00
500.9180, 85139.00
502.1000, 85307.00
503.2830, 85286.00
504.4650, 85038.00
505.6460, 85186.00
506.8280, 85009.00
508.0100, 84924.77
509.1910, 84561.00
510.3720, 84609.00
511.5530, 84565.00
512.7340, 84172.00
513.9150, 84033.00
515.0950, 84149.00
516.2760, 84129.00
517.4560, 83760.00
518.6360, 83958.00
519.8160, 84140.00
520.9950, 83528.00
522.1750, 83665.00
523.3540, 83865.00
524.5340, 83630.00
525.7130, 82742.00
526.8920, 83182.00
528.0700, 82949.00
529.2490, 82789.00
530.4270, 82805.00
531.6060, 82701.00
532.7840, 82328.00
533.9620, 82478.00
535.1390, 82028.00
536.3170, 82269.00
537.4940, 82224.00
538.6720, 81914.00
539.8490, 81432.00
541.0260, 82094.00
542.2030, 81741.00
543.3790, 81849.00
544.5560, 81627.00
545.7320, 81259.00
546.9080, 81243.00
548.0840, 81253.00
549.2600, 81016.00
550.4360, 80878.00
551.6110, 80895.00
552.7860, 81154.00
553.9620, 80598.00
555.1370, 81222.00
556.3110, 80681.00
557.4860, 80381.00
558.6610, 80416.00
559.8350, 80129.00
561.0090, 79952.00
562.1830, 80012.00
563.3570, 79552.00
564.5310, 79792.00
565.7040, 79717.00
566.8780, 79149.00
568.0510, 79994.00
569.2240, 79371.00
570.3970, 79452.00
571.5700, 79253.00
572.7420, 79167.00
573.9150, 78902.00
575.0870, 78773.00
576.2590, 78748.00
577.4310, 78789.00
578.6030, 78803.00
579.7740, 78639.00
580.9460, 78499.00
582.1170, 78556.00
583.2880, 78330.00
584.4590, 78107.00
585.6300, 78154.00
586.8010, 77735.00
587.9710, 78107.00
589.1410, 77942.00
590.3110, 77401.00
591.4810, 77393.00
592.6510, 77518.00
593.8210, 77312.00
594.9900, 77554.00
596.1600, 77525.00
597.3290, 77542.00
598.4980, 77433.00
599.6670, 76585.00
600.8350, 77111.00
602.0040, 76780.00
603.1720, 76725.00
604.3400, 76904.00
605.5080, 76649.00
606.6760, 76754.00
607.8440, 76583.00
609.0120, 76481.00
610.1790, 76290.00
611.3460, 76202.24
612.5130, 76104.00
613.6800, 75949.00
614.8470, 75858.00
616.0130, 75600.00
617.1800, 75702.00
618.3460, 75425.00
619.5120, 75359.00
620.6780, 75324.00
621.8440, 75337.00
623.0090, 75048.00
624.1750, 74982.00
625.3400, 74859.00
626.5050, 75019.00
627.6700, 74698.00
628.8350, 74590.00
629.9990, 74495.00
631.1640, 74135.00
632.3280, 74516.00
633.4920, 74582.00
634.6560, 74075.00
635.8200, 73904.00
636.9840, 73956.00
638.1470, 73834.00
639.3100, 73866.00
640.4730, 73647.00
641.6360, 73442.00
642.7990, 73546.00
643.9620, 73461.00
645.1240, 73422.00
646.2870, 73427.00
647.4490, 72967.00
648.6110, 73226.00
649.7730, 73189.00
650.9340, 73309.00
652.0960, 73709.00
653.2570, 73858.00
654.4180, 74160.00
655.5790, 74323.00
656.7400, 74599.44
657.9010, 74873.00
659.0620, 75300.00
660.2220, 75749.00
661.3820, 76446.00
662.5420, 76641.00
663.7020, 76756.00
664.8620, 77119.00
666.0210, 76925.00
667.1810, 76216.00
668.3400, 75371.00
669.4990, 74722.00
670.6580, 74111.00
671.8170, 73323.62
672.9750, 72497.00
674.1340, 71997.00
675.2920, 71439.00
676.4500, 71056.00
677.6080, 70798.00
678.7660, 70392.62
679.9230, 70056.00
681.0810, 69870.00
682.2380, 69522.00
683.3950, 69438.00
684.5520, 69127.00
685.7090, 69033.00
686.8660, 68901.98
688.0220, 68748.00
689.1780, 68666.00
690.3340, 68773.00
691.4900, 68611.05
692.6460, 68439.00
693.8020, 68213.00
694.9570, 68226.00
696.1130, 68000.00
697.2680, 68274.00
698.4230, 68315.00
699.5780, 67528.00
700.7320, 67416.00
701.8870, 67736.00
703.0410, 67886.00
704.1950, 67496.00
705.3490, 67723.00
706.5030, 67434.00
707.6570, 67270.00
708.8110, 67040.00
709.9640, 66780.00
711.1170, 66746.00
712.2700, 66612.68
713.4230, 66625.00
714.5760, 66438.00
715.7280, 66247.00
716.8810, 65960.00
718.0330, 65684.00
719.1850, 65687.00
720.3370, 65391.00
721.4890, 65522.00
722.6400, 65339.00
723.7920, 65177.00
724.9430, 65283.00
726.0940, 64856.00
727.2450, 64602.00
728.3960, 65291.00
729.5460, 64874.00
730.6970, 64844.00
731.8470, 65176.00
732.9970, 64561.00
734.1470, 64741.00
735.2970, 64975.00
736.4460, 64837.00
737.5960, 64918.57
738.7450, 64668.00
739.8940, 64721.00
741.0430, 64749.00
742.1920, 64480.00
743.3410, 64897.00
744.4890, 64690.00
745.6370, 64966.00
746.7850, 65033.00
747.9330, 65278.00
749.0810, 65471.00
750.2290, 65546.00
751.3760, 66068.00
752.5240, 66280.00
753.6710, 67094.00
754.8180, 67412.00
755.9650, 68017.00
757.1110, 68731.00
758.2580, 69944.00
759.4040, 71292.00
760.5510, 72542.00
761.6970, 73690.00
762.8420, 75475.00
763.9880, 76547.00
765.1340, 77420.00
766.2790, 77996.00
767.4240, 77584.00
768.5690, 76825.00
769.7140, 75481.00
770.8590, 74035.00
772.0030, 72123.00
773.1480, 70047.00
774.2920, 68796.00
775.4360, 67414.00
776.5800, 66150.00
777.7240, 65024.00
778.8670, 64509.00
780.0110, 63762.00
781.1540, 63329.00
782.2970, 62645.00
783.4400, 62249.00
784.5830, 62098.00
785.7250, 61519.00
786.8680, 61528.00
788.0100, 61112.00
789.1520, 61045.00
790.2940, 60419.00
791.4360, 60130.00
792.5780, 60176.00
793.7190, 60030.00
794.8600, 59584.00
796.0010, 59482.00
797.1420, 58847.00
798.2830, 58987.00
799.4240, 59004.00
800.5640, 58896.00
801.7050, 58268.00
802.8450, 58564.00
803.9850, 58588.00
805.1250, 57950.00
806.2640, 58460.00
807.4040, 57921.00
808.5430, 57995.00
809.6820, 58103.00
810.8210, 58378.00
811.9600, 57941.00
813.0990, 57700.00
814.2370, 57687.00
815.3760, 57573.00
816.5140, 57870.00
817.6520, 57165.00
818.7900, 57123.00
819.9270, 56771.00
821.0650, 56948.00
822.2020, 56851.00
823.3390, 56737.00
824.4760, 56641.00
825.6130, 56541.00
826.7500, 56312.00
827.8870, 56409.00
829.0230, 56016.00
830.1590, 56155.00
831.2950, 56466.00
832.4310, 55924.00
833.5670, 55825.00
834.7030, 55590.00
835.8380, 55438.00
836.9730, 55211.00
838.1080, 55485.00
839.2430, 55243.00
840.3780, 55099.00
841.5130, 54861.00
842.6470, 54768.33
843.7810, 54826.00
844.9150, 54582.00
846.0490, 54638.00
847.1830, 54536.00
848.3170, 54547.00
849.4500, 54412.00
850.5830, 55186.00
851.7160, 54469.00
852.8490, 54417.00
853.9820, 53793.00
855.1150, 53496.00
856.2470, 53877.00
857.3800, 53570.00
858.5120, 53397.00
859.6440, 53432.00
860.7760, 53451.00
861.9070, 53172.00
863.0390, 53413.00
864.1700, 52985.00
865.3010, 53031.37
866.4320, 53627.00
867.5630, 52963.00
868.6940, 52838.00
869.8240, 52876.00
870.9540, 52499.00
872.0850, 52387.00
873.2150, 52213.00
874.3450, 52332.00
875.4740, 52268.00
876.6040, 52132.00
877.7330, 51967.00
878.8620, 51758.00
879.9910, 51819.00
881.1200, 51694.00
882.2490, 51454.00
883.3770, 51423.00
884.5060, 51545.00
885.6340, 51560.00
886.7620, 51310.00
887.8900, 51203.00
889.0180, 50983.00
890.1450, 50868.41
891.2730, 50970.00
892.4000, 50663.00
893.5270, 50729.00
894.6540, 50671.00
895.7810, 50535.00
896.9070, 50404.00
898.0340, 50499.00
899.1600, 50297.00
900.2860, 50313.00
901.4120, 50382.00
902.5380, 50288.00
903.6630, 50195.98
904.7890, 50260.00
905.9140, 50039.00
907.0390, 49738.00
908.1640, 49975.00
909.2890, 50021.00
910.4130, 49786.00
911.5380, 49532.00
912.6620, 49614.00
913.7860, 49414.00
914.9100, 49536.00
916.0340, 49486.00
917.1580, 48932.00
918.2810, 49116.00
919.4040, 48985.00
920.5280, 49035.00
921.6510, 48989.00
922.7730, 48776.00
923.8960, 48946.00
925.0180, 48619.00
926.1410, 48550.00
927.2630, 48386.00
928.3850, 48269.00
929.5070, 48308.00
930.6280, 47984.00
931.7500, 48311.00
932.8710, 47869.00
933.9920, 47954.00
935.1130, 47991.00
936.2340, 47497.00
937.3550, 47923.00
938.4760, 47639.00
939.5960, 47737.00
940.7160, 47523.00
941.8360, 47733.00
942.9560, 47414.00
944.0760, 47355.00
945.1950, 47085.00
946.3150, 46907.00
947.4340, 47068.00
948.5530, 46866.00
949.6720, 47090.00
950.7900, 46987.00
951.9090, 46417.00
953.0270, 46776.00
954.1460, 46468.00
955.2640, 46524.00
956.3820, 46572.00
957.4990, 46454.00
958.6170, 46361.00
959.7340, 46189.00
960.8520, 46347.00
961.9690, 46130.00
963.0860, 46414.00
964.2020, 46293.00
965.3190, 46115.00
966.4350, 46121.00
967.5520, 45953.17
968.6680, 45882.16
969.7840, 45731.00
970.8990, 45743.00
972.0150, 45670.00
973.1310, 45662.00
974.2460, 45441.00
975.3610, 45520.00
976.4760, 45279.00
977.5910, 45315.00
978.7050, 45361.00
979.8200, 45096.00
980.9340, 45203.00
982.0480, 45033.00
983.1620, 44928.55
984.2760, 44908.00
985.3900, 44687.00
986.5030, 44526.00
987.6160, 44353.48
988.7300, 44463.00
989.8430, 44238.00
990.9550, 44579.00
992.0680, 44746.00
993.1810, 44333.00
994.2930, 44496.00
995.4050, 44045.00
996.5170, 44323.00
997.6290, 44174.00
998.7410, 43956.00
999.8520, 43983.00
1000.964, 44037.00
1002.075, 44073.00
1003.186, 43972.00
1004.297, 43973.00
1005.407, 43833.00
1006.518, 43897.00
1007.628, 43678.00
1008.738, 43703.00
1009.848, 43549.24
1010.958, 43402.00
1012.068, 43301.00
1013.178, 43155.00
1014.287, 43140.00
1015.396, 43039.00
1016.505, 43028.00
1017.614, 43124.00
1018.723, 43200.00
1019.831, 42849.00
1020.940, 42848.00
1022.048, 42630.00
1023.156, 42600.00
1024.264, 42855.00
1025.372, 42526.00
1026.479, 42633.00
1027.587, 42528.00
1028.694, 42555.00
1029.801, 42474.00
1030.908, 42216.00
1032.015, 41866.00
1033.121, 42061.00
1034.228, 42109.00
1035.334, 41884.00
1036.440, 42100.00
1037.546, 41698.00
1038.652, 41619.00
1039.758, 41711.00
1040.863, 41686.00
1041.968, 41478.00
1043.074, 41683.00
1044.178, 41212.00
1045.283, 41641.00
1046.388, 41482.00
1047.492, 41388.00
1048.597, 40973.00
1049.701, 41252.00
1050.805, 41157.00
1051.909, 40993.00
1053.012, 41366.00
1054.116, 40899.00
1055.219, 40882.00
1056.322, 40994.00
1057.425, 40758.00
1058.528, 40795.00
1059.631, 40641.00
1060.733, 40722.00
1061.836, 40645.00
1062.938, 40586.00
1064.040, 40499.00
1065.142, 40195.00
1066.243, 40317.00
1067.345, 40361.00
1068.446, 40172.00
1069.547, 40365.00
1070.648, 40087.00
1071.749, 40132.00
1072.850, 39947.00
1073.951, 40121.00
1075.051, 39801.00
1076.151, 39867.00
1077.251, 39861.00
1078.351, 39743.00
1079.451, 39785.00
1080.550, 39838.00
1081.650, 39692.00
1082.749, 39582.00
1083.848, 39677.00
1084.947, 39682.00
1086.046, 39624.00
1087.144, 39507.00
1088.243, 39401.00
1089.341, 39380.41
1090.439, 39293.00
1091.537, 39287.00
1092.635, 39359.00
1093.732, 39223.00
1094.830, 39322.00
1095.927, 39261.00
1097.024, 39151.00
1098.121, 38930.00
1099.218, 39086.00
1100.314, 38909.00
1101.411, 38988.00
1102.507, 38789.00
1103.603, 38709.00
1104.699, 38983.00
1105.795, 38751.00
1106.890, 38504.00
1107.986, 38885.00
1109.081, 38437.00
1110.176, 38645.00
1111.271, 38454.00
1112.366, 38204.00
1113.461, 38323.00
1114.555, 38340.00
1115.649, 38198.00
1116.744, 37923.00
1117.838, 38250.00
1118.931, 38241.00
1120.025, 37954.00
1121.119, 38184.00
1122.212, 38023.00
1123.305, 37988.00
1124.398, 37817.00
1125.491, 37843.00
1126.584, 37889.00
1127.676, 37816.00
1128.768, 37783.00
1129.861, 37668.00
1130.953, 37645.00
1132.044, 37545.00
1133.136, 37553.00
1134.228, 37734.00
1135.319, 37506.00
1136.410, 37571.00
1137.501, 37314.00
1138.592, 37357.00
1139.683, 37284.00
1140.773, 37277.00
1141.864, 37403.00
1142.954, 37202.00
1144.044, 37233.00
1145.134, 37070.00
1146.224, 37108.00
1147.313, 37097.69
1148.402, 36978.00
1149.492, 37111.00
1150.581, 36965.00
1151.670, 36906.00
1152.758, 36725.00
1153.847, 36747.00
1154.935, 36468.00
1156.024, 36639.00
1157.112, 36691.00
1158.200, 36338.00
1159.287, 36636.00
1160.375, 36342.00
1161.462, 36699.00
1162.550, 36492.00
1163.637, 36179.00
1164.724, 36349.00
1165.810, 36197.00
1166.897, 35977.00
1167.983, 36140.00
1169.070, 35991.00
1170.156, 35952.00
1171.242, 36112.00
1172.327, 35785.00
1173.413, 35924.00
1174.499, 35840.00
1175.584, 35904.00
1176.669, 35806.00
1177.754, 35753.00
1178.839, 35758.00
1179.923, 35656.00
1181.008, 35788.00
1182.092, 35649.00
1183.176, 35648.00
1184.260, 35558.00
1185.344, 35613.00
1186.428, 35612.00
1187.511, 35316.00
1188.595, 35383.00
1189.678, 35315.00
1190.761, 35333.00
1191.843, 35409.00
1192.926, 35006.00
1194.009, 35440.00
1195.091, 35132.00
1196.173, 35269.00
1197.255, 35733.00
1198.337, 35161.00
1199.419, 34749.00
1200.500, 35064.00
1201.582, 35185.00
1202.663, 35183.00
1203.744, 34939.00
1204.825, 34944.00
1205.905, 34437.00
1206.986, 34724.00
1208.066, 34487.00
1209.146, 34508.00
1210.226, 34571.00
1211.306, 34486.00
1212.386, 34499.45
1213.466, 34578.00
1214.545, 34418.00
1215.624, 34483.00
1216.703, 34420.00
1217.782, 34433.00
1218.861, 34442.00
1219.939, 34126.00
1221.018, 34474.00
1222.096, 34419.00
1223.174, 33999.00
1224.252, 34101.00
1225.330, 34154.00
1226.407, 34121.00
1227.485, 33980.00
1228.562, 33971.00
1229.639, 33685.00
1230.716, 33997.00
1231.793, 33946.00
1232.869, 33734.00
1233.946, 33881.00
1235.022, 33694.00
1236.098, 33724.00
1237.174, 33742.00
1238.250, 33444.00
1239.325, 33648.00
1240.401, 33610.00
1241.476, 33397.00
1242.551, 33470.00
1243.626, 33332.00
1244.701, 33374.00
1245.776, 33230.00
1246.850, 33240.00
1247.924, 33322.00
1248.999, 33223.00
1250.073, 33166.00
1251.146, 33283.00
1252.220, 33009.00
1253.293, 33372.00
1254.367, 33094.00
1255.440, 32827.00
1256.513, 32972.00
1257.586, 32989.00
1258.658, 32978.00
1259.731, 32911.00
