##NAMES=Spinel
##RRUFFID=R060799
##IDEAL CHEMISTRY=MgAl_2_O_4_
##LOCALITY=Aliabad, Hunza Valley, Pakistan
##OWNER=RRUFF
##SOURCE=Marcus Origlieri
##DESCRIPTION=A group of blue distorted octahedra
##STATUS=The identification of this mineral is confirmed by single-crystal X-ray diffraction and chemical analysis.
##URL=rruff.info/R060799
##MEASURED CHEMISTRY=(Mg_0.97_Fe^2+^_0.03_)_1.00_Al_2.00_O_4_
##PIN_ID=L01579
##ORIENTATION=Laser parallel to a* (1 0 0). Fiducial mark perpendicular to laser is parallel to c [0 0 1]
75.95700, 126989.0
77.19600, 126564.0
78.43500, 127237.0
79.67300, 127153.0
80.91200, 127082.0
82.15000, 127471.0
83.38800, 127645.0
84.62600, 126962.0
85.86300, 127177.0
87.10100, 126958.0
88.33800, 126843.0
89.57500, 126332.0
90.81200, 127285.0
92.04900, 127440.0
93.28600, 126885.0
94.52300, 126620.0
95.75900, 127096.0
96.99500, 126397.0
98.23100, 125955.4
99.46700, 126565.0
100.7030, 126935.2
101.9390, 127075.3
103.1740, 126496.0
104.4090, 126692.8
105.6440, 126485.2
106.8790, 126197.2
108.1140, 126312.6
109.3490, 125495.0
110.5830, 125470.0
111.8180, 125495.0
113.0520, 125553.0
114.2860, 125648.0
115.5200, 125385.0
116.7530, 125475.0
117.9870, 125815.0
119.2200, 125936.0
120.4530, 124435.0
121.6860, 125271.0
122.9190, 124629.0
124.1520, 124410.0
125.3850, 124700.0
126.6170, 124652.0
127.8490, 124573.0
129.0810, 124700.0
130.3130, 124584.0
131.5450, 124466.0
132.7770, 124630.0
134.0080, 124250.0
135.2390, 124020.0
136.4710, 124200.0
137.7020, 124088.0
138.9320, 124427.0
140.1630, 124066.0
141.3930, 123600.0
142.6240, 123736.0
143.8540, 123732.0
145.0840, 123492.0
146.3140, 123300.0
147.5440, 123270.8
148.7730, 122920.0
150.0020, 123174.0
151.2320, 122984.0
152.4610, 122989.0
153.6900, 123220.0
154.9180, 122802.0
156.1470, 122565.0
157.3750, 122384.0
158.6040, 122464.0
159.8320, 122147.0
161.0600, 121992.0
162.2870, 122202.0
163.5150, 121795.0
164.7420, 121685.0
165.9700, 121276.0
167.1970, 120716.0
168.4240, 120997.0
169.6510, 121165.0
170.8770, 120902.0
172.1040, 121188.0
173.3300, 120787.0
174.5560, 120531.0
175.7820, 120410.0
177.0080, 120176.9
178.2340, 120117.8
179.4590, 120023.0
180.6850, 120043.0
181.9100, 120214.0
183.1350, 120239.0
184.3600, 119668.0
185.5850, 119650.0
186.8090, 119943.0
188.0340, 120121.0
189.2580, 119483.0
190.4820, 119125.0
191.7060, 119130.0
192.9300, 119141.0
194.1530, 118985.5
195.3770, 119434.0
196.6000, 118953.0
197.8230, 118979.0
199.0460, 119125.0
200.2690, 118602.0
201.4910, 118753.0
202.7140, 118912.0
203.9360, 118831.0
205.1580, 118699.2
206.3800, 118600.3
207.6020, 118235.0
208.8240, 118123.0
210.0450, 118000.0
211.2670, 117602.0
212.4880, 117544.0
213.7090, 117054.0
214.9300, 117058.0
216.1510, 117078.0
217.3710, 116956.0
218.5920, 116950.0
219.8120, 116831.0
221.0320, 116816.0
222.2520, 116526.0
223.4720, 116768.0
224.6910, 116286.0
225.9110, 116500.0
227.1300, 116131.0
228.3490, 115860.0
229.5680, 115841.0
230.7870, 115794.0
232.0050, 115831.0
233.2240, 115587.0
234.4420, 115398.0
235.6600, 115315.1
236.8780, 115329.0
238.0960, 115251.0
239.3140, 114850.0
240.5310, 115240.0
241.7490, 114788.0
242.9660, 114843.0
244.1830, 114397.0
245.4000, 114522.0
246.6160, 114326.0
247.8330, 114147.0
249.0490, 114537.0
250.2660, 114103.0
251.4820, 114363.0
252.6980, 114331.0
253.9130, 114295.0
255.1290, 114062.0
256.3440, 114248.0
257.5600, 113773.0
258.7750, 113535.0
259.9900, 113554.0
261.2040, 113731.0
262.4190, 113361.0
263.6330, 112820.0
264.8480, 113257.0
266.0620, 112922.0
267.2760, 112960.0
268.4900, 112380.0
269.7030, 112280.0
270.9170, 111967.0
272.1300, 112563.0
273.3430, 112332.0
274.5560, 112337.0
275.7690, 112449.0
276.9820, 111734.0
278.1940, 111463.7
279.4070, 111715.2
280.6190, 111794.3
281.8310, 111710.0
283.0430, 110973.1
284.2550, 111078.8
285.4660, 110847.0
286.6770, 110601.4
287.8890, 110843.0
289.1000, 110609.0
290.3110, 110395.0
291.5210, 110504.0
292.7320, 110471.4
293.9420, 110557.0
295.1530, 110738.0
296.3630, 110549.0
297.5730, 110728.0
298.7830, 110706.0
299.9920, 110227.0
301.2020, 109917.0
302.4110, 111132.0
303.6200, 110888.0
304.8290, 111324.0
306.0380, 111729.0
307.2470, 112227.0
308.4550, 112694.0
309.6630, 113598.0
310.8720, 114093.0
312.0800, 114193.0
313.2880, 114037.0
314.4950, 113515.0
315.7030, 112840.3
316.9100, 111283.0
318.1170, 110946.0
319.3240, 109661.0
320.5310, 108746.0
321.7380, 108747.0
322.9450, 108434.0
324.1510, 108408.0
325.3570, 107755.0
326.5630, 107897.0
327.7690, 107366.0
328.9750, 107422.0
330.1810, 107215.0
331.3860, 106810.0
332.5910, 106484.0
333.7960, 106748.0
335.0010, 106276.0
336.2060, 106709.0
337.4110, 106457.0
338.6150, 106458.0
339.8200, 106392.0
341.0240, 106205.5
342.2280, 106115.5
343.4320, 105965.0
344.6350, 105743.0
345.8390, 105747.0
347.0420, 105462.0
348.2450, 105198.0
349.4480, 105056.0
350.6510, 105340.0
351.8540, 104754.0
353.0560, 104881.0
354.2590, 104788.0
355.4610, 104592.0
356.6630, 104310.0
357.8650, 104672.0
359.0670, 104242.0
360.2680, 104318.0
361.4700, 103814.0
362.6710, 104185.0
363.8720, 103918.0
365.0730, 103770.0
366.2740, 103362.0
367.4740, 103209.0
368.6750, 103246.0
369.8750, 103387.0
371.0750, 102986.0
372.2750, 103308.0
373.4750, 103171.0
374.6740, 102824.0
375.8740, 102578.0
377.0730, 102625.0
378.2720, 102508.0
379.4710, 102404.0
380.6700, 102495.0
381.8690, 102077.0
383.0670, 102197.0
384.2660, 102146.0
385.4640, 102458.0
386.6620, 102248.0
387.8600, 102353.0
389.0570, 102441.0
390.2550, 102108.0
391.4520, 102642.0
392.6490, 102671.0
393.8460, 102906.0
395.0430, 103475.0
396.2400, 104335.0
397.4370, 105399.0
398.6330, 106719.1
399.8290, 108254.0
401.0250, 110108.0
402.2210, 111929.0
403.4170, 114261.0
404.6130, 116530.0
405.8080, 117047.0
407.0030, 116733.0
408.1980, 114116.0
409.3930, 111885.0
410.5880, 108896.0
411.7830, 105923.0
412.9770, 103406.0
414.1720, 102121.0
415.3660, 101360.0
416.5600, 100792.0
417.7530, 100337.0
418.9470, 99434.00
420.1410, 98940.00
421.3340, 98613.00
422.5270, 98409.00
423.7200, 98118.00
424.9130, 98312.00
426.1060, 98114.00
427.2980, 98053.00
428.4900, 97595.00
429.6830, 97814.00
430.8750, 97479.00
432.0670, 97304.00
433.2580, 97313.00
434.4500, 97100.00
435.6410, 96834.00
436.8320, 97410.00
438.0240, 96961.00
439.2140, 97001.00
440.4050, 96440.00
441.5960, 96609.00
442.7860, 96343.00
443.9760, 96418.00
445.1670, 96088.00
446.3560, 95652.00
447.5460, 96114.00
448.7360, 96089.00
449.9250, 95741.00
451.1150, 95555.00
452.3040, 95557.00
453.4930, 95292.00
454.6810, 95579.00
455.8700, 95245.00
457.0590, 95056.00
458.2470, 95312.00
459.4350, 95232.00
460.6230, 94362.00
461.8110, 95052.00
462.9980, 94243.00
464.1860, 94376.00
465.3730, 94568.00
466.5600, 94007.00
467.7470, 93671.00
468.9340, 94074.00
470.1210, 93781.00
471.3080, 93770.00
472.4940, 93401.00
473.6800, 93691.00
474.8660, 93338.00
476.0520, 93016.00
477.2380, 93180.00
478.4230, 92824.00
479.6090, 93176.00
480.7940, 92928.00
481.9790, 93240.00
483.1640, 92415.00
484.3490, 92593.00
485.5330, 92111.00
486.7180, 91677.00
487.9020, 92192.00
489.0860, 91861.00
490.2700, 91357.00
491.4540, 91770.00
492.6370, 91437.00
493.8210, 91624.00
495.0040, 91374.00
496.1870, 91018.00
497.3700, 91187.00
498.5530, 90891.00
499.7360, 90602.00
500.9180, 90495.00
502.1000, 90624.00
503.2830, 90660.00
504.4650, 90445.00
505.6460, 90107.00
506.8280, 90300.00
508.0100, 90051.00
509.1910, 89580.00
510.3720, 89865.00
511.5530, 89631.00
512.7340, 89745.00
513.9150, 89449.00
515.0950, 89386.00
516.2760, 89187.00
517.4560, 89188.00
518.6360, 89100.00
519.8160, 88918.00
520.9950, 88904.51
522.1750, 88991.00
523.3540, 88755.00
524.5340, 88825.00
525.7130, 88735.00
526.8920, 88481.00
528.0700, 88184.00
529.2490, 88047.00
530.4270, 87945.00
531.6060, 87904.00
532.7840, 87829.00
533.9620, 87728.00
535.1390, 87518.00
536.3170, 87552.00
537.4940, 87513.00
538.6720, 87113.00
539.8490, 87049.00
541.0260, 87018.00
542.2030, 86831.00
543.3790, 86740.00
544.5560, 86525.00
545.7320, 86363.89
546.9080, 86376.00
548.0840, 85931.00
549.2600, 86258.00
550.4360, 85945.00
551.6110, 86158.00
552.7860, 85915.00
553.9620, 85811.00
555.1370, 85779.00
556.3110, 85625.82
557.4860, 85453.00
558.6610, 85553.00
559.8350, 85210.00
561.0090, 85366.00
562.1830, 85192.00
563.3570, 85493.00
564.5310, 84733.00
565.7040, 84819.00
566.8780, 84763.00
568.0510, 84865.00
569.2240, 84659.00
570.3970, 84451.00
571.5700, 84331.00
572.7420, 84236.32
573.9150, 84047.00
575.0870, 84073.00
576.2590, 84073.00
577.4310, 83853.00
578.6030, 83823.00
579.7740, 83865.00
580.9460, 83735.00
582.1170, 83266.00
583.2880, 83768.00
584.4590, 83313.00
585.6300, 83584.00
586.8010, 82860.00
587.9710, 83183.00
589.1410, 82789.00
590.3110, 83131.00
591.4810, 82722.00
592.6510, 82707.00
593.8210, 82758.00
594.9900, 82603.00
596.1600, 82494.00
597.3290, 82503.00
598.4980, 82426.00
599.6670, 82292.00
600.8350, 82319.09
602.0040, 82250.00
603.1720, 82245.64
604.3400, 82088.00
605.5080, 81922.00
606.6760, 81734.00
607.8440, 81526.00
609.0120, 81843.00
610.1790, 81573.00
611.3460, 81903.00
612.5130, 81232.00
613.6800, 81320.00
614.8470, 81059.00
616.0130, 81046.00
617.1800, 80717.00
618.3460, 80564.00
619.5120, 80295.00
620.6780, 80099.00
621.8440, 80410.00
623.0090, 80277.00
624.1750, 80574.00
625.3400, 80241.00
626.5050, 79538.00
627.6700, 79791.00
628.8350, 79725.00
629.9990, 79586.00
631.1640, 79543.00
632.3280, 79484.00
633.4920, 79324.00
634.6560, 79383.00
635.8200, 79446.00
636.9840, 79102.00
638.1470, 79362.00
639.3100, 79152.00
640.4730, 79326.00
641.6360, 79244.00
642.7990, 78606.00
643.9620, 78896.00
645.1240, 78987.00
646.2870, 79179.00
647.4490, 79473.00
648.6110, 79543.00
649.7730, 79643.00
650.9340, 79986.00
652.0960, 80268.00
653.2570, 80805.00
654.4180, 81369.00
655.5790, 82427.00
656.7400, 83479.00
657.9010, 85366.00
659.0620, 86960.00
660.2220, 88130.00
661.3820, 90188.00
662.5420, 91470.00
663.7020, 92824.00
664.8620, 92944.00
666.0210, 92726.00
667.1810, 91568.00
668.3400, 89640.00
669.4990, 88433.00
670.6580, 86432.00
671.8170, 84444.00
672.9750, 82853.00
674.1340, 81794.00
675.2920, 80408.00
676.4500, 79623.00
677.6080, 78586.00
678.7660, 77599.00
679.9230, 76907.00
681.0810, 76307.00
682.2380, 76090.00
683.3950, 75244.00
684.5520, 75005.00
685.7090, 74767.00
686.8660, 74318.00
688.0220, 74009.00
689.1780, 73893.77
690.3340, 73677.45
691.4900, 73744.00
692.6460, 73472.00
693.8020, 73453.00
694.9570, 73285.00
696.1130, 73153.00
697.2680, 73022.40
698.4230, 72921.45
699.5780, 72716.00
700.7320, 72681.00
701.8870, 72577.00
703.0410, 72302.00
704.1950, 72404.00
705.3490, 72428.00
706.5030, 72204.00
707.6570, 72100.00
708.8110, 72049.00
709.9640, 71898.72
711.1170, 71925.00
712.2700, 71728.00
713.4230, 71687.00
714.5760, 71654.00
715.7280, 71353.00
716.8810, 71497.00
718.0330, 70735.00
719.1850, 70747.00
720.3370, 70451.00
721.4890, 70517.00
722.6400, 70344.70
723.7920, 69946.00
724.9430, 70138.00
726.0940, 69708.00
727.2450, 69673.00
728.3960, 70237.00
729.5460, 69379.00
730.6970, 69498.00
731.8470, 69728.00
732.9970, 69235.00
734.1470, 68950.00
735.2970, 68862.00
736.4460, 69209.00
737.5960, 68862.00
738.7450, 68924.00
739.8940, 69132.00
741.0430, 69165.00
742.1920, 69011.00
743.3410, 69477.00
744.4890, 69246.00
745.6370, 69488.00
746.7850, 69489.00
747.9330, 69926.00
749.0810, 70158.00
750.2290, 70088.00
751.3760, 70228.00
752.5240, 70690.00
753.6710, 71145.61
754.8180, 71989.00
755.9650, 72759.00
757.1110, 73444.00
758.2580, 74773.00
759.4040, 75966.00
760.5510, 77209.00
761.6970, 79170.00
762.8420, 80890.00
763.9880, 82111.00
765.1340, 83804.00
766.2790, 83893.00
767.4240, 84102.00
768.5690, 83266.00
769.7140, 81950.00
770.8590, 79833.00
772.0030, 77557.00
773.1480, 75761.00
774.2920, 74010.00
775.4360, 72368.00
776.5800, 70901.00
777.7240, 70195.00
778.8670, 69314.00
780.0110, 68361.00
781.1540, 67948.00
782.2970, 66971.00
783.4400, 66985.00
784.5830, 66222.00
785.7250, 65901.00
786.8680, 65710.00
788.0100, 65071.00
789.1520, 64886.00
790.2940, 64766.00
791.4360, 64382.00
792.5780, 63613.00
793.7190, 63289.00
794.8600, 63465.00
796.0010, 63433.00
797.1420, 63435.00
798.2830, 62943.00
799.4240, 62677.00
800.5640, 62871.00
801.7050, 62863.00
802.8450, 62615.00
803.9850, 62795.00
805.1250, 62532.00
806.2640, 62057.00
807.4040, 62088.00
808.5430, 62251.00
809.6820, 61751.00
810.8210, 61552.00
811.9600, 62029.00
813.0990, 61558.00
814.2370, 61610.00
815.3760, 61646.00
816.5140, 61291.00
817.6520, 61626.00
818.7900, 60983.00
819.9270, 60938.00
821.0650, 60686.00
822.2020, 60625.00
823.3390, 60676.00
824.4760, 60325.00
825.6130, 60434.00
826.7500, 60096.00
827.8870, 60013.58
829.0230, 60059.00
830.1590, 59856.00
831.2950, 59890.00
832.4310, 59995.00
833.5670, 59560.00
834.7030, 59799.00
835.8380, 59488.00
836.9730, 59537.00
838.1080, 58997.00
839.2430, 59341.00
840.3780, 59125.00
841.5130, 58616.00
842.6470, 58781.00
843.7810, 58534.00
844.9150, 58635.00
846.0490, 58675.00
847.1830, 58500.00
848.3170, 58367.00
849.4500, 58260.00
850.5830, 58058.00
851.7160, 58035.00
852.8490, 58145.00
853.9820, 57689.00
855.1150, 58096.00
856.2470, 57771.00
857.3800, 57283.00
858.5120, 57424.00
859.6440, 57278.00
860.7760, 57492.00
861.9070, 57276.00
863.0390, 57235.00
864.1700, 57007.00
865.3010, 56958.12
866.4320, 56706.00
867.5630, 56756.00
868.6940, 56717.00
869.8240, 56445.00
870.9540, 56565.00
872.0850, 56283.00
873.2150, 56110.00
874.3450, 55918.00
875.4740, 55930.00
876.6040, 55685.00
877.7330, 55883.00
878.8620, 55650.00
879.9910, 55580.00
881.1200, 55793.00
882.2490, 55117.00
883.3770, 55089.00
884.5060, 55095.00
885.6340, 55076.00
886.7620, 55052.00
887.8900, 55029.00
889.0180, 54646.00
890.1450, 54986.00
891.2730, 54566.00
892.4000, 54779.00
893.5270, 54483.00
894.6540, 54230.00
895.7810, 54339.00
896.9070, 53983.00
898.0340, 54121.00
899.1600, 53808.00
900.2860, 54021.00
901.4120, 53911.00
902.5380, 53632.00
903.6630, 53717.00
904.7890, 53542.00
905.9140, 53467.00
907.0390, 53465.00
908.1640, 53311.00
909.2890, 53328.00
910.4130, 53365.00
911.5380, 53259.00
912.6620, 53275.24
913.7860, 52770.00
914.9100, 53141.00
916.0340, 52989.00
917.1580, 52764.00
918.2810, 52991.00
919.4040, 52606.00
920.5280, 52407.00
921.6510, 52695.00
922.7730, 52339.00
923.8960, 52163.00
925.0180, 52033.00
926.1410, 51839.00
927.2630, 52014.00
928.3850, 51874.00
929.5070, 51720.00
930.6280, 51901.00
931.7500, 51572.00
932.8710, 51525.00
933.9920, 51688.00
935.1130, 51454.00
936.2340, 51322.00
937.3550, 51535.00
938.4760, 51203.00
939.5960, 50925.00
940.7160, 51091.00
941.8360, 51197.00
942.9560, 50950.00
944.0760, 50707.00
945.1950, 50623.00
946.3150, 50599.00
947.4340, 50595.00
948.5530, 50619.00
949.6720, 50512.00
950.7900, 50250.00
951.9090, 50490.00
953.0270, 50188.84
954.1460, 50294.00
955.2640, 49915.00
956.3820, 49917.00
957.4990, 49945.00
958.6170, 49869.00
959.7340, 49931.00
960.8520, 49819.00
961.9690, 49780.95
963.0860, 49722.00
964.2020, 49631.20
965.3190, 49537.67
966.4350, 49436.00
967.5520, 49176.00
968.6680, 49349.00
969.7840, 49032.00
970.8990, 49217.00
972.0150, 49001.00
973.1310, 49254.00
974.2460, 48935.00
975.3610, 48903.00
976.4760, 48904.00
977.5910, 48874.00
978.7050, 48324.00
979.8200, 48290.00
980.9340, 48621.00
982.0480, 48964.00
983.1620, 48786.00
984.2760, 48417.00
985.3900, 48392.00
986.5030, 48305.00
987.6160, 48235.00
988.7300, 48404.00
989.8430, 48326.85
990.9550, 48134.00
992.0680, 48347.00
993.1810, 48164.22
994.2930, 48131.73
995.4050, 48098.00
996.5170, 47867.00
997.6290, 47706.00
998.7410, 47852.00
999.8520, 47543.00
1000.964, 47663.00
1002.075, 47803.00
1003.186, 47459.00
1004.297, 47385.00
1005.407, 46957.00
1006.518, 47124.00
1007.628, 47111.00
1008.738, 46746.00
1009.848, 47230.00
1010.958, 47033.00
1012.068, 46565.00
1013.178, 46877.00
1014.287, 46841.00
1015.396, 46402.00
1016.505, 46389.00
1017.614, 46606.00
1018.723, 46039.00
1019.831, 46114.00
1020.940, 46176.00
1022.048, 45980.00
1023.156, 45943.00
1024.264, 46117.00
1025.372, 46017.00
1026.479, 45958.86
1027.587, 45798.00
1028.694, 45721.00
1029.801, 45620.00
1030.908, 45501.00
1032.015, 45361.00
1033.121, 45376.00
1034.228, 45136.00
1035.334, 45423.00
1036.440, 45259.00
1037.546, 45198.00
1038.652, 44995.00
1039.758, 44652.00
1040.863, 44990.00
1041.968, 45129.00
1043.074, 44933.00
1044.178, 44787.00
1045.283, 44708.00
1046.388, 44752.00
1047.492, 44511.00
1048.597, 44612.00
1049.701, 44679.00
1050.805, 44602.00
1051.909, 44343.00
1053.012, 44582.00
1054.116, 44468.00
1055.219, 44126.00
1056.322, 44151.00
1057.425, 44108.00
1058.528, 44125.00
1059.631, 43963.00
1060.733, 43966.00
1061.836, 44105.00
1062.938, 43870.00
1064.040, 44044.00
1065.142, 44087.00
1066.243, 43427.00
1067.345, 43716.00
1068.446, 43340.00
1069.547, 43618.00
1070.648, 43440.00
1071.749, 43359.00
1072.850, 43107.00
1073.951, 43171.00
1075.051, 43231.00
1076.151, 43126.00
1077.251, 43088.00
1078.351, 43064.61
1079.451, 42993.62
1080.550, 42959.00
1081.650, 42902.78
1082.749, 42808.00
1083.848, 42767.00
1084.947, 42823.00
1086.046, 42733.98
1087.144, 42753.00
1088.243, 42663.00
1089.341, 42442.00
1090.439, 42416.00
1091.537, 42614.00
1092.635, 42741.00
1093.732, 42569.00
1094.830, 42415.00
1095.927, 42505.00
1097.024, 42505.00
1098.121, 42273.00
1099.218, 42193.00
1100.314, 42003.00
1101.411, 42143.00
1102.507, 42236.00
1103.603, 41804.00
1104.699, 42145.00
1105.795, 41859.00
1106.890, 41865.00
1107.986, 41874.00
1109.081, 41900.00
1110.176, 41934.00
1111.271, 41739.00
1112.366, 41658.00
1113.461, 41690.00
1114.555, 41631.00
1115.649, 41569.00
1116.744, 41547.26
1117.838, 41568.00
1118.931, 41435.00
1120.025, 41351.00
1121.119, 41259.00
1122.212, 41401.00
1123.305, 41217.00
1124.398, 41153.00
1125.491, 41231.00
1126.584, 41113.00
1127.676, 41032.00
1128.768, 41039.68
1129.861, 41113.00
1130.953, 40942.00
1132.044, 41008.00
1133.136, 40878.00
1134.228, 40848.00
1135.319, 40403.00
1136.410, 40701.00
1137.501, 40505.00
1138.592, 40539.00
1139.683, 40783.00
1140.773, 40554.00
1141.864, 40390.00
1142.954, 40250.00
1144.044, 40340.00
1145.134, 40262.00
1146.224, 40060.00
1147.313, 40294.00
1148.402, 40019.00
1149.492, 40208.00
1150.581, 40009.00
1151.670, 40097.00
1152.758, 39872.00
1153.847, 40036.00
1154.935, 39987.00
1156.024, 39779.00
1157.112, 39834.00
1158.200, 39663.00
1159.287, 39823.00
1160.375, 39320.00
1161.462, 39411.00
1162.550, 39382.00
1163.637, 39428.00
1164.724, 39657.00
1165.810, 39437.00
1166.897, 39531.00
1167.983, 39378.00
1169.070, 39119.00
1170.156, 39351.00
1171.242, 38931.00
1172.327, 38936.00
1173.413, 39132.00
1174.499, 39325.00
1175.584, 38969.00
1176.669, 38781.00
1177.754, 38722.00
1178.839, 38635.30
1179.923, 38760.00
1181.008, 38808.00
1182.092, 38681.00
1183.176, 38996.00
1184.260, 38695.00
1185.344, 38574.00
1186.428, 38475.00
1187.511, 38586.00
1188.595, 38614.00
1189.678, 38162.00
1190.761, 38655.00
1191.843, 38304.00
1192.926, 38586.00
1194.009, 38289.00
1195.091, 38563.00
1196.173, 38391.00
1197.255, 38295.00
1198.337, 38336.00
1199.419, 38258.00
1200.500, 38487.00
1201.582, 38265.00
1202.663, 38217.00
1203.744, 37841.00
1204.825, 38198.00
1205.905, 38018.00
1206.986, 37798.00
1208.066, 37803.00
1209.146, 37733.00
1210.226, 37634.00
1211.306, 37752.00
1212.386, 37617.37
1213.466, 37569.00
1214.545, 37551.00
1215.624, 37435.00
1216.703, 37549.00
1217.782, 37565.00
1218.861, 37684.00
1219.939, 37463.00
1221.018, 37470.00
1222.096, 37610.00
1223.174, 37416.00
1224.252, 37481.51
1225.330, 37274.00
1226.407, 37398.00
1227.485, 37332.00
1228.562, 37207.00
1229.639, 37009.00
1230.716, 37223.00
1231.793, 37075.00
1232.869, 36750.00
1233.946, 37188.00
1235.022, 37068.00
1236.098, 37015.00
1237.174, 36724.00
1238.250, 37080.00
1239.325, 36545.00
1240.401, 36925.00
1241.476, 36499.00
1242.551, 36427.00
1243.626, 36643.00
1244.701, 36713.00
1245.776, 36499.00
1246.850, 36455.00
1247.924, 36402.00
1248.999, 36325.00
1250.073, 36171.00
1251.146, 36198.00
1252.220, 36130.00
1253.293, 36252.00
1254.367, 36363.00
1255.440, 36327.00
1256.513, 36061.00
1257.586, 36106.00
1258.658, 35955.00
1259.731, 36101.00
