##NAMES=Spinel
##RRUFFID=R050184
##IDEAL CHEMISTRY=MgAl_2_O_4_
##LOCALITY=Pein Pyit, Mogok, Burma
##OWNER=RRUFF
##SOURCE=Marcus Origlieri
##DESCRIPTION=Red crystal in calcite, associated with yellowish-green clinohumite, R050183
##STATUS=The identification of this mineral has been confirmed by X-ray diffraction and chemical analysis
##URL=rruff.info/R050184
##MEASURED CHEMISTRY=Mg_1.00_(Al_1.99_Cr_0.01_)_Î£=2_O_4_; trace amounts of V
##PIN_ID=L00212
##ORIENTATION=Laser parallel to -b* (0 -1 0). Fiducial mark perpendicular to laser is parallel to c [0 0 1]
111.8550, 41188.00
113.0940, 41160.90
114.3320, 41604.25
115.5700, 41849.14
116.8080, 41906.25
118.0460, 41213.14
119.2830, 41488.79
120.5210, 41376.20
121.7580, 41247.70
122.9950, 41659.70
124.2320, 41075.71
125.4690, 41479.14
126.7050, 41488.42
127.9410, 41678.10
129.1780, 41477.13
130.4140, 41396.83
131.6490, 41707.30
132.8850, 41801.39
134.1200, 41555.47
135.3560, 41756.62
136.5910, 41159.00
137.8260, 41262.32
139.0610, 41668.05
140.2950, 41441.79
141.5290, 41650.10
142.7640, 41692.89
143.9980, 41646.00
145.2320, 41345.00
146.4650, 41615.00
147.6990, 41771.00
148.9320, 41755.00
150.1650, 41799.00
151.3980, 41642.00
152.6310, 41702.00
153.8640, 41727.00
155.0960, 41681.00
156.3280, 41906.00
157.5600, 41615.00
158.7920, 41868.00
160.0240, 41818.00
161.2560, 41651.00
162.4870, 41862.00
163.7180, 41651.00
164.9490, 41494.00
166.1800, 41660.00
167.4110, 41726.00
168.6410, 41444.00
169.8720, 41758.00
171.1020, 41762.00
172.3320, 41584.00
173.5620, 41828.00
174.7910, 41799.00
176.0210, 41529.00
177.2500, 41908.00
178.4790, 41492.00
179.7080, 41964.00
180.9370, 41388.00
182.1650, 42170.00
183.3940, 41580.00
184.6220, 41809.00
185.8500, 41854.00
187.0780, 41593.00
188.3050, 41955.00
189.5330, 41905.00
190.7600, 41648.00
191.9870, 41807.00
193.2140, 41670.00
194.4410, 41676.00
195.6680, 41719.00
196.8940, 41814.00
198.1200, 42047.00
199.3470, 42016.00
200.5720, 41771.00
201.7980, 41803.00
203.0240, 42043.00
204.2490, 41594.00
205.4740, 41810.00
206.6990, 41490.00
207.9240, 42019.00
209.1490, 41701.00
210.3740, 41816.00
211.5980, 42176.00
212.8220, 41787.00
214.0460, 41836.00
215.2700, 41538.00
216.4930, 41911.00
217.7170, 41680.00
218.9400, 41989.00
220.1630, 41974.00
221.3860, 41810.00
222.6090, 41864.00
223.8320, 41978.00
225.0540, 41831.00
226.2760, 41829.00
227.4980, 41853.85
228.7200, 41575.00
229.9420, 41842.00
231.1630, 41845.00
232.3850, 41756.00
233.6060, 41954.00
234.8270, 41646.00
236.0480, 41917.00
237.2690, 41919.00
238.4890, 41794.00
239.7090, 42024.00
240.9290, 41697.00
242.1490, 41742.00
243.3690, 41698.00
244.5890, 41797.00
245.8080, 41745.00
247.0270, 41785.00
248.2470, 41782.00
249.4650, 41895.00
250.6840, 41652.00
251.9030, 41708.00
253.1210, 41935.00
254.3390, 41515.00
255.5570, 41793.00
256.7750, 41619.00
257.9930, 41701.00
259.2100, 41822.00
260.4280, 41849.00
261.6450, 41821.22
262.8620, 41650.00
264.0790, 41709.00
265.2950, 41707.00
266.5120, 41709.00
267.7280, 41711.52
268.9440, 41754.00
270.1600, 41776.00
271.3760, 41633.00
272.5920, 41860.00
273.8070, 41527.00
275.0220, 41709.00
276.2370, 41794.00
277.4520, 42028.00
278.6670, 42027.00
279.8820, 41851.00
281.0960, 41786.00
282.3100, 41930.00
283.5240, 41906.00
284.7380, 41739.00
285.9520, 41618.00
287.1650, 42009.00
288.3780, 41807.00
289.5920, 41685.00
290.8050, 41957.00
292.0170, 41829.00
293.2300, 42013.00
294.4430, 41709.00
295.6550, 41904.00
296.8670, 41769.00
298.0790, 41899.00
299.2910, 42053.00
300.5020, 42145.00
301.7140, 41927.00
302.9250, 42105.00
304.1360, 41974.00
305.3470, 42212.00
306.5580, 42067.00
307.7680, 42197.00
308.9780, 42406.00
310.1890, 42620.28
311.3990, 42960.52
312.6090, 43169.08
313.8180, 43247.37
315.0280, 43120.50
316.2370, 43017.73
317.4460, 42758.15
318.6550, 42505.00
319.8640, 42071.00
321.0730, 42096.00
322.2810, 41648.00
323.4890, 41897.00
324.6980, 41900.00
325.9060, 41636.00
327.1130, 41663.00
328.3210, 41551.00
329.5280, 41777.00
330.7360, 41685.00
331.9430, 41812.00
333.1500, 41815.50
334.3560, 41798.00
335.5630, 41798.00
336.7690, 41708.00
337.9760, 41695.00
339.1820, 41835.00
340.3870, 41921.00
341.5930, 41855.00
342.7990, 41669.00
344.0040, 41902.00
345.2090, 41813.00
346.4140, 41600.00
347.6190, 41751.00
348.8240, 41814.00
350.0280, 41475.00
351.2330, 41829.00
352.4370, 41790.00
353.6410, 41852.00
354.8440, 41814.00
356.0480, 41772.00
357.2520, 41757.00
358.4550, 41780.28
359.6580, 41784.75
360.8610, 41803.62
362.0640, 41833.00
363.2660, 41858.00
364.4690, 41856.00
365.6710, 41894.00
366.8730, 41919.27
368.0750, 41839.00
369.2770, 41921.91
370.4780, 42028.00
371.6800, 41893.00
372.8810, 42007.24
374.0820, 41953.00
375.2830, 42051.00
376.4830, 41945.00
377.6840, 41904.00
378.8840, 42046.00
380.0840, 41969.00
381.2840, 41826.00
382.4840, 42145.00
383.6840, 41996.00
384.8830, 42023.00
386.0830, 41953.00
387.2820, 42104.00
388.4810, 42358.00
389.6800, 42245.00
390.8780, 42145.00
392.0770, 42629.00
393.2750, 42517.00
394.4730, 42674.00
395.6710, 43192.00
396.8690, 43304.00
398.0660, 43718.00
399.2640, 44098.00
400.4610, 44750.00
401.6580, 45458.00
402.8550, 46371.00
404.0520, 47130.00
405.2490, 48488.00
406.4450, 49105.00
407.6410, 49548.00
408.8370, 49104.00
410.0330, 47931.00
411.2290, 46625.00
412.4240, 45783.00
413.6200, 44771.00
414.8150, 43850.00
416.0100, 43572.00
417.2050, 43003.00
418.4000, 42754.00
419.5940, 42712.00
420.7880, 42423.00
421.9830, 42249.00
423.1770, 42310.00
424.3700, 42057.00
425.5640, 42151.00
426.7580, 41953.00
427.9510, 41938.00
429.1440, 42013.00
430.3370, 41765.00
431.5300, 41536.00
432.7220, 41493.00
433.9150, 41721.00
435.1070, 41836.00
436.2990, 41649.00
437.4910, 41715.00
438.6830, 41545.00
439.8750, 41351.00
441.0660, 41287.00
442.2570, 41633.00
443.4480, 41561.00
444.6390, 41416.00
445.8300, 41709.00
447.0210, 41598.00
448.2110, 41294.00
449.4010, 41428.00
450.5910, 41472.00
451.7810, 41590.00
452.9710, 41513.00
454.1610, 41648.00
455.3500, 41362.00
456.5390, 41236.00
457.7280, 41425.00
458.9170, 41211.00
460.1060, 41357.00
461.2940, 41208.00
462.4830, 41188.19
463.6710, 41144.00
464.8590, 41144.00
466.0470, 41286.00
467.2350, 41312.00
468.4220, 41055.00
469.6090, 41256.00
470.7970, 41221.00
471.9840, 41171.00
473.1700, 41294.00
474.3570, 41190.00
475.5440, 41199.00
476.7300, 41106.00
477.9160, 41447.00
479.1020, 41287.00
480.2880, 41553.00
481.4740, 41015.00
482.6590, 41293.00
483.8440, 41252.00
485.0300, 41183.00
486.2140, 41454.00
487.3990, 41305.00
488.5840, 41288.00
489.7680, 41096.00
490.9530, 41158.00
492.1370, 41300.00
493.3210, 41166.00
494.5040, 41343.00
495.6880, 41184.00
496.8720, 41072.00
498.0550, 41358.00
499.2380, 41161.00
500.4210, 41333.00
501.6040, 41161.00
502.7860, 41280.00
503.9690, 41151.00
505.1510, 41054.00
506.3330, 41189.00
507.5150, 41044.00
508.6970, 40917.00
509.8780, 40921.00
511.0600, 40975.00
512.2410, 41242.00
513.4220, 41104.00
514.6030, 41308.00
515.7840, 41089.00
516.9640, 40929.00
518.1440, 41230.00
519.3250, 41153.00
520.5050, 40927.00
521.6850, 41024.00
522.8640, 41226.00
524.0440, 41265.00
525.2230, 41270.00
526.4020, 41405.00
527.5820, 41183.00
528.7600, 41111.00
529.9390, 41026.00
531.1180, 41280.00
532.2960, 40870.00
533.4740, 41529.00
534.6520, 40965.00
535.8300, 41154.00
537.0080, 41245.00
538.1850, 41205.00
539.3630, 41354.00
540.5400, 41260.00
541.7170, 41137.00
542.8940, 40820.00
544.0700, 41148.00
545.2470, 41162.00
546.4230, 40886.00
547.5990, 41244.00
548.7750, 41131.00
549.9510, 41022.00
551.1270, 40951.00
552.3020, 41218.00
553.4780, 41158.00
554.6530, 41273.00
555.8280, 41197.00
557.0030, 41096.00
558.1770, 41229.00
559.3520, 40801.00
560.5260, 41146.00
561.7000, 41312.00
562.8740, 40961.00
564.0480, 41149.00
565.2220, 40995.00
566.3950, 41159.00
567.5680, 41304.00
568.7420, 40970.00
569.9150, 41212.00
571.0870, 41133.00
572.2600, 41229.00
573.4320, 41172.00
574.6050, 41222.00
575.7770, 41218.06
576.9490, 41073.00
578.1210, 41171.00
579.2920, 41120.00
580.4640, 41029.00
581.6350, 41016.41
582.8060, 41273.00
583.9770, 40964.00
585.1480, 41085.00
586.3190, 41272.00
587.4890, 40973.00
588.6590, 41249.00
589.8290, 41392.00
590.9990, 41082.00
592.1690, 40969.00
593.3390, 41176.00
594.5080, 40946.00
595.6770, 41296.00
596.8470, 41063.00
598.0160, 41263.00
599.1840, 41141.00
600.3530, 41125.00
601.5210, 40989.00
602.6900, 41103.00
603.8580, 41097.00
605.0260, 41056.00
606.1930, 41108.00
607.3610, 41224.00
608.5280, 40913.00
609.6960, 41204.00
610.8630, 40984.00
612.0300, 41292.00
613.1970, 41168.00
614.3630, 41012.00
615.5300, 41181.00
616.6960, 41366.00
617.8620, 41178.00
619.0280, 41105.00
620.1940, 41228.00
621.3590, 41072.00
622.5250, 40976.00
623.6900, 41139.00
624.8550, 41020.29
626.0200, 41135.00
627.1850, 41075.00
628.3490, 41164.00
629.5140, 41341.00
630.6780, 41006.00
631.8420, 41215.00
633.0060, 41043.00
634.1700, 41157.00
635.3330, 41279.00
636.4970, 41314.00
637.6600, 41281.00
638.8230, 41047.00
639.9860, 41392.00
641.1490, 41305.00
642.3110, 41630.00
643.4740, 41439.00
644.6360, 41470.00
645.7980, 41311.00
646.9600, 41502.00
648.1220, 41831.00
649.2840, 41522.00
650.4450, 41754.00
651.6060, 42017.00
652.7670, 41879.00
653.9280, 41679.00
655.0890, 41939.00
656.2500, 42225.00
657.4100, 42418.00
658.5700, 42786.00
659.7300, 42871.00
660.8900, 43296.00
662.0500, 43464.00
663.2100, 43832.00
664.3690, 44303.00
665.5280, 44101.00
666.6880, 44234.00
667.8460, 44051.00
669.0050, 43776.00
670.1640, 43640.00
671.3220, 43177.00
672.4810, 43039.00
673.6390, 42623.00
674.7970, 42446.00
675.9540, 42217.00
677.1120, 42404.00
678.2690, 42309.00
679.4270, 41930.00
680.5840, 41631.00
681.7410, 41780.00
682.8980, 41578.00
684.0540, 41441.00
685.2110, 41494.00
686.3670, 41283.00
687.5230, 41438.00
688.6790, 41166.00
689.8350, 41369.00
690.9900, 41316.00
692.1460, 41250.00
693.3010, 40875.00
694.4560, 41149.00
695.6110, 41158.00
696.7660, 41547.00
697.9210, 41231.00
699.0750, 41427.00
700.2290, 41259.00
701.3840, 41201.00
702.5370, 41303.00
703.6910, 40877.00
704.8450, 41151.00
705.9980, 41610.00
707.1520, 41449.00
708.3050, 41637.00
709.4580, 41448.00
710.6110, 41142.00
711.7630, 41673.00
712.9160, 41682.00
714.0680, 41256.00
715.2200, 41391.00
716.3720, 41496.00
717.5240, 41754.00
718.6760, 41442.00
719.8270, 41640.00
720.9780, 41491.00
722.1300, 41357.00
723.2810, 41379.00
724.4310, 41593.00
725.5820, 41501.00
726.7330, 41469.00
727.8830, 41458.00
729.0330, 41453.00
730.1830, 41471.00
731.3330, 41471.00
732.4830, 41547.00
733.6320, 41347.00
734.7810, 41389.00
735.9310, 41154.00
737.0800, 41497.00
738.2290, 41482.00
739.3770, 41506.00
740.5260, 41448.00
741.6740, 41272.00
742.8220, 41562.00
743.9700, 41677.00
745.1180, 41517.00
746.2660, 41401.00
747.4130, 41625.00
748.5610, 41856.00
749.7080, 41746.00
750.8550, 41826.00
752.0020, 42149.00
753.1490, 42291.00
754.2950, 42192.00
755.4420, 42745.00
756.5880, 42687.00
757.7340, 43196.00
758.8800, 43358.00
760.0250, 43526.00
761.1710, 43959.00
762.3160, 44413.00
763.4620, 44859.00
764.6070, 44988.00
765.7520, 45495.00
766.8960, 45202.00
768.0410, 45099.00
769.1850, 44614.00
770.3300, 44372.00
771.4740, 43996.00
772.6180, 43869.00
773.7610, 43203.00
774.9050, 42908.00
776.0480, 42519.00
777.1920, 42438.00
778.3350, 42083.00
779.4780, 42068.00
780.6200, 41829.00
781.7630, 41826.00
782.9060, 41893.00
784.0480, 41773.00
785.1900, 41790.00
786.3320, 41783.00
787.4740, 41730.00
788.6150, 41690.00
789.7570, 41705.00
790.8980, 41578.00
792.0390, 41728.00
793.1800, 41397.00
794.3210, 41547.00
795.4620, 41497.00
796.6020, 41556.00
797.7420, 41592.00
798.8830, 41530.28
800.0230, 41516.00
801.1620, 41457.00
802.3020, 41361.00
803.4420, 41374.00
804.5810, 41345.89
805.7200, 41054.00
806.8590, 41217.00
807.9980, 41485.00
809.1370, 41130.00
810.2750, 41154.00
811.4140, 41226.00
812.5520, 41207.00
813.6900, 41260.00
814.8280, 41049.00
815.9650, 41273.00
817.1030, 41093.00
818.2400, 40850.00
819.3780, 41183.00
820.5150, 40980.00
821.6520, 41245.00
822.7880, 41113.00
823.9250, 41105.00
825.0610, 40894.00
826.1980, 41287.00
827.3340, 41042.00
828.4700, 40705.00
829.6050, 41123.00
830.7410, 41083.00
831.8760, 41123.00
833.0120, 41195.00
834.1470, 40813.00
835.2820, 40888.00
836.4160, 40845.00
837.5510, 41027.00
838.6860, 40837.00
839.8200, 41044.00
840.9540, 40999.00
842.0880, 40929.00
843.2220, 40868.00
844.3550, 40896.00
845.4890, 41007.00
846.6220, 40875.00
847.7550, 40888.00
848.8880, 40932.00
850.0210, 40599.00
851.1540, 40806.00
852.2860, 40839.00
853.4190, 41055.00
854.5510, 40619.00
855.6830, 40927.00
856.8150, 40879.00
857.9460, 40652.00
859.0780, 41031.00
860.2090, 40683.00
861.3410, 40730.00
862.4720, 40739.00
863.6020, 40549.00
864.7330, 40829.00
865.8640, 40840.00
866.9940, 40531.00
868.1240, 40591.00
869.2540, 40717.00
870.3840, 40791.00
871.5140, 40921.00
872.6440, 40888.45
873.7730, 40926.00
874.9020, 40786.00
876.0320, 40850.00
877.1600, 40771.00
878.2890, 40566.00
879.4180, 40829.00
880.5460, 40891.00
881.6750, 40495.00
882.8030, 40692.00
883.9310, 40762.00
885.0590, 40780.00
886.1860, 40781.00
887.3140, 40669.00
888.4410, 40756.00
889.5680, 40610.00
890.6950, 40365.00
891.8220, 40590.00
892.9490, 40881.00
894.0750, 40435.00
895.2020, 40740.00
896.3280, 40594.00
897.4540, 40774.00
898.5800, 40866.00
899.7050, 40422.00
900.8310, 40671.00
901.9560, 40396.00
903.0820, 40658.00
904.2070, 40486.00
905.3320, 40595.00
906.4560, 40702.00
907.5810, 40299.00
908.7050, 40559.00
909.8300, 40525.00
910.9540, 40538.00
912.0780, 40579.00
913.2010, 40329.00
914.3250, 40245.00
915.4480, 40513.00
916.5720, 40157.00
917.6950, 40535.00
918.8180, 40560.00
919.9410, 40235.00
921.0630, 40369.00
922.1860, 40466.00
923.3080, 40315.00
924.4300, 40409.00
925.5520, 40262.00
926.6740, 40089.00
927.7960, 40131.00
928.9170, 40142.00
930.0390, 40246.00
931.1600, 40213.00
932.2810, 40169.00
933.4020, 40124.00
934.5230, 39960.00
935.6430, 39971.00
936.7640, 39855.01
937.8840, 39900.00
939.0040, 39848.00
940.1240, 39779.00
941.2440, 40125.00
942.3630, 39880.00
943.4830, 40173.00
944.6020, 40053.00
945.7210, 40023.00
946.8400, 39751.00
947.9590, 39998.00
949.0770, 40033.00
950.1960, 39897.00
951.3140, 39678.00
952.4320, 39606.00
953.5500, 39674.00
954.6680, 40030.00
955.7860, 39838.00
956.9030, 39900.00
958.0210, 40003.00
959.1380, 39912.00
960.2550, 39754.00
961.3720, 39561.00
962.4890, 39885.00
963.6050, 40247.00
964.7220, 39800.00
965.8380, 39576.00
966.9540, 39746.00
968.0700, 39616.00
969.1860, 39589.00
970.3010, 39574.00
971.4170, 39427.00
972.5320, 39612.00
973.6470, 39475.00
974.7620, 39591.00
975.8770, 39458.00
976.9910, 39513.00
978.1060, 39452.00
979.2200, 39377.00
980.3340, 39438.00
981.4480, 39557.00
982.5620, 39506.00
983.6760, 39529.21
984.7890, 39456.00
985.9030, 39404.00
987.0160, 39534.00
988.1290, 39356.00
989.2420, 39427.00
990.3550, 39411.00
991.4670, 39319.00
992.5800, 39084.00
993.6920, 39141.00
994.8040, 39173.00
995.9160, 39343.00
997.0280, 39067.00
998.1390, 39266.00
999.2510, 39208.00
1000.362, 39276.00
1001.473, 39170.00
1002.584, 39276.00
1003.695, 39289.00
1004.805, 39176.00
1005.916, 38991.00
1007.026, 39067.00
1008.136, 39108.00
1009.246, 38876.00
1010.356, 38867.00
1011.466, 38865.00
1012.576, 38955.00
1013.685, 38933.35
1014.794, 38779.00
1015.903, 38990.00
1017.012, 38965.00
1018.121, 39059.00
1019.229, 38844.00
1020.338, 38697.00
1021.446, 38785.00
1022.554, 38913.00
1023.662, 38655.00
1024.770, 38558.00
1025.878, 39080.00
1026.985, 38746.00
1028.092, 39072.00
1029.200, 38932.00
1030.307, 38592.00
1031.413, 38686.00
1032.520, 38605.00
1033.627, 38518.00
1034.733, 38721.00
1035.839, 38652.00
1036.945, 38813.00
1038.051, 38457.00
1039.157, 38517.00
1040.262, 39069.00
1041.368, 38653.00
1042.473, 38630.00
1043.578, 38748.00
1044.683, 38573.00
1045.788, 38785.00
1046.893, 38608.00
1047.997, 38496.00
1049.101, 38645.00
1050.205, 38846.00
1051.309, 38578.00
1052.413, 38547.00
1053.517, 38784.00
1054.621, 38974.00
1055.724, 38825.00
1056.827, 38794.00
1057.930, 38716.00
1059.033, 38792.00
1060.136, 38773.00
1061.238, 38887.00
1062.341, 39011.00
1063.443, 38756.00
1064.545, 39096.00
1065.647, 38912.00
1066.749, 38718.00
1067.850, 38695.00
1068.952, 38630.64
1070.053, 39068.00
1071.154, 38734.00
1072.255, 38810.00
1073.356, 39037.00
1074.457, 38714.00
1075.557, 39008.00
1076.658, 38816.00
1077.758, 38885.00
1078.858, 38689.00
1079.958, 38903.00
1081.057, 38984.00
1082.157, 38769.00
1083.256, 38838.00
1084.356, 39119.00
1085.455, 38742.00
1086.554, 38895.00
1087.653, 39085.00
1088.751, 38828.00
1089.850, 38865.00
1090.948, 38493.00
1092.046, 38643.00
1093.144, 38776.00
1094.242, 38617.00
1095.340, 38464.00
1096.437, 38576.00
1097.534, 38476.00
1098.632, 38757.00
1099.729, 38760.00
1100.826, 38624.00
1101.922, 38592.00
1103.019, 38590.00
1104.115, 38520.00
1105.212, 38522.00
1106.308, 38423.30
1107.404, 38525.00
1108.499, 38351.00
1109.595, 38381.00
1110.691, 38622.00
1111.786, 38384.00
1112.881, 38543.00
1113.976, 38188.00
1115.071, 38305.00
1116.166, 38454.00
1117.260, 38224.00
1118.355, 38406.00
1119.449, 38284.00
1120.543, 38754.00
1121.637, 38451.05
1122.731, 38468.00
1123.824, 38094.00
1124.918, 38228.00
1126.011, 38205.00
1127.104, 38193.00
1128.197, 38077.00
1129.290, 38166.00
1130.382, 38129.00
1131.475, 38260.00
1132.567, 38213.00
1133.659, 38185.00
1134.751, 38066.45
1135.843, 38238.91
1136.935, 38325.37
1138.027, 38330.46
1139.118, 38010.48
1140.209, 38110.30
1141.300, 38041.88
1142.391, 37966.55
1143.482, 38125.45
1144.573, 37852.75
1145.663, 38007.96
1146.754, 37992.34
1147.844, 37960.00
1148.934, 38050.00
1150.024, 37859.00
1151.113, 37933.00
1152.203, 37908.00
1153.292, 38002.00
1154.381, 37825.00
1155.470, 38036.00
1156.559, 37755.00
1157.648, 37934.00
1158.737, 37530.00
1159.825, 37594.00
1160.913, 37988.00
1162.001, 37928.00
1163.089, 37579.00
1164.177, 37719.00
1165.265, 37604.00
1166.352, 37592.00
1167.440, 37590.00
1168.527, 37702.00
1169.614, 37535.00
1170.701, 37634.00
1171.788, 37629.00
1172.874, 37392.00
1173.961, 37656.00
1175.047, 37619.00
1176.133, 37489.00
1177.219, 37658.00
1178.305, 37375.00
1179.390, 37664.00
1180.476, 37682.00
1181.561, 37739.00
1182.646, 37508.00
1183.731, 37414.00
1184.816, 37393.00
1185.901, 37440.00
1186.985, 37380.00
1188.070, 37513.00
1189.154, 37574.00
1190.238, 37486.00
1191.322, 37500.25
1192.406, 37552.00
1193.489, 37333.00
1194.573, 37388.00
1195.656, 37260.00
1196.739, 37316.00
1197.822, 37330.00
1198.905, 37279.00
1199.988, 37423.00
1201.070, 37287.00
1202.153, 37362.00
1203.235, 37196.00
1204.317, 36962.00
1205.399, 37242.00
1206.481, 36843.00
1207.562, 37224.00
1208.644, 37029.00
1209.725, 36900.00
1210.806, 37209.00
1211.887, 37107.00
1212.968, 37071.00
1214.049, 37174.00
1215.129, 37095.00
1216.209, 37142.00
1217.290, 37209.00
1218.370, 37179.00
1219.450, 36953.00
1220.529, 36993.00
1221.609, 37230.00
1222.688, 37041.00
1223.768, 37149.00
1224.847, 37121.00
1225.926, 36970.00
1227.005, 37019.00
1228.083, 36864.00
1229.162, 36813.00
1230.240, 37030.00
1231.318, 37266.00
1232.396, 36869.00
1233.474, 37183.00
1234.552, 36729.00
1235.629, 36812.00
1236.707, 36985.00
1237.784, 37190.00
1238.861, 36799.00
1239.938, 36811.00
1241.015, 36930.00
1242.092, 37025.00
1243.168, 36881.00
1244.244, 37056.00
1245.321, 37050.45
1246.397, 36982.55
1247.473, 37169.00
1248.548, 36883.00
1249.624, 36952.00
1250.699, 36953.00
1251.775, 37176.00
1252.850, 37195.00
1253.925, 36832.00
1254.999, 36836.00
1256.074, 36837.00
1257.148, 36903.00
1258.223, 36969.00
1259.297, 36959.01
1260.371, 37013.83
1261.445, 36962.00
1262.519, 37023.00
1263.592, 37027.00
1264.666, 36941.00
1265.739, 36973.00
1266.812, 36987.00
1267.885, 36931.00
1268.958, 37151.00
1270.030, 37193.00
1271.103, 37176.00
1272.175, 36917.00
1273.247, 37073.00
1274.319, 36987.00
1275.391, 36715.00
1276.463, 36990.00
1277.535, 37090.00
1278.606, 36995.00
1279.677, 37074.00
1280.748, 36953.00
1281.819, 37209.00
1282.890, 37058.00
1283.961, 37209.00
1285.031, 37015.00
1286.102, 37153.00
1287.172, 36746.00
1288.242, 36913.00
1289.312, 37244.00
