##NAMES=Spinel
##RRUFFID=R050259
##IDEAL CHEMISTRY=MgAl_2_O_4_
##LOCALITY=Mogok, Burma
##OWNER=RRUFF
##SOURCE=Marcus Origlieri
##DESCRIPTION=Purple cut gemstone
##STATUS=The identification of this mineral has been confirmed by X-ray diffraction and chemical analysis
##URL=rruff.info/R050259
##MEASURED CHEMISTRY=(Mg_0.99_Zn_0.01_)_Σ=1_(Al_1.98_Fe^3+^_0.02_)_Σ=2_O_4_; trace amounts of Cr
##PIN_ID=L00851
##ORIENTATION=Laser parallel to c* (0 0 1). Fiducial mark perpendicular to laser is parallel to a [1 0 0]
75.95700, 811794.0
77.19600, 811701.0
78.43500, 802946.0
79.67300, 802781.0
80.91200, 802952.0
82.15000, 807301.0
83.38800, 801370.0
84.62600, 800395.0
85.86300, 796398.0
87.10100, 793473.0
88.33800, 791552.0
89.57500, 791414.0
90.81200, 789941.0
92.04900, 789530.0
93.28600, 788613.0
94.52300, 788213.6
95.75900, 787486.0
96.99500, 786707.0
98.23100, 785767.0
99.46700, 785635.0
100.7030, 784785.9
101.9390, 784305.8
103.1740, 783521.0
104.4090, 783007.0
105.6440, 782208.0
106.8790, 780981.0
108.1140, 781348.0
109.3490, 779383.0
110.5830, 775153.0
111.8180, 775537.0
113.0520, 775253.0
114.2860, 775727.0
115.5200, 775673.0
116.7530, 775061.0
117.9870, 775290.1
119.2200, 772956.0
120.4530, 774515.0
121.6860, 774259.0
122.9190, 772702.0
124.1520, 770691.0
125.3850, 769598.0
126.6170, 769348.0
127.8490, 768271.1
129.0810, 769102.0
130.3130, 767036.0
131.5450, 767064.0
132.7770, 765798.0
134.0080, 765833.0
135.2390, 765827.0
136.4710, 764737.8
137.7020, 766486.0
138.9320, 763884.0
140.1630, 762884.0
141.3930, 764094.0
142.6240, 764313.0
143.8540, 762851.0
145.0840, 760183.0
146.3140, 759548.0
147.5440, 758292.0
148.7730, 756494.0
150.0020, 756507.8
151.2320, 758590.0
152.4610, 755443.0
153.6900, 754685.0
154.9180, 752825.0
156.1470, 755172.0
157.3750, 754474.0
158.6040, 755025.0
159.8320, 753560.0
161.0600, 753342.0
162.2870, 750234.0
163.5150, 749206.0
164.7420, 749857.0
165.9700, 746935.0
167.1970, 745802.0
168.4240, 744426.0
169.6510, 743786.0
170.8770, 743157.0
172.1040, 745120.0
173.3300, 742844.0
174.5560, 744987.0
175.7820, 741715.0
177.0080, 740885.0
178.2340, 740515.0
179.4590, 740148.0
180.6850, 737008.0
181.9100, 737123.0
183.1350, 737423.0
184.3600, 737329.0
185.5850, 737773.0
186.8090, 737061.2
188.0340, 736544.6
189.2580, 735673.0
190.4820, 734697.0
191.7060, 734101.0
192.9300, 733040.0
194.1530, 732277.5
195.3770, 731374.0
196.6000, 730549.0
197.8230, 729933.0
199.0460, 728935.0
200.2690, 729257.0
201.4910, 730241.0
202.7140, 727283.0
203.9360, 726855.0
205.1580, 725348.0
206.3800, 726331.0
207.6020, 726656.0
208.8240, 724053.0
210.0450, 723421.0
211.2670, 723133.0
212.4880, 722860.0
213.7090, 722656.0
214.9300, 720983.0
216.1510, 720220.0
217.3710, 719823.0
218.5920, 718264.0
219.8120, 718203.0
221.0320, 716443.0
222.2520, 715523.0
223.4720, 717345.0
224.6910, 716366.0
225.9110, 714446.0
227.1300, 714471.0
228.3490, 712690.0
229.5680, 714000.0
230.7870, 712188.0
232.0050, 711197.0
233.2240, 711311.0
234.4420, 710932.0
235.6600, 710566.0
236.8780, 710404.9
238.0960, 708701.0
239.3140, 709094.0
240.5310, 708263.0
241.7490, 706009.0
242.9660, 706821.0
244.1830, 705854.0
245.4000, 704941.0
246.6160, 704022.0
247.8330, 703343.0
249.0490, 703368.0
250.2660, 701641.0
251.4820, 700249.0
252.6980, 700591.0
253.9130, 702127.0
255.1290, 700919.0
256.3440, 699300.0
257.5600, 698258.0
258.7750, 697818.0
259.9900, 696254.0
261.2040, 695782.0
262.4190, 694603.0
263.6330, 694601.0
264.8480, 693942.0
266.0620, 693786.0
267.2760, 693456.0
268.4900, 692457.9
269.7030, 692070.0
270.9170, 690296.0
272.1300, 689957.0
273.3430, 688590.0
274.5560, 688821.0
275.7690, 687659.0
276.9820, 685398.0
278.1940, 685747.0
279.4070, 685734.0
280.6190, 682769.0
281.8310, 683261.0
283.0430, 683670.0
284.2550, 682950.0
285.4660, 682179.0
286.6770, 681197.0
287.8890, 681960.0
289.1000, 680052.0
290.3110, 679890.0
291.5210, 678970.0
292.7320, 679636.0
293.9420, 678715.0
295.1530, 678285.0
296.3630, 676700.0
297.5730, 676568.0
298.7830, 674537.0
299.9920, 674317.0
301.2020, 674046.0
302.4110, 673688.0
303.6200, 675022.0
304.8290, 673363.0
306.0380, 673363.0
307.2470, 672196.0
308.4550, 673180.0
309.6630, 671822.0
310.8720, 672220.0
312.0800, 671859.0
313.2880, 670179.0
314.4950, 668784.0
315.7030, 667123.0
316.9100, 666443.0
318.1170, 663506.0
319.3240, 663351.0
320.5310, 662297.0
321.7380, 662462.0
322.9450, 661829.0
324.1510, 659995.0
325.3570, 660016.0
326.5630, 659463.0
327.7690, 659454.0
328.9750, 658574.0
330.1810, 657907.0
331.3860, 657048.0
332.5910, 655238.0
333.7960, 655198.0
335.0010, 655057.0
336.2060, 652610.0
337.4110, 653284.0
338.6150, 653434.0
339.8200, 653067.0
341.0240, 651958.0
342.2280, 650059.0
343.4320, 649814.0
344.6350, 648142.0
345.8390, 647692.0
347.0420, 648603.0
348.2450, 646232.0
349.4480, 646740.0
350.6510, 646323.0
351.8540, 645487.0
353.0560, 643945.0
354.2590, 644362.0
355.4610, 642154.0
356.6630, 642150.0
357.8650, 641447.0
359.0670, 641247.0
360.2680, 641070.0
361.4700, 638407.0
362.6710, 638717.0
363.8720, 637742.0
365.0730, 637243.0
366.2740, 637200.0
367.4740, 636043.0
368.6750, 635320.0
369.8750, 633639.0
371.0750, 633165.0
372.2750, 633400.0
373.4750, 633298.0
374.6740, 631916.0
375.8740, 630814.0
377.0730, 630020.0
378.2720, 629932.0
379.4710, 629121.0
380.6700, 628839.0
381.8690, 628428.0
383.0670, 628115.0
384.2660, 626282.0
385.4640, 626032.0
386.6620, 626514.0
387.8600, 625074.0
389.0570, 625452.0
390.2550, 625617.0
391.4520, 624163.0
392.6490, 626066.0
393.8460, 626231.0
395.0430, 627746.0
396.2400, 628583.0
397.4370, 630629.0
398.6330, 634025.0
399.8290, 637628.0
401.0250, 641942.0
402.2210, 646934.0
403.4170, 651988.0
404.6130, 655987.0
405.8080, 657983.0
407.0030, 654415.0
408.1980, 647718.0
409.3930, 640786.0
410.5880, 635272.0
411.7830, 627278.0
412.9770, 622520.0
414.1720, 618527.0
415.3660, 615218.0
416.5600, 612785.0
417.7530, 610833.0
418.9470, 609018.0
420.1410, 606995.0
421.3340, 605539.3
422.5270, 603638.0
423.7200, 602798.0
424.9130, 601810.0
426.1060, 600779.0
427.2980, 599369.0
428.4900, 597950.0
429.6830, 596714.3
430.8750, 596129.0
432.0670, 594122.0
433.2580, 594003.0
434.4500, 593011.0
435.6410, 591918.0
436.8320, 590202.0
438.0240, 590462.0
439.2140, 589234.0
440.4050, 588798.0
441.5960, 588135.0
442.7860, 587286.0
443.9760, 586640.0
445.1670, 585530.0
446.3560, 585515.0
447.5460, 583650.0
448.7360, 583566.0
449.9250, 582584.0
451.1150, 581713.0
452.3040, 581997.0
453.4930, 580554.0
454.6810, 580256.0
455.8700, 579035.0
457.0590, 578819.0
458.2470, 578032.0
459.4350, 577483.4
460.6230, 576322.0
461.8110, 576385.0
462.9980, 575757.0
464.1860, 574841.0
465.3730, 574578.0
466.5600, 573414.0
467.7470, 573405.0
468.9340, 572169.0
470.1210, 571383.0
471.3080, 571355.0
472.4940, 569538.0
473.6800, 569622.0
474.8660, 568734.0
476.0520, 566545.0
477.2380, 567628.0
478.4230, 566285.0
479.6090, 566286.0
480.7940, 564294.0
481.9790, 565097.0
483.1640, 563572.0
484.3490, 562343.0
485.5330, 562350.0
486.7180, 561339.0
487.9020, 559634.0
489.0860, 559619.0
490.2700, 558392.0
491.4540, 558538.0
492.6370, 556999.0
493.8210, 556311.0
495.0040, 555310.0
496.1870, 554917.0
497.3700, 555176.0
498.5530, 553041.0
499.7360, 552607.0
500.9180, 551646.0
502.1000, 551938.0
503.2830, 549780.0
504.4650, 549313.0
505.6460, 548815.0
506.8280, 548915.0
508.0100, 548123.0
509.1910, 546381.0
510.3720, 545357.0
511.5530, 545839.0
512.7340, 543798.0
513.9150, 544367.0
515.0950, 542543.0
516.2760, 542091.0
517.4560, 542438.0
518.6360, 540257.0
519.8160, 540187.0
520.9950, 538923.0
522.1750, 539742.0
523.3540, 538026.0
524.5340, 537185.0
525.7130, 537320.0
526.8920, 536274.0
528.0700, 535056.0
529.2490, 534949.0
530.4270, 534312.0
531.6060, 533177.0
532.7840, 532378.0
533.9620, 531634.0
535.1390, 530649.4
536.3170, 531273.0
537.4940, 528871.0
538.6720, 528964.0
539.8490, 528097.0
541.0260, 526627.0
542.2030, 527156.0
543.3790, 526102.0
544.5560, 525907.0
545.7320, 524741.0
546.9080, 523430.0
548.0840, 523384.0
549.2600, 522537.0
550.4360, 521830.0
551.6110, 520990.0
552.7860, 520234.0
553.9620, 519289.0
555.1370, 520254.0
556.3110, 519363.0
557.4860, 517516.0
558.6610, 517912.0
559.8350, 516650.0
561.0090, 516453.0
562.1830, 514919.0
563.3570, 513592.0
564.5310, 513140.0
565.7040, 512057.0
566.8780, 511240.3
568.0510, 510618.4
569.2240, 509792.0
570.3970, 509367.0
571.5700, 509019.0
572.7420, 508632.0
573.9150, 508124.0
575.0870, 507026.0
576.2590, 506271.0
577.4310, 506104.0
578.6030, 505321.0
579.7740, 504885.0
580.9460, 504196.0
582.1170, 502666.0
583.2880, 501649.0
584.4590, 500970.0
585.6300, 500150.0
586.8010, 500790.0
587.9710, 500902.0
589.1410, 498930.0
590.3110, 497894.0
591.4810, 497220.0
592.6510, 496732.0
593.8210, 495161.0
594.9900, 494520.0
596.1600, 494639.0
597.3290, 493415.0
598.4980, 493358.0
599.6670, 492860.0
600.8350, 491441.0
602.0040, 491465.0
603.1720, 489969.0
604.3400, 489987.0
605.5080, 488268.0
606.6760, 487058.0
607.8440, 486858.0
609.0120, 485728.6
610.1790, 485491.0
611.3460, 484707.0
612.5130, 483665.0
613.6800, 483392.0
614.8470, 482969.0
616.0130, 482410.0
617.1800, 482064.0
618.3460, 481425.8
619.5120, 480597.0
620.6780, 480179.0
621.8440, 479416.0
623.0090, 478742.0
624.1750, 477464.0
625.3400, 477622.0
626.5050, 476654.0
627.6700, 476780.0
628.8350, 475350.0
629.9990, 474605.0
631.1640, 474198.0
632.3280, 473602.0
633.4920, 472707.0
634.6560, 472306.0
635.8200, 471631.9
636.9840, 471285.0
638.1470, 470333.0
639.3100, 469717.0
640.4730, 468692.0
641.6360, 468264.0
642.7990, 468568.0
643.9620, 467397.0
645.1240, 467173.0
646.2870, 466800.9
647.4490, 465278.0
648.6110, 465486.0
649.7730, 464698.0
650.9340, 463790.0
652.0960, 463484.0
653.2570, 462833.0
654.4180, 463752.0
655.5790, 464287.0
656.7400, 463932.0
657.9010, 464176.0
659.0620, 465023.0
660.2220, 464564.0
661.3820, 465837.0
662.5420, 465748.0
663.7020, 465737.0
664.8620, 465550.0
666.0210, 464649.0
667.1810, 462057.0
668.3400, 460881.0
669.4990, 458874.0
670.6580, 457020.0
671.8170, 454782.0
672.9750, 453340.0
674.1340, 451320.0
675.2920, 449661.0
676.4500, 448488.1
677.6080, 446875.0
678.7660, 446207.0
679.9230, 444891.0
681.0810, 443666.0
682.2380, 442238.0
683.3950, 439816.0
684.5520, 440068.0
685.7090, 439377.0
686.8660, 439444.0
688.0220, 437543.0
689.1780, 438111.0
690.3340, 436019.0
691.4900, 437055.0
692.6460, 436248.0
693.8020, 435273.0
694.9570, 434309.0
696.1130, 433347.0
697.2680, 432655.0
698.4230, 431978.0
699.5780, 431475.0
700.7320, 430739.0
701.8870, 430101.2
703.0410, 429513.0
704.1950, 428642.0
705.3490, 427607.0
706.5030, 426648.0
707.6570, 426557.0
708.8110, 424881.0
709.9640, 423622.0
711.1170, 423048.0
712.2700, 421222.0
713.4230, 419254.0
714.5760, 418234.0
715.7280, 415573.0
716.8810, 414021.0
718.0330, 412239.0
719.1850, 410672.0
720.3370, 409728.0
721.4890, 409946.0
722.6400, 409847.0
723.7920, 409441.0
724.9430, 409544.0
726.0940, 408981.0
727.2450, 411164.0
728.3960, 411401.0
729.5460, 410598.0
730.6970, 410491.0
731.8470, 409823.0
732.9970, 409747.0
734.1470, 410211.0
735.2970, 409631.0
736.4460, 408513.0
737.5960, 408813.0
738.7450, 407049.0
739.8940, 406975.0
741.0430, 407019.0
742.1920, 405973.0
743.3410, 406281.0
744.4890, 405080.0
745.6370, 405130.0
746.7850, 404874.0
747.9330, 404579.0
749.0810, 403694.0
750.2290, 404349.0
751.3760, 403832.0
752.5240, 404064.0
753.6710, 404325.0
754.8180, 403816.0
755.9650, 404687.0
757.1110, 404573.0
758.2580, 404688.0
759.4040, 406126.0
760.5510, 407432.0
761.6970, 408281.0
762.8420, 409132.0
763.9880, 410032.0
765.1340, 409929.0
766.2790, 409419.0
767.4240, 407971.0
768.5690, 405894.0
769.7140, 403067.0
770.8590, 401307.0
772.0030, 397771.0
773.1480, 395093.0
774.2920, 393371.0
775.4360, 391611.0
776.5800, 389519.0
777.7240, 388446.0
778.8670, 386805.0
780.0110, 384799.0
781.1540, 384560.0
782.2970, 382884.0
783.4400, 381733.0
784.5830, 379971.0
785.7250, 379344.0
786.8680, 377325.0
788.0100, 376531.0
789.1520, 375461.0
790.2940, 375016.0
791.4360, 374376.0
792.5780, 373461.0
793.7190, 371813.0
794.8600, 371373.0
796.0010, 371129.0
797.1420, 371392.0
798.2830, 370272.0
799.4240, 369880.0
800.5640, 369572.0
801.7050, 368962.0
802.8450, 368286.0
803.9850, 368548.0
805.1250, 368229.0
806.2640, 367891.0
807.4040, 367214.0
808.5430, 366963.0
809.6820, 365842.0
810.8210, 364677.0
811.9600, 364796.0
813.0990, 364649.0
814.2370, 363765.0
815.3760, 363413.0
816.5140, 362350.0
817.6520, 360870.0
818.7900, 360872.0
819.9270, 359334.0
821.0650, 358044.0
822.2020, 358041.0
823.3390, 357016.0
824.4760, 356485.0
825.6130, 355600.0
826.7500, 355306.0
827.8870, 354425.0
829.0230, 353776.0
830.1590, 353207.0
831.2950, 352435.0
832.4310, 352296.0
833.5670, 351299.0
834.7030, 351141.0
835.8380, 350084.0
836.9730, 350092.0
838.1080, 350077.0
839.2430, 349060.0
840.3780, 347836.0
841.5130, 347176.0
842.6470, 346856.0
843.7810, 346319.0
844.9150, 345069.0
846.0490, 344231.0
847.1830, 344457.0
848.3170, 343038.0
849.4500, 342912.0
850.5830, 342409.0
851.7160, 341958.0
852.8490, 341353.7
853.9820, 340376.0
855.1150, 339879.0
856.2470, 338966.0
857.3800, 338153.0
858.5120, 338126.0
859.6440, 337039.0
860.7760, 335447.0
861.9070, 336229.0
863.0390, 335517.0
864.1700, 334340.0
865.3010, 334446.0
866.4320, 333514.2
867.5630, 332519.0
868.6940, 332485.0
869.8240, 331475.0
870.9540, 331208.0
872.0850, 330859.0
873.2150, 331001.0
874.3450, 329006.0
875.4740, 327746.0
876.6040, 327898.0
877.7330, 326459.0
878.8620, 326270.0
879.9910, 325661.0
881.1200, 324314.0
882.2490, 324317.0
883.3770, 323881.0
884.5060, 322812.0
885.6340, 322216.0
886.7620, 321487.0
887.8900, 321017.0
889.0180, 320116.0
890.1450, 319444.0
891.2730, 319413.0
892.4000, 317878.0
893.5270, 318744.0
894.6540, 317206.0
895.7810, 316536.0
896.9070, 315582.0
898.0340, 315685.0
899.1600, 315946.0
900.2860, 314430.0
901.4120, 314294.0
902.5380, 313497.0
903.6630, 313082.0
904.7890, 313356.0
905.9140, 312885.0
907.0390, 312093.0
908.1640, 311048.0
909.2890, 310940.0
910.4130, 310541.0
911.5380, 309472.0
912.6620, 308677.0
913.7860, 308949.0
914.9100, 308859.0
916.0340, 306720.0
917.1580, 306319.0
918.2810, 306385.0
919.4040, 305688.0
920.5280, 305419.0
921.6510, 304624.0
922.7730, 302650.0
923.8960, 303510.0
925.0180, 302334.0
926.1410, 303039.0
927.2630, 301515.0
928.3850, 301883.0
929.5070, 299785.0
930.6280, 299859.0
931.7500, 298981.0
932.8710, 299670.0
933.9920, 298100.0
935.1130, 297482.0
936.2340, 297937.0
937.3550, 296693.0
938.4760, 296293.0
939.5960, 296192.0
940.7160, 294778.0
941.8360, 294538.0
942.9560, 293659.0
944.0760, 293675.0
945.1950, 292337.0
946.3150, 292556.0
947.4340, 292277.0
948.5530, 291308.0
949.6720, 290536.0
950.7900, 290287.0
951.9090, 290213.0
953.0270, 288602.0
954.1460, 287935.0
955.2640, 287777.0
956.3820, 287770.0
957.4990, 287108.0
958.6170, 286088.0
959.7340, 286183.0
960.8520, 284475.0
961.9690, 284405.0
963.0860, 284354.0
964.2020, 283495.0
965.3190, 283014.0
966.4350, 282970.0
967.5520, 281754.0
968.6680, 281221.0
969.7840, 281440.0
970.8990, 280459.0
972.0150, 279458.0
973.1310, 279560.0
974.2460, 278621.0
975.3610, 278964.0
976.4760, 278361.0
977.5910, 277417.0
978.7050, 276560.0
979.8200, 276331.0
980.9340, 276106.0
982.0480, 274860.0
983.1620, 275335.0
984.2760, 274808.0
985.3900, 273096.0
986.5030, 273279.0
987.6160, 273255.0
988.7300, 272436.0
989.8430, 271847.0
990.9550, 271295.0
992.0680, 270965.0
993.1810, 270759.0
994.2930, 270577.0
995.4050, 268898.0
996.5170, 269543.0
997.6290, 268041.0
998.7410, 267312.0
999.8520, 266883.0
1000.964, 267304.0
1002.075, 266892.0
1003.186, 265811.0
1004.297, 265784.0
1005.407, 265401.0
1006.518, 264571.0
1007.628, 264467.0
1008.738, 263661.0
1009.848, 262940.0
1010.958, 263007.0
1012.068, 262337.0
1013.178, 261745.0
1014.287, 260731.0
1015.396, 260618.0
1016.505, 259289.0
1017.614, 259199.0
1018.723, 258921.0
1019.831, 258235.0
1020.940, 257811.0
1022.048, 257464.0
1023.156, 256372.0
1024.264, 256403.0
1025.372, 255156.0
1026.479, 254733.0
1027.587, 254572.0
1028.694, 253352.0
1029.801, 252803.0
1030.908, 253085.0
1032.015, 252145.0
1033.121, 251188.0
1034.228, 250604.0
1035.334, 250493.0
1036.440, 250478.0
1037.546, 249886.0
1038.652, 249532.0
1039.758, 249254.0
1040.863, 248831.0
1041.968, 248586.0
1043.074, 247915.0
1044.178, 247316.0
1045.283, 247285.0
1046.388, 246771.0
1047.492, 246398.0
1048.597, 245395.0
1049.701, 245173.0
1050.805, 244685.0
1051.909, 244374.0
1053.012, 243625.0
1054.116, 243150.0
1055.219, 242871.0
1056.322, 242374.0
1057.425, 242450.0
1058.528, 241789.0
1059.631, 241655.0
1060.733, 241268.0
1061.836, 240353.0
1062.938, 239744.0
1064.040, 239739.0
1065.142, 238764.0
1066.243, 238351.3
1067.345, 238184.0
1068.446, 236882.0
1069.547, 236482.0
1070.648, 235283.0
1071.749, 235766.0
1072.850, 235312.0
1073.951, 235171.0
1075.051, 235037.0
1076.151, 234186.0
1077.251, 234452.0
1078.351, 233734.0
1079.451, 233088.0
1080.550, 233474.0
1081.650, 232986.0
1082.749, 232784.0
1083.848, 232414.0
1084.947, 231599.0
1086.046, 231298.0
1087.144, 230234.0
1088.243, 229841.0
1089.341, 229887.0
1090.439, 228806.0
1091.537, 228919.0
1092.635, 228565.0
1093.732, 228712.0
1094.830, 228297.2
1095.927, 227842.0
1097.024, 227354.0
1098.121, 226670.0
1099.218, 225836.0
1100.314, 225995.0
1101.411, 224692.0
1102.507, 224791.0
1103.603, 224852.0
1104.699, 224562.0
1105.795, 223905.0
1106.890, 223327.0
1107.986, 223129.0
1109.081, 222283.0
1110.176, 222645.0
1111.271, 221709.0
1112.366, 221907.0
1113.461, 220716.0
1114.555, 220335.0
1115.649, 220208.0
1116.744, 219181.0
1117.838, 219429.0
1118.931, 219034.0
1120.025, 218817.0
1121.119, 219000.0
1122.212, 217799.0
1123.305, 216866.0
1124.398, 216852.0
1125.491, 216900.0
1126.584, 216264.0
1127.676, 216147.0
1128.768, 215142.0
1129.861, 214774.0
1130.953, 214202.0
1132.044, 213952.0
1133.136, 213144.0
1134.228, 212502.0
1135.319, 211843.0
1136.410, 211833.0
1137.501, 211348.0
1138.592, 211062.0
1139.683, 211194.0
1140.773, 210385.0
1141.864, 210296.0
1142.954, 209154.0
1144.044, 208891.0
1145.134, 208282.0
1146.224, 207996.0
1147.313, 207925.0
1148.402, 207378.0
1149.492, 207050.0
1150.581, 206845.0
1151.670, 206357.2
1152.758, 206357.0
1153.847, 205557.0
1154.935, 205754.0
1156.024, 205358.0
1157.112, 203954.0
1158.200, 203373.0
1159.287, 203528.0
1160.375, 203714.0
1161.462, 202956.0
1162.550, 202371.0
1163.637, 201891.0
1164.724, 201709.0
1165.810, 201645.0
1166.897, 200573.0
1167.983, 201023.0
1169.070, 199437.0
1170.156, 199389.0
1171.242, 199302.0
1172.327, 199381.0
1173.413, 198601.0
1174.499, 198510.0
1175.584, 197517.0
1176.669, 197533.0
1177.754, 197570.0
1178.839, 197034.0
1179.923, 196273.0
1181.008, 195565.0
1182.092, 195343.0
1183.176, 195235.0
1184.260, 195356.0
1185.344, 194276.0
1186.428, 193755.0
1187.511, 193722.0
1188.595, 193379.0
1189.678, 193172.0
1190.761, 192748.0
1191.843, 192195.0
1192.926, 191363.0
1194.009, 191229.0
1195.091, 191059.0
1196.173, 190974.0
1197.255, 190707.0
1198.337, 189299.0
1199.419, 189247.0
1200.500, 188481.0
1201.582, 189010.0
1202.663, 188915.0
1203.744, 188362.0
1204.825, 188011.0
1205.905, 187046.0
1206.986, 187139.0
1208.066, 187181.0
1209.146, 186219.0
1210.226, 186393.0
1211.306, 186786.0
1212.386, 186653.0
1213.466, 185414.0
1214.545, 184866.0
1215.624, 184135.0
1216.703, 183859.0
1217.782, 183738.0
1218.861, 182751.0
1219.939, 183453.0
1221.018, 183095.0
1222.096, 182173.0
1223.174, 181979.0
1224.252, 181652.0
1225.330, 181155.0
1226.407, 180945.0
1227.485, 180776.0
1228.562, 181057.0
1229.639, 179989.0
1230.716, 180299.0
1231.793, 179464.0
1232.869, 179323.0
1233.946, 178582.0
1235.022, 178534.0
1236.098, 178522.0
1237.174, 177616.0
1238.250, 176962.0
1239.325, 176789.0
1240.401, 176942.0
1241.476, 177009.0
1242.551, 176668.0
1243.626, 175570.0
1244.701, 174696.0
1245.776, 174889.0
1246.850, 174451.0
1247.924, 173762.0
1248.999, 174138.0
1250.073, 173224.0
1251.146, 172898.0
1252.220, 172742.0
1253.293, 171745.0
1254.367, 171716.0
1255.440, 171031.0
1256.513, 171364.0
1257.586, 171206.0
1258.658, 170559.0
1259.731, 170477.0
