##NAMES=Spinel
##RRUFFID=R050184
##IDEAL CHEMISTRY=MgAl_2_O_4_
##LOCALITY=Pein Pyit, Mogok, Burma
##OWNER=RRUFF
##SOURCE=Marcus Origlieri
##DESCRIPTION=Red crystal in calcite, associated with yellowish-green clinohumite, R050183
##STATUS=The identification of this mineral has been confirmed by X-ray diffraction and chemical analysis
##URL=rruff.info/R050184
##MEASURED CHEMISTRY=Mg_1.00_(Al_1.99_Cr_0.01_)_Î£=2_O_4_; trace amounts of V
##PIN_ID=L00212
##ORIENTATION=Laser parallel to -b* (0 -1 0). Fiducial mark perpendicular to laser is parallel to c [0 0 1]
111.8550, 40110.04
113.0940, 40318.96
114.3320, 40436.77
115.5700, 40468.34
116.8080, 40155.41
118.0460, 40287.33
119.2830, 40240.97
120.5210, 40377.00
121.7580, 40505.00
122.9950, 40121.00
124.2320, 40374.00
125.4690, 40255.00
126.7050, 40281.00
127.9410, 40340.00
129.1780, 40371.00
130.4140, 40357.12
131.6490, 40264.00
132.8850, 40309.00
134.1200, 40311.00
135.3560, 40282.14
136.5910, 40335.33
137.8260, 40396.00
139.0610, 40283.87
140.2950, 40500.27
141.5290, 40625.55
142.7640, 40664.61
143.9980, 40359.16
145.2320, 40498.55
146.4650, 40459.67
147.6990, 40413.49
148.9320, 40615.49
150.1650, 40360.14
151.3980, 40605.00
152.6310, 40665.00
153.8640, 40641.34
155.0960, 40543.00
156.3280, 40585.00
157.5600, 40565.06
158.7920, 40546.27
160.0240, 40552.21
161.2560, 40474.00
162.4870, 40542.00
163.7180, 40590.00
164.9490, 40615.00
166.1800, 40544.00
167.4110, 40500.00
168.6410, 40496.00
169.8720, 40483.75
171.1020, 40531.00
172.3320, 40533.00
173.5620, 40557.00
174.7910, 40621.00
176.0210, 40665.00
177.2500, 40784.00
178.4790, 40538.00
179.7080, 40669.68
180.9370, 40537.00
182.1650, 40655.00
183.3940, 40729.00
184.6220, 40595.00
185.8500, 40596.00
187.0780, 40640.00
188.3050, 40663.00
189.5330, 40661.00
190.7600, 40656.00
191.9870, 40717.00
193.2140, 40593.00
194.4410, 40640.00
195.6680, 40890.00
196.8940, 40750.00
198.1200, 40657.00
199.3470, 40746.00
200.5720, 40525.00
201.7980, 40580.00
203.0240, 40704.00
204.2490, 40735.00
205.4740, 40619.00
206.6990, 40836.00
207.9240, 40832.00
209.1490, 40644.00
210.3740, 40610.00
211.5980, 40757.00
212.8220, 40779.00
214.0460, 40738.00
215.2700, 40733.00
216.4930, 40990.00
217.7170, 40758.00
218.9400, 40825.00
220.1630, 40572.00
221.3860, 40692.00
222.6090, 40732.00
223.8320, 40835.00
225.0540, 40562.00
226.2760, 40688.00
227.4980, 40643.00
228.7200, 40718.00
229.9420, 40805.00
231.1630, 40834.00
232.3850, 40757.00
233.6060, 40479.00
234.8270, 40736.00
236.0480, 40633.00
237.2690, 40750.00
238.4890, 40732.00
239.7090, 40765.00
240.9290, 40427.00
242.1490, 40617.00
243.3690, 40539.00
244.5890, 40549.00
245.8080, 40803.00
247.0270, 40603.00
248.2470, 40351.00
249.4650, 40768.00
250.6840, 40826.00
251.9030, 40244.00
253.1210, 40731.00
254.3390, 40669.00
255.5570, 40530.00
256.7750, 40553.00
257.9930, 40519.00
259.2100, 40844.00
260.4280, 40452.00
261.6450, 40691.00
262.8620, 40331.00
264.0790, 40544.00
265.2950, 40644.00
266.5120, 40669.00
267.7280, 40620.00
268.9440, 40639.00
270.1600, 40837.00
271.3760, 40439.00
272.5920, 40577.00
273.8070, 40723.00
275.0220, 40476.00
276.2370, 40724.00
277.4520, 40700.00
278.6670, 40442.00
279.8820, 40760.00
281.0960, 40297.00
282.3100, 40661.00
283.5240, 40756.00
284.7380, 40655.00
285.9520, 40492.00
287.1650, 40541.00
288.3780, 40510.00
289.5920, 40340.00
290.8050, 40468.94
292.0170, 40738.00
293.2300, 40567.00
294.4430, 40644.00
295.6550, 40599.00
296.8670, 40570.00
298.0790, 40731.00
299.2910, 40794.00
300.5020, 40647.00
301.7140, 40723.00
302.9250, 40808.00
304.1360, 40878.00
305.3470, 40846.00
306.5580, 40892.00
307.7680, 40819.00
308.9780, 41262.00
310.1890, 41594.00
311.3990, 41534.00
312.6090, 41700.00
313.8180, 41494.00
315.0280, 41360.00
316.2370, 41007.00
317.4460, 40992.00
318.6550, 40841.00
319.8640, 40739.00
321.0730, 40680.00
322.2810, 40712.00
323.4890, 40494.00
324.6980, 40434.00
325.9060, 40724.00
327.1130, 40742.00
328.3210, 40624.00
329.5280, 40581.00
330.7360, 40573.00
331.9430, 40418.00
333.1500, 40487.00
334.3560, 40413.59
335.5630, 40726.00
336.7690, 40432.00
337.9760, 40278.00
339.1820, 40441.00
340.3870, 40748.00
341.5930, 40597.00
342.7990, 40480.00
344.0040, 40594.00
345.2090, 40612.00
346.4140, 40484.00
347.6190, 40675.00
348.8240, 40416.00
350.0280, 40366.00
351.2330, 40438.00
352.4370, 40416.00
353.6410, 40563.00
354.8440, 40511.00
356.0480, 40484.00
357.2520, 40517.00
358.4550, 40469.00
359.6580, 40421.00
360.8610, 40480.00
362.0640, 40402.00
363.2660, 40792.00
364.4690, 40300.00
365.6710, 40734.00
366.8730, 40472.00
368.0750, 40653.00
369.2770, 40618.00
370.4780, 40638.00
371.6800, 40639.00
372.8810, 40753.00
374.0820, 40353.00
375.2830, 40762.00
376.4830, 40402.00
377.6840, 40604.00
378.8840, 40708.00
380.0840, 40619.00
381.2840, 40751.00
382.4840, 40568.00
383.6840, 40863.00
384.8830, 40805.00
386.0830, 40633.00
387.2820, 40813.00
388.4810, 40526.00
389.6800, 40642.00
390.8780, 41015.00
392.0770, 41201.00
393.2750, 41100.00
394.4730, 41107.00
395.6710, 41275.00
396.8690, 41827.00
398.0660, 41952.00
399.2640, 42200.00
400.4610, 42353.00
401.6580, 43041.00
402.8550, 43815.00
404.0520, 44604.00
405.2490, 45159.00
406.4450, 45680.00
407.6410, 45601.84
408.8370, 45692.00
410.0330, 44883.00
411.2290, 44124.00
412.4240, 43248.00
413.6200, 42503.00
414.8150, 42333.00
416.0100, 41721.00
417.2050, 41478.00
418.4000, 41243.00
419.5940, 40706.00
420.7880, 41039.00
421.9830, 40737.00
423.1770, 40936.00
424.3700, 40478.00
425.5640, 40603.00
426.7580, 40558.00
427.9510, 40328.00
429.1440, 40305.00
430.3370, 40287.00
431.5300, 40309.00
432.7220, 40191.00
433.9150, 40258.00
435.1070, 40194.00
436.2990, 40524.00
437.4910, 40453.00
438.6830, 40292.00
439.8750, 40096.00
441.0660, 40184.00
442.2570, 40014.00
443.4480, 40341.00
444.6390, 40346.00
445.8300, 40256.00
447.0210, 40312.00
448.2110, 40338.00
449.4010, 40209.00
450.5910, 40098.00
451.7810, 40069.00
452.9710, 40136.00
454.1610, 40285.00
455.3500, 40201.00
456.5390, 40212.00
457.7280, 40005.00
458.9170, 40231.00
460.1060, 39969.00
461.2940, 40048.00
462.4830, 39925.00
463.6710, 40018.00
464.8590, 39877.00
466.0470, 40104.00
467.2350, 40260.00
468.4220, 39933.00
469.6090, 40272.00
470.7970, 39924.00
471.9840, 39807.34
473.1700, 40013.16
474.3570, 40127.84
475.5440, 40156.30
476.7300, 39840.26
477.9160, 39969.07
479.1020, 39919.60
480.2880, 39862.82
481.4740, 40054.24
482.6590, 39788.31
483.8440, 39975.80
485.0300, 39982.28
486.2140, 40071.61
487.3990, 39981.56
488.5840, 39946.91
489.7680, 40091.70
490.9530, 40137.13
492.1370, 40026.43
493.3210, 40121.02
494.5040, 39848.83
495.6880, 39953.00
496.8720, 40022.00
498.0550, 40042.00
499.2380, 40028.32
500.4210, 40074.93
501.6040, 39986.00
502.7860, 40124.00
503.9690, 40124.00
505.1510, 40161.11
506.3330, 39990.00
507.5150, 40144.00
508.6970, 40000.00
509.8780, 39921.00
511.0600, 40092.00
512.2410, 40157.00
513.4220, 39950.00
514.6030, 40213.00
515.7840, 40255.00
516.9640, 40288.00
518.1440, 39826.00
519.3250, 39750.00
520.5050, 39774.00
521.6850, 39955.00
522.8640, 39798.00
524.0440, 39983.00
525.2230, 40154.00
526.4020, 39908.00
527.5820, 39888.00
528.7600, 40100.00
529.9390, 40055.00
531.1180, 40254.00
532.2960, 40190.00
533.4740, 40119.00
534.6520, 40004.00
535.8300, 40285.00
537.0080, 39886.00
538.1850, 40068.00
539.3630, 40207.00
540.5400, 39992.00
541.7170, 40128.00
542.8940, 40097.00
544.0700, 39870.00
545.2470, 39859.00
546.4230, 39939.00
547.5990, 40256.00
548.7750, 39892.00
549.9510, 40173.00
551.1270, 40140.00
552.3020, 40150.00
553.4780, 40166.00
554.6530, 40102.00
555.8280, 39916.00
557.0030, 39974.00
558.1770, 40027.00
559.3520, 40057.00
560.5260, 40164.00
561.7000, 40271.00
562.8740, 40184.00
564.0480, 40018.00
565.2220, 40300.00
566.3950, 40152.00
567.5680, 39990.00
568.7420, 40429.00
569.9150, 40155.00
571.0870, 40064.00
572.2600, 39953.00
573.4320, 39825.11
574.6050, 40162.00
575.7770, 39737.00
576.9490, 39974.00
578.1210, 40106.00
579.2920, 40049.00
580.4640, 39918.00
581.6350, 40096.00
582.8060, 40185.00
583.9770, 39891.00
585.1480, 39862.00
586.3190, 40077.00
587.4890, 39851.00
588.6590, 40019.00
589.8290, 40082.00
590.9990, 39895.00
592.1690, 40011.00
593.3390, 39847.00
594.5080, 39842.00
595.6770, 40017.00
596.8470, 39782.00
598.0160, 39804.00
599.1840, 39819.00
600.3530, 40021.00
601.5210, 40019.00
602.6900, 39857.00
603.8580, 39854.00
605.0260, 39911.00
606.1930, 39980.00
607.3610, 39918.00
608.5280, 39965.00
609.6960, 39883.00
610.8630, 39888.00
612.0300, 39949.00
613.1970, 39978.00
614.3630, 39793.00
615.5300, 39901.00
616.6960, 39838.06
617.8620, 40042.00
619.0280, 39795.00
620.1940, 39883.00
621.3590, 39822.00
622.5250, 39907.00
623.6900, 40199.00
624.8550, 40153.00
626.0200, 40292.00
627.1850, 40123.00
628.3490, 39925.00
629.5140, 40210.00
630.6780, 39789.00
631.8420, 40096.00
633.0060, 39850.00
634.1700, 40210.00
635.3330, 40076.00
636.4970, 39991.00
637.6600, 39763.00
638.8230, 40256.00
639.9860, 40095.00
641.1490, 40330.00
642.3110, 40018.00
643.4740, 40228.00
644.6360, 40176.00
645.7980, 40275.00
646.9600, 40166.00
648.1220, 40147.00
649.2840, 40111.00
650.4450, 40241.00
651.6060, 40530.00
652.7670, 40570.00
653.9280, 40712.00
655.0890, 41074.00
656.2500, 40800.00
657.4100, 41238.00
658.5700, 41431.00
659.7300, 41815.00
660.8900, 42086.00
662.0500, 42931.00
663.2100, 42987.00
664.3690, 43040.00
665.5280, 43379.00
666.6880, 43042.00
667.8460, 42790.00
669.0050, 42747.00
670.1640, 42450.00
671.3220, 42149.00
672.4810, 41809.00
673.6390, 41428.00
674.7970, 41338.00
675.9540, 41080.00
677.1120, 41154.00
678.2690, 40867.00
679.4270, 40719.00
680.5840, 40792.00
681.7410, 40385.00
682.8980, 40208.00
684.0540, 40211.00
685.2110, 40089.00
686.3670, 40177.00
687.5230, 39996.00
688.6790, 40152.00
689.8350, 39803.00
690.9900, 39849.00
692.1460, 40089.00
693.3010, 39996.00
694.4560, 39938.00
695.6110, 39811.00
696.7660, 39913.00
697.9210, 40143.00
699.0750, 40020.00
700.2290, 40189.00
701.3840, 40032.00
702.5370, 40176.00
703.6910, 40103.00
704.8450, 40023.00
705.9980, 40153.00
707.1520, 40159.00
708.3050, 40203.00
709.4580, 40083.50
710.6110, 40279.12
711.7630, 40383.62
712.9160, 40401.88
714.0680, 40075.66
715.2200, 40194.29
716.3720, 40134.63
717.5240, 40067.67
718.6760, 40248.90
719.8270, 39972.80
720.9780, 40150.11
722.1300, 40146.41
723.2810, 40225.56
724.4310, 40125.34
725.5820, 40080.52
726.7330, 40215.13
727.8830, 40032.00
729.0330, 40152.00
730.1830, 40245.00
731.3330, 40043.00
732.4830, 40026.00
733.6320, 40211.00
734.7810, 40038.00
735.9310, 40443.00
737.0800, 40098.00
738.2290, 39993.00
739.3770, 40502.00
740.5260, 40307.00
741.6740, 40271.00
742.8220, 40317.00
743.9700, 40283.00
745.1180, 40339.46
746.2660, 40204.00
747.4130, 40431.00
748.5610, 40558.00
749.7080, 40568.00
750.8550, 40965.00
752.0020, 41052.00
753.1490, 40817.00
754.2950, 41091.00
755.4420, 41276.00
756.5880, 41587.00
757.7340, 41744.00
758.8800, 41970.00
760.0250, 42411.00
761.1710, 42851.00
762.3160, 43059.00
763.4620, 43369.00
764.6070, 43585.48
765.7520, 43729.68
766.8960, 43774.00
768.0410, 43896.00
769.1850, 43627.00
770.3300, 43508.00
771.4740, 42520.00
772.6180, 42432.00
773.7610, 42044.00
774.9050, 41705.00
776.0480, 41355.00
777.1920, 41172.00
778.3350, 40874.81
779.4780, 41039.00
780.6200, 40585.00
781.7630, 40452.00
782.9060, 40690.00
784.0480, 40892.00
785.1900, 40620.00
786.3320, 40431.00
787.4740, 40369.00
788.6150, 40447.00
789.7570, 40612.00
790.8980, 40166.00
792.0390, 40285.00
793.1800, 40059.00
794.3210, 40316.00
795.4620, 40436.00
796.6020, 40234.00
797.7420, 40109.00
798.8830, 40153.00
800.0230, 39910.00
801.1620, 40109.00
802.3020, 40124.00
803.4420, 40239.00
804.5810, 40207.09
805.7200, 39965.00
806.8590, 40085.00
807.9980, 40074.00
809.1370, 40022.00
810.2750, 40095.00
811.4140, 39911.00
812.5520, 39924.00
813.6900, 40027.00
814.8280, 39991.00
815.9650, 40381.00
817.1030, 39998.00
818.2400, 39938.00
819.3780, 39668.00
820.5150, 39907.00
821.6520, 39636.00
822.7880, 39858.00
823.9250, 39991.00
825.0610, 40005.00
826.1980, 39799.00
827.3340, 39855.00
828.4700, 40019.00
829.6050, 39775.00
830.7410, 39838.00
831.8760, 39632.00
833.0120, 39719.00
834.1470, 39932.00
835.2820, 39757.00
836.4160, 39855.53
837.5510, 39707.00
838.6860, 39857.00
839.8200, 39627.00
840.9540, 39688.00
842.0880, 39796.00
843.2220, 39671.01
844.3550, 39614.00
845.4890, 39623.00
846.6220, 39680.00
847.7550, 39707.00
848.8880, 39570.00
850.0210, 39699.00
851.1540, 39538.00
852.2860, 39367.00
853.4190, 39666.00
854.5510, 39475.00
855.6830, 39745.00
856.8150, 39576.00
857.9460, 39743.00
859.0780, 39644.00
860.2090, 39571.00
861.3410, 39565.00
862.4720, 39508.00
863.6020, 39484.00
864.7330, 39323.00
865.8640, 39391.88
866.9940, 39769.00
868.1240, 39465.00
869.2540, 39604.00
870.3840, 39630.00
871.5140, 39536.00
872.6440, 39578.00
873.7730, 39581.00
874.9020, 39486.00
876.0320, 39590.81
877.1600, 39298.00
878.2890, 39675.00
879.4180, 39587.00
880.5460, 39503.00
881.6750, 39178.00
882.8030, 39533.00
883.9310, 39276.00
885.0590, 39579.00
886.1860, 39613.00
887.3140, 39378.00
888.4410, 39460.00
889.5680, 39493.00
890.6950, 39371.00
891.8220, 39623.00
892.9490, 39444.00
894.0750, 39387.00
895.2020, 39439.00
896.3280, 39400.00
897.4540, 39279.00
898.5800, 39283.00
899.7050, 39281.00
900.8310, 39113.00
901.9560, 39456.00
903.0820, 39046.00
904.2070, 39177.00
905.3320, 39390.00
906.4560, 39209.00
907.5810, 39494.00
908.7050, 39206.00
909.8300, 39173.00
910.9540, 39252.00
912.0780, 39251.00
913.2010, 39308.00
914.3250, 39297.25
915.4480, 39260.00
916.5720, 39238.00
917.6950, 39138.00
918.8180, 39048.00
919.9410, 39060.00
921.0630, 39033.00
922.1860, 39187.00
923.3080, 39155.00
924.4300, 39078.00
925.5520, 38965.00
926.6740, 38946.17
927.7960, 39105.00
928.9170, 38890.00
930.0390, 39052.00
931.1600, 39091.00
932.2810, 38725.00
933.4020, 38972.00
934.5230, 38842.00
935.6430, 38906.00
936.7640, 38797.00
937.8840, 38930.00
939.0040, 38916.00
940.1240, 38769.00
941.2440, 38954.00
942.3630, 38674.00
943.4830, 38819.00
944.6020, 38541.00
945.7210, 38719.00
946.8400, 38811.00
947.9590, 38830.00
949.0770, 38733.00
950.1960, 38922.00
951.3140, 38553.00
952.4320, 38551.00
953.5500, 38488.00
954.6680, 38759.00
955.7860, 38619.00
956.9030, 38712.00
958.0210, 38790.00
959.1380, 38643.00
960.2550, 38521.00
961.3720, 38500.00
962.4890, 38778.00
963.6050, 38555.00
964.7220, 38606.00
965.8380, 38511.00
966.9540, 38379.00
968.0700, 38450.00
969.1860, 38272.00
970.3010, 38374.00
971.4170, 38461.00
972.5320, 38342.00
973.6470, 38452.00
974.7620, 38689.00
975.8770, 38273.00
976.9910, 38332.00
978.1060, 38413.00
979.2200, 38142.00
980.3340, 38038.00
981.4480, 38343.00
982.5620, 38475.00
983.6760, 38302.00
984.7890, 38523.00
985.9030, 38092.00
987.0160, 38135.00
988.1290, 38104.00
989.2420, 38359.00
990.3550, 38128.00
991.4670, 38128.00
992.5800, 38110.00
993.6920, 38130.00
994.8040, 38150.00
995.9160, 38123.00
997.0280, 38056.00
998.1390, 38103.00
999.2510, 38010.00
1000.362, 37830.00
1001.473, 38019.00
1002.584, 37837.00
1003.695, 37855.00
1004.805, 38042.00
1005.916, 37699.00
1007.026, 37989.00
1008.136, 38040.00
1009.246, 37635.00
1010.356, 37845.00
1011.466, 37727.00
1012.576, 38082.00
1013.685, 37698.00
1014.794, 37732.00
1015.903, 37641.00
1017.012, 37825.00
1018.121, 37648.00
1019.229, 37785.00
1020.338, 37777.00
1021.446, 37683.00
1022.554, 37441.00
1023.662, 37527.00
1024.770, 37756.00
1025.878, 37548.00
1026.985, 37719.00
1028.092, 37462.00
1029.200, 37400.00
1030.307, 37436.00
1031.413, 37670.00
1032.520, 37570.00
1033.627, 37198.00
1034.733, 37636.00
1035.839, 37364.00
1036.945, 37511.00
1038.051, 37310.00
1039.157, 37289.00
1040.262, 37540.00
1041.368, 37428.00
1042.473, 37324.00
1043.578, 37712.00
1044.683, 37590.00
1045.788, 37580.00
1046.893, 37484.00
1047.997, 37398.00
1049.101, 37502.00
1050.205, 37781.00
1051.309, 37483.00
1052.413, 37666.00
1053.517, 37667.00
1054.621, 37600.00
1055.724, 37698.00
1056.827, 37931.00
1057.930, 37587.00
1059.033, 37481.00
1060.136, 37935.00
1061.238, 37753.00
1062.341, 37860.00
1063.443, 37698.00
1064.545, 37915.00
1065.647, 37821.00
1066.749, 37768.00
1067.850, 37773.00
1068.952, 37783.00
1070.053, 37643.84
1071.154, 37857.16
1072.255, 37977.39
1073.356, 38009.41
1074.457, 37694.96
1075.557, 37823.40
1076.658, 37771.58
1077.758, 37710.49
1078.858, 37895.63
1079.958, 37621.45
1081.057, 37798.73
1082.157, 37793.03
1083.256, 37868.22
1084.356, 37762.05
1085.455, 37709.34
1086.554, 37834.09
1087.653, 37857.53
1088.751, 37722.90
1089.850, 37573.00
1090.948, 37501.64
1092.046, 37581.00
1093.144, 37464.00
1094.242, 37421.00
1095.340, 37523.00
1096.437, 37397.00
1097.534, 37522.00
1098.632, 37688.00
1099.729, 37659.00
1100.826, 37645.00
1101.922, 37334.00
1103.019, 37555.00
1104.115, 37391.00
1105.212, 37183.00
1106.308, 37617.00
1107.404, 37419.00
1108.499, 37403.00
1109.595, 37369.00
1110.691, 37256.00
1111.786, 37212.58
1112.881, 37294.00
1113.976, 37056.00
1115.071, 37245.00
1116.166, 37196.00
1117.260, 37126.00
1118.355, 37271.00
1119.449, 37028.00
1120.543, 37416.00
1121.637, 37114.00
1122.731, 37190.00
1123.824, 37272.00
1124.918, 37087.00
1126.011, 37164.00
1127.104, 37202.00
1128.197, 37188.00
1129.290, 37037.00
1130.382, 36973.00
1131.475, 37037.00
1132.567, 36880.00
1133.659, 36961.00
1134.751, 37086.00
1135.843, 37283.00
1136.935, 36894.00
1138.027, 36790.00
1139.118, 36973.00
1140.209, 36958.00
1141.300, 37066.00
1142.391, 37007.00
1143.482, 36908.00
1144.573, 36821.00
1145.663, 36919.00
1146.754, 37038.00
1147.844, 36724.00
1148.934, 36829.00
1150.024, 36899.00
1151.113, 36860.00
1152.203, 36774.00
1153.292, 36855.00
1154.381, 36923.00
1155.470, 36830.62
1156.559, 36618.00
1157.648, 36651.00
1158.737, 36631.00
1159.825, 36432.00
1160.913, 36687.00
1162.001, 36608.00
1163.089, 36751.00
1164.177, 36656.00
1165.265, 36521.00
1166.352, 36550.00
1167.440, 36545.00
1168.527, 36686.00
1169.614, 36479.00
1170.701, 36694.00
1171.788, 36359.00
1172.874, 36737.00
1173.961, 36295.00
1175.047, 36571.00
1176.133, 36581.00
1177.219, 36278.00
1178.305, 36278.00
1179.390, 36326.00
1180.476, 36118.00
1181.561, 36352.00
1182.646, 36388.00
1183.731, 36333.00
1184.816, 36431.00
1185.901, 36140.00
1186.985, 36329.00
1188.070, 36151.00
1189.154, 36131.00
1190.238, 36105.00
1191.322, 36121.00
1192.406, 36288.00
1193.489, 36201.00
1194.573, 36011.00
1195.656, 36338.00
1196.739, 36157.00
1197.822, 36126.00
1198.905, 36375.00
1199.988, 35938.00
1201.070, 36177.00
1202.153, 35974.00
1203.235, 36256.00
1204.317, 36200.00
1205.399, 36249.00
1206.481, 36282.31
1207.562, 36131.00
1208.644, 36178.00
1209.725, 36025.00
1210.806, 35864.00
1211.887, 35928.00
1212.968, 35991.00
1214.049, 36096.00
1215.129, 35981.00
1216.209, 35912.00
1217.290, 36078.00
1218.370, 35923.00
1219.450, 35877.00
1220.529, 35729.00
1221.609, 35733.06
1222.688, 35958.00
1223.768, 35800.00
1224.847, 35901.00
1225.926, 36047.00
1227.005, 35747.00
1228.083, 36254.00
1229.162, 35719.00
1230.240, 35714.00
1231.318, 35737.00
1232.396, 35851.00
1233.474, 35876.00
1234.552, 35966.00
1235.629, 35950.90
1236.707, 35714.00
1237.784, 35948.00
1238.861, 35819.00
1239.938, 35913.00
1241.015, 35850.00
1242.092, 35734.00
1243.168, 35699.00
1244.244, 35670.83
1245.321, 35685.00
1246.397, 35699.00
1247.473, 35724.45
1248.548, 35755.07
1249.624, 35794.00
1250.699, 35831.00
1251.775, 35839.00
1252.850, 35879.00
1253.925, 35882.00
1254.999, 35896.20
1256.074, 35962.00
1257.148, 35889.00
1258.223, 35790.00
1259.297, 35728.00
1260.371, 35804.00
1261.445, 35720.00
1262.519, 35822.00
1263.592, 35905.00
1264.666, 36011.00
1265.739, 35886.00
1266.812, 35891.00
1267.885, 35733.00
1268.958, 35959.00
1270.030, 36058.00
1271.103, 36021.00
1272.175, 36017.00
1273.247, 36053.46
1274.319, 35798.00
1275.391, 35974.00
1276.463, 36059.00
1277.535, 35801.00
1278.606, 35783.00
1279.677, 36129.00
1280.748, 35661.00
1281.819, 36108.00
1282.890, 35801.00
1283.961, 35992.00
1285.031, 36076.00
1286.102, 35819.00
1287.172, 35897.00
1288.242, 35961.00
1289.312, 35947.00
