##NAMES=Spinel
##RRUFFID=R050259
##IDEAL CHEMISTRY=MgAl_2_O_4_
##LOCALITY=Mogok, Burma
##OWNER=RRUFF
##SOURCE=Marcus Origlieri
##DESCRIPTION=Purple cut gemstone
##STATUS=The identification of this mineral has been confirmed by X-ray diffraction and chemical analysis
##URL=rruff.info/R050259
##MEASURED CHEMISTRY=(Mg_0.99_Zn_0.01_)_Σ=1_(Al_1.98_Fe^3+^_0.02_)_Σ=2_O_4_; trace amounts of Cr
##PIN_ID=L00851
##ORIENTATION=Laser parallel to c* (0 0 1). Fiducial mark perpendicular to laser is parallel to a [1 0 0]
75.95700, 870668.0
77.19600, 864027.0
78.43500, 864887.0
79.67300, 866683.0
80.91200, 861802.0
82.15000, 860749.0
83.38800, 861002.0
84.62600, 857760.0
85.86300, 859809.0
87.10100, 857122.0
88.33800, 854420.0
89.57500, 854033.0
90.81200, 850194.7
92.04900, 850005.0
93.28600, 846667.0
94.52300, 845961.0
95.75900, 845206.1
96.99500, 844682.2
98.23100, 843954.0
99.46700, 845751.0
100.7030, 844793.0
101.9390, 845967.0
103.1740, 844866.0
104.4090, 837936.0
105.6440, 837305.0
106.8790, 838413.0
108.1140, 836131.0
109.3490, 836259.0
110.5830, 837127.0
111.8180, 835361.0
113.0520, 836043.0
114.2860, 834946.0
115.5200, 831609.0
116.7530, 828705.0
117.9870, 832217.0
119.2200, 832623.0
120.4530, 831210.0
121.6860, 832262.0
122.9190, 833145.0
124.1520, 832616.0
125.3850, 827469.0
126.6170, 826536.0
127.8490, 826584.0
129.0810, 825669.0
130.3130, 824791.0
131.5450, 825278.0
132.7770, 824418.8
134.0080, 824341.1
135.2390, 824748.0
136.4710, 823755.0
137.7020, 826021.0
138.9320, 825503.0
140.1630, 826481.0
141.3930, 823412.0
142.6240, 820770.0
143.8540, 821525.0
145.0840, 820226.0
146.3140, 817635.0
147.5440, 818613.0
148.7730, 818542.0
150.0020, 817657.0
151.2320, 817587.0
152.4610, 815555.0
153.6900, 816618.0
154.9180, 814074.0
156.1470, 815617.0
157.3750, 816405.0
158.6040, 814065.0
159.8320, 813418.0
161.0600, 812660.0
162.2870, 811306.0
163.5150, 808587.0
164.7420, 805371.0
165.9700, 803381.0
167.1970, 803103.0
168.4240, 801332.8
169.6510, 803962.0
170.8770, 800079.0
172.1040, 801956.0
173.3300, 801858.0
174.5560, 800878.0
175.7820, 800743.4
177.0080, 798662.0
178.2340, 798918.0
179.4590, 797138.0
180.6850, 797073.0
181.9100, 795825.0
183.1350, 793311.0
184.3600, 796380.0
185.5850, 794722.0
186.8090, 792351.0
188.0340, 793261.0
189.2580, 793715.0
190.4820, 792577.0
191.7060, 790243.0
192.9300, 789827.0
194.1530, 788861.0
195.3770, 787918.7
196.6000, 786863.0
197.8230, 786593.0
199.0460, 787206.0
200.2690, 786257.0
201.4910, 787427.0
202.7140, 785433.0
203.9360, 786677.0
205.1580, 783993.0
206.3800, 784015.0
207.6020, 781384.0
208.8240, 780257.0
210.0450, 780571.0
211.2670, 781033.0
212.4880, 779405.0
213.7090, 778364.0
214.9300, 777047.0
216.1510, 777642.0
217.3710, 774624.0
218.5920, 774621.0
219.8120, 772434.8
221.0320, 773125.0
222.2520, 768831.0
223.4720, 769037.0
224.6910, 769009.0
225.9110, 770665.0
227.1300, 771193.0
228.3490, 769010.0
229.5680, 768330.0
230.7870, 765141.0
232.0050, 764094.0
233.2240, 764671.0
234.4420, 762190.0
235.6600, 762328.0
236.8780, 762564.0
238.0960, 761097.0
239.3140, 760455.0
240.5310, 759643.2
241.7490, 758663.0
242.9660, 757478.0
244.1830, 757123.0
245.4000, 755701.0
246.6160, 756286.0
247.8330, 756848.0
249.0490, 754268.0
250.2660, 756063.0
251.4820, 754574.0
252.6980, 752674.0
253.9130, 750070.0
255.1290, 748416.0
256.3440, 747366.8
257.5600, 746325.0
258.7750, 746567.0
259.9900, 745686.0
261.2040, 746710.0
262.4190, 743384.0
263.6330, 745281.0
264.8480, 744675.0
266.0620, 743289.0
267.2760, 743839.0
268.4900, 741855.0
269.7030, 741709.0
270.9170, 740495.0
272.1300, 738809.0
273.3430, 739780.0
274.5560, 739025.0
275.7690, 738267.0
276.9820, 736491.0
278.1940, 735449.0
279.4070, 735556.0
280.6190, 733806.0
281.8310, 734123.0
283.0430, 734357.0
284.2550, 730535.0
285.4660, 731321.0
286.6770, 732379.0
287.8890, 729422.0
289.1000, 729685.0
290.3110, 730713.0
291.5210, 729029.0
292.7320, 726641.0
293.9420, 725466.0
295.1530, 725528.0
296.3630, 724922.0
297.5730, 723891.0
298.7830, 723378.9
299.9920, 721811.0
301.2020, 721593.0
302.4110, 720465.0
303.6200, 719495.0
304.8290, 720558.0
306.0380, 720311.0
307.2470, 718319.0
308.4550, 716943.0
309.6630, 715233.0
310.8720, 715095.0
312.0800, 715016.0
313.2880, 713448.0
314.4950, 714627.0
315.7030, 712832.0
316.9100, 712574.0
318.1170, 710993.0
319.3240, 710049.0
320.5310, 709445.0
321.7380, 709176.0
322.9450, 707898.0
324.1510, 706583.0
325.3570, 707955.0
326.5630, 705528.0
327.7690, 706917.0
328.9750, 705167.0
330.1810, 705332.0
331.3860, 703535.0
332.5910, 703147.0
333.7960, 701776.0
335.0010, 702344.0
336.2060, 699435.0
337.4110, 700862.0
338.6150, 698367.0
339.8200, 698736.0
341.0240, 698152.0
342.2280, 696394.0
343.4320, 696660.0
344.6350, 695614.0
345.8390, 695656.0
347.0420, 696275.0
348.2450, 693609.0
349.4480, 692966.0
350.6510, 692945.0
351.8540, 691807.0
353.0560, 691727.0
354.2590, 691046.2
355.4610, 690029.3
356.6630, 689489.0
357.8650, 688248.0
359.0670, 686665.0
360.2680, 686213.0
361.4700, 685970.0
362.6710, 684913.0
363.8720, 684725.0
365.0730, 683037.0
366.2740, 683565.0
367.4740, 683213.0
368.6750, 681843.0
369.8750, 681532.0
371.0750, 680555.0
372.2750, 680159.1
373.4750, 680730.0
374.6740, 679779.0
375.8740, 679343.0
377.0730, 679612.0
378.2720, 678863.0
379.4710, 678007.0
380.6700, 677466.0
381.8690, 676294.0
383.0670, 676242.4
384.2660, 677187.0
385.4640, 676407.0
386.6620, 677081.0
387.8600, 678088.0
389.0570, 678629.0
390.2550, 680474.0
391.4520, 683666.0
392.6490, 684677.0
393.8460, 687906.0
395.0430, 692594.0
396.2400, 698129.0
397.4370, 707294.0
398.6330, 717204.0
399.8290, 729481.0
401.0250, 745789.0
402.2210, 764457.0
403.4170, 783347.0
404.6130, 800667.0
405.8080, 808036.0
407.0030, 802591.0
408.1980, 784303.0
409.3930, 756634.0
410.5880, 734133.0
411.7830, 714469.0
412.9770, 698263.0
414.1720, 686972.0
415.3660, 677989.0
416.5600, 670351.0
417.7530, 665284.0
418.9470, 661579.0
420.1410, 656889.0
421.3340, 654450.0
422.5270, 651934.0
423.7200, 650136.0
424.9130, 648113.0
426.1060, 646271.0
427.2980, 644636.2
428.4900, 642431.0
429.6830, 641344.0
430.8750, 640123.0
432.0670, 638282.0
433.2580, 636442.0
434.4500, 635186.0
435.6410, 634063.0
436.8320, 632135.0
438.0240, 630486.0
439.2140, 630873.0
440.4050, 629236.0
441.5960, 629521.0
442.7860, 628489.0
443.9760, 626990.0
445.1670, 625940.0
446.3560, 624989.6
447.5460, 624419.0
448.7360, 623478.0
449.9250, 622131.0
451.1150, 621825.0
452.3040, 620088.0
453.4930, 619441.0
454.6810, 619232.0
455.8700, 617771.0
457.0590, 616971.0
458.2470, 616638.0
459.4350, 614934.0
460.6230, 614661.0
461.8110, 613651.0
462.9980, 613113.0
464.1860, 614087.0
465.3730, 611841.0
466.5600, 610006.0
467.7470, 611251.0
468.9340, 609605.0
470.1210, 610111.0
471.3080, 608101.0
472.4940, 607076.0
473.6800, 606326.0
474.8660, 606654.0
476.0520, 604199.0
477.2380, 606200.0
478.4230, 603417.0
479.6090, 603419.0
480.7940, 601668.0
481.9790, 600794.0
483.1640, 600044.0
484.3490, 599573.0
485.5330, 598595.0
486.7180, 597666.0
487.9020, 595875.0
489.0860, 595255.0
490.2700, 595415.0
491.4540, 593974.0
492.6370, 593704.0
493.8210, 591891.0
495.0040, 590935.0
496.1870, 589756.0
497.3700, 589974.0
498.5530, 588443.0
499.7360, 588291.0
500.9180, 588555.0
502.1000, 586754.0
503.2830, 585835.0
504.4650, 584521.0
505.6460, 583939.0
506.8280, 583058.0
508.0100, 582154.0
509.1910, 581266.0
510.3720, 580801.0
511.5530, 579840.0
512.7340, 578167.0
513.9150, 578630.0
515.0950, 576577.0
516.2760, 576526.0
517.4560, 576060.0
518.6360, 575109.0
519.8160, 574735.0
520.9950, 573251.0
522.1750, 573495.0
523.3540, 572314.0
524.5340, 572267.0
525.7130, 570528.0
526.8920, 569593.0
528.0700, 568280.0
529.2490, 567147.8
530.4270, 566383.6
531.6060, 565258.0
532.7840, 564965.0
533.9620, 564442.0
535.1390, 563942.0
536.3170, 563197.4
537.4940, 562335.0
538.6720, 561660.0
539.8490, 560838.0
541.0260, 560378.0
542.2030, 560632.0
543.3790, 558542.0
544.5560, 558687.0
545.7320, 558618.0
546.9080, 555758.0
548.0840, 555993.0
549.2600, 555999.0
550.4360, 554206.0
551.6110, 554779.0
552.7860, 552987.0
553.9620, 552090.0
555.1370, 552236.0
556.3110, 550528.0
557.4860, 549758.0
558.6610, 549201.0
559.8350, 548717.0
561.0090, 548069.0
562.1830, 547303.0
563.3570, 546439.6
564.5310, 544621.0
565.7040, 544331.0
566.8780, 543938.0
568.0510, 542653.0
569.2240, 542779.0
570.3970, 541438.0
571.5700, 541709.0
572.7420, 539746.0
573.9150, 539617.0
575.0870, 539747.0
576.2590, 536864.0
577.4310, 537107.0
578.6030, 536403.0
579.7740, 535422.0
580.9460, 533810.0
582.1170, 532627.0
583.2880, 532595.0
584.4590, 532174.0
585.6300, 531522.0
586.8010, 530665.0
587.9710, 530564.0
589.1410, 530062.0
590.3110, 527770.0
591.4810, 527273.0
592.6510, 527060.0
593.8210, 525153.0
594.9900, 525183.0
596.1600, 524997.0
597.3290, 524246.0
598.4980, 523386.0
599.6670, 522509.0
600.8350, 521149.0
602.0040, 521214.0
603.1720, 519312.0
604.3400, 519850.0
605.5080, 518898.0
606.6760, 518188.0
607.8440, 516259.0
609.0120, 514514.0
610.1790, 514016.0
611.3460, 512960.0
612.5130, 512807.0
613.6800, 511817.0
614.8470, 511492.0
616.0130, 510945.0
617.1800, 510574.0
618.3460, 510344.0
619.5120, 508587.0
620.6780, 508572.0
621.8440, 507689.0
623.0090, 506532.0
624.1750, 506670.0
625.3400, 506226.0
626.5050, 505857.0
627.6700, 504401.0
628.8350, 504033.0
629.9990, 503746.0
631.1640, 504014.0
632.3280, 501387.0
633.4920, 500919.0
634.6560, 499960.0
635.8200, 500080.0
636.9840, 498352.0
638.1470, 498625.0
639.3100, 497381.0
640.4730, 497039.0
641.6360, 495977.0
642.7990, 495654.0
643.9620, 493588.0
645.1240, 493296.0
646.2870, 493500.0
647.4490, 491187.0
648.6110, 490842.0
649.7730, 489787.0
650.9340, 489151.0
652.0960, 488572.0
653.2570, 487491.0
654.4180, 487029.0
655.5790, 486310.7
656.7400, 485794.0
657.9010, 484994.0
659.0620, 484296.0
660.2220, 483425.4
661.3820, 482973.7
662.5420, 481881.0
663.7020, 481735.0
664.8620, 480786.0
666.0210, 479401.0
667.1810, 479287.0
668.3400, 477618.0
669.4990, 477651.0
670.6580, 476749.0
671.8170, 474652.0
672.9750, 474145.0
674.1340, 473721.0
675.2920, 472405.0
676.4500, 471114.0
677.6080, 470041.0
678.7660, 469225.0
679.9230, 468561.0
681.0810, 468086.0
682.2380, 466766.0
683.3950, 466287.5
684.5520, 464258.0
685.7090, 465023.0
686.8660, 463174.0
688.0220, 462859.0
689.1780, 462413.0
690.3340, 462384.0
691.4900, 462063.0
692.6460, 459973.0
693.8020, 459902.0
694.9570, 459719.0
696.1130, 458412.0
697.2680, 458353.0
698.4230, 456876.0
699.5780, 456578.0
700.7320, 456307.0
701.8870, 455101.0
703.0410, 453932.0
704.1950, 453467.0
705.3490, 452099.0
706.5030, 451015.0
707.6570, 451246.0
708.8110, 449254.0
709.9640, 448855.0
711.1170, 447549.0
712.2700, 446538.0
713.4230, 444167.0
714.5760, 443680.0
715.7280, 441370.0
716.8810, 438464.0
718.0330, 436650.0
719.1850, 434263.0
720.3370, 432752.0
721.4890, 431759.0
722.6400, 431065.1
723.7920, 431077.7
724.9430, 431371.0
726.0940, 432358.0
727.2450, 433715.0
728.3960, 435362.0
729.5460, 433870.0
730.6970, 434522.0
731.8470, 434768.0
732.9970, 433162.0
734.1470, 433424.0
735.2970, 433152.0
736.4460, 432000.0
737.5960, 432227.0
738.7450, 430609.0
739.8940, 429890.0
741.0430, 431106.0
742.1920, 430309.0
743.3410, 429757.0
744.4890, 429491.0
745.6370, 429580.0
746.7850, 428478.0
747.9330, 428865.0
749.0810, 427652.0
750.2290, 427742.0
751.3760, 427727.0
752.5240, 426780.0
753.6710, 426902.0
754.8180, 427422.0
755.9650, 427110.0
757.1110, 427860.0
758.2580, 427549.0
759.4040, 428831.0
760.5510, 429437.0
761.6970, 430787.0
762.8420, 431502.0
763.9880, 432665.0
765.1340, 433085.0
766.2790, 431661.0
767.4240, 431758.0
768.5690, 429038.0
769.7140, 427111.0
770.8590, 423585.0
772.0030, 420677.0
773.1480, 418625.0
774.2920, 415741.0
775.4360, 415025.0
776.5800, 411636.0
777.7240, 410958.0
778.8670, 410050.0
780.0110, 407931.0
781.1540, 406048.0
782.2970, 404293.0
783.4400, 403035.2
784.5830, 402435.0
785.7250, 400886.0
786.8680, 400211.0
788.0100, 399073.0
789.1520, 397510.0
790.2940, 396570.0
791.4360, 395506.0
792.5780, 393884.0
793.7190, 393300.0
794.8600, 393076.0
796.0010, 392594.0
797.1420, 391589.0
798.2830, 391422.0
799.4240, 391323.0
800.5640, 390051.0
801.7050, 389618.0
802.8450, 389832.0
803.9850, 389300.0
805.1250, 389028.0
806.2640, 388642.0
807.4040, 387901.0
808.5430, 387502.0
809.6820, 386951.0
810.8210, 386437.0
811.9600, 385210.0
813.0990, 385276.0
814.2370, 384009.0
815.3760, 384373.0
816.5140, 383270.0
817.6520, 381790.0
818.7900, 381872.0
819.9270, 380752.0
821.0650, 379286.0
822.2020, 378420.0
823.3390, 377242.0
824.4760, 375735.0
825.6130, 376017.0
826.7500, 374755.0
827.8870, 373574.0
829.0230, 373983.0
830.1590, 372578.0
831.2950, 372433.0
832.4310, 371710.0
833.5670, 371102.0
834.7030, 371042.0
835.8380, 370420.0
836.9730, 369903.0
838.1080, 368469.0
839.2430, 368100.0
840.3780, 367066.0
841.5130, 367395.0
842.6470, 366680.0
843.7810, 365851.0
844.9150, 364865.0
846.0490, 364078.0
847.1830, 363133.0
848.3170, 362478.0
849.4500, 362098.0
850.5830, 362253.0
851.7160, 360597.0
852.8490, 361429.0
853.9820, 359177.0
855.1150, 358816.0
856.2470, 359015.0
857.3800, 356539.0
858.5120, 356936.0
859.6440, 356823.0
860.7760, 354497.0
861.9070, 354661.0
863.0390, 354198.0
864.1700, 353337.0
865.3010, 352720.0
866.4320, 352039.0
867.5630, 351615.0
868.6940, 350926.0
869.8240, 350514.0
870.9540, 349072.0
872.0850, 348600.0
873.2150, 347999.0
874.3450, 346754.0
875.4740, 346196.0
876.6040, 345859.0
877.7330, 344604.0
878.8620, 344234.0
879.9910, 343380.0
881.1200, 342965.0
882.2490, 342003.0
883.3770, 341500.0
884.5060, 340679.0
885.6340, 339910.0
886.7620, 338940.0
887.8900, 338694.0
889.0180, 337329.0
890.1450, 337320.0
891.2730, 336228.0
892.4000, 335414.0
893.5270, 335549.0
894.6540, 335028.0
895.7810, 333679.0
896.9070, 333742.0
898.0340, 333432.0
899.1600, 332475.0
900.2860, 332233.0
901.4120, 331669.6
902.5380, 330751.0
903.6630, 330475.0
904.7890, 330116.0
905.9140, 328959.0
907.0390, 328140.0
908.1640, 327714.0
909.2890, 327610.0
910.4130, 326989.0
911.5380, 326766.0
912.6620, 326299.9
913.7860, 325030.0
914.9100, 325191.0
916.0340, 324129.0
917.1580, 323169.0
918.2810, 322682.0
919.4040, 321768.0
920.5280, 321347.0
921.6510, 320704.0
922.7730, 319839.0
923.8960, 319387.0
925.0180, 318740.9
926.1410, 318278.0
927.2630, 317678.0
928.3850, 317511.0
929.5070, 317045.0
930.6280, 316165.0
931.7500, 315354.0
932.8710, 314718.0
933.9920, 314183.2
935.1130, 313774.0
936.2340, 313406.0
937.3550, 312947.0
938.4760, 312374.9
939.5960, 311830.0
940.7160, 311033.0
941.8360, 310099.0
942.9560, 309173.0
944.0760, 309255.0
945.1950, 307849.0
946.3150, 307694.0
947.4340, 307427.0
948.5530, 306351.0
949.6720, 306284.0
950.7900, 306293.0
951.9090, 304839.0
953.0270, 304036.0
954.1460, 303632.0
955.2640, 303535.0
956.3820, 302341.0
957.4990, 301930.0
958.6170, 301497.0
959.7340, 300539.0
960.8520, 299771.0
961.9690, 299121.0
963.0860, 298768.0
964.2020, 297950.6
965.3190, 297633.0
966.4350, 296644.0
967.5520, 296534.0
968.6680, 296084.0
969.7840, 296349.0
970.8990, 295117.0
972.0150, 294726.0
973.1310, 294808.0
974.2460, 293323.0
975.3610, 293205.0
976.4760, 292906.0
977.5910, 292511.0
978.7050, 291633.0
979.8200, 290867.0
980.9340, 290346.0
982.0480, 289740.0
983.1620, 288657.0
984.2760, 288600.0
985.3900, 287200.0
986.5030, 287484.0
987.6160, 286439.0
988.7300, 286696.0
989.8430, 286205.0
990.9550, 285950.0
992.0680, 284914.0
993.1810, 284680.0
994.2930, 283964.0
995.4050, 283145.0
996.5170, 282687.0
997.6290, 281793.0
998.7410, 281246.0
999.8520, 280666.0
1000.964, 280633.0
1002.075, 280057.0
1003.186, 279568.0
1004.297, 278635.0
1005.407, 278985.0
1006.518, 277557.0
1007.628, 277836.0
1008.738, 277044.0
1009.848, 276583.0
1010.958, 276243.0
1012.068, 275254.0
1013.178, 274869.0
1014.287, 274503.0
1015.396, 273305.0
1016.505, 272324.0
1017.614, 272452.0
1018.723, 271778.0
1019.831, 271332.0
1020.940, 271444.0
1022.048, 269838.0
1023.156, 269531.0
1024.264, 268384.0
1025.372, 267755.9
1026.479, 267427.0
1027.587, 266464.0
1028.694, 266417.0
1029.801, 265387.0
1030.908, 264893.6
1032.015, 264532.0
1033.121, 263772.0
1034.228, 263029.0
1035.334, 262660.0
1036.440, 262568.0
1037.546, 262057.0
1038.652, 261903.0
1039.758, 261864.0
1040.863, 261687.0
1041.968, 260654.0
1043.074, 261154.0
1044.178, 259452.0
1045.283, 259057.0
1046.388, 259036.0
1047.492, 258556.0
1048.597, 257801.0
1049.701, 257017.0
1050.805, 257128.0
1051.909, 256355.0
1053.012, 255052.0
1054.116, 255134.0
1055.219, 254391.0
1056.322, 254116.0
1057.425, 254610.0
1058.528, 253429.0
1059.631, 253570.0
1060.733, 252765.0
1061.836, 252616.0
1062.938, 251781.0
1064.040, 251214.0
1065.142, 250772.0
1066.243, 249749.0
1067.345, 249496.0
1068.446, 248181.0
1069.547, 247457.0
1070.648, 247085.0
1071.749, 247714.0
1072.850, 245720.0
1073.951, 246477.0
1075.051, 246214.0
1076.151, 246039.0
1077.251, 245145.0
1078.351, 245460.0
1079.451, 244094.0
1080.550, 244542.0
1081.650, 244586.0
1082.749, 243795.0
1083.848, 243303.0
1084.947, 242279.0
1086.046, 242078.0
1087.144, 241893.0
1088.243, 241203.0
1089.341, 240225.0
1090.439, 239454.0
1091.537, 240090.0
1092.635, 239171.0
1093.732, 239424.0
1094.830, 238589.0
1095.927, 237668.0
1097.024, 238115.0
1098.121, 237996.0
1099.218, 237075.0
1100.314, 235974.0
1101.411, 236081.0
1102.507, 235421.0
1103.603, 234927.0
1104.699, 234438.0
1105.795, 233954.0
1106.890, 233832.0
1107.986, 233561.0
1109.081, 233809.0
1110.176, 233207.0
1111.271, 232178.0
1112.366, 232559.0
1113.461, 231399.0
1114.555, 230752.0
1115.649, 230548.0
1116.744, 230031.0
1117.838, 229695.0
1118.931, 229007.0
1120.025, 228198.0
1121.119, 228154.0
1122.212, 228030.0
1123.305, 227433.0
1124.398, 226763.0
1125.491, 226351.1
1126.584, 226192.0
1127.676, 225199.0
1128.768, 225085.0
1129.861, 224535.0
1130.953, 224058.0
1132.044, 223719.0
1133.136, 223421.0
1134.228, 222671.0
1135.319, 221902.0
1136.410, 221458.0
1137.501, 220658.0
1138.592, 220291.5
1139.683, 220079.0
1140.773, 219292.0
1141.864, 219327.0
1142.954, 218349.0
1144.044, 218405.0
1145.134, 217621.0
1146.224, 217996.0
1147.313, 217409.0
1148.402, 216920.0
1149.492, 217917.0
1150.581, 216308.0
1151.670, 216476.0
1152.758, 215688.0
1153.847, 215463.0
1154.935, 215323.0
1156.024, 214638.0
1157.112, 213878.0
1158.200, 213354.0
1159.287, 213491.0
1160.375, 212256.0
1161.462, 212537.0
1162.550, 211705.0
1163.637, 211327.0
1164.724, 211571.0
1165.810, 210438.0
1166.897, 210159.0
1167.983, 210267.0
1169.070, 208640.0
1170.156, 209473.0
1171.242, 207793.0
1172.327, 207707.0
1173.413, 207852.0
1174.499, 207129.0
1175.584, 206503.0
1176.669, 206071.0
1177.754, 205407.0
1178.839, 205840.0
1179.923, 204749.0
1181.008, 204842.0
1182.092, 204474.0
1183.176, 203954.0
1184.260, 203270.0
1185.344, 202671.0
1186.428, 202223.0
1187.511, 201950.0
1188.595, 201749.0
1189.678, 201361.0
1190.761, 200685.0
1191.843, 200651.0
1192.926, 199849.0
1194.009, 199938.0
1195.091, 199649.0
1196.173, 199344.0
1197.255, 198936.0
1198.337, 198247.0
1199.419, 197569.0
1200.500, 197415.0
1201.582, 197799.0
1202.663, 197189.0
1203.744, 197022.0
1204.825, 196202.0
1205.905, 195410.0
1206.986, 194897.0
1208.066, 194911.0
1209.146, 194681.0
1210.226, 193885.0
1211.306, 193252.0
1212.386, 193718.0
1213.466, 192637.0
1214.545, 192832.0
1215.624, 192522.0
1216.703, 191767.0
1217.782, 192061.0
1218.861, 191978.0
1219.939, 190717.0
1221.018, 190486.0
1222.096, 190715.0
1223.174, 189778.0
1224.252, 189205.0
1225.330, 189552.0
1226.407, 188958.0
1227.485, 189396.0
1228.562, 188288.0
1229.639, 187389.0
1230.716, 187143.0
1231.793, 186806.0
1232.869, 186377.0
1233.946, 186662.0
1235.022, 185998.0
1236.098, 186126.0
1237.174, 185161.0
1238.250, 185210.0
1239.325, 184379.0
1240.401, 184282.0
1241.476, 183990.0
1242.551, 183028.0
1243.626, 183334.0
1244.701, 182679.0
1245.776, 181990.0
1246.850, 181717.0
1247.924, 181266.0
1248.999, 181424.0
1250.073, 180393.0
1251.146, 180365.0
1252.220, 179715.0
1253.293, 179470.0
1254.367, 179034.0
1255.440, 178546.0
1256.513, 178598.0
1257.586, 177677.0
1258.658, 177192.0
1259.731, 177450.0
