##NAMES=Spinel
##RRUFFID=R050259
##IDEAL CHEMISTRY=MgAl_2_O_4_
##LOCALITY=Mogok, Burma
##OWNER=RRUFF
##SOURCE=Marcus Origlieri
##DESCRIPTION=Purple cut gemstone
##STATUS=The identification of this mineral has been confirmed by X-ray diffraction and chemical analysis
##URL=rruff.info/R050259
##MEASURED CHEMISTRY=(Mg_0.99_Zn_0.01_)_Σ=1_(Al_1.98_Fe^3+^_0.02_)_Σ=2_O_4_; trace amounts of Cr
##PIN_ID=L00851
##ORIENTATION=Laser parallel to c* (0 0 1). Fiducial mark perpendicular to laser is parallel to a [1 0 0]
75.95700, 788727.0
77.19600, 786910.0
78.43500, 786587.0
79.67300, 784017.0
80.91200, 783413.0
82.15000, 784032.0
83.38800, 782818.0
84.62600, 780291.0
85.86300, 779807.0
87.10100, 778610.0
88.33800, 778067.0
89.57500, 778274.0
90.81200, 776840.4
92.04900, 776671.0
93.28600, 774808.0
94.52300, 774049.0
95.75900, 773203.1
96.99500, 772702.3
98.23100, 772637.0
99.46700, 772359.0
100.7030, 771844.0
101.9390, 771469.0
103.1740, 771070.0
104.4090, 770475.0
105.6440, 769882.1
106.8790, 769351.0
108.1140, 768494.0
109.3490, 768178.0
110.5830, 767532.0
111.8180, 766718.8
113.0520, 766151.0
114.2860, 765247.0
115.5200, 764364.0
116.7530, 763973.0
117.9870, 764005.0
119.2200, 764517.0
120.4530, 764721.0
121.6860, 763769.0
122.9190, 763797.0
124.1520, 763570.0
125.3850, 763522.0
126.6170, 763260.8
127.8490, 763157.9
129.0810, 762558.0
130.3130, 762425.0
131.5450, 761797.9
132.7770, 761308.2
134.0080, 760546.0
135.2390, 760243.0
136.4710, 759892.0
137.7020, 759502.1
138.9320, 759059.6
140.1630, 758350.0
141.3930, 757978.0
142.6240, 757428.0
143.8540, 756638.0
145.0840, 756423.0
146.3140, 756021.0
147.5440, 756120.0
148.7730, 754206.0
150.0020, 755086.0
151.2320, 754079.0
152.4610, 753347.0
153.6900, 754244.0
154.9180, 751468.0
156.1470, 752893.0
157.3750, 750760.0
158.6040, 749973.0
159.8320, 750909.0
161.0600, 748325.0
162.2870, 748958.0
163.5150, 747976.0
164.7420, 747056.0
165.9700, 746392.0
167.1970, 745368.0
168.4240, 745664.0
169.6510, 743374.0
170.8770, 743224.0
172.1040, 744779.0
173.3300, 743405.0
174.5560, 742163.0
175.7820, 740800.0
177.0080, 739967.1
178.2340, 739449.0
179.4590, 738473.0
180.6850, 738757.0
181.9100, 738248.0
183.1350, 737976.0
184.3600, 737502.0
185.5850, 736764.0
186.8090, 735905.0
188.0340, 736565.0
189.2580, 734982.0
190.4820, 735618.0
191.7060, 734604.0
192.9300, 734271.0
194.1530, 733675.0
195.3770, 733163.0
196.6000, 732941.0
197.8230, 732347.0
199.0460, 731890.0
200.2690, 731910.0
201.4910, 730548.0
202.7140, 729996.0
203.9360, 730343.0
205.1580, 728593.0
206.3800, 728565.0
207.6020, 727811.0
208.8240, 727299.0
210.0450, 725646.0
211.2670, 726232.0
212.4880, 724341.0
213.7090, 724303.0
214.9300, 724210.0
216.1510, 723034.0
217.3710, 723530.0
218.5920, 721562.0
219.8120, 721912.0
221.0320, 719479.0
222.2520, 719835.0
223.4720, 718886.0
224.6910, 718971.0
225.9110, 718007.0
227.1300, 719095.0
228.3490, 716771.0
229.5680, 716445.0
230.7870, 714621.0
232.0050, 715415.0
233.2240, 714549.0
234.4420, 713174.0
235.6600, 713335.0
236.8780, 712296.0
238.0960, 712375.0
239.3140, 711278.0
240.5310, 711817.0
241.7490, 709742.0
242.9660, 711086.0
244.1830, 709054.0
245.4000, 709566.0
246.6160, 708875.0
247.8330, 707380.0
249.0490, 706453.0
250.2660, 705699.0
251.4820, 705448.0
252.6980, 705062.0
253.9130, 704889.0
255.1290, 702674.0
256.3440, 702983.0
257.5600, 701269.0
258.7750, 702465.0
259.9900, 701696.0
261.2040, 700446.0
262.4190, 698973.0
263.6330, 698520.0
264.8480, 697853.0
266.0620, 697163.8
267.2760, 697388.0
268.4900, 696210.0
269.7030, 696333.0
270.9170, 695824.0
272.1300, 695761.0
273.3430, 694404.0
274.5560, 692361.0
275.7690, 691941.0
276.9820, 691078.0
278.1940, 690817.0
279.4070, 690081.4
280.6190, 689628.0
281.8310, 689080.0
283.0430, 688977.0
284.2550, 689136.0
285.4660, 687553.0
286.6770, 687301.0
287.8890, 686148.0
289.1000, 687045.0
290.3110, 685353.0
291.5210, 685482.0
292.7320, 684317.0
293.9420, 683954.0
295.1530, 683218.0
296.3630, 681760.0
297.5730, 681514.0
298.7830, 680189.0
299.9920, 680359.0
301.2020, 680665.0
302.4110, 680424.0
303.6200, 679078.0
304.8290, 678960.0
306.0380, 678565.0
307.2470, 678390.0
308.4550, 678122.0
309.6630, 677437.0
310.8720, 676554.0
312.0800, 674756.0
313.2880, 674559.0
314.4950, 673010.0
315.7030, 672932.0
316.9100, 671972.0
318.1170, 671421.0
319.3240, 670450.0
320.5310, 668776.0
321.7380, 669713.0
322.9450, 668535.0
324.1510, 666470.0
325.3570, 666576.0
326.5630, 665788.0
327.7690, 666021.0
328.9750, 664454.0
330.1810, 664097.0
331.3860, 664381.0
332.5910, 662532.0
333.7960, 662091.0
335.0010, 662067.0
336.2060, 659285.0
337.4110, 660336.0
338.6150, 659225.0
339.8200, 658523.0
341.0240, 659273.0
342.2280, 658131.0
343.4320, 656620.0
344.6350, 656009.0
345.8390, 656441.0
347.0420, 654813.0
348.2450, 654344.0
349.4480, 652729.0
350.6510, 652490.0
351.8540, 652714.0
353.0560, 651154.0
354.2590, 650183.0
355.4610, 650282.0
356.6630, 650104.0
357.8650, 650877.0
359.0670, 647731.0
360.2680, 648497.0
361.4700, 648185.0
362.6710, 645917.0
363.8720, 645255.0
365.0730, 646388.0
366.2740, 644278.0
367.4740, 644251.0
368.6750, 643613.0
369.8750, 643965.0
371.0750, 643756.0
372.2750, 642657.0
373.4750, 642477.0
374.6740, 640531.0
375.8740, 639336.0
377.0730, 640024.0
378.2720, 640891.0
379.4710, 638968.0
380.6700, 638441.0
381.8690, 637370.0
383.0670, 637340.0
384.2660, 637195.0
385.4640, 636693.0
386.6620, 638162.0
387.8600, 637682.0
389.0570, 637618.0
390.2550, 638914.0
391.4520, 639163.0
392.6490, 641509.0
393.8460, 642893.0
395.0430, 644787.0
396.2400, 649861.0
397.4370, 654012.0
398.6330, 660662.0
399.8290, 668342.0
401.0250, 677922.0
402.2210, 690265.0
403.4170, 701340.0
404.6130, 711732.0
405.8080, 716128.0
407.0030, 711405.0
408.1980, 698768.0
409.3930, 683817.0
410.5880, 669349.0
411.7830, 655698.0
412.9770, 645737.0
414.1720, 637912.0
415.3660, 632411.0
416.5600, 628058.0
417.7530, 625092.0
418.9470, 620524.0
420.1410, 619027.0
421.3340, 615689.0
422.5270, 614472.0
423.7200, 612386.0
424.9130, 610759.2
426.1060, 610077.0
427.2980, 608230.0
428.4900, 607109.0
429.6830, 605980.0
430.8750, 605558.0
432.0670, 603246.0
433.2580, 603557.0
434.4500, 601618.0
435.6410, 601432.0
436.8320, 600147.0
438.0240, 598345.0
439.2140, 598275.0
440.4050, 596348.0
441.5960, 596258.0
442.7860, 594760.0
443.9760, 594841.0
445.1670, 593589.0
446.3560, 593250.0
447.5460, 593610.0
448.7360, 591896.0
449.9250, 589622.0
451.1150, 589948.0
452.3040, 588699.0
453.4930, 588003.0
454.6810, 588459.0
455.8700, 586764.0
457.0590, 587143.0
458.2470, 585775.0
459.4350, 584915.0
460.6230, 583892.0
461.8110, 583532.0
462.9980, 582665.0
464.1860, 582079.0
465.3730, 580999.0
466.5600, 580725.0
467.7470, 580875.0
468.9340, 579931.0
470.1210, 579106.0
471.3080, 578138.0
472.4940, 577040.0
473.6800, 577216.0
474.8660, 576938.0
476.0520, 575059.0
477.2380, 575072.0
478.4230, 573505.0
479.6090, 574126.0
480.7940, 573690.0
481.9790, 571620.0
483.1640, 570753.0
484.3490, 570191.0
485.5330, 569177.0
486.7180, 568031.0
487.9020, 568014.0
489.0860, 566847.0
490.2700, 565686.0
491.4540, 565341.0
492.6370, 564107.0
493.8210, 564039.0
495.0040, 563260.0
496.1870, 561739.0
497.3700, 560755.0
498.5530, 560481.0
499.7360, 559655.0
500.9180, 558700.0
502.1000, 559530.0
503.2830, 557649.0
504.4650, 556937.0
505.6460, 557088.0
506.8280, 554554.0
508.0100, 553946.0
509.1910, 553992.0
510.3720, 554392.0
511.5530, 551770.0
512.7340, 551663.0
513.9150, 550691.0
515.0950, 550018.0
516.2760, 548553.0
517.4560, 549048.0
518.6360, 548174.0
519.8160, 548321.0
520.9950, 546191.0
522.1750, 547221.0
523.3540, 546151.0
524.5340, 544492.0
525.7130, 544086.0
526.8920, 543437.0
528.0700, 542169.0
529.2490, 542678.0
530.4270, 541181.0
531.6060, 539984.0
532.7840, 540075.0
533.9620, 538219.0
535.1390, 538469.0
536.3170, 538979.0
537.4940, 536266.0
538.6720, 535832.0
539.8490, 535759.0
541.0260, 535099.0
542.2030, 534191.0
543.3790, 532700.0
544.5560, 531694.0
545.7320, 532237.0
546.9080, 530149.0
548.0840, 531135.0
549.2600, 529433.0
550.4360, 529867.0
551.6110, 527483.0
552.7860, 528060.0
553.9620, 526891.0
555.1370, 526373.0
556.3110, 525627.0
557.4860, 525046.4
558.6610, 524079.0
559.8350, 523851.0
561.0090, 523196.0
562.1830, 521973.0
563.3570, 521786.0
564.5310, 519998.0
565.7040, 520489.0
566.8780, 518643.0
568.0510, 518848.0
569.2240, 517969.0
570.3970, 516684.0
571.5700, 516396.0
572.7420, 515520.0
573.9150, 514745.0
575.0870, 514636.0
576.2590, 513100.0
577.4310, 512786.0
578.6030, 512225.0
579.7740, 512163.0
580.9460, 510690.0
582.1170, 510087.0
583.2880, 509030.0
584.4590, 507985.0
585.6300, 508645.0
586.8010, 506355.0
587.9710, 507326.0
589.1410, 506231.0
590.3110, 504949.0
591.4810, 504274.0
592.6510, 503976.0
593.8210, 502838.0
594.9900, 502065.0
596.1600, 501970.0
597.3290, 501401.0
598.4980, 500101.0
599.6670, 499182.0
600.8350, 501400.0
602.0040, 497978.0
603.1720, 495908.0
604.3400, 498162.0
605.5080, 495464.0
606.6760, 495101.0
607.8440, 494416.0
609.0120, 493216.0
610.1790, 492443.0
611.3460, 491711.2
612.5130, 490895.0
613.6800, 490355.0
614.8470, 489729.0
616.0130, 489090.0
617.1800, 488855.0
618.3460, 487967.0
619.5120, 487013.0
620.6780, 487227.0
621.8440, 485500.0
623.0090, 484543.0
624.1750, 484967.0
625.3400, 483816.0
626.5050, 483317.4
627.6700, 483580.0
628.8350, 481999.0
629.9990, 481636.0
631.1640, 481344.0
632.3280, 479912.0
633.4920, 479328.0
634.6560, 479251.0
635.8200, 478672.0
636.9840, 477938.0
638.1470, 477591.0
639.3100, 476139.0
640.4730, 476263.0
641.6360, 474499.0
642.7990, 475185.0
643.9620, 473115.0
645.1240, 472895.0
646.2870, 472485.0
647.4490, 472112.0
648.6110, 471877.0
649.7730, 470313.0
650.9340, 469544.0
652.0960, 469519.0
653.2570, 468914.0
654.4180, 469114.0
655.5790, 468076.0
656.7400, 468136.0
657.9010, 467814.0
659.0620, 468089.0
660.2220, 467874.0
661.3820, 468244.0
662.5420, 467628.0
663.7020, 467474.0
664.8620, 467281.0
666.0210, 466058.0
667.1810, 464215.0
668.3400, 463421.0
669.4990, 461505.0
670.6580, 460859.0
671.8170, 458893.0
672.9750, 456957.0
674.1340, 457057.0
675.2920, 454018.0
676.4500, 453730.0
677.6080, 451736.0
678.7660, 452311.0
679.9230, 450640.0
681.0810, 449423.0
682.2380, 449017.0
683.3950, 446753.0
684.5520, 446488.0
685.7090, 445468.0
686.8660, 445593.0
688.0220, 445334.0
689.1780, 443694.0
690.3340, 443863.0
691.4900, 442052.0
692.6460, 441101.0
693.8020, 441919.0
694.9570, 441704.0
696.1130, 440052.0
697.2680, 438778.0
698.4230, 438295.0
699.5780, 438351.0
700.7320, 437638.0
701.8870, 436514.0
703.0410, 435813.0
704.1950, 434648.0
705.3490, 435162.0
706.5030, 432349.0
707.6570, 431724.0
708.8110, 432226.0
709.9640, 431031.0
711.1170, 430398.0
712.2700, 428986.0
713.4230, 426984.0
714.5760, 425227.0
715.7280, 423396.0
716.8810, 421237.0
718.0330, 419498.0
719.1850, 417796.0
720.3370, 416353.0
721.4890, 416404.0
722.6400, 415373.0
723.7920, 415504.0
724.9430, 415366.0
726.0940, 415859.0
727.2450, 416874.0
728.3960, 417561.0
729.5460, 417489.0
730.6970, 416729.0
731.8470, 416370.0
732.9970, 416606.0
734.1470, 414962.0
735.2970, 416062.0
736.4460, 415383.0
737.5960, 415443.0
738.7450, 414419.0
739.8940, 413366.0
741.0430, 413441.0
742.1920, 413202.0
743.3410, 412940.0
744.4890, 412257.0
745.6370, 411695.0
746.7850, 411101.0
747.9330, 410953.6
749.0810, 410740.1
750.2290, 410914.0
751.3760, 410660.0
752.5240, 410823.0
753.6710, 410671.0
754.8180, 410748.0
755.9650, 411064.8
757.1110, 410889.0
758.2580, 411860.0
759.4040, 412183.0
760.5510, 412756.0
761.6970, 413817.0
762.8420, 415358.0
763.9880, 416278.0
765.1340, 416862.0
766.2790, 416464.0
767.4240, 414057.0
768.5690, 413223.0
769.7140, 409846.0
770.8590, 407425.0
772.0030, 404955.0
773.1480, 402132.0
774.2920, 400351.0
775.4360, 397662.0
776.5800, 396061.0
777.7240, 394632.0
778.8670, 393937.0
780.0110, 392668.0
781.1540, 391145.0
782.2970, 389823.0
783.4400, 388833.0
784.5830, 387287.0
785.7250, 385320.0
786.8680, 385150.0
788.0100, 383709.0
789.1520, 383305.0
790.2940, 382256.0
791.4360, 381238.0
792.5780, 379982.0
793.7190, 379377.0
794.8600, 378363.0
796.0010, 377582.6
797.1420, 377028.1
798.2830, 376199.0
799.4240, 375939.0
800.5640, 375480.0
801.7050, 374949.0
802.8450, 374808.0
803.9850, 374713.0
805.1250, 374181.1
806.2640, 373880.0
807.4040, 373479.0
808.5430, 373224.0
809.6820, 373244.0
810.8210, 372412.0
811.9600, 371307.0
813.0990, 370223.0
814.2370, 370489.0
815.3760, 369274.0
816.5140, 368610.0
817.6520, 367342.0
818.7900, 366912.0
819.9270, 365893.0
821.0650, 365194.0
822.2020, 364090.0
823.3390, 363017.0
824.4760, 361953.0
825.6130, 362352.0
826.7500, 361492.0
827.8870, 359706.0
829.0230, 360710.0
830.1590, 359113.0
831.2950, 359039.0
832.4310, 358494.0
833.5670, 357945.0
834.7030, 357369.0
835.8380, 356551.0
836.9730, 355877.0
838.1080, 355695.0
839.2430, 354646.0
840.3780, 354719.0
841.5130, 353965.0
842.6470, 352893.0
843.7810, 352396.0
844.9150, 351918.0
846.0490, 351086.0
847.1830, 350365.0
848.3170, 349188.0
849.4500, 349699.0
850.5830, 348285.0
851.7160, 347603.0
852.8490, 347206.0
853.9820, 345962.0
855.1150, 345484.0
856.2470, 345439.0
857.3800, 344842.0
858.5120, 343658.0
859.6440, 343261.0
860.7760, 342571.0
861.9070, 341784.0
863.0390, 341826.0
864.1700, 339696.0
865.3010, 340494.0
866.4320, 338951.0
867.5630, 338891.0
868.6940, 339303.0
869.8240, 336731.0
870.9540, 337464.0
872.0850, 336020.0
873.2150, 336487.0
874.3450, 335089.0
875.4740, 333923.0
876.6040, 333594.0
877.7330, 332984.0
878.8620, 332013.0
879.9910, 332105.0
881.1200, 331083.0
882.2490, 330417.0
883.3770, 329600.0
884.5060, 329497.0
885.6340, 327845.0
886.7620, 327901.0
887.8900, 327010.0
889.0180, 326439.0
890.1450, 325965.0
891.2730, 325092.6
892.4000, 324385.0
893.5270, 323583.0
894.6540, 323058.0
895.7810, 322380.0
896.9070, 321297.0
898.0340, 321055.5
899.1600, 320561.7
900.2860, 320467.0
901.4120, 320055.0
902.5380, 320156.0
903.6630, 319886.0
904.7890, 318993.0
905.9140, 318167.0
907.0390, 317852.0
908.1640, 317295.0
909.2890, 317653.0
910.4130, 316319.0
911.5380, 316154.0
912.6620, 314179.0
913.7860, 314251.0
914.9100, 313647.0
916.0340, 313454.0
917.1580, 312969.0
918.2810, 312640.0
919.4040, 311663.0
920.5280, 311236.0
921.6510, 310122.0
922.7730, 309399.0
923.8960, 309014.0
925.0180, 308078.0
926.1410, 307622.3
927.2630, 307456.0
928.3850, 306710.0
929.5070, 306071.0
930.6280, 306034.0
931.7500, 305752.0
932.8710, 304786.0
933.9920, 304225.0
935.1130, 304107.0
936.2340, 302614.0
937.3550, 302952.0
938.4760, 302136.0
939.5960, 301647.0
940.7160, 300293.0
941.8360, 300271.0
942.9560, 299492.0
944.0760, 299277.0
945.1950, 298424.0
946.3150, 298133.0
947.4340, 298763.0
948.5530, 297116.0
949.6720, 297162.0
950.7900, 296105.0
951.9090, 295467.0
953.0270, 295207.0
954.1460, 294759.0
955.2640, 293790.0
956.3820, 293236.0
957.4990, 293225.0
958.6170, 292449.0
959.7340, 291412.0
960.8520, 291134.0
961.9690, 290214.0
963.0860, 289946.0
964.2020, 289571.0
965.3190, 288773.0
966.4350, 288584.0
967.5520, 288469.0
968.6680, 287441.0
969.7840, 286876.0
970.8990, 286172.0
972.0150, 285904.0
973.1310, 285146.8
974.2460, 284520.0
975.3610, 283978.0
976.4760, 283451.0
977.5910, 283152.0
978.7050, 282730.0
979.8200, 282181.3
980.9340, 281768.0
982.0480, 281082.0
983.1620, 280608.0
984.2760, 280065.0
985.3900, 279390.0
986.5030, 278892.0
987.6160, 278449.0
988.7300, 279056.0
989.8430, 277849.0
990.9550, 277312.7
992.0680, 277991.0
993.1810, 275536.0
994.2930, 275384.0
995.4050, 275055.0
996.5170, 274653.0
997.6290, 274210.0
998.7410, 273738.0
999.8520, 273230.0
1000.964, 272248.0
1002.075, 271968.0
1003.186, 271970.0
1004.297, 270927.0
1005.407, 269945.0
1006.518, 269966.0
1007.628, 269216.8
1008.738, 269032.0
1009.848, 268489.0
1010.958, 268035.0
1012.068, 267507.0
1013.178, 267114.0
1014.287, 266820.0
1015.396, 266510.0
1016.505, 265925.7
1017.614, 264827.0
1018.723, 264927.0
1019.831, 263901.0
1020.940, 263770.0
1022.048, 262668.0
1023.156, 261707.0
1024.264, 261491.0
1025.372, 260843.0
1026.479, 259697.0
1027.587, 259184.0
1028.694, 258845.0
1029.801, 258403.0
1030.908, 258154.0
1032.015, 257445.0
1033.121, 257116.0
1034.228, 255805.0
1035.334, 256220.0
1036.440, 256119.0
1037.546, 255010.0
1038.652, 254493.0
1039.758, 254957.0
1040.863, 254111.0
1041.968, 253710.0
1043.074, 252473.0
1044.178, 252601.0
1045.283, 252526.0
1046.388, 251734.0
1047.492, 251296.0
1048.597, 250347.0
1049.701, 250194.0
1050.805, 249456.0
1051.909, 249395.0
1053.012, 248880.0
1054.116, 248691.0
1055.219, 248202.0
1056.322, 248174.0
1057.425, 247665.0
1058.528, 246415.0
1059.631, 247067.0
1060.733, 246001.0
1061.836, 245236.0
1062.938, 245625.0
1064.040, 245295.0
1065.142, 244095.0
1066.243, 243311.0
1067.345, 242338.0
1068.446, 241954.2
1069.547, 241555.0
1070.648, 241125.0
1071.749, 240697.5
1072.850, 240154.0
1073.951, 239823.0
1075.051, 239753.0
1076.151, 239392.0
1077.251, 239303.0
1078.351, 239314.0
1079.451, 238950.0
1080.550, 238763.2
1081.650, 238213.0
1082.749, 238009.0
1083.848, 237229.0
1084.947, 236556.0
1086.046, 236425.0
1087.144, 235845.0
1088.243, 235219.0
1089.341, 234430.0
1090.439, 234075.0
1091.537, 234313.0
1092.635, 234287.0
1093.732, 233467.0
1094.830, 233405.0
1095.927, 232919.0
1097.024, 232351.0
1098.121, 231836.0
1099.218, 231415.0
1100.314, 231046.0
1101.411, 231162.0
1102.507, 230171.0
1103.603, 230148.0
1104.699, 229228.0
1105.795, 228820.0
1106.890, 228672.0
1107.986, 228188.0
1109.081, 227872.0
1110.176, 227781.0
1111.271, 227049.0
1112.366, 227281.0
1113.461, 225910.0
1114.555, 225423.0
1115.649, 225114.0
1116.744, 224929.0
1117.838, 224602.0
1118.931, 224292.0
1120.025, 223432.0
1121.119, 223310.0
1122.212, 222408.0
1123.305, 222414.0
1124.398, 222407.0
1125.491, 222234.0
1126.584, 221741.3
1127.676, 220731.0
1128.768, 220348.0
1129.861, 219893.0
1130.953, 218881.0
1132.044, 219304.0
1133.136, 218758.0
1134.228, 217837.0
1135.319, 217323.0
1136.410, 216945.0
1137.501, 216201.0
1138.592, 215655.0
1139.683, 216108.0
1140.773, 215068.0
1141.864, 215032.0
1142.954, 214728.0
1144.044, 213832.0
1145.134, 213687.0
1146.224, 213339.0
1147.313, 213182.0
1148.402, 212484.0
1149.492, 212404.0
1150.581, 212322.0
1151.670, 212807.0
1152.758, 211461.0
1153.847, 211060.0
1154.935, 210696.0
1156.024, 209317.0
1157.112, 209502.0
1158.200, 208857.0
1159.287, 208802.0
1160.375, 207623.0
1161.462, 207763.0
1162.550, 207540.0
1163.637, 206398.0
1164.724, 207718.0
1165.810, 206668.0
1166.897, 206066.0
1167.983, 205459.0
1169.070, 204256.0
1170.156, 204837.0
1171.242, 204637.0
1172.327, 204380.0
1173.413, 203652.0
1174.499, 202949.0
1175.584, 203162.0
1176.669, 202410.0
1177.754, 202362.0
1178.839, 201408.0
1179.923, 201254.0
1181.008, 200980.0
1182.092, 201258.0
1183.176, 199934.0
1184.260, 199836.0
1185.344, 199690.0
1186.428, 198880.0
1187.511, 198978.0
1188.595, 198673.0
1189.678, 197819.0
1190.761, 197568.0
1191.843, 196680.0
1192.926, 196662.0
1194.009, 195763.0
1195.091, 195981.0
1196.173, 195064.0
1197.255, 194583.0
1198.337, 194812.0
1199.419, 194897.0
1200.500, 194513.6
1201.582, 194307.0
1202.663, 193840.0
1203.744, 193253.0
1204.825, 192636.0
1205.905, 192553.0
1206.986, 192421.0
1208.066, 192174.9
1209.146, 191953.0
1210.226, 191708.0
1211.306, 191358.5
1212.386, 190081.0
1213.466, 190619.0
1214.545, 189958.0
1215.624, 189548.0
1216.703, 189711.0
1217.782, 188559.0
1218.861, 188382.0
1219.939, 188268.0
1221.018, 187879.0
1222.096, 187637.0
1223.174, 187410.0
1224.252, 187070.4
1225.330, 186772.3
1226.407, 186346.0
1227.485, 186062.0
1228.562, 185423.0
1229.639, 184994.0
1230.716, 185532.0
1231.793, 183663.0
1232.869, 183835.0
1233.946, 184362.0
1235.022, 183317.0
1236.098, 182727.0
1237.174, 182828.0
1238.250, 182518.0
1239.325, 181902.0
1240.401, 181831.0
1241.476, 181277.0
1242.551, 181045.9
1243.626, 181244.0
1244.701, 180411.0
1245.776, 179868.0
1246.850, 179230.0
1247.924, 179472.0
1248.999, 179176.0
1250.073, 178281.0
1251.146, 177921.0
1252.220, 176856.0
1253.293, 177127.0
1254.367, 176703.0
1255.440, 176608.0
1256.513, 175804.0
1257.586, 175921.0
1258.658, 175494.0
1259.731, 175749.0
