##NAMES=Spinel
##RRUFFID=R050184
##IDEAL CHEMISTRY=MgAl_2_O_4_
##LOCALITY=Pein Pyit, Mogok, Burma
##OWNER=RRUFF
##SOURCE=Marcus Origlieri
##DESCRIPTION=Red crystal in calcite, associated with yellowish-green clinohumite, R050183
##STATUS=The identification of this mineral has been confirmed by X-ray diffraction and chemical analysis
##URL=rruff.info/R050184
##MEASURED CHEMISTRY=Mg_1.00_(Al_1.99_Cr_0.01_)_Î£=2_O_4_; trace amounts of V
##PIN_ID=L00212
##ORIENTATION=Laser parallel to -b* (0 -1 0). Fiducial mark perpendicular to laser is parallel to c [0 0 1]
111.8550, 43898.00
113.0940, 43816.00
114.3320, 44148.00
115.5700, 43982.00
116.8080, 43990.00
118.0460, 44043.00
119.2830, 44064.00
120.5210, 44065.48
121.7580, 44078.00
122.9950, 43986.00
124.2320, 43936.00
125.4690, 43730.00
126.7050, 43743.79
127.9410, 43731.61
129.1780, 43749.00
130.4140, 43806.00
131.6490, 43812.55
132.8850, 43944.00
134.1200, 43895.00
135.3560, 44014.00
136.5910, 44112.00
137.8260, 43653.00
139.0610, 44047.00
140.2950, 43845.00
141.5290, 43822.00
142.7640, 43947.00
143.9980, 43805.00
145.2320, 43999.00
146.4650, 44050.00
147.6990, 44169.00
148.9320, 44193.00
150.1650, 43704.00
151.3980, 43845.00
152.6310, 43834.00
153.8640, 43967.00
155.0960, 44210.00
156.3280, 44091.00
157.5600, 43918.00
158.7920, 43970.00
160.0240, 44136.00
161.2560, 44050.00
162.4870, 44247.00
163.7180, 43866.00
164.9490, 44134.00
166.1800, 43957.00
167.4110, 44289.00
168.6410, 44281.00
169.8720, 44082.00
171.1020, 43986.00
172.3320, 43958.00
173.5620, 43821.00
174.7910, 44125.00
176.0210, 44146.00
177.2500, 44094.00
178.4790, 44058.00
179.7080, 44103.00
180.9370, 44084.12
182.1650, 44123.00
183.3940, 44081.00
184.6220, 44147.00
185.8500, 44063.00
187.0780, 44193.00
188.3050, 44205.77
189.5330, 44094.00
190.7600, 44323.00
191.9870, 44361.00
193.2140, 44437.00
194.4410, 44432.05
195.6680, 44393.67
196.8940, 44314.00
198.1200, 44313.00
199.3470, 44263.00
200.5720, 44352.00
201.7980, 44236.00
203.0240, 44382.00
204.2490, 44169.00
205.4740, 44194.00
206.6990, 44097.00
207.9240, 44405.00
209.1490, 44088.00
210.3740, 44138.00
211.5980, 44451.00
212.8220, 44025.00
214.0460, 44315.00
215.2700, 44455.00
216.4930, 44299.00
217.7170, 44536.00
218.9400, 44076.00
220.1630, 44003.00
221.3860, 44443.00
222.6090, 44065.00
223.8320, 44137.00
225.0540, 44318.00
226.2760, 44394.00
227.4980, 44021.00
228.7200, 44414.00
229.9420, 44149.00
231.1630, 44014.00
232.3850, 44065.00
233.6060, 43960.65
234.8270, 43983.88
236.0480, 43952.00
237.2690, 44011.00
238.4890, 43942.00
239.7090, 43902.00
240.9290, 43967.00
242.1490, 44225.00
243.3690, 44236.00
244.5890, 44109.00
245.8080, 44372.00
247.0270, 44129.00
248.2470, 44087.00
249.4650, 44014.00
250.6840, 44432.00
251.9030, 44349.00
253.1210, 44478.00
254.3390, 44147.00
255.5570, 44094.00
256.7750, 44210.00
257.9930, 44241.00
259.2100, 43999.00
260.4280, 44018.00
261.6450, 44143.00
262.8620, 43933.00
264.0790, 44126.00
265.2950, 44252.00
266.5120, 44086.00
267.7280, 44060.00
268.9440, 44113.00
270.1600, 44110.00
271.3760, 44361.00
272.5920, 43982.00
273.8070, 44150.00
275.0220, 43837.00
276.2370, 44101.00
277.4520, 43940.00
278.6670, 44074.00
279.8820, 43873.00
281.0960, 43934.00
282.3100, 44229.00
283.5240, 44220.00
284.7380, 44422.00
285.9520, 44159.00
287.1650, 44194.00
288.3780, 44510.00
289.5920, 44254.00
290.8050, 44285.00
292.0170, 44233.00
293.2300, 44226.00
294.4430, 44000.00
295.6550, 44449.00
296.8670, 44309.00
298.0790, 44153.00
299.2910, 44418.00
300.5020, 44445.00
301.7140, 44377.00
302.9250, 44074.00
304.1360, 44360.00
305.3470, 44441.00
306.5580, 44441.00
307.7680, 44768.00
308.9780, 44616.00
310.1890, 44852.00
311.3990, 45159.00
312.6090, 44922.00
313.8180, 45080.00
315.0280, 44978.00
316.2370, 44827.00
317.4460, 44401.00
318.6550, 44352.00
319.8640, 44329.00
321.0730, 44223.00
322.2810, 44165.00
323.4890, 44290.00
324.6980, 43931.00
325.9060, 44112.00
327.1130, 44395.00
328.3210, 44017.00
329.5280, 44391.00
330.7360, 44110.00
331.9430, 44058.00
333.1500, 44246.00
334.3560, 44054.00
335.5630, 43918.00
336.7690, 44179.00
337.9760, 44204.00
339.1820, 43954.00
340.3870, 44010.00
341.5930, 44033.00
342.7990, 43883.00
344.0040, 44184.00
345.2090, 44296.00
346.4140, 44023.00
347.6190, 44071.00
348.8240, 44293.00
350.0280, 43799.00
351.2330, 44284.00
352.4370, 44027.00
353.6410, 44244.00
354.8440, 44010.00
356.0480, 44269.00
357.2520, 44228.00
358.4550, 44073.00
359.6580, 44306.00
360.8610, 43931.00
362.0640, 44063.00
363.2660, 44159.00
364.4690, 44142.00
365.6710, 44184.00
366.8730, 44205.00
368.0750, 44247.69
369.2770, 44431.00
370.4780, 44307.00
371.6800, 44250.00
372.8810, 44163.00
374.0820, 44305.00
375.2830, 43878.00
376.4830, 44454.00
377.6840, 44367.00
378.8840, 44670.00
380.0840, 44359.00
381.2840, 44400.00
382.4840, 44376.00
383.6840, 44245.00
384.8830, 44334.00
386.0830, 44317.47
387.2820, 44354.46
388.4810, 44454.00
389.6800, 44541.00
390.8780, 44718.00
392.0770, 44943.00
393.2750, 45068.00
394.4730, 45359.00
395.6710, 45737.00
396.8690, 45856.00
398.0660, 46072.00
399.2640, 46659.00
400.4610, 47416.00
401.6580, 48178.00
402.8550, 49311.00
404.0520, 50412.00
405.2490, 51364.00
406.4450, 52152.00
407.6410, 52632.00
408.8370, 52215.00
410.0330, 51193.00
411.2290, 49899.00
412.4240, 48466.00
413.6200, 47977.00
414.8150, 46746.00
416.0100, 45920.00
417.2050, 45881.00
418.4000, 45522.00
419.5940, 45323.00
420.7880, 45040.00
421.9830, 44876.93
423.1770, 44765.00
424.3700, 44619.00
425.5640, 44385.00
426.7580, 44279.00
427.9510, 44159.00
429.1440, 44081.00
430.3370, 43963.00
431.5300, 44115.00
432.7220, 44054.00
433.9150, 43872.00
435.1070, 44004.00
436.2990, 43885.00
437.4910, 43936.00
438.6830, 43916.08
439.8750, 43795.00
441.0660, 43865.00
442.2570, 43843.00
443.4480, 43829.00
444.6390, 43961.00
445.8300, 43829.00
447.0210, 43809.00
448.2110, 43654.00
449.4010, 43495.00
450.5910, 43900.00
451.7810, 43750.00
452.9710, 43819.00
454.1610, 43653.00
455.3500, 43424.00
456.5390, 43837.00
457.7280, 43731.00
458.9170, 43541.00
460.1060, 43923.00
461.2940, 44003.00
462.4830, 43645.00
463.6710, 43797.00
464.8590, 43517.00
466.0470, 43930.00
467.2350, 43492.00
468.4220, 43718.00
469.6090, 43703.00
470.7970, 43465.00
471.9840, 43644.00
473.1700, 43712.00
474.3570, 43681.00
475.5440, 43906.00
476.7300, 43489.00
477.9160, 43521.00
479.1020, 43846.00
480.2880, 43562.00
481.4740, 43510.00
482.6590, 43587.00
483.8440, 43738.00
485.0300, 43715.51
486.2140, 43771.23
487.3990, 43743.00
488.5840, 43727.00
489.7680, 43644.00
490.9530, 43502.00
492.1370, 43547.00
493.3210, 43294.00
494.5040, 43650.00
495.6880, 43613.00
496.8720, 43518.00
498.0550, 43656.00
499.2380, 43575.00
500.4210, 43540.00
501.6040, 43821.00
502.7860, 43507.00
503.9690, 43734.00
505.1510, 43354.00
506.3330, 43625.00
507.5150, 43258.00
508.6970, 43554.00
509.8780, 43546.00
511.0600, 43456.00
512.2410, 43461.00
513.4220, 43752.00
514.6030, 43478.00
515.7840, 43506.00
516.9640, 43631.00
518.1440, 43363.00
519.3250, 43652.00
520.5050, 43506.00
521.6850, 43485.00
522.8640, 43594.00
524.0440, 43653.00
525.2230, 43615.00
526.4020, 43477.00
527.5820, 43460.00
528.7600, 43721.00
529.9390, 43460.00
531.1180, 43646.00
532.2960, 43597.00
533.4740, 43561.00
534.6520, 43779.00
535.8300, 43444.00
537.0080, 43662.00
538.1850, 43651.00
539.3630, 43389.00
540.5400, 43529.00
541.7170, 43680.00
542.8940, 43531.00
544.0700, 43607.00
545.2470, 43381.00
546.4230, 43323.00
547.5990, 43607.00
548.7750, 43508.00
549.9510, 43482.00
551.1270, 43568.00
552.3020, 43680.00
553.4780, 43710.00
554.6530, 43438.00
555.8280, 43254.00
557.0030, 43375.00
558.1770, 43539.00
559.3520, 43793.00
560.5260, 43382.00
561.7000, 43498.00
562.8740, 43572.00
564.0480, 43788.00
565.2220, 43846.00
566.3950, 43601.00
567.5680, 43664.00
568.7420, 43599.00
569.9150, 43447.00
571.0870, 43782.00
572.2600, 43512.00
573.4320, 43636.00
574.6050, 43638.00
575.7770, 43521.00
576.9490, 43670.00
578.1210, 43799.00
579.2920, 43723.00
580.4640, 43722.43
581.6350, 43461.00
582.8060, 43536.00
583.9770, 43406.00
585.1480, 43337.00
586.3190, 43397.00
587.4890, 43371.00
588.6590, 43330.70
589.8290, 43517.00
590.9990, 43306.00
592.1690, 43374.00
593.3390, 43497.00
594.5080, 43692.00
595.6770, 43393.00
596.8470, 43247.00
598.0160, 43378.00
599.1840, 43308.00
600.3530, 43338.00
601.5210, 43236.00
602.6900, 43385.00
603.8580, 43520.00
605.0260, 43440.00
606.1930, 43534.00
607.3610, 43441.00
608.5280, 43324.00
609.6960, 43488.00
610.8630, 43325.00
612.0300, 43583.00
613.1970, 43536.00
614.3630, 43443.00
615.5300, 43364.00
616.6960, 43365.00
617.8620, 43602.00
619.0280, 43543.00
620.1940, 43467.00
621.3590, 43654.00
622.5250, 43353.00
623.6900, 43604.00
624.8550, 43624.00
626.0200, 43474.00
627.1850, 43481.00
628.3490, 43658.00
629.5140, 43600.00
630.6780, 43429.00
631.8420, 43284.00
633.0060, 43584.00
634.1700, 43586.00
635.3330, 43626.00
636.4970, 43593.00
637.6600, 43555.93
638.8230, 43557.69
639.9860, 43506.00
641.1490, 43528.00
642.3110, 43665.00
643.4740, 43684.00
644.6360, 43706.00
645.7980, 43718.00
646.9600, 44007.00
648.1220, 43538.00
649.2840, 43844.00
650.4450, 43914.00
651.6060, 44328.00
652.7670, 44135.00
653.9280, 44210.00
655.0890, 44169.00
656.2500, 44510.00
657.4100, 44739.00
658.5700, 44824.00
659.7300, 45154.00
660.8900, 45461.00
662.0500, 45756.00
663.2100, 46086.00
664.3690, 46421.00
665.5280, 46412.00
666.6880, 46605.00
667.8460, 46306.00
669.0050, 46115.00
670.1640, 46020.00
671.3220, 45535.00
672.4810, 45234.00
673.6390, 44920.00
674.7970, 44806.00
675.9540, 44587.00
677.1120, 44074.00
678.2690, 44482.00
679.4270, 44099.00
680.5840, 43923.00
681.7410, 44082.00
682.8980, 43903.00
684.0540, 43897.00
685.2110, 43685.00
686.3670, 43887.00
687.5230, 43681.00
688.6790, 43712.00
689.8350, 43584.00
690.9900, 43471.00
692.1460, 43477.00
693.3010, 43846.00
694.4560, 43557.00
695.6110, 43839.00
696.7660, 43672.00
697.9210, 43557.00
699.0750, 43785.00
700.2290, 43566.00
701.3840, 43639.00
702.5370, 43627.00
703.6910, 43634.00
704.8450, 43727.00
705.9980, 43702.98
707.1520, 43358.20
708.3050, 43648.23
709.4580, 43809.62
710.6110, 43849.27
711.7630, 43402.58
712.9160, 43583.89
714.0680, 43513.54
715.2200, 43432.86
716.3720, 43702.57
717.5240, 43326.62
718.6760, 43590.77
719.8270, 43599.41
720.9780, 43724.99
722.1300, 43597.34
723.2810, 43547.90
724.4310, 43751.79
725.5820, 43815.40
726.7330, 43658.60
727.8830, 43791.62
729.0330, 43406.83
730.1830, 43476.42
731.3330, 43742.06
732.4830, 43821.00
733.6320, 43516.00
734.7810, 43610.00
735.9310, 43773.00
737.0800, 43916.00
738.2290, 43664.00
739.3770, 43682.00
740.5260, 43545.00
741.6740, 44003.00
742.8220, 44304.00
743.9700, 44136.00
745.1180, 44098.00
746.2660, 43973.00
747.4130, 43956.00
748.5610, 44129.00
749.7080, 44220.00
750.8550, 44161.00
752.0020, 44457.00
753.1490, 44501.00
754.2950, 44686.00
755.4420, 44982.00
756.5880, 45114.00
757.7340, 45254.00
758.8800, 45532.00
760.0250, 45784.00
761.1710, 46318.00
762.3160, 46575.00
763.4620, 47073.00
764.6070, 47206.00
765.7520, 47536.00
766.8960, 47742.00
768.0410, 47534.00
769.1850, 47281.00
770.3300, 46774.00
771.4740, 46427.00
772.6180, 45633.00
773.7610, 45850.00
774.9050, 45562.00
776.0480, 44879.00
777.1920, 44775.00
778.3350, 44602.00
779.4780, 44268.00
780.6200, 44454.00
781.7630, 44370.00
782.9060, 44310.00
784.0480, 44244.00
785.1900, 43969.00
786.3320, 44064.00
787.4740, 44112.00
788.6150, 43984.00
789.7570, 44194.00
790.8980, 44083.00
792.0390, 44058.54
793.1800, 43988.00
794.3210, 43917.00
795.4620, 43931.29
796.6020, 43886.72
797.7420, 43931.00
798.8830, 43934.00
800.0230, 43892.00
801.1620, 44056.00
802.3020, 43751.00
803.4420, 43625.00
804.5810, 43561.00
805.7200, 43703.00
806.8590, 43637.00
807.9980, 43608.00
809.1370, 43683.00
810.2750, 43702.00
811.4140, 43591.00
812.5520, 43541.00
813.6900, 43321.00
814.8280, 43560.00
815.9650, 43758.00
817.1030, 43920.00
818.2400, 43543.00
819.3780, 43737.00
820.5150, 43416.00
821.6520, 43537.00
822.7880, 43586.00
823.9250, 43438.00
825.0610, 43464.00
826.1980, 43576.00
827.3340, 43476.00
828.4700, 43544.84
829.6050, 43327.00
830.7410, 43492.00
831.8760, 43492.00
833.0120, 43293.00
834.1470, 43275.00
835.2820, 43381.00
836.4160, 43314.00
837.5510, 43418.00
838.6860, 43122.00
839.8200, 43391.00
840.9540, 42939.00
842.0880, 43225.00
843.2220, 43256.00
844.3550, 43270.00
845.4890, 43118.00
846.6220, 43418.00
847.7550, 43215.00
848.8880, 43159.00
850.0210, 43266.00
851.1540, 43041.00
852.2860, 43373.00
853.4190, 43176.00
854.5510, 42957.00
855.6830, 43322.00
856.8150, 43186.00
857.9460, 43167.00
859.0780, 43075.00
860.2090, 43280.00
861.3410, 43204.00
862.4720, 43368.00
863.6020, 43282.00
864.7330, 43266.00
865.8640, 43388.00
866.9940, 43193.00
868.1240, 43122.00
869.2540, 43338.00
870.3840, 43078.00
871.5140, 43038.00
872.6440, 43057.00
873.7730, 43341.00
874.9020, 43260.00
876.0320, 42941.00
877.1600, 43265.00
878.2890, 43062.00
879.4180, 42912.00
880.5460, 43134.00
881.6750, 43185.00
882.8030, 43168.00
883.9310, 43138.00
885.0590, 42972.00
886.1860, 43012.00
887.3140, 43234.00
888.4410, 42941.00
889.5680, 43058.00
890.6950, 42955.00
891.8220, 42905.00
892.9490, 43021.00
894.0750, 43030.00
895.2020, 42969.00
896.3280, 43319.00
897.4540, 43156.00
898.5800, 43247.12
899.7050, 43087.00
900.8310, 43226.00
901.9560, 43095.00
903.0820, 43004.00
904.2070, 43088.00
905.3320, 43013.00
906.4560, 43085.00
907.5810, 42886.00
908.7050, 42899.00
909.8300, 42846.00
910.9540, 42969.00
912.0780, 42865.00
913.2010, 42902.00
914.3250, 42817.00
915.4480, 42865.00
916.5720, 42758.00
917.6950, 42618.00
918.8180, 42629.00
919.9410, 42708.00
921.0630, 42706.00
922.1860, 42714.00
923.3080, 42605.00
924.4300, 43027.00
925.5520, 42930.00
926.6740, 42868.00
927.7960, 42688.00
928.9170, 42723.00
930.0390, 42598.00
931.1600, 42635.70
932.2810, 42522.12
933.4020, 42714.00
934.5230, 42487.00
935.6430, 42454.00
936.7640, 42818.00
937.8840, 42426.00
939.0040, 42454.00
940.1240, 42597.00
941.2440, 42590.00
942.3630, 42569.00
943.4830, 42297.00
944.6020, 42502.00
945.7210, 42336.00
946.8400, 42724.00
947.9590, 42516.00
949.0770, 42265.00
950.1960, 42353.00
951.3140, 42248.00
952.4320, 42427.00
953.5500, 42349.00
954.6680, 42271.00
955.7860, 42194.00
956.9030, 42120.00
958.0210, 42427.00
959.1380, 42402.00
960.2550, 42419.00
961.3720, 42189.00
962.4890, 42374.00
963.6050, 42163.00
964.7220, 42318.00
965.8380, 41843.00
966.9540, 42029.00
968.0700, 42038.00
969.1860, 42031.00
970.3010, 42053.00
971.4170, 42022.00
972.5320, 42211.00
973.6470, 42202.00
974.7620, 42170.00
975.8770, 42013.00
976.9910, 42008.00
978.1060, 41998.00
979.2200, 41913.00
980.3340, 42215.00
981.4480, 41915.00
982.5620, 42143.00
983.6760, 42095.00
984.7890, 41872.00
985.9030, 41905.00
987.0160, 41911.00
988.1290, 41912.00
989.2420, 41923.00
990.3550, 41876.00
991.4670, 41771.00
992.5800, 41837.00
993.6920, 41706.00
994.8040, 41665.00
995.9160, 41747.00
997.0280, 41729.00
998.1390, 41868.00
999.2510, 41764.00
1000.362, 41563.00
1001.473, 41624.00
1002.584, 41484.00
1003.695, 41488.00
1004.805, 41514.00
1005.916, 41309.00
1007.026, 41441.00
1008.136, 41422.00
1009.246, 41430.00
1010.356, 41412.00
1011.466, 41479.00
1012.576, 41438.00
1013.685, 41428.64
1014.794, 41409.00
1015.903, 41358.00
1017.012, 41225.00
1018.121, 41161.00
1019.229, 41456.00
1020.338, 41470.00
1021.446, 41365.00
1022.554, 41192.00
1023.662, 41240.00
1024.770, 41320.00
1025.878, 41149.00
1026.985, 41184.59
1028.092, 41230.00
1029.200, 41135.00
1030.307, 41165.63
1031.413, 41090.00
1032.520, 41132.00
1033.627, 41060.00
1034.733, 40945.23
1035.839, 41132.06
1036.945, 41229.45
1038.051, 41242.93
1039.157, 40880.83
1040.262, 41034.60
1041.368, 41000.52
1042.473, 40971.62
1043.578, 41236.48
1044.683, 40998.28
1045.788, 41285.62
1046.893, 41382.00
1047.997, 41577.00
1049.101, 41275.00
1050.205, 41403.00
1051.309, 41124.00
1052.413, 41388.00
1053.517, 41401.00
1054.621, 41380.00
1055.724, 41347.00
1056.827, 41620.00
1057.930, 41346.00
1059.033, 41254.00
1060.136, 41481.00
1061.238, 41334.00
1062.341, 41435.00
1063.443, 41640.00
1064.545, 41236.00
1065.647, 41286.00
1066.749, 41435.00
1067.850, 41313.00
1068.952, 41545.00
1070.053, 41422.00
1071.154, 41191.00
1072.255, 41604.00
1073.356, 41026.00
1074.457, 41317.00
1075.557, 41418.00
1076.658, 41496.00
1077.758, 41239.00
1078.858, 41612.00
1079.958, 41209.00
1081.057, 41527.00
1082.157, 41275.00
1083.256, 41383.00
1084.356, 41441.00
1085.455, 41457.00
1086.554, 41483.00
1087.653, 41556.00
1088.751, 41545.00
1089.850, 41065.00
1090.948, 41240.00
1092.046, 41525.00
1093.144, 41146.00
1094.242, 41457.00
1095.340, 41306.00
1096.437, 40981.00
1097.534, 41320.00
1098.632, 41191.00
1099.729, 40995.00
1100.826, 41370.00
1101.922, 41325.00
1103.019, 41101.00
1104.115, 41047.00
1105.212, 41135.00
1106.308, 41202.00
1107.404, 41106.00
1108.499, 41184.40
1109.595, 40996.00
1110.691, 41155.00
1111.786, 41077.00
1112.881, 40938.00
1113.976, 40990.00
1115.071, 40674.00
1116.166, 40876.00
1117.260, 40821.00
1118.355, 40738.00
1119.449, 40565.00
1120.543, 40908.00
1121.637, 40925.00
1122.731, 40815.00
1123.824, 40907.00
1124.918, 40739.00
1126.011, 40803.00
1127.104, 40704.00
1128.197, 40498.00
1129.290, 41054.00
1130.382, 40721.00
1131.475, 40745.00
1132.567, 40634.00
1133.659, 40576.00
1134.751, 40620.00
1135.843, 40726.00
1136.935, 40510.00
1138.027, 40821.00
1139.118, 40771.00
1140.209, 40557.00
1141.300, 40392.00
1142.391, 40319.57
1143.482, 40597.32
1144.573, 40746.44
1145.663, 40773.83
1146.754, 40314.87
1147.844, 40483.93
1148.934, 40401.31
1150.024, 40308.38
1151.113, 40565.84
1152.203, 40177.63
1153.292, 40429.54
1154.381, 40425.93
1155.470, 40539.27
1156.559, 40323.00
1157.648, 40336.00
1158.737, 40291.00
1159.825, 40286.93
1160.913, 40307.00
1162.001, 40246.00
1163.089, 40120.00
1164.177, 40077.00
1165.265, 39884.00
1166.352, 40459.00
1167.440, 40476.00
1168.527, 40247.00
1169.614, 40169.00
1170.701, 40164.00
1171.788, 40314.00
1172.874, 40046.00
1173.961, 40200.00
1175.047, 40229.00
1176.133, 40278.00
1177.219, 40235.96
1178.305, 40038.00
1179.390, 40062.00
1180.476, 39838.00
1181.561, 39732.00
1182.646, 40146.00
1183.731, 40262.00
1184.816, 40069.00
1185.901, 39995.00
1186.985, 40081.00
1188.070, 40044.00
1189.154, 39837.00
1190.238, 39949.00
1191.322, 39654.00
1192.406, 40016.00
1193.489, 39704.00
1194.573, 40028.00
1195.656, 39870.00
1196.739, 39885.00
1197.822, 39744.00
1198.905, 39917.00
1199.988, 39791.00
1201.070, 39752.00
1202.153, 39633.00
1203.235, 39598.38
1204.317, 39832.00
1205.399, 39559.00
1206.481, 39638.00
1207.562, 39692.00
1208.644, 39516.00
1209.725, 39576.00
1210.806, 39491.00
1211.887, 39784.00
1212.968, 39556.00
1214.049, 39476.00
1215.129, 39659.00
1216.209, 39401.00
1217.290, 39524.00
1218.370, 39725.00
1219.450, 39601.00
1220.529, 39616.00
1221.609, 39460.00
1222.688, 39597.82
1223.768, 39749.00
1224.847, 39709.00
1225.926, 39711.00
1227.005, 39409.00
1228.083, 39654.00
1229.162, 39384.00
1230.240, 39465.00
1231.318, 39416.00
1232.396, 39298.00
1233.474, 39468.00
1234.552, 39635.00
1235.629, 39480.00
1236.707, 39367.00
1237.784, 39559.00
1238.861, 39562.00
1239.938, 39609.68
1241.015, 39551.00
1242.092, 39688.00
1243.168, 39371.00
1244.244, 39284.00
1245.321, 39747.00
1246.397, 39497.00
1247.473, 39347.00
1248.548, 39727.00
1249.624, 39604.00
1250.699, 39679.00
1251.775, 39482.00
1252.850, 39507.00
1253.925, 39447.00
1254.999, 39355.00
1256.074, 39629.00
1257.148, 39457.00
1258.223, 39589.00
1259.297, 39410.00
1260.371, 39473.00
1261.445, 39276.00
1262.519, 39337.06
1263.592, 39336.27
1264.666, 39510.00
1265.739, 39391.00
1266.812, 39640.00
1267.885, 39662.00
1268.958, 39582.00
1270.030, 39459.00
1271.103, 39577.00
1272.175, 39628.00
1273.247, 39401.00
1274.319, 39636.00
1275.391, 39561.00
1276.463, 39386.00
1277.535, 39523.00
1278.606, 39615.00
1279.677, 39761.00
1280.748, 39717.00
1281.819, 39578.00
1282.890, 39598.00
1283.961, 39520.00
1285.031, 39400.00
1286.102, 39335.00
1287.172, 39568.00
1288.242, 39672.00
1289.312, 39585.00
