##NAMES=Spinel
##RRUFFID=R050184
##IDEAL CHEMISTRY=MgAl_2_O_4_
##LOCALITY=Pein Pyit, Mogok, Burma
##OWNER=RRUFF
##SOURCE=Marcus Origlieri
##DESCRIPTION=Red crystal in calcite, associated with yellowish-green clinohumite, R050183
##STATUS=The identification of this mineral has been confirmed by X-ray diffraction and chemical analysis
##URL=rruff.info/R050184
##MEASURED CHEMISTRY=Mg_1.00_(Al_1.99_Cr_0.01_)_Î£=2_O_4_; trace amounts of V
##PIN_ID=L00212
##ORIENTATION=Laser parallel to -b* (0 -1 0). Fiducial mark perpendicular to laser is parallel to c [0 0 1]
111.8550, 40029.00
113.0940, 40375.00
114.3320, 40085.00
115.5700, 40095.00
116.8080, 40307.00
118.0460, 40164.00
119.2830, 40134.00
120.5210, 40147.00
121.7580, 40076.00
122.9950, 40426.00
124.2320, 40321.00
125.4690, 40388.00
126.7050, 40012.00
127.9410, 40269.00
129.1780, 40198.00
130.4140, 40243.00
131.6490, 40328.00
132.8850, 40275.00
134.1200, 40102.00
135.3560, 40403.00
136.5910, 40246.00
137.8260, 40530.00
139.0610, 40465.00
140.2950, 40140.00
141.5290, 40369.00
142.7640, 40182.00
143.9980, 40258.00
145.2320, 40233.00
146.4650, 40561.00
147.6990, 40172.00
148.9320, 40366.63
150.1650, 40197.00
151.3980, 40458.00
152.6310, 40306.00
153.8640, 40403.00
155.0960, 40562.00
156.3280, 40611.00
157.5600, 40351.00
158.7920, 40199.00
160.0240, 40327.00
161.2560, 40432.00
162.4870, 40501.00
163.7180, 40539.00
164.9490, 40561.45
166.1800, 40060.73
167.4110, 40367.61
168.6410, 40546.79
169.8720, 40605.17
171.1020, 40180.89
172.3320, 40379.86
173.5620, 40329.05
174.7910, 40267.99
176.0210, 40554.68
177.2500, 40200.59
178.4790, 40481.75
179.7080, 40509.32
180.9370, 40652.96
182.1650, 40545.27
183.3940, 40623.00
184.6220, 40562.00
185.8500, 40571.00
187.0780, 40673.00
188.3050, 40592.00
189.5330, 40701.00
190.7600, 40421.00
191.9870, 40466.00
193.2140, 40401.00
194.4410, 40411.00
195.6680, 40699.00
196.8940, 40635.00
198.1200, 40502.00
199.3470, 40672.00
200.5720, 40499.00
201.7980, 40627.00
203.0240, 40526.00
204.2490, 40743.00
205.4740, 40531.00
206.6990, 40494.00
207.9240, 40658.00
209.1490, 40397.00
210.3740, 40647.00
211.5980, 40629.00
212.8220, 40513.00
214.0460, 40451.00
215.2700, 40624.00
216.4930, 40790.00
217.7170, 40612.00
218.9400, 40563.00
220.1630, 40688.00
221.3860, 40567.00
222.6090, 40176.64
223.8320, 40467.01
225.0540, 40629.71
226.2760, 40671.59
227.4980, 40230.82
228.7200, 40413.30
229.9420, 40346.01
231.1630, 40268.48
232.3850, 40538.68
233.6060, 40168.11
234.8270, 40432.80
236.0480, 40443.90
237.2690, 40571.06
238.4890, 40446.91
239.7090, 40461.00
240.9290, 40470.00
242.1490, 40169.00
243.3690, 40542.00
244.5890, 40700.00
245.8080, 40730.00
247.0270, 40470.00
248.2470, 40360.00
249.4650, 40712.00
250.6840, 40711.00
251.9030, 40658.04
253.1210, 40639.00
254.3390, 40513.00
255.5570, 40514.00
256.7750, 40484.00
257.9930, 40344.00
259.2100, 40459.00
260.4280, 40447.00
261.6450, 40409.00
262.8620, 40500.35
264.0790, 40535.00
265.2950, 40652.00
266.5120, 40523.00
267.7280, 40683.41
268.9440, 40501.00
270.1600, 40604.00
271.3760, 40506.00
272.5920, 40354.00
273.8070, 40550.00
275.0220, 40598.00
276.2370, 40467.00
277.4520, 40674.00
278.6670, 40574.00
279.8820, 40457.00
281.0960, 40720.00
282.3100, 40434.00
283.5240, 40479.00
284.7380, 40730.00
285.9520, 40387.00
287.1650, 40399.00
288.3780, 40367.00
289.5920, 40576.00
290.8050, 40590.00
292.0170, 40781.00
293.2300, 40639.00
294.4430, 40929.00
295.6550, 40607.00
296.8670, 40812.00
298.0790, 40639.00
299.2910, 40842.00
300.5020, 40716.00
301.7140, 40813.00
302.9250, 40696.00
304.1360, 40737.00
305.3470, 40888.00
306.5580, 40822.00
307.7680, 41281.00
308.9780, 41117.00
310.1890, 41649.00
311.3990, 41708.00
312.6090, 41690.00
313.8180, 41558.00
315.0280, 41473.00
316.2370, 40941.00
317.4460, 40556.00
318.6550, 40984.00
319.8640, 40745.00
321.0730, 40926.00
322.2810, 40616.00
323.4890, 40584.00
324.6980, 40580.00
325.9060, 40546.00
327.1130, 40398.54
328.3210, 40579.04
329.5280, 40674.43
330.7360, 40689.28
331.9430, 40382.36
333.1500, 40490.95
334.3560, 40433.02
335.5630, 40368.27
336.7690, 40535.34
337.9760, 40275.23
339.1820, 40438.62
340.3870, 40432.98
341.5930, 40504.70
342.7990, 40408.87
344.0040, 40364.80
345.2090, 40488.34
346.4140, 40519.07
347.6190, 40403.97
348.8240, 40480.61
350.0280, 40214.68
351.2330, 40396.00
352.4370, 40421.00
353.6410, 40358.00
354.8440, 40456.61
356.0480, 40459.00
357.2520, 40503.00
358.4550, 40500.00
359.6580, 40411.00
360.8610, 40540.00
362.0640, 40325.00
363.2660, 40388.00
364.4690, 40399.00
365.6710, 40268.00
366.8730, 40501.00
368.0750, 40302.00
369.2770, 40488.00
370.4780, 40449.00
371.6800, 40411.18
372.8810, 40557.00
374.0820, 40375.00
375.2830, 40430.00
376.4830, 40431.00
377.6840, 40645.00
378.8840, 40500.00
380.0840, 40659.00
381.2840, 40596.00
382.4840, 40734.00
383.6840, 40678.14
384.8830, 40293.00
386.0830, 40625.00
387.2820, 40460.00
388.4810, 40544.00
389.6800, 40696.00
390.8780, 40448.00
392.0770, 40661.00
393.2750, 40876.00
394.4730, 40777.00
395.6710, 41158.00
396.8690, 41072.00
398.0660, 41073.00
399.2640, 41465.00
400.4610, 41917.00
401.6580, 42022.00
402.8550, 42567.00
404.0520, 42897.00
405.2490, 43373.00
406.4450, 43681.00
407.6410, 43729.00
408.8370, 43619.00
410.0330, 42854.00
411.2290, 42615.00
412.4240, 42008.00
413.6200, 41834.00
414.8150, 41210.00
416.0100, 41244.00
417.2050, 41137.00
418.4000, 40861.00
419.5940, 40864.00
420.7880, 40646.00
421.9830, 40378.00
423.1770, 40435.00
424.3700, 40282.00
425.5640, 40387.00
426.7580, 40271.00
427.9510, 40263.00
429.1440, 40343.00
430.3370, 40154.00
431.5300, 40177.00
432.7220, 40119.00
433.9150, 40325.00
435.1070, 40037.00
436.2990, 40225.00
437.4910, 40084.00
438.6830, 40009.00
439.8750, 40187.00
441.0660, 40170.00
442.2570, 40173.00
443.4480, 40269.00
444.6390, 40070.00
445.8300, 40302.00
447.0210, 40216.00
448.2110, 40291.00
449.4010, 40209.00
450.5910, 40061.00
451.7810, 40092.18
452.9710, 40335.00
454.1610, 39964.00
455.3500, 40061.00
456.5390, 39867.00
457.7280, 40306.00
458.9170, 40334.00
460.1060, 40056.00
461.2940, 39925.00
462.4830, 40210.00
463.6710, 40015.00
464.8590, 40179.00
466.0470, 40304.00
467.2350, 40124.00
468.4220, 40024.00
469.6090, 39903.00
470.7970, 40074.00
471.9840, 40091.00
473.1700, 40106.00
474.3570, 40150.26
475.5440, 40158.00
476.7300, 40141.00
477.9160, 39993.00
479.1020, 39975.00
480.2880, 39836.00
481.4740, 40107.00
482.6590, 40097.00
483.8440, 40006.00
485.0300, 39779.00
486.2140, 39855.00
487.3990, 39838.00
488.5840, 39845.00
489.7680, 39849.20
490.9530, 39997.00
492.1370, 39849.00
493.3210, 39933.00
494.5040, 40006.00
495.6880, 39692.00
496.8720, 40021.00
498.0550, 39781.00
499.2380, 40091.00
500.4210, 40032.00
501.6040, 39965.00
502.7860, 40054.00
503.9690, 40016.00
505.1510, 39912.00
506.3330, 39801.00
507.5150, 39870.00
508.6970, 39860.00
509.8780, 40023.00
511.0600, 40079.00
512.2410, 40267.00
513.4220, 39590.00
514.6030, 39763.00
515.7840, 39820.00
516.9640, 39967.00
518.1440, 39993.00
519.3250, 39947.00
520.5050, 39887.00
521.6850, 39923.00
522.8640, 40102.00
524.0440, 40015.00
525.2230, 40095.00
526.4020, 39948.00
527.5820, 40047.00
528.7600, 39951.00
529.9390, 39867.00
531.1180, 39863.00
532.2960, 39929.00
533.4740, 39889.00
534.6520, 39987.00
535.8300, 39995.00
537.0080, 40178.00
538.1850, 40101.73
539.3630, 39884.00
540.5400, 40038.00
541.7170, 39855.00
542.8940, 39899.00
544.0700, 39816.00
545.2470, 39740.00
546.4230, 40078.00
547.5990, 39816.00
548.7750, 39869.00
549.9510, 39930.00
551.1270, 39774.00
552.3020, 39702.00
553.4780, 39896.00
554.6530, 39982.00
555.8280, 40084.00
557.0030, 39785.00
558.1770, 40051.00
559.3520, 39920.00
560.5260, 39718.00
561.7000, 40009.00
562.8740, 39787.00
564.0480, 39864.00
565.2220, 39968.00
566.3950, 40287.00
567.5680, 39991.00
568.7420, 40002.00
569.9150, 39875.00
571.0870, 40000.00
572.2600, 39999.00
573.4320, 40118.00
574.6050, 40103.91
575.7770, 39983.00
576.9490, 40048.00
578.1210, 40007.00
579.2920, 39914.00
580.4640, 39921.00
581.6350, 39826.00
582.8060, 39749.00
583.9770, 39652.00
585.1480, 39944.00
586.3190, 39912.00
587.4890, 40069.00
588.6590, 39766.00
589.8290, 39810.00
590.9990, 39888.00
592.1690, 40028.00
593.3390, 40086.30
594.5080, 40155.00
595.6770, 40272.00
596.8470, 39952.00
598.0160, 40022.00
599.1840, 39922.00
600.3530, 39927.00
601.5210, 39952.32
602.6900, 39893.00
603.8580, 39931.00
605.0260, 39972.00
606.1930, 39817.00
607.3610, 40033.00
608.5280, 40092.00
609.6960, 40086.00
610.8630, 39958.00
612.0300, 39974.00
613.1970, 39842.00
614.3630, 39865.00
615.5300, 39972.00
616.6960, 40009.00
617.8620, 39985.00
619.0280, 40058.00
620.1940, 40016.00
621.3590, 39924.00
622.5250, 39757.00
623.6900, 39927.00
624.8550, 40034.00
626.0200, 40017.00
627.1850, 39854.00
628.3490, 39957.00
629.5140, 39978.00
630.6780, 40174.00
631.8420, 40005.00
633.0060, 39826.00
634.1700, 40125.00
635.3330, 39959.00
636.4970, 40247.00
637.6600, 40001.00
638.8230, 39936.00
639.9860, 40048.00
641.1490, 40293.00
642.3110, 39817.00
643.4740, 40323.00
644.6360, 40145.00
645.7980, 40116.00
646.9600, 40457.00
648.1220, 40398.00
649.2840, 40262.00
650.4450, 40323.00
651.6060, 40759.00
652.7670, 40555.00
653.9280, 40864.00
655.0890, 40861.00
656.2500, 41149.00
657.4100, 41207.00
658.5700, 41572.00
659.7300, 42411.00
660.8900, 42146.00
662.0500, 42830.00
663.2100, 43091.00
664.3690, 43139.00
665.5280, 43439.00
666.6880, 43268.00
667.8460, 43307.00
669.0050, 42742.00
670.1640, 43039.00
671.3220, 42391.00
672.4810, 42081.00
673.6390, 41769.00
674.7970, 41247.00
675.9540, 41308.00
677.1120, 41037.00
678.2690, 40859.00
679.4270, 40804.00
680.5840, 40486.00
681.7410, 40503.00
682.8980, 40333.00
684.0540, 40286.00
685.2110, 40488.00
686.3670, 40122.00
687.5230, 40277.00
688.6790, 39960.00
689.8350, 40287.00
690.9900, 40141.00
692.1460, 39990.00
693.3010, 39880.00
694.4560, 39866.92
695.6110, 39913.00
696.7660, 39858.00
697.9210, 39896.45
699.0750, 39893.56
700.2290, 39936.00
701.3840, 39904.00
702.5370, 39919.21
703.6910, 39928.00
704.8450, 40069.00
705.9980, 39941.00
707.1520, 40100.00
708.3050, 40162.00
709.4580, 40050.00
710.6110, 40265.00
711.7630, 40250.00
712.9160, 40231.00
714.0680, 40360.00
715.2200, 40208.00
716.3720, 40112.00
717.5240, 40270.00
718.6760, 39973.00
719.8270, 40139.00
720.9780, 40534.00
722.1300, 40372.00
723.2810, 40339.00
724.4310, 40113.00
725.5820, 40310.00
726.7330, 40306.00
727.8830, 39966.00
729.0330, 39923.00
730.1830, 40286.00
731.3330, 40179.00
732.4830, 40113.00
733.6320, 40283.00
734.7810, 40023.00
735.9310, 40189.00
737.0800, 40350.00
738.2290, 40226.00
739.3770, 40243.00
740.5260, 40151.00
741.6740, 40078.00
742.8220, 40336.00
743.9700, 40158.00
745.1180, 40525.00
746.2660, 40443.00
747.4130, 40487.00
748.5610, 40542.00
749.7080, 40641.00
750.8550, 40804.00
752.0020, 40855.00
753.1490, 40823.00
754.2950, 41301.00
755.4420, 41259.00
756.5880, 41593.00
757.7340, 41994.00
758.8800, 42049.00
760.0250, 42513.00
761.1710, 42909.00
762.3160, 43157.00
763.4620, 43549.00
764.6070, 43710.00
765.7520, 44029.00
766.8960, 44062.00
768.0410, 43845.00
769.1850, 43616.00
770.3300, 43062.00
771.4740, 42841.00
772.6180, 42293.00
773.7610, 42033.00
774.9050, 41618.00
776.0480, 41433.00
777.1920, 40963.00
778.3350, 40886.00
779.4780, 40616.00
780.6200, 40925.00
781.7630, 40650.00
782.9060, 40664.00
784.0480, 40512.00
785.1900, 40696.00
786.3320, 40367.00
787.4740, 40362.00
788.6150, 40534.00
789.7570, 40308.00
790.8980, 40594.00
792.0390, 40145.00
793.1800, 40284.00
794.3210, 40237.00
795.4620, 40196.00
796.6020, 40262.00
797.7420, 40069.00
798.8830, 40190.00
800.0230, 40083.00
801.1620, 40081.00
802.3020, 40174.00
803.4420, 40065.00
804.5810, 40118.00
805.7200, 40058.00
806.8590, 40086.00
807.9980, 40035.00
809.1370, 40024.00
810.2750, 39958.00
811.4140, 40008.00
812.5520, 40080.00
813.6900, 39760.00
814.8280, 40092.00
815.9650, 39734.00
817.1030, 40047.00
818.2400, 40031.00
819.3780, 39990.00
820.5150, 39816.00
821.6520, 40022.00
822.7880, 40086.00
823.9250, 39832.00
825.0610, 39712.00
826.1980, 39897.00
827.3340, 40045.00
828.4700, 39734.00
829.6050, 39936.00
830.7410, 39881.00
831.8760, 39673.00
833.0120, 39789.00
834.1470, 39920.00
835.2820, 39661.00
836.4160, 39810.00
837.5510, 39624.00
838.6860, 40040.00
839.8200, 39749.00
840.9540, 39736.00
842.0880, 39937.00
843.2220, 39458.00
844.3550, 39716.00
845.4890, 39578.00
846.6220, 39661.00
847.7550, 39711.00
848.8880, 39528.00
850.0210, 39693.00
851.1540, 39630.00
852.2860, 39544.00
853.4190, 39632.00
854.5510, 39549.00
855.6830, 39638.00
856.8150, 39819.00
857.9460, 39507.00
859.0780, 39781.00
860.2090, 39590.00
861.3410, 39623.00
862.4720, 39638.08
863.6020, 39760.00
864.7330, 39494.77
865.8640, 39650.89
866.9940, 39734.07
868.1240, 39748.22
869.2540, 39486.56
870.3840, 39581.05
871.5140, 39532.81
872.6440, 39478.72
873.7730, 39623.34
874.9020, 39401.80
876.0320, 39543.27
877.1600, 39745.02
878.2890, 39362.43
879.4180, 39615.09
880.5460, 39614.18
881.6750, 39729.32
882.8030, 39593.15
883.9310, 39534.61
885.0590, 39364.00
886.1860, 39637.00
887.3140, 39717.00
888.4410, 39385.00
889.5680, 39398.00
890.6950, 39490.00
891.8220, 39460.00
892.9490, 39449.47
894.0750, 39658.00
895.2020, 39391.00
896.3280, 39506.00
897.4540, 39546.00
898.5800, 39240.00
899.7050, 39305.00
900.8310, 39428.00
901.9560, 39486.00
903.0820, 39373.00
904.2070, 39268.00
905.3320, 39347.00
906.4560, 39313.00
907.5810, 39247.00
908.7050, 39356.00
909.8300, 39189.00
910.9540, 39260.00
912.0780, 39224.00
913.2010, 39367.00
914.3250, 39180.00
915.4480, 39139.00
916.5720, 39094.00
917.6950, 39171.00
918.8180, 39123.00
919.9410, 39061.00
921.0630, 39088.00
922.1860, 39088.00
923.3080, 39197.00
924.4300, 39099.00
925.5520, 39207.00
926.6740, 39072.00
927.7960, 39047.57
928.9170, 39172.00
930.0390, 38969.00
931.1600, 39051.00
932.2810, 39123.00
933.4020, 38934.00
934.5230, 38788.00
935.6430, 38961.00
936.7640, 38838.00
937.8840, 38782.00
939.0040, 39023.00
940.1240, 38705.00
941.2440, 38680.00
942.3630, 38801.00
943.4830, 39027.00
944.6020, 38781.00
945.7210, 38738.00
946.8400, 38781.00
947.9590, 38626.42
949.0770, 38888.01
950.1960, 39021.91
951.3140, 39035.01
952.4320, 38565.46
953.5500, 38719.17
954.6680, 38623.10
955.7860, 38516.79
956.9030, 38758.23
958.0210, 38358.89
959.1380, 38594.82
960.2550, 38577.18
961.3720, 38675.59
962.4890, 38522.68
963.6050, 38447.43
964.7220, 38623.54
965.8380, 38660.48
966.9540, 38404.00
968.0700, 38272.00
969.1860, 38291.25
970.3010, 38430.00
971.4170, 38358.00
972.5320, 38368.00
973.6470, 38385.00
974.7620, 38255.00
975.8770, 38562.00
976.9910, 38255.00
978.1060, 38603.00
979.2200, 38280.00
980.3340, 38353.00
981.4480, 38186.00
982.5620, 38290.00
983.6760, 38221.00
984.7890, 38189.00
985.9030, 38065.00
987.0160, 38331.00
988.1290, 38304.00
989.2420, 38396.00
990.3550, 38397.00
991.4670, 38337.28
992.5800, 38223.00
993.6920, 38129.00
994.8040, 38078.00
995.9160, 38052.89
997.0280, 38041.02
998.1390, 38090.00
999.2510, 38047.00
1000.362, 38113.88
1001.473, 38061.00
1002.584, 38078.00
1003.695, 37905.00
1004.805, 37753.00
1005.916, 37837.00
1007.026, 37822.00
1008.136, 37801.00
1009.246, 37856.80
1010.356, 37687.00
1011.466, 37838.00
1012.576, 37882.00
1013.685, 37707.00
1014.794, 37885.00
1015.903, 37828.00
1017.012, 37451.00
1018.121, 37905.00
1019.229, 37569.00
1020.338, 37771.00
1021.446, 37720.00
1022.554, 37636.00
1023.662, 38010.00
1024.770, 37687.00
1025.878, 37540.00
1026.985, 37486.00
1028.092, 37578.00
1029.200, 37736.00
1030.307, 37318.00
1031.413, 37593.00
1032.520, 37606.00
1033.627, 37450.00
1034.733, 37546.00
1035.839, 37551.00
1036.945, 37452.00
1038.051, 37537.16
1039.157, 37513.83
1040.262, 37520.00
1041.368, 37604.00
1042.473, 37450.00
1043.578, 37589.00
1044.683, 37649.00
1045.788, 37617.00
1046.893, 37575.00
1047.997, 37626.35
1049.101, 37609.21
1050.205, 37674.00
1051.309, 37632.00
1052.413, 37467.50
1053.517, 37673.07
1054.621, 37792.76
1055.724, 37831.14
1056.827, 37547.00
1057.930, 37677.60
1059.033, 37640.92
1060.136, 37596.66
1061.238, 37783.45
1062.341, 37542.31
1063.443, 37723.91
1064.545, 37735.70
1065.647, 37824.10
1066.749, 37744.20
1067.850, 37715.30
1068.952, 37853.23
1070.053, 37897.60
1071.154, 37795.39
1072.255, 37884.17
1073.356, 37629.60
1074.457, 37674.90
1075.557, 37849.16
1076.658, 37751.59
1077.758, 37839.65
1078.858, 37855.98
1079.958, 37548.94
1081.057, 37802.20
1082.157, 37812.07
1083.256, 37572.05
1084.356, 37803.82
1085.455, 37685.00
1086.554, 37575.00
1087.653, 37762.00
1088.751, 37670.00
1089.850, 37458.00
1090.948, 37684.00
1092.046, 37511.00
1093.144, 37531.00
1094.242, 37393.00
1095.340, 37665.00
1096.437, 37398.00
1097.534, 37712.00
1098.632, 37525.00
1099.729, 37507.00
1100.826, 37421.00
1101.922, 37431.00
1103.019, 37363.00
1104.115, 37405.09
1105.212, 37541.00
1106.308, 37478.00
1107.404, 37449.00
1108.499, 37423.81
1109.595, 37303.00
1110.691, 37417.00
1111.786, 37319.00
1112.881, 37305.00
1113.976, 37137.00
1115.071, 37078.00
1116.166, 37131.00
1117.260, 37197.00
1118.355, 37145.00
1119.449, 37320.00
1120.543, 37019.00
1121.637, 37041.00
1122.731, 36945.00
1123.824, 37153.00
1124.918, 37172.00
1126.011, 37333.00
1127.104, 37013.00
1128.197, 37099.00
1129.290, 37044.00
1130.382, 36923.00
1131.475, 36978.00
1132.567, 37271.00
1133.659, 36858.00
1134.751, 36613.00
1135.843, 37014.00
1136.935, 37002.00
1138.027, 36662.00
1139.118, 37033.00
1140.209, 36985.00
1141.300, 36690.00
1142.391, 37051.00
1143.482, 37057.00
1144.573, 36892.00
1145.663, 37011.00
1146.754, 36924.00
1147.844, 36720.00
1148.934, 36819.00
1150.024, 36682.00
1151.113, 36861.00
1152.203, 36671.00
1153.292, 36882.00
1154.381, 36655.00
1155.470, 36814.00
1156.559, 36652.00
1157.648, 36638.00
1158.737, 36536.00
1159.825, 36408.00
1160.913, 36538.00
1162.001, 36521.00
1163.089, 36627.00
1164.177, 36492.00
1165.265, 36532.00
1166.352, 36566.00
1167.440, 36422.00
1168.527, 36594.00
1169.614, 36389.00
1170.701, 36524.00
1171.788, 36342.00
1172.874, 36525.00
1173.961, 36327.00
1175.047, 36245.00
1176.133, 36343.00
1177.219, 36629.00
1178.305, 36218.00
1179.390, 36370.00
1180.476, 36538.00
1181.561, 36335.00
1182.646, 36591.00
1183.731, 36249.00
1184.816, 36623.00
1185.901, 36360.00
1186.985, 36216.00
1188.070, 36120.00
1189.154, 36098.55
1190.238, 36281.00
1191.322, 36235.00
1192.406, 36241.00
1193.489, 36377.00
1194.573, 36156.00
1195.656, 36366.00
1196.739, 36077.00
1197.822, 36292.00
1198.905, 36196.00
1199.988, 36209.00
1201.070, 36087.00
1202.153, 36017.00
1203.235, 35922.00
1204.317, 36279.00
1205.399, 35957.00
1206.481, 35798.00
1207.562, 36153.00
1208.644, 35795.00
1209.725, 36082.00
1210.806, 35981.00
1211.887, 36199.00
1212.968, 36118.00
1214.049, 36022.00
1215.129, 36067.00
1216.209, 35830.00
1217.290, 35959.00
1218.370, 36024.00
1219.450, 35971.00
1220.529, 35900.00
1221.609, 35884.00
1222.688, 35670.00
1223.768, 35643.00
1224.847, 36112.00
1225.926, 35807.00
1227.005, 35890.00
1228.083, 36016.00
1229.162, 35764.00
1230.240, 35916.00
1231.318, 35934.00
1232.396, 35794.00
1233.474, 35884.00
1234.552, 35930.00
1235.629, 35748.00
1236.707, 35695.00
1237.784, 35827.00
1238.861, 35865.00
1239.938, 36033.00
1241.015, 35877.00
1242.092, 36080.00
1243.168, 35838.00
1244.244, 35672.00
1245.321, 35546.00
1246.397, 35663.00
1247.473, 35962.00
1248.548, 35773.00
1249.624, 35876.00
1250.699, 35748.00
1251.775, 35770.00
1252.850, 35577.00
1253.925, 35998.00
1254.999, 35868.00
1256.074, 35890.00
1257.148, 35827.00
1258.223, 35925.00
1259.297, 35932.00
1260.371, 35963.00
1261.445, 35721.00
1262.519, 35804.00
1263.592, 36068.00
1264.666, 35693.00
1265.739, 35817.00
1266.812, 35831.00
1267.885, 35715.00
1268.958, 35947.00
1270.030, 36069.00
1271.103, 36162.00
1272.175, 35845.00
1273.247, 36085.00
1274.319, 35729.00
1275.391, 36035.00
1276.463, 35820.00
1277.535, 35862.00
1278.606, 35740.00
1279.677, 35922.00
1280.748, 35836.00
1281.819, 36022.00
1282.890, 35635.00
1283.961, 36059.00
1285.031, 35842.00
1286.102, 36057.00
1287.172, 35735.00
1288.242, 35980.00
1289.312, 35691.00
