##NAMES=Spodumene
##RRUFFID=R040050
##IDEAL CHEMISTRY=LiAlSi_2_O_6_
##LOCALITY=Minas Gerais, Brazil
##OWNER=RRUFF
##SOURCE=University of Arizona Mineral Museum
##DESCRIPTION=Pale pink fragment of a single crystal, variety kunzite
##STATUS=The identification of this mineral has been confirmed by X-ray diffraction and chemical analysis
##URL=rruff.info/R040050
##MEASURED CHEMISTRY=(Li_0.99_Na_0.01_)Al_1.00_Si_2.00_O_6_
##PIN_ID=L00321
##ORIENTATION=Laser parallel to (1 0 1). Fiducial mark perpendicular to laser is parallel to b [0 1 0]
99.34400, 4884.000
100.5810, 4908.000
101.8190, 5112.000
103.0560, 5150.780
104.2930, 5260.000
105.5290, 5309.000
106.7660, 5467.000
108.0020, 5539.000
109.2390, 5560.000
110.4750, 5663.000
111.7110, 5705.000
112.9460, 5748.000
114.1820, 5703.000
115.4170, 5907.000
116.6530, 5964.000
117.8880, 6114.000
119.1230, 6266.000
120.3580, 6383.000
121.5920, 6499.000
122.8270, 6675.000
124.0610, 7015.000
125.2950, 7405.000
126.5290, 7797.000
127.7630, 8276.000
128.9970, 8859.000
130.2300, 9214.000
131.4640, 8970.000
132.6970, 8595.000
133.9300, 7890.000
135.1630, 7274.000
136.3950, 7021.000
137.6280, 6710.000
138.8600, 6450.000
140.0920, 6465.000
141.3240, 6378.000
142.5560, 6427.000
143.7880, 6334.000
145.0190, 6320.000
146.2510, 6268.000
147.4820, 6170.000
148.7130, 6270.000
149.9440, 6306.000
151.1750, 6241.000
152.4050, 6406.000
153.6360, 6345.000
154.8660, 6398.000
156.0960, 6349.000
157.3260, 6431.000
158.5560, 6403.337
159.7850, 6324.000
161.0150, 6383.000
162.2440, 6406.000
163.4730, 6400.000
164.7020, 6442.000
165.9310, 6385.000
167.1590, 6356.000
168.3880, 6473.000
169.6160, 6446.000
170.8440, 6537.000
172.0720, 6585.000
173.3000, 6511.000
174.5280, 6574.000
175.7550, 6602.000
176.9820, 6663.000
178.2100, 6740.000
179.4370, 6801.000
180.6630, 6839.000
181.8900, 6882.000
183.1170, 7098.000
184.3430, 7146.000
185.5690, 7525.000
186.7950, 7672.000
188.0210, 7734.000
189.2470, 7668.000
190.4720, 7559.000
191.6970, 7348.000
192.9230, 7229.000
194.1480, 7127.000
195.3730, 6982.000
196.5970, 6972.000
197.8220, 6857.000
199.0460, 6907.000
200.2700, 6921.000
201.4940, 6939.000
202.7180, 6904.000
203.9420, 6948.000
205.1660, 6921.000
206.3890, 6952.000
207.6120, 6901.000
208.8350, 6960.000
210.0580, 7003.000
211.2810, 6900.000
212.5040, 6987.000
213.7260, 7032.000
214.9480, 7066.000
216.1700, 6930.000
217.3920, 6958.000
218.6140, 7051.000
219.8360, 7060.000
221.0570, 7170.000
222.2790, 7240.000
223.5000, 7226.000
224.7210, 7148.000
225.9410, 7296.000
227.1620, 7359.000
228.3820, 7514.000
229.6030, 7350.000
230.8230, 7492.000
232.0430, 7388.000
233.2630, 7344.000
234.4820, 7384.000
235.7020, 7359.000
236.9210, 7468.000
238.1400, 7383.000
239.3590, 7543.000
240.5780, 7583.000
241.7970, 7587.000
243.0150, 7598.000
244.2340, 7722.000
245.4520, 7950.000
246.6700, 8188.000
247.8880, 8508.000
249.1060, 8718.000
250.3230, 8763.000
251.5400, 8590.000
252.7580, 8432.000
253.9750, 8342.000
255.1920, 8311.000
256.4080, 8489.000
257.6250, 8205.000
258.8410, 8385.000
260.0580, 8344.000
261.2740, 8287.000
262.4900, 8023.000
263.7050, 8155.000
264.9210, 8057.000
266.1360, 8050.000
267.3520, 7970.000
268.5670, 7889.000
269.7820, 7958.000
270.9960, 8002.000
272.2110, 7925.000
273.4250, 7855.000
274.6400, 8046.000
275.8540, 7969.000
277.0680, 8013.000
278.2810, 8070.000
279.4950, 8021.000
280.7090, 8147.000
281.9220, 8209.000
283.1350, 8330.000
284.3480, 8534.000
285.5610, 8734.000
286.7730, 8954.000
287.9860, 9134.000
289.1980, 9463.000
290.4100, 9869.000
291.6220, 10178.00
292.8340, 10675.00
294.0460, 11126.00
295.2570, 11330.00
296.4690, 11492.00
297.6800, 11541.00
298.8910, 11223.00
300.1020, 10834.00
301.3120, 10429.00
302.5230, 9930.000
303.7330, 9466.000
304.9440, 9209.000
306.1540, 8978.000
307.3630, 8741.000
308.5730, 8651.000
309.7830, 8454.000
310.9920, 8481.000
312.2010, 8539.000
313.4100, 8517.000
314.6190, 8516.000
315.8280, 8565.000
317.0370, 8625.601
318.2450, 8600.000
319.4530, 8848.000
320.6610, 8915.000
321.8690, 9098.000
323.0770, 9148.000
324.2850, 9289.000
325.4920, 9597.000
326.6990, 9747.000
327.9060, 9789.000
329.1130, 10208.00
330.3200, 10101.00
331.5270, 9946.000
332.7330, 9644.000
333.9390, 9323.000
335.1450, 9183.000
336.3510, 9211.000
337.5570, 9190.000
338.7630, 9090.000
339.9680, 9237.000
341.1740, 9351.000
342.3790, 9685.000
343.5840, 9905.000
344.7890, 10351.00
345.9930, 10945.00
347.1980, 11715.00
348.4020, 12275.00
349.6060, 13216.00
350.8100, 14548.00
352.0140, 16263.00
353.2180, 18226.00
354.4210, 19975.00
355.6250, 20382.00
356.8280, 19662.00
358.0310, 17616.00
359.2340, 15227.00
360.4360, 13623.00
361.6390, 12256.00
362.8410, 11401.00
364.0430, 10766.00
365.2450, 10502.00
366.4470, 10141.00
367.6490, 9928.000
368.8510, 9774.000
370.0520, 9633.000
371.2530, 9758.000
372.4540, 9615.000
373.6550, 9754.000
374.8560, 9659.000
376.0560, 9596.000
377.2570, 9776.000
378.4570, 9913.000
379.6570, 10093.00
380.8570, 10207.00
382.0570, 10369.00
383.2560, 10649.00
384.4560, 10836.00
385.6550, 11096.00
386.8540, 11560.00
388.0530, 11736.00
389.2520, 12337.00
390.4510, 12772.00
391.6490, 13516.00
392.8470, 13933.00
394.0450, 14305.00
395.2430, 13968.00
396.4410, 13435.00
397.6390, 12613.00
398.8360, 11777.00
400.0340, 11183.00
401.2310, 10528.00
402.4280, 10268.00
403.6250, 10147.00
404.8210, 9944.000
406.0180, 9831.000
407.2140, 9767.947
408.4100, 9745.000
409.6060, 9723.000
410.8020, 9709.000
411.9980, 9761.000
413.1930, 9706.000
414.3890, 9713.000
415.5840, 9794.000
416.7790, 9962.000
417.9740, 9971.000
419.1680, 10022.07
420.3630, 9977.000
421.5570, 9984.000
422.7510, 9838.000
423.9450, 9697.000
425.1390, 9869.000
426.3330, 9947.000
427.5270, 9824.000
428.7200, 9840.000
429.9130, 9989.000
431.1060, 10181.00
432.2990, 10211.00
433.4920, 10404.00
434.6840, 10439.00
435.8770, 10618.00
437.0690, 10802.00
438.2610, 11066.00
439.4530, 11312.00
440.6450, 11407.00
441.8360, 11699.00
443.0280, 11714.00
444.2190, 11679.00
445.4100, 11313.00
446.6010, 11289.00
447.7920, 10808.00
448.9820, 11027.00
450.1730, 10836.00
451.3630, 10706.00
452.5530, 10591.00
453.7430, 10499.00
454.9330, 10380.00
456.1230, 10338.00
457.3120, 10285.00
458.5010, 10235.83
459.6910, 10238.00
460.8800, 10183.00
462.0680, 10189.00
463.2570, 10174.33
464.4460, 10236.00
465.6340, 10269.00
466.8220, 10204.00
468.0100, 10367.00
469.1980, 10319.00
470.3860, 10417.00
471.5730, 10412.65
472.7600, 10300.00
473.9480, 10357.00
475.1350, 10368.00
476.3210, 10288.00
477.5080, 10320.00
478.6950, 10462.00
479.8810, 10408.00
481.0670, 10509.00
482.2530, 10565.00
483.4390, 10327.00
484.6250, 10470.00
485.8100, 10446.00
486.9960, 10502.00
488.1810, 10570.00
489.3660, 10514.00
490.5510, 10503.00
491.7360, 10627.00
492.9200, 10654.00
494.1050, 10697.00
495.2890, 10739.00
496.4730, 10575.00
497.6570, 10839.00
498.8400, 10714.00
500.0240, 10669.00
501.2070, 10860.00
502.3910, 10875.00
503.5740, 10814.00
504.7570, 10981.00
505.9400, 10977.00
507.1220, 11135.00
508.3050, 11119.00
509.4870, 11172.00
510.6690, 11210.00
511.8510, 11454.00
513.0330, 11477.00
514.2140, 11751.00
515.3960, 11940.00
516.5770, 12167.00
517.7580, 12442.60
518.9390, 12789.00
520.1200, 12952.00
521.3010, 13315.00
522.4810, 13502.00
523.6610, 13421.00
524.8420, 13169.00
526.0220, 12730.00
527.2010, 12419.00
528.3810, 12141.00
529.5610, 11886.00
530.7400, 11716.00
531.9190, 11715.00
533.0980, 11713.00
534.2770, 11511.00
535.4560, 11604.00
536.6340, 11536.00
537.8120, 11412.00
538.9910, 11503.00
540.1690, 11522.00
541.3460, 11582.00
542.5240, 11544.00
543.7020, 11664.00
544.8790, 11688.00
546.0560, 11520.00
547.2330, 11535.00
548.4100, 11613.00
549.5870, 11598.00
550.7630, 11669.00
551.9400, 11682.00
553.1160, 11671.00
554.2920, 11521.00
555.4680, 11669.00
556.6440, 11765.00
557.8190, 11601.00
558.9950, 11659.00
560.1700, 11707.00
561.3450, 11751.00
562.5200, 11818.00
563.6950, 11830.00
564.8690, 11797.00
566.0440, 11942.00
567.2180, 11885.00
568.3920, 11981.00
569.5660, 12029.00
570.7400, 12111.00
571.9130, 12210.00
573.0870, 12355.00
574.2600, 12507.00
575.4330, 12431.00
576.6060, 12604.00
577.7790, 12699.00
578.9520, 12831.00
580.1240, 12957.00
581.2960, 13077.24
582.4690, 13325.00
583.6410, 13375.00
584.8120, 13485.00
585.9840, 13718.00
587.1560, 13760.00
588.3270, 13531.00
589.4980, 13782.00
590.6690, 13401.00
591.8400, 13225.00
593.0110, 13177.00
594.1810, 13047.00
595.3510, 13006.00
596.5220, 12913.76
597.6920, 12900.00
598.8610, 12772.00
600.0310, 12701.00
601.2010, 12678.00
602.3700, 12593.00
603.5390, 12505.00
604.7080, 12618.00
605.8770, 12565.00
607.0460, 12692.00
608.2140, 12627.00
609.3830, 12793.00
610.5510, 12821.00
611.7190, 12579.00
612.8870, 12648.00
614.0550, 12630.00
615.2220, 12704.00
616.3900, 12755.00
617.5570, 12728.00
618.7240, 12757.00
619.8910, 12685.00
621.0580, 12832.00
622.2240, 12774.00
623.3910, 12745.00
624.5570, 12831.00
625.7230, 12937.00
626.8890, 12890.00
628.0550, 12950.00
629.2200, 12930.00
630.3860, 12889.00
631.5510, 12993.00
632.7160, 12934.00
633.8810, 13050.00
635.0460, 13091.00
636.2100, 13009.00
637.3750, 12935.00
638.5390, 13143.00
639.7030, 13074.00
640.8670, 13154.00
642.0310, 13182.00
643.1950, 13168.00
644.3580, 13101.00
645.5210, 13297.00
646.6850, 13291.00
647.8480, 13282.00
649.0100, 13391.00
650.1730, 13402.00
651.3350, 13441.00
652.4980, 13502.00
653.6600, 13530.00
654.8220, 13328.00
655.9840, 13388.00
657.1450, 13484.00
658.3070, 13461.00
659.4680, 13600.00
660.6300, 13485.00
661.7910, 13729.00
662.9510, 13572.00
664.1120, 13600.00
665.2730, 13668.00
666.4330, 13721.00
667.5930, 13772.00
668.7530, 13776.06
669.9130, 13846.00
671.0730, 13766.00
672.2320, 13816.00
673.3920, 13828.00
674.5510, 13913.00
675.7100, 13996.00
676.8690, 13974.00
678.0280, 13843.00
679.1860, 14103.00
680.3450, 14013.00
681.5030, 14045.00
682.6610, 14229.00
683.8190, 14142.00
684.9770, 14510.00
686.1340, 14454.00
687.2920, 14579.00
688.4490, 14453.00
689.6060, 14550.00
690.7630, 14782.00
691.9200, 14870.00
693.0760, 15096.00
694.2330, 15316.00
695.3890, 15571.00
696.5450, 16046.00
697.7010, 16582.65
698.8570, 17305.00
700.0130, 18046.00
701.1680, 19001.00
702.3230, 20041.00
703.4780, 21377.00
704.6330, 22770.00
705.7880, 24387.00
706.9430, 25014.00
708.0970, 25108.00
709.2520, 23675.00
710.4060, 21890.00
711.5600, 20324.00
712.7140, 18819.00
713.8670, 17960.00
715.0210, 17012.00
716.1740, 16631.00
717.3270, 16199.00
718.4800, 15913.00
719.6330, 15700.00
720.7860, 15666.00
721.9380, 15634.00
723.0910, 15463.00
724.2430, 15370.00
725.3950, 15308.00
726.5470, 15323.00
727.6980, 15334.00
728.8500, 15321.00
730.0010, 15391.00
731.1530, 15403.00
732.3040, 15362.00
733.4550, 15325.00
734.6050, 15261.00
735.7560, 15379.00
736.9060, 15341.00
738.0560, 15527.00
739.2060, 15499.00
740.3560, 15542.00
741.5060, 15353.00
742.6560, 15644.00
743.8050, 15604.00
744.9540, 15510.00
746.1030, 15586.00
747.2520, 15404.00
748.4010, 15501.00
749.5500, 15583.00
750.6980, 15589.00
751.8460, 15658.59
752.9950, 15712.00
754.1420, 15735.00
755.2900, 15647.00
756.4380, 15689.00
757.5850, 15721.00
758.7330, 15801.00
759.8800, 15867.00
761.0270, 15848.00
762.1730, 15830.00
763.3200, 15864.00
764.4670, 15989.00
765.6130, 15945.00
766.7590, 15941.00
767.9050, 16048.00
769.0510, 16002.00
770.1960, 16122.00
771.3420, 16088.00
772.4870, 15998.00
773.6320, 16062.00
774.7770, 16026.42
775.9220, 16066.16
777.0670, 16092.00
778.2110, 16197.00
779.3560, 16337.00
780.5000, 16471.00
781.6440, 16371.00
782.7880, 16619.00
783.9320, 16521.00
785.0750, 16723.00
786.2180, 16601.00
787.3620, 16660.00
788.5050, 16628.00
789.6480, 16648.00
790.7900, 16526.00
791.9330, 16610.00
793.0750, 16750.00
794.2170, 16611.00
795.3590, 16653.00
796.5010, 16807.00
797.6430, 16815.00
798.7850, 16684.00
799.9260, 16797.00
801.0670, 16882.00
802.2080, 16915.00
803.3490, 16984.00
804.4900, 16955.00
805.6310, 17006.49
806.7710, 16905.00
807.9110, 17059.00
809.0510, 16971.00
810.1910, 16993.00
811.3310, 17314.00
812.4710, 17162.00
813.6100, 17175.00
814.7490, 17386.00
815.8880, 17401.00
817.0270, 17252.00
818.1660, 17319.00
819.3050, 17353.00
820.4430, 17245.00
821.5820, 17351.00
822.7200, 17391.00
823.8580, 17586.00
824.9950, 17585.00
826.1330, 17403.00
827.2710, 17644.00
828.4080, 17534.00
829.5450, 17554.00
830.6820, 17766.00
831.8190, 17596.00
832.9560, 17778.00
834.0920, 17852.00
835.2280, 17866.00
836.3650, 17822.00
837.5010, 17818.00
838.6360, 17844.45
839.7720, 17884.00
840.9080, 17922.00
842.0430, 18074.00
843.1780, 18157.00
844.3130, 18115.00
845.4480, 17968.00
846.5830, 18176.00
847.7170, 18233.00
848.8520, 18156.00
849.9860, 18327.00
851.1200, 18369.00
852.2540, 18376.00
853.3870, 18607.00
854.5210, 18344.00
855.6540, 18512.00
856.7880, 18536.00
857.9210, 18663.00
859.0540, 18658.00
860.1860, 18588.00
861.3190, 18614.00
862.4510, 18725.00
863.5840, 18725.00
864.7160, 18798.00
865.8480, 18813.00
866.9790, 18914.00
868.1110, 18862.00
869.2420, 18836.00
870.3740, 18907.00
871.5050, 18995.00
872.6360, 18890.00
873.7660, 19047.00
874.8970, 19062.00
876.0280, 19043.00
877.1580, 19150.00
878.2880, 19137.38
879.4180, 19276.00
880.5480, 19218.00
881.6770, 19226.00
882.8070, 19337.00
883.9360, 19323.00
885.0650, 19424.00
886.1940, 19485.00
887.3230, 19483.00
888.4520, 19552.00
889.5800, 19420.00
890.7090, 19465.00
891.8370, 19522.00
892.9650, 19555.00
894.0930, 19611.00
895.2200, 19710.00
896.3480, 19664.00
897.4750, 19681.00
898.6020, 19840.00
899.7290, 19710.00
900.8560, 19902.00
901.9830, 19944.00
903.1090, 19952.00
904.2360, 20051.00
905.3620, 19918.00
906.4880, 20066.00
907.6140, 20205.00
908.7400, 20102.00
909.8650, 20038.00
910.9900, 20463.00
912.1160, 20262.00
913.2410, 20110.00
914.3660, 20356.00
915.4900, 20263.00
916.6150, 20367.00
917.7390, 20387.00
918.8640, 20372.00
919.9880, 20514.00
921.1120, 20480.00
922.2350, 20598.00
923.3590, 20517.00
924.4820, 20691.00
925.6060, 20691.00
926.7290, 20690.00
927.8520, 20818.00
928.9740, 20974.00
930.0970, 20880.00
931.2190, 20811.00
932.3420, 20919.00
933.4640, 21020.00
934.5860, 21134.00
935.7080, 21129.00
936.8290, 21221.62
937.9510, 21244.87
939.0720, 21308.00
940.1930, 21262.00
941.3140, 21267.00
942.4350, 21211.00
943.5560, 21259.67
944.6760, 21273.00
945.7960, 21365.00
946.9170, 21385.00
948.0370, 21452.54
949.1560, 21463.00
950.2760, 21699.00
951.3960, 21549.00
952.5150, 21718.00
953.6340, 21848.00
954.7530, 21850.00
955.8720, 21964.00
956.9910, 21982.00
958.1090, 21996.00
959.2280, 21997.00
960.3460, 22039.97
961.4640, 22112.00
962.5820, 22136.00
963.6990, 22222.00
964.8170, 22306.00
965.9340, 22131.00
967.0510, 22605.00
968.1690, 22906.00
969.2850, 22853.00
970.4020, 22993.00
971.5190, 23227.00
972.6350, 23322.00
973.7510, 23548.00
974.8670, 23460.00
975.9830, 23772.00
977.0990, 24070.00
978.2150, 24078.00
979.3300, 24066.00
980.4450, 23823.00
981.5600, 23805.00
982.6750, 23730.00
983.7900, 23371.00
984.9050, 23583.00
986.0190, 23416.00
987.1340, 23290.00
988.2480, 23435.00
989.3620, 23451.00
990.4750, 23512.00
991.5890, 23355.00
992.7020, 23501.00
993.8160, 23513.00
994.9290, 23340.00
996.0420, 23339.00
997.1550, 23717.00
998.2670, 23687.00
999.3800, 23824.00
1000.492, 23843.00
1001.604, 23805.00
1002.716, 23762.00
1003.828, 23929.00
1004.940, 23910.00
1006.051, 23973.00
1007.163, 24040.00
1008.274, 24313.00
1009.385, 24417.00
1010.496, 24474.00
1011.606, 24461.00
1012.717, 24916.00
1013.827, 25207.00
1014.937, 25575.00
1016.047, 25924.92
1017.157, 26182.00
1018.267, 26619.00
1019.377, 26810.00
1020.486, 26793.42
1021.595, 26929.00
1022.704, 26412.00
1023.813, 25983.00
1024.922, 25398.00
1026.030, 25370.00
1027.139, 25215.00
1028.247, 25184.00
1029.355, 24902.00
1030.463, 25071.00
1031.571, 25289.00
1032.678, 25131.00
1033.786, 24873.00
1034.893, 25089.00
1036.000, 25121.00
1037.107, 25245.00
1038.214, 25299.00
1039.321, 25309.32
1040.427, 25385.00
1041.533, 25324.00
1042.639, 25517.00
1043.745, 25569.00
1044.851, 25561.00
1045.957, 25782.00
1047.062, 25569.00
1048.168, 25804.00
1049.273, 25866.00
1050.378, 26163.00
1051.482, 26040.00
1052.587, 26261.00
1053.692, 26341.00
1054.796, 26577.00
1055.900, 26470.00
1057.004, 26654.00
1058.108, 26752.00
1059.212, 26948.00
1060.315, 26979.00
1061.418, 27473.00
1062.522, 27548.00
1063.625, 27965.00
1064.728, 28451.00
1065.830, 29074.00
1066.933, 29852.00
1068.035, 30932.00
1069.137, 32045.00
1070.239, 33129.00
1071.341, 34164.00
1072.443, 34946.00
1073.545, 35212.00
1074.646, 34484.00
1075.747, 33082.00
1076.848, 32258.00
1077.949, 30845.00
1079.050, 29924.00
1080.150, 29402.00
1081.251, 29030.00
1082.351, 28605.00
1083.451, 28426.00
1084.551, 28112.00
1085.651, 28018.63
1086.750, 28111.00
1087.850, 28024.00
1088.949, 27969.00
1090.048, 28199.00
1091.147, 27723.00
1092.246, 28032.00
1093.345, 27871.00
1094.443, 27923.00
1095.541, 28189.00
1096.639, 27968.00
1097.737, 28216.00
1098.835, 28183.00
1099.933, 28416.00
1101.030, 28434.00
1102.128, 28427.00
1103.225, 28745.00
1104.322, 28633.00
1105.419, 28857.00
1106.515, 28665.00
1107.612, 28540.00
1108.708, 28567.00
1109.804, 28330.00
1110.900, 28409.00
1111.996, 28514.00
1113.092, 28257.00
1114.187, 28385.00
1115.283, 28757.00
1116.378, 28717.00
1117.473, 28726.00
1118.568, 28759.00
1119.662, 28801.30
1120.757, 28946.00
1121.851, 28927.00
1122.946, 29002.00
1124.040, 29027.00
1125.134, 29253.00
1126.227, 28914.00
1127.321, 29041.00
1128.414, 29204.00
1129.508, 29411.00
1130.601, 29323.00
1131.693, 29404.00
1132.786, 29598.00
1133.879, 29547.00
1134.971, 29655.63
1136.064, 29631.05
1137.156, 29722.00
1138.248, 29622.00
1139.339, 29593.00
1140.431, 29758.00
1141.522, 29558.00
1142.614, 30039.00
1143.705, 29839.00
1144.796, 30098.00
1145.887, 30048.00
1146.977, 29911.00
1148.068, 30089.00
1149.158, 30027.00
1150.248, 30258.00
1151.338, 30354.00
1152.428, 30289.00
1153.518, 30414.00
1154.607, 30266.00
1155.696, 30622.00
1156.785, 30434.00
1157.874, 30687.00
1158.963, 30694.00
1160.052, 30849.00
##END=



