##NAMES=Spodumene
##RRUFFID=R040050
##IDEAL CHEMISTRY=LiAlSi_2_O_6_
##LOCALITY=Minas Gerais, Brazil
##OWNER=RRUFF
##SOURCE=University of Arizona Mineral Museum
##DESCRIPTION=Pale pink fragment of a single crystal, variety kunzite
##STATUS=The identification of this mineral has been confirmed by X-ray diffraction and chemical analysis
##URL=rruff.info/R040050
##MEASURED CHEMISTRY=(Li_0.99_Na_0.01_)Al_1.00_Si_2.00_O_6_
##PIN_ID=L00321
##ORIENTATION=Laser parallel to (1 0 1). Fiducial mark perpendicular to laser is parallel to b [0 1 0]
106.7660, 6044.000
108.0020, 6057.000
109.2390, 6202.000
110.4750, 6174.000
111.7110, 6249.000
112.9460, 6441.000
114.1820, 6608.000
115.4170, 6822.000
116.6530, 7071.000
117.8880, 7299.000
119.1230, 7665.000
120.3580, 8221.000
121.5920, 8515.000
122.8270, 9103.000
124.0610, 9745.000
125.2950, 10650.00
126.5290, 11766.00
127.7630, 13250.00
128.9970, 14582.00
130.2300, 15319.00
131.4640, 14657.00
132.6970, 13305.00
133.9300, 11600.00
135.1630, 10129.00
136.3950, 8949.000
137.6280, 8275.000
138.8600, 7917.000
140.0920, 7602.000
141.3240, 7377.000
142.5560, 7124.000
143.7880, 7154.000
145.0190, 7085.000
146.2510, 7038.000
147.4820, 6869.000
148.7130, 7019.000
149.9440, 6907.000
151.1750, 6916.000
152.4050, 6968.000
153.6360, 7024.000
154.8660, 6929.000
156.0960, 6980.000
157.3260, 6966.000
158.5560, 6891.000
159.7850, 6958.000
161.0150, 6977.000
162.2440, 6977.000
163.4730, 6987.000
164.7020, 7039.000
165.9310, 7000.000
167.1590, 7074.000
168.3880, 7048.000
169.6160, 7096.000
170.8440, 7169.000
172.0720, 7215.000
173.3000, 7157.000
174.5280, 7213.000
175.7550, 7303.000
176.9820, 7437.000
178.2100, 7551.000
179.4370, 7616.000
180.6630, 7804.000
181.8900, 7855.000
183.1170, 8186.000
184.3430, 8515.000
185.5690, 8881.000
186.7950, 9400.000
188.0210, 9584.000
189.2470, 9620.000
190.4720, 9202.000
191.6970, 8806.000
192.9230, 8486.000
194.1480, 8145.000
195.3730, 7924.000
196.5970, 7844.000
197.8220, 7627.000
199.0460, 7686.000
200.2700, 7733.000
201.4940, 7692.000
202.7180, 7689.000
203.9420, 7688.419
205.1660, 7603.000
206.3890, 7657.000
207.6120, 7611.000
208.8350, 7571.000
210.0580, 7556.000
211.2810, 7569.000
212.5040, 7580.705
213.7260, 7601.298
214.9480, 7622.000
216.1700, 7663.000
217.3920, 7628.000
218.6140, 7655.209
219.8360, 7698.000
221.0570, 7715.000
222.2790, 7748.000
223.5000, 7750.000
224.7210, 7797.000
225.9410, 7836.000
227.1620, 7823.000
228.3820, 7832.000
229.6030, 7929.000
230.8230, 7798.000
232.0430, 7876.000
233.2630, 7801.000
234.4820, 7893.000
235.7020, 7826.000
236.9210, 7913.000
238.1400, 7977.000
239.3590, 7953.000
240.5780, 7963.000
241.7970, 8044.000
243.0150, 8015.000
244.2340, 8053.926
245.4520, 7958.000
246.6700, 8098.000
247.8880, 8109.000
249.1060, 8154.000
250.3230, 8230.000
251.5400, 8264.000
252.7580, 8385.000
253.9750, 8311.000
255.1920, 8347.000
256.4080, 8320.000
257.6250, 8395.000
258.8410, 8478.000
260.0580, 8357.000
261.2740, 8350.000
262.4900, 8384.000
263.7050, 8335.000
264.9210, 8419.000
266.1360, 8390.000
267.3520, 8396.000
268.5670, 8515.000
269.7820, 8562.000
270.9960, 8468.000
272.2110, 8617.000
273.4250, 8461.000
274.6400, 8693.000
275.8540, 8522.000
277.0680, 8729.000
278.2810, 8718.000
279.4950, 8859.000
280.7090, 8915.000
281.9220, 9123.000
283.1350, 9232.000
284.3480, 9376.000
285.5610, 9589.000
286.7730, 9823.000
287.9860, 10076.54
289.1980, 10351.00
290.4100, 10728.00
291.6220, 11170.00
292.8340, 11664.00
294.0460, 11974.00
295.2570, 12260.00
296.4690, 12060.00
297.6800, 11792.00
298.8910, 11193.00
300.1020, 10679.00
301.3120, 10138.00
302.5230, 10002.00
303.7330, 9567.000
304.9440, 9429.000
306.1540, 9295.000
307.3630, 9134.000
308.5730, 9026.000
309.7830, 9029.000
310.9920, 8943.000
312.2010, 9039.000
313.4100, 8852.000
314.6190, 9065.000
315.8280, 8961.000
317.0370, 8837.000
318.2450, 9079.000
319.4530, 9038.000
320.6610, 9014.000
321.8690, 9135.000
323.0770, 9147.000
324.2850, 9269.000
325.4920, 9190.000
326.6990, 9399.000
327.9060, 9435.000
329.1130, 9570.000
330.3200, 9699.000
331.5270, 9726.000
332.7330, 9729.000
333.9390, 9853.000
335.1450, 9733.000
336.3510, 9787.000
337.5570, 9870.000
338.7630, 10067.00
339.9680, 10236.00
341.1740, 10599.00
342.3790, 10819.00
343.5840, 11324.00
344.7890, 12114.00
345.9930, 12992.00
347.1980, 13798.00
348.4020, 14980.00
349.6060, 16387.00
350.8100, 18386.00
352.0140, 21005.00
353.2180, 23541.00
354.4210, 25845.00
355.6250, 26272.00
356.8280, 24503.00
358.0310, 21675.00
359.2340, 18184.00
360.4360, 15715.00
361.6390, 13953.00
362.8410, 12651.00
364.0430, 11916.00
365.2450, 11437.00
366.4470, 11077.00
367.6490, 10806.00
368.8510, 10653.00
370.0520, 10546.00
371.2530, 10478.00
372.4540, 10262.00
373.6550, 10384.00
374.8560, 10139.00
376.0560, 10247.00
377.2570, 10092.00
378.4570, 10194.00
379.6570, 10165.00
380.8570, 10114.00
382.0570, 10145.00
383.2560, 10211.00
384.4560, 10252.00
385.6550, 10187.00
386.8540, 10283.00
388.0530, 10300.00
389.2520, 10417.00
390.4510, 10288.00
391.6490, 10341.00
392.8470, 10375.00
394.0450, 10434.00
395.2430, 10326.00
396.4410, 10383.00
397.6390, 10272.00
398.8360, 10176.00
400.0340, 10187.00
401.2310, 10184.00
402.4280, 10257.00
403.6250, 10288.00
404.8210, 10216.00
406.0180, 10250.00
407.2140, 10251.00
408.4100, 10179.00
409.6060, 10325.00
410.8020, 10350.00
411.9980, 10356.00
413.1930, 10448.00
414.3890, 10396.00
415.5840, 10377.00
416.7790, 10438.00
417.9740, 10454.31
419.1680, 10422.00
420.3630, 10568.00
421.5570, 10696.00
422.7510, 10739.00
423.9450, 10630.00
425.1390, 10844.00
426.3330, 10838.00
427.5270, 10815.00
428.7200, 10931.00
429.9130, 10937.00
431.1060, 11204.00
432.2990, 11442.00
433.4920, 11608.00
434.6840, 11781.00
435.8770, 12077.00
437.0690, 12434.00
438.2610, 12704.00
439.4530, 13018.00
440.6450, 13271.00
441.8360, 13607.00
443.0280, 13460.00
444.2190, 13411.00
445.4100, 13197.00
446.6010, 12817.00
447.7920, 12482.00
448.9820, 12228.00
450.1730, 11950.00
451.3630, 11718.00
452.5530, 11596.00
453.7430, 11461.00
454.9330, 11490.00
456.1230, 11377.00
457.3120, 11312.00
458.5010, 11256.00
459.6910, 11231.00
460.8800, 11316.00
462.0680, 11170.00
463.2570, 11214.00
464.4460, 11291.00
465.6340, 11192.00
466.8220, 11138.00
468.0100, 11189.00
469.1980, 11147.00
470.3860, 11212.00
471.5730, 11237.00
472.7600, 11173.00
473.9480, 11326.00
475.1350, 11234.00
476.3210, 11359.00
477.5080, 11365.00
478.6950, 11487.00
479.8810, 11403.00
481.0670, 11524.00
482.2530, 11428.00
483.4390, 11424.00
484.6250, 11322.00
485.8100, 11384.00
486.9960, 11354.11
488.1810, 11519.00
489.3660, 11376.00
490.5510, 11541.00
491.7360, 11581.00
492.9200, 11548.00
494.1050, 11595.00
495.2890, 11559.00
496.4730, 11597.00
497.6570, 11744.00
498.8400, 11599.00
500.0240, 11687.00
501.2070, 11618.00
502.3910, 11836.00
503.5740, 11907.00
504.7570, 11852.00
505.9400, 11997.00
507.1220, 12007.00
508.3050, 11987.00
509.4870, 12112.00
510.6690, 12191.81
511.8510, 12466.00
513.0330, 12496.00
514.2140, 12886.00
515.3960, 13128.00
516.5770, 13116.00
517.7580, 13373.00
518.9390, 13710.00
520.1200, 14115.00
521.3010, 14263.00
522.4810, 14492.00
523.6610, 14319.00
524.8420, 13910.00
526.0220, 13647.00
527.2010, 13351.00
528.3810, 13039.00
529.5610, 13009.00
530.7400, 12587.00
531.9190, 12622.00
533.0980, 12449.00
534.2770, 12502.00
535.4560, 12446.00
536.6340, 12304.00
537.8120, 12421.00
538.9910, 12394.00
540.1690, 12641.00
541.3460, 12474.00
542.5240, 12474.00
543.7020, 12391.00
544.8790, 12428.00
546.0560, 12626.00
547.2330, 12541.00
548.4100, 12644.00
549.5870, 12577.00
550.7630, 12619.00
551.9400, 12488.00
553.1160, 12661.00
554.2920, 12838.00
555.4680, 12722.00
556.6440, 12767.00
557.8190, 12808.00
558.9950, 12900.00
560.1700, 12941.00
561.3450, 13008.82
562.5200, 13029.00
563.6950, 13095.00
564.8690, 13214.00
566.0440, 13177.00
567.2180, 13400.00
568.3920, 13446.00
569.5660, 13469.00
570.7400, 13684.00
571.9130, 13808.00
573.0870, 13885.00
574.2600, 13964.00
575.4330, 14428.00
576.6060, 14630.00
577.7790, 14859.00
578.9520, 15077.00
580.1240, 15416.36
581.2960, 15791.00
582.4690, 16133.00
583.6410, 16473.00
584.8120, 16620.84
585.9840, 16831.00
587.1560, 16748.00
588.3270, 16745.00
589.4980, 16593.00
590.6690, 15905.00
591.8400, 15926.00
593.0110, 15503.00
594.1810, 15088.00
595.3510, 14806.00
596.5220, 14666.00
597.6920, 14583.00
598.8610, 14218.00
600.0310, 14234.00
601.2010, 14140.00
602.3700, 14038.00
603.5390, 13868.00
604.7080, 13930.00
605.8770, 13861.00
607.0460, 13884.00
608.2140, 13788.00
609.3830, 13779.00
610.5510, 13897.00
611.7190, 13700.00
612.8870, 13802.00
614.0550, 13833.00
615.2220, 13692.00
616.3900, 13856.00
617.5570, 13938.00
618.7240, 13925.00
619.8910, 13856.00
621.0580, 13781.00
622.2240, 13915.00
623.3910, 13894.00
624.5570, 13985.00
625.7230, 14140.00
626.8890, 13897.00
628.0550, 14000.00
629.2200, 14017.00
630.3860, 14142.00
631.5510, 14122.62
632.7160, 13968.00
633.8810, 14136.00
635.0460, 13997.00
636.2100, 14076.00
637.3750, 14279.00
638.5390, 14078.00
639.7030, 14228.00
640.8670, 14217.00
642.0310, 14276.00
643.1950, 14282.00
644.3580, 14202.00
645.5210, 14350.00
646.6850, 14319.00
647.8480, 14286.00
649.0100, 14401.00
650.1730, 14304.00
651.3350, 14488.00
652.4980, 14506.00
653.6600, 14500.00
654.8220, 14455.00
655.9840, 14431.00
657.1450, 14520.00
658.3070, 14387.00
659.4680, 14712.00
660.6300, 14612.00
661.7910, 14910.00
662.9510, 14801.00
664.1120, 14783.00
665.2730, 14712.00
666.4330, 14795.00
667.5930, 14956.00
668.7530, 14944.00
669.9130, 15110.00
671.0730, 14879.00
672.2320, 14902.00
673.3920, 15225.00
674.5510, 15023.00
675.7100, 15078.00
676.8690, 15254.00
678.0280, 15182.00
679.1860, 15395.00
680.3450, 15546.00
681.5030, 15377.00
682.6610, 15560.00
683.8190, 15667.00
684.9770, 15613.00
686.1340, 15890.00
687.2920, 15969.00
688.4490, 16151.00
689.6060, 16246.00
690.7630, 16564.00
691.9200, 16767.00
693.0760, 16891.00
694.2330, 17400.00
695.3890, 18029.00
696.5450, 18679.00
697.7010, 19729.00
698.8570, 20884.00
700.0130, 22404.00
701.1680, 23968.00
702.3230, 26193.00
703.4780, 28317.00
704.6330, 31205.00
705.7880, 33373.00
706.9430, 34397.00
708.0970, 33940.00
709.2520, 31338.00
710.4060, 28381.00
711.5600, 25214.00
712.7140, 23052.00
713.8670, 21081.00
715.0210, 19947.00
716.1740, 18970.00
717.3270, 18405.00
718.4800, 17914.00
719.6330, 17651.00
720.7860, 17149.00
721.9380, 17178.00
723.0910, 16932.00
724.2430, 16751.00
725.3950, 16806.00
726.5470, 16615.00
727.6980, 16633.00
728.8500, 16616.00
730.0010, 16784.00
731.1530, 16671.00
732.3040, 16671.00
733.4550, 16597.00
734.6050, 16642.00
735.7560, 16640.85
736.9060, 16711.00
738.0560, 16682.00
739.2060, 16530.00
740.3560, 16506.00
741.5060, 16400.00
742.6560, 16427.00
743.8050, 16482.97
744.9540, 16683.00
746.1030, 16695.00
747.2520, 16618.00
748.4010, 16742.00
749.5500, 16633.00
750.6980, 16778.00
751.8460, 16815.00
752.9950, 16586.00
754.1420, 16701.00
755.2900, 16900.00
756.4380, 16792.00
757.5850, 16806.00
758.7330, 16733.00
759.8800, 16890.00
761.0270, 17008.00
762.1730, 17064.00
763.3200, 17014.00
764.4670, 16936.00
765.6130, 16958.00
766.7590, 17038.00
767.9050, 17118.00
769.0510, 17247.00
770.1960, 17259.94
771.3420, 17304.93
772.4870, 17297.00
773.6320, 17306.00
774.7770, 17306.00
775.9220, 17275.00
777.0670, 17323.00
778.2110, 17395.00
779.3560, 17295.00
780.5000, 17309.00
781.6440, 17437.00
782.7880, 17476.00
783.9320, 17312.00
785.0750, 17469.00
786.2180, 17522.00
787.3620, 17649.00
788.5050, 17490.00
789.6480, 17642.00
790.7900, 17669.00
791.9330, 17653.00
793.0750, 17780.00
794.2170, 17867.00
795.3590, 17890.00
796.5010, 17815.00
797.6430, 17619.00
798.7850, 17697.00
799.9260, 17848.00
801.0670, 17783.00
802.2080, 17952.00
803.3490, 17836.00
804.4900, 18127.00
805.6310, 17981.00
806.7710, 18109.00
807.9110, 18043.00
809.0510, 18122.00
810.1910, 18193.00
811.3310, 18196.00
812.4710, 18246.00
813.6100, 18204.00
814.7490, 18209.00
815.8880, 18168.00
817.0270, 18377.00
818.1660, 18445.00
819.3050, 18299.00
820.4430, 18588.00
821.5820, 18544.00
822.7200, 18419.00
823.8580, 18529.00
824.9950, 18640.00
826.1330, 18538.00
827.2710, 18645.00
828.4080, 18461.00
829.5450, 18672.00
830.6820, 18736.00
831.8190, 18893.00
832.9560, 18804.00
834.0920, 18898.00
835.2280, 18792.00
836.3650, 18914.00
837.5010, 19001.00
838.6360, 18845.00
839.7720, 18909.00
840.9080, 19036.00
842.0430, 19018.00
843.1780, 18998.00
844.3130, 19180.00
845.4480, 19009.00
846.5830, 19045.00
847.7170, 19277.00
848.8520, 19269.00
849.9860, 19325.00
851.1200, 19276.00
852.2540, 19395.00
853.3870, 19409.00
854.5210, 19610.00
855.6540, 19412.00
856.7880, 19537.00
857.9210, 19566.00
859.0540, 19732.00
860.1860, 19550.00
861.3190, 19592.00
862.4510, 19781.00
863.5840, 19847.00
864.7160, 19926.00
865.8480, 19829.00
866.9790, 19808.00
868.1110, 19817.00
869.2420, 19865.00
870.3740, 19946.00
871.5050, 19826.00
872.6360, 19929.00
873.7660, 19989.00
874.8970, 20196.00
876.0280, 20045.00
877.1580, 20245.00
878.2880, 20322.00
879.4180, 20180.00
880.5480, 20231.00
881.6770, 20308.00
882.8070, 20193.00
883.9360, 20408.00
885.0650, 20370.00
886.1940, 20452.00
887.3230, 20486.00
888.4520, 20374.00
889.5800, 20518.00
890.7090, 20570.00
891.8370, 20404.00
892.9650, 20599.00
894.0930, 20652.00
895.2200, 20711.00
896.3480, 20785.00
897.4750, 20711.00
898.6020, 20760.00
899.7290, 20768.00
900.8560, 20795.00
901.9830, 20915.00
903.1090, 21035.00
904.2360, 20859.00
905.3620, 20956.00
906.4880, 20953.00
907.6140, 21044.00
908.7400, 20944.00
909.8650, 21178.00
910.9900, 21300.00
912.1160, 21351.00
913.2410, 21179.00
914.3660, 21392.00
915.4900, 21283.00
916.6150, 21368.00
917.7390, 21423.00
918.8640, 21529.00
919.9880, 21348.00
921.1120, 21373.00
922.2350, 21463.00
923.3590, 21536.00
924.4820, 21626.00
925.6060, 21782.00
926.7290, 21626.00
927.8520, 21762.00
928.9740, 21649.00
930.0970, 21940.00
931.2190, 22077.00
932.3420, 21925.00
933.4640, 21883.00
934.5860, 22108.00
935.7080, 22023.00
936.8290, 21990.00
937.9510, 21996.00
939.0720, 22006.12
940.1930, 22071.04
941.3140, 22100.00
942.4350, 22252.00
943.5560, 22306.00
944.6760, 22409.00
945.7960, 22457.00
946.9170, 22489.54
948.0370, 22490.00
949.1560, 22569.00
950.2760, 22649.00
951.3960, 22780.00
952.5150, 22756.00
953.6340, 22637.00
954.7530, 22782.00
955.8720, 22955.00
956.9910, 23110.00
958.1090, 23000.00
959.2280, 22958.00
960.3460, 23229.00
961.4640, 23355.00
962.5820, 23195.00
963.6990, 23466.00
964.8170, 23527.00
965.9340, 23637.00
967.0510, 23701.00
968.1690, 24088.00
969.2850, 24375.00
970.4020, 24640.00
971.5190, 24966.00
972.6350, 25345.00
973.7510, 25763.00
974.8670, 26208.00
975.9830, 26470.00
977.0990, 26784.00
978.2150, 26697.00
979.3300, 26594.00
980.4450, 26286.00
981.5600, 26144.00
982.6750, 25849.00
983.7900, 25594.00
984.9050, 25211.00
986.0190, 25252.00
987.1340, 24798.00
988.2480, 24668.00
989.3620, 24516.00
990.4750, 24643.00
991.5890, 24400.00
992.7020, 24662.00
993.8160, 24478.00
994.9290, 24643.00
996.0420, 24628.00
997.1550, 24907.00
998.2670, 24535.00
999.3800, 24596.00
1000.492, 24882.00
1001.604, 24699.00
1002.716, 25009.00
1003.828, 24885.00
1004.940, 24903.00
1006.051, 25014.00
1007.163, 25304.00
1008.274, 25174.00
1009.385, 25475.00
1010.496, 25462.00
1011.606, 25752.00
1012.717, 25953.00
1013.827, 26502.00
1014.937, 26614.00
1016.047, 26920.00
1017.157, 27691.00
1018.267, 28232.00
1019.377, 28678.00
1020.486, 28677.00
1021.595, 28333.00
1022.704, 27938.00
1023.813, 27221.00
1024.922, 26708.00
1026.030, 26376.00
1027.139, 26340.00
1028.247, 26038.00
1029.355, 26058.00
1030.463, 25996.00
1031.571, 26198.00
1032.678, 25972.00
1033.786, 26001.00
1034.893, 25977.00
1036.000, 26006.00
1037.107, 26139.00
1038.214, 26100.00
1039.321, 26207.00
1040.427, 26181.00
1041.533, 26207.00
1042.639, 26205.00
1043.745, 26500.00
1044.851, 26369.00
1045.957, 26462.00
1047.062, 26494.00
1048.168, 26475.00
1049.273, 26745.00
1050.378, 26585.00
1051.482, 26814.00
1052.587, 26832.00
1053.692, 26780.00
1054.796, 26956.00
1055.900, 26845.00
1057.004, 26891.00
1058.108, 26874.00
1059.212, 27075.00
1060.315, 27224.00
1061.418, 27370.00
1062.522, 27518.67
1063.625, 27522.00
1064.728, 27794.00
1065.830, 27845.00
1066.933, 28008.00
1068.035, 28439.00
1069.137, 28576.00
1070.239, 28938.00
1071.341, 29265.00
1072.443, 29377.00
1073.545, 29493.00
1074.646, 29307.00
1075.747, 29201.00
1076.848, 28905.00
1077.949, 28799.00
1079.050, 28656.00
1080.150, 28357.00
1081.251, 28426.00
1082.351, 28347.00
1083.451, 28473.00
1084.551, 28407.00
1085.651, 28569.00
1086.750, 28395.00
1087.850, 28338.00
1088.949, 28335.00
1090.048, 28276.00
1091.147, 28428.00
1092.246, 28337.00
1093.345, 28538.00
1094.443, 28599.00
1095.541, 28445.00
1096.639, 28694.00
1097.737, 28802.00
1098.835, 28698.00
1099.933, 29064.00
1101.030, 29063.00
1102.128, 28900.00
1103.225, 29163.00
1104.322, 29245.00
1105.419, 29174.00
1106.515, 29067.00
1107.612, 29309.00
1108.708, 29272.00
1109.804, 29078.00
1110.900, 29087.00
1111.996, 29379.00
1113.092, 29403.00
1114.187, 29298.00
1115.283, 29614.00
1116.378, 29530.00
1117.473, 29733.00
1118.568, 29613.00
1119.662, 29745.00
1120.757, 29853.00
1121.851, 29948.00
1122.946, 30044.00
1124.040, 30092.00
1125.134, 29993.00
1126.227, 30010.00
1127.321, 30043.00
1128.414, 30144.00
1129.508, 30064.00
1130.601, 30043.00
1131.693, 30000.00
1132.786, 30283.00
1133.879, 30226.00
1134.971, 30435.00
1136.064, 30172.00
1137.156, 30457.00
1138.248, 30499.00
1139.339, 30555.00
1140.431, 30363.00
1141.522, 30512.00
1142.614, 30451.00
1143.705, 30743.00
1144.796, 30708.00
1145.887, 30669.00
1146.977, 30926.00
1148.068, 30950.00
1149.158, 31259.00
1150.248, 31068.00
1151.338, 31073.00
1152.428, 31154.00
1153.518, 30984.00
1154.607, 31400.00
1155.696, 31277.00
1156.785, 31364.00
1157.874, 31571.00
1158.963, 31736.00
1160.052, 31451.00
1161.141, 31460.00
1162.229, 31474.00
1163.317, 31715.00
1164.405, 31868.00
1165.493, 31989.00
1166.581, 32118.00
1167.668, 32002.00
1168.756, 31976.00
1169.843, 32146.00
1170.930, 32212.00
1172.017, 32059.00
1173.103, 32284.00
1174.190, 32187.00
1175.276, 32296.00
1176.363, 32410.00
1177.449, 32510.00
1178.535, 32468.00
1179.620, 32324.00
1180.706, 32745.00
1181.791, 32811.00
##END=



