##NAMES=Spodumene
##RRUFFID=R040050
##IDEAL CHEMISTRY=LiAlSi_2_O_6_
##LOCALITY=Minas Gerais, Brazil
##OWNER=RRUFF
##SOURCE=University of Arizona Mineral Museum
##DESCRIPTION=Pale pink fragment of a single crystal, variety kunzite
##STATUS=The identification of this mineral has been confirmed by X-ray diffraction and chemical analysis
##URL=rruff.info/R040050
##MEASURED CHEMISTRY=(Li_0.99_Na_0.01_)Al_1.00_Si_2.00_O_6_
##PIN_ID=L00321
##ORIENTATION=Laser parallel to (1 0 1). Fiducial mark perpendicular to laser is parallel to b [0 1 0]
112.9460, 6513.000
114.1820, 6685.000
115.4170, 6789.000
116.6530, 6783.000
117.8880, 6826.000
119.1230, 6934.000
120.3580, 6920.000
121.5920, 6899.000
122.8270, 6891.000
124.0610, 6985.000
125.2950, 7042.000
126.5290, 7078.000
127.7630, 7148.701
128.9970, 7170.000
130.2300, 7220.000
131.4640, 7270.000
132.6970, 7234.000
133.9300, 7195.000
135.1630, 7221.000
136.3950, 7241.000
137.6280, 7175.000
138.8600, 7264.000
140.0920, 7343.000
141.3240, 7427.000
142.5560, 7332.000
143.7880, 7327.000
145.0190, 7432.000
146.2510, 7373.000
147.4820, 7437.000
148.7130, 7498.000
149.9440, 7547.000
151.1750, 7483.000
152.4050, 7515.000
153.6360, 7488.000
154.8660, 7588.000
156.0960, 7512.000
157.3260, 7656.000
158.5560, 7706.000
159.7850, 7563.000
161.0150, 7603.000
162.2440, 7689.000
163.4730, 7637.000
164.7020, 7707.000
165.9310, 7779.000
167.1590, 7847.000
168.3880, 7742.000
169.6160, 7751.000
170.8440, 7836.000
172.0720, 7846.000
173.3000, 7955.000
174.5280, 7924.000
175.7550, 7887.000
176.9820, 7884.000
178.2100, 7929.000
179.4370, 8065.000
180.6630, 7990.000
181.8900, 8207.000
183.1170, 8192.000
184.3430, 8235.000
185.5690, 8373.000
186.7950, 8411.000
188.0210, 8461.000
189.2470, 8456.000
190.4720, 8321.000
191.6970, 8260.000
192.9230, 8169.000
194.1480, 8234.000
195.3730, 8236.000
196.5970, 8194.000
197.8220, 8194.000
199.0460, 8130.000
200.2700, 8244.000
201.4940, 8282.000
202.7180, 8229.000
203.9420, 8267.000
205.1660, 8276.000
206.3890, 8366.000
207.6120, 8216.000
208.8350, 8369.000
210.0580, 8295.000
211.2810, 8225.000
212.5040, 8248.000
213.7260, 8333.000
214.9480, 8285.000
216.1700, 8436.000
217.3920, 8387.000
218.6140, 8421.000
219.8360, 8382.000
221.0570, 8479.000
222.2790, 8364.000
223.5000, 8588.000
224.7210, 8496.000
225.9410, 8583.000
227.1620, 8619.000
228.3820, 8598.000
229.6030, 8637.000
230.8230, 8583.000
232.0430, 8676.000
233.2630, 8637.000
234.4820, 8708.000
235.7020, 8690.000
236.9210, 8786.000
238.1400, 8935.000
239.3590, 9104.000
240.5780, 9189.000
241.7970, 9177.000
243.0150, 9315.000
244.2340, 9518.000
245.4520, 9839.000
246.6700, 10323.00
247.8880, 10804.00
249.1060, 11018.00
250.3230, 10935.00
251.5400, 10290.00
252.7580, 9735.000
253.9750, 9300.000
255.1920, 9297.000
256.4080, 9124.000
257.6250, 9219.000
258.8410, 9311.000
260.0580, 9233.000
261.2740, 9263.253
262.4900, 9190.000
263.7050, 9176.000
264.9210, 9216.000
266.1360, 9170.000
267.3520, 9172.000
268.5670, 9399.000
269.7820, 9202.000
270.9960, 9238.000
272.2110, 9479.000
273.4250, 9288.000
274.6400, 9369.000
275.8540, 9365.000
277.0680, 9545.000
278.2810, 9612.000
279.4950, 9642.000
280.7090, 9701.000
281.9220, 9835.891
283.1350, 9988.000
284.3480, 10188.00
285.5610, 10378.00
286.7730, 10684.00
287.9860, 10965.00
289.1980, 11297.00
290.4100, 11689.00
291.6220, 12205.00
292.8340, 12679.00
294.0460, 13180.00
295.2570, 13524.00
296.4690, 13651.00
297.6800, 13296.00
298.8910, 12931.00
300.1020, 12361.00
301.3120, 11873.00
302.5230, 11385.00
303.7330, 11097.00
304.9440, 10879.00
306.1540, 10803.00
307.3630, 10782.00
308.5730, 10662.00
309.7830, 10519.00
310.9920, 10418.00
312.2010, 10417.18
313.4100, 10456.47
314.6190, 10504.00
315.8280, 10730.00
317.0370, 10869.00
318.2450, 11131.00
319.4530, 11157.00
320.6610, 11437.00
321.8690, 11494.00
323.0770, 11980.00
324.2850, 12288.00
325.4920, 12749.00
326.6990, 13037.00
327.9060, 13569.00
329.1130, 13573.00
330.3200, 13594.00
331.5270, 13145.00
332.7330, 12399.00
333.9390, 11999.00
335.1450, 11552.00
336.3510, 11305.00
337.5570, 11064.00
338.7630, 10975.00
339.9680, 11112.00
341.1740, 11333.00
342.3790, 11601.00
343.5840, 11914.00
344.7890, 12452.00
345.9930, 13226.00
347.1980, 13858.00
348.4020, 14887.00
349.6060, 15808.00
350.8100, 17228.00
352.0140, 19255.00
353.2180, 21710.00
354.4210, 23629.00
355.6250, 24043.00
356.8280, 22913.00
358.0310, 20709.00
359.2340, 18298.00
360.4360, 16200.00
361.6390, 14583.00
362.8410, 13627.00
364.0430, 13124.00
365.2450, 12593.00
366.4470, 12243.00
367.6490, 11998.00
368.8510, 12080.00
370.0520, 11912.00
371.2530, 11932.00
372.4540, 11771.00
373.6550, 11924.00
374.8560, 12077.00
376.0560, 11976.00
377.2570, 12189.00
378.4570, 12305.00
379.6570, 12493.00
380.8570, 12867.00
382.0570, 13135.00
383.2560, 13763.00
384.4560, 14320.00
385.6550, 15078.00
386.8540, 16011.00
388.0530, 16888.00
389.2520, 18106.00
390.4510, 19512.00
391.6490, 21050.00
392.8470, 22308.00
394.0450, 22550.00
395.2430, 22058.00
396.4410, 20510.00
397.6390, 18530.00
398.8360, 16515.00
400.0340, 15284.00
401.2310, 14080.00
402.4280, 13302.00
403.6250, 12985.00
404.8210, 12713.00
406.0180, 12290.00
407.2140, 12022.00
408.4100, 11873.00
409.6060, 11843.00
410.8020, 11645.00
411.9980, 11663.00
413.1930, 11729.00
414.3890, 11402.00
415.5840, 11540.00
416.7790, 11639.00
417.9740, 11724.00
419.1680, 11697.00
420.3630, 11661.00
421.5570, 11476.00
422.7510, 11807.00
423.9450, 11633.00
425.1390, 11670.00
426.3330, 11886.00
427.5270, 11798.00
428.7200, 11848.00
429.9130, 11999.00
431.1060, 12123.00
432.2990, 12250.76
433.4920, 12404.77
434.6840, 12511.00
435.8770, 12761.00
437.0690, 12821.00
438.2610, 13111.00
439.4530, 13261.00
440.6450, 13506.00
441.8360, 13651.00
443.0280, 13670.00
444.2190, 13660.00
445.4100, 13503.00
446.6010, 13405.00
447.7920, 13003.00
448.9820, 12976.00
450.1730, 12821.00
451.3630, 12567.00
452.5530, 12563.00
453.7430, 12520.00
454.9330, 12372.00
456.1230, 12286.00
457.3120, 12382.00
458.5010, 12190.00
459.6910, 12258.00
460.8800, 12264.00
462.0680, 12150.00
463.2570, 12230.47
464.4460, 12199.00
465.6340, 12284.00
466.8220, 12225.00
468.0100, 12253.00
469.1980, 12284.00
470.3860, 12364.00
471.5730, 12299.00
472.7600, 12319.00
473.9480, 12228.00
475.1350, 12443.00
476.3210, 12404.00
477.5080, 12483.00
478.6950, 12467.00
479.8810, 12409.00
481.0670, 12408.00
482.2530, 12463.00
483.4390, 12499.00
484.6250, 12540.00
485.8100, 12600.00
486.9960, 12563.00
488.1810, 12708.00
489.3660, 12604.00
490.5510, 12649.00
491.7360, 12649.00
492.9200, 12705.00
494.1050, 12811.00
495.2890, 12823.00
496.4730, 12738.00
497.6570, 12879.00
498.8400, 12793.00
500.0240, 12810.00
501.2070, 12962.00
502.3910, 13015.00
503.5740, 13156.00
504.7570, 13150.00
505.9400, 13261.58
507.1220, 13298.00
508.3050, 13477.00
509.4870, 13460.00
510.6690, 13666.00
511.8510, 13771.00
513.0330, 14067.00
514.2140, 14405.00
515.3960, 14744.00
516.5770, 14928.00
517.7580, 15471.00
518.9390, 16013.00
520.1200, 16260.00
521.3010, 16779.00
522.4810, 16832.00
523.6610, 16551.00
524.8420, 16436.00
526.0220, 15773.00
527.2010, 15401.00
528.3810, 14688.00
529.5610, 14318.00
530.7400, 14190.00
531.9190, 14125.00
533.0980, 13828.00
534.2770, 13942.00
535.4560, 13817.00
536.6340, 13761.00
537.8120, 13733.00
538.9910, 13673.00
540.1690, 13496.00
541.3460, 13614.00
542.5240, 13580.00
543.7020, 13709.00
544.8790, 13677.00
546.0560, 13715.00
547.2330, 13598.00
548.4100, 13641.00
549.5870, 13671.00
550.7630, 13762.00
551.9400, 13657.00
553.1160, 13788.00
554.2920, 13688.00
555.4680, 13879.00
556.6440, 13870.00
557.8190, 13762.00
558.9950, 13834.00
560.1700, 13809.00
561.3450, 13736.00
562.5200, 13901.00
563.6950, 13942.00
564.8690, 14055.00
566.0440, 13874.00
567.2180, 14195.00
568.3920, 14053.00
569.5660, 14122.00
570.7400, 14178.00
571.9130, 14286.00
573.0870, 14103.00
574.2600, 14217.00
575.4330, 14269.00
576.6060, 14395.00
577.7790, 14521.00
578.9520, 14458.00
580.1240, 14653.00
581.2960, 14668.00
582.4690, 14786.00
583.6410, 14820.00
584.8120, 14903.00
585.9840, 15015.00
587.1560, 14962.00
588.3270, 14830.00
589.4980, 15095.00
590.6690, 14738.00
591.8400, 14946.00
593.0110, 14699.00
594.1810, 14792.00
595.3510, 14689.00
596.5220, 14734.00
597.6920, 14726.00
598.8610, 14721.00
600.0310, 14725.00
601.2010, 14726.00
602.3700, 14740.00
603.5390, 14678.00
604.7080, 14649.00
605.8770, 14732.00
607.0460, 14782.00
608.2140, 14809.00
609.3830, 14702.00
610.5510, 14805.00
611.7190, 14849.00
612.8870, 15030.00
614.0550, 14923.00
615.2220, 15001.00
616.3900, 14915.00
617.5570, 15044.00
618.7240, 15026.00
619.8910, 14944.00
621.0580, 15113.00
622.2240, 15100.00
623.3910, 15197.00
624.5570, 15074.00
625.7230, 15104.00
626.8890, 15215.00
628.0550, 15249.00
629.2200, 15449.00
630.3860, 15311.00
631.5510, 15142.00
632.7160, 15110.00
633.8810, 15382.00
635.0460, 15321.00
636.2100, 15397.00
637.3750, 15385.00
638.5390, 15395.00
639.7030, 15595.00
640.8670, 15445.00
642.0310, 15670.00
643.1950, 15569.00
644.3580, 15577.00
645.5210, 15507.00
646.6850, 15533.00
647.8480, 15587.00
649.0100, 15814.00
650.1730, 15822.00
651.3350, 15818.00
652.4980, 15751.00
653.6600, 15847.00
654.8220, 16034.00
655.9840, 15798.00
657.1450, 15997.00
658.3070, 15818.00
659.4680, 16069.00
660.6300, 15972.00
661.7910, 16126.00
662.9510, 16033.00
664.1120, 15878.00
665.2730, 15983.00
666.4330, 15988.00
667.5930, 16081.00
668.7530, 16166.00
669.9130, 16216.00
671.0730, 16171.00
672.2320, 16271.00
673.3920, 16266.00
674.5510, 16381.00
675.7100, 16402.00
676.8690, 16574.00
678.0280, 16575.55
679.1860, 16594.72
680.3450, 16629.00
681.5030, 16618.00
682.6610, 16655.00
683.8190, 16680.20
684.9770, 16794.00
686.1340, 16775.00
687.2920, 16862.00
688.4490, 16978.00
689.6060, 17031.00
690.7630, 17126.00
691.9200, 17262.00
693.0760, 17444.08
694.2330, 17703.00
695.3890, 17948.00
696.5450, 18312.00
697.7010, 18703.00
698.8570, 19170.00
700.0130, 19867.41
701.1680, 20773.00
702.3230, 21608.00
703.4780, 22694.00
704.6330, 24006.00
705.7880, 25008.00
706.9430, 25494.00
708.0970, 25511.00
709.2520, 24345.00
710.4060, 23101.00
711.5600, 21587.00
712.7140, 20306.00
713.8670, 19603.00
715.0210, 19133.00
716.1740, 18722.00
717.3270, 18369.00
718.4800, 18189.00
719.6330, 18234.00
720.7860, 18105.00
721.9380, 17966.00
723.0910, 17802.00
724.2430, 17721.00
725.3950, 17814.00
726.5470, 17899.00
727.6980, 18025.00
728.8500, 17686.00
730.0010, 17782.00
731.1530, 17777.00
732.3040, 18029.00
733.4550, 17759.00
734.6050, 17817.00
735.7560, 17961.00
736.9060, 17991.00
738.0560, 17967.00
739.2060, 17969.00
740.3560, 18008.00
741.5060, 18005.00
742.6560, 18200.00
743.8050, 17993.00
744.9540, 18101.00
746.1030, 18313.00
747.2520, 18042.00
748.4010, 18112.00
749.5500, 18155.00
750.6980, 18249.00
751.8460, 18192.00
752.9950, 18229.00
754.1420, 18363.00
755.2900, 18265.00
756.4380, 18314.00
757.5850, 18458.00
758.7330, 18383.00
759.8800, 18344.00
761.0270, 18409.00
762.1730, 18465.00
763.3200, 18464.00
764.4670, 18508.15
765.6130, 18626.00
766.7590, 18541.00
767.9050, 18592.00
769.0510, 18602.00
770.1960, 18753.00
771.3420, 18744.00
772.4870, 18784.00
773.6320, 18709.00
774.7770, 18774.68
775.9220, 18938.00
777.0670, 18814.00
778.2110, 18941.00
779.3560, 18869.00
780.5000, 18972.00
781.6440, 19083.00
782.7880, 19086.00
783.9320, 19168.00
785.0750, 19154.00
786.2180, 19251.00
787.3620, 19212.00
788.5050, 19500.00
789.6480, 19210.00
790.7900, 19026.00
791.9330, 19229.00
793.0750, 19253.00
794.2170, 19297.00
795.3590, 19379.00
796.5010, 19271.00
797.6430, 19434.00
798.7850, 19224.00
799.9260, 19448.00
801.0670, 19600.00
802.2080, 19608.00
803.3490, 19532.00
804.4900, 19588.00
805.6310, 19691.00
806.7710, 19936.00
807.9110, 19742.00
809.0510, 19793.00
810.1910, 19962.00
811.3310, 19766.00
812.4710, 19754.00
813.6100, 19866.00
814.7490, 20207.00
815.8880, 19936.00
817.0270, 20134.00
818.1660, 19995.00
819.3050, 20108.00
820.4430, 20197.00
821.5820, 20079.00
822.7200, 20189.00
823.8580, 20313.00
824.9950, 20361.00
826.1330, 20208.00
827.2710, 20307.00
828.4080, 20261.00
829.5450, 20251.85
830.6820, 20375.00
831.8190, 20315.00
832.9560, 20457.00
834.0920, 20603.00
835.2280, 20656.00
836.3650, 20758.07
837.5010, 20886.00
838.6360, 20808.00
839.7720, 20834.00
840.9080, 20691.00
842.0430, 20788.00
843.1780, 20989.00
844.3130, 20863.00
845.4480, 20965.00
846.5830, 21023.00
847.7170, 21136.00
848.8520, 21066.00
849.9860, 21017.00
851.1200, 21147.00
852.2540, 21202.00
853.3870, 21232.00
854.5210, 21271.00
855.6540, 21238.00
856.7880, 21179.00
857.9210, 21508.00
859.0540, 21507.00
860.1860, 21491.00
861.3190, 21556.00
862.4510, 21541.00
863.5840, 21655.00
864.7160, 21605.00
865.8480, 21652.00
866.9790, 21710.00
868.1110, 21686.00
869.2420, 21842.00
870.3740, 21802.00
871.5050, 21880.00
872.6360, 21784.00
873.7660, 22060.00
874.8970, 22007.00
876.0280, 21914.00
877.1580, 22108.00
878.2880, 21904.00
879.4180, 21890.00
880.5480, 22189.00
881.6770, 22259.00
882.8070, 22146.00
883.9360, 22080.00
885.0650, 22159.00
886.1940, 22215.00
887.3230, 22147.00
888.4520, 22292.00
889.5800, 22387.00
890.7090, 22527.00
891.8370, 22453.00
892.9650, 22365.00
894.0930, 22416.00
895.2200, 22428.17
896.3480, 22437.00
897.4750, 22628.00
898.6020, 22640.00
899.7290, 22856.00
900.8560, 22833.00
901.9830, 22794.00
903.1090, 22756.00
904.2360, 22897.00
905.3620, 22681.00
906.4880, 22987.00
907.6140, 23028.00
908.7400, 22975.00
909.8650, 22818.00
910.9900, 23074.00
912.1160, 23153.00
913.2410, 23254.00
914.3660, 23310.00
915.4900, 23303.00
916.6150, 23373.00
917.7390, 23310.00
918.8640, 23283.00
919.9880, 23280.00
921.1120, 23289.67
922.2350, 23671.00
923.3590, 23451.00
924.4820, 23541.00
925.6060, 23821.00
926.7290, 23657.00
927.8520, 23665.00
928.9740, 23679.00
930.0970, 23833.00
931.2190, 23829.00
932.3420, 24079.00
933.4640, 24045.00
934.5860, 23976.00
935.7080, 23878.00
936.8290, 24192.00
937.9510, 23937.00
939.0720, 24115.00
940.1930, 24075.00
941.3140, 24035.00
942.4350, 24311.00
943.5560, 24375.00
944.6760, 24261.00
945.7960, 24293.00
946.9170, 24271.00
948.0370, 24596.00
949.1560, 24528.00
950.2760, 24587.00
951.3960, 24562.00
952.5150, 24648.00
953.6340, 24708.80
954.7530, 24756.69
955.8720, 24864.00
956.9910, 24949.00
958.1090, 24996.00
959.2280, 25199.00
960.3460, 24878.00
961.4640, 25039.00
962.5820, 25172.00
963.6990, 25123.00
964.8170, 25357.00
965.9340, 25231.00
967.0510, 25254.00
968.1690, 25449.00
969.2850, 25376.00
970.4020, 25600.00
971.5190, 25507.00
972.6350, 25772.00
973.7510, 25805.00
974.8670, 25960.00
975.9830, 26061.00
977.0990, 26165.00
978.2150, 25918.00
979.3300, 25978.00
980.4450, 26200.00
981.5600, 26141.00
982.6750, 26364.00
983.7900, 26142.00
984.9050, 26209.00
986.0190, 26218.00
987.1340, 26078.00
988.2480, 26398.00
989.3620, 26277.00
990.4750, 26397.00
991.5890, 26314.00
992.7020, 26595.00
993.8160, 26469.00
994.9290, 26587.00
996.0420, 26816.00
997.1550, 26716.00
998.2670, 26868.31
999.3800, 26785.00
1000.492, 26987.00
1001.604, 27073.00
1002.716, 27141.00
1003.828, 27086.00
1004.940, 27152.00
1006.051, 27190.00
1007.163, 27287.89
1008.274, 27385.00
1009.385, 27554.00
1010.496, 27805.00
1011.606, 27953.00
1012.717, 28298.00
1013.827, 28512.00
1014.937, 29037.00
1016.047, 30277.00
1017.157, 29986.00
1018.267, 30342.00
1019.377, 30576.00
1020.486, 30493.00
1021.595, 30296.00
1022.704, 29705.00
1023.813, 29321.00
1024.922, 28808.00
1026.030, 28655.00
1027.139, 28319.00
1028.247, 28269.00
1029.355, 28206.00
1030.463, 28156.00
1031.571, 28319.00
1032.678, 28231.00
1033.786, 28322.00
1034.893, 28426.00
1036.000, 28413.00
1037.107, 28595.00
1038.214, 28534.00
1039.321, 28465.00
1040.427, 28827.00
1041.533, 28691.00
1042.639, 28663.00
1043.745, 28903.00
1044.851, 29019.00
1045.957, 28974.00
1047.062, 29112.00
1048.168, 29121.00
1049.273, 29190.00
1050.378, 29327.16
1051.482, 29399.14
1052.587, 29593.00
1053.692, 29675.00
1054.796, 29805.00
1055.900, 30031.00
1057.004, 30424.00
1058.108, 30363.00
1059.212, 30807.00
1060.315, 31249.00
1061.418, 31833.00
1062.522, 32215.00
1063.625, 33173.00
1064.728, 34143.00
1065.830, 35481.00
1066.933, 36949.00
1068.035, 38696.00
1069.137, 41064.00
1070.239, 43189.00
1071.341, 45405.00
1072.443, 46544.00
1073.545, 46791.00
1074.646, 45093.00
1075.747, 42922.00
1076.848, 40306.00
1077.949, 38123.00
1079.050, 36539.00
1080.150, 35386.00
1081.251, 34147.00
1082.351, 33343.00
1083.451, 32695.00
1084.551, 32607.00
1085.651, 32295.00
1086.750, 31853.00
1087.850, 31682.00
1088.949, 31498.00
1090.048, 31742.00
1091.147, 31310.00
1092.246, 31548.00
1093.345, 31292.00
1094.443, 31498.00
1095.541, 31397.00
1096.639, 31434.00
1097.737, 31403.00
1098.835, 31425.75
1099.933, 31438.00
1101.030, 31503.00
1102.128, 31604.00
1103.225, 31634.00
1104.322, 31677.00
1105.419, 31763.00
1106.515, 31548.00
1107.612, 31684.00
1108.708, 31511.00
1109.804, 31645.00
1110.900, 31888.00
1111.996, 31493.00
1113.092, 31930.00
1114.187, 31774.00
1115.283, 31920.00
1116.378, 31996.00
1117.473, 31923.00
1118.568, 31952.00
1119.662, 32234.00
1120.757, 32261.00
1121.851, 32385.00
1122.946, 32252.00
1124.040, 32167.00
1125.134, 32305.00
1126.227, 32217.00
1127.321, 32371.00
1128.414, 32501.00
1129.508, 32235.00
1130.601, 32502.00
1131.693, 32567.00
1132.786, 32692.00
1133.879, 32639.00
1134.971, 32747.00
1136.064, 32563.00
1137.156, 32908.00
1138.248, 32853.00
1139.339, 33016.00
1140.431, 32849.00
1141.522, 33173.00
1142.614, 32965.00
1143.705, 33259.00
1144.796, 32842.00
1145.887, 33395.00
1146.977, 33311.00
1148.068, 33464.00
1149.158, 33423.00
1150.248, 33677.00
1151.338, 33647.02
1152.428, 33602.00
1153.518, 33687.00
1154.607, 33841.00
1155.696, 33890.00
1156.785, 33662.00
1157.874, 33868.00
1158.963, 33955.00
1160.052, 33924.00
1161.141, 34079.00
1162.229, 34057.00
1163.317, 34085.00
1164.405, 33997.00
1165.493, 34219.00
1166.581, 34129.00
1167.668, 34442.00
1168.756, 34428.00
1169.843, 34382.00
1170.930, 34491.00
1172.017, 34697.00
1173.103, 34888.00
1174.190, 34648.00
1175.276, 34569.00
1176.363, 34719.00
1177.449, 34696.00
1178.535, 34730.00
1179.620, 34847.00
1180.706, 35021.00
1181.791, 35086.00
1182.877, 35081.00
1183.962, 35204.00
1185.047, 35100.00
1186.131, 35097.00
1187.216, 35314.00
1188.300, 35277.00
1189.385, 35470.00
1190.469, 35336.00
1191.553, 35601.00
1192.637, 35550.00
1193.720, 35494.00
1194.804, 35977.00
1195.887, 35875.00
1196.970, 35632.00
1198.053, 35896.00
1199.136, 35792.00
1200.219, 35830.00
1201.301, 36148.00
1202.383, 36086.00
1203.465, 35949.00
1204.547, 36253.00
1205.629, 36530.00
1206.711, 36234.00
1207.792, 36446.00
1208.874, 36445.00
1209.955, 36645.00
1211.036, 36651.00
1212.117, 36704.00
1213.198, 37026.00
##END=



