##NAMES=Strontiohurlbutite
##RRUFFID=R141104
##IDEAL CHEMISTRY=SrBe_2_(PO_4_)_2_
##LOCALITY=Nanping No. 31 pegmatite, Fujian province, southeastern China
##OWNER=Can Rao
##SOURCE=Can Rao
##DESCRIPTION=Light blue platy subhedral-to-anhedral crystals. Associated with quartz, muscovite, beryl, hurlbutite, hydroxylherderite, apatite-group minerals,  and phenakite. Data from Rao et al (2014)
##STATUS=The identification of this mineral has been confirmed by X-ray diffraction and chemical analysis
##URL=rruff.info/R141104
##MEASURED CHEMISTRY=(Sr_0.81_Ca_0.05_Ba_0.01_)_Î£=0.87_Be_2.02_P_2.05_O_8_; Be content determined using SIMS with a CamecaIMS-4F ion microprobe
100.53, 3070.5
101.92, 3620.6
103.31, 3930.4
104.69, 4005.3
106.08, 3884.5
107.47, 3682.3
108.85, 3522.9
110.24, 3377.1
111.63, 3308.1
113.01, 3381.3
114.4, 3315.5
115.79, 3365.2
117.17, 3427.9
118.56, 3471
119.95, 3524.6
121.34, 3706.3
122.72, 3853.5
124.11, 4008.3
125.5, 4207.3
126.88, 4362.9
128.27, 4592
129.66, 4799.5
131.04, 4988.5
132.43, 5206.2
133.82, 5313.4
135.2, 5423.9
136.59, 5559.6
137.98, 5710.6
139.36, 5795.8
140.75, 5885.1
142.14, 6038.8
143.53, 6266.8
144.91, 6564.3
146.3, 6898.5
147.69, 7157.9
149.07, 7292.8
150.46, 7292.5
151.85, 7173.5
153.23, 6891.8
154.62, 6712.8
156.01, 6554.1
157.39, 6388.3
158.78, 6322.4
160.17, 6356.5
161.55, 6407.7
162.94, 6482.7
164.33, 6601.3
165.72, 6785.3
167.1, 7005.7
168.49, 7278.2
169.88, 7624
171.26, 8067.9
172.65, 8847.8
174.04, 9705.9
175.42, 10460
176.81, 10856
178.2, 10392
179.58, 9378.2
180.97, 8602.8
182.36, 8013.3
183.74, 7506.1
185.13, 7184.2
186.52, 6965.4
187.9, 6850.7
189.29, 6789.5
190.68, 6724.6
192.07, 6968.4
193.45, 7026.3
194.84, 7075.7
196.23, 7215.4
197.61, 7504
199, 8440.4
200.39, 10045
201.77, 12132
203.16, 14186
204.55, 14877
205.93, 12976
207.32, 10573
208.71, 8611.9
210.09, 7653.4
211.48, 7248.7
212.87, 6987
214.26, 6928.3
215.64, 6998.5
217.03, 7066.2
218.42, 6927.4
219.8, 6933.4
221.19, 6889.9
222.58, 6810.8
223.96, 6831
225.35, 6931.7
226.74, 6974.5
228.12, 7000.4
229.51, 7032.8
230.9, 7079.1
232.28, 7313.7
233.67, 7497.6
235.06, 7773.8
236.44, 8154.8
237.83, 8346.6
239.22, 8388
240.61, 8425.5
241.99, 8585.9
243.38, 8943.6
244.77, 9426.9
246.15, 9489.7
247.54, 9346.1
248.93, 8989.3
250.31, 8452.6
251.7, 8221.8
253.09, 7979.3
254.47, 8004
255.86, 8225.2
257.25, 8440
258.63, 8400.3
260.02, 8397.5
261.41, 8340.2
262.8, 8218.5
264.18, 8064.2
265.57, 7901.2
266.96, 7848.8
268.34, 7805.5
269.73, 7773.7
271.12, 7824.4
272.5, 7821
273.89, 7848.8
275.28, 7902.8
276.66, 8016.6
278.05, 8265.1
279.44, 8545.5
280.82, 8863.3
282.21, 9088.5
283.6, 9110.8
284.99, 8832.7
286.37, 8634.7
287.76, 8491.6
289.15, 8390.5
290.53, 8341.3
291.92, 8393
293.31, 8405.2
294.69, 8344.1
296.08, 8232.6
297.47, 8114.6
298.85, 8069.9
300.24, 8130
301.63, 8160.3
303.01, 8181.6
304.4, 8213.2
305.79, 8255.9
307.18, 8416.1
308.56, 8436.4
309.95, 8412
311.34, 8413.3
312.72, 8414.6
314.11, 8637.6
315.5, 8708.3
316.88, 8803
318.27, 8991.2
319.66, 9052.6
321.04, 9240.5
322.43, 9587.1
323.82, 9965.2
325.2, 10379
326.59, 11122
327.98, 11592
329.36, 11742
330.75, 11676
332.14, 11489
333.53, 11231
334.91, 11129
336.3, 11409
337.69, 11971
339.07, 12744
340.46, 13734
341.85, 14342
343.23, 14393
344.62, 13814
346.01, 12787
347.39, 11793
348.78, 10970
350.17, 10446
351.55, 10105
352.94, 9887.8
354.33, 9790.5
355.72, 9563.6
357.1, 9611.4
358.49, 9619.4
359.88, 9555.1
361.26, 9595.2
362.65, 9540.7
364.04, 9552.7
365.42, 9538.7
366.81, 9528.8
368.2, 9602.3
369.58, 9566.4
370.97, 9476.7
372.36, 9464.7
373.74, 9495.6
375.13, 9491.9
376.52, 9573
377.9, 9598.1
379.29, 9605
380.68, 9679.8
382.07, 9858.9
383.45, 9912
384.84, 9944.2
386.23, 10071
387.61, 10255
389, 10483
390.39, 10898
391.77, 11400
393.16, 11698
394.55, 11758
395.93, 11572
397.32, 11113
398.71, 10553
400.09, 10425
401.48, 10365
402.87, 10237
404.26, 10157
405.64, 10206
407.03, 10307
408.42, 10382
409.8, 10410
411.19, 10429
412.58, 10756
413.96, 11035
415.35, 11392
416.74, 11894
418.12, 12584
419.51, 13502
420.9, 14349
422.28, 14371
423.67, 13752
425.06, 12834
426.44, 11922
427.83, 11621
429.22, 11391
430.61, 11294
431.99, 11461
433.38, 12047
434.77, 12675
436.15, 13480
437.54, 14236
438.93, 14968
440.31, 15780
441.7, 16343
443.09, 15889
444.47, 14793
445.86, 13406
447.25, 12153
448.63, 11650
450.02, 11313
451.41, 11188
452.8, 11180
454.18, 11154
455.57, 10956
456.96, 11095
458.34, 11067
459.73, 11022
461.12, 11069
462.5, 11268
463.89, 11522
465.28, 11628
466.66, 11830
468.05, 12053
469.44, 12121
470.82, 11798
472.21, 11643
473.6, 11306
474.99, 11198
476.37, 11341
477.76, 11338
479.15, 11440
480.53, 11527
481.92, 11509
483.31, 11537
484.69, 11772
486.08, 11995
487.47, 12510
488.85, 13284
490.24, 14035
491.63, 14486
493.01, 14451
494.4, 13910
495.79, 13391
497.17, 12930
498.56, 12448
499.95, 11888
501.34, 11693
502.72, 11719
504.11, 11720
505.5, 11697
506.88, 11733
508.27, 11967
509.66, 11827
511.04, 11947
512.43, 11949
513.82, 11812
515.2, 11739
516.59, 11775
517.98, 11866
519.36, 11942
520.75, 12018
522.14, 12100
523.53, 12160
524.91, 12355
526.3, 12742
527.69, 13328
529.07, 13892
530.46, 14138
531.85, 13985
533.23, 13776
534.62, 13556
536.01, 13464
537.39, 13530
538.78, 13618
540.17, 13853
541.55, 14201
542.94, 14643
544.33, 15383
545.72, 16641
547.1, 18356
548.49, 20885
549.88, 22400
551.26, 22549
552.65, 21277
554.04, 18806
555.42, 16710
556.81, 15368
558.2, 14501
559.58, 14068
560.97, 14002
562.36, 14058
563.74, 14387
565.13, 14771
566.52, 15126
567.91, 15535
569.29, 16237
570.68, 17778
572.07, 20477
573.45, 23249
574.84, 25116
576.23, 25204
577.61, 23025
579, 20416
580.39, 18294
581.77, 17453
583.16, 17688
584.55, 18558
585.93, 19872
587.32, 20573
588.71, 20172
590.09, 18751
591.48, 17055
592.87, 15893
594.26, 15055
595.64, 14619
597.03, 14448
598.42, 14376
599.8, 14421
601.19, 14755
602.58, 15506
603.96, 16306
605.35, 16437
606.74, 15943
608.12, 15141
609.51, 14461
610.9, 14281
612.28, 14187
613.67, 14135
615.06, 14135
616.45, 14185
617.83, 14232
619.22, 14239
620.61, 14235
621.99, 14239
623.38, 14162
624.77, 13991
626.15, 14052
627.54, 14071
628.93, 14175
630.31, 14179
631.7, 14169
633.09, 14296
634.47, 14278
635.86, 14344
637.25, 14384
638.64, 14387
640.02, 14403
641.41, 14474
642.8, 14427
644.18, 14443
645.57, 14493
646.96, 14543
648.34, 14625
649.73, 14773
651.12, 14571
652.5, 14856
653.89, 14835
655.28, 14711
656.66, 14713
658.05, 14854
659.44, 14766
660.82, 14970
662.21, 14964
663.6, 15011
664.99, 15157
666.37, 15095
667.76, 15217
669.15, 15265
670.53, 15458
671.92, 15517
673.31, 15420
674.69, 15510
676.08, 15442
677.47, 15659
678.85, 15816
680.24, 15897
681.63, 15980
683.01, 16129
684.4, 16101
685.79, 16334
687.18, 16572
688.56, 16757
689.95, 16827
691.34, 16733
692.72, 16836
694.11, 16671
695.5, 16699
696.88, 16715
698.27, 16668
699.66, 16732
701.04, 16715
702.43, 16816
703.82, 16754
705.2, 16743
706.59, 16846
707.98, 16938
709.36, 16946
710.75, 16836
712.14, 16996
713.53, 16924
714.91, 16745
716.3, 16883
717.69, 16896
719.07, 17208
720.46, 17172
721.85, 17187
723.23, 17262
724.62, 17177
726.01, 16856
727.39, 16920
728.78, 17057
730.17, 17154
731.55, 17166
732.94, 17104
734.33, 17017
735.72, 17141
737.1, 17236
738.49, 17168
739.88, 17156
741.26, 17306
742.65, 17417
744.04, 17425
745.42, 17527
746.81, 17607
748.2, 17597
749.58, 17629
750.97, 17875
752.36, 17822
753.74, 17926
755.13, 17965
756.52, 17879
757.9, 17781
759.29, 17833
760.68, 18040
762.07, 18060
763.45, 18181
764.84, 18185
766.23, 18189
767.61, 18263
769, 18193
770.39, 18190
771.77, 18304
773.16, 18361
774.55, 18357
775.93, 18371
777.32, 18470
778.71, 18406
780.09, 18429
781.48, 18477
782.87, 18435
784.26, 18396
785.64, 18496
787.03, 18657
788.42, 18681
789.8, 18628
791.19, 18622
792.58, 18679
793.96, 18766
795.35, 18832
796.74, 18758
798.12, 19012
799.51, 18999
800.9, 19075
802.28, 19221
803.67, 19208
805.06, 19263
806.45, 19235
807.83, 19237
809.22, 19213
810.61, 19227
811.99, 19245
813.38, 19081
814.77, 18955
816.15, 19176
817.54, 19324
818.93, 19328
820.31, 19361
821.7, 19522
823.09, 19402
824.47, 19457
825.86, 19507
827.25, 19547
828.63, 19530
830.02, 19514
831.41, 19623
832.8, 19579
834.18, 19676
835.57, 19516
836.96, 19610
838.34, 19828
839.73, 19832
841.12, 19738
842.5, 19788
843.89, 19956
845.28, 19957
846.66, 20031
848.05, 20143
849.44, 20077
850.82, 20138
852.21, 20286
853.6, 20419
854.99, 20497
856.37, 20591
857.76, 20689
859.15, 20669
860.53, 20630
861.92, 20719
863.31, 20837
864.69, 20809
866.08, 20757
867.47, 20832
868.85, 20942
870.24, 20940
871.63, 20957
873.01, 20965
874.4, 20908
875.79, 20934
877.17, 21130
878.56, 21140
879.95, 21196
881.34, 21361
882.72, 21303
884.11, 21302
885.5, 21387
886.88, 21374
888.27, 21477
889.66, 21533
891.04, 21514
892.43, 21597
893.82, 21719
895.2, 21773
896.59, 21734
897.98, 21753
899.36, 21768
900.75, 21868
902.14, 21809
903.53, 21847
904.91, 22066
906.3, 22187
907.69, 22095
909.07, 22014
910.46, 22202
911.85, 22434
913.23, 22525
914.62, 22554
916.01, 22765
917.39, 22911
918.78, 23037
920.17, 23009
921.55, 23053
922.94, 23202
924.33, 23282
925.71, 23124
927.1, 23181
928.49, 23409
929.88, 23409
931.26, 23364
932.65, 23454
934.04, 23674
935.42, 23839
936.81, 23779
938.2, 24051
939.58, 24037
940.97, 24087
942.36, 24206
943.74, 24329
945.13, 24479
946.52, 24740
947.9, 24547
949.29, 24652
950.68, 24781
952.07, 25006
953.45, 25208
954.84, 25198
956.23, 25230
957.61, 25592
959, 25744
960.39, 25771
961.77, 25821
963.16, 25997
964.55, 26275
965.93, 26475
967.32, 26378
968.71, 26588
970.09, 26671
971.48, 26690
972.87, 26739
974.26, 26843
975.64, 26974
977.03, 27252
978.42, 27505
979.8, 27666
981.19, 27885
982.58, 28241
983.96, 28517
985.35, 28504
986.74, 28908
988.12, 29456
989.51, 29647
990.9, 29986
992.28, 30524
993.67, 31088
995.06, 31601
996.44, 32295
997.83, 32889
999.22, 33927
1000.6, 34922
1001.9, 36205
1003.3, 37776
1004.7, 39473
1006.1, 41309
1007.5, 43628
1008.9, 45950
1010.3, 49180
1011.7, 52830
1013, 56951
1014.4, 61291
1015.8, 65661
1017.2, 70786
1018.6, 75536
1020, 79228
1021.4, 81561
1022.8, 81966
1024.1, 80225
1025.5, 76211
1026.9, 70130
1028.3, 63971
1029.7, 58332
1031.1, 53702
1032.5, 50220
1033.8, 47445
1035.2, 45331
1036.6, 44019
1038, 43172
1039.4, 42388
1040.8, 41158
1042.2, 39985
1043.6, 38892
1044.9, 37923
1046.3, 37191
1047.7, 36705
1049.1, 36128
1050.5, 36177
1051.9, 36320
1053.3, 36155
1054.6, 35806
1056, 35373
1057.4, 35102
1058.8, 35193
1060.2, 34678
1061.6, 34810
1063, 34244
1064.4, 34080
1065.7, 34146
1067.1, 34152
1068.5, 34035
1069.9, 33939
1071.3, 34307
1072.7, 34643
1074.1, 35397
1075.5, 35761
1076.8, 35850
1078.2, 35918
1079.6, 35961
1081, 35741
1082.4, 35257
1083.8, 35108
1085.2, 34934
1086.5, 34782
1087.9, 34825
1089.3, 35026
1090.7, 35178
1092.1, 35229
1093.5, 35766
1094.9, 36392
1096.3, 36981
1097.6, 37386
1099, 37382
1100.4, 36921
1101.8, 36288
1103.2, 35985
1104.6, 35996
1106, 35739
1107.3, 35827
1108.7, 35992
1110.1, 36222
1111.5, 36449
1112.9, 36717
1114.3, 37247
1115.7, 37214
1117.1, 37154
1118.4, 37225
1119.8, 36999
1121.2, 36814
1122.6, 36779
1124, 36858
1125.4, 37165
1126.8, 37447
1128.2, 37526
1129.5, 38154
1130.9, 38834
1132.3, 39559
1133.7, 40116
1135.1, 40353
1136.5, 40357
1137.9, 40003
1139.2, 39150
1140.6, 38684
1142, 38415
1143.4, 38128
1144.8, 38213
1146.2, 38482
1147.6, 38374
1149, 38278
1150.3, 38373
1151.7, 38577
1153.1, 38600
1154.5, 38727
1155.9, 38853
1157.3, 38881
1158.7, 38980
1160.1, 39410
1161.4, 39872
1162.8, 39615
1164.2, 39846
1165.6, 40058
1167, 40011
1168.4, 40265
1169.8, 40808
1171.1, 41155
1172.5, 41892
1173.9, 42113
1175.3, 43110
1176.7, 43411
1178.1, 43735
1179.5, 43797
1180.9, 43559
1182.2, 43215
1183.6, 42774
1185, 42504
1186.4, 42076
1187.8, 41946
1189.2, 41890
1190.6, 41989
1191.9, 42178
1193.3, 42204
1194.7, 42066
1196.1, 42174
1197.5, 41985
1198.9, 42337
1200.3, 42655
1201.7, 42600
1203, 42630
1204.4, 42726
1205.8, 42941
1207.2, 43280
1208.6, 43047
1210, 43496
1211.4, 43234
1212.8, 43446
1214.1, 43809
1215.5, 44126
1216.9, 44182
1218.3, 44238
1219.7, 44622
1221.1, 44591
1222.5, 44576
1223.8, 44776
1225.2, 44829
1226.6, 45141
1228, 45374
1229.4, 45484
1230.8, 45531
1232.2, 45496
1233.6, 45660
1234.9, 46056
1236.3, 45990
1237.7, 46179
1239.1, 46303
1240.5, 46458
1241.9, 46451
1243.3, 46433
1244.6, 46745
1246, 46897
1247.4, 47236
1248.8, 47407
1250.2, 47525
1251.6, 47585
1253, 47702
1254.4, 47665
1255.7, 47826
1257.1, 48485
1258.5, 48731
1259.9, 48776
1261.3, 48376
1262.7, 48684
1264.1, 49059
1265.5, 49247
1266.8, 49220
1268.2, 49378
1269.6, 49695
1271, 49563
1272.4, 49876
1273.8, 50103
1275.2, 50254
1276.5, 50420
1277.9, 50316
1279.3, 50413
1280.7, 50749
1282.1, 51015
1283.5, 51083
1284.9, 51061
1286.3, 51024
1287.6, 51211
1289, 51353
1290.4, 51533
1291.8, 51560
1293.2, 51752
1294.6, 52128
1296, 52257
1297.3, 52074
1298.7, 52478
1300.1, 52255
1301.5, 52611
1302.9, 52829
1304.3, 53200
1305.7, 53252
1307.1, 53250
1308.4, 53339
1309.8, 53330
1311.2, 53489
1312.6, 53773
1314, 53741
1315.4, 54068
1316.8, 53785
1318.2, 54121
1319.5, 54497
1320.9, 54597
1322.3, 54658
1323.7, 54798
1325.1, 54903
1326.5, 55140
1327.9, 54916
1329.2, 55166
1330.6, 55247
1332, 55329
1333.4, 55573
1334.8, 55820
1336.2, 55808
1337.6, 55792
1339, 56373
1340.3, 56129
1341.7, 56425
1343.1, 56689
1344.5, 56508
1345.9, 56706
1347.3, 56856
1348.7, 57051
1350.1, 57227
1351.4, 57163
1352.8, 57369
1354.2, 57376
1355.6, 57696
1357, 57833
1358.4, 58114
1359.8, 58007
1361.1, 58217
1362.5, 58268
1363.9, 58235
1365.3, 58518
1366.7, 58517
1368.1, 58433
1369.5, 58997
1370.9, 58852
1372.2, 59159
1373.6, 59555
1375, 59764
1376.4, 59901
1377.8, 59915
1379.2, 59868
1380.6, 60042
1381.9, 60259
1383.3, 59940
1384.7, 60571
1386.1, 60324
1387.5, 60565
1388.9, 60810
1390.3, 61022
1391.7, 61060
1393, 61053
1394.4, 61190
1395.8, 61417
1397.2, 61817
1398.6, 61329
1400, 61695
1401.4, 61942
1402.8, 62300
1404.1, 62430
1405.5, 62505
1406.9, 62583
1408.3, 62621
1409.7, 62687
1411.1, 62925
1412.5, 63357
1413.8, 63538
1415.2, 63441
1416.6, 63268
1418, 63717
1419.4, 63956
1420.8, 63918
1422.2, 63942
1423.6, 64147
1424.9, 64490
1426.3, 64877
1427.7, 64846
1429.1, 64904
1430.5, 64902
1431.9, 65156
1433.3, 65421
1434.6, 65451
1436, 65442
1437.4, 65803
1438.8, 66261
1440.2, 66347
1441.6, 66393
1443, 66827
1444.4, 66304
1445.7, 66634
1447.1, 66762
1448.5, 67249
1449.9, 67265
1451.3, 67423
1452.7, 67694
1454.1, 67772
1455.5, 67788
1456.8, 67911
1458.2, 67902
1459.6, 68206
1461, 68988
1462.4, 68656
1463.8, 68761
1465.2, 68487
1466.5, 68778
1467.9, 69217
1469.3, 69368
1470.7, 69290
1472.1, 69219
1473.5, 69406
1474.9, 70044
1476.3, 70559
1477.6, 70184
1479, 70025
1480.4, 70496
1481.8, 70745
1483.2, 70922
1484.6, 70864
1486, 71145
1487.3, 71511
1488.7, 71417
1490.1, 71277
1491.5, 71446
1492.9, 71982
1494.3, 71806
1495.7, 71611
1497.1, 72038
1498.4, 72139
1499.8, 72211
1501.2, 72349
1502.6, 72582
1504, 72782
1505.4, 72700
1506.8, 72495
1508.2, 72728
1509.5, 72985
1510.9, 73186
1512.3, 73028
1513.7, 72864
1515.1, 73045
1516.5, 73014
1517.9, 73089
1519.2, 73035
1520.6, 73207
1522, 73669
1523.4, 73808
1524.8, 73740
1526.2, 74205
1527.6, 73572
1529, 73952
1530.3, 74406
1531.7, 73751
1533.1, 73784
1534.5, 73685
1535.9, 73726
1537.3, 74050
1538.7, 73933
1540, 73666
1541.4, 73949
1542.8, 73992
1544.2, 73659
1545.6, 73932
1547, 73747
1548.4, 73513
1549.8, 73438
1551.1, 73824
1552.5, 73750
1553.9, 73709
1555.3, 73654
1556.7, 73582
1558.1, 73617
1559.5, 73421
1560.9, 72990
1562.2, 73266
1563.6, 72897
1565, 72803
1566.4, 72864
1567.8, 72844
1569.2, 72529
1570.6, 72492
1571.9, 72595
1573.3, 72515
1574.7, 71954
1576.1, 71794
1577.5, 72151
1578.9, 71995
1580.3, 71566
1581.7, 71156
1583, 71137
1584.4, 70771
1585.8, 70503
1587.2, 70484
1588.6, 70123
1590, 70476
1591.4, 70393
1592.8, 70022
1594.1, 69814
1595.5, 69587
1596.9, 69277
1598.3, 69158
1599.7, 69055
1601.1, 68792
1602.5, 68873
1603.8, 68413
1605.2, 68112
1606.6, 68088
1608, 67870
1609.4, 67510
1610.8, 67260
1612.2, 66964
1613.6, 66717
1614.9, 66441
1616.3, 66121
1617.7, 65809
1619.1, 65562
1620.5, 65643
1621.9, 64943
1623.3, 64609
1624.6, 64651
1626, 64576
1627.4, 63905
1628.8, 63925
1630.2, 63243
1631.6, 62906
1633, 62904
1634.4, 62892
1635.7, 62769
1637.1, 62708
1638.5, 62616
1639.9, 62085
1641.3, 61531
1642.7, 61349
1644.1, 60942
1645.5, 60939
1646.8, 60395
1648.2, 60538
1649.6, 60611
1651, 60159
1652.4, 60094
1653.8, 60025
1655.2, 59919
1656.5, 59711
1657.9, 59536
1659.3, 59409
1660.7, 59074
1662.1, 58843
1663.5, 58655
1664.9, 58424
1666.3, 58325
1667.6, 58221
1669, 58036
1670.4, 57861
1671.8, 58102
1673.2, 57515
1674.6, 57484
1676, 57418
1677.3, 57123
1678.7, 56939
1680.1, 56894
1681.5, 56841
1682.9, 56695
1684.3, 56442
1685.7, 56321
1687.1, 56363
1688.4, 56252
1689.8, 56151
1691.2, 56460
1692.6, 56088
1694, 55828
1695.4, 55824
1696.8, 55761
1698.2, 55689
1699.5, 55882
1700.9, 55725
1702.3, 55529
1703.7, 55546
1705.1, 55569
1706.5, 55646
1707.9, 55380
1709.2, 55245
1710.6, 55186
1712, 55078
1713.4, 55164
1714.8, 54911
1716.2, 55192
1717.6, 55041
1719, 54968
1720.3, 54790
1721.7, 54657
1723.1, 54910
1724.5, 54702
1725.9, 54361
1727.3, 54519
1728.7, 54840
1730, 54899
1731.4, 54766
1732.8, 54651
1734.2, 54592
1735.6, 54783
1737, 54482
1738.4, 54623
1739.8, 54284
1741.1, 54828
1742.5, 54458
1743.9, 54746
1745.3, 54739
1746.7, 54671
1748.1, 54671
1749.5, 54677
1750.9, 54659
1752.2, 54533
1753.6, 54443
1755, 54606
1756.4, 54864
1757.8, 54981
1759.2, 54967
1760.6, 54815
1761.9, 54773
1763.3, 54824
1764.7, 54464
1766.1, 54980
1767.5, 54911
1768.9, 54704
1770.3, 54823
1771.7, 55037
1773, 54847
1774.4, 55033
1775.8, 55230
1777.2, 55251
1778.6, 55139
1780, 55056
1781.4, 55061
1782.8, 55050
1784.1, 55066
1785.5, 55114
1786.9, 55215
1788.3, 55505
1789.7, 55520
1791.1, 54941
1792.5, 55052
1793.8, 55422
1795.2, 55442
1796.6, 55342
1798, 55309
1799.4, 55346
1800.8, 55473
1802.2, 55537
1803.6, 55605
1804.9, 55653
1806.3, 55577
1807.7, 55515
1809.1, 55577
1810.5, 55680
1811.9, 55720
1813.3, 55649
1814.6, 55640
1816, 55855
1817.4, 55855
1818.8, 55977
1820.2, 55850
1821.6, 55412
1823, 55721
1824.4, 56146
1825.7, 55911
1827.1, 56059
1828.5, 55751
1829.9, 55775
1831.3, 55934
1832.7, 56044
1834.1, 56086
1835.5, 56131
1836.8, 56039
1838.2, 56040
1839.6, 56186
1841, 56199
1842.4, 56081
1843.8, 56064
1845.2, 56134
1846.5, 56243
1847.9, 56487
1849.3, 56512
1850.7, 56508
1852.1, 56334
1853.5, 56640
1854.9, 56211
1856.3, 56599
1857.6, 56622
1859, 56496
1860.4, 56522
1861.8, 56736
1863.2, 56434
1864.6, 56642
1866, 56586
1867.3, 56740
1868.7, 56621
1870.1, 56675
1871.5, 56833
1872.9, 56894
1874.3, 56953
1875.7, 56921
1877.1, 57003
1878.4, 57056
1879.8, 56719
1881.2, 56663
1882.6, 57001
1884, 57086
1885.4, 56556
1886.8, 56829
1888.2, 56927
1889.5, 57452
1890.9, 57228
1892.3, 57450
1893.7, 57393
1895.1, 57670
1896.5, 57453
1897.9, 57208
1899.2, 57314
1900.6, 57522
1902, 57505
1903.4, 57377
1904.8, 57277
1906.2, 57155
1907.6, 57351
1909, 57476
1910.3, 57805
1911.7, 57964
1913.1, 58109
1914.5, 58078
1915.9, 57800
1917.3, 57827
1918.7, 57927
1920, 57944
1921.4, 57974
1922.8, 58004
1924.2, 57910
1925.6, 58197
1927, 58159
1928.4, 58091
1929.8, 58393
1931.1, 58265
1932.5, 57955
1933.9, 58793
1935.3, 58384
1936.7, 58347
1938.1, 58224
1939.5, 58182
1940.9, 58632
1942.2, 58260
1943.6, 58603
1945, 58534
1946.4, 58405
1947.8, 58632
1949.2, 58702
1950.6, 58771
1951.9, 58906
1953.3, 58757
1954.7, 58834
1956.1, 59086
1957.5, 58949
1958.9, 58811
1960.3, 59011
1961.7, 59034
1963, 58855
1964.4, 59008
1965.8, 59116
1967.2, 59035
1968.6, 59322
1970, 59124
1971.4, 59052
1972.8, 59304
1974.1, 59079
1975.5, 59279
1976.9, 59194
1978.3, 59189
1979.7, 59380
1981.1, 59254
1982.5, 58936
1983.8, 59654
1985.2, 58930
1986.6, 59530
1988, 59581
1989.4, 59652
1990.8, 59614
1992.2, 59708
1993.6, 59392
1994.9, 59842
1996.3, 59900
1997.7, 59710
1999.1, 59727
2000.5, 59854
2001.9, 59727
2003.3, 59876
2004.6, 59778
2006, 59830
2007.4, 59754
2008.8, 59713
2010.2, 59988
2011.6, 59645
2013, 59875
2014.4, 60169
2015.7, 59965
2017.1, 59798
2018.5, 59846
2019.9, 60024
2021.3, 59974
