##NAMES=Talc
##RRUFFID=R050087
##IDEAL CHEMISTRY=Mg_3_Si_4_O_10_(OH)_2_
##LOCALITY=St. Lawrence County, New York, USA
##OWNER=RRUFF
##SOURCE=University of Arizona Mineral Museum
##DESCRIPTION=An aggregate of colorless foliated coarse single crystals
##STATUS=The identification of this mineral has been confirmed by X-ray diffraction and chemical analysis
##URL=rruff.info/R050087
##MEASURED CHEMISTRY=(Mg_.998_Fe_.002_)_3_(Si_.997_Al_.003_)_4_O_10_(OH_.966_F_.034_)_2_
##PIN_ID=M00418
##ORIENTATION=Laser parallel to (1 0 1). Fiducial mark perpendicular to laser is parallel to b [0 1 0]
93.48000, 7360.000
94.71400, 7851.000
95.94800, 8199.954
97.18200, 8859.000
98.41600, 8959.000
99.64900, 9213.000
100.8830, 9658.000
102.1160, 10186.00
103.3490, 10557.00
104.5820, 10733.00
105.8150, 11058.00
107.0470, 11733.00
108.2800, 12356.00
109.5120, 12487.00
110.7440, 11981.00
111.9760, 11758.00
113.2080, 11859.00
114.4400, 11615.00
115.6710, 11224.00
116.9030, 10716.00
118.1340, 9985.000
119.3650, 9856.000
120.5960, 9360.000
121.8270, 8959.000
123.0580, 8697.000
124.2880, 8591.000
125.5190, 8641.000
126.7490, 8463.000
127.9790, 8552.000
129.2090, 8542.000
130.4390, 8548.000
131.6680, 8575.000
132.8980, 8569.397
134.1270, 8673.000
135.3560, 8594.000
136.5850, 8563.000
137.8140, 8599.000
139.0430, 8684.000
140.2710, 8663.000
141.5000, 8739.000
142.7280, 8736.000
143.9560, 8769.753
145.1840, 8739.000
146.4120, 8813.000
147.6390, 8853.000
148.8670, 8833.000
150.0940, 8885.000
151.3210, 8874.000
152.5490, 8898.000
153.7750, 8987.000
155.0020, 9020.000
156.2290, 8912.000
157.4550, 9044.000
158.6810, 8922.000
159.9080, 9087.000
161.1340, 9085.000
162.3590, 9128.000
163.5850, 9209.000
164.8110, 9252.000
166.0360, 9312.000
167.2610, 9258.000
168.4860, 9317.000
169.7110, 9336.000
170.9360, 9501.000
172.1610, 9523.000
173.3850, 9637.000
174.6100, 9624.000
175.8340, 9835.000
177.0580, 9912.000
178.2820, 10230.00
179.5050, 10689.00
180.7290, 11672.00
181.9520, 12916.00
183.1760, 16651.00
184.3990, 23444.00
185.6220, 32229.00
186.8450, 37670.00
188.0670, 35167.00
189.2900, 34531.00
190.5120, 41383.00
191.7340, 47555.00
192.9560, 50689.00
194.1780, 52901.00
195.4000, 54082.00
196.6220, 51504.00
197.8430, 43083.00
199.0640, 31629.00
200.2860, 22021.00
201.5070, 15781.00
202.7270, 13053.00
203.9480, 11777.00
205.1690, 10984.00
206.3890, 10639.00
207.6090, 10321.00
208.8290, 10214.00
210.0490, 10092.00
211.2690, 10030.00
212.4890, 10022.00
213.7080, 9883.000
214.9280, 9923.000
216.1470, 9905.000
217.3660, 9838.000
218.5850, 9909.000
219.8030, 9977.000
221.0220, 9933.000
222.2400, 10064.00
223.4590, 9927.000
224.6770, 9935.000
225.8950, 10052.00
227.1120, 10084.00
228.3300, 10086.00
229.5480, 10143.00
230.7650, 10107.25
231.9820, 10184.00
233.1990, 10068.00
234.4160, 9937.000
235.6330, 9954.000
236.8490, 10016.00
238.0660, 9830.000
239.2820, 9950.000
240.4980, 9932.000
241.7140, 10007.00
242.9300, 9945.000
244.1460, 9904.000
245.3610, 9902.000
246.5770, 9901.158
247.7920, 10012.00
249.0070, 9959.000
250.2220, 10058.00
251.4370, 10107.00
252.6510, 10101.00
253.8660, 10196.00
255.0800, 10178.04
256.2940, 10102.00
257.5080, 10173.00
258.7220, 10190.00
259.9360, 10180.00
261.1490, 10191.00
262.3630, 10244.00
263.5760, 10128.00
264.7890, 10182.00
266.0020, 10113.00
267.2150, 10210.00
268.4270, 10126.00
269.6400, 10242.00
270.8520, 10279.00
272.0640, 10269.00
273.2760, 10386.00
274.4880, 10221.00
275.7000, 10423.00
276.9120, 10460.00
278.1230, 10662.00
279.3340, 10760.00
280.5450, 11116.00
281.7560, 11381.00
282.9670, 11479.00
284.1780, 11494.00
285.3880, 11557.00
286.5980, 11748.00
287.8090, 11880.00
289.0190, 11899.00
290.2290, 11872.50
291.4380, 11797.00
292.6480, 11655.00
293.8570, 11426.00
295.0670, 11304.00
296.2760, 10923.00
297.4850, 10789.00
298.6930, 10685.00
299.9020, 10737.00
301.1110, 10725.00
302.3190, 10661.00
303.5270, 10732.00
304.7350, 10643.00
305.9430, 10756.00
307.1510, 10668.00
308.3580, 10692.00
309.5660, 10593.00
310.7730, 10721.00
311.9800, 10706.00
313.1870, 10753.00
314.3940, 10675.00
315.6010, 10777.00
316.8070, 10691.00
318.0130, 10751.00
319.2200, 10755.00
320.4260, 10737.00
321.6310, 10798.92
322.8370, 10877.00
324.0430, 10877.00
325.2480, 10938.00
326.4540, 10964.00
327.6590, 11027.00
328.8640, 11004.00
330.0680, 11124.00
331.2730, 11113.00
332.4780, 11097.00
333.6820, 11178.00
334.8860, 11218.00
336.0900, 11349.00
337.2940, 11310.00
338.4980, 11397.00
339.7010, 11423.00
340.9050, 11474.00
342.1080, 11574.00
343.3110, 11699.00
344.5140, 11838.21
345.7170, 11964.00
346.9200, 12180.00
348.1220, 12471.00
349.3240, 12657.00
350.5270, 13290.00
351.7290, 13736.00
352.9310, 14514.00
354.1320, 15216.00
355.3340, 15752.00
356.5350, 16083.00
357.7370, 16493.00
358.9380, 16759.00
360.1390, 17037.00
361.3400, 17002.00
362.5400, 16877.00
363.7410, 16372.00
364.9410, 15626.00
366.1410, 15074.00
367.3410, 14266.00
368.5410, 13787.00
369.7410, 13096.00
370.9400, 12780.00
372.1400, 12299.00
373.3390, 12287.00
374.5380, 12071.00
375.7370, 11941.00
376.9360, 11915.00
378.1350, 11897.00
379.3330, 11938.00
380.5310, 11903.00
381.7300, 11780.00
382.9280, 11765.00
384.1260, 11729.00
385.3230, 11598.00
386.5210, 11613.00
387.7180, 11475.00
388.9160, 11688.00
390.1130, 11658.00
391.3100, 11733.00
392.5060, 11579.00
393.7030, 11458.00
394.9000, 11672.00
396.0960, 11557.00
397.2920, 11673.00
398.4880, 11521.00
399.6840, 11544.00
400.8800, 11618.00
402.0750, 11597.00
403.2710, 11428.00
404.4660, 11588.00
405.6610, 11591.00
406.8560, 11908.00
408.0510, 11645.00
409.2450, 11750.00
410.4400, 11701.00
411.6340, 11670.00
412.8280, 11741.00
414.0220, 11706.00
415.2160, 11687.00
416.4100, 11815.00
417.6030, 11817.00
418.7970, 11818.00
419.9900, 11898.12
421.1830, 11945.62
422.3760, 12057.00
423.5690, 12121.00
424.7610, 12338.00
425.9540, 12460.00
427.1460, 12521.00
428.3380, 12497.00
429.5300, 12610.00
430.7220, 12623.00
431.9140, 12531.00
433.1050, 12519.53
434.2970, 12559.00
435.4880, 12371.00
436.6790, 12294.00
437.8700, 12274.00
439.0610, 12230.00
440.2510, 12210.42
441.4420, 12198.14
442.6320, 12216.00
443.8220, 12183.00
445.0120, 12236.00
446.2020, 12232.00
447.3910, 12305.00
448.5810, 12295.13
449.7700, 12325.12
450.9600, 12305.00
452.1490, 12365.00
453.3370, 12401.00
454.5260, 12424.00
455.7150, 12420.00
456.9030, 12525.00
458.0910, 12596.00
459.2800, 12722.00
460.4670, 12836.85
461.6550, 13000.00
462.8430, 13065.00
464.0300, 13167.00
465.2180, 13213.00
466.4050, 13393.00
467.5920, 13542.00
468.7790, 13386.00
469.9650, 13278.00
471.1520, 13301.00
472.3380, 12961.00
473.5250, 12791.00
474.7110, 12545.00
475.8970, 12571.00
477.0820, 12563.00
478.2680, 12465.00
479.4540, 12392.00
480.6390, 12466.00
481.8240, 12434.00
483.0090, 12441.00
484.1940, 12502.00
485.3780, 12458.00
486.5630, 12474.00
487.7470, 12539.00
488.9320, 12525.79
490.1160, 12402.00
491.3000, 12600.00
492.4830, 12561.00
493.6670, 12661.00
494.8500, 12466.00
496.0340, 12589.00
497.2170, 12671.00
498.4000, 12490.00
499.5820, 12698.00
500.7650, 12543.00
501.9480, 12672.00
503.1300, 12679.00
504.3120, 12810.00
505.4940, 12673.00
506.6760, 12667.00
507.8580, 12696.00
509.0390, 12772.00
510.2210, 12777.00
511.4020, 12758.00
512.5830, 12899.00
513.7640, 12800.00
514.9450, 12750.00
516.1250, 12842.00
517.3060, 12744.00
518.4860, 12762.00
519.6660, 12767.26
520.8460, 12720.00
522.0260, 12761.00
523.2060, 12873.00
524.3850, 12875.00
525.5650, 12891.00
526.7440, 12876.00
527.9230, 12984.00
529.1020, 13034.00
530.2810, 12905.00
531.4590, 12851.00
532.6380, 12980.00
533.8160, 12777.00
534.9940, 12951.00
536.1720, 13049.00
537.3500, 13036.00
538.5270, 13078.00
539.7050, 13012.00
540.8820, 13043.90
542.0590, 13036.00
543.2360, 13061.00
544.4130, 13062.00
545.5900, 13068.00
546.7660, 13017.00
547.9430, 13147.00
549.1190, 13063.00
550.2950, 12991.00
551.4710, 13238.00
552.6470, 13098.00
553.8220, 13192.00
554.9980, 13011.00
556.1730, 13090.00
557.3480, 13159.00
558.5230, 13331.00
559.6980, 13257.00
560.8730, 13131.00
562.0470, 13155.00
563.2220, 13137.00
564.3960, 13353.00
565.5700, 13252.00
566.7440, 13341.00
567.9170, 13393.00
569.0910, 13418.00
570.2640, 13311.00
571.4380, 13389.00
572.6110, 13477.00
573.7840, 13301.00
574.9570, 13321.00
576.1290, 13354.00
577.3020, 13345.00
578.4740, 13325.00
579.6460, 13459.00
580.8180, 13516.00
581.9900, 13423.00
583.1620, 13543.00
584.3330, 13390.00
585.5040, 13549.00
586.6760, 13496.00
587.8470, 13562.00
589.0180, 13531.00
590.1880, 13661.00
591.3590, 13604.00
592.5290, 13580.00
593.7000, 13690.00
594.8700, 13663.00
596.0400, 13753.00
597.2090, 13618.00
598.3790, 13537.00
599.5490, 13660.00
600.7180, 13683.00
601.8870, 13720.00
603.0560, 13824.00
604.2250, 13793.00
605.3940, 13848.00
606.5620, 13731.00
607.7300, 13934.00
608.8990, 13839.00
610.0670, 13946.00
611.2350, 13847.00
612.4020, 13906.00
613.5700, 14009.00
614.7370, 13838.00
615.9050, 13983.00
617.0720, 13906.00
618.2390, 14033.00
619.4060, 14114.00
620.5720, 14009.00
621.7390, 14019.00
622.9050, 14118.00
624.0710, 14179.00
625.2370, 14204.81
626.4030, 14165.00
627.5690, 14301.00
628.7340, 14282.00
629.9000, 14394.00
631.0650, 14280.00
632.2300, 14438.00
633.3950, 14230.00
634.5600, 14326.00
635.7240, 14396.00
636.8890, 14459.00
638.0530, 14407.00
639.2170, 14549.00
640.3810, 14505.00
641.5450, 14513.00
642.7080, 14620.00
643.8720, 14679.00
645.0350, 14817.00
646.1980, 14740.00
647.3610, 14876.00
648.5240, 15014.00
649.6870, 14992.00
650.8490, 15178.00
652.0120, 15235.00
653.1740, 15469.00
654.3360, 15749.00
655.4980, 15922.00
656.6600, 15985.00
657.8210, 16234.00
658.9830, 16478.00
660.1440, 16869.00
661.3050, 17456.00
662.4660, 18027.00
663.6270, 18984.00
664.7870, 20233.00
665.9480, 21318.00
667.1080, 23373.00
668.2680, 25137.00
669.4280, 27027.00
670.5880, 29207.00
671.7480, 30980.00
672.9070, 32424.00
674.0670, 33649.00
675.2260, 34424.00
676.3850, 34234.00
677.5440, 33669.00
678.7030, 32087.00
679.8610, 30049.00
681.0200, 27817.00
682.1780, 25427.00
683.3360, 23237.00
684.4940, 21560.00
685.6520, 20287.00
686.8090, 19367.00
687.9670, 18641.00
689.1240, 17811.00
690.2810, 17378.00
691.4380, 16912.00
692.5950, 16454.00
693.7520, 16235.00
694.9080, 15919.00
696.0650, 15900.00
697.2210, 15667.00
698.3770, 15689.00
699.5330, 15532.00
700.6880, 15457.00
701.8440, 15429.00
702.9990, 15345.24
704.1550, 15316.28
705.3100, 15259.00
706.4650, 15253.00
707.6190, 15200.00
708.7740, 15177.00
709.9290, 15118.00
711.0830, 15131.74
712.2370, 15133.00
713.3910, 15167.00
714.5450, 15104.00
715.6980, 15126.00
716.8520, 15119.73
718.0050, 14993.00
719.1580, 15101.00
720.3110, 15061.00
721.4640, 15008.00
722.6170, 15118.00
723.7700, 14948.00
724.9220, 14984.00
726.0740, 15039.00
727.2260, 15092.00
728.3780, 15014.00
729.5300, 15009.00
730.6810, 15029.00
731.8330, 15246.00
732.9840, 15326.00
734.1350, 15208.00
735.2860, 15119.00
736.4370, 15234.00
737.5880, 15263.00
738.7380, 15156.00
739.8880, 15104.00
741.0390, 15080.00
742.1890, 15184.00
743.3380, 15278.00
744.4880, 15273.00
745.6380, 15408.00
746.7870, 15296.00
747.9360, 15215.00
749.0850, 15144.00
750.2340, 15255.00
751.3830, 15153.00
752.5310, 15408.00
753.6800, 15379.00
754.8280, 15394.69
755.9760, 15345.00
757.1240, 15376.00
758.2720, 15404.00
759.4190, 15360.00
760.5670, 15310.00
761.7140, 15418.00
762.8610, 15343.00
764.0080, 15463.00
765.1550, 15381.00
766.3020, 15382.00
767.4480, 15481.00
768.5950, 15308.00
769.7410, 15455.00
770.8870, 15484.00
772.0330, 15464.00
773.1780, 15498.00
774.3240, 15547.00
775.4690, 15605.00
776.6140, 15600.00
777.7590, 15619.00
778.9040, 15666.86
780.0490, 15732.00
781.1940, 15737.00
782.3380, 15749.00
783.4820, 15749.91
784.6260, 15797.00
785.7700, 15807.00
786.9140, 15762.00
788.0580, 15861.00
789.2010, 15721.00
790.3450, 15731.00
791.4880, 15854.00
792.6310, 15875.00
793.7730, 15797.00
794.9160, 15837.00
796.0590, 15752.00
797.2010, 15720.00
798.3430, 15799.00
799.4850, 15871.00
800.6270, 15689.00
801.7690, 15831.00
802.9100, 15820.00
804.0520, 15812.00
805.1930, 15868.00
806.3340, 15726.00
807.4750, 15892.00
808.6160, 15935.00
809.7560, 15828.00
810.8970, 15994.00
812.0370, 15761.00
813.1770, 15885.00
814.3170, 16033.00
815.4570, 15987.00
816.5960, 15947.00
817.7360, 15891.00
818.8750, 16057.00
820.0140, 15923.00
821.1530, 16020.00
822.2920, 15867.00
823.4310, 16154.00
824.5690, 15977.00
825.7070, 15998.00
826.8460, 16078.00
827.9840, 16076.00
829.1220, 16101.00
830.2590, 16113.20
831.3970, 16149.00
832.5340, 16088.00
833.6710, 16052.00
834.8080, 15997.00
835.9450, 16134.00
837.0820, 16070.00
838.2190, 16234.00
839.3550, 16213.00
840.4910, 16232.00
841.6270, 16242.00
842.7630, 16191.00
843.8990, 16144.00
845.0350, 16186.00
846.1700, 16260.00
847.3060, 16303.00
848.4410, 16297.00
849.5760, 16510.00
850.7100, 16373.00
851.8450, 16419.00
852.9800, 16341.00
854.1140, 16482.00
855.2480, 16356.00
856.3820, 16534.00
857.5160, 16427.00
858.6500, 16588.00
859.7830, 16373.00
860.9170, 16497.00
862.0500, 16620.00
863.1830, 16587.00
864.3160, 16557.00
865.4480, 16577.66
866.5810, 16514.00
867.7130, 16514.00
868.8460, 16524.00
869.9780, 16459.00
871.1100, 16577.00
872.2410, 16523.00
873.3730, 16511.00
874.5050, 16515.00
875.6360, 16499.63
876.7670, 16526.00
877.8980, 16586.00
879.0290, 16514.00
880.1590, 16718.00
881.2900, 16668.00
882.4200, 16774.00
883.5500, 16663.00
884.6800, 16703.00
885.8100, 16578.00
886.9400, 16629.00
888.0690, 16551.00
889.1990, 16659.00
890.3280, 16811.00
891.4570, 16786.00
892.5860, 16686.00
893.7140, 16602.00
894.8430, 16762.00
895.9710, 16929.00
897.1000, 16738.00
898.2280, 16908.00
899.3560, 16678.00
900.4830, 16839.00
901.6110, 16857.00
902.7380, 16807.00
903.8660, 16685.00
904.9930, 16812.00
906.1200, 16861.00
907.2460, 16747.00
908.3730, 16965.00
909.5000, 16990.00
910.6260, 16871.00
911.7520, 16824.00
912.8780, 16968.00
914.0040, 16822.00
915.1290, 16986.00
916.2550, 16983.00
917.3800, 17007.00
918.5050, 16814.00
919.6300, 17053.00
920.7550, 16910.00
921.8800, 16993.00
923.0040, 16989.00
924.1290, 17060.00
925.2530, 17210.00
926.3770, 17155.00
927.5010, 17136.00
928.6250, 17193.13
929.7480, 17043.00
930.8720, 17195.00
931.9950, 17187.00
933.1180, 17120.00
934.2410, 17204.00
935.3640, 17146.96
936.4860, 17167.00
937.6090, 17127.00
938.7310, 17166.00
939.8530, 17202.00
940.9750, 17189.00
942.0970, 17247.00
943.2180, 17179.00
944.3400, 17180.00
945.4610, 17214.00
946.5820, 17203.00
947.7030, 17369.00
948.8240, 17291.00
949.9450, 17296.00
951.0650, 17151.00
952.1860, 17412.00
953.3060, 17314.00
954.4260, 17441.00
955.5460, 17254.00
956.6650, 17203.00
957.7850, 17346.00
958.9040, 17346.00
960.0230, 17390.00
961.1420, 17485.00
962.2610, 17386.00
963.3800, 17416.00
964.4990, 17441.00
965.6170, 17341.00
966.7350, 17323.00
967.8530, 17299.81
968.9710, 17436.00
970.0890, 17304.00
971.2070, 17395.00
972.3240, 17522.00
973.4410, 17480.00
974.5580, 17459.00
975.6750, 17444.00
976.7920, 17454.75
977.9090, 17698.00
979.0250, 17515.00
980.1410, 17606.00
981.2580, 17668.00
982.3740, 17574.00
983.4890, 17712.00
984.6050, 17767.00
985.7200, 17757.00
986.8360, 17696.00
987.9510, 17666.00
989.0660, 17698.78
990.1810, 17708.00
991.2950, 17740.00
992.4100, 17752.00
993.5240, 17691.00
994.6390, 17499.00
995.7530, 17881.00
996.8660, 17693.00
997.9800, 17854.00
999.0940, 17938.00
1000.207, 17778.00
1001.320, 18049.00
1002.433, 17983.00
1003.546, 18047.00
1004.659, 18113.00
1005.772, 18203.00
1006.884, 18110.00
1007.996, 18143.00
1009.108, 18238.00
1010.220, 18147.00
1011.332, 18512.00
1012.444, 18340.00
1013.555, 18643.00
1014.666, 18725.00
1015.777, 18692.00
1016.888, 18910.00
1017.999, 18906.00
1019.110, 18838.00
1020.220, 18845.00
1021.331, 18743.00
1022.441, 18625.00
1023.551, 18551.00
1024.661, 18373.00
1025.770, 18521.00
1026.880, 18297.00
1027.989, 18361.00
1029.098, 18292.00
1030.207, 18459.00
1031.316, 18338.00
1032.425, 18326.00
1033.533, 18396.00
1034.642, 18387.00
1035.750, 18527.00
1036.858, 18691.00
1037.966, 18678.00
1039.073, 18936.00
1040.181, 19044.00
1041.288, 19310.00
1042.396, 19506.00
1043.503, 20193.00
1044.610, 20727.00
1045.716, 21582.00
1046.823, 22493.00
1047.929, 23524.00
1049.036, 23684.00
1050.142, 24374.00
1051.248, 24542.00
1052.353, 24221.00
1053.459, 23540.00
1054.564, 22376.00
1055.670, 21618.00
1056.775, 20989.00
1057.880, 20096.00
1058.985, 19895.00
1060.089, 19391.00
1061.194, 19230.00
1062.298, 19094.00
1063.402, 18945.00
1064.506, 18851.00
1065.610, 18810.00
1066.713, 18854.00
1067.817, 18797.00
1068.920, 18784.00
1070.023, 18752.46
1071.126, 18677.00
1072.229, 18665.00
1073.332, 18647.37
1074.435, 18704.00
1075.537, 18662.00
1076.639, 18690.60
1077.741, 18738.00
1078.843, 18716.00
1079.945, 18724.00
1081.046, 18795.00
1082.148, 18780.42
1083.249, 18807.00
1084.350, 18780.00
1085.451, 18762.00
1086.551, 18762.14
1087.652, 18746.00
1088.752, 18726.00
1089.853, 18722.00
1090.953, 18674.00
1092.053, 18656.00
1093.152, 18720.00
1094.252, 18771.00
1095.351, 18828.00
1096.451, 18861.00
1097.550, 18905.00
1098.649, 18699.00
1099.748, 18650.00
1100.846, 18673.00
1101.945, 18925.00
1103.043, 18842.00
1104.141, 18841.00
1105.239, 18793.00
1106.337, 18822.00
1107.434, 18834.88
1108.532, 18849.00
1109.629, 18929.00
1110.726, 18850.00
1111.823, 18946.00
1112.920, 18963.00
1114.017, 18776.00
1115.113, 19056.00
1116.210, 18936.00
1117.306, 18767.00
1118.402, 18949.00
1119.498, 19156.00
1120.593, 19201.00
1121.689, 18934.00
1122.784, 19135.00
1123.879, 19179.00
1124.974, 19076.00
1126.069, 19310.00
1127.164, 18970.00
1128.259, 19014.00
1129.353, 19306.00
1130.447, 19190.00
1131.541, 19022.00
1132.635, 19202.00
1133.729, 18893.00
1134.822, 19156.00
1135.916, 19125.00
1137.009, 18953.00
1138.102, 19020.00
1139.195, 19088.00
1140.288, 19094.00
1141.380, 19164.00
1142.473, 19254.00
1143.565, 19170.00
1144.657, 19163.00
1145.749, 19274.00
1146.841, 19294.00
1147.932, 19234.00
1149.024, 19210.00
1150.115, 19324.00
1151.206, 19246.00
1152.297, 19206.00
1153.388, 19394.00
1154.479, 19340.00
1155.569, 19108.00
1156.659, 19222.00
1157.750, 19379.00
1158.839, 19200.00
1159.929, 19293.00
1161.019, 19394.00
1162.108, 19233.00
1163.198, 19389.00
1164.287, 19318.00
1165.376, 19379.00
1166.465, 19456.00
1167.553, 19580.00
1168.642, 19430.00
1169.730, 19360.00
1170.818, 19633.00
1171.906, 19360.00
1172.994, 19461.00
1174.082, 19328.00
1175.170, 19512.00
1176.257, 19395.00
1177.344, 19539.00
1178.431, 19434.00
1179.518, 19538.00
1180.605, 19496.00
1181.691, 19470.00
1182.778, 19450.00
1183.864, 19443.00
1184.950, 19503.00
1186.036, 19602.00
1187.122, 19620.00
1188.207, 19610.00
1189.292, 19506.00
1190.378, 19458.00
1191.463, 19604.00
1192.548, 19677.00
1193.632, 19652.00
1194.717, 19558.00
1195.801, 19538.00
1196.886, 19672.00
1197.970, 19564.00
1199.054, 19627.16
1200.137, 19551.00
1201.221, 19651.00
1202.305, 19637.00
1203.388, 19629.00
1204.471, 19651.08
1205.554, 19655.73
1206.637, 19630.00
1207.719, 19687.00
1208.802, 19676.00
1209.884, 19673.00
1210.966, 19707.00
1212.048, 19698.00
1213.130, 19708.55
1214.212, 19758.12
1215.293, 19739.00
1216.374, 19847.00
1217.456, 19919.00
1218.536, 19942.00
1219.617, 19859.00
1220.698, 19717.00
1221.778, 19801.00
1222.859, 19935.00
1223.939, 19743.00
1225.019, 19978.00
1226.099, 19926.00
1227.178, 19975.00
1228.258, 19745.00
1229.337, 20033.00
1230.417, 19844.00
1231.496, 19923.00
1232.574, 20113.00
1233.653, 19985.00
1234.732, 19991.00
1235.810, 19980.00
1236.888, 19939.00
1237.966, 20164.00
1239.044, 20258.00
1240.122, 20076.00
1241.199, 20124.00
1242.277, 20030.00
1243.354, 19990.32
1244.431, 20024.00
1245.508, 19992.00
1246.585, 20125.00
1247.661, 20257.00
1248.738, 19916.00
1249.814, 20231.00
1250.890, 20288.00
1251.966, 20130.00
1253.042, 20391.00
1254.117, 20082.00
1255.193, 20213.00
1256.268, 20266.00
1257.343, 20303.00
1258.418, 20338.55
1259.493, 20254.00
1260.567, 20334.00
1261.642, 20349.00
1262.716, 20332.00
1263.790, 20473.00
1264.864, 20207.00
1265.938, 20070.00
1267.011, 20354.00
1268.085, 20260.00
1269.158, 20092.00
1270.231, 20351.00
1271.304, 20169.00
