##NAMES=Talc
##RRUFFID=R050087
##IDEAL CHEMISTRY=Mg_3_Si_4_O_10_(OH)_2_
##LOCALITY=St. Lawrence County, New York, USA
##OWNER=RRUFF
##SOURCE=University of Arizona Mineral Museum
##DESCRIPTION=An aggregate of colorless foliated coarse single crystals
##STATUS=The identification of this mineral has been confirmed by X-ray diffraction and chemical analysis
##URL=rruff.info/R050087
##MEASURED CHEMISTRY=(Mg_.998_Fe_.002_)_3_(Si_.997_Al_.003_)_4_O_10_(OH_.966_F_.034_)_2_
##PIN_ID=M00333
##ORIENTATION=Laser parallel to c* (0 0 1). Fiducial mark perpendicular to laser is parallel to a [1 0 0]
95.94800, 20924.00
97.18200, 21661.00
98.41600, 21969.00
99.64900, 22471.00
100.8830, 23531.00
102.1160, 24274.00
103.3490, 25340.00
104.5820, 25949.00
105.8150, 26149.00
107.0470, 26817.00
108.2800, 27273.00
109.5120, 27443.00
110.7440, 26794.00
111.9760, 26109.00
113.2080, 25664.00
114.4400, 25732.00
115.6710, 25326.00
116.9030, 25014.00
118.1340, 24217.00
119.3650, 23918.00
120.5960, 23163.00
121.8270, 22470.00
123.0580, 22189.00
124.2880, 22024.00
125.5190, 21917.00
126.7490, 21906.00
127.9790, 22093.00
129.2090, 22080.00
130.4390, 22067.00
131.6680, 22361.00
132.8980, 22224.00
134.1270, 22228.00
135.3560, 22340.00
136.5850, 22373.00
137.8140, 22304.00
139.0430, 22583.00
140.2710, 22622.00
141.5000, 22267.00
142.7280, 22508.00
143.9560, 22400.00
145.1840, 22423.00
146.4120, 22688.00
147.6390, 22716.00
148.8670, 22912.00
150.0940, 22717.00
151.3210, 22742.00
152.5490, 23075.00
153.7750, 23260.00
155.0020, 22893.00
156.2290, 22897.00
157.4550, 23055.00
158.6810, 23164.00
159.9080, 22994.00
161.1340, 22999.00
162.3590, 23248.00
163.5850, 23186.00
164.8110, 23344.00
166.0360, 23297.00
167.2610, 23444.00
168.4860, 23486.00
169.7110, 23328.00
170.9360, 23594.00
172.1610, 23732.00
173.3850, 23736.00
174.6100, 23686.00
175.8340, 23736.00
177.0580, 23812.00
178.2820, 24007.00
179.5050, 24167.00
180.7290, 24366.00
181.9520, 24775.00
183.1760, 25747.00
184.3990, 27339.00
185.6220, 29599.00
186.8450, 31552.00
188.0670, 30869.00
189.2900, 30215.00
190.5120, 31626.00
191.7340, 33190.00
192.9560, 34197.00
194.1780, 34864.00
195.4000, 34925.00
196.6220, 34436.00
197.8430, 32448.00
199.0640, 29976.00
200.2860, 27885.00
201.5070, 26473.00
202.7270, 25728.00
203.9480, 25345.00
205.1690, 24987.00
206.3890, 24686.00
207.6090, 24490.00
208.8290, 24361.46
210.0490, 24283.31
211.2690, 24336.00
212.4890, 24395.00
213.7080, 24546.00
214.9280, 24868.00
216.1470, 24589.00
217.3660, 24649.00
218.5850, 24377.00
219.8030, 24617.00
221.0220, 24862.00
222.2400, 24594.00
223.4590, 24666.00
224.6770, 24695.00
225.8950, 24835.00
227.1120, 24960.00
228.3300, 24663.00
229.5480, 24776.00
230.7650, 25078.00
231.9820, 24746.00
233.1990, 24788.00
234.4160, 24807.00
235.6330, 24791.00
236.8490, 24823.00
238.0660, 24856.00
239.2820, 24974.00
240.4980, 24886.00
241.7140, 24941.33
242.9300, 25030.00
244.1460, 24910.00
245.3610, 24965.00
246.5770, 24889.00
247.7920, 25044.00
249.0070, 25122.00
250.2220, 24931.00
251.4370, 24778.00
252.6510, 24791.00
253.8660, 25074.00
255.0800, 25201.00
256.2940, 25117.00
257.5080, 25073.00
258.7220, 25334.00
259.9360, 25520.00
261.1490, 25411.00
262.3630, 25285.00
263.5760, 25156.00
264.7890, 25343.00
266.0020, 25259.00
267.2150, 25278.00
268.4270, 25454.00
269.6400, 25313.00
270.8520, 25429.00
272.0640, 25534.00
273.2760, 25560.00
274.4880, 25460.00
275.7000, 25446.00
276.9120, 25724.00
278.1230, 25831.00
279.3340, 25973.00
280.5450, 26207.00
281.7560, 26345.97
282.9670, 26510.41
284.1780, 26716.00
285.3880, 26817.00
286.5980, 26998.00
287.8090, 27163.00
289.0190, 27140.00
290.2290, 27193.00
291.4380, 27217.00
292.6480, 27208.00
293.8570, 26985.00
295.0670, 26563.00
296.2760, 26495.00
297.4850, 26061.00
298.6930, 26197.00
299.9020, 26169.00
301.1110, 26358.00
302.3190, 26167.00
303.5270, 26180.00
304.7350, 26195.00
305.9430, 26057.00
307.1510, 26257.00
308.3580, 26099.00
309.5660, 26002.00
310.7730, 26416.00
311.9800, 26307.00
313.1870, 26165.00
314.3940, 26252.00
315.6010, 26080.00
316.8070, 26374.00
318.0130, 26301.00
319.2200, 26343.00
320.4260, 26610.00
321.6310, 26425.00
322.8370, 26961.00
324.0430, 26894.00
325.2480, 27064.00
326.4540, 27210.00
327.6590, 27225.00
328.8640, 27325.00
330.0680, 27421.00
331.2730, 27543.00
332.4780, 27565.00
333.6820, 27627.99
334.8860, 27727.00
336.0900, 27637.00
337.2940, 27589.00
338.4980, 27490.00
339.7010, 27529.00
340.9050, 27792.00
342.1080, 27783.00
343.3110, 27880.00
344.5140, 28281.00
345.7170, 28471.00
346.9200, 28554.00
348.1220, 29067.00
349.3240, 29735.00
350.5270, 30653.00
351.7290, 31740.00
352.9310, 33169.00
354.1320, 34625.00
355.3340, 35751.00
356.5350, 36819.00
357.7370, 37595.76
358.9380, 38182.50
360.1390, 38479.00
361.3400, 38730.00
362.5400, 38459.00
363.7410, 38141.00
364.9410, 37036.00
366.1410, 35356.00
367.3410, 33861.00
368.5410, 32448.00
369.7410, 31299.00
370.9400, 30474.48
372.1400, 29612.00
373.3390, 29386.00
374.5380, 29133.00
375.7370, 28966.00
376.9360, 28652.00
378.1350, 28858.00
379.3330, 28960.00
380.5310, 28560.00
381.7300, 28446.00
382.9280, 28541.00
384.1260, 28140.00
385.3230, 28282.00
386.5210, 28049.00
387.7180, 28121.00
388.9160, 27782.00
390.1130, 27954.00
391.3100, 27673.00
392.5060, 27769.00
393.7030, 27726.00
394.9000, 27578.00
396.0960, 27636.00
397.2920, 27594.38
398.4880, 27831.00
399.6840, 27706.00
400.8800, 27852.00
402.0750, 28102.00
403.2710, 27744.00
404.4660, 27839.00
405.6610, 27797.00
406.8560, 27876.00
408.0510, 27759.00
409.2450, 27955.00
410.4400, 28124.00
411.6340, 28129.00
412.8280, 27904.00
414.0220, 28456.00
415.2160, 28096.00
416.4100, 28270.00
417.6030, 28313.00
418.7970, 28334.00
419.9900, 28629.00
421.1830, 28427.00
422.3760, 28871.00
423.5690, 29452.00
424.7610, 29763.00
425.9540, 29913.00
427.1460, 30072.00
428.3380, 30392.00
429.5300, 30712.00
430.7220, 30739.00
431.9140, 31071.00
433.1050, 31085.00
434.2970, 30753.00
435.4880, 30452.00
436.6790, 30308.00
437.8700, 29764.00
439.0610, 29398.00
440.2510, 29188.00
441.4420, 29027.00
442.6320, 28999.00
443.8220, 29072.00
445.0120, 28961.00
446.2020, 29166.00
447.3910, 28993.00
448.5810, 29350.00
449.7700, 29074.00
450.9600, 29396.00
452.1490, 29401.00
453.3370, 29416.00
454.5260, 29207.00
455.7150, 29580.00
456.9030, 29672.00
458.0910, 29714.00
459.2800, 29968.00
460.4670, 29716.00
461.6550, 30039.00
462.8430, 30420.00
464.0300, 30253.00
465.2180, 30614.00
466.4050, 30721.00
467.5920, 30792.00
468.7790, 30729.00
469.9650, 30794.00
471.1520, 30414.00
472.3380, 30352.00
473.5250, 29998.00
474.7110, 29734.70
475.8970, 29662.00
477.0820, 29341.00
478.2680, 29387.00
479.4540, 29621.00
480.6390, 29375.00
481.8240, 29371.00
483.0090, 29303.00
484.1940, 29411.00
485.3780, 29467.00
486.5630, 29360.00
487.7470, 29581.00
488.9320, 29344.00
490.1160, 29438.00
491.3000, 29345.00
492.4830, 29770.00
493.6670, 29629.00
494.8500, 29720.00
496.0340, 29822.00
497.2170, 29867.00
498.4000, 29905.17
499.5820, 29658.00
500.7650, 29936.00
501.9480, 29947.00
503.1300, 29974.00
504.3120, 30195.00
505.4940, 30163.00
506.6760, 29986.00
507.8580, 30029.00
509.0390, 30055.00
510.2210, 30283.00
511.4020, 30340.00
512.5830, 30066.00
513.7640, 30046.00
514.9450, 29964.00
516.1250, 29943.74
517.3060, 30456.00
518.4860, 30049.00
519.6660, 30238.00
520.8460, 30351.00
522.0260, 30134.00
523.2060, 30046.00
524.3850, 30340.00
525.5650, 30259.00
526.7440, 30251.00
527.9230, 30222.00
529.1020, 30348.00
530.2810, 30177.00
531.4590, 30288.00
532.6380, 30187.00
533.8160, 30237.00
534.9940, 30481.00
536.1720, 30466.00
537.3500, 30337.00
538.5270, 30218.00
539.7050, 30261.00
540.8820, 30301.00
542.0590, 30382.00
543.2360, 30497.00
544.4130, 30645.00
545.5900, 30701.52
546.7660, 30736.94
547.9430, 30772.00
549.1190, 30763.00
550.2950, 30752.68
551.4710, 30696.00
552.6470, 30709.00
553.8220, 30638.37
554.9980, 30658.92
556.1730, 30588.00
557.3480, 30581.00
558.5230, 30628.00
559.6980, 30543.00
560.8730, 30668.00
562.0470, 30689.00
563.2220, 30760.00
564.3960, 30834.00
565.5700, 30879.00
566.7440, 30812.00
567.9170, 30970.00
569.0910, 31001.00
570.2640, 30984.96
571.4380, 30727.00
572.6110, 30943.00
573.7840, 31061.00
574.9570, 31004.00
576.1290, 31254.00
577.3020, 31123.00
578.4740, 30845.00
579.6460, 31047.00
580.8180, 31105.00
581.9900, 31089.00
583.1620, 31098.00
584.3330, 31120.22
585.5040, 31153.00
586.6760, 31130.00
587.8470, 31154.05
589.0180, 31131.00
590.1880, 31198.00
591.3590, 31203.00
592.5290, 31230.00
593.7000, 31402.00
594.8700, 31438.00
596.0400, 31411.00
597.2090, 31342.00
598.3790, 31334.00
599.5490, 31478.00
600.7180, 31403.00
601.8870, 31479.00
603.0560, 31454.00
604.2250, 31608.00
605.3940, 31336.00
606.5620, 31497.00
607.7300, 31370.00
608.8990, 31645.00
610.0670, 31728.00
611.2350, 31532.00
612.4020, 31736.00
613.5700, 31701.00
614.7370, 31943.00
615.9050, 31746.00
617.0720, 31884.00
618.2390, 31988.00
619.4060, 31919.00
620.5720, 31956.00
621.7390, 31979.00
622.9050, 31891.00
624.0710, 32123.00
625.2370, 32321.00
626.4030, 32170.00
627.5690, 32376.00
628.7340, 32253.00
629.9000, 32378.00
631.0650, 32340.00
632.2300, 32241.00
633.3950, 32402.00
634.5600, 32438.00
635.7240, 32444.00
636.8890, 32528.00
638.0530, 32585.35
639.2170, 32594.00
640.3810, 32711.00
641.5450, 32858.00
642.7080, 32841.00
643.8720, 32892.89
645.0350, 33249.00
646.1980, 32911.00
647.3610, 32993.00
648.5240, 33095.00
649.6870, 33614.00
650.8490, 33708.00
652.0120, 33767.00
653.1740, 33744.00
654.3360, 34137.00
655.4980, 34304.00
656.6600, 34692.00
657.8210, 34691.00
658.9830, 35284.00
660.1440, 35726.00
661.3050, 36649.00
662.4660, 37434.00
663.6270, 38327.00
664.7870, 40208.00
665.9480, 41595.00
667.1080, 44245.00
668.2680, 46895.00
669.4280, 49615.00
670.5880, 52934.00
671.7480, 55507.00
672.9070, 57414.00
674.0670, 59253.00
675.2260, 60527.00
676.3850, 60492.00
677.5440, 59981.00
678.7030, 57779.00
679.8610, 55221.00
681.0200, 52071.00
682.1780, 48658.00
683.3360, 45599.00
684.4940, 43181.00
685.6520, 41202.00
686.8090, 39583.00
687.9670, 38479.00
689.1240, 37809.00
690.2810, 37255.00
691.4380, 36692.00
692.5950, 36164.00
693.7520, 35788.69
694.9080, 35437.00
696.0650, 35229.00
697.2210, 35023.00
698.3770, 34858.56
699.5330, 34956.00
700.6880, 34700.00
701.8440, 34667.00
702.9990, 34727.00
704.1550, 34617.00
705.3100, 34460.00
706.4650, 34274.00
707.6190, 34376.00
708.7740, 34283.00
709.9290, 34251.00
711.0830, 34227.10
712.2370, 34187.81
713.3910, 34173.00
714.5450, 34155.00
715.6980, 34262.00
716.8520, 34258.00
718.0050, 34008.00
719.1580, 34325.00
720.3110, 34522.00
721.4640, 34295.00
722.6170, 34064.00
723.7700, 34246.00
724.9220, 34305.00
726.0740, 34338.00
727.2260, 34514.00
728.3780, 34206.00
729.5300, 34198.00
730.6810, 34472.00
731.8330, 34262.00
732.9840, 34404.00
734.1350, 34369.00
735.2860, 34542.00
736.4370, 34645.00
737.5880, 34492.00
738.7380, 34683.00
739.8880, 34732.00
741.0390, 34560.00
742.1890, 34548.00
743.3380, 34508.00
744.4880, 34415.00
745.6380, 34456.00
746.7870, 34733.00
747.9360, 34726.00
749.0850, 34714.00
750.2340, 34781.00
751.3830, 34728.38
752.5310, 34920.00
753.6800, 34624.00
754.8280, 34741.00
755.9760, 34607.00
757.1240, 34785.00
758.2720, 34674.00
759.4190, 34740.00
760.5670, 35032.00
761.7140, 34840.00
762.8610, 34939.00
764.0080, 34882.00
765.1550, 34847.00
766.3020, 34894.19
767.4480, 34904.53
768.5950, 34947.00
769.7410, 35003.00
770.8870, 35075.00
772.0330, 35106.00
773.1780, 35229.00
774.3240, 35285.29
775.4690, 35500.00
776.6140, 35463.00
777.7590, 35634.00
778.9040, 35769.00
780.0490, 35831.00
781.1940, 36341.00
782.3380, 36333.00
783.4820, 36367.00
784.6260, 36734.00
785.7700, 36762.00
786.9140, 36647.00
788.0580, 36698.00
789.2010, 36659.00
790.3450, 36625.00
791.4880, 36419.00
792.6310, 36480.00
793.7730, 36353.00
794.9160, 36198.00
796.0590, 36167.00
797.2010, 36037.00
798.3430, 36162.00
799.4850, 35996.14
800.6270, 35738.00
801.7690, 35809.00
802.9100, 35551.00
804.0520, 35511.00
805.1930, 35729.00
806.3340, 35732.00
807.4750, 35716.00
808.6160, 35784.00
809.7560, 35747.00
810.8970, 35940.00
812.0370, 35861.00
813.1770, 35840.00
814.3170, 35590.00
815.4570, 35838.00
816.5960, 35845.00
817.7360, 36001.00
818.8750, 35827.00
820.0140, 35753.00
821.1530, 36060.00
822.2920, 35909.00
823.4310, 36091.00
824.5690, 36172.00
825.7070, 36072.00
826.8460, 36133.00
827.9840, 36049.00
829.1220, 36024.03
830.2590, 36179.00
831.3970, 35941.00
832.5340, 35935.00
833.6710, 35871.66
834.8080, 35960.00
835.9450, 35962.00
837.0820, 36012.00
838.2190, 36220.00
839.3550, 36371.00
840.4910, 36499.00
841.6270, 36205.00
842.7630, 36295.00
843.8990, 36244.00
845.0350, 36316.00
846.1700, 36443.00
847.3060, 36539.00
848.4410, 36224.00
849.5760, 36578.00
850.7100, 36481.00
851.8450, 36597.00
852.9800, 36682.00
854.1140, 36513.00
855.2480, 36527.00
856.3820, 36579.00
857.5160, 36683.00
858.6500, 36529.00
859.7830, 36825.00
860.9170, 36569.00
862.0500, 36598.00
863.1830, 36903.00
864.3160, 37064.00
865.4480, 36773.00
866.5810, 36866.00
867.7130, 37017.00
868.8460, 37020.00
869.9780, 37103.55
871.1100, 37138.00
872.2410, 37152.00
873.3730, 37188.65
874.5050, 37187.27
875.6360, 37211.00
876.7670, 37221.00
877.8980, 37224.00
879.0290, 37321.00
880.1590, 37190.00
881.2900, 37337.00
882.4200, 37318.32
883.5500, 37217.00
884.6800, 37318.00
885.8100, 37458.00
886.9400, 37371.00
888.0690, 37310.00
889.1990, 37376.00
890.3280, 37237.00
891.4570, 37356.00
892.5860, 37581.00
893.7140, 37558.00
894.8430, 37539.00
895.9710, 37376.00
897.1000, 37534.00
898.2280, 37541.00
899.3560, 37595.00
900.4830, 37562.00
901.6110, 37563.00
902.7380, 37655.00
903.8660, 37572.00
904.9930, 37931.00
906.1200, 37704.00
907.2460, 37867.00
908.3730, 37782.00
909.5000, 37801.00
910.6260, 37659.00
911.7520, 38032.00
912.8780, 37888.00
914.0040, 37879.00
915.1290, 37964.00
916.2550, 37811.00
917.3800, 38233.00
918.5050, 38504.00
919.6300, 38357.00
920.7550, 38022.00
921.8800, 37947.00
923.0040, 38102.00
924.1290, 38006.00
925.2530, 38271.00
926.3770, 38342.00
927.5010, 38082.00
928.6250, 38108.00
929.7480, 38230.00
930.8720, 38231.00
931.9950, 38167.00
933.1180, 38138.00
934.2410, 38201.00
935.3640, 38168.00
936.4860, 38238.30
937.6090, 38231.00
938.7310, 38399.00
939.8530, 38404.00
940.9750, 38539.00
942.0970, 38641.00
943.2180, 38364.00
944.3400, 38365.00
945.4610, 38448.00
946.5820, 38492.00
947.7030, 38481.00
948.8240, 38747.00
949.9450, 38921.00
951.0650, 38586.00
952.1860, 38646.00
953.3060, 38441.00
954.4260, 38932.00
955.5460, 38827.00
956.6650, 38791.00
957.7850, 38980.00
958.9040, 38933.00
960.0230, 39051.00
961.1420, 38978.00
962.2610, 39008.06
963.3800, 38995.00
964.4990, 39031.00
965.6170, 39051.00
966.7350, 39099.00
967.8530, 38962.00
968.9710, 39178.00
970.0890, 38955.00
971.2070, 39024.00
972.3240, 39007.00
973.4410, 39087.00
974.5580, 39188.00
975.6750, 39220.00
976.7920, 39247.08
977.9090, 39272.00
979.0250, 39257.00
980.1410, 39273.00
981.2580, 39304.00
982.3740, 39374.00
983.4890, 39267.00
984.6050, 39321.00
985.7200, 39254.00
986.8360, 39311.27
987.9510, 39497.00
989.0660, 39400.00
990.1810, 39607.00
991.2950, 39568.00
992.4100, 39347.00
993.5240, 39753.00
994.6390, 39652.00
995.7530, 39530.00
996.8660, 39603.00
997.9800, 39755.00
999.0940, 39635.00
1000.207, 39867.00
1001.320, 39632.00
1002.433, 39910.00
1003.546, 39708.00
1004.659, 39761.00
1005.772, 40129.00
1006.884, 40092.00
1007.996, 40165.00
1009.108, 39948.00
1010.220, 40242.00
1011.332, 40151.00
1012.444, 40090.00
1013.555, 40331.00
1014.666, 40573.00
1015.777, 40486.00
1016.888, 40593.00
1017.999, 40679.00
1019.110, 40681.69
1020.220, 40709.79
1021.331, 40751.00
1022.441, 40639.00
1023.551, 40610.00
1024.661, 40495.00
1025.770, 40589.00
1026.880, 40631.00
1027.989, 40565.87
1029.098, 40701.00
1030.207, 40483.00
1031.316, 40516.00
1032.425, 40452.00
1033.533, 40627.00
1034.642, 40548.00
1035.750, 40742.00
1036.858, 40555.00
1037.966, 40583.00
1039.073, 40757.00
1040.181, 40849.00
1041.288, 40629.00
1042.396, 40917.00
1043.503, 40901.00
1044.610, 41071.00
1045.716, 41260.00
1046.823, 41061.00
1047.929, 41500.00
1049.036, 41726.00
1050.142, 41844.00
1051.248, 41793.00
1052.353, 41812.00
1053.459, 41782.00
1054.564, 41648.00
1055.670, 41691.00
1056.775, 41492.00
1057.880, 41381.00
1058.985, 41241.00
1060.089, 41471.00
1061.194, 41376.00
1062.298, 41244.00
1063.402, 41383.00
1064.506, 41188.00
1065.610, 41462.00
1066.713, 41295.00
1067.817, 41216.00
1068.920, 41533.00
1070.023, 41209.00
1071.126, 41531.00
1072.229, 41641.00
1073.332, 41399.00
1074.435, 41439.00
1075.537, 41568.00
1076.639, 41627.00
1077.741, 41434.00
1078.843, 41554.00
1079.945, 41424.00
1081.046, 41389.00
1082.148, 41545.00
1083.249, 41660.00
1084.350, 41495.00
1085.451, 41720.00
1086.551, 41765.00
1087.652, 41729.00
1088.752, 41765.00
1089.853, 41802.00
1090.953, 41634.00
1092.053, 41833.00
1093.152, 41663.00
1094.252, 41764.00
1095.351, 41711.00
1096.451, 42045.00
1097.550, 41866.00
1098.649, 41944.00
1099.748, 42209.00
1100.846, 42183.00
1101.945, 42262.00
1103.043, 42288.00
1104.141, 42099.00
1105.239, 42220.00
1106.337, 41986.00
1107.434, 42209.00
1108.532, 42197.00
1109.629, 42076.00
1110.726, 42205.00
1111.823, 42197.00
1112.920, 42234.00
1114.017, 42294.00
1115.113, 42389.00
1116.210, 42350.00
1117.306, 42386.00
1118.402, 42522.00
1119.498, 42690.00
1120.593, 42635.00
1121.689, 43001.00
1122.784, 42751.00
1123.879, 42634.00
1124.974, 42830.00
1126.069, 42814.00
1127.164, 43045.00
1128.259, 42761.00
1129.353, 42675.00
1130.447, 42767.00
1131.541, 42605.00
1132.635, 42626.00
1133.729, 42485.00
1134.822, 42771.00
1135.916, 42633.00
1137.009, 42628.00
1138.102, 42768.00
1139.195, 42775.00
1140.288, 42980.00
1141.380, 42983.00
1142.473, 42798.00
1143.565, 43157.00
1144.657, 43166.00
1145.749, 42806.00
1146.841, 42714.00
1147.932, 42979.00
1149.024, 42897.00
1150.115, 42917.00
1151.206, 43029.00
1152.297, 42957.74
1153.388, 43317.00
1154.479, 42932.00
1155.569, 43093.00
1156.659, 43103.00
1157.750, 43468.00
1158.839, 43039.00
1159.929, 43257.00
1161.019, 43382.00
1162.108, 43356.00
1163.198, 43868.00
1164.287, 43356.00
1165.376, 43159.00
1166.465, 43441.00
1167.553, 43545.00
1168.642, 43250.00
1169.730, 43258.00
1170.818, 43274.00
1171.906, 43289.00
1172.994, 43579.00
1174.082, 43404.00
1175.170, 43505.00
1176.257, 43744.00
1177.344, 43578.00
1178.431, 43526.00
1179.518, 43610.00
1180.605, 43823.00
1181.691, 43589.00
1182.778, 44198.00
1183.864, 43582.00
1184.950, 44131.00
1186.036, 43729.00
1187.122, 43653.00
1188.207, 43585.00
1189.292, 43894.00
1190.378, 43959.00
1191.463, 43783.00
1192.548, 44347.00
1193.632, 44410.00
1194.717, 43867.00
1195.801, 44285.00
1196.886, 44014.00
1197.970, 44187.00
1199.054, 44078.00
1200.137, 44239.00
1201.221, 44128.00
1202.305, 44456.00
1203.388, 44080.00
1204.471, 44142.00
1205.554, 44313.00
1206.637, 44474.00
1207.719, 44253.00
1208.802, 44191.00
1209.884, 44514.00
1210.966, 44346.00
1212.048, 44310.00
1213.130, 44583.00
1214.212, 44451.00
1215.293, 44307.00
1216.374, 44611.00
1217.456, 44583.00
1218.536, 44366.00
1219.617, 44772.00
1220.698, 44517.00
1221.778, 44588.00
1222.859, 44728.00
1223.939, 44591.00
1225.019, 44869.00
1226.099, 44831.00
1227.178, 44660.00
1228.258, 45041.00
1229.337, 44733.00
1230.417, 44617.00
1231.496, 45233.00
1232.574, 45056.00
1233.653, 44862.00
1234.732, 44860.00
1235.810, 44880.00
1236.888, 45005.00
1237.966, 45063.00
1239.044, 44904.00
1240.122, 45110.00
1241.199, 45165.00
1242.277, 44880.00
1243.354, 44935.00
1244.431, 45237.00
1245.508, 45419.00
1246.585, 45473.75
1247.661, 45319.00
1248.738, 45511.00
1249.814, 45402.00
1250.890, 45223.00
1251.966, 45241.00
1253.042, 45356.00
1254.117, 45619.00
1255.193, 45415.00
1256.268, 45543.00
1257.343, 45644.00
1258.418, 45518.00
1259.493, 45735.00
1260.567, 45431.00
1261.642, 45659.00
1262.716, 45725.00
1263.790, 45708.00
1264.864, 45807.00
1265.938, 45626.00
1267.011, 45897.00
1268.085, 45645.00
1269.158, 45888.00
1270.231, 45588.00
1271.304, 45551.00
1272.377, 45900.00
1273.450, 46190.00
