##NAMES=Talc
##RRUFFID=R050087
##IDEAL CHEMISTRY=Mg_3_Si_4_O_10_(OH)_2_
##LOCALITY=St. Lawrence County, New York, USA
##OWNER=RRUFF
##SOURCE=University of Arizona Mineral Museum
##DESCRIPTION=An aggregate of colorless foliated coarse single crystals
##STATUS=The identification of this mineral has been confirmed by X-ray diffraction and chemical analysis
##URL=rruff.info/R050087
##MEASURED CHEMISTRY=(Mg_.998_Fe_.002_)_3_(Si_.997_Al_.003_)_4_O_10_(OH_.966_F_.034_)_2_
##PIN_ID=M00180
##ORIENTATION=Laser parallel to b* (0 1 0). Fiducial mark perpendicular to laser is parallel to c [0 0 1]
93.48000, 13298.00
94.71400, 14027.00
95.94800, 14473.00
97.18200, 15016.00
98.41600, 15342.00
99.64900, 16269.00
100.8830, 16975.00
102.1160, 18024.00
103.3490, 18903.00
104.5820, 19659.00
105.8150, 20675.00
107.0470, 21862.00
108.2800, 23247.00
109.5120, 23403.00
110.7440, 22130.00
111.9760, 21007.00
113.2080, 20617.00
114.4400, 20676.00
115.6710, 20054.00
116.9030, 19222.00
118.1340, 18050.00
119.3650, 17287.00
120.5960, 16567.00
121.8270, 16241.00
123.0580, 16001.00
124.2880, 15745.00
125.5190, 15699.00
126.7490, 15628.00
127.9790, 15772.00
129.2090, 15989.00
130.4390, 16112.00
131.6680, 16118.00
132.8980, 15994.00
134.1270, 16303.00
135.3560, 16307.00
136.5850, 16231.00
137.8140, 16574.00
139.0430, 16720.00
140.2710, 16747.00
141.5000, 16844.00
142.7280, 17004.00
143.9560, 16891.00
145.1840, 16749.00
146.4120, 16995.00
147.6390, 16793.00
148.8670, 16746.00
150.0940, 16693.00
151.3210, 16665.00
152.5490, 16710.00
153.7750, 16559.00
155.0020, 16496.00
156.2290, 16546.00
157.4550, 16743.00
158.6810, 16508.00
159.9080, 16766.00
161.1340, 16714.00
162.3590, 16851.00
163.5850, 16751.00
164.8110, 16721.00
166.0360, 16994.00
167.2610, 17241.00
168.4860, 17014.00
169.7110, 17220.00
170.9360, 17237.00
172.1610, 17242.00
173.3850, 17471.00
174.6100, 17364.00
175.8340, 17425.00
177.0580, 17740.00
178.2820, 17783.00
179.5050, 18046.00
180.7290, 18803.00
181.9520, 19803.00
183.1760, 22060.00
184.3990, 25530.00
185.6220, 29551.00
186.8450, 31123.00
188.0670, 35048.87
189.2900, 34078.00
190.5120, 41172.00
191.7340, 47538.00
192.9560, 50312.00
194.1780, 47082.00
195.4000, 42258.00
196.6220, 36869.00
197.8430, 30406.00
199.0640, 25206.00
200.2860, 22060.00
201.5070, 20418.00
202.7270, 19566.00
203.9480, 18965.00
205.1690, 18604.00
206.3890, 18200.00
207.6090, 18169.00
208.8290, 18015.00
210.0490, 17937.00
211.2690, 17950.00
212.4890, 17975.00
213.7080, 18110.00
214.9280, 18154.00
216.1470, 18071.00
217.3660, 18142.00
218.5850, 18089.00
219.8030, 18131.00
221.0220, 18293.00
222.2400, 18228.00
223.4590, 18433.00
224.6770, 18420.00
225.8950, 18642.00
227.1120, 18780.00
228.3300, 18832.00
229.5480, 18661.00
230.7650, 18539.00
231.9820, 18502.00
233.1990, 18418.00
234.4160, 18393.36
235.6330, 18292.00
236.8490, 18404.00
238.0660, 18415.00
239.2820, 18497.00
240.4980, 18387.00
241.7140, 18518.00
242.9300, 18526.00
244.1460, 18382.00
245.3610, 18445.00
246.5770, 18363.00
247.7920, 18642.00
249.0070, 18641.00
250.2220, 18612.00
251.4370, 18562.00
252.6510, 18727.00
253.8660, 18506.00
255.0800, 18692.00
256.2940, 18364.00
257.5080, 18646.00
258.7220, 18811.00
259.9360, 19028.00
261.1490, 19031.00
262.3630, 18918.00
263.5760, 18860.00
264.7890, 18970.00
266.0020, 19011.00
267.2150, 18815.00
268.4270, 18907.00
269.6400, 18852.00
270.8520, 19017.00
272.0640, 19142.00
273.2760, 19131.00
274.4880, 19261.00
275.7000, 19180.00
276.9120, 19304.00
278.1230, 19421.00
279.3340, 19463.00
280.5450, 19688.26
281.7560, 20057.00
282.9670, 20095.00
284.1780, 20307.00
285.3880, 20487.00
286.5980, 21215.00
287.8090, 21498.00
289.0190, 21435.00
290.2290, 21052.00
291.4380, 20921.00
292.6480, 20792.00
293.8570, 20184.00
295.0670, 20003.00
296.2760, 20009.00
297.4850, 19885.00
298.6930, 19922.00
299.9020, 20098.00
301.1110, 19997.00
302.3190, 20066.00
303.5270, 20031.00
304.7350, 19936.00
305.9430, 19875.00
307.1510, 19904.00
308.3580, 19920.00
309.5660, 19806.00
310.7730, 19859.00
311.9800, 19785.00
313.1870, 19902.00
314.3940, 20097.00
315.6010, 20010.00
316.8070, 20225.00
318.0130, 20817.00
319.2200, 20495.62
320.4260, 21266.00
321.6310, 20264.00
322.8370, 20284.00
324.0430, 20325.00
325.2480, 20410.00
326.4540, 20580.00
327.6590, 20627.00
328.8640, 20973.00
330.0680, 20997.00
331.2730, 20997.00
332.4780, 21019.00
333.6820, 20945.00
334.8860, 20955.00
336.0900, 21093.00
337.2940, 20884.00
338.4980, 21097.00
339.7010, 20713.00
340.9050, 21137.00
342.1080, 21170.00
343.3110, 21160.00
344.5140, 21410.00
345.7170, 21373.00
346.9200, 21710.00
348.1220, 21874.00
349.3240, 22292.00
350.5270, 22694.00
351.7290, 23338.00
352.9310, 23781.00
354.1320, 24810.00
355.3340, 25633.00
356.5350, 26200.00
357.7370, 27388.00
358.9380, 28142.00
360.1390, 28832.00
361.3400, 28834.00
362.5400, 28184.00
363.7410, 27068.00
364.9410, 26108.00
366.1410, 24934.00
367.3410, 23968.00
368.5410, 23354.00
369.7410, 22810.00
370.9400, 22293.00
372.1400, 22071.00
373.3390, 22031.00
374.5380, 22146.00
375.7370, 21793.00
376.9360, 22018.00
378.1350, 22190.00
379.3330, 21994.00
380.5310, 22102.00
381.7300, 22026.00
382.9280, 21890.00
384.1260, 21942.00
385.3230, 21851.00
386.5210, 21559.00
387.7180, 21565.00
388.9160, 21450.00
390.1130, 21679.00
391.3100, 21556.00
392.5060, 21720.00
393.7030, 21581.00
394.9000, 21491.00
396.0960, 21635.00
397.2920, 21706.00
398.4880, 21576.00
399.6840, 21737.00
400.8800, 21842.00
402.0750, 21578.00
403.2710, 21694.00
404.4660, 21817.00
405.6610, 21981.00
406.8560, 21800.00
408.0510, 21879.00
409.2450, 21803.00
410.4400, 22033.00
411.6340, 21783.00
412.8280, 21835.00
414.0220, 22027.00
415.2160, 21993.00
416.4100, 22032.00
417.6030, 22016.00
418.7970, 22046.10
419.9900, 22238.00
421.1830, 22189.00
422.3760, 22444.00
423.5690, 22699.00
424.7610, 22791.00
425.9540, 23059.00
427.1460, 23271.00
428.3380, 23615.00
429.5300, 23989.00
430.7220, 24061.00
431.9140, 24365.00
433.1050, 24117.00
434.2970, 23758.00
435.4880, 23420.00
436.6790, 23281.00
437.8700, 22917.00
439.0610, 23093.00
440.2510, 22696.00
441.4420, 22822.00
442.6320, 23037.00
443.8220, 22895.00
445.0120, 22901.00
446.2020, 23079.00
447.3910, 23241.00
448.5810, 23477.00
449.7700, 23463.00
450.9600, 23540.00
452.1490, 23692.00
453.3370, 23795.00
454.5260, 23425.00
455.7150, 23370.00
456.9030, 23452.00
458.0910, 23497.00
459.2800, 23492.00
460.4670, 23708.00
461.6550, 23805.00
462.8430, 23992.00
464.0300, 24236.00
465.2180, 24533.00
466.4050, 24701.00
467.5920, 24932.00
468.7790, 24610.00
469.9650, 24328.00
471.1520, 24246.00
472.3380, 23759.00
473.5250, 23616.00
474.7110, 23567.00
475.8970, 24114.00
477.0820, 24126.00
478.2680, 24532.00
479.4540, 24549.00
480.6390, 24808.00
481.8240, 24367.00
483.0090, 24079.00
484.1940, 23639.00
485.3780, 23425.00
486.5630, 23476.00
487.7470, 23376.00
488.9320, 23443.00
490.1160, 23535.00
491.3000, 23481.00
492.4830, 23438.00
493.6670, 23602.00
494.8500, 23751.00
496.0340, 23566.00
497.2170, 23670.00
498.4000, 24037.00
499.5820, 23844.00
500.7650, 23930.00
501.9480, 23842.00
503.1300, 23990.00
504.3120, 23933.00
505.4940, 24070.00
506.6760, 24100.00
507.8580, 24155.00
509.0390, 24190.00
510.2210, 24098.00
511.4020, 24103.00
512.5830, 24147.00
513.7640, 24216.00
514.9450, 24096.00
516.1250, 24247.00
517.3060, 24277.00
518.4860, 24312.00
519.6660, 24164.00
520.8460, 24368.00
522.0260, 24170.00
523.2060, 24203.00
524.3850, 24292.00
525.5650, 24372.00
526.7440, 24191.00
527.9230, 24342.00
529.1020, 24251.00
530.2810, 24362.00
531.4590, 24383.00
532.6380, 24264.00
533.8160, 24587.00
534.9940, 24416.00
536.1720, 24460.00
537.3500, 24681.00
538.5270, 24511.00
539.7050, 24570.00
540.8820, 24555.00
542.0590, 24578.00
543.2360, 24548.00
544.4130, 24618.00
545.5900, 24838.00
546.7660, 24686.00
547.9430, 24507.00
549.1190, 24730.00
550.2950, 24822.00
551.4710, 24930.00
552.6470, 24827.00
553.8220, 24912.00
554.9980, 24985.00
556.1730, 24914.00
557.3480, 24969.00
558.5230, 24844.00
559.6980, 24753.00
560.8730, 25095.00
562.0470, 25050.00
563.2220, 25033.00
564.3960, 25234.00
565.5700, 25210.00
566.7440, 25081.00
567.9170, 25203.00
569.0910, 25358.00
570.2640, 25255.00
571.4380, 25292.00
572.6110, 25301.00
573.7840, 25470.00
574.9570, 25328.00
576.1290, 25405.00
577.3020, 25515.00
578.4740, 25450.00
579.6460, 25294.00
580.8180, 25523.00
581.9900, 25476.00
583.1620, 25577.00
584.3330, 25559.00
585.5040, 25558.00
586.6760, 25656.00
587.8470, 25711.00
589.0180, 25841.00
590.1880, 25796.00
591.3590, 25618.00
592.5290, 25662.00
593.7000, 25817.00
594.8700, 25558.00
596.0400, 25749.00
597.2090, 25800.00
598.3790, 25834.00
599.5490, 26023.00
600.7180, 25791.00
601.8870, 25977.00
603.0560, 25687.00
604.2250, 25837.00
605.3940, 25999.00
606.5620, 26319.00
607.7300, 26169.00
608.8990, 26255.00
610.0670, 26324.00
611.2350, 26185.00
612.4020, 26473.00
613.5700, 26109.00
614.7370, 26234.00
615.9050, 26289.00
617.0720, 26187.00
618.2390, 26398.00
619.4060, 26407.00
620.5720, 26562.00
621.7390, 26571.00
622.9050, 26514.00
624.0710, 26626.00
625.2370, 26634.00
626.4030, 26447.00
627.5690, 26715.00
628.7340, 26981.00
629.9000, 26920.00
631.0650, 26910.00
632.2300, 26794.00
633.3950, 26904.00
634.5600, 26982.00
635.7240, 27109.00
636.8890, 27161.00
638.0530, 27175.00
639.2170, 27325.00
640.3810, 27360.62
641.5450, 27333.00
642.7080, 27542.00
643.8720, 27470.00
645.0350, 27611.00
646.1980, 27492.00
647.3610, 27661.00
648.5240, 27881.00
649.6870, 27851.00
650.8490, 28100.00
652.0120, 28344.00
653.1740, 28197.00
654.3360, 28252.00
655.4980, 28790.00
656.6600, 28888.00
657.8210, 29218.00
658.9830, 29372.00
660.1440, 29853.00
661.3050, 30192.00
662.4660, 31004.00
663.6270, 31906.00
664.7870, 33002.00
665.9480, 34624.00
667.1080, 36211.00
668.2680, 38451.00
669.4280, 40791.00
670.5880, 43466.00
671.7480, 46195.00
672.9070, 48523.00
674.0670, 49984.00
675.2260, 50750.00
676.3850, 50746.00
677.5440, 49023.00
678.7030, 46400.00
679.8610, 43347.00
681.0200, 40777.00
682.1780, 38316.00
683.3360, 36368.00
684.4940, 34717.00
685.6520, 33592.00
686.8090, 32321.00
687.9670, 31862.00
689.1240, 31098.00
690.2810, 30725.00
691.4380, 30225.00
692.5950, 30158.00
693.7520, 29935.00
694.9080, 29544.00
696.0650, 29283.00
697.2210, 29176.00
698.3770, 29139.00
699.5330, 29148.00
700.6880, 29013.00
701.8440, 29033.00
702.9990, 28960.07
704.1550, 28994.00
705.3100, 28861.00
706.4650, 28819.00
707.6190, 28797.00
708.7740, 28777.00
709.9290, 28933.00
711.0830, 28830.00
712.2370, 28848.00
713.3910, 28925.00
714.5450, 28835.00
715.6980, 29131.00
716.8520, 28771.00
718.0050, 28620.00
719.1580, 29055.00
720.3110, 28981.00
721.4640, 28848.00
722.6170, 29052.00
723.7700, 29066.00
724.9220, 29213.00
726.0740, 28770.00
727.2260, 28964.00
728.3780, 28990.00
729.5300, 29089.00
730.6810, 29215.00
731.8330, 29283.00
732.9840, 29273.00
734.1350, 29174.00
735.2860, 29174.00
736.4370, 29350.00
737.5880, 29177.00
738.7380, 29185.00
739.8880, 29092.00
741.0390, 29300.00
742.1890, 29388.00
743.3380, 29368.29
744.4880, 29453.00
745.6380, 29412.00
746.7870, 29435.00
747.9360, 29520.00
749.0850, 29557.00
750.2340, 29383.00
751.3830, 29585.00
752.5310, 29789.00
753.6800, 29498.00
754.8280, 29589.00
755.9760, 29590.00
757.1240, 29682.00
758.2720, 29820.00
759.4190, 29836.00
760.5670, 29668.00
761.7140, 29919.00
762.8610, 29821.00
764.0080, 29619.00
765.1550, 29920.00
766.3020, 30139.00
767.4480, 29979.00
768.5950, 29935.00
769.7410, 29869.00
770.8870, 30113.00
772.0330, 29922.00
773.1780, 30197.00
774.3240, 30040.00
775.4690, 30324.00
776.6140, 30129.00
777.7590, 30419.00
778.9040, 30425.00
780.0490, 30506.00
781.1940, 30595.00
782.3380, 30576.00
783.4820, 30994.00
784.6260, 31025.00
785.7700, 31126.00
786.9140, 31228.00
788.0580, 31174.00
789.2010, 31278.00
790.3450, 31324.98
791.4880, 31253.00
792.6310, 31394.00
793.7730, 31287.00
794.9160, 31171.00
796.0590, 31204.00
797.2010, 31130.00
798.3430, 31079.00
799.4850, 30930.00
800.6270, 30816.00
801.7690, 30867.00
802.9100, 30754.00
804.0520, 30752.00
805.1930, 30729.96
806.3340, 30731.00
807.4750, 30724.00
808.6160, 30753.00
809.7560, 30845.00
810.8970, 31025.00
812.0370, 30865.00
813.1770, 30846.00
814.3170, 31026.00
815.4570, 31073.00
816.5960, 31083.00
817.7360, 30965.00
818.8750, 31071.00
820.0140, 31118.00
821.1530, 31028.00
822.2920, 31260.00
823.4310, 31308.00
824.5690, 31340.00
825.7070, 31425.63
826.8460, 31300.00
827.9840, 31494.00
829.1220, 31346.00
830.2590, 31413.00
831.3970, 31294.00
832.5340, 31312.00
833.6710, 31488.00
834.8080, 31488.00
835.9450, 31575.00
837.0820, 31690.00
838.2190, 31863.00
839.3550, 31616.00
840.4910, 31666.00
841.6270, 31881.00
842.7630, 31673.00
843.8990, 31712.00
845.0350, 31826.00
846.1700, 31738.00
847.3060, 31541.00
848.4410, 31939.00
849.5760, 31739.00
850.7100, 31825.00
851.8450, 31912.00
852.9800, 32009.00
854.1140, 31906.00
855.2480, 31815.00
856.3820, 32128.00
857.5160, 31949.00
858.6500, 31957.00
859.7830, 32044.00
860.9170, 32095.00
862.0500, 32114.21
863.1830, 32069.00
864.3160, 32160.00
865.4480, 32141.16
866.5810, 32199.03
867.7130, 32202.00
868.8460, 32308.00
869.9780, 32419.00
871.1100, 32461.00
872.2410, 32285.00
873.3730, 32483.00
874.5050, 32335.00
875.6360, 32457.00
876.7670, 32689.00
877.8980, 32526.00
879.0290, 32668.00
880.1590, 32503.00
881.2900, 32689.00
882.4200, 32541.00
883.5500, 32857.00
884.6800, 32761.00
885.8100, 32808.00
886.9400, 32768.00
888.0690, 32775.00
889.1990, 32858.00
890.3280, 32773.00
891.4570, 32863.00
892.5860, 32961.00
893.7140, 32979.00
894.8430, 32895.00
895.9710, 33039.00
897.1000, 32992.00
898.2280, 32840.00
899.3560, 32954.00
900.4830, 33246.00
901.6110, 32901.00
902.7380, 33322.00
903.8660, 33330.00
904.9930, 33131.00
906.1200, 33224.00
907.2460, 33261.00
908.3730, 33364.00
909.5000, 33350.00
910.6260, 33233.00
911.7520, 33413.00
912.8780, 33348.00
914.0040, 33520.00
915.1290, 33533.00
916.2550, 33628.00
917.3800, 33542.00
918.5050, 33512.00
919.6300, 33537.00
920.7550, 33746.00
921.8800, 33752.00
923.0040, 33956.00
924.1290, 33560.00
925.2530, 33641.00
926.3770, 33861.00
927.5010, 33691.00
928.6250, 34067.00
929.7480, 33899.00
930.8720, 33776.00
931.9950, 33930.00
933.1180, 33956.00
934.2410, 33921.00
935.3640, 34004.00
936.4860, 34207.00
937.6090, 34051.00
938.7310, 34217.00
939.8530, 34045.00
940.9750, 33967.00
942.0970, 34315.00
943.2180, 34269.00
944.3400, 34220.00
945.4610, 34260.00
946.5820, 34543.00
947.7030, 34335.00
948.8240, 34568.00
949.9450, 34508.00
951.0650, 34458.00
952.1860, 34637.00
953.3060, 34813.00
954.4260, 34641.00
955.5460, 34571.00
956.6650, 34745.00
957.7850, 34760.00
958.9040, 34871.00
960.0230, 35033.00
961.1420, 34860.00
962.2610, 34693.00
963.3800, 34924.00
964.4990, 34908.00
965.6170, 34869.00
966.7350, 34726.00
967.8530, 34773.00
968.9710, 35093.00
970.0890, 34935.00
971.2070, 34993.00
972.3240, 34903.00
973.4410, 35280.00
974.5580, 35025.00
975.6750, 35380.00
976.7920, 35186.00
977.9090, 35276.00
979.0250, 35366.00
980.1410, 35426.00
981.2580, 35465.00
982.3740, 35610.00
983.4890, 35391.00
984.6050, 35604.00
985.7200, 35644.00
986.8360, 35934.00
987.9510, 35670.00
989.0660, 35841.00
990.1810, 35713.00
991.2950, 35812.00
992.4100, 35724.00
993.5240, 36074.00
994.6390, 35875.00
995.7530, 35961.00
996.8660, 36023.00
997.9800, 35761.00
999.0940, 36086.00
1000.207, 36204.00
1001.320, 36334.00
1002.433, 36227.00
1003.546, 36179.00
1004.659, 36231.00
1005.772, 36517.00
1006.884, 36519.00
1007.996, 36596.00
1009.108, 36901.00
1010.220, 36795.00
1011.332, 36926.00
1012.444, 37113.00
1013.555, 37298.00
1014.666, 37528.00
1015.777, 37814.00
1016.888, 37962.00
1017.999, 37894.00
1019.110, 37619.00
1020.220, 37785.00
1021.331, 37700.00
1022.441, 37424.00
1023.551, 37351.00
1024.661, 37228.53
1025.770, 36948.00
1026.880, 37103.00
1027.989, 36969.00
1029.098, 37026.00
1030.207, 37096.00
1031.316, 37001.00
1032.425, 36975.00
1033.533, 37076.00
1034.642, 37210.00
1035.750, 37513.00
1036.858, 37299.00
1037.966, 37339.00
1039.073, 37866.00
1040.181, 37497.00
1041.288, 38204.00
1042.396, 38162.00
1043.503, 38117.00
1044.610, 38641.00
1045.716, 39462.00
1046.823, 39927.00
1047.929, 40624.00
1049.036, 40907.00
1050.142, 41321.00
1051.248, 41338.00
1052.353, 41161.00
1053.459, 40275.00
1054.564, 39825.00
1055.670, 39632.00
1056.775, 38924.00
1057.880, 38613.00
1058.985, 38706.00
1060.089, 38302.00
1061.194, 37981.00
1062.298, 38303.00
1063.402, 38013.00
1064.506, 38250.00
1065.610, 38506.00
1066.713, 38084.00
1067.817, 38165.00
1068.920, 38169.00
1070.023, 38190.00
1071.126, 38103.00
1072.229, 38164.00
1073.332, 38218.00
1074.435, 38267.00
1075.537, 38129.00
1076.639, 38357.00
1077.741, 37911.00
1078.843, 38182.00
1079.945, 38177.00
1081.046, 38199.00
1082.148, 38368.00
1083.249, 38266.00
1084.350, 38466.00
1085.451, 38545.00
1086.551, 38373.00
1087.652, 38594.00
1088.752, 38590.00
1089.853, 38532.00
1090.953, 38651.00
1092.053, 38506.00
1093.152, 38462.00
1094.252, 38478.00
1095.351, 38586.00
1096.451, 38585.00
1097.550, 38860.00
1098.649, 38620.00
1099.748, 38712.00
1100.846, 38928.00
1101.945, 38458.00
1103.043, 38766.00
1104.141, 38818.00
1105.239, 39016.00
1106.337, 38803.00
1107.434, 39046.00
1108.532, 38844.00
1109.629, 38907.00
1110.726, 38729.00
1111.823, 38804.00
1112.920, 38949.00
1114.017, 39123.00
1115.113, 39228.00
1116.210, 39170.00
1117.306, 39399.00
1118.402, 39450.00
1119.498, 39495.00
1120.593, 39672.00
1121.689, 39535.00
1122.784, 39687.00
1123.879, 39611.00
1124.974, 39891.00
1126.069, 39665.00
1127.164, 39934.00
1128.259, 39567.00
1129.353, 39461.00
1130.447, 39693.00
1131.541, 39837.00
1132.635, 39484.00
1133.729, 39550.00
1134.822, 39774.00
1135.916, 39536.00
1137.009, 39776.00
1138.102, 39611.00
1139.195, 39554.00
1140.288, 39735.00
1141.380, 39774.00
1142.473, 40064.00
1143.565, 39887.00
1144.657, 40167.00
1145.749, 40177.00
1146.841, 39991.00
1147.932, 40222.00
1149.024, 39837.00
1150.115, 39901.00
1151.206, 39984.00
1152.297, 40124.00
1153.388, 40187.00
1154.479, 40255.00
1155.569, 40283.26
1156.659, 40304.32
1157.750, 40297.79
1158.839, 40262.00
1159.929, 40297.00
1161.019, 40274.37
1162.108, 40271.00
1163.198, 40282.05
1164.287, 40306.00
1165.376, 40348.00
1166.465, 40539.00
1167.553, 40493.00
1168.642, 40622.26
1169.730, 40570.00
1170.818, 40717.00
1171.906, 40801.00
1172.994, 40694.00
1174.082, 40936.00
1175.170, 40725.00
1176.257, 40838.00
1177.344, 40856.00
1178.431, 40549.00
1179.518, 40991.00
1180.605, 40877.00
1181.691, 40941.00
1182.778, 40931.00
1183.864, 41078.00
1184.950, 41047.31
1186.036, 41026.00
1187.122, 41036.00
1188.207, 41028.88
1189.292, 41256.00
1190.378, 41118.00
1191.463, 41149.00
1192.548, 41346.00
1193.632, 41214.00
1194.717, 40976.00
1195.801, 41547.00
1196.886, 41427.00
1197.970, 41165.00
1199.054, 41466.00
1200.137, 41284.00
1201.221, 41610.00
1202.305, 41413.00
1203.388, 41370.00
1204.471, 41480.00
1205.554, 41596.00
1206.637, 41616.00
1207.719, 41584.00
1208.802, 41679.50
1209.884, 41541.00
1210.966, 41799.00
1212.048, 41733.00
1213.130, 41808.00
1214.212, 41589.00
1215.293, 41787.00
1216.374, 41771.00
1217.456, 41913.00
1218.536, 41688.00
1219.617, 41971.00
1220.698, 42054.00
1221.778, 41824.00
1222.859, 42054.00
1223.939, 41871.00
1225.019, 41924.00
1226.099, 42185.00
1227.178, 41991.00
1228.258, 42106.00
1229.337, 42195.00
1230.417, 42262.00
1231.496, 42174.00
1232.574, 42149.00
1233.653, 42164.00
1234.732, 42200.00
1235.810, 42326.00
1236.888, 42491.00
1237.966, 42455.00
1239.044, 42270.00
1240.122, 42470.00
1241.199, 42563.00
1242.277, 42649.00
1243.354, 42914.00
1244.431, 42585.00
1245.508, 42300.00
1246.585, 42763.00
1247.661, 42657.00
1248.738, 42720.00
1249.814, 42777.00
1250.890, 42739.00
1251.966, 42879.50
1253.042, 42817.98
1254.117, 43082.00
1255.193, 42877.00
1256.268, 42897.00
1257.343, 43186.00
1258.418, 42884.00
1259.493, 43120.00
1260.567, 43285.00
1261.642, 43267.00
1262.716, 43169.00
1263.790, 43212.00
1264.864, 43314.00
1265.938, 43324.00
1267.011, 43379.00
1268.085, 43379.14
1269.158, 43232.00
1270.231, 43376.00
1271.304, 43321.00
