##NAMES=Talc
##RRUFFID=R050087
##IDEAL CHEMISTRY=Mg_3_Si_4_O_10_(OH)_2_
##LOCALITY=St. Lawrence County, New York, USA
##OWNER=RRUFF
##SOURCE=University of Arizona Mineral Museum
##DESCRIPTION=An aggregate of colorless foliated coarse single crystals
##STATUS=The identification of this mineral has been confirmed by X-ray diffraction and chemical analysis
##URL=rruff.info/R050087
##MEASURED CHEMISTRY=(Mg_.998_Fe_.002_)_3_(Si_.997_Al_.003_)_4_O_10_(OH_.966_F_.034_)_2_
##PIN_ID=M00271
##ORIENTATION=Laser parallel to (0 -1 -1). Fiducial mark perpendicular to laser is parallel to a [1 0 0]
92.24600, 14459.00
93.48000, 14818.00
94.71400, 15433.00
95.94800, 16240.00
97.18200, 16845.00
98.41600, 17459.00
99.64900, 18191.00
100.8830, 19358.00
102.1160, 21091.00
103.3490, 22846.00
104.5820, 23616.00
105.8150, 23351.00
107.0470, 22574.00
108.2800, 22570.00
109.5120, 23149.00
110.7440, 22989.00
111.9760, 22057.00
113.2080, 21392.00
114.4400, 21322.00
115.6710, 20287.03
116.9030, 20204.00
118.1340, 18806.00
119.3650, 17975.00
120.5960, 17367.00
121.8270, 16949.00
123.0580, 16658.00
124.2880, 16446.00
125.5190, 16339.00
126.7490, 16276.00
127.9790, 16164.00
129.2090, 16226.00
130.4390, 16297.00
131.6680, 16337.00
132.8980, 16168.00
134.1270, 16417.00
135.3560, 16354.00
136.5850, 16383.00
137.8140, 16550.00
139.0430, 16393.00
140.2710, 16646.00
141.5000, 16641.00
142.7280, 16634.00
143.9560, 16600.00
145.1840, 16681.00
146.4120, 16578.00
147.6390, 16597.00
148.8670, 16704.00
150.0940, 16560.00
151.3210, 16645.00
152.5490, 16721.00
153.7750, 16827.00
155.0020, 16721.00
156.2290, 16703.00
157.4550, 16843.00
158.6810, 16745.19
159.9080, 16849.00
161.1340, 16687.00
162.3590, 16828.00
163.5850, 16774.00
164.8110, 16805.00
166.0360, 17070.00
167.2610, 16873.00
168.4860, 16900.00
169.7110, 17189.00
170.9360, 16976.00
172.1610, 17315.00
173.3850, 17082.00
174.6100, 17210.00
175.8340, 17338.00
177.0580, 17397.00
178.2820, 17439.00
179.5050, 17683.00
180.7290, 18004.00
181.9520, 18359.00
183.1760, 19428.00
184.3990, 21331.00
185.6220, 23657.00
186.8450, 25599.00
188.0670, 25983.00
189.2900, 27504.00
190.5120, 32935.00
191.7340, 38312.00
192.9560, 43055.00
194.1780, 41784.00
195.4000, 36007.00
196.6220, 31903.00
197.8430, 29112.00
199.0640, 26110.00
200.2860, 22975.00
201.5070, 20420.00
202.7270, 19262.00
203.9480, 18801.00
205.1690, 18421.00
206.3890, 18260.00
207.6090, 18026.00
208.8290, 17987.00
210.0490, 18016.00
211.2690, 18063.00
212.4890, 18061.00
213.7080, 18099.00
214.9280, 18016.00
216.1470, 18151.00
217.3660, 18156.00
218.5850, 18276.00
219.8030, 18240.00
221.0220, 18347.00
222.2400, 18487.00
223.4590, 18570.00
224.6770, 18507.00
225.8950, 18957.00
227.1120, 19201.00
228.3300, 19216.00
229.5480, 19187.00
230.7650, 18804.00
231.9820, 18749.00
233.1990, 18640.00
234.4160, 18702.00
235.6330, 18499.00
236.8490, 18616.00
238.0660, 18446.00
239.2820, 18367.00
240.4980, 18488.00
241.7140, 18457.00
242.9300, 18456.00
244.1460, 18591.00
245.3610, 18456.00
246.5770, 18707.00
247.7920, 18584.00
249.0070, 18572.00
250.2220, 18673.00
251.4370, 18700.00
252.6510, 18717.00
253.8660, 18856.00
255.0800, 18783.00
256.2940, 18654.00
257.5080, 18912.00
258.7220, 18784.00
259.9360, 18926.00
261.1490, 19144.00
262.3630, 18985.00
263.5760, 18975.00
264.7890, 18943.00
266.0020, 18903.00
267.2150, 19033.00
268.4270, 19115.00
269.6400, 19100.00
270.8520, 19229.00
272.0640, 19090.00
273.2760, 19014.00
274.4880, 19219.00
275.7000, 19247.00
276.9120, 19278.00
278.1230, 19441.00
279.3340, 19496.00
280.5450, 19845.00
281.7560, 20219.00
282.9670, 20548.00
284.1780, 20760.00
285.3880, 21004.00
286.5980, 22052.00
287.8090, 22859.00
289.0190, 23378.00
290.2290, 22885.00
291.4380, 21833.00
292.6480, 20957.00
293.8570, 20753.00
295.0670, 20565.00
296.2760, 20153.00
297.4850, 19991.00
298.6930, 19790.00
299.9020, 19899.00
301.1110, 19746.00
302.3190, 19986.00
303.5270, 19893.00
304.7350, 19840.00
305.9430, 19716.00
307.1510, 19859.00
308.3580, 19937.00
309.5660, 19709.00
310.7730, 19885.00
311.9800, 19870.00
313.1870, 19934.00
314.3940, 19978.00
315.6010, 20052.00
316.8070, 20089.00
318.0130, 20109.00
319.2200, 20018.00
320.4260, 20280.00
321.6310, 20022.00
322.8370, 20435.00
324.0430, 20577.00
325.2480, 20409.00
326.4540, 20654.00
327.6590, 21040.00
328.8640, 21287.00
330.0680, 21396.00
331.2730, 21512.00
332.4780, 21436.00
333.6820, 21489.00
334.8860, 21221.00
336.0900, 21282.00
337.2940, 21061.00
338.4980, 21141.00
339.7010, 21261.00
340.9050, 21106.00
342.1080, 21185.00
343.3110, 21389.00
344.5140, 21512.00
345.7170, 21793.00
346.9200, 21927.00
348.1220, 22259.00
349.3240, 22447.00
350.5270, 23088.00
351.7290, 23601.00
352.9310, 24740.00
354.1320, 25522.00
355.3340, 26696.00
356.5350, 27572.00
357.7370, 28913.00
358.9380, 30206.00
360.1390, 31215.00
361.3400, 31687.00
362.5400, 31216.00
363.7410, 29683.00
364.9410, 28403.00
366.1410, 26641.00
367.3410, 25697.00
368.5410, 24525.00
369.7410, 23577.00
370.9400, 23015.00
372.1400, 22537.00
373.3390, 22542.00
374.5380, 22335.00
375.7370, 22294.00
376.9360, 22177.00
378.1350, 22136.33
379.3330, 22156.00
380.5310, 22101.00
381.7300, 22110.00
382.9280, 22076.00
384.1260, 21959.00
385.3230, 21958.00
386.5210, 21673.00
387.7180, 21729.00
388.9160, 21706.00
390.1130, 21612.53
391.3100, 21775.00
392.5060, 21618.00
393.7030, 21577.00
394.9000, 21710.00
396.0960, 21803.00
397.2920, 21583.00
398.4880, 21907.00
399.6840, 21547.00
400.8800, 21741.00
402.0750, 21745.00
403.2710, 21711.00
404.4660, 21654.00
405.6610, 21850.00
406.8560, 21594.00
408.0510, 21786.00
409.2450, 21936.00
410.4400, 21841.00
411.6340, 22038.00
412.8280, 21911.00
414.0220, 22001.00
415.2160, 21839.00
416.4100, 21905.00
417.6030, 21891.00
418.7970, 21964.25
419.9900, 22150.00
421.1830, 22241.00
422.3760, 22485.00
423.5690, 22710.00
424.7610, 23026.00
425.9540, 23390.00
427.1460, 23713.00
428.3380, 23734.00
429.5300, 24705.00
430.7220, 25138.00
431.9140, 25287.00
433.1050, 25496.00
434.2970, 24828.00
435.4880, 24321.00
436.6790, 23749.00
437.8700, 23330.00
439.0610, 23071.04
440.2510, 22940.00
441.4420, 22810.00
442.6320, 22849.00
443.8220, 22864.02
445.0120, 22971.00
446.2020, 23110.00
447.3910, 23296.00
448.5810, 23541.00
449.7700, 23567.00
450.9600, 23720.00
452.1490, 23696.00
453.3370, 23728.00
454.5260, 23679.00
455.7150, 23482.00
456.9030, 23675.00
458.0910, 23685.00
459.2800, 23827.00
460.4670, 23992.00
461.6550, 23987.00
462.8430, 24162.00
464.0300, 24486.00
465.2180, 24821.00
466.4050, 25035.00
467.5920, 25043.00
468.7790, 25036.00
469.9650, 24748.00
471.1520, 24425.00
472.3380, 24055.00
473.5250, 24020.00
474.7110, 23645.00
475.8970, 23517.00
477.0820, 23385.00
478.2680, 23389.00
479.4540, 23337.60
480.6390, 23406.00
481.8240, 23359.00
483.0090, 23425.00
484.1940, 23453.00
485.3780, 23450.08
486.5630, 23495.00
487.7470, 23486.00
488.9320, 23562.00
490.1160, 23611.00
491.3000, 23630.25
492.4830, 23653.00
493.6670, 23625.00
494.8500, 23693.00
496.0340, 23552.00
497.2170, 23582.00
498.4000, 23866.00
499.5820, 23833.00
500.7650, 23765.00
501.9480, 24198.00
503.1300, 24190.00
504.3120, 24059.00
505.4940, 24220.00
506.6760, 24519.00
507.8580, 24221.00
509.0390, 24448.00
510.2210, 24303.00
511.4020, 24441.00
512.5830, 24384.00
513.7640, 24298.00
514.9450, 24584.00
516.1250, 24424.00
517.3060, 24676.00
518.4860, 24556.00
519.6660, 24431.00
520.8460, 24635.00
522.0260, 24622.00
523.2060, 24451.00
524.3850, 24419.00
525.5650, 24258.00
526.7440, 24400.00
527.9230, 24416.00
529.1020, 24463.00
530.2810, 24506.91
531.4590, 24418.00
532.6380, 24509.00
533.8160, 24549.00
534.9940, 24484.00
536.1720, 24578.00
537.3500, 24264.00
538.5270, 24598.00
539.7050, 24589.00
540.8820, 24434.00
542.0590, 24691.00
543.2360, 24723.00
544.4130, 24597.00
545.5900, 24663.00
546.7660, 24638.00
547.9430, 24842.00
549.1190, 24797.00
550.2950, 24783.00
551.4710, 24677.00
552.6470, 24746.99
553.8220, 24726.00
554.9980, 24853.00
556.1730, 24844.96
557.3480, 24867.69
558.5230, 24895.00
559.6980, 24903.00
560.8730, 24957.00
562.0470, 25016.00
563.2220, 25137.00
564.3960, 25200.00
565.5700, 25202.33
566.7440, 25115.00
567.9170, 25197.00
569.0910, 25259.00
570.2640, 25309.00
571.4380, 25488.00
572.6110, 25236.00
573.7840, 25323.00
574.9570, 25431.00
576.1290, 25505.00
577.3020, 25509.16
578.4740, 25488.00
579.6460, 25497.00
580.8180, 25551.00
581.9900, 25587.00
583.1620, 25783.00
584.3330, 25628.00
585.5040, 25738.00
586.6760, 25871.00
587.8470, 25798.00
589.0180, 25886.00
590.1880, 25889.00
591.3590, 25939.00
592.5290, 25860.00
593.7000, 25824.00
594.8700, 25815.00
596.0400, 25846.00
597.2090, 25951.00
598.3790, 26100.00
599.5490, 26194.00
600.7180, 26254.07
601.8870, 26319.00
603.0560, 26309.00
604.2250, 26310.18
605.3940, 26267.00
606.5620, 26258.00
607.7300, 26210.00
608.8990, 26149.00
610.0670, 26357.00
611.2350, 26312.00
612.4020, 26536.00
613.5700, 26529.00
614.7370, 26730.00
615.9050, 26581.00
617.0720, 26748.00
618.2390, 27120.00
619.4060, 27142.00
620.5720, 27102.00
621.7390, 27215.00
622.9050, 27670.00
624.0710, 27455.00
625.2370, 27722.00
626.4030, 27716.00
627.5690, 27885.00
628.7340, 27768.00
629.9000, 27699.00
631.0650, 27459.00
632.2300, 27621.00
633.3950, 27390.00
634.5600, 27325.00
635.7240, 27625.00
636.8890, 27440.00
638.0530, 27651.00
639.2170, 27864.00
640.3810, 27918.00
641.5450, 27950.00
642.7080, 28027.00
643.8720, 28172.00
645.0350, 28199.00
646.1980, 28525.00
647.3610, 28361.00
648.5240, 28819.00
649.6870, 28587.00
650.8490, 28892.00
652.0120, 28967.00
653.1740, 29154.00
654.3360, 29215.00
655.4980, 29328.00
656.6600, 29712.00
657.8210, 29643.00
658.9830, 29963.00
660.1440, 30408.00
661.3050, 30902.00
662.4660, 32084.00
663.6270, 32609.00
664.7870, 34260.00
665.9480, 35542.00
667.1080, 37570.00
668.2680, 39967.00
669.4280, 42773.00
670.5880, 45991.00
671.7480, 49499.00
672.9070, 52317.00
674.0670, 55297.00
675.2260, 56665.00
676.3850, 57035.00
677.5440, 55552.00
678.7030, 52374.00
679.8610, 49477.00
681.0200, 45849.00
682.1780, 42350.00
683.3360, 39895.00
684.4940, 37568.00
685.6520, 35561.00
686.8090, 34405.00
687.9670, 33254.00
689.1240, 32170.00
690.2810, 31885.00
691.4380, 31040.00
692.5950, 30822.00
693.7520, 30277.00
694.9080, 30089.00
696.0650, 29733.00
697.2210, 29707.00
698.3770, 29535.00
699.5330, 29412.00
700.6880, 29245.00
701.8440, 29157.00
702.9990, 29201.00
704.1550, 28987.00
705.3100, 28879.00
706.4650, 28774.00
707.6190, 28941.00
708.7740, 28933.00
709.9290, 28870.00
711.0830, 28879.00
712.2370, 28860.00
713.3910, 28957.00
714.5450, 29053.00
715.6980, 28712.00
716.8520, 29056.00
718.0050, 28895.00
719.1580, 29113.00
720.3110, 28795.00
721.4640, 28949.00
722.6170, 29229.00
723.7700, 29009.00
724.9220, 29049.00
726.0740, 29123.00
727.2260, 29088.87
728.3780, 29142.43
729.5300, 29173.00
730.6810, 29223.00
731.8330, 29206.00
732.9840, 29320.00
734.1350, 29354.00
735.2860, 29368.00
736.4370, 29336.00
737.5880, 29446.00
738.7380, 29308.00
739.8880, 29679.00
741.0390, 29495.00
742.1890, 29420.00
743.3380, 29621.00
744.4880, 29461.00
745.6380, 29703.00
746.7870, 29550.00
747.9360, 29704.00
749.0850, 29818.00
750.2340, 29564.00
751.3830, 29644.00
752.5310, 29743.00
753.6800, 30041.00
754.8280, 29698.00
755.9760, 29887.00
757.1240, 29956.00
758.2720, 29959.00
759.4190, 29937.00
760.5670, 30000.00
761.7140, 30028.00
762.8610, 29993.00
764.0080, 30245.00
765.1550, 30067.00
766.3020, 30413.00
767.4480, 30148.00
768.5950, 30245.00
769.7410, 30305.00
770.8870, 30251.00
772.0330, 30753.00
773.1780, 30466.00
774.3240, 30410.00
775.4690, 30787.00
776.6140, 30665.00
777.7590, 30812.00
778.9040, 31192.00
780.0490, 31208.00
781.1940, 31466.00
782.3380, 31750.00
783.4820, 31955.00
784.6260, 32113.26
785.7700, 32257.46
786.9140, 32323.00
788.0580, 32381.00
789.2010, 32408.00
790.3450, 32331.00
791.4880, 32376.00
792.6310, 32183.00
793.7730, 32329.00
794.9160, 32188.00
796.0590, 32044.00
797.2010, 31928.00
798.3430, 31719.00
799.4850, 31513.00
800.6270, 31389.00
801.7690, 31456.00
802.9100, 31491.00
804.0520, 31378.00
805.1930, 31224.00
806.3340, 31604.00
807.4750, 31566.00
808.6160, 31574.00
809.7560, 31351.00
810.8970, 31352.00
812.0370, 31337.00
813.1770, 31467.00
814.3170, 31581.00
815.4570, 31706.00
816.5960, 31713.00
817.7360, 31938.00
818.8750, 31771.00
820.0140, 31883.00
821.1530, 31967.00
822.2920, 31650.00
823.4310, 31687.00
824.5690, 32037.00
825.7070, 31837.00
826.8460, 31848.00
827.9840, 32061.00
829.1220, 31922.00
830.2590, 32084.00
831.3970, 32027.00
832.5340, 32123.00
833.6710, 32014.00
834.8080, 32106.00
835.9450, 32241.00
837.0820, 32232.00
838.2190, 32387.00
839.3550, 32349.00
840.4910, 32282.00
841.6270, 32280.00
842.7630, 32554.00
843.8990, 32538.00
845.0350, 32620.00
846.1700, 32734.00
847.3060, 32605.00
848.4410, 32839.00
849.5760, 32649.00
850.7100, 32700.00
851.8450, 32573.00
852.9800, 33004.00
854.1140, 33133.00
855.2480, 33291.00
856.3820, 33178.00
857.5160, 33226.00
858.6500, 33287.00
859.7830, 33262.67
860.9170, 33448.00
862.0500, 33300.00
863.1830, 33497.00
864.3160, 33503.00
865.4480, 33537.00
866.5810, 33242.00
867.7130, 33446.00
868.8460, 33280.00
869.9780, 33478.00
871.1100, 33091.00
872.2410, 33262.00
873.3730, 33348.00
874.5050, 33441.00
875.6360, 33091.00
876.7670, 33371.00
877.8980, 33534.00
879.0290, 33281.00
880.1590, 33605.00
881.2900, 33480.00
882.4200, 33395.00
883.5500, 33405.00
884.6800, 33433.00
885.8100, 33384.00
886.9400, 33573.00
888.0690, 33602.00
889.1990, 33663.00
890.3280, 33802.00
891.4570, 33612.00
892.5860, 33693.00
893.7140, 33757.00
894.8430, 33862.00
895.9710, 33862.32
897.1000, 33760.00
898.2280, 33838.00
899.3560, 33874.00
900.4830, 33805.00
901.6110, 33915.00
902.7380, 33984.00
903.8660, 34068.00
904.9930, 33972.00
906.1200, 34215.00
907.2460, 34142.00
908.3730, 34259.00
909.5000, 34034.00
910.6260, 34146.00
911.7520, 34107.00
912.8780, 34073.00
914.0040, 34363.00
915.1290, 34149.00
916.2550, 34323.00
917.3800, 34091.00
918.5050, 34124.00
919.6300, 34391.00
920.7550, 34229.00
921.8800, 34304.00
923.0040, 34247.00
924.1290, 34312.00
925.2530, 34306.00
926.3770, 34237.00
927.5010, 34330.00
928.6250, 34332.00
929.7480, 34286.00
930.8720, 34396.40
931.9950, 34516.00
933.1180, 34553.00
934.2410, 34558.00
935.3640, 34640.00
936.4860, 34704.06
937.6090, 34652.00
938.7310, 34837.00
939.8530, 34839.00
940.9750, 34800.00
942.0970, 34795.00
943.2180, 34937.00
944.3400, 34638.00
945.4610, 34886.00
946.5820, 35018.00
947.7030, 34900.00
948.8240, 35255.00
949.9450, 34823.00
951.0650, 35280.00
952.1860, 35298.00
953.3060, 35099.00
954.4260, 35297.00
955.5460, 35151.00
956.6650, 35140.00
957.7850, 35473.00
958.9040, 35272.00
960.0230, 34971.00
961.1420, 35436.00
962.2610, 35305.00
963.3800, 35631.00
964.4990, 35328.00
965.6170, 35451.00
966.7350, 35234.00
967.8530, 35494.00
968.9710, 35378.00
970.0890, 35308.00
971.2070, 35456.00
972.3240, 35721.00
973.4410, 35454.00
974.5580, 35649.00
975.6750, 35585.00
976.7920, 35804.00
977.9090, 35431.00
979.0250, 35659.00
980.1410, 35613.00
981.2580, 35686.00
982.3740, 35960.00
983.4890, 36058.00
984.6050, 35943.00
985.7200, 35674.00
986.8360, 35962.00
987.9510, 36178.00
989.0660, 35925.00
990.1810, 36466.00
991.2950, 36072.00
992.4100, 36342.00
993.5240, 36281.00
994.6390, 36285.00
995.7530, 36306.00
996.8660, 36618.00
997.9800, 36488.00
999.0940, 36744.00
1000.207, 36953.00
1001.320, 37471.00
1002.433, 37463.00
1003.546, 37560.00
1004.659, 37144.00
1005.772, 36783.00
1006.884, 36946.00
1007.996, 36875.00
1009.108, 36900.00
1010.220, 37149.00
1011.332, 37197.00
1012.444, 37639.00
1013.555, 37887.00
1014.666, 37852.00
1015.777, 37985.00
1016.888, 38030.00
1017.999, 38088.01
1019.110, 38305.00
1020.220, 38095.00
1021.331, 38129.00
1022.441, 37836.00
1023.551, 38061.00
1024.661, 37884.00
1025.770, 37732.00
1026.880, 37677.00
1027.989, 37431.00
1029.098, 37451.00
1030.207, 37563.00
1031.316, 37718.00
1032.425, 37594.00
1033.533, 37612.00
1034.642, 37513.00
1035.750, 37590.00
1036.858, 37661.00
1037.966, 37655.00
1039.073, 37902.00
1040.181, 37821.00
1041.288, 37988.00
1042.396, 38114.00
1043.503, 38312.00
1044.610, 38453.00
1045.716, 38586.00
1046.823, 38747.00
1047.929, 39063.00
1049.036, 39510.00
1050.142, 39876.00
1051.248, 40350.00
1052.353, 39854.00
1053.459, 39960.00
1054.564, 39408.00
1055.670, 39369.00
1056.775, 38691.00
1057.880, 38920.00
1058.985, 38521.00
1060.089, 38363.00
1061.194, 38551.00
1062.298, 38461.00
1063.402, 38455.00
1064.506, 38617.00
1065.610, 38536.00
1066.713, 38568.00
1067.817, 38425.00
1068.920, 38569.00
1070.023, 38644.00
1071.126, 38566.20
1072.229, 38690.00
1073.332, 38524.00
1074.435, 38518.00
1075.537, 38562.00
1076.639, 38796.00
1077.741, 38715.00
1078.843, 39068.00
1079.945, 39037.00
1081.046, 39057.00
1082.148, 39254.00
1083.249, 39332.00
1084.350, 38995.00
1085.451, 39109.00
1086.551, 39137.00
1087.652, 39202.00
1088.752, 39153.00
1089.853, 39048.00
1090.953, 39249.00
1092.053, 39101.00
1093.152, 39314.00
1094.252, 39169.00
1095.351, 39179.00
1096.451, 39426.00
1097.550, 39400.00
1098.649, 39216.00
1099.748, 39228.00
1100.846, 39597.00
1101.945, 39400.00
1103.043, 39642.00
1104.141, 39360.00
1105.239, 39643.00
1106.337, 39492.00
1107.434, 39773.00
1108.532, 39367.00
1109.629, 39394.00
1110.726, 39484.00
1111.823, 39820.00
1112.920, 39817.00
1114.017, 39840.00
1115.113, 39815.00
1116.210, 39993.00
1117.306, 39977.00
1118.402, 40201.00
1119.498, 40240.00
1120.593, 40072.00
1121.689, 40104.00
1122.784, 40184.00
1123.879, 40258.00
1124.974, 40489.00
1126.069, 40330.00
1127.164, 40463.00
1128.259, 40367.00
1129.353, 40194.00
1130.447, 40475.00
1131.541, 40233.00
1132.635, 40638.00
1133.729, 40419.00
1134.822, 40397.00
1135.916, 40573.00
1137.009, 40567.00
1138.102, 40408.00
1139.195, 40389.00
1140.288, 40561.00
1141.380, 40219.00
1142.473, 40474.00
1143.565, 40647.00
1144.657, 40529.00
1145.749, 40645.00
1146.841, 40552.00
1147.932, 40676.00
1149.024, 40637.00
1150.115, 40777.00
1151.206, 40782.00
1152.297, 40780.00
1153.388, 40780.00
1154.479, 40878.00
1155.569, 41006.00
1156.659, 41005.00
1157.750, 41066.09
1158.839, 41093.80
1159.929, 41090.00
1161.019, 41125.00
1162.108, 41126.00
1163.198, 41159.00
1164.287, 41147.00
1165.376, 41060.00
1166.465, 41146.52
1167.553, 41567.00
1168.642, 41268.00
1169.730, 41586.00
1170.818, 41688.00
1171.906, 41122.00
1172.994, 41511.00
1174.082, 41693.00
1175.170, 41678.00
1176.257, 41678.00
1177.344, 41784.00
1178.431, 41829.00
1179.518, 41709.00
1180.605, 41823.00
1181.691, 41675.00
1182.778, 41851.00
1183.864, 41881.00
1184.950, 42132.00
1186.036, 41888.00
1187.122, 41923.00
1188.207, 41611.00
1189.292, 42075.00
1190.378, 42245.00
1191.463, 42006.00
1192.548, 41914.00
1193.632, 41994.00
1194.717, 41922.00
1195.801, 42284.00
1196.886, 42128.00
1197.970, 42238.00
1199.054, 42371.00
1200.137, 42175.00
1201.221, 42489.00
1202.305, 42651.00
1203.388, 42473.00
1204.471, 42339.00
1205.554, 42565.00
1206.637, 42406.00
1207.719, 42420.00
1208.802, 42521.00
1209.884, 42447.00
1210.966, 42313.00
1212.048, 42671.00
1213.130, 42836.00
1214.212, 42738.00
1215.293, 43140.00
1216.374, 42940.00
1217.456, 42770.00
1218.536, 43000.00
1219.617, 42939.00
1220.698, 43041.00
1221.778, 42976.00
1222.859, 42892.00
1223.939, 42988.00
1225.019, 43122.00
1226.099, 43182.00
1227.178, 43140.00
1228.258, 43127.00
1229.337, 43303.00
1230.417, 43164.00
1231.496, 43234.00
1232.574, 43336.00
1233.653, 43366.00
1234.732, 43339.00
1235.810, 43663.00
1236.888, 43453.00
1237.966, 43567.00
1239.044, 43850.00
1240.122, 43413.00
1241.199, 43862.00
1242.277, 43770.00
1243.354, 43964.00
1244.431, 44083.00
1245.508, 43882.00
1246.585, 43862.00
1247.661, 44028.00
1248.738, 43879.00
1249.814, 44088.00
1250.890, 44164.00
1251.966, 44103.00
1253.042, 44381.00
1254.117, 44116.00
1255.193, 44238.00
1256.268, 44177.00
1257.343, 44229.00
1258.418, 44353.00
1259.493, 44574.00
1260.567, 44398.00
1261.642, 44774.00
1262.716, 44456.00
1263.790, 44674.00
1264.864, 44591.00
1265.938, 44814.00
1267.011, 44980.00
1268.085, 44854.00
1269.158, 45191.00
1270.231, 44995.00
